"FZ"	"FC3"	"FCZ"	"FC4"	"C3"	"CZ"	"C4"	"CP3"	"CPZ"	"CP4"	"P3"	"PZ"	"P4"	"OZ"	"FP1"	"FP2"	"A2"	"P8"	"TP7"	"TP8"	"P7"
0.2797	0.8287	-0.4266	0.007	0.3532	-0.2028	-0.3777	0.5875	0.0839	-0.2133	0.3881	0.0629	-0.1713	-0.4965	-0.2867	-0.8462	1.0211	-0.7099	0.8777	-0.7903	0.8427
0.2693	0.9302	-0.4196	0.0175	0.3672	-0.2168	-0.3497	0.5525	0.0699	-0.2098	0.3602	0.0175	-0.1713	-0.5	-0.4406	-0.8812	0.9896	-0.7133	0.9092	-0.7973	0.8532
0.2028	0.9371	-0.4406	0.0315	0.3916	-0.2308	-0.3427	0.5315	0.028	-0.2098	0.3147	-0.0455	-0.2063	-0.4581	-0.5245	-0.9197	0.9476	-0.6994	0.8952	-0.7728	0.8252
0.1609	0.9162	-0.4686	0.0105	0.3392	-0.2588	-0.3217	0.4756	-0.0105	-0.2168	0.2553	-0.1259	-0.2518	-0.4476	-0.6189	-0.9651	0.9022	-0.6749	0.8777	-0.7448	0.7938
0.0979	0.8322	-0.493	-0.021	0.3007	-0.2867	-0.2867	0.4581	-0.0385	-0.1958	0.2168	-0.2133	-0.2658	-0.4196	-0.7308	-0.9931	0.8602	-0.6609	0.8672	-0.7203	0.7728
0.0035	0.6469	-0.57	-0.0629	0.1923	-0.3532	-0.2797	0.3846	-0.1189	-0.2273	0.1259	-0.2972	-0.3077	-0.4161	-0.8217	-1.0386	0.8427	-0.6574	0.8392	-0.7378	0.7099
-0.0559	0.4476	-0.6224	-0.1084	0.1189	-0.4126	-0.2762	0.3287	-0.1713	-0.2273	0.0734	-0.3742	-0.3357	-0.3986	-0.9057	-1.0735	0.8008	-0.6364	0.8217	-0.7308	0.6994
-0.1539	0.2203	-0.6924	-0.1678	0	-0.4616	-0.2553	0.2867	-0.2413	-0.2483	0	-0.4581	-0.3707	-0.3812	-0.9406	-1.0875	0.7658	-0.6259	0.8113	-0.7064	0.6714
-0.2133	-0.0105	-0.7448	-0.1748	-0.1014	-0.493	-0.2343	0.1958	-0.2902	-0.2378	-0.0699	-0.549	-0.4021	-0.3742	-1.0141	-1.1015	0.7483	-0.6084	0.7693	-0.6889	0.6504
-0.3077	-0.2902	-0.8427	-0.2413	-0.2588	-0.5735	-0.2483	0.0979	-0.3602	-0.2762	-0.1923	-0.6679	-0.4826	-0.3672	-1.049	-1.1085	0.7483	-0.6224	0.7168	-0.7064	0.6084
-0.3881	-0.5805	-0.9197	-0.2553	-0.3916	-0.6364	-0.2308	0.0175	-0.4721	-0.2937	-0.2693	-0.8078	-0.5245	-0.3672	-1.0805	-1.0945	0.7413	-0.6504	0.6749	-0.6994	0.5875
-0.535	-0.8637	-1.0281	-0.3322	-0.5525	-0.7238	-0.2553	-0.0769	-0.535	-0.3217	-0.3707	-0.8917	-0.5595	-0.3672	-1.105	-1.0875	0.7413	-0.6364	0.6189	-0.7099	0.556
-0.6049	-1.1085	-1.112	-0.3497	-0.6679	-0.7763	-0.2588	-0.1993	-0.6294	-0.3532	-0.4756	-1.0036	-0.6259	-0.3497	-1.1085	-1.0106	0.7099	-0.6469	0.5525	-0.7378	0.528
-0.6959	-1.3253	-1.1924	-0.3672	-0.8113	-0.8777	-0.3042	-0.2937	-0.7099	-0.3916	-0.5735	-1.1085	-0.6644	-0.3497	-1.1574	-0.9861	0.7168	-0.6504	0.4965	-0.7623	0.4826
-0.7763	-1.4652	-1.2693	-0.4371	-0.8917	-0.9057	-0.3147	-0.4021	-0.7973	-0.4056	-0.6714	-1.2029	-0.6994	-0.3427	-1.1609	-0.8917	0.6924	-0.6609	0.4511	-0.7728	0.4511
-0.8637	-1.6225	-1.3218	-0.493	-0.9966	-0.9931	-0.3812	-0.4965	-0.8952	-0.4651	-0.7728	-1.2938	-0.7623	-0.3182	-1.1714	-0.8078	0.6784	-0.6819	0.4091	-0.8217	0.4126
-0.9371	-1.64	-1.3603	-0.5805	-1.0316	-0.9966	-0.3916	-0.5595	-0.9406	-0.5105	-0.8357	-1.3917	-0.8183	-0.3147	-1.1784	-0.7483	0.6399	-0.6889	0.3567	-0.8392	0.3846
-0.9791	-1.6295	-1.4162	-0.6399	-1.0525	-1.0665	-0.4441	-0.6364	-1.0071	-0.5455	-0.9092	-1.4547	-0.8532	-0.2832	-1.1854	-0.6504	0.598	-0.7029	0.3112	-0.8777	0.3462
-1.0211	-1.5211	-1.4512	-0.7518	-1.084	-1.0945	-0.4965	-0.7029	-1.0386	-0.577	-0.9546	-1.5106	-0.9022	-0.2693	-1.1994	-0.5945	0.5595	-0.6854	0.2483	-0.8917	0.3357
-1.0735	-1.3987	-1.4582	-0.8322	-1.084	-1.1015	-0.5455	-0.7413	-1.07	-0.6189	-0.9721	-1.5666	-0.8987	-0.2518	-1.1749	-0.5595	0.5245	-0.6924	0.1993	-0.9441	0.3217
-1.0735	-1.2134	-1.4407	-0.8777	-1.049	-1.1015	-0.5945	-0.7448	-1.084	-0.6469	-0.9826	-1.6085	-0.9336	-0.2378	-1.1889	-0.4965	0.4965	-0.6819	0.1189	-0.9336	0.3112
-1.084	-0.9966	-1.4057	-0.9581	-0.9966	-1.056	-0.6504	-0.7413	-1.1085	-0.6854	-0.9651	-1.626	-0.9546	-0.2203	-1.1435	-0.4651	0.4581	-0.6819	0.0385	-0.9441	0.3042
-1.0805	-0.7588	-1.3742	-1.0386	-0.9267	-1.077	-0.6854	-0.6819	-1.0875	-0.7133	-0.9511	-1.6155	-0.9616	-0.2063	-1.1295	-0.4301	0.4406	-0.6679	-0.0175	-0.9511	0.2762
-1.07	-0.5525	-1.3183	-1.105	-0.8602	-1.0246	-0.7413	-0.6609	-1.0805	-0.7448	-0.9162	-1.6155	-0.9756	-0.1958	-1.063	-0.4161	0.4196	-0.6644	-0.0699	-0.9406	0.2762
-1.063	-0.3567	-1.2519	-1.147	-0.7798	-0.9931	-0.7833	-0.5595	-1.056	-0.7623	-0.8357	-1.5666	-0.9581	-0.1993	-0.9966	-0.3881	0.4056	-0.6364	-0.0664	-0.9616	0.2937
-1.0316	-0.1888	-1.2064	-1.1854	-0.6609	-0.9476	-0.8357	-0.4791	-1.0001	-0.7798	-0.7623	-1.5386	-0.9336	-0.1923	-0.9721	-0.3602	0.3881	-0.5945	-0.0804	-0.9302	0.3112
-1.0211	-0.049	-1.1225	-1.1959	-0.5455	-0.8917	-0.8532	-0.3777	-0.9406	-0.7798	-0.6819	-1.4687	-0.9022	-0.1748	-0.9092	-0.3217	0.3777	-0.5805	-0.0559	-0.9022	0.3182
-1.0281	0.014	-1.0805	-1.2169	-0.4861	-0.8462	-0.8602	-0.2832	-0.9022	-0.7833	-0.6154	-1.4162	-0.8777	-0.1958	-0.8672	-0.3567	0.3951	-0.563	-0.0455	-0.8882	0.3462
-0.9861	0.042	-1.0281	-1.2414	-0.3812	-0.7938	-0.8917	-0.1923	-0.8637	-0.7658	-0.5665	-1.3463	-0.8637	-0.2063	-0.8078	-0.3602	0.4161	-0.5455	-0.028	-0.8742	0.3462
-0.9931	0.0629	-0.9791	-1.2554	-0.2797	-0.7833	-0.9022	-0.1399	-0.8183	-0.7658	-0.5105	-1.2693	-0.8567	-0.2168	-0.7553	-0.3707	0.4476	-0.5455	-0.0525	-0.8427	0.3252
-0.9546	0.1119	-0.9022	-1.2029	-0.1853	-0.7064	-0.8812	-0.049	-0.7203	-0.7448	-0.4301	-1.1819	-0.8008	-0.2308	-0.6994	-0.3846	0.4651	-0.535	-0.0699	-0.8043	0.3217
-0.9197	0.1434	-0.8287	-1.1574	-0.0909	-0.6015	-0.8567	0.0175	-0.6679	-0.6994	-0.3462	-1.0735	-0.7798	-0.2343	-0.6434	-0.3846	0.4721	-0.528	-0.0525	-0.7763	0.3007
-0.9267	0.1189	-0.7868	-1.133	-0.0175	-0.528	-0.8322	0.0839	-0.577	-0.6749	-0.2762	-0.9931	-0.7168	-0.2343	-0.57	-0.3812	0.4861	-0.5245	-0.0874	-0.7623	0.3042
-0.8847	0.1539	-0.6924	-1.0386	0.0594	-0.4791	-0.7658	0.1469	-0.5105	-0.6015	-0.2273	-0.8847	-0.6749	-0.2413	-0.4826	-0.4091	0.4965	-0.5	-0.0979	-0.6959	0.2832
-0.8462	0.1434	-0.6329	-0.9791	0.1154	-0.4091	-0.6994	0.1643	-0.4266	-0.5665	-0.1748	-0.7728	-0.6224	-0.2623	-0.4406	-0.3916	0.528	-0.5105	-0.1014	-0.6924	0.2343
-0.7868	0.1713	-0.5315	-0.8777	0.2028	-0.3042	-0.6399	0.2238	-0.3042	-0.4791	-0.1189	-0.6294	-0.5595	-0.2623	-0.3602	-0.3881	0.5385	-0.4791	-0.0944	-0.6294	0.2308
-0.7343	0.1783	-0.4581	-0.7938	0.2762	-0.1993	-0.5175	0.2693	-0.2413	-0.3986	-0.049	-0.4896	-0.4826	-0.2693	-0.3077	-0.3846	0.528	-0.4581	-0.0979	-0.57	0.2273
-0.7133	0.1783	-0.3777	-0.6329	0.3112	-0.1154	-0.3916	0.3147	-0.1329	-0.3147	0.014	-0.3672	-0.3846	-0.2553	-0.1993	-0.3951	0.5315	-0.4266	-0.1329	-0.5	0.1783
-0.6434	0.1923	-0.3042	-0.493	0.3462	-0.0175	-0.2902	0.3392	-0.0315	-0.2378	0.0525	-0.2448	-0.3322	-0.2483	-0.1189	-0.3357	0.5175	-0.3812	-0.1888	-0.4371	0.1434
-0.591	0.1888	-0.2098	-0.3637	0.4056	0.0594	-0.1504	0.3567	0.0525	-0.1294	0.1259	-0.1049	-0.2238	-0.2483	-0.042	-0.3392	0.5035	-0.3462	-0.1643	-0.3812	0.1399
-0.535	0.1888	-0.1084	-0.1783	0.4231	0.1434	-0.0315	0.3881	0.1399	-0.0315	0.1609	0.0315	-0.1224	-0.2273	0.0629	-0.3112	0.4686	-0.2937	-0.1853	-0.2902	0.1189
-0.4511	0.1678	-0.0594	-0.0525	0.4231	0.2133	0.0909	0.3951	0.2028	0.0629	0.2343	0.1609	-0.0315	-0.2098	0.1224	-0.3112	0.4406	-0.2693	-0.1748	-0.2378	0.1154
-0.3881	0.1259	0.0035	0.0839	0.4126	0.2867	0.2098	0.4266	0.2693	0.1504	0.2728	0.2867	0.042	-0.1923	0.1923	-0.2518	0.3951	-0.2133	-0.1399	-0.1993	0.1399
-0.3077	0.0594	0.0594	0.1958	0.3951	0.3392	0.3287	0.4161	0.3322	0.2448	0.3077	0.3462	0.1084	-0.1713	0.2518	-0.1888	0.3567	-0.1783	-0.1154	-0.1643	0.1294
-0.2693	0	0.0874	0.2972	0.3602	0.3812	0.4231	0.4231	0.3812	0.2902	0.3287	0.4616	0.1713	-0.1539	0.2972	-0.1539	0.3217	-0.1399	-0.0105	-0.1049	0.1364
-0.2238	-0.1014	0.1259	0.3707	0.3007	0.3881	0.4861	0.3916	0.3916	0.3427	0.3532	0.535	0.2343	-0.1434	0.3637	-0.1014	0.2762	-0.1154	0.0525	-0.0874	0.1364
-0.1329	-0.1818	0.1678	0.3881	0.2832	0.4231	0.542	0.3777	0.4126	0.3846	0.3777	0.6119	0.3007	-0.1049	0.4336	-0.0629	0.2098	-0.0769	0.1818	-0.0455	0.1609
-0.0769	-0.2728	0.1748	0.4161	0.2063	0.4091	0.57	0.3392	0.4126	0.4196	0.3637	0.6714	0.3532	-0.0664	0.4686	-0.0105	0.1539	-0.021	0.2413	-0.028	0.1399
-0.0594	-0.3462	0.1958	0.4231	0.1504	0.4161	0.591	0.2762	0.4266	0.4336	0.3567	0.7273	0.3916	-0.0559	0.5105	0.0315	0.1189	-0.007	0.3532	-0.007	0.1329
-0.007	-0.4231	0.2308	0.4266	0.1119	0.4196	0.5805	0.2483	0.4476	0.4616	0.3532	0.7378	0.4546	-0.028	0.542	0.0909	0.0629	0.0175	0.4021	0.0455	0.1084
0.049	-0.4476	0.2658	0.4336	0.0874	0.4336	0.598	0.2448	0.4441	0.4965	0.4021	0.8183	0.5105	-0.014	0.584	0.1049	0.021	0.0804	0.4826	0.0839	0.0979
0.1329	-0.4721	0.2762	0.4266	0.0699	0.4091	0.563	0.2273	0.4581	0.4861	0.3881	0.8567	0.5315	0.0175	0.6084	0.1888	-0.021	0.1084	0.5035	0.1049	0.0664
0.1783	-0.4441	0.3182	0.4126	0.0699	0.4406	0.5385	0.2378	0.4581	0.493	0.3951	0.8987	0.577	0.0245	0.6189	0.2448	-0.035	0.1294	0.5245	0.1539	0.0385
0.2518	-0.4126	0.3672	0.3916	0.0979	0.4511	0.5	0.2483	0.4616	0.4965	0.3986	0.9336	0.6119	0.0629	0.6644	0.3042	-0.1084	0.1643	0.5245	0.1958	-0.028
0.2832	-0.3881	0.4161	0.3602	0.1014	0.4616	0.4686	0.2623	0.4756	0.4756	0.3951	0.9336	0.6364	0.0804	0.6994	0.3182	-0.1504	0.1678	0.5105	0.2238	-0.0699
0.3427	-0.3392	0.4231	0.3217	0.1294	0.4861	0.3846	0.2797	0.5035	0.4826	0.4091	0.9791	0.6679	0.1259	0.7133	0.3916	-0.2238	0.1783	0.4791	0.2728	-0.1224
0.3742	-0.2972	0.4511	0.2553	0.1329	0.4721	0.3252	0.2902	0.4861	0.4336	0.4056	0.9406	0.6504	0.1399	0.7064	0.4546	-0.2762	0.1888	0.4266	0.2762	-0.1748
0.4266	-0.1993	0.5175	0.2413	0.1993	0.5105	0.2867	0.3392	0.4965	0.3951	0.4161	0.9511	0.6504	0.1643	0.7238	0.4616	-0.3497	0.1958	0.3846	0.3112	-0.2063
0.4616	-0.1154	0.549	0.1993	0.2448	0.535	0.2273	0.3532	0.4896	0.3707	0.4161	0.9546	0.6679	0.2063	0.7448	0.5035	-0.4126	0.1958	0.3217	0.3462	-0.2273
0.4756	0.014	0.584	0.1434	0.2588	0.5385	0.1574	0.3881	0.5	0.3462	0.4091	0.9371	0.6574	0.2483	0.7658	0.5245	-0.4756	0.2273	0.2762	0.3532	-0.2728
0.514	0.1539	0.6294	0.1434	0.3392	0.57	0.1294	0.3916	0.5245	0.3602	0.4511	0.9686	0.6749	0.2762	0.7763	0.5315	-0.535	0.2588	0.2238	0.3812	-0.3112
0.57	0.3112	0.6889	0.1539	0.4056	0.6084	0.1329	0.4546	0.535	0.3392	0.4756	0.9581	0.6749	0.2972	0.7833	0.549	-0.5875	0.3287	0.1853	0.4056	-0.2658
0.6119	0.4861	0.7483	0.1574	0.493	0.6574	0.1119	0.4896	0.5945	0.3567	0.4965	0.9546	0.6959	0.3252	0.8078	0.5525	-0.6434	0.3742	0.1469	0.4616	-0.2728
0.6084	0.6399	0.7658	0.1294	0.5385	0.6644	0.0525	0.5	0.584	0.3287	0.4756	0.9197	0.6714	0.3217	0.8008	0.5315	-0.6504	0.4021	0.1084	0.4826	-0.2762
0.6084	0.7973	0.8217	0.1434	0.598	0.6924	0.0664	0.5035	0.6259	0.3497	0.514	0.9721	0.7029	0.3672	0.8322	0.549	-0.7238	0.4896	0.0909	0.542	-0.2728
0.6259	0.9197	0.8532	0.1574	0.6539	0.7133	0.0525	0.5105	0.6329	0.3182	0.4861	0.9721	0.7168	0.3777	0.8008	0.5595	-0.7483	0.542	-0.007	0.5665	-0.2902
0.6259	0.9791	0.8567	0.1643	0.6784	0.7203	0.0629	0.4721	0.6469	0.3322	0.4965	0.9791	0.7378	0.3916	0.8183	0.5805	-0.7938	0.6154	-0.0699	0.6049	-0.3182
0.6119	1.0036	0.8917	0.1539	0.6749	0.7064	0.028	0.4266	0.6574	0.3392	0.4896	0.9826	0.7308	0.4301	0.7938	0.5945	-0.8357	0.6889	-0.1678	0.6539	-0.3252
0.6364	1.0001	0.9022	0.2168	0.6574	0.7308	0.0769	0.3986	0.6574	0.3637	0.5035	0.9721	0.7378	0.4441	0.7483	0.598	-0.8847	0.7623	-0.2728	0.7029	-0.3602
0.6399	0.9896	0.8952	0.2203	0.6119	0.7133	0.0629	0.3812	0.6784	0.3742	0.5245	0.9651	0.7588	0.4616	0.7273	0.6294	-0.9302	0.8148	-0.3672	0.7483	-0.3986
0.6329	0.9686	0.8882	0.2273	0.5945	0.6994	0.1189	0.3252	0.6539	0.3602	0.521	0.9336	0.7413	0.4861	0.6574	0.6644	-0.9616	0.8672	-0.5315	0.8008	-0.4336
0.6294	1.0141	0.8847	0.2518	0.57	0.6504	0.1154	0.3007	0.6399	0.3707	0.5035	0.9371	0.7413	0.5105	0.6224	0.6784	-0.9966	0.8917	-0.6714	0.8567	-0.4756
0.6329	1.0455	0.8917	0.3182	0.556	0.6749	0.1923	0.2378	0.6294	0.3951	0.5245	0.9197	0.7518	0.535	0.5805	0.7343	-1.042	0.9651	-0.8078	0.8882	-0.5
0.6154	1.119	0.8917	0.3357	0.521	0.6504	0.2308	0.2273	0.6574	0.4056	0.5105	0.9162	0.7378	0.549	0.5595	0.7378	-1.091	0.9861	-0.9371	0.9092	-0.5455
0.6574	1.1749	0.9162	0.3916	0.5595	0.6259	0.3042	0.2063	0.6329	0.4091	0.5105	0.8707	0.7238	0.5665	0.535	0.7553	-1.126	0.9826	-1.0875	0.9546	-0.6015
0.6609	1.2204	0.9092	0.4511	0.563	0.6119	0.3532	0.1818	0.6189	0.4336	0.5	0.8567	0.7168	0.5735	0.528	0.7553	-1.1365	0.9861	-1.1924	0.9581	-0.591
0.7064	1.3043	0.9686	0.4965	0.6119	0.6259	0.4231	0.1678	0.6329	0.4686	0.4896	0.8287	0.7029	0.57	0.514	0.7588	-1.1435	0.9721	-1.2903	0.9791	-0.6399
0.7413	1.3707	0.9791	0.535	0.6679	0.6154	0.4826	0.1713	0.6364	0.4791	0.4756	0.8148	0.6749	0.577	0.5	0.7518	-1.1365	0.9791	-1.3603	1.0176	-0.6504
0.7728	1.4302	1.0106	0.6119	0.7099	0.6259	0.5525	0.1504	0.6749	0.5105	0.4686	0.8043	0.6819	0.57	0.4686	0.7553	-1.1295	0.9651	-1.3847	1.0246	-0.6294
0.7763	1.4337	1.0141	0.6854	0.7029	0.6049	0.5735	0.1294	0.6364	0.528	0.4441	0.7763	0.6854	0.563	0.4686	0.7728	-1.105	0.9651	-1.3638	1.049	-0.6469
0.8183	1.4267	1.0036	0.7518	0.7064	0.6189	0.6329	0.1189	0.6539	0.542	0.3916	0.7693	0.6784	0.5455	0.4826	0.7413	-1.077	0.9616	-1.3043	1.077	-0.6224
0.8008	1.3078	1.0316	0.8392	0.6469	0.5805	0.6679	0.0734	0.6015	0.5315	0.3707	0.7273	0.6434	0.5105	0.4861	0.6959	-1.0246	0.9232	-1.2134	1.1015	-0.6084
0.8113	1.1504	0.9966	0.9197	0.57	0.5735	0.7099	0.0035	0.5945	0.5455	0.3357	0.6994	0.6329	0.4965	0.4546	0.6959	-0.9791	0.9057	-1.098	1.119	-0.5665
0.7693	0.9546	0.9581	0.9616	0.4406	0.521	0.7413	-0.0769	0.5455	0.5525	0.2728	0.6574	0.5805	0.4511	0.4476	0.6084	-0.8707	0.8567	-0.9756	1.105	-0.5595
0.7588	0.7833	0.9371	1.0176	0.3602	0.4896	0.7833	-0.1224	0.4965	0.549	0.2378	0.6434	0.584	0.4091	0.4091	0.6015	-0.7903	0.8252	-0.8287	1.105	-0.5175
0.7448	0.5735	0.9092	1.098	0.2693	0.4511	0.8148	-0.1818	0.4406	0.5315	0.1678	0.5875	0.5315	0.3637	0.3846	0.598	-0.6994	0.7973	-0.6714	1.07	-0.4791
0.7238	0.3637	0.8602	1.0665	0.1609	0.4161	0.8252	-0.2588	0.4091	0.514	0.1014	0.521	0.5	0.3112	0.3602	0.563	-0.598	0.7273	-0.5	1.0176	-0.4406
0.6994	0.1818	0.8287	1.0945	0.0525	0.3672	0.8183	-0.2937	0.3532	0.4896	0.0629	0.4965	0.4301	0.2832	0.3357	0.563	-0.521	0.6889	-0.3042	0.9721	-0.4056
0.6854	-0.0385	0.7658	1.0805	-0.0594	0.3217	0.7798	-0.3672	0.2937	0.4336	-0.014	0.4231	0.3567	0.2203	0.3007	0.563	-0.4336	0.6189	-0.1713	0.9092	-0.3602
0.6294	-0.2343	0.7099	1.0316	-0.1748	0.2413	0.7378	-0.4301	0.2343	0.3951	-0.0769	0.3322	0.3042	0.1923	0.2902	0.563	-0.3567	0.556	0.0105	0.8322	-0.3287
0.584	-0.4441	0.6294	0.9581	-0.3112	0.1818	0.6574	-0.514	0.1713	0.3392	-0.1434	0.2658	0.2378	0.1539	0.2937	0.549	-0.2937	0.4791	0.1574	0.7343	-0.2937
0.514	-0.6644	0.57	0.8742	-0.4406	0.1259	0.591	-0.584	0.0979	0.2588	-0.2063	0.1818	0.1713	0.1294	0.3042	0.5455	-0.2343	0.4231	0.2728	0.6819	-0.2588
0.5	-0.8322	0.514	0.8183	-0.5315	0.0455	0.493	-0.6224	0.0245	0.1783	-0.2797	0.1224	0.0979	0.1014	0.2937	0.5525	-0.1643	0.3287	0.3672	0.6154	-0.2413
0.4896	-0.9931	0.4441	0.7343	-0.6049	-0.0035	0.3951	-0.6819	-0.0385	0.0979	-0.3322	0.0455	0.0385	0.0874	0.3357	0.5665	-0.1539	0.2902	0.3986	0.535	-0.2238
0.4301	-1.1155	0.3986	0.598	-0.6959	-0.0525	0.2797	-0.7308	-0.1049	0	-0.3812	-0.0385	-0.0839	0.0559	0.3497	0.577	-0.1049	0.2168	0.3812	0.4896	-0.2098
0.3707	-1.2309	0.3007	0.4546	-0.7728	-0.1329	0.1329	-0.7868	-0.1993	-0.1294	-0.4406	-0.1294	-0.1818	0.0315	0.3707	0.5175	-0.0455	0.1364	0.3357	0.3812	-0.2413
0.2937	-1.2938	0.2273	0.3077	-0.8078	-0.1748	-0.0035	-0.7938	-0.2728	-0.2518	-0.4861	-0.2203	-0.2797	0.007	0.3846	0.4861	-0.0035	0.0664	0.2553	0.3287	-0.2448
0.2693	-1.3428	0.1958	0.1993	-0.7973	-0.2448	-0.1748	-0.8078	-0.3287	-0.3707	-0.542	-0.3007	-0.3742	0.007	0.4371	0.4686	0.0175	-0.007	0.1713	0.2728	-0.2728
0.2168	-1.3218	0.1189	0.0874	-0.7798	-0.2623	-0.2902	-0.8287	-0.3916	-0.4826	-0.5665	-0.3777	-0.4546	-0.014	0.4791	0.4161	0.0525	-0.0839	0.1014	0.2168	-0.2972
0.1783	-1.2658	0.1084	-0.0175	-0.7623	-0.3147	-0.4091	-0.8392	-0.4616	-0.5805	-0.5875	-0.4686	-0.5525	-0.021	0.521	0.3637	0.0734	-0.1364	-0.0175	0.1504	-0.3462
0.1469	-1.2134	0.042	-0.1154	-0.7378	-0.3112	-0.5	-0.8287	-0.4965	-0.6784	-0.6294	-0.549	-0.6784	-0.042	0.57	0.2867	0.1084	-0.2098	-0.0839	0.1154	-0.4161
0.0874	-1.1225	0.0035	-0.2168	-0.7168	-0.3567	-0.5875	-0.8357	-0.542	-0.7833	-0.6679	-0.6224	-0.7658	-0.0594	0.6294	0.2343	0.1469	-0.2937	-0.1539	0.0455	-0.4546
0.0455	-1.0525	0.0035	-0.2448	-0.6819	-0.3846	-0.6819	-0.8602	-0.591	-0.8812	-0.6959	-0.7064	-0.8602	-0.0874	0.6784	0.1539	0.1713	-0.3497	-0.2413	-0.007	-0.4756
0.028	-0.9581	-0.0105	-0.3357	-0.6609	-0.3916	-0.7378	-0.8637	-0.6434	-0.9616	-0.7378	-0.7833	-0.9371	-0.1014	0.7203	0.1189	0.2028	-0.4021	-0.2728	-0.0734	-0.528
0.0245	-0.8812	-0.028	-0.4056	-0.6259	-0.4476	-0.8183	-0.8952	-0.6889	-1.056	-0.7833	-0.8672	-1.0106	-0.1119	0.7588	0.0944	0.2308	-0.4965	-0.3077	-0.1364	-0.563
-0.0315	-0.7973	-0.0385	-0.4441	-0.6329	-0.4581	-0.8672	-0.9092	-0.7133	-1.1295	-0.7868	-0.9302	-1.105	-0.1119	0.8183	0.0245	0.2448	-0.556	-0.2972	-0.1818	-0.5665
-0.0559	-0.7623	-0.0839	-0.5525	-0.6539	-0.514	-0.9546	-0.9371	-0.7973	-1.2169	-0.8148	-1.0001	-1.1994	-0.1469	0.8078	-0.014	0.2972	-0.6504	-0.3007	-0.2937	-0.598
-0.0699	-0.6539	-0.0699	-0.57	-0.6399	-0.521	-1.0246	-0.9302	-0.8078	-1.2728	-0.8532	-1.056	-1.2658	-0.1643	0.8287	-0.0594	0.3252	-0.7273	-0.2937	-0.3462	-0.598
-0.0734	-0.5315	-0.049	-0.6154	-0.6015	-0.521	-1.07	-0.9511	-0.8497	-1.3638	-0.8567	-1.126	-1.3393	-0.1678	0.8357	-0.0734	0.3707	-0.7973	-0.2902	-0.4336	-0.6224
-0.042	-0.3602	-0.007	-0.5875	-0.5245	-0.521	-1.077	-0.8987	-0.8322	-1.3707	-0.8357	-1.1504	-1.3638	-0.1888	0.7868	-0.0525	0.3986	-0.7973	-0.2623	-0.4546	-0.598
-0.028	-0.1189	0.0175	-0.6119	-0.4231	-0.5175	-1.0875	-0.8427	-0.8252	-1.4057	-0.8148	-1.1889	-1.4057	-0.2238	0.7798	-0.0525	0.4301	-0.8847	-0.2832	-0.5105	-0.5875
0.0175	0.1539	0.0769	-0.5245	-0.2797	-0.4651	-1.0595	-0.7448	-0.7903	-1.3812	-0.7343	-1.1539	-1.4127	-0.2203	0.7588	0	0.4546	-0.8952	-0.3077	-0.5385	-0.584
0.035	0.4651	0.1399	-0.542	-0.0909	-0.4371	-1.0595	-0.6434	-0.7658	-1.3742	-0.6784	-1.1784	-1.4162	-0.2553	0.6994	0.0175	0.528	-0.9476	-0.3637	-0.598	-0.577
0.0699	0.7693	0.1888	-0.5665	0.0664	-0.3846	-1.0735	-0.5175	-0.7308	-1.3707	-0.6154	-1.1539	-1.4407	-0.3077	0.6294	0.0385	0.6049	-0.9896	-0.4511	-0.6434	-0.5385
0.1259	1.091	0.2797	-0.521	0.2728	-0.3392	-1.056	-0.3532	-0.6819	-1.3673	-0.5385	-1.14	-1.4267	-0.3322	0.6119	0.0559	0.6714	-1.0386	-0.5035	-0.6819	-0.5
0.1329	1.3463	0.3287	-0.521	0.4651	-0.2902	-1.0176	-0.2203	-0.6329	-1.3323	-0.4126	-1.1085	-1.3987	-0.3742	0.5315	0.0769	0.7553	-1.0735	-0.5385	-0.6959	-0.4686
0.0874	1.5701	0.3322	-0.521	0.598	-0.2832	-1.0106	-0.0734	-0.598	-1.3253	-0.3112	-1.0875	-1.3917	-0.4546	0.4476	0.035	0.8882	-1.1155	-0.563	-0.7553	-0.4301
0.0944	1.7064	0.3707	-0.5385	0.7099	-0.2483	-0.9791	0.0385	-0.5455	-1.3078	-0.2343	-1.0525	-1.3603	-0.5105	0.3567	0	1.0141	-1.147	-0.5805	-0.8008	-0.3881
0.0525	1.7379	0.3881	-0.5735	0.7833	-0.2448	-0.9406	0.1364	-0.5175	-1.2938	-0.1818	-1.0351	-1.3707	-0.556	0.2728	-0.035	1.112	-1.1924	-0.6015	-0.8392	-0.3392
-0.0315	1.7134	0.3462	-0.591	0.8217	-0.2658	-0.9092	0.2168	-0.4756	-1.2554	-0.1049	-1.0211	-1.3358	-0.6224	0.2098	-0.1364	1.2414	-1.2169	-0.6015	-0.8917	-0.2553
-0.1014	1.6015	0.2972	-0.6084	0.7868	-0.2972	-0.8952	0.2448	-0.4896	-1.2379	-0.0455	-1.0281	-1.3533	-0.6924	0.1469	-0.2308	1.3777	-1.2484	-0.577	-0.9092	-0.1993
-0.2063	1.4267	0.2448	-0.6504	0.7273	-0.3567	-0.8917	0.2797	-0.4896	-1.2519	-0.021	-1.0036	-1.3498	-0.7658	0.0664	-0.3707	1.5281	-1.2973	-0.577	-0.9581	-0.1119
-0.2762	1.2309	0.2098	-0.6749	0.6609	-0.4161	-0.8567	0.2832	-0.5105	-1.2239	0.028	-1.0106	-1.3323	-0.8322	-0.007	-0.4861	1.6575	-1.3393	-0.528	-1.0036	-0.049
-0.3532	0.9931	0.1294	-0.7064	0.591	-0.4686	-0.8707	0.2937	-0.5175	-1.2274	0.0804	-0.9966	-1.2938	-0.8917	-0.0594	-0.6224	1.7834	-1.3428	-0.4616	-1.0316	0.028
-0.4616	0.7378	0.0559	-0.7378	0.5	-0.542	-0.8567	0.2797	-0.549	-1.2344	0.0944	-0.9756	-1.2658	-0.9267	-0.0979	-0.7168	1.8743	-1.3568	-0.4126	-1.07	0.0979
-0.556	0.4406	-0.028	-0.8183	0.3777	-0.6399	-0.8707	0.2273	-0.577	-1.2274	0.1154	-0.9546	-1.2728	-0.9896	-0.1609	-0.8252	1.9652	-1.3777	-0.3497	-1.119	0.1609
-0.6504	0.1294	-0.1574	-0.8462	0.2203	-0.7413	-0.8812	0.1609	-0.584	-1.2449	0.1049	-0.9826	-1.2658	-1.0106	-0.1958	-0.8952	2.0212	-1.3987	-0.2623	-1.1435	0.2168
-0.7343	-0.1958	-0.2343	-0.9092	0.0769	-0.8217	-0.9127	0.1119	-0.591	-1.2554	0.1329	-0.9791	-1.2554	-1.049	-0.2553	-0.9721	2.0666	-1.4057	-0.1609	-1.1714	0.2902
-0.8322	-0.5805	-0.3672	-0.9756	-0.0664	-0.9336	-0.9686	0.007	-0.6364	-1.2658	0.1224	-0.9686	-1.2519	-1.0455	-0.2972	-0.9686	2.0876	-1.3847	-0.0839	-1.2029	0.3392
-0.9267	-0.9302	-0.4861	-1.042	-0.2168	-0.9791	-1.0141	-0.0734	-0.6539	-1.2763	0.1084	-0.9651	-1.2239	-1.0455	-0.3007	-1.0246	2.0771	-1.3987	0.028	-1.1959	0.3986
-1.0281	-1.2449	-0.57	-1.1435	-0.3916	-1.126	-1.091	-0.1783	-0.7273	-1.3323	0.0944	-0.9476	-1.2099	-1.0316	-0.3427	-0.9756	2.0561	-1.4127	0.1399	-1.2449	0.4581
-1.098	-1.5421	-0.6539	-1.2519	-0.528	-1.2344	-1.14	-0.3147	-0.7973	-1.3498	0.0734	-0.9371	-1.2064	-1.0001	-0.3846	-0.9371	2.0107	-1.4337	0.2553	-1.2589	0.4896
-1.1889	-1.8078	-0.7833	-1.3812	-0.7064	-1.3323	-1.2064	-0.4686	-0.8497	-1.3777	0.007	-0.9441	-1.1994	-0.9791	-0.3951	-0.9267	1.9477	-1.4547	0.3777	-1.3183	0.5175
-1.2414	-2.0002	-0.8392	-1.4477	-0.8322	-1.3987	-1.2414	-0.6049	-0.8882	-1.4162	-0.007	-0.9441	-1.1994	-0.9267	-0.4231	-0.8217	1.8358	-1.4512	0.5105	-1.3428	0.542
-1.2833	-2.189	-0.9057	-1.5001	-0.9861	-1.4547	-1.2693	-0.7448	-0.9022	-1.4022	-0.0315	-0.9127	-1.1714	-0.8742	-0.4126	-0.7868	1.7449	-1.4791	0.6015	-1.4092	0.549
-1.3218	-2.3534	-0.9721	-1.598	-1.1015	-1.5561	-1.3288	-0.8742	-0.9791	-1.4372	-0.0629	-0.9162	-1.1714	-0.8252	-0.4091	-0.7343	1.6365	-1.5386	0.6889	-1.4966	0.556
-1.3043	-2.4722	-0.9966	-1.619	-1.1889	-1.5701	-1.3323	-0.9791	-0.9896	-1.4302	-0.0699	-0.8812	-1.133	-0.7483	-0.3951	-0.6434	1.5001	-1.5596	0.8078	-1.5141	0.5735
-1.3288	-2.5771	-1.0106	-1.6295	-1.2693	-1.6015	-1.3323	-1.0805	-1.0211	-1.4197	-0.0944	-0.8777	-1.133	-0.7064	-0.3846	-0.57	1.3847	-1.5806	0.8602	-1.5666	0.5735
-1.3008	-2.6226	-1.0141	-1.6505	-1.3428	-1.6575	-1.3393	-1.1714	-1.077	-1.4162	-0.1434	-0.8672	-1.1295	-0.6399	-0.3322	-0.507	1.2693	-1.619	0.9651	-1.619	0.556
-1.2868	-2.6786	-1.0281	-1.647	-1.3882	-1.6785	-1.3603	-1.2414	-1.077	-1.4197	-0.1189	-0.8462	-1.105	-0.591	-0.3147	-0.4161	1.1609	-1.64	1.0211	-1.6575	0.5385
-1.2623	-2.7135	-1.0106	-1.633	-1.4372	-1.7064	-1.3777	-1.3043	-1.105	-1.4057	-0.1539	-0.8217	-1.1015	-0.5245	-0.2832	-0.3392	1.0735	-1.668	1.042	-1.696	0.514
-1.1994	-2.7275	-1.0211	-1.647	-1.4722	-1.7204	-1.3917	-1.3568	-1.14	-1.3777	-0.1224	-0.7973	-1.0805	-0.4896	-0.2623	-0.2902	0.9721	-1.696	1.1015	-1.7169	0.5175
-1.1994	-2.7065	-1.0211	-1.682	-1.4687	-1.7554	-1.4022	-1.3673	-1.1609	-1.3777	-0.1294	-0.7728	-1.063	-0.4371	-0.2168	-0.2378	0.8847	-1.689	1.1085	-1.7204	0.4965
-1.1504	-2.6681	-1.0141	-1.689	-1.4722	-1.7834	-1.4302	-1.3498	-1.1784	-1.3707	-0.1014	-0.7343	-1.056	-0.3951	-0.1713	-0.2028	0.7938	-1.6994	1.112	-1.7239	0.5035
-1.1155	-2.5667	-1.0106	-1.7309	-1.4442	-1.7939	-1.4791	-1.3533	-1.2239	-1.3847	-0.0839	-0.7029	-1.0525	-0.3462	-0.1154	-0.1469	0.7064	-1.64	1.126	-1.7169	0.4965
-1.0945	-2.4268	-1.0071	-1.7799	-1.3533	-1.8183	-1.5351	-1.2763	-1.2239	-1.3882	-0.0245	-0.6714	-1.042	-0.2972	-0.0629	-0.0979	0.6329	-1.619	1.077	-1.6785	0.4861
-1.042	-2.2519	-0.9861	-1.8183	-1.2728	-1.8253	-1.619	-1.2344	-1.2379	-1.4512	0	-0.6469	-1.0665	-0.2797	0	-0.0629	0.563	-1.591	1.042	-1.647	0.4756
-1.0001	-2.0177	-0.9791	-1.8673	-1.126	-1.7974	-1.661	-1.1225	-1.2519	-1.4547	0.1049	-0.584	-1.0525	-0.2483	0.0734	-0.0245	0.493	-1.5106	0.9511	-1.5666	0.5
-0.9127	-1.7309	-0.9197	-1.8988	-0.9931	-1.7589	-1.689	-0.9931	-1.2169	-1.4652	0.1993	-0.5175	-1.0071	-0.1923	0.1539	0.0594	0.4196	-1.4337	0.8882	-1.4896	0.5105
-0.8148	-1.3987	-0.8882	-1.9058	-0.7973	-1.7414	-1.7379	-0.8777	-1.1784	-1.4931	0.2867	-0.4021	-0.9861	-0.1853	0.2238	0.1084	0.3881	-1.3603	0.8078	-1.4092	0.5245
-0.7588	-1.0141	-0.8183	-1.9302	-0.6015	-1.7029	-1.7694	-0.7133	-1.147	-1.4547	0.3916	-0.3497	-0.9686	-0.1748	0.3182	0.1259	0.3567	-1.2903	0.7238	-1.3568	0.5385
-0.6994	-0.6259	-0.7588	-1.9162	-0.4161	-1.6365	-1.7904	-0.5875	-1.105	-1.4896	0.4686	-0.2553	-0.9371	-0.1678	0.3846	0.2098	0.3427	-1.1889	0.6434	-1.2833	0.5595
-0.5735	-0.2588	-0.6504	-1.8778	-0.2028	-1.5561	-1.7344	-0.4371	-1.056	-1.4582	0.5595	-0.1609	-0.8777	-0.1539	0.4511	0.2658	0.3217	-1.1015	0.577	-1.1959	0.577
-0.4896	0.0769	-0.6049	-1.8183	0.007	-1.4757	-1.6994	-0.2728	-0.9651	-1.4302	0.6539	-0.0769	-0.8322	-0.1329	0.5385	0.3007	0.3042	-1.0106	0.4896	-1.098	0.5665
-0.4091	0.3322	-0.5595	-1.8044	0.1189	-1.4407	-1.689	-0.1539	-0.9162	-1.3917	0.7203	-0.0035	-0.7728	-0.1329	0.6504	0.3287	0.2937	-0.9441	0.4336	-1.0211	0.5595
-0.3252	0.5105	-0.4965	-1.7414	0.2588	-1.3882	-1.6575	-0.0455	-0.8672	-1.3777	0.7798	0.0839	-0.7064	-0.1154	0.7483	0.3322	0.2518	-0.8217	0.3637	-0.9371	0.563
-0.2762	0.6749	-0.4546	-1.7099	0.3567	-1.3568	-1.64	0.0455	-0.8357	-1.3812	0.8148	0.1189	-0.6539	-0.1049	0.8252	0.3497	0.2308	-0.7518	0.2902	-0.8637	0.514
-0.1853	0.7623	-0.3951	-1.633	0.4231	-1.3008	-1.5841	0.1154	-0.7868	-1.3428	0.8707	0.1888	-0.598	-0.0804	0.9336	0.3357	0.1748	-0.6399	0.2588	-0.7623	0.4861
-0.1434	0.7798	-0.3497	-1.5771	0.4651	-1.2868	-1.5421	0.1818	-0.7483	-1.2728	0.8672	0.2203	-0.542	-0.0664	1.0176	0.3462	0.1434	-0.5525	0.2028	-0.6679	0.4231
-0.1084	0.8217	-0.3217	-1.5316	0.5175	-1.2519	-1.4896	0.2483	-0.6679	-1.2484	0.8812	0.2797	-0.4581	-0.0699	1.1085	0.2902	0.1294	-0.4686	0.1399	-0.6084	0.3916
-0.0245	0.8497	-0.2762	-1.4442	0.5875	-1.1819	-1.4407	0.3287	-0.6154	-1.1784	0.9197	0.3287	-0.3916	-0.049	1.1924	0.2588	0.1014	-0.3637	0.0839	-0.528	0.3392
0.049	0.9022	-0.1818	-1.3113	0.6889	-1.1295	-1.3428	0.4126	-0.521	-1.0945	0.9546	0.4056	-0.2762	-0.0245	1.2344	0.2588	0.0769	-0.2588	0.0035	-0.4336	0.3077
0.1224	0.9721	-0.1014	-1.1854	0.7938	-1.0176	-1.2379	0.514	-0.4476	-1.0001	1.0036	0.4756	-0.1713	-0.0035	1.3043	0.2308	0.0385	-0.1888	-0.0629	-0.3287	0.2693
0.1888	0.9826	-0.0105	-1.0595	0.8777	-0.9476	-1.112	0.5805	-0.3287	-0.8952	1.063	0.556	-0.0559	-0.007	1.3288	0.1853	0.007	-0.0734	-0.0699	-0.2343	0.2413
0.2483	0.9896	0.0629	-0.9336	0.9406	-0.8707	-0.9826	0.6469	-0.2413	-0.7728	1.1015	0.6084	0.0594	0.014	1.3323	0.1713	-0.0175	-0.0035	-0.1084	-0.1539	0.2098
0.2972	1.0281	0.1329	-0.8252	0.9861	-0.7833	-0.8427	0.7029	-0.1294	-0.6749	1.1504	0.6854	0.1539	0.0385	1.3323	0.1469	-0.049	0.0979	-0.1469	-0.035	0.1923
0.3182	0.9721	0.1783	-0.7413	1.0036	-0.7203	-0.7588	0.7448	-0.0315	-0.556	1.1819	0.7448	0.2448	0.0455	1.3078	0.1189	-0.0769	0.1713	-0.1224	0.0315	0.1469
0.3392	0.9406	0.2028	-0.6539	1.0246	-0.6644	-0.6294	0.7798	0.0315	-0.4511	1.1924	0.8043	0.3322	0.0664	1.2693	0.1119	-0.1154	0.2693	-0.1049	0.1154	0.1259
0.3427	0.8322	0.2203	-0.5875	1.0001	-0.6119	-0.549	0.7553	0.0874	-0.3567	1.2029	0.8462	0.3742	0.0734	1.2134	0.0734	-0.1504	0.3392	-0.0629	0.1818	0.0979
0.3182	0.7133	0.2483	-0.5105	0.9721	-0.6015	-0.4896	0.7728	0.1434	-0.2588	1.2134	0.8952	0.4861	0.1154	1.1574	0.0979	-0.2238	0.4301	-0.007	0.2413	0.0734
0.3112	0.57	0.2308	-0.5105	0.8812	-0.563	-0.4161	0.7343	0.1993	-0.1958	1.2134	0.9162	0.563	0.1434	1.077	0.1119	-0.2867	0.5	0.021	0.2797	0.0594
0.2413	0.4056	0.1958	-0.4896	0.8427	-0.5455	-0.3637	0.6889	0.2483	-0.1364	1.2064	0.9721	0.6469	0.1958	1.0386	0.1014	-0.3672	0.563	0.0734	0.3532	0.021
0.2308	0.2623	0.1469	-0.4406	0.7763	-0.542	-0.2867	0.6399	0.2728	-0.0455	1.2204	1.0001	0.7238	0.2343	0.9686	0.1259	-0.4546	0.6679	0.1189	0.4231	0.0175
0.1748	0.1119	0.1049	-0.4301	0.6924	-0.5315	-0.2553	0.6294	0.3112	-0.007	1.1994	1.0176	0.7798	0.2588	0.8882	0.1574	-0.521	0.7343	0.1609	0.4511	-0.0035
0.1224	-0.049	0.0664	-0.4091	0.5945	-0.563	-0.2238	0.5805	0.3007	0.0559	1.1924	1.049	0.8392	0.3042	0.8357	0.1748	-0.591	0.8217	0.1923	0.5	-0.028
0.0804	-0.1609	-0.014	-0.3707	0.528	-0.5805	-0.1713	0.521	0.3287	0.1119	1.1749	1.0595	0.9162	0.3287	0.7833	0.2098	-0.6434	0.9057	0.2203	0.556	-0.0315
0.0385	-0.2797	-0.0734	-0.3462	0.4476	-0.6049	-0.1399	0.5	0.3532	0.1748	1.1644	1.091	0.9931	0.3567	0.7448	0.2588	-0.7099	0.9861	0.2413	0.6049	-0.049
-0.028	-0.4091	-0.1259	-0.2832	0.3567	-0.6504	-0.1294	0.4231	0.3427	0.2203	1.14	1.077	1.042	0.3846	0.6889	0.2937	-0.7448	1.105	0.2762	0.6504	-0.0629
-0.0874	-0.563	-0.2133	-0.2658	0.3077	-0.6749	-0.1119	0.3812	0.3672	0.2553	1.1504	1.1015	1.0875	0.3951	0.6329	0.3287	-0.7763	1.1854	0.3287	0.6854	-0.0734
-0.1853	-0.7168	-0.3252	-0.2413	0.2203	-0.7273	-0.0944	0.3672	0.3532	0.2797	1.14	1.1155	1.1225	0.3846	0.577	0.3322	-0.7658	1.2204	0.3497	0.7413	-0.0874
-0.3007	-0.8497	-0.4371	-0.2553	0.1609	-0.7938	-0.1259	0.3217	0.3497	0.2867	1.1365	1.1295	1.147	0.3916	0.5385	0.3567	-0.7833	1.3113	0.3462	0.7868	-0.0944
-0.3427	-1.0106	-0.5665	-0.2623	0.0769	-0.8672	-0.1469	0.2762	0.3182	0.2658	1.105	1.1295	1.1644	0.3846	0.4581	0.4266	-0.7658	1.3533	0.3567	0.8357	-0.0874
-0.4756	-1.1714	-0.6644	-0.2902	0.021	-0.9546	-0.1748	0.2693	0.2832	0.2448	1.112	1.1155	1.1504	0.3846	0.3812	0.4861	-0.7553	1.3917	0.3637	0.8637	-0.0734
-0.549	-1.2868	-0.7553	-0.3077	-0.021	-0.9791	-0.2028	0.3042	0.2797	0.2553	1.1784	1.1679	1.1679	0.3881	0.3322	0.563	-0.7658	1.4547	0.3742	0.9162	-0.0699
-0.6469	-1.4057	-0.8462	-0.3951	-0.0734	-1.0525	-0.2448	0.3007	0.2797	0.2168	1.2239	1.1924	1.1504	0.3707	0.2553	0.6049	-0.7378	1.4722	0.3637	0.9302	-0.0629
-0.7343	-1.4966	-0.9267	-0.4336	-0.0944	-1.126	-0.2972	0.3287	0.2553	0.1993	1.2484	1.2064	1.1435	0.3462	0.1713	0.6819	-0.7168	1.4896	0.3777	0.9406	-0.0525
-0.7763	-1.5176	-1.0036	-0.493	-0.1259	-1.1924	-0.3147	0.3462	0.2343	0.1783	1.2903	1.2484	1.1435	0.3532	0.1084	0.7833	-0.7133	1.5246	0.3637	0.9721	-0.035
-0.8252	-1.5386	-1.0945	-0.5315	-0.1469	-1.2204	-0.3322	0.3497	0.2273	0.1609	1.3533	1.2903	1.1644	0.3462	0.0315	0.8567	-0.6924	1.5631	0.3742	1.0036	-0.0035
-0.8252	-1.4652	-1.0875	-0.57	-0.1154	-1.2449	-0.3427	0.4336	0.2588	0.1574	1.4442	1.3777	1.1889	0.3532	-0.042	0.9756	-0.7133	1.6015	0.3986	1.0316	0.0734
-0.8252	-1.3673	-1.105	-0.5945	-0.0594	-1.2519	-0.3567	0.5035	0.2728	0.1539	1.5386	1.4652	1.2169	0.3707	-0.0804	1.0805	-0.7378	1.6295	0.4406	1.0665	0.1469
-0.7693	-1.2029	-1.077	-0.6224	0.0105	-1.2414	-0.3532	0.598	0.3532	0.1958	1.661	1.605	1.2868	0.3881	-0.1224	1.1714	-0.7693	1.6994	0.4721	1.133	0.1923
-0.7203	-1.0106	-1.0455	-0.6819	0.0979	-1.1994	-0.3742	0.7168	0.4266	0.2448	1.8044	1.7274	1.3463	0.3881	-0.1888	1.2449	-0.7728	1.7519	0.4861	1.1504	0.2867
-0.6504	-0.7553	-1.0071	-0.7168	0.2378	-1.1679	-0.3881	0.8252	0.514	0.2483	1.9827	1.8708	1.4407	0.4021	-0.2448	1.3183	-0.7868	1.8044	0.4826	1.2204	0.3602
-0.549	-0.493	-0.8847	-0.7238	0.4056	-1.0595	-0.3742	0.9791	0.6259	0.3042	2.189	2.0526	1.5491	0.4021	-0.3112	1.3638	-0.8008	1.8813	0.5	1.2484	0.5105
-0.4721	-0.2308	-0.7973	-0.7553	0.577	-0.9896	-0.3777	1.1225	0.7483	0.3567	2.3743	2.238	1.6715	0.4021	-0.3392	1.3742	-0.8008	1.9477	0.5105	1.3043	0.6574
-0.3951	0.028	-0.6994	-0.7378	0.7553	-0.9127	-0.3462	1.2868	0.9232	0.4371	2.5981	2.4513	1.8009	0.4126	-0.3812	1.4162	-0.8078	2.0421	0.4896	1.3253	0.7833
-0.3217	0.2343	-0.6154	-0.7483	0.9022	-0.7763	-0.3287	1.4162	1.0176	0.521	2.8429	2.6646	1.9407	0.3916	-0.4441	1.3568	-0.7833	2.1261	0.4721	1.3568	0.9336
-0.2413	0.3951	-0.5385	-0.7378	1.0176	-0.6714	-0.3077	1.5106	1.1609	0.584	3.0457	2.8639	2.1086	0.3707	-0.5245	1.3812	-0.7553	2.1925	0.4511	1.3812	1.063
-0.1853	0.514	-0.4511	-0.7238	1.14	-0.584	-0.2343	1.682	1.3358	0.7029	3.322	3.1401	2.2869	0.3707	-0.5245	1.3008	-0.7308	2.2974	0.4721	1.4372	1.2099
-0.1049	0.6084	-0.3777	-0.7064	1.2623	-0.4616	-0.1818	1.8113	1.4931	0.8357	3.5702	3.3674	2.4687	0.3532	-0.5735	1.2728	-0.6819	2.3848	0.4791	1.4687	1.3533
-0.1119	0.6504	-0.3217	-0.7168	1.3358	-0.3742	-0.1539	1.9023	1.633	0.9197	3.7835	3.5807	2.6541	0.2902	-0.6015	1.147	-0.5875	2.4792	0.5385	1.4722	1.5071
-0.0804	0.6784	-0.2728	-0.7588	1.4617	-0.3007	-0.1119	1.9652	1.7624	1.0001	3.9899	3.8045	2.8499	0.2518	-0.6609	1.077	-0.4896	2.5457	0.6015	1.4931	1.661
-0.0525	0.6924	-0.2203	-0.7658	1.5211	-0.2063	-0.0629	2.0736	1.8883	1.119	4.2206	4.0213	3.0352	0.1888	-0.6959	0.9966	-0.3707	2.6016	0.6889	1.4966	1.8568
-0.0455	0.6959	-0.1643	-0.7588	1.6295	-0.1049	-0.0035	2.168	2.0771	1.2554	4.4584	4.2451	3.2625	0.1504	-0.7413	0.8917	-0.2762	2.717	0.8357	1.4896	2.0526
-0.0839	0.7099	-0.1399	-0.7763	1.675	-0.0664	0.035	2.224	2.189	1.3568	4.6682	4.4235	3.4199	0.0839	-0.7938	0.7868	-0.1678	2.7765	0.9931	1.4966	2.238
-0.1049	0.6644	-0.1259	-0.7868	1.7169	0.028	0.0979	2.3219	2.3114	1.4896	4.899	4.6088	3.6157	0.035	-0.8322	0.6644	-0.0629	2.8674	1.1155	1.5001	2.4163
-0.1434	0.5945	-0.1119	-0.8427	1.7659	0.0909	0.1049	2.3918	2.4198	1.5736	5.1018	4.7906	3.794	-0.0105	-0.9022	0.5315	0.028	2.9268	1.2623	1.4757	2.6471
-0.1853	0.5595	-0.1189	-0.8952	1.8323	0.1469	0.1469	2.4967	2.5142	1.6855	5.3221	4.9829	3.9794	-0.0525	-0.9756	0.3986	0.1224	3.0038	1.4092	1.4547	2.8429
-0.2063	0.4686	-0.0874	-0.9546	1.9058	0.2063	0.1888	2.6156	2.6226	1.7799	5.5634	5.1298	4.1507	-0.0839	-1.077	0.2832	0.1783	3.0772	1.5491	1.4302	3.0737
-0.2972	0.3742	-0.1049	-1.0246	1.9232	0.2063	0.1783	2.71	2.7205	1.8568	5.7697	5.2557	4.2976	-0.1294	-1.1714	0.1713	0.2867	3.0807	1.661	1.4127	3.2485
-0.3637	0.2693	-0.1329	-1.077	1.9792	0.2728	0.1818	2.7974	2.7939	1.9267	6.0215	5.3816	4.4165	-0.1748	-1.2763	0.021	0.3462	3.0982	1.8288	1.3568	3.5038
-0.4581	0.1609	-0.1469	-1.133	2.0212	0.2832	0.1923	2.9268	2.8639	1.9932	6.2523	5.5075	4.5319	-0.2133	-1.3742	-0.1119	0.4266	3.1157	1.9932	1.3113	3.7661
-0.563	0.0594	-0.1993	-1.2064	2.0281	0.2867	0.1539	3.0038	2.8919	2.0247	6.4621	5.5949	4.6088	-0.2693	-1.4791	-0.2553	0.5455	3.0982	2.154	1.2099	3.9829
-0.6469	-0.0734	-0.2238	-1.3078	2.0491	0.2483	0.0979	3.0737	2.9303	2.0351	6.6824	5.6823	4.6682	-0.3217	-1.619	-0.3742	0.6399	3.0492	2.2869	1.1365	4.2241
-0.7938	-0.1783	-0.2588	-1.3568	2.0631	0.2413	0.049	3.1436	2.9583	2.0281	6.8922	5.7522	4.6822	-0.3777	-1.7414	-0.5245	0.7763	2.9653	2.4513	1.0281	4.427
-0.8707	-0.3007	-0.2902	-1.4722	2.0666	0.2273	0.0035	3.2276	2.9688	2.0247	7.109	5.7942	4.7172	-0.4476	-1.8708	-0.6399	0.8812	2.8814	2.6086	0.8987	4.6577
-0.9721	-0.4441	-0.3637	-1.5281	2.0421	0.2028	-0.042	3.2695	2.9723	1.9897	7.3048	5.8292	4.7207	-0.4965	-1.9547	-0.7658	1.0071	2.7765	2.7275	0.7658	4.8606
-1.098	-0.6154	-0.4126	-1.605	1.9687	0.1399	-0.1049	3.287	2.9513	1.9267	7.4692	5.8152	4.6647	-0.5665	-2.0596	-0.8742	1.1539	2.5841	2.8569	0.6084	5.0564
-1.1784	-0.7973	-0.4651	-1.7064	1.8638	0.0979	-0.1399	3.2975	2.9268	1.8603	7.6195	5.7697	4.5808	-0.6434	-2.1331	-0.9826	1.2693	2.3778	2.9933	0.4266	5.2242
-1.3113	-0.9616	-0.5315	-1.7939	1.7484	0.049	-0.2168	3.2975	2.8744	1.8078	7.7454	5.7453	4.4899	-0.7133	-2.1925	-1.112	1.3882	2.14	3.1017	0.2203	5.3431
-1.3742	-1.112	-0.556	-1.8568	1.6435	-0.0175	-0.2658	3.2695	2.8289	1.6925	7.8608	5.6823	4.3745	-0.7588	-2.217	-1.1959	1.4966	1.8708	3.1961	0.0175	5.4375
-1.4057	-1.2693	-0.5665	-1.9093	1.5491	-0.0455	-0.3217	3.2066	2.766	1.6015	7.9377	5.6019	4.2171	-0.7973	-2.2519	-1.2274	1.605	1.5736	3.2485	-0.2203	5.4795
-1.4512	-1.3638	-0.563	-1.9302	1.4617	-0.0769	-0.3637	3.1891	2.7415	1.5071	7.9832	5.5075	4.0703	-0.8287	-2.2345	-1.2589	1.675	1.2833	3.3185	-0.4371	5.5145
-1.4442	-1.4302	-0.514	-1.9267	1.3882	-0.0629	-0.3881	3.1401	2.696	1.4337	8.0007	5.4166	3.9129	-0.8672	-2.175	-1.2903	1.7449	0.9616	3.3534	-0.6609	5.5075
-1.3812	-1.5001	-0.4336	-1.8708	1.3603	-0.035	-0.3846	3.1436	2.7205	1.3777	8.0427	5.3536	3.7696	-0.8882	-2.1051	-1.2728	1.7904	0.6259	3.3989	-0.8497	5.4935
-1.3113	-1.4757	-0.3182	-1.7589	1.3603	0.028	-0.3567	3.1401	2.7345	1.3533	8.0741	5.2907	3.6577	-0.8917	-1.9687	-1.2658	1.8044	0.3217	3.3884	-1.0386	5.441
-1.1819	-1.3812	-0.1609	-1.6295	1.4197	0.1189	-0.2937	3.1681	2.7974	1.3253	8.1196	5.2487	3.5528	-0.8882	-1.7834	-1.2414	1.7764	0.035	3.3429	-1.1749	5.3641
-0.9756	-1.2029	0.0629	-1.4407	1.5491	0.3007	-0.1783	3.2555	2.8989	1.3498	8.1615	5.2347	3.4618	-0.8567	-1.5701	-1.1784	1.7099	-0.2273	3.294	-1.2833	5.2557
-0.7553	-1.0106	0.3042	-1.1889	1.675	0.4616	-0.0594	3.322	3.0038	1.3533	8.186	5.1753	3.3674	-0.8322	-1.3323	-1.119	1.6645	-0.5245	3.1331	-1.4127	5.1053
-0.528	-0.7308	0.598	-0.9441	1.8463	0.6994	0.0664	3.4304	3.1401	1.3987	8.2175	5.1718	3.294	-0.7973	-1.077	-1.0316	1.5945	-0.7833	2.9758	-1.4791	4.941
-0.2413	-0.4336	0.9162	-0.6889	2.0351	0.9127	0.2098	3.5493	3.294	1.4512	8.249	5.1613	3.2276	-0.7588	-0.7798	-0.9092	1.5351	-1.0805	2.7939	-1.5561	4.7382
0.0455	-0.0734	1.2519	-0.4441	2.2484	1.1714	0.3672	3.7311	3.4618	1.5176	8.2734	5.1753	3.1856	-0.7099	-0.4441	-0.8183	1.4407	-1.3008	2.5876	-1.5771	4.5424
0.3462	0.3252	1.605	-0.1609	2.4862	1.4232	0.535	3.8919	3.6262	1.5841	8.3154	5.1788	3.1506	-0.6819	-0.1014	-0.7518	1.3603	-1.5281	2.3883	-1.5841	4.3151
0.7029	0.7203	1.9967	0.1119	2.7625	1.7274	0.6889	4.0458	3.864	1.654	8.3189	5.1753	3.0702	-0.6294	0.2483	-0.6084	1.2728	-1.7659	2.1995	-1.6015	4.0423
1.0281	1.1225	2.3743	0.4091	3.0142	2.0386	0.9057	4.2137	4.0703	1.7344	8.3189	5.1788	3.0282	-0.5805	0.6084	-0.4965	1.1924	-1.9792	2.0142	-1.5945	3.7766
1.3533	1.5211	2.752	0.6889	3.294	2.3429	1.105	4.3745	4.2766	1.8183	8.3154	5.2417	3.0177	-0.5455	0.9931	-0.3916	1.098	-2.1785	1.9023	-1.605	3.4933
1.7064	1.8883	3.1471	0.9546	3.5528	2.6541	1.3043	4.5214	4.4654	1.9232	8.263	5.2487	2.9898	-0.4965	1.3777	-0.2972	1.0071	-2.4023	1.7729	-1.605	3.1786
2.0806	2.2694	3.5283	1.2658	3.815	2.9373	1.5211	4.6577	4.6717	2.0212	8.2315	5.2767	2.9513	-0.4406	1.7764	-0.1888	0.9022	-2.5981	1.675	-1.5806	2.8849
2.3708	2.5282	3.8815	1.5771	4.0178	3.2345	1.7414	4.7941	4.8606	2.0981	8.1755	5.2662	2.8989	-0.4126	2.1261	-0.1049	0.8217	-2.8464	1.6155	-1.598	2.5946
2.724	2.7974	4.2451	1.8603	4.2067	3.5248	1.9617	4.885	5.0214	2.175	8.0881	5.2697	2.8464	-0.3707	2.5002	-0.028	0.7483	-3.0807	1.5561	-1.5841	2.2589
3.0352	3.0387	4.5773	2.161	4.3675	3.7521	2.168	4.9899	5.1823	2.2589	7.9937	5.2557	2.78	-0.3147	2.8919	0.0699	0.6259	-3.2835	1.5421	-1.5386	1.9337
3.3569	3.2345	4.9025	2.4652	4.5109	4.0073	2.3743	5.0879	5.3116	2.3289	7.9273	5.2417	2.7065	-0.2553	3.2485	0.1678	0.5035	-3.5388	1.5141	-1.5316	1.5875
3.6577	3.4059	5.2172	2.7625	4.6403	4.2521	2.5702	5.1438	5.4515	2.3743	7.7944	5.2207	2.6296	-0.1958	3.6157	0.2238	0.3951	-3.7591	1.4652	-1.5141	1.2728
3.9549	3.5493	5.525	3.0177	4.7452	4.4514	2.752	5.1788	5.5389	2.4373	7.6475	5.1578	2.5212	-0.1504	3.9234	0.3392	0.3077	-3.9899	1.4232	-1.4826	0.9616
4.2171	3.6926	5.8222	3.3185	4.8745	4.6717	2.9268	5.2207	5.6438	2.4862	7.5426	5.1333	2.4548	-0.0769	4.2486	0.4301	0.1923	-4.1927	1.4162	-1.4407	0.6644
4.4619	3.7835	6.046	3.5632	4.9515	4.8466	3.0877	5.2417	5.6823	2.4862	7.3992	5.0459	2.3324	-0.049	4.5284	0.5175	0.1014	-4.4165	1.3463	-1.4267	0.3812
4.6822	3.9024	6.2908	3.78	5.0319	5.0074	3.245	5.2592	5.7453	2.5212	7.2664	4.9969	2.2415	0.0105	4.8186	0.6084	0	-4.5983	1.3113	-1.4197	0.1329
4.8361	3.9549	6.4691	3.9829	5.1228	5.1368	3.3849	5.2557	5.7557	2.5317	7.088	4.906	2.1086	0.0315	5.0774	0.6714	-0.0525	-4.8361	1.2064	-1.4372	-0.1643
5.0144	4.0843	6.6264	4.1542	5.1998	5.2452	3.4898	5.2697	5.7453	2.5177	6.9342	4.8291	1.9897	0.0594	5.2872	0.7413	-0.1259	-5.0179	1.1435	-1.3987	-0.3916
5.1753	4.2032	6.7943	4.2766	5.3082	5.3291	3.6017	5.2627	5.7138	2.5247	6.7943	4.7277	1.8288	0.0979	5.483	0.8113	-0.1958	-5.1928	1.0735	-1.4057	-0.6224
5.2732	4.2731	6.8572	4.3675	5.3466	5.3326	3.6577	5.2277	5.6508	2.4583	6.616	4.6123	1.682	0.1364	5.6613	0.8602	-0.2553	-5.3746	1.0036	-1.4162	-0.8497
5.3781	4.3255	6.9482	4.5074	5.3571	5.3501	3.7276	5.1403	5.5564	2.4408	6.4516	4.5004	1.5281	0.1748	5.7557	0.9232	-0.3147	-5.5389	0.9441	-1.4232	-1.077
5.4445	4.35	6.9761	4.5598	5.3431	5.3641	3.7346	5.0494	5.441	2.3953	6.2348	4.3745	1.3917	0.1958	5.8886	0.9616	-0.3707	-5.6963	0.9267	-1.3987	-1.2763
5.455	4.3395	6.9656	4.6018	5.2802	5.2837	3.7171	4.8815	5.2837	2.2939	5.997	4.2276	1.2099	0.2343	5.9621	1.0176	-0.4406	-5.8467	0.9232	-1.4232	-1.4757
5.4725	4.2941	6.9202	4.5913	5.2172	5.1648	3.6681	4.7137	5.1158	2.21	5.7592	4.0633	1.0246	0.2448	6.011	1.0805	-0.4686	-5.9865	0.8742	-1.4372	-1.6505
5.448	4.2206	6.8607	4.5493	5.1053	5.0319	3.6192	4.5039	4.9025	2.1016	5.5075	3.8919	0.8252	0.2693	6.0355	1.1015	-0.5175	-6.1159	0.8427	-1.4687	-1.8113
5.42	4.1437	6.7279	4.5004	4.9934	4.8641	3.5108	4.2836	4.6612	1.9722	5.2802	3.7031	0.6609	0.2902	6.025	1.1435	-0.5665	-6.2243	0.8357	-1.4791	-1.9652
5.3396	4.0178	6.595	4.406	4.8396	4.6368	3.3744	4.0493	4.364	1.8218	5.0214	3.4723	0.4511	0.3147	6.018	1.1784	-0.598	-6.3362	0.8043	-1.5386	-2.1121
5.2382	3.864	6.3992	4.2731	4.6298	4.4025	3.2241	3.7661	4.0283	1.6575	4.7487	3.273	0.2518	0.3217	5.9865	1.1994	-0.6259	-6.4166	0.7448	-1.5841	-2.2624
5.1368	3.7276	6.1928	4.1332	4.4305	4.1332	3.0947	3.4828	3.7451	1.4757	4.4864	3.0597	0.049	0.3217	5.9341	1.2204	-0.6364	-6.4866	0.7029	-1.647	-2.3953
4.9829	3.5737	5.9795	3.9584	4.2032	3.836	2.9093	3.2206	3.4339	1.3113	4.2276	2.8359	-0.1154	0.3182	5.8641	1.1924	-0.6259	-6.525	0.6189	-1.689	-2.5142
4.8186	3.4129	5.7383	3.7905	4.0038	3.5318	2.7415	2.9723	3.1226	1.126	3.9829	2.6156	-0.2762	0.2972	5.8117	1.1365	-0.6049	-6.5635	0.556	-1.7589	-2.5946
4.6438	3.2415	5.4655	3.5947	3.808	3.1996	2.5771	2.717	2.766	0.9546	3.7241	2.3813	-0.4511	0.2867	5.7103	1.1085	-0.5735	-6.532	0.4756	-1.7904	-2.6995
4.4305	3.0387	5.1788	3.4024	3.5772	2.8709	2.3813	2.4792	2.4198	0.7623	3.5283	2.182	-0.6015	0.2623	5.6124	1.0141	-0.5385	-6.4971	0.3986	-1.8428	-2.78
4.2241	2.8709	4.885	3.1541	3.3534	2.4932	2.196	2.1995	2.0771	0.6294	3.2625	1.9652	-0.7133	0.2413	5.4725	0.9476	-0.4756	-6.4376	0.3322	-1.9093	-2.8359
3.9934	2.6611	4.5878	2.9478	3.1261	2.1715	2.0281	1.9722	1.7799	0.4581	3.0387	1.7834	-0.8148	0.2203	5.3606	0.8532	-0.4511	-6.3327	0.2937	-1.9512	-2.8604
3.7626	2.4443	4.2591	2.6995	2.8814	1.7904	1.8288	1.689	1.4127	0.2658	2.7905	1.5421	-0.9406	0.1993	5.2487	0.7833	-0.3916	-6.2313	0.2028	-1.9932	-2.9268
3.5283	2.2415	3.9619	2.4932	2.682	1.4512	1.6505	1.4652	1.105	0.1434	2.5736	1.3498	-1.0106	0.1853	5.1438	0.6679	-0.3322	-6.1124	0.1504	-2.0316	-2.9443
3.2905	2.0247	3.6262	2.2729	2.4548	1.1085	1.4757	1.2239	0.8008	-0.007	2.3883	1.1539	-1.063	0.1399	5.0249	0.563	-0.2588	-5.969	0.0979	-2.0212	-2.9618
3.1157	1.8568	3.3639	2.1365	2.2554	0.8008	1.3183	1.0525	0.521	-0.1119	2.21	1.0246	-1.119	0.0944	4.9445	0.4441	-0.2028	-5.8152	0.049	-2.0596	-2.9198
2.9233	1.6715	3.1087	2.0037	2.0561	0.521	1.2029	0.8707	0.2553	-0.2133	2.0351	0.8777	-1.147	0.0734	4.8431	0.3846	-0.1434	-5.6438	-0.028	-2.0701	-2.9233
2.7275	1.4931	2.8359	1.8498	1.8603	0.2168	1.0665	0.6854	0	-0.3322	1.8533	0.7168	-1.1714	0.042	4.7766	0.3112	-0.0839	-5.4655	-0.0979	-2.0876	-2.8954
2.5736	1.3008	2.5911	1.7414	1.689	-0.014	0.9546	0.5315	-0.2308	-0.4021	1.7064	0.591	-1.1539	0.035	4.7032	0.3007	-0.0629	-5.2417	-0.1993	-2.0736	-2.8499
2.4338	1.091	2.3638	1.654	1.5246	-0.2728	0.8532	0.3951	-0.4161	-0.4616	1.5701	0.4721	-1.1435	0.0315	4.6333	0.2728	-0.042	-5.0494	-0.2762	-2.0386	-2.8114
2.2729	0.8742	2.1261	1.5561	1.3463	-0.5035	0.7378	0.2518	-0.6119	-0.5245	1.4407	0.3672	-1.1295	0	4.5424	0.2623	-0.007	-4.8396	-0.3986	-1.9932	-2.7695
2.1051	0.7099	1.9093	1.4512	1.1749	-0.7308	0.6049	0.1329	-0.7973	-0.5805	1.3358	0.2588	-1.098	-0.007	4.4584	0.2728	0.0175	-4.6473	-0.549	-1.9477	-2.7275
1.9652	0.493	1.6715	1.3253	1.0071	-0.9546	0.4896	0.0035	-0.9511	-0.6364	1.2099	0.1469	-1.0735	-0.0035	4.385	0.2832	0.0175	-4.385	-0.6959	-1.8743	-2.6786
1.7974	0.3077	1.4372	1.1994	0.8427	-1.133	0.3777	-0.0804	-1.112	-0.6574	1.1435	0.0874	-0.9861	0	4.3011	0.3427	0	-4.1542	-0.8043	-1.8078	-2.6121
1.675	0.1434	1.2204	1.0805	0.6994	-1.3498	0.2693	-0.1678	-1.2414	-0.6749	1.112	0.0385	-0.9267	0.014	4.2102	0.4546	-0.0245	-3.8815	-0.8987	-1.689	-2.5072
1.4966	-0.007	0.9791	0.9232	0.5735	-1.5351	0.1469	-0.2658	-1.3568	-0.7168	1.0525	0.0035	-0.8602	0.0245	4.1367	0.521	-0.0525	-3.6052	-0.9966	-1.5806	-2.3638
1.3463	-0.1399	0.7518	0.7868	0.4511	-1.7169	0.0455	-0.3287	-1.4791	-0.7448	1.0211	-0.0594	-0.7833	0.042	4.0353	0.6224	-0.0804	-3.315	-1.084	-1.4337	-2.2589
1.1959	-0.2728	0.4826	0.6364	0.3182	-1.9023	-0.0629	-0.4021	-1.6085	-0.7763	0.9826	-0.1294	-0.7168	0.049	3.9199	0.7168	-0.1154	-3.0212	-1.1539	-1.3323	-2.1156
1.07	-0.3567	0.2797	0.528	0.2028	-2.0456	-0.1329	-0.4651	-1.6785	-0.7868	0.9511	-0.1713	-0.591	0.0944	3.78	0.8357	-0.1643	-2.6925	-1.2414	-1.1435	-1.9827
0.9197	-0.4231	0.0629	0.4441	0.1049	-2.1995	-0.1818	-0.5	-1.7624	-0.7798	0.9406	-0.1783	-0.493	0.1224	3.6542	0.9302	-0.2378	-2.3638	-1.2658	-0.9826	-1.8183
0.7938	-0.4826	-0.1609	0.3567	0.035	-2.3708	-0.2797	-0.5175	-1.8183	-0.7938	0.9336	-0.2063	-0.4091	0.1574	3.5073	1.063	-0.3042	-2.0421	-1.3358	-0.8078	-1.682
0.6574	-0.5595	-0.3742	0.2343	-0.0874	-2.4967	-0.3602	-0.5455	-1.9128	-0.7903	0.9581	-0.2168	-0.2762	0.1958	3.336	1.1155	-0.3742	-1.696	-1.3603	-0.6329	-1.5246
0.4965	-0.6469	-0.6224	0.1399	-0.1574	-2.6296	-0.4511	-0.5805	-1.9582	-0.7833	0.9931	-0.1923	-0.1539	0.2448	3.1681	1.2344	-0.4756	-1.3673	-1.3673	-0.4581	-1.3707
0.3707	-0.7833	-0.8567	0.0315	-0.2902	-2.766	-0.5385	-0.6119	-2.0177	-0.7658	1.0141	-0.2063	-0.035	0.2972	2.9968	1.3498	-0.5875	-1.0386	-1.3987	-0.2832	-1.2204
0.1783	-0.9476	-1.0945	-0.1224	-0.4021	-2.9303	-0.6189	-0.6364	-2.0771	-0.7868	1.056	-0.2168	0.0979	0.3497	2.7905	1.4302	-0.6889	-0.6924	-1.4197	-0.1119	-1.063
0.0245	-1.1644	-1.3463	-0.2413	-0.563	-3.0772	-0.7448	-0.7203	-2.1435	-0.8322	1.0386	-0.2133	0.1853	0.3881	2.5632	1.5316	-0.7728	-0.4021	-1.4232	0.0385	-0.9127
-0.1469	-1.3987	-1.633	-0.3672	-0.7099	-3.2101	-0.8917	-0.8078	-2.231	-0.8637	1.0595	-0.2413	0.2693	0.4371	2.3499	1.6225	-0.8637	-0.1329	-1.4197	0.1574	-0.7728
-0.3147	-1.6645	-1.8918	-0.5105	-0.8392	-3.3429	-0.9791	-0.8707	-2.2659	-0.8812	1.098	-0.2133	0.4126	0.5	2.147	1.6994	-0.9756	0.1643	-1.4092	0.3042	-0.6294
-0.4965	-1.9162	-2.154	-0.6854	-1.0001	-3.4898	-1.1015	-0.9441	-2.3149	-0.8777	1.133	-0.2203	0.507	0.535	1.9407	1.7869	-1.0735	0.4161	-1.4162	0.4126	-0.493
-0.6784	-2.1995	-2.3988	-0.8252	-1.1714	-3.6507	-1.2029	-1.0211	-2.3638	-0.9057	1.1924	-0.1958	0.6329	0.577	1.7169	1.8638	-1.1644	0.6679	-1.3742	0.5385	-0.3217
-0.8567	-2.4478	-2.6261	-0.9546	-1.3358	-3.7766	-1.3183	-1.1085	-2.4023	-0.9162	1.2309	-0.1748	0.7588	0.6259	1.5246	1.9407	-1.2484	0.9092	-1.3498	0.6434	-0.2063
-1.0246	-2.703	-2.8709	-1.119	-1.4791	-3.8919	-1.4197	-1.1714	-2.4408	-0.9616	1.2833	-0.1329	0.8637	0.6784	1.3393	1.9932	-1.3393	1.14	-1.3008	0.7588	-0.0699
-1.2134	-2.9303	-3.1506	-1.2623	-1.6155	-4.0178	-1.5001	-1.2623	-2.4687	-0.9406	1.3078	-0.1084	0.9861	0.7133	1.1609	2.0142	-1.4127	1.3742	-1.2064	0.8427	0.0629
-1.4197	-3.1786	-3.3884	-1.4162	-1.7974	-4.1612	-1.6015	-1.3393	-2.5072	-0.9476	1.3603	-0.0734	1.112	0.7518	0.9966	2.0911	-1.4757	1.5945	-1.1714	0.9232	0.1713
-1.6015	-3.3569	-3.6122	-1.5386	-1.9477	-4.2801	-1.64	-1.4267	-2.5352	-0.9476	1.3987	-0.007	1.2379	0.7938	0.8532	2.1156	-1.5666	1.8288	-1.1015	1.0001	0.3182
-1.7764	-3.5458	-3.836	-1.668	-2.0701	-4.378	-1.6925	-1.4966	-2.5492	-0.9057	1.4302	0.0245	1.3533	0.8183	0.7133	2.1226	-1.626	2.0596	-1.042	1.0386	0.4616
-1.9827	-3.6716	-4.0738	-1.7939	-2.2275	-4.5214	-1.7449	-1.5841	-2.5841	-0.9127	1.4826	0.0734	1.4791	0.8497	0.584	2.1715	-1.6855	2.2415	-1.0386	1.0455	0.5945
-2.1331	-3.787	-4.2696	-1.8568	-2.3184	-4.5843	-1.7484	-1.612	-2.5387	-0.8462	1.5351	0.1643	1.6225	0.8882	0.5105	2.182	-1.7414	2.4513	-1.0106	1.098	0.7168
-2.3254	-3.8745	-4.4584	-1.9477	-2.4268	-4.6892	-1.8044	-1.654	-2.5212	-0.8252	1.6225	0.2588	1.7694	0.8917	0.3986	2.182	-1.7764	2.6086	-0.9931	1.0945	0.8567
-2.4652	-3.9199	-4.6298	-2.0351	-2.4652	-4.7417	-1.8113	-1.668	-2.5142	-0.7693	1.7169	0.3602	1.9372	0.9197	0.3042	2.1995	-1.8253	2.8499	-1.0036	1.119	0.9721
-2.6506	-3.9374	-4.8011	-2.1086	-2.4862	-4.8221	-1.8253	-1.6715	-2.5037	-0.6959	1.7939	0.4686	2.1156	0.9336	0.2168	2.1855	-1.8463	2.9828	-1.0665	1.112	1.091
-2.773	-3.9234	-4.9585	-2.1645	-2.4932	-4.8606	-1.8218	-1.6505	-2.4513	-0.6015	1.8673	0.5735	2.2939	0.9581	0.1084	2.2519	-1.8673	3.1891	-1.14	1.1225	1.2029
-2.9443	-3.8745	-5.1053	-2.2345	-2.5002	-4.927	-1.8813	-1.6575	-2.3848	-0.549	1.9652	0.6644	2.4443	0.9371	0.007	2.2449	-1.8778	3.3569	-1.2658	1.0945	1.2868
-3.0912	-3.78	-5.2417	-2.3149	-2.4827	-4.9864	-1.9093	-1.6085	-2.3394	-0.4686	2.0491	0.7903	2.6226	0.9302	-0.0874	2.2484	-1.8778	3.5143	-1.3917	1.0945	1.3812
-3.231	-3.7031	-5.3816	-2.4093	-2.4548	-5.0249	-1.9162	-1.5771	-2.2974	-0.3881	2.1855	0.9057	2.8009	0.9406	-0.1853	2.2589	-1.8778	3.6856	-1.5176	1.112	1.4617
-3.3499	-3.5772	-5.525	-2.5177	-2.4093	-5.0774	-1.9687	-1.5106	-2.2205	-0.3147	2.2449	1.0071	2.9478	0.9302	-0.2623	2.2694	-1.8533	3.836	-1.5945	1.1015	1.5386
-3.5458	-3.5108	-5.6403	-2.6506	-2.3953	-5.0948	-2.0247	-1.4791	-2.1645	-0.2797	2.3184	1.1155	3.1052	0.9162	-0.3846	2.2415	-1.8044	4.0038	-1.6785	1.119	1.626
-3.6961	-3.4374	-5.7907	-2.8079	-2.3813	-5.1613	-2.0911	-1.4407	-2.1331	-0.2238	2.3953	1.2134	3.2241	0.8777	-0.507	2.2275	-1.7484	4.1332	-1.7134	1.126	1.7274
-3.85	-3.3744	-5.9516	-2.9443	-2.3499	-5.2207	-2.1505	-1.3987	-2.0946	-0.1958	2.4652	1.3358	3.3639	0.8532	-0.591	2.2415	-1.682	4.2731	-1.7484	1.1539	1.8288
-4.0633	-3.3954	-6.1229	-3.1926	-2.3813	-5.3361	-2.3114	-1.4057	-2.1051	-0.2168	2.4792	1.3533	3.4339	0.7903	-0.7064	2.1575	-1.5736	4.3815	-1.7449	1.1609	1.9197
-4.2661	-3.4339	-6.3327	-3.4059	-2.4513	-5.469	-2.4548	-1.4267	-2.1331	-0.2378	2.4932	1.3568	3.4688	0.7413	-0.8357	2.1156	-1.4652	4.4479	-1.7309	1.1435	1.9792
-4.5179	-3.5702	-6.5775	-3.6681	-2.5422	-5.6229	-2.6296	-1.4477	-2.2135	-0.3252	2.4862	1.3218	3.4758	0.6644	-0.9686	2.0107	-1.3043	4.5109	-1.7064	1.1155	2.0526
-4.7557	-3.7661	-6.8223	-3.9024	-2.682	-5.7977	-2.8324	-1.5141	-2.2834	-0.4161	2.4583	1.2938	3.4863	0.5875	-1.1085	1.9582	-1.1539	4.5493	-1.6645	1.098	2.1086
-4.9795	-3.9759	-7.0566	-4.1402	-2.8499	-6.0075	-2.9968	-1.5875	-2.3778	-0.4861	2.4233	1.2309	3.4513	0.521	-1.1854	1.8708	-1.0106	4.5668	-1.619	1.0595	2.21
-5.2592	-4.2416	-7.3643	-4.3535	-3.0387	-6.2208	-3.2031	-1.7099	-2.5352	-0.6259	2.3184	1.133	3.3919	0.4021	-1.3078	1.7554	-0.7938	4.5284	-1.5945	0.9651	2.2484
-5.5075	-4.5493	-7.6545	-4.5563	-3.2555	-6.4131	-3.3989	-1.7869	-2.6401	-0.7413	2.2624	1.0665	3.3325	0.3147	-1.4092	1.6925	-0.6329	4.5004	-1.5001	0.9302	2.3079
-5.7453	-4.8676	-7.9133	-4.8081	-3.5038	-6.6929	-3.6367	-1.9093	-2.8009	-0.8812	2.182	0.9546	3.259	0.2378	-1.5001	1.6085	-0.4686	4.4724	-1.4652	0.8427	2.3568
-5.9865	-5.2207	-8.207	-5.0249	-3.7696	-6.9342	-3.8395	-2.0456	-2.9548	-1.0386	2.0736	0.8602	3.1506	0.1504	-1.591	1.5106	-0.2797	4.3815	-1.4407	0.7693	2.3813
-6.2243	-5.5459	-8.5147	-5.2312	-3.9689	-7.1754	-4.0318	-2.147	-3.0912	-1.1539	1.9897	0.7623	3.0842	0.0629	-1.682	1.4582	-0.1294	4.329	-1.3603	0.6819	2.4478
-6.4481	-5.8571	-8.749	-5.434	-4.1717	-7.3783	-4.2137	-2.2799	-3.259	-1.2798	1.9372	0.6574	2.9933	-0.0105	-1.7589	1.3742	0.0105	4.2521	-1.3218	0.5805	2.4792
-6.6754	-6.1544	-9.0392	-5.6124	-4.357	-7.6335	-4.385	-2.4023	-3.4094	-1.4407	1.8533	0.57	2.8989	-0.0839	-1.8358	1.2868	0.1678	4.1647	-1.2763	0.5175	2.5107
-6.8747	-6.4061	-9.2875	-5.7767	-4.5144	-7.8259	-4.5039	-2.4967	-3.5283	-1.5316	1.7904	0.514	2.8464	-0.1364	-1.8883	1.2309	0.2693	4.1402	-1.2169	0.4651	2.5492
-7.0286	-6.6649	-9.5078	-5.9166	-4.6542	-7.9832	-4.6333	-2.5841	-3.6507	-1.6365	1.7204	0.4581	2.7625	-0.1888	-1.9722	1.1854	0.3881	4.0458	-1.1959	0.4126	2.5841
-7.2139	-6.8887	-9.7141	-6.0879	-4.7661	-8.1755	-4.7452	-2.6611	-3.7835	-1.7414	1.6645	0.3707	2.6855	-0.2483	-2.0281	1.098	0.514	3.9829	-1.1854	0.3252	2.5876
-7.3643	-7.0601	-9.9414	-6.2523	-4.8885	-8.3364	-4.8606	-2.7415	-3.885	-1.8463	1.626	0.3287	2.6191	-0.3042	-2.0631	0.9896	0.6084	3.9094	-1.1994	0.2728	2.6016
-7.5076	-7.2174	-10.1163	-6.3922	-4.9655	-8.5042	-4.955	-2.78	-3.9899	-1.9267	1.5631	0.2693	2.5597	-0.3462	-2.1261	0.8952	0.6889	3.8535	-1.1854	0.2098	2.6506
-7.623	-7.3398	-10.2946	-6.553	-5.0144	-8.6756	-5.0319	-2.8254	-4.0948	-1.9792	1.5246	0.2063	2.5247	-0.3637	-2.1505	0.8252	0.7378	3.794	-1.1784	0.1678	2.6681
-7.7524	-7.4517	-10.4624	-6.6859	-5.0809	-8.812	-5.1438	-2.8989	-4.2137	-2.0911	1.4861	0.1364	2.4408	-0.3951	-2.1995	0.7308	0.7868	3.7556	-1.1854	0.1049	2.682
-7.8433	-7.4867	-10.6163	-6.8188	-5.1193	-8.9378	-5.2277	-2.9408	-4.3221	-2.175	1.4512	0.042	2.3499	-0.3916	-2.231	0.6889	0.7868	3.6996	-1.1539	0.0699	2.6576
-7.9343	-7.5216	-10.7562	-6.9586	-5.1578	-9.0637	-5.3326	-3.0317	-4.413	-2.238	1.3847	-0.035	2.2904	-0.3916	-2.2519	0.6364	0.7728	3.6507	-1.1435	0.0035	2.6681
-8.0217	-7.6265	-10.91	-7.137	-5.2277	-9.2141	-5.4166	-3.0702	-4.5598	-2.3499	1.3253	-0.1294	2.2135	-0.3707	-2.2834	0.591	0.7483	3.6052	-1.1295	-0.0175	2.6436
-8.1021	-7.6825	-11.0289	-7.2454	-5.2907	-9.3365	-5.497	-3.1471	-4.6787	-2.4513	1.2554	-0.1993	2.1365	-0.3462	-2.3079	0.577	0.7133	3.5597	-1.112	-0.0455	2.5946
-8.193	-7.8119	-11.1793	-7.3888	-5.4061	-9.5008	-5.6229	-3.2485	-4.8431	-2.5632	1.1644	-0.3287	2.0491	-0.3322	-2.3394	0.5735	0.6784	3.5038	-1.091	-0.1084	2.5841
-8.2315	-7.9552	-11.3052	-7.4902	-5.504	-9.6267	-5.6963	-3.2835	-4.9375	-2.6611	1.1295	-0.4056	1.9897	-0.2937	-2.3079	0.5805	0.6049	3.4653	-1.049	-0.1748	2.5422
-8.3084	-8.1301	-11.445	-7.5951	-5.6403	-9.7946	-5.7872	-3.3464	-5.0634	-2.731	1.07	-0.4791	1.8988	-0.2518	-2.2904	0.5875	0.535	3.4164	-0.9896	-0.1888	2.5072
-8.4203	-8.3818	-11.5779	-7.7419	-5.7942	-9.9484	-5.8816	-3.4548	-5.2382	-2.8359	0.9511	-0.5805	1.7939	-0.2378	-2.2659	0.577	0.4826	3.3604	-0.9861	-0.2658	2.4618
-8.4833	-8.5812	-11.7283	-7.8468	-5.9201	-10.0743	-5.9621	-3.5528	-5.3501	-2.9303	0.8637	-0.6854	1.7169	-0.1993	-2.2275	0.6084	0.4021	3.3045	-0.9336	-0.3077	2.4128
-8.5427	-8.812	-11.8332	-8.0112	-6.0984	-10.2317	-6.067	-3.6612	-5.4795	-3.0003	0.8078	-0.7588	1.64	-0.1643	-2.2065	0.6434	0.3427	3.238	-0.9406	-0.3777	2.3638
-8.6196	-8.9973	-11.9696	-8.0776	-6.1963	-10.354	-6.1404	-3.7486	-5.5844	-3.0877	0.7308	-0.8602	1.5526	-0.1189	-2.154	0.6889	0.2553	3.1506	-0.9371	-0.4476	2.3499
-8.6966	-9.1511	-12.0605	-8.172	-6.2838	-10.4694	-6.2138	-3.8535	-5.6928	-3.1611	0.6399	-0.9686	1.4267	-0.0944	-2.0981	0.6889	0.2028	3.0737	-0.9267	-0.57	2.2519
-8.7175	-9.2456	-12.1164	-8.2664	-6.3642	-10.5604	-6.2698	-3.9129	-5.7732	-3.2241	0.556	-1.0316	1.3463	-0.0629	-2.0491	0.7483	0.1329	2.9898	-0.9057	-0.6469	2.175
-8.805	-9.305	-12.2248	-8.3574	-6.4446	-10.6967	-6.3537	-3.9864	-5.8921	-3.301	0.493	-1.147	1.2414	-0.0525	-2.0142	0.7623	0.1049	2.8569	-0.9441	-0.7763	2.1051
-8.8224	-9.2875	-12.2143	-8.3888	-6.4376	-10.7247	-6.3642	-4.0283	-5.9481	-3.3394	0.4196	-1.2064	1.1924	-0.021	-1.9372	0.8078	0.042	2.7555	-0.9406	-0.8742	2.0212
-8.8259	-9.1791	-12.2213	-8.4483	-6.4201	-10.7737	-6.3712	-4.0773	-6.011	-3.3779	0.3392	-1.2938	1.0805	0.0035	-1.8743	0.8672	0	2.6086	-0.9546	-0.9931	1.9232
-8.8294	-9.0462	-12.1969	-8.4972	-6.3852	-10.7841	-6.4096	-4.1087	-6.0914	-3.4199	0.2972	-1.3673	0.9931	0.021	-1.7729	0.8847	-0.0385	2.4932	-0.9651	-1.0805	1.8463
-8.812	-8.8469	-12.1514	-8.4902	-6.3327	-10.7562	-6.4096	-4.1262	-6.0984	-3.4583	0.2378	-1.4722	0.8882	0.035	-1.654	0.8567	-0.0629	2.3848	-1.0036	-1.1924	1.7414
-8.749	-8.6126	-12.085	-8.4798	-6.2068	-10.7841	-6.3922	-4.1227	-6.0809	-3.4653	0.2273	-1.5106	0.7938	0.0385	-1.5176	0.8637	-0.1049	2.2554	-0.9756	-1.2903	1.696
-8.714	-8.3469	-11.994	-8.4658	-6.1019	-10.7142	-6.3922	-4.1192	-6.1124	-3.5003	0.1469	-1.5736	0.7238	0.0525	-1.3777	0.8532	-0.0979	2.1226	-1.0001	-1.3742	1.6155
-8.6441	-8.0671	-11.8752	-8.4063	-5.983	-10.6478	-6.3152	-4.0948	-6.0809	-3.4758	0.1189	-1.626	0.6434	0.0559	-1.1959	0.7763	-0.1014	2.0247	-1.0071	-1.4617	1.5351
-8.6056	-7.8433	-11.7842	-8.3574	-5.8641	-10.5813	-6.2838	-4.0703	-6.0705	-3.5108	0.0979	-1.6785	0.528	0.028	-1.042	0.6714	-0.0664	1.8778	-1.0316	-1.5456	1.4477
-8.5252	-7.5741	-11.6723	-8.3084	-5.7418	-10.4974	-6.2593	-4.0493	-6.0565	-3.5108	0.0804	-1.6925	0.4721	0.028	-0.8777	0.6189	-0.0525	1.7554	-1.056	-1.647	1.3917
-8.4623	-7.3293	-11.5534	-8.235	-5.6054	-10.41	-6.2313	-4.0003	-5.997	-3.4933	0.0734	-1.6855	0.4126	0.0105	-0.7099	0.528	-0.014	1.6225	-1.0805	-1.7064	1.3323
-8.3783	-7.067	-11.3961	-8.172	-5.462	-10.2946	-6.2033	-3.9654	-5.9411	-3.5073	0.0385	-1.7274	0.3007	-0.007	-0.5455	0.4546	0.0175	1.4826	-1.1435	-1.7764	1.2728
-8.3469	-6.8328	-11.2597	-8.1126	-5.3151	-10.1687	-6.1509	-3.8919	-5.9026	-3.5108	0.0315	-1.7169	0.2448	-0.035	-0.3707	0.3462	0.0734	1.3673	-1.1959	-1.8393	1.1924
-8.263	-6.623	-11.1233	-8.0042	-5.1893	-10.0393	-6.1229	-3.8395	-5.8187	-3.4863	0.028	-1.7379	0.1713	-0.0699	-0.2028	0.2728	0.1364	1.2239	-1.2728	-1.9197	1.1225
-8.1755	-6.4131	-10.9765	-7.9063	-5.0144	-9.861	-6.0215	-3.7206	-5.7138	-3.4513	0.0385	-1.675	0.1643	-0.0839	-0.014	0.1993	0.1504	1.133	-1.2589	-1.9442	1.091
-8.0986	-6.2348	-10.8226	-7.7734	-4.8676	-9.7246	-5.9656	-3.6192	-5.6299	-3.4094	0.0734	-1.633	0.1084	-0.1014	0.1469	0.0979	0.2063	1.0246	-1.2763	-2.0037	1.049
-7.9937	-6.067	-10.6513	-7.644	-4.7557	-9.5673	-5.8816	-3.5423	-5.518	-3.3919	0.0769	-1.598	0.042	-0.1329	0.2762	0.042	0.2693	0.9267	-1.3078	-2.0421	0.9966
-7.9482	-5.983	-10.5464	-7.5496	-4.6263	-9.4379	-5.8327	-3.4688	-5.4515	-3.3849	0.0664	-1.5945	-0.0105	-0.1713	0.4126	-0.0175	0.3462	0.8008	-1.3253	-2.0806	0.9302
-7.8993	-5.8851	-10.4065	-7.4797	-4.5424	-9.319	-5.8152	-3.4094	-5.3606	-3.3989	0.0874	-1.5875	-0.0909	-0.1993	0.542	-0.1189	0.3986	0.7064	-1.3218	-2.1156	0.8742
-7.8468	-5.8222	-10.3086	-7.3922	-4.4654	-9.2071	-5.8222	-3.3814	-5.2977	-3.3849	0.0455	-1.605	-0.1574	-0.2308	0.6609	-0.1504	0.4756	0.598	-1.3393	-2.154	0.7938
-7.7804	-5.7592	-10.1897	-7.3433	-4.3955	-9.0742	-5.8292	-3.336	-5.2347	-3.4129	0.0315	-1.6085	-0.2273	-0.2588	0.7798	-0.1958	0.514	0.4861	-1.3498	-2.1715	0.7378
-7.7279	-5.6928	-10.0533	-7.2734	-4.343	-8.9448	-5.8397	-3.3325	-5.1753	-3.4234	-0.021	-1.6295	-0.3007	-0.2867	0.9057	-0.2308	0.5665	0.3567	-1.3568	-2.1925	0.6469
-7.658	-5.5704	-9.9449	-7.2174	-4.2451	-8.805	-5.8222	-3.301	-5.1018	-3.4583	-0.0594	-1.6505	-0.3916	-0.2832	0.9966	-0.2238	0.5805	0.2518	-1.3533	-2.21	0.598
-7.5881	-5.4305	-9.805	-7.1405	-4.1122	-8.6721	-5.8187	-3.2555	-5.0354	-3.4479	-0.1084	-1.675	-0.4581	-0.3077	1.098	-0.2203	0.6049	0.1678	-1.3987	-2.238	0.4965
-7.5181	-5.3116	-9.6582	-7.0705	-3.9899	-8.5252	-5.8117	-3.1856	-4.9445	-3.4618	-0.1329	-1.6645	-0.5245	-0.2972	1.2274	-0.2378	0.598	0.0839	-1.4267	-2.224	0.4196
-7.4132	-5.1473	-9.4833	-6.9482	-3.794	-8.3434	-5.7627	-3.0982	-4.8116	-3.4234	-0.1154	-1.633	-0.5665	-0.2972	1.3638	-0.2588	0.5805	0.0385	-1.4512	-2.196	0.3147
-7.2908	-5.0039	-9.3155	-6.8537	-3.6122	-8.1825	-5.6893	-3.0107	-4.7277	-3.4024	-0.1364	-1.626	-0.6084	-0.2762	1.4931	-0.2098	0.5315	-0.035	-1.5106	-2.1505	0.2658
-7.1475	-4.8291	-9.1267	-6.7558	-3.4409	-7.9832	-5.5949	-2.8989	-4.5878	-3.308	-0.1294	-1.5631	-0.5945	-0.2483	1.619	-0.1958	0.4826	-0.0874	-1.5666	-2.1156	0.1923
-7.0181	-4.6857	-8.9553	-6.6474	-3.2835	-7.7909	-5.5145	-2.8044	-4.4584	-3.2555	-0.1294	-1.5561	-0.6154	-0.2063	1.7414	-0.1643	0.4196	-0.1189	-1.598	-2.0526	0.1084
-6.8572	-4.5703	-8.7455	-6.5355	-3.0842	-7.609	-5.4096	-2.6786	-4.3081	-3.1681	-0.1259	-1.4687	-0.584	-0.1713	1.8673	-0.1469	0.3392	-0.1259	-1.6505	-1.9687	0.0315
-6.7139	-4.4759	-8.5672	-6.4306	-2.9338	-7.4272	-5.2872	-2.5492	-4.1787	-3.0772	-0.1014	-1.3847	-0.5595	-0.1329	2.0212	-0.1259	0.2413	-0.1364	-1.64	-1.8813	-0.035
-6.5355	-4.3815	-8.3609	-6.3152	-2.7695	-7.2209	-5.1403	-2.4373	-4.0458	-2.9723	-0.0804	-1.3183	-0.535	-0.0944	2.161	-0.1329	0.1713	-0.0979	-1.633	-1.7449	-0.0944
-6.3782	-4.3535	-8.1895	-6.2033	-2.6611	-7.0251	-4.9795	-2.3638	-3.885	-2.8884	-0.0909	-1.2484	-0.5035	-0.0559	2.2694	-0.1154	0.1189	-0.0769	-1.6295	-1.6435	-0.1818
-6.2453	-4.2941	-7.9902	-6.06	-2.5387	-6.8153	-4.8256	-2.2624	-3.7381	-2.7765	-0.0909	-1.1889	-0.4441	-0.0105	2.3918	-0.0734	0.035	-0.042	-1.5841	-1.5141	-0.2483
-6.1369	-4.2556	-7.8503	-5.9551	-2.4722	-6.6579	-4.7067	-2.1855	-3.5982	-2.6681	-0.1049	-1.1155	-0.3916	0.007	2.4827	-0.0699	-0.0035	-0.021	-1.5246	-1.4127	-0.3462
-5.9551	-4.2102	-7.6125	-5.8117	-2.3394	-6.4796	-4.5214	-2.147	-3.4304	-2.5492	-0.1014	-1.0316	-0.3427	0.0315	2.6016	-0.049	-0.0629	0.028	-1.4582	-1.2798	-0.4231
-5.8047	-4.1402	-7.4377	-5.6858	-2.2519	-6.2873	-4.336	-2.0526	-3.273	-2.4373	-0.1189	-0.9441	-0.2832	0.0664	2.703	0.014	-0.1224	0.0594	-1.3673	-1.1435	-0.514
-5.6543	-4.0213	-7.2279	-5.4935	-2.1575	-6.067	-4.1402	-1.9897	-3.1122	-2.3114	-0.1014	-0.8777	-0.1923	0.0909	2.8569	0.0035	-0.1783	0.1329	-1.2833	-1.0071	-0.584
-5.4725	-3.9199	-7.0111	-5.3082	-2.0491	-5.8641	-3.9584	-1.9337	-2.9268	-2.1925	-0.1119	-0.7658	-0.1084	0.1084	2.9303	0.049	-0.2273	0.1853	-1.2064	-0.8602	-0.6714
-5.3116	-3.8115	-6.7698	-5.1053	-1.9372	-5.6543	-3.7311	-1.8778	-2.7625	-2.0666	-0.1049	-0.6679	-0.0315	0.1364	3.0667	0.0909	-0.2762	0.2623	-1.112	-0.7413	-0.7238
-5.1578	-3.7206	-6.553	-4.892	-1.8393	-5.42	-3.4898	-1.7974	-2.5422	-1.9232	-0.0909	-0.5455	0.0594	0.1609	3.1926	0.1189	-0.3322	0.3497	-1.07	-0.5875	-0.7938
-4.9899	-3.6157	-6.3187	-4.6927	-1.7344	-5.2102	-3.2625	-1.7589	-2.3813	-1.7904	-0.0944	-0.4546	0.1469	0.1748	3.3045	0.1783	-0.3707	0.4056	-1.042	-0.4965	-0.8637
-4.8431	-3.5528	-6.1089	-4.4829	-1.6505	-5.0004	-3.0632	-1.6785	-2.196	-1.6505	-0.0629	-0.3217	0.2623	0.1993	3.4339	0.2028	-0.4126	0.4616	-1.0036	-0.4406	-0.8672
-4.6962	-3.4968	-5.8991	-4.2731	-1.5596	-4.8256	-2.8674	-1.6225	-2.0072	-1.5596	-0.0315	-0.2063	0.3497	0.2448	3.5667	0.2553	-0.4441	0.5175	-1.0176	-0.3637	-0.9302
-4.5563	-3.4304	-5.7103	-4.1087	-1.4896	-4.6088	-2.6611	-1.5596	-1.8148	-1.4407	0.028	-0.0664	0.4511	0.2448	3.6716	0.3077	-0.4721	0.563	-1.0071	-0.3322	-0.9686
-4.4339	-3.3604	-5.5494	-3.8989	-1.4442	-4.4479	-2.4932	-1.5036	-1.6435	-1.3253	0.0874	0.0385	0.514	0.2413	3.794	0.3427	-0.4756	0.57	-1.0281	-0.2972	-0.9966
-4.3116	-3.294	-5.3571	-3.7276	-1.3533	-4.2591	-2.3079	-1.4582	-1.4442	-1.2309	0.1504	0.1539	0.591	0.2413	3.9024	0.3812	-0.4721	0.584	-1.0455	-0.2972	-1.0001
-4.1997	-3.1996	-5.1928	-3.5947	-1.2693	-4.0808	-2.189	-1.3917	-1.2973	-1.1504	0.2098	0.3147	0.6364	0.2063	3.9829	0.4231	-0.4056	0.577	-1.0595	-0.3287	-1.0246
-4.1367	-3.0422	-5.0564	-3.4374	-1.1924	-3.9024	-2.0526	-1.3183	-1.1085	-1.056	0.2937	0.4441	0.6994	0.1609	4.0493	0.4336	-0.3462	0.584	-1.049	-0.3637	-1.0001
-4.0318	-2.9163	-4.9025	-3.3534	-1.0735	-3.7241	-1.9372	-1.2484	-0.8987	-0.9756	0.3881	0.5875	0.7763	0.1434	4.1157	0.4581	-0.2797	0.5665	-1.056	-0.3951	-0.9511
-3.9444	-2.7905	-4.7941	-3.2695	-0.9546	-3.5458	-1.8638	-1.1225	-0.7238	-0.9162	0.5	0.7308	0.8427	0.0979	4.1892	0.4441	-0.1923	0.584	-1.0386	-0.4091	-0.8952
-3.8745	-2.6576	-4.6333	-3.1821	-0.8113	-3.3954	-1.8044	-1.0386	-0.528	-0.8322	0.6119	0.8812	0.9092	0.0525	4.2171	0.4511	-0.0979	0.5665	-1.0106	-0.4441	-0.8602
-3.8395	-2.5597	-4.5493	-3.1716	-0.6854	-3.245	-1.7694	-0.9057	-0.3637	-0.7763	0.7588	1.0281	0.9581	-0.028	4.2451	0.4161	0.0385	0.549	-0.9791	-0.4826	-0.7798
-3.8045	-2.4513	-4.4479	-3.1331	-0.5315	-3.0877	-1.7204	-0.7658	-0.1853	-0.7029	0.8847	1.1644	1.0211	-0.0839	4.2766	0.3742	0.1713	0.577	-0.9336	-0.5035	-0.7168
-3.7905	-2.4023	-4.385	-3.1052	-0.3951	-2.9303	-1.6645	-0.6294	-0.021	-0.6399	1.0246	1.3008	1.0945	-0.1748	4.2766	0.2902	0.3392	0.6015	-0.8812	-0.5245	-0.6294
-3.7661	-2.3359	-4.3151	-3.0737	-0.2797	-2.7939	-1.6505	-0.4756	0.1818	-0.5525	1.1924	1.4512	1.1959	-0.2378	4.2766	0.2273	0.4826	0.6189	-0.8287	-0.542	-0.521
-3.7835	-2.2904	-4.2311	-3.0597	-0.1609	-2.6786	-1.6435	-0.3217	0.3077	-0.4791	1.3253	1.5771	1.2519	-0.3357	4.2731	0.1469	0.6504	0.6574	-0.7448	-0.549	-0.4406
-3.7766	-2.2799	-4.1717	-3.0562	-0.042	-2.5632	-1.6085	-0.1993	0.4896	-0.3986	1.4372	1.7169	1.3393	-0.4196	4.2311	0.0734	0.8148	0.6679	-0.6924	-0.5385	-0.3287
-3.7905	-2.217	-4.1192	-3.0177	0.0874	-2.4128	-1.5631	-0.035	0.6539	-0.2972	1.6085	1.8743	1.4267	-0.4791	4.2241	-0.0175	0.9302	0.7273	-0.584	-0.5175	-0.2063
-3.7591	-2.1995	-4.0563	-2.9968	0.1783	-2.3079	-1.5491	0.0909	0.7833	-0.2867	1.7239	1.9932	1.4826	-0.528	4.1787	-0.0629	1.056	0.7064	-0.514	-0.514	-0.0944
-3.78	-2.2135	-4.0003	-2.9513	0.2797	-2.147	-1.4791	0.2238	0.9232	-0.1958	1.8603	2.1226	1.5596	-0.584	4.1787	-0.1294	1.147	0.7553	-0.4021	-0.493	0.0315
-3.7661	-2.224	-3.9374	-2.9023	0.3707	-2.0316	-1.4372	0.3462	1.077	-0.1154	2.0072	2.2834	1.6715	-0.6119	4.1857	-0.2028	1.2099	0.8148	-0.3077	-0.4371	0.1574
-3.7381	-2.224	-3.864	-2.8394	0.4511	-1.8883	-1.3428	0.4371	1.2519	-0.007	2.1226	2.4023	1.7624	-0.6399	4.1542	-0.2238	1.2798	0.8427	-0.2273	-0.3881	0.2553
-3.6926	-2.2065	-3.7591	-2.773	0.5455	-1.7764	-1.2658	0.5315	1.4337	0.0979	2.2659	2.5771	1.8848	-0.6434	4.1402	-0.2623	1.2903	0.9267	-0.1364	-0.3252	0.3881
-3.6262	-2.1365	-3.6262	-2.6296	0.6539	-1.598	-1.1295	0.6504	1.598	0.2413	2.4268	2.7695	2.0107	-0.6469	4.1472	-0.2448	1.2903	1.0176	-0.0874	-0.2343	0.5105
-3.5597	-2.0142	-3.5073	-2.5142	0.7693	-1.4127	-0.9826	0.7483	1.7554	0.3707	2.5771	2.9268	2.14	-0.6329	4.1507	-0.2378	1.2763	1.1155	-0.0664	-0.1678	0.6224
-3.4653	-1.8603	-3.3429	-2.3289	0.9057	-1.2379	-0.8287	0.8812	1.9617	0.5665	2.7485	3.1192	2.3044	-0.6189	4.1717	-0.2098	1.2309	1.2274	-0.0629	-0.042	0.7273
-3.3255	-1.7134	-3.1926	-2.1715	1.063	-1.07	-0.6574	0.9756	2.1645	0.7413	2.8954	3.301	2.4827	-0.584	4.2032	-0.1329	1.1644	1.3707	-0.0874	0.0839	0.8497
-3.2101	-1.5106	-2.9863	-1.9967	1.2204	-0.8707	-0.4791	1.112	2.3359	0.9127	3.0702	3.4898	2.6436	-0.535	4.2626	-0.0594	1.0665	1.4896	-0.1294	0.2168	0.9441
-3.0947	-1.3498	-2.8184	-1.8778	1.3218	-0.7133	-0.3497	1.2169	2.4932	1.042	3.2415	3.6542	2.7905	-0.507	4.2906	-0.0105	1.0036	1.6155	-0.1993	0.3077	1.049
-2.9373	-1.2029	-2.6576	-1.7414	1.4407	-0.528	-0.2133	1.3288	2.6541	1.2274	3.3884	3.8045	2.9478	-0.4686	4.3535	0.0559	0.9127	1.7414	-0.2658	0.4476	1.126
-2.7765	-1.0665	-2.4583	-1.591	1.5316	-0.3812	-0.0629	1.4057	2.7939	1.3638	3.5318	3.9619	3.0912	-0.3951	4.4235	0.1504	0.8043	1.8813	-0.3742	0.556	1.2029
-2.6716	-0.9721	-2.3149	-1.4687	1.5841	-0.2308	0.0559	1.4966	2.9408	1.5001	3.6681	4.1227	3.2415	-0.3567	4.4724	0.2203	0.7099	2.0037	-0.4686	0.6609	1.2833
-2.5387	-0.9022	-2.154	-1.3742	1.626	-0.1329	0.1539	1.5736	3.0492	1.6295	3.7591	4.2311	3.3744	-0.3182	4.5389	0.2972	0.6189	2.1156	-0.5315	0.7693	1.3603
-2.4198	-0.8532	-2.0247	-1.2763	1.654	-0.0245	0.2273	1.5875	3.1226	1.7309	3.871	4.3395	3.4583	-0.2588	4.5843	0.4266	0.514	2.231	-0.591	0.8882	1.4302
-2.2764	-0.8217	-1.8918	-1.2029	1.7029	0.0874	0.3322	1.6295	3.2031	1.8358	3.9689	4.4549	3.5807	-0.2133	4.6403	0.4826	0.4126	2.3394	-0.6224	1.0106	1.5246
-2.1715	-0.8043	-1.7694	-1.119	1.7064	0.1853	0.4091	1.6645	3.3045	1.9232	4.0948	4.5668	3.6856	-0.1574	4.7172	0.5595	0.3077	2.4268	-0.5875	1.1225	1.6085
-2.0631	-0.8078	-1.64	-1.0211	1.6925	0.2762	0.5	1.6785	3.3849	2.0177	4.1717	4.6682	3.787	-0.1224	4.7626	0.6504	0.2238	2.5282	-0.5595	1.2309	1.7204
-1.8988	-0.8008	-1.4861	-0.9127	1.7274	0.3812	0.5805	1.6925	3.4688	2.1296	4.2661	4.7487	3.871	-0.0699	4.8151	0.7588	0.1399	2.6226	-0.521	1.3638	1.8463
-1.8009	-0.8217	-1.3568	-0.8217	1.689	0.4651	0.6539	1.7099	3.5458	2.203	4.329	4.8396	3.9584	-0.0455	4.913	0.8217	0.0734	2.703	-0.3916	1.4722	1.9477
-1.6365	-0.7868	-1.1924	-0.7029	1.7099	0.577	0.7798	1.7239	3.6227	2.3079	4.406	4.955	4.0703	-0.007	4.962	0.9371	-0.0035	2.8079	-0.2728	1.612	2.0806
-1.5456	-0.7763	-1.07	-0.591	1.7099	0.6609	0.8847	1.7204	3.7346	2.3743	4.4759	5.0389	4.1542	0.0175	5.0214	0.9931	-0.0455	2.8464	-0.1539	1.6994	2.1855
-1.3882	-0.7868	-0.9197	-0.4511	1.7064	0.7623	0.9966	1.7414	3.794	2.5107	4.5633	5.1438	4.2311	0.0559	5.0844	1.0525	-0.1014	2.9688	-0.028	1.8148	2.3044
-1.2623	-0.7868	-0.7798	-0.3217	1.7274	0.8742	1.1155	1.8044	3.9059	2.5981	4.6368	5.2347	4.3151	0.0629	5.1438	1.1155	-0.1539	3.0457	0.1259	1.9372	2.4408
-1.119	-0.7658	-0.6749	-0.2063	1.7239	0.9581	1.2414	1.8183	3.9899	2.6681	4.7207	5.3396	4.3815	0.0909	5.1998	1.1539	-0.1853	3.0912	0.2483	2.0351	2.5527
-0.9931	-0.7868	-0.493	-0.0629	1.7169	1.077	1.3358	1.8568	4.0913	2.78	4.7976	5.4026	4.4479	0.1014	5.2627	1.1924	-0.2098	3.1716	0.3986	2.1261	2.6786
-0.8952	-0.8113	-0.3812	0.0629	1.7484	1.1539	1.4302	1.8953	4.1892	2.8359	4.8466	5.4725	4.4759	0.1259	5.3047	1.2379	-0.2448	3.1961	0.5315	2.189	2.759
-0.7343	-0.8183	-0.2168	0.1958	1.7694	1.2379	1.5071	1.9023	4.2241	2.9023	4.9025	5.5145	4.4934	0.1224	5.3466	1.2309	-0.2413	3.2415	0.6644	2.2589	2.8814
-0.6189	-0.8217	-0.1224	0.2797	1.8044	1.3043	1.5491	1.9477	4.2696	2.9233	4.934	5.525	4.5284	0.1294	5.3781	1.2623	-0.2378	3.231	0.7728	2.3184	2.9828
-0.5385	-0.7973	0	0.3916	1.7904	1.3568	1.6155	1.9442	4.2766	2.9583	4.962	5.5494	4.5249	0.1189	5.4445	1.2484	-0.2063	3.2276	0.8812	2.3184	3.0352
-0.4161	-0.7833	0.1259	0.4896	1.8218	1.4162	1.647	1.9792	4.3325	2.9583	5.0039	5.5669	4.5424	0.0909	5.497	1.2239	-0.1818	3.2101	0.9791	2.3219	3.0807
-0.2762	-0.7413	0.2797	0.6189	1.8603	1.5071	1.696	2.0177	4.3675	3.0073	5.0109	5.5599	4.5389	0.0839	5.5634	1.2239	-0.1574	3.2276	1.1015	2.3289	3.1506
-0.1818	-0.7203	0.3846	0.7133	1.8638	1.5491	1.7309	2.0316	4.3955	3.0142	5.0564	5.5564	4.5389	0.0525	5.6543	1.1609	-0.1049	3.1856	1.1819	2.3359	3.2031
-0.0385	-0.7203	0.549	0.8148	1.8988	1.654	1.7869	2.0596	4.4374	3.0667	5.0879	5.5494	4.5493	0.0594	5.7383	1.1644	-0.0909	3.1961	1.2763	2.3394	3.2625
0.0699	-0.7413	0.6504	0.9371	1.8743	1.6994	1.8253	2.0736	4.4444	3.0597	5.0983	5.5529	4.5424	0.028	5.8257	1.105	-0.042	3.1681	1.3603	2.3079	3.3115
0.1853	-0.7483	0.7868	1.0665	1.8743	1.7659	1.8708	2.0806	4.4759	3.0912	5.1193	5.5564	4.5738	0.0175	5.9341	1.077	-0.028	3.1716	1.4896	2.3079	3.3709
0.3042	-0.8008	0.8987	1.1574	1.8428	1.8148	1.9058	2.0841	4.4899	3.1192	5.1228	5.5389	4.5773	0.0035	6.011	1.0455	0.028	3.1436	1.5596	2.2519	3.3989
0.4021	-0.8113	1.0036	1.2484	1.8323	1.8428	1.9582	2.0561	4.4934	3.1331	5.1123	5.476	4.5878	-0.028	6.1194	0.9861	0.0664	3.1192	1.6645	2.217	3.4444
0.5175	-0.8497	1.112	1.3148	1.8218	1.8603	2.0142	2.0421	4.4934	3.1436	5.1053	5.4445	4.5773	-0.049	6.1963	0.9336	0.1084	3.1087	1.7344	2.168	3.4583
0.6329	-0.8252	1.2064	1.3777	1.7904	1.8918	2.0281	2.0491	4.4829	3.1471	5.0948	5.3781	4.5773	-0.0629	6.2663	0.8917	0.1434	3.0632	1.8148	2.1016	3.4723
0.7064	-0.7973	1.3043	1.4582	1.7799	1.9093	2.0561	1.9862	4.4305	3.1331	5.0424	5.2872	4.5493	-0.0874	6.3502	0.8392	0.1713	3.0177	1.8183	2.0526	3.4828
0.8043	-0.7203	1.3917	1.5596	1.8078	1.9232	2.0736	1.9757	4.399	3.1296	5.0039	5.2137	4.5354	-0.0699	6.4027	0.8357	0.1713	2.9863	1.8568	2.0072	3.4723
0.8987	-0.6294	1.4826	1.633	1.7904	1.9302	2.0666	1.9582	4.357	3.0912	4.9445	5.1158	4.4759	-0.0839	6.4481	0.8148	0.1818	2.9408	1.8533	1.9442	3.4513
0.9651	-0.4861	1.5771	1.6925	1.7939	1.9093	2.0596	1.9442	4.2801	3.0562	4.9025	5.0109	4.4374	-0.0944	6.4936	0.7658	0.2028	2.9093	1.8533	1.8848	3.4304
1.049	-0.3322	1.626	1.7694	1.8113	1.9162	2.0351	1.8918	4.2451	2.9968	4.8711	4.8745	4.3605	-0.0944	6.5006	0.7448	0.2133	2.8674	1.7939	1.8218	3.4269
1.105	-0.1539	1.7099	1.7834	1.8323	1.9023	1.9932	1.8498	4.1507	2.9443	4.8116	4.7312	4.2661	-0.1119	6.4831	0.7238	0.2273	2.8149	1.7344	1.7624	3.3639
1.1644	-0.0035	1.7589	1.8044	1.8708	1.8533	1.9652	1.8498	4.0598	2.8779	4.7487	4.6018	4.1927	-0.1084	6.4726	0.7273	0.2238	2.766	1.654	1.696	3.3429
1.2134	0.1364	1.7904	1.8078	1.8603	1.8078	1.8603	1.7834	3.9549	2.745	4.6682	4.4514	4.0843	-0.1189	6.4516	0.7553	0.2413	2.703	1.5596	1.633	3.2835
1.2204	0.2133	1.7904	1.7484	1.8218	1.7449	1.7519	1.7344	3.8255	2.6226	4.5808	4.2731	3.9584	-0.1154	6.3817	0.7798	0.2413	2.6331	1.4092	1.5386	3.2066
1.2239	0.2728	1.7729	1.6645	1.7589	1.6715	1.6505	1.654	3.6751	2.5107	4.4724	4.0983	3.8465	-0.1014	6.3432	0.8183	0.2098	2.5702	1.3043	1.4722	3.1681
1.2099	0.2728	1.7309	1.5875	1.7064	1.5526	1.5176	1.5875	3.5493	2.4058	4.3815	3.9549	3.7206	-0.0839	6.2663	0.8777	0.1783	2.5212	1.2029	1.4162	3.0702
1.2064	0.2832	1.6855	1.4896	1.647	1.4547	1.3917	1.5141	3.4199	2.2624	4.2836	3.787	3.5912	-0.0629	6.2068	0.9616	0.1364	2.4478	1.07	1.3358	2.9933
1.2134	0.2343	1.6505	1.3638	1.5806	1.3603	1.2693	1.4477	3.2905	2.147	4.1962	3.6367	3.4723	-0.0175	6.1474	1.049	0.0594	2.4128	0.9302	1.2728	2.9408
1.2064	0.2273	1.5945	1.2589	1.5281	1.2484	1.1609	1.3917	3.1646	2.0281	4.1087	3.5108	3.3464	0.007	6.1264	1.14	0	2.3464	0.7728	1.1994	2.8254
1.2169	0.2028	1.591	1.1679	1.4861	1.1889	1.0665	1.3707	3.0597	1.9512	4.0458	3.4059	3.238	0.0385	6.046	1.2414	-0.0804	2.2764	0.6364	1.1749	2.7485
1.2344	0.1539	1.5561	1.0735	1.4687	1.1155	0.9791	1.3463	2.9793	1.8673	4.0073	3.3429	3.1646	0.0874	6.0355	1.3393	-0.1643	2.224	0.5175	1.119	2.6611
1.2484	0.1783	1.5351	0.9861	1.4442	1.0875	0.9232	1.3253	2.9443	1.8148	3.9689	3.2975	3.0982	0.1329	6.011	1.4407	-0.2553	2.1575	0.3846	1.084	2.5562
1.2868	0.1853	1.5351	0.9406	1.4337	1.077	0.9022	1.3288	2.9548	1.7869	3.9374	3.273	3.0422	0.1783	6.032	1.5281	-0.3567	2.154	0.2553	1.0805	2.4687
1.3043	0.1713	1.5771	0.9371	1.4197	1.0665	0.9302	1.3638	2.9198	1.7694	3.9339	3.2905	3.0212	0.2238	6.0495	1.619	-0.4616	2.147	0.1224	1.0945	2.3988
1.3812	0.1434	1.6505	0.9721	1.4022	1.098	0.9546	1.3603	2.9653	1.7729	3.9514	3.2905	3.0352	0.3042	6.0914	1.6855	-0.584	2.147	0.0035	1.119	2.2939
1.4722	0.1574	1.7134	1.0525	1.4267	1.1539	1.0211	1.3777	2.9828	1.8113	3.9479	3.308	3.0352	0.3497	6.1229	1.7764	-0.6889	2.154	-0.0944	1.1679	2.203
1.5491	0.1504	1.8253	1.147	1.4197	1.2309	1.105	1.4092	3.0387	1.8708	3.9549	3.3499	3.0702	0.3951	6.1439	1.8813	-0.7798	2.1645	-0.2343	1.2029	2.0841
1.6715	0.1993	1.9547	1.3498	1.4547	1.3428	1.2414	1.4337	3.1331	1.9757	4.0248	3.4513	3.1436	0.4616	6.2208	1.9547	-0.9197	2.224	-0.3007	1.3428	2.0037
1.8113	0.2273	2.0701	1.4861	1.5001	1.4442	1.3358	1.4966	3.245	2.0561	4.0353	3.5597	3.2241	0.514	6.2663	2.0247	-1.0141	2.2519	-0.4056	1.4127	1.9058
1.9687	0.2832	2.2589	1.7134	1.5806	1.6225	1.5036	1.5316	3.4024	2.168	4.0633	3.6647	3.3115	0.5735	6.3257	2.147	-1.133	2.3114	-0.5035	1.5246	1.8078
2.1331	0.3567	2.4757	1.9652	1.6785	1.8323	1.682	1.626	3.5807	2.3499	4.1052	3.822	3.4828	0.6504	6.4446	2.2939	-1.2798	2.4233	-0.5735	1.668	1.7449
2.3464	0.4371	2.6716	2.2729	1.8148	2.0526	1.8778	1.6855	3.7696	2.4932	4.1542	3.9689	3.6262	0.7133	6.532	2.4303	-1.3952	2.4897	-0.6539	1.8078	1.6435
2.5736	0.5595	2.9338	2.5317	1.9792	2.2974	2.0946	1.8009	4.0003	2.696	4.2451	4.1717	3.829	0.7763	6.6509	2.5422	-1.5421	2.6401	-0.7483	1.9897	1.5806
2.78	0.6889	3.1926	2.7939	2.1365	2.5562	2.3324	1.9023	4.2346	2.8954	4.3081	4.364	4.0248	0.8322	6.7663	2.6471	-1.661	2.7625	-0.8183	2.161	1.4757
3.0352	0.8672	3.5143	3.0877	2.3813	2.8709	2.5876	2.0316	4.5354	3.1891	4.4095	4.5948	4.2906	0.9267	6.8817	2.773	-1.8044	2.9548	-0.8812	2.3673	1.3742
3.3115	1.056	3.8185	3.3884	2.6191	3.1856	2.8779	2.217	4.8291	3.4548	4.5074	4.8711	4.5633	0.9826	7.0216	2.9163	-1.9652	3.1401	-0.9057	2.5841	1.3008
3.5493	1.2309	4.1437	3.6577	2.8709	3.5108	3.1646	2.3708	5.1368	3.7521	4.6158	5.1263	4.8571	1.042	7.116	3.0597	-2.0911	3.3604	-0.9232	2.78	1.2309
3.7975	1.3882	4.4654	3.9549	3.1052	3.822	3.4444	2.5457	5.476	4.0633	4.7242	5.4096	5.1893	1.1225	7.2174	3.1541	-2.2065	3.5877	-0.9057	2.9828	1.1574
4.0738	1.5176	4.7626	4.1892	3.3185	4.1507	3.7136	2.6751	5.7662	4.3815	4.7941	5.6578	5.5285	1.1644	7.3293	3.2485	-2.3079	3.836	-0.8567	3.2031	1.0805
4.329	1.661	5.0494	4.4409	3.5143	4.4409	3.9829	2.8044	6.0635	4.6997	4.8955	5.9341	5.8606	1.2099	7.4377	3.3325	-2.3918	4.0563	-0.7693	3.4164	1.0351
4.5493	1.8183	5.3711	4.6682	3.7031	4.7557	4.2591	2.9128	6.3397	5.0039	4.955	6.1928	6.2033	1.2449	7.5566	3.4164	-2.4827	4.3081	-0.6714	3.6192	1.0071
4.7941	1.9792	5.6683	4.8641	3.8535	5.0249	4.5004	3.0107	6.6264	5.2942	5.0109	6.4446	6.5215	1.2938	7.644	3.5213	-2.5702	4.5424	-0.5245	3.8325	0.9791
5.0179	2.1156	5.9341	5.0319	3.9549	5.2557	4.7137	3.0772	6.8537	5.5704	5.0494	6.6649	6.8153	1.3183	7.7175	3.5528	-2.6331	4.7522	-0.3742	4.0213	0.9721
5.2032	2.203	6.1509	5.1788	3.9968	5.4935	4.892	3.1261	7.0775	5.7767	5.0669	6.8398	7.0845	1.3428	7.7699	3.6262	-2.6681	4.976	-0.2693	4.1997	0.9616
5.3466	2.2694	6.3782	5.2732	4.0528	5.6823	5.0494	3.1506	7.2629	6.025	5.0599	6.9971	7.3363	1.3638	7.8363	3.6437	-2.7065	5.1473	-0.1504	4.357	0.9371
5.49	2.3044	6.553	5.3291	4.0388	5.8432	5.1823	3.1646	7.4097	6.1754	5.0284	7.1405	7.5391	1.3847	7.8888	3.6786	-2.731	5.3431	-0.0734	4.5284	0.9476
5.6019	2.2974	6.6719	5.3536	4.0038	5.9725	5.3082	3.1751	7.5076	6.3362	5.0179	7.2629	7.6965	1.3847	7.8993	3.7066	-2.745	5.4865	0.049	4.6892	0.9511
5.6893	2.2939	6.7663	5.3641	3.9584	6.032	5.3711	3.1331	7.6195	6.4516	4.9655	7.3503	7.8503	1.4022	7.9412	3.7066	-2.7695	5.6403	0.1224	4.8046	0.9336
5.7383	2.2484	6.8398	5.3361	3.8884	6.0809	5.3991	3.1226	7.6755	6.5076	4.906	7.4062	7.9377	1.3917	7.9377	3.7346	-2.773	5.7592	0.1783	4.913	0.9197
5.8082	2.2135	6.8992	5.3536	3.836	6.1299	5.42	3.1052	7.7175	6.567	4.8361	7.4902	8.0392	1.3882	7.9552	3.7346	-2.787	5.8851	0.2448	5.0144	0.9406
5.8047	2.182	6.9167	5.2872	3.7276	6.1404	5.4305	3.0842	7.7175	6.553	4.7696	7.5181	8.0811	1.3917	7.9238	3.7136	-2.7415	5.9656	0.2273	5.0669	0.9302
5.8187	2.147	6.9447	5.2382	3.6367	6.1334	5.4061	3.0212	7.6755	6.5355	4.6857	7.5321	8.1336	1.3742	7.8818	3.6961	-2.717	6.0005	0.2623	5.1088	0.9092
5.8222	2.1331	6.9132	5.1893	3.5528	6.0774	5.3466	2.9653	7.6755	6.518	4.5983	7.5461	8.1091	1.3707	7.8608	3.6961	-2.7135	6.0635	0.2273	5.1228	0.8637
5.7837	2.168	6.8782	5.0879	3.5003	6.0914	5.2977	2.8989	7.623	6.4936	4.5179	7.5181	8.1056	1.3707	7.8084	3.6577	-2.6995	6.1089	0.2028	5.1613	0.8392
5.7313	2.175	6.8223	4.976	3.3954	6.0145	5.2347	2.7939	7.5741	6.4341	4.392	7.4972	8.0916	1.3568	7.7734	3.6402	-2.689	6.1334	0.1364	5.1508	0.7693
5.6543	2.2275	6.7488	4.8431	3.3534	5.9271	5.1403	2.7065	7.4902	6.3607	4.2451	7.4202	8.0112	1.3498	7.672	3.6367	-2.6681	6.1089	0.0315	5.1088	0.7308
5.5809	2.2659	6.6474	4.7067	3.3115	5.8606	5.0249	2.5876	7.3957	6.2977	4.1122	7.3573	7.9622	1.3358	7.6021	3.5982	-2.6541	6.0949	-0.0525	5.0948	0.6329
5.4795	2.2799	6.5635	4.5424	3.2345	5.7732	4.892	2.4373	7.2803	6.1858	3.9304	7.2594	7.8573	1.3323	7.5286	3.5702	-2.6436	6.0495	-0.1958	5.0529	0.5455
5.3536	2.3219	6.4516	4.392	3.1856	5.6648	4.7976	2.2764	7.1405	6.067	3.7626	7.137	7.7454	1.3323	7.4482	3.5038	-2.6226	6.0285	-0.3532	5.0074	0.4581
5.2767	2.3568	6.3362	4.2171	3.1646	5.5879	4.6542	2.1156	7.0181	5.9376	3.5912	7.0181	7.5986	1.3183	7.3573	3.4863	-2.6016	5.9411	-0.507	4.934	0.3637
5.1263	2.3568	6.2278	4.0318	3.1122	5.483	4.5144	1.9967	6.8467	5.7942	3.4024	6.8537	7.4377	1.3008	7.2873	3.4094	-2.5841	5.8571	-0.6609	4.8536	0.2623
5.0354	2.3848	6.1264	3.9199	3.0667	5.3956	4.3885	1.8428	6.7104	5.6683	3.238	6.7104	7.3083	1.2973	7.2559	3.3569	-2.5667	5.7732	-0.7868	4.7941	0.1958
4.927	2.3778	6.0285	3.794	3.0387	5.3047	4.2836	1.7099	6.5495	5.511	3.0667	6.539	7.1335	1.2623	7.1685	3.287	-2.5247	5.6508	-0.9197	4.6997	0.1259
4.8501	2.3673	5.9411	3.7031	3.0282	5.2592	4.1682	1.598	6.4166	5.3711	2.9023	6.3992	6.9621	1.2519	7.095	3.2695	-2.4827	5.5319	-1.042	4.6123	0.0734
4.7626	2.3114	5.8502	3.6402	3.0107	5.1893	4.0948	1.4861	6.3152	5.2802	2.773	6.2383	6.8118	1.2344	7.0566	3.2206	-2.4548	5.427	-1.105	4.5389	0.0525
4.6857	2.224	5.7592	3.5493	2.9688	5.1298	3.9864	1.3707	6.1789	5.1578	2.6086	6.074	6.6404	1.1994	7.0111	3.1226	-2.4023	5.2907	-1.1609	4.4584	0
4.5913	2.0876	5.6963	3.4793	2.9198	5.0739	3.9129	1.2589	6.046	5.0459	2.4652	5.9096	6.4761	1.1819	6.9586	3.0807	-2.3429	5.1788	-1.2798	4.3745	-0.021
4.5074	1.9023	5.5914	3.4444	2.8289	5.0109	3.85	1.1679	5.8991	4.941	2.3394	5.7487	6.3152	1.147	6.9377	3.0038	-2.2869	5.0529	-1.3113	4.2871	-0.035
4.4235	1.7519	5.5215	3.4059	2.7275	4.9899	3.801	1.0805	5.8222	4.8536	2.2135	5.6124	6.1754	1.1155	6.9202	2.9513	-2.217	4.9445	-1.3183	4.2241	-0.0385
4.343	1.5666	5.4235	3.3709	2.6226	4.913	3.7346	0.9931	5.6788	4.7382	2.0946	5.448	6.0355	1.07	6.8922	2.8919	-2.1156	4.8291	-1.3603	4.1367	-0.035
4.2521	1.4232	5.3816	3.3464	2.5422	4.878	3.6856	0.9441	5.5704	4.6473	1.9827	5.2627	5.8606	1.0281	6.8887	2.8324	-2.0386	4.7277	-1.3917	4.0913	-0.021
4.2381	1.3078	5.3151	3.3255	2.4687	4.8116	3.6192	0.8882	5.476	4.5528	1.8708	5.0948	5.7243	0.9616	6.8502	2.7555	-1.9302	4.6473	-1.4302	4.0283	-0.0035
4.1857	1.2414	5.2662	3.336	2.3883	4.8081	3.6052	0.8532	5.3781	4.4829	1.8253	4.9829	5.6159	0.9406	6.8887	2.6716	-1.8638	4.5913	-1.4372	4.0073	0.0315
4.1472	1.2309	5.2277	3.2975	2.3534	4.7906	3.5807	0.8078	5.3047	4.406	1.7589	4.8676	5.4935	0.8987	6.9027	2.6086	-1.7904	4.5528	-1.4232	3.9584	0.0804
4.0913	1.1679	5.1788	3.2835	2.2834	4.7382	3.5178	0.7798	5.1823	4.3151	1.689	4.6787	5.3641	0.8777	6.8852	2.5736	-1.7274	4.4829	-1.4302	3.8989	0.0769
4.0318	1.1574	5.1018	3.245	2.2519	4.6752	3.4444	0.7308	5.0844	4.2102	1.6295	4.5249	5.2242	0.8322	6.8677	2.5387	-1.668	4.4444	-1.4547	3.8919	0.1119
3.9794	1.091	5.0424	3.1821	2.1925	4.6298	3.3499	0.6644	4.9655	4.0843	1.5211	4.3395	5.0774	0.8078	6.8502	2.4932	-1.6155	4.3815	-1.5036	3.822	0.1154
3.9444	1.063	4.9899	3.1017	2.1365	4.5493	3.2555	0.6049	4.8291	3.9479	1.4617	4.1682	4.927	0.7973	6.8293	2.4757	-1.591	4.364	-1.5141	3.7521	0.1609
3.885	1.0071	4.899	3.0772	2.0771	4.4619	3.1506	0.5595	4.6822	3.8185	1.3638	3.9829	4.7836	0.7798	6.7873	2.4652	-1.5491	4.329	-1.5561	3.7066	0.1678
3.7975	0.9616	4.8221	2.9968	2.0142	4.3395	3.0282	0.4965	4.5598	3.6786	1.3043	3.8255	4.6473	0.7623	6.7348	2.4548	-1.5211	4.2906	-1.5841	3.6157	0.1993
3.7521	0.8707	4.7382	2.9058	1.9722	4.2556	2.9093	0.4301	4.413	3.5493	1.2169	3.6612	4.4899	0.7553	6.6614	2.4722	-1.5071	4.2521	-1.6225	3.5458	0.2168
3.6856	0.7868	4.6333	2.8324	1.9337	4.1367	2.78	0.3951	4.2801	3.3989	1.1819	3.5178	4.3395	0.7378	6.602	2.4827	-1.4861	4.2206	-1.647	3.4583	0.2867
3.5947	0.6294	4.5389	2.7345	1.8498	4.0073	2.6331	0.3322	4.1367	3.252	1.1295	3.3534	4.2032	0.7308	6.5425	2.4478	-1.4687	4.1787	-1.7064	3.3464	0.3217
3.5038	0.4896	4.4305	2.6331	1.7764	3.8919	2.5247	0.3252	4.0143	3.1296	1.1155	3.245	4.0843	0.7203	6.4201	2.4862	-1.4407	4.1332	-1.7729	3.266	0.3916
3.3849	0.2343	4.2836	2.5142	1.6925	3.7521	2.3778	0.2553	3.8989	2.9898	1.091	3.1506	3.9339	0.7099	6.3362	2.4687	-1.4127	4.0983	-1.7974	3.1821	0.4616
3.2765	0.0105	4.1647	2.4128	1.5945	3.6087	2.2624	0.1993	3.78	2.8604	1.084	3.1122	3.85	0.6889	6.2068	2.5142	-1.3882	4.0738	-1.8044	3.0982	0.5385
3.1926	-0.1713	4.0423	2.3044	1.5176	3.5003	2.1435	0.1818	3.6961	2.7835	1.126	3.0527	3.794	0.6784	6.1054	2.5282	-1.3777	4.0458	-1.7974	3.0073	0.6084
3.1261	-0.3707	3.9689	2.2065	1.4372	3.4024	2.0526	0.1574	3.6192	2.6716	1.1609	3.0457	3.7416	0.6854	5.997	2.5317	-1.3707	4.0353	-1.7729	2.9268	0.7099
3.0387	-0.6364	3.85	2.1261	1.3288	3.294	1.9722	0.1119	3.5632	2.6016	1.2519	3.0947	3.7066	0.6749	5.9131	2.5667	-1.3603	4.0318	-1.7204	2.8534	0.8357
2.9408	-0.8672	3.7626	2.0107	1.2099	3.1961	1.8953	0.0664	3.5038	2.5317	1.3113	3.1226	3.6856	0.6644	5.8187	2.5702	-1.3673	4.0143	-1.6715	2.8009	0.9406
2.8394	-1.126	3.6332	1.9337	1.084	3.0527	1.8009	-0.0105	3.4479	2.4722	1.3358	3.1576	3.6577	0.6679	5.6998	2.5841	-1.3428	3.9794	-1.626	2.7275	1.0176
2.7625	-1.3428	3.5283	1.8708	0.9441	2.9793	1.7659	-0.0734	3.3989	2.4233	1.3952	3.2206	3.6157	0.6784	5.6124	2.6086	-1.3463	3.9409	-1.5875	2.6855	1.119
2.6401	-1.5736	3.4479	1.7624	0.8113	2.8639	1.7309	-0.1224	3.3849	2.3499	1.4861	3.2905	3.5807	0.6714	5.5075	2.6191	-1.3463	3.8954	-1.5141	2.5946	1.2064
2.5841	-1.7589	3.3744	1.7449	0.7168	2.7939	1.7169	-0.1399	3.3674	2.3289	1.5666	3.3744	3.6087	0.7029	5.4235	2.6471	-1.3917	3.8954	-1.4687	2.5527	1.2973
2.5247	-1.8813	3.3394	1.6855	0.6294	2.71	1.6785	-0.1678	3.3604	2.3149	1.647	3.4618	3.5947	0.7099	5.3676	2.6786	-1.4267	3.8675	-1.4652	2.5142	1.3812
2.4897	-1.9792	3.2975	1.6925	0.556	2.6751	1.6785	-0.2028	3.3499	2.3079	1.7344	3.5528	3.5737	0.7413	5.3221	2.703	-1.4791	3.794	-1.4057	2.4478	1.4407
2.4513	-2.0386	3.2485	1.6645	0.507	2.6261	1.6575	-0.2273	3.3394	2.3184	1.7974	3.6437	3.5737	0.7728	5.2907	2.7415	-1.5316	3.7591	-1.3847	2.3813	1.4896
2.4338	-2.0701	3.245	1.6994	0.4616	2.6156	1.6785	-0.2308	3.3884	2.3254	1.8953	3.78	3.5877	0.8043	5.2872	2.7625	-1.6015	3.7171	-1.3603	2.3464	1.5771
2.4023	-2.0841	3.245	1.689	0.4231	2.6051	1.675	-0.2028	3.4164	2.3359	1.9897	3.9059	3.5982	0.8322	5.3047	2.78	-1.6715	3.6612	-1.3323	2.2799	1.633
2.4233	-2.0631	3.273	1.7274	0.4021	2.5946	1.689	-0.2098	3.4479	2.3429	2.0876	4.0003	3.6122	0.8672	5.2942	2.8569	-1.7344	3.6017	-1.3078	2.2275	1.682
2.4233	-2.0491	3.2905	1.7449	0.4196	2.6086	1.689	-0.1748	3.4968	2.3673	2.196	4.1262	3.5947	0.8987	5.3116	2.8919	-1.7834	3.5597	-1.3078	2.1785	1.696
2.4478	-1.9687	3.3325	1.7379	0.4721	2.6261	1.7134	-0.1084	3.5632	2.4023	2.3009	4.2451	3.6157	0.9406	5.3571	2.9093	-1.8498	3.4828	-1.3008	2.154	1.7379
2.4932	-1.8568	3.3849	1.7449	0.57	2.6751	1.7379	-0.028	3.6367	2.4303	2.4443	4.3955	3.6472	0.9581	5.4305	2.9618	-1.9302	3.4513	-1.2973	2.1365	1.7729
2.5282	-1.682	3.4444	1.7834	0.6854	2.7275	1.7729	0.0734	3.7556	2.4652	2.6086	4.5703	3.6751	0.9861	5.49	2.9863	-1.9722	3.3919	-1.3218	2.0981	1.8113
2.6156	-1.4512	3.5318	1.7869	0.8812	2.8499	1.8323	0.2413	3.864	2.5177	2.7939	4.7382	3.7276	1.0246	5.5564	3.0317	-2.0386	3.3709	-1.2973	2.0946	1.8918
2.6646	-1.2274	3.6297	1.8218	1.0735	2.9338	1.8638	0.4196	3.9934	2.5806	2.9513	4.92	3.7905	1.0595	5.6473	3.0702	-2.0911	3.3429	-1.2658	2.0911	1.9617
2.7275	-0.9441	3.7171	1.8358	1.3008	3.0177	1.9128	0.6224	4.1402	2.6576	3.1471	5.0948	3.857	1.0735	5.7383	3.1087	-2.1435	3.301	-1.2099	2.0911	2.0526
2.78	-0.6399	3.8115	1.8183	1.5211	3.0947	1.9337	0.7763	4.2451	2.7065	3.3045	5.2382	3.8815	1.077	5.8152	3.1052	-2.1435	3.287	-1.0945	2.0806	2.1365
2.8499	-0.3637	3.9059	1.8009	1.7379	3.1681	1.9372	0.9336	4.343	2.7555	3.4758	5.3536	3.9164	1.098	5.9096	3.1052	-2.1645	3.259	-0.9581	2.0841	2.2799
2.8919	-0.0699	3.9759	1.8009	1.9197	3.2241	1.9267	1.0525	4.4025	2.7695	3.6157	5.4235	3.9024	1.0805	5.997	3.0667	-2.1365	3.231	-0.8567	2.0526	2.3848
2.9548	0.1469	4.0703	1.8044	2.0876	3.2765	1.9477	1.1854	4.427	2.773	3.7171	5.462	3.8954	1.063	6.0844	3.0387	-2.1016	3.1961	-0.7238	2.0177	2.4897
3.0177	0.3777	4.1262	1.7834	2.238	3.3115	1.9547	1.2693	4.4654	2.7835	3.808	5.4515	3.8605	1.0246	6.1649	2.9968	-2.0491	3.1716	-0.6015	1.9827	2.5771
3.0422	0.542	4.1612	1.7659	2.3638	3.2905	1.9302	1.3568	4.4654	2.752	3.8465	5.4166	3.794	0.9931	6.2628	2.9618	-1.9757	3.1087	-0.4476	1.9512	2.6751
3.0982	0.6819	4.1857	1.7834	2.4478	3.2835	1.9232	1.3952	4.4339	2.724	3.871	5.3326	3.7241	0.9581	6.3327	2.9373	-1.9023	3.0702	-0.3217	1.9162	2.738
3.1296	0.7693	4.1962	1.7764	2.4618	3.245	1.9023	1.4127	4.3675	2.6261	3.8745	5.2382	3.6332	0.9057	6.4271	2.8744	-1.7904	3.0003	-0.1818	1.8358	2.8114
3.1436	0.7903	4.1892	1.7309	2.4827	3.2066	1.8883	1.3917	4.2801	2.5841	3.8535	5.0948	3.5493	0.8322	6.5145	2.8114	-1.6645	2.9583	-0.0734	1.7764	2.8324
3.1856	0.7903	4.2171	1.7134	2.4373	3.1611	1.8603	1.3393	4.1717	2.5072	3.7661	4.9305	3.4024	0.7833	6.6334	2.7555	-1.5456	2.8744	0.0385	1.6925	2.8394
3.2276	0.8427	4.2521	1.7379	2.4338	3.1052	1.8393	1.3113	4.1018	2.4513	3.6786	4.7626	3.3045	0.7133	6.7209	2.7345	-1.4302	2.8009	0.1154	1.619	2.8254
3.2555	0.8427	4.2766	1.7449	2.3743	3.0877	1.8323	1.2693	4.0038	2.3778	3.5982	4.6228	3.1926	0.6539	6.8572	2.6611	-1.3008	2.738	0.1993	1.5666	2.8079
3.3394	0.9057	4.3465	1.7869	2.3743	3.0877	1.8673	1.2204	3.9759	2.3568	3.5353	4.5109	3.1157	0.598	7.0111	2.6191	-1.1889	2.7135	0.2728	1.5036	2.7905
3.4339	0.9931	4.4724	1.8253	2.3848	3.1471	1.9128	1.1959	3.9619	2.3464	3.5003	4.42	3.0807	0.5455	7.1615	2.6016	-1.084	2.6716	0.3322	1.4617	2.7974
3.4968	1.105	4.5389	1.8673	2.3918	3.1611	1.9197	1.1994	3.9199	2.3394	3.4269	4.3046	3.0107	0.4861	7.2908	2.5632	-0.9616	2.6121	0.3707	1.4022	2.787
3.6192	1.2274	4.6857	1.9372	2.4373	3.238	1.9582	1.2274	3.9479	2.3359	3.3954	4.2766	2.9758	0.4406	7.4552	2.5352	-0.8672	2.5911	0.4406	1.3847	2.78
3.6996	1.3323	4.7836	1.9862	2.4897	3.329	2.0142	1.1959	3.9514	2.3394	3.3919	4.2346	2.9338	0.3916	7.6475	2.4932	-0.7798	2.5562	0.507	1.3533	2.7905
3.8045	1.4337	4.92	2.0526	2.5352	3.4164	2.0631	1.2414	3.9934	2.3499	3.3744	4.1857	2.9058	0.3532	7.7979	2.4932	-0.6749	2.5247	0.549	1.3568	2.78
3.836	1.4477	5.0249	2.1016	2.5352	3.4863	2.0701	1.2519	4.0003	2.3464	3.3429	4.1262	2.8779	0.2832	7.9692	2.4373	-0.5595	2.4652	0.5875	1.3218	2.759
3.9339	1.5071	5.1263	2.154	2.6016	3.5632	2.1086	1.3078	4.0633	2.3638	3.3429	4.1157	2.8534	0.2483	8.1441	2.4198	-0.4896	2.4478	0.6049	1.3148	2.7555
3.9864	1.5071	5.2102	2.1995	2.6191	3.6297	2.1296	1.3253	4.1018	2.3534	3.3499	4.0948	2.8324	0.2098	8.3154	2.3673	-0.4056	2.3813	0.6015	1.3008	2.7485
4.0458	1.4896	5.2977	2.2449	2.6541	3.7556	2.168	1.3603	4.1472	2.3743	3.3814	4.0878	2.8044	0.1818	8.4972	2.3499	-0.3532	2.3673	0.6084	1.3113	2.773
4.0843	1.4966	5.3921	2.3079	2.7065	3.808	2.224	1.4127	4.1647	2.3708	3.3849	4.0633	2.8079	0.1643	8.6546	2.3219	-0.2972	2.3324	0.5945	1.2833	2.78
4.1157	1.4302	5.462	2.3813	2.7135	3.9129	2.2484	1.4757	4.2346	2.3708	3.4269	4.0738	2.8079	0.1294	8.8154	2.2484	-0.2588	2.2939	0.6224	1.2903	2.8009
4.1682	1.3882	5.5494	2.4478	2.745	4.0073	2.3114	1.5351	4.2976	2.4268	3.4618	4.1052	2.8219	0.1049	8.9693	2.21	-0.2168	2.2729	0.6294	1.2903	2.8499
4.1997	1.3323	5.6264	2.5317	2.78	4.1018	2.4093	1.612	4.371	2.4687	3.5353	4.1577	2.8709	0.0944	9.1232	2.189	-0.2133	2.2869	0.6854	1.3148	2.9268
4.1962	1.2623	5.7068	2.6401	2.8534	4.2137	2.4967	1.7204	4.5074	2.5247	3.6087	4.2171	2.9023	0.1084	9.2491	2.1785	-0.2168	2.2834	0.7308	1.3253	2.9898
4.2626	1.1435	5.7837	2.7275	2.8884	4.3395	2.5876	1.8323	4.6263	2.6086	3.7101	4.3255	2.9863	0.1259	9.3924	2.0946	-0.2308	2.3149	0.7868	1.3568	3.0527
4.2626	1.0141	5.8467	2.8079	2.9198	4.4339	2.6541	1.9197	4.7312	2.6751	3.808	4.4339	3.0492	0.1119	9.5078	2.0491	-0.2203	2.3289	0.8392	1.3638	3.0947
4.2871	0.9022	5.9306	2.8814	2.9618	4.5493	2.745	2.0351	4.8606	2.7695	3.9374	4.5493	3.1611	0.1329	9.6197	2.0177	-0.2413	2.4058	0.8742	1.4232	3.1821
4.3151	0.7903	6.0005	2.9618	3.0212	4.6612	2.8394	2.1645	5.0144	2.8534	4.0598	4.6822	3.2415	0.1434	9.7351	1.9862	-0.2832	2.4548	0.9336	1.4757	3.2555
4.3885	0.7029	6.1019	3.1192	3.1052	4.8116	2.9583	2.2869	5.1753	2.9723	4.1927	4.8501	3.3954	0.1678	9.819	1.9897	-0.3252	2.5841	1.0036	1.5736	3.3325
4.42	0.6539	6.2243	3.2031	3.2171	4.9585	3.0562	2.4443	5.3291	3.0877	4.3605	5.0144	3.5318	0.1958	9.8995	1.9617	-0.3602	2.6681	1.0665	1.6505	3.4374
4.4794	0.6574	6.3292	3.301	3.3115	5.0913	3.1401	2.5981	5.525	3.2101	4.5249	5.1928	3.6751	0.2098	10.0323	1.9128	-0.4056	2.7905	1.1504	1.7379	3.5563
4.5528	0.6784	6.4586	3.4059	3.4409	5.2347	3.2695	2.752	5.6753	3.3325	4.6612	5.3641	3.8535	0.2238	10.1163	1.9162	-0.4231	2.9303	1.1959	1.8113	3.6472
4.6193	0.7308	6.581	3.5353	3.5667	5.3991	3.3604	2.9093	5.8362	3.4758	4.7906	5.5319	3.9899	0.2203	10.2037	1.8918	-0.4476	3.0562	1.2938	1.9197	3.7416
4.7207	0.8322	6.7174	3.6472	3.7241	5.5844	3.4793	3.0702	6.0075	3.6052	4.9305	5.6753	4.1402	0.2518	10.2841	1.8988	-0.4791	3.2101	1.3777	1.9862	3.843
4.7557	0.9302	6.8188	3.7451	3.864	5.7278	3.5493	3.1751	6.1509	3.7276	5.0459	5.8257	4.3081	0.2448	10.375	1.8778	-0.4861	3.3499	1.4127	2.0386	3.9374
4.8711	1.0351	6.9342	3.8185	4.0318	5.8432	3.6332	3.3185	6.2593	3.8605	5.1508	5.9341	4.4479	0.2623	10.4799	1.9128	-0.514	3.4933	1.4757	2.1296	4.0073
4.9165	1.2134	7.0461	3.9059	4.1892	5.9795	3.7241	3.4444	6.4027	3.9934	5.2557	6.0774	4.6228	0.2797	10.5743	1.9302	-0.5455	3.6647	1.5666	2.217	4.0878
4.962	1.3428	7.116	3.9374	4.3151	6.074	3.7696	3.5213	6.4761	4.1018	5.3012	6.1404	4.7766	0.2728	10.6862	1.9372	-0.5525	3.836	1.5945	2.3044	4.1297
5.0214	1.5106	7.2069	3.9689	4.4654	6.2173	3.857	3.6332	6.574	4.1962	5.3711	6.2208	4.934	0.2797	10.7841	1.9267	-0.5735	3.9724	1.654	2.4198	4.1822
5.1123	1.696	7.3083	4.0003	4.6298	6.3012	3.9129	3.7031	6.6964	4.336	5.441	6.3222	5.0879	0.3077	10.9135	1.9582	-0.6189	4.1717	1.7099	2.5037	4.2451
5.1403	1.9372	7.3678	3.9899	4.7871	6.3852	3.9304	3.78	6.7733	4.4235	5.4865	6.3747	5.2452	0.3147	11.0464	1.9512	-0.6224	4.3186	1.7554	2.5841	4.2906
5.2067	2.168	7.4272	4.0003	4.9375	6.4971	3.9654	3.878	6.8537	4.5144	5.5564	6.4726	5.3991	0.3252	11.1478	1.9862	-0.6434	4.4794	1.8148	2.6646	4.3465
5.2627	2.4233	7.5076	3.9829	5.0948	6.5915	4.0213	3.9724	6.9517	4.6193	5.6369	6.5635	5.5459	0.3217	11.2807	1.9687	-0.6469	4.6438	1.8918	2.759	4.406
5.2942	2.6051	7.5321	3.9689	5.2242	6.6614	4.0388	4.0283	7.0146	4.7102	5.6858	6.6509	5.6788	0.3287	11.3961	1.9617	-0.6504	4.7836	1.9232	2.8359	4.4444
5.3082	2.7765	7.5776	3.9444	5.3256	6.7069	4.0248	4.0633	7.0775	4.7766	5.7033	6.6894	5.7977	0.3287	11.5115	1.9337	-0.6714	4.8885	1.9757	2.8989	4.5039
5.3082	2.9303	7.609	3.9199	5.3991	6.7523	4.0633	4.1227	7.13	4.8361	5.7522	6.7558	5.9306	0.3427	11.6234	1.9407	-0.6854	5.0319	1.9967	2.9618	4.5493
5.3361	3.0807	7.623	3.9129	5.4865	6.8223	4.0983	4.1437	7.1964	4.9165	5.7802	6.8363	6.0285	0.3567	11.7073	1.9512	-0.7238	5.1543	2.0876	3.0003	4.5983
5.3186	3.1961	7.6265	3.8919	5.4935	6.8398	4.0948	4.1472	7.2279	4.962	5.7837	6.8747	6.1334	0.3777	11.8017	1.9757	-0.7553	5.2382	2.1121	3.0387	4.6473
5.3151	3.28	7.5846	3.8884	5.5494	6.8363	4.0983	4.1262	7.2349	4.9864	5.7907	6.9027	6.2278	0.3881	11.8752	1.9302	-0.7763	5.3151	2.1645	3.0702	4.6577
5.2767	3.3499	7.5706	3.871	5.504	6.8258	4.1227	4.1122	7.2629	5.0389	5.8047	6.9237	6.2663	0.3986	11.9241	1.9442	-0.7833	5.3816	2.196	3.0807	4.6962
5.2277	3.3569	7.5321	3.8255	5.4935	6.7803	4.1332	4.0983	7.2559	5.0739	5.7942	6.9342	6.3502	0.3986	11.9836	1.9232	-0.7833	5.448	2.2135	3.0982	4.7137
5.1263	3.3325	7.4412	3.808	5.448	6.7383	4.1332	4.0248	7.2314	5.0844	5.7662	6.9272	6.4096	0.3812	12.0185	1.9093	-0.7833	5.518	2.2275	3.1296	4.7242
5.0564	3.245	7.3608	3.8115	5.3991	6.6894	4.1472	4.0003	7.1964	5.1018	5.7348	6.9237	6.4586	0.3916	12.0989	1.8953	-0.7833	5.5879	2.2275	3.1296	4.7487
4.9375	3.1331	7.2629	3.7556	5.3221	6.6055	4.1332	3.9514	7.158	5.1193	5.6928	6.9027	6.5145	0.3951	12.1409	1.8603	-0.7728	5.6578	2.196	3.1681	4.7277
4.8256	2.9758	7.1545	3.6821	5.1928	6.4971	4.1227	3.9024	7.13	5.1158	5.6648	6.8747	6.5635	0.3951	12.1899	1.8498	-0.7728	5.7208	2.147	3.1646	4.7347
4.7277	2.8884	7.0601	3.6192	5.1298	6.4446	4.0913	3.836	7.0915	5.1298	5.6543	6.8782	6.6195	0.4056	12.2843	1.8323	-0.8043	5.7697	2.1261	3.1926	4.7452
4.6123	2.78	6.9586	3.5458	5.0424	6.3747	4.0493	3.787	7.0461	5.1123	5.6159	6.9027	6.6684	0.4126	12.3472	1.8533	-0.8252	5.8502	2.0631	3.1996	4.7347
4.5284	2.6576	6.8537	3.4828	4.976	6.2838	4.0073	3.7346	6.9971	5.0948	5.6334	6.8957	6.7244	0.4371	12.4207	1.8498	-0.8602	5.9166	1.9652	3.2276	4.6997
4.4409	2.5981	6.7488	3.4129	4.934	6.2313	3.9829	3.7276	6.9901	5.0983	5.6264	6.9097	6.7488	0.4581	12.5116	1.8568	-0.8952	5.9551	1.8813	3.2765	4.6787
4.3186	2.5562	6.6719	3.3569	4.8885	6.1404	3.9689	3.7066	7.0041	5.1088	5.6403	6.9551	6.7978	0.4651	12.6025	1.8708	-0.9302	5.983	1.7799	3.294	4.6473
4.2381	2.5736	6.6125	3.3429	4.8955	6.1054	3.9514	3.7206	6.9936	5.0913	5.6823	7.0041	6.8363	0.507	12.7074	1.9023	-1.0036	6.011	1.696	3.3325	4.6542
4.1542	2.5387	6.5705	3.287	4.899	6.053	3.9654	3.7381	7.0076	5.1158	5.7348	7.095	6.8957	0.5315	12.8158	1.9267	-1.0665	6.0565	1.605	3.3779	4.6333
4.0773	2.5492	6.525	3.2695	4.9305	6.0495	3.9304	3.7731	7.0251	5.1263	5.7627	7.1824	6.9482	0.5665	12.9347	1.9757	-1.119	6.0809	1.4896	3.4059	4.6193
4.0178	2.4897	6.4551	3.2555	4.976	6.018	3.9094	3.843	7.0356	5.1333	5.8327	7.2559	6.9936	0.6154	13.0641	2.0491	-1.2029	6.0914	1.4337	3.4828	4.6333
3.9339	2.4618	6.4411	3.2206	5.0004	5.9935	3.9059	3.8884	7.074	5.1333	5.9131	7.3538	7.0251	0.6434	13.1655	2.0666	-1.2728	6.1089	1.3498	3.5073	4.6368
3.871	2.3778	6.3922	3.1926	4.9969	5.9586	3.9164	3.9654	7.0985	5.1578	6.0005	7.4307	7.0705	0.6854	13.2774	2.1226	-1.3638	6.1299	1.2973	3.5528	4.6508
3.794	2.3114	6.3152	3.1436	4.962	5.9061	3.8884	3.9829	7.0915	5.1508	6.032	7.4902	7.102	0.7133	13.3858	2.189	-1.4372	6.1474	1.2379	3.5667	4.6368
3.7031	2.175	6.2593	3.1052	4.9375	5.8502	3.8884	4.0073	7.102	5.1788	6.0774	7.5426	7.1265	0.7483	13.4697	2.2415	-1.5001	6.1614	1.1679	3.6052	4.6088
3.6227	2.0596	6.1963	3.0842	4.892	5.7907	3.8535	4.0108	7.095	5.1788	6.0844	7.5531	7.13	0.8008	13.5326	2.3149	-1.5945	6.1544	1.126	3.6332	4.5878
3.6052	1.9477	6.1719	3.0877	4.8815	5.7348	3.8745	4.0353	7.0635	5.1753	6.1019	7.5986	7.1615	0.8532	13.5991	2.4128	-1.6855	6.1858	1.0805	3.6786	4.5424
3.4793	1.7694	6.0984	3.0562	4.8151	5.6578	3.864	4.0038	7.0041	5.1473	6.1019	7.5916	7.158	0.8777	13.6585	2.4373	-1.7484	6.2173	1.0316	3.7311	4.4829
3.4409	1.6435	6.06	3.0737	4.7592	5.5879	3.885	4.0213	6.9726	5.1613	6.0914	7.5881	7.1685	0.9197	13.725	2.4932	-1.8288	6.2593	1.0525	3.7905	4.4479
3.3744	1.4652	6.004	3.0947	4.6962	5.497	3.9059	3.9584	6.9237	5.1683	6.0705	7.5496	7.1859	0.9616	13.7879	2.5632	-1.9162	6.3012	1.0211	3.8535	4.4025
3.2975	1.2973	5.9551	3.1017	4.6263	5.4375	3.9024	3.878	6.8572	5.1543	6.0145	7.4972	7.165	0.9896	13.8369	2.6051	-1.9862	6.3502	1.0281	3.8884	4.2941
3.28	1.1854	5.9201	3.1366	4.5528	5.3396	3.9164	3.85	6.7908	5.1438	5.976	7.4832	7.1789	1.0386	13.9243	2.6436	-2.0736	6.3992	0.9861	3.9479	4.2556
3.2345	1.112	5.8886	3.1436	4.4689	5.2872	3.9759	3.8045	6.7174	5.1263	5.8956	7.4517	7.1685	1.077	13.9627	2.6995	-2.1296	6.4201	0.9197	3.9759	4.1612
3.2101	1.0735	5.8886	3.1576	4.4549	5.2277	3.9654	3.7311	6.6509	5.1298	5.8641	7.4027	7.165	1.098	14.0432	2.7205	-2.182	6.4936	0.8567	4.0143	4.0878
3.2241	1.1015	5.8921	3.1716	4.413	5.1928	3.9724	3.7276	6.6264	5.1088	5.8222	7.3818	7.158	1.119	14.1551	2.738	-2.2205	6.5006	0.7553	4.0458	4.0073
3.2206	1.1295	5.8921	3.1961	4.3955	5.1613	4.0178	3.6891	6.5425	5.1088	5.7732	7.3433	7.165	1.1225	14.2425	2.738	-2.231	6.5355	0.6539	4.0668	3.9549
3.2171	1.1574	5.8816	3.2171	4.3745	5.1158	3.9899	3.6542	6.5145	5.0879	5.7313	7.3328	7.158	1.105	14.3229	2.7555	-2.224	6.56	0.5875	4.0913	3.8919
3.2555	1.1749	5.9306	3.2276	4.343	5.1053	3.9934	3.6017	6.4236	5.0424	5.6508	7.2489	7.1125	1.119	14.4138	2.766	-2.217	6.574	0.5175	4.0878	3.7905
3.259	1.1225	5.8851	3.238	4.2626	4.9969	3.9549	3.4968	6.3222	4.9899	5.5459	7.1405	7.0461	1.112	14.5362	2.7974	-2.2065	6.574	0.4476	4.0913	3.7101
3.2765	1.0211	5.8502	3.2101	4.1297	4.9305	3.885	3.3604	6.1789	4.9305	5.4131	7.0146	6.9656	1.091	14.6621	2.7835	-2.1715	6.546	0.3986	4.1122	3.6297
3.2276	0.8917	5.7767	3.2171	3.9444	4.8011	3.801	3.1646	6.0005	4.8291	5.2207	6.8432	6.8572	1.0805	14.7775	2.766	-2.1435	6.5111	0.3707	4.0878	3.5248
3.2101	0.7203	5.6928	3.2031	3.7486	4.6577	3.7381	2.9618	5.8257	4.7417	5.0249	6.6334	6.7383	1.0665	14.9139	2.7765	-2.1261	6.4866	0.3252	4.0563	3.4304
3.2031	0.598	5.6473	3.2415	3.5632	4.5179	3.6786	2.7275	5.5949	4.6542	4.8151	6.4096	6.6195	1.056	15.0607	2.8114	-2.1191	6.4376	0.2972	4.0528	3.315
3.1436	0.4756	5.5215	3.245	3.3464	4.35	3.5877	2.4827	5.3536	4.5004	4.5633	6.1369	6.4481	1.056	15.2181	2.752	-2.0981	6.3747	0.2518	4.0108	3.2031
3.1506	0.3742	5.4166	3.2485	3.1646	4.1927	3.5108	2.231	5.1368	4.3675	4.3081	5.8886	6.2908	1.056	15.4209	2.7765	-2.1016	6.3292	0.2273	3.9759	3.0492
3.1192	0.3427	5.3466	3.2241	2.9653	4.0318	3.4339	1.9897	4.9025	4.2067	4.0633	5.6019	6.1264	1.0595	15.6342	2.752	-2.1051	6.2523	0.1748	3.9479	2.9233
3.1296	0.2658	5.2872	3.231	2.8044	3.871	3.315	1.7869	4.6403	4.0948	3.808	5.3431	5.9621	1.0735	15.8615	2.7974	-2.1296	6.2138	0.1364	3.9409	2.773
3.1087	0.2553	5.1858	3.2136	2.6646	3.7136	3.2136	1.5771	4.4444	3.9759	3.5737	5.0669	5.7837	1.091	16.1168	2.8044	-2.1435	6.1264	0.0594	3.9164	2.6366
3.1017	0.2343	5.0983	3.1576	2.5002	3.5597	3.1226	1.3882	4.2171	3.8325	3.3464	4.7941	5.6019	1.098	16.379	2.8044	-2.154	6.0705	-0.028	3.8745	2.5037
3.0597	0.2028	5.0004	3.1157	2.3673	3.4164	3.0177	1.2204	4.0073	3.6996	3.1226	4.5179	5.462	1.0945	16.6378	2.8254	-2.154	5.983	-0.1084	3.8465	2.3953
3.0387	0.1923	4.906	3.0457	2.2764	3.259	2.9058	1.098	3.836	3.5877	2.9128	4.2766	5.2837	1.0805	16.8966	2.8604	-2.147	5.9131	-0.2343	3.822	2.2449
3.0317	0.1783	4.8361	2.9548	2.1855	3.1471	2.7905	0.9686	3.6332	3.4583	2.7415	4.0423	5.1158	1.091	17.1378	2.8989	-2.1505	5.8571	-0.3742	3.7905	2.1121
2.9828	0.2133	4.7696	2.8359	2.1365	2.9968	2.689	0.8882	3.4653	3.3499	2.5667	3.836	5.0004	1.0665	17.3826	2.9198	-2.1261	5.7977	-0.507	3.794	2.0037
2.9968	0.2832	4.7242	2.7415	2.1191	2.9058	2.6261	0.8113	3.3325	3.266	2.4373	3.6367	4.8536	1.0665	17.6414	2.9198	-2.1016	5.7383	-0.6399	3.7696	1.8848
2.9828	0.3532	4.6333	2.6226	2.1016	2.7974	2.5492	0.7553	3.1961	3.1576	2.2834	3.4409	4.7452	1.063	17.8582	2.9478	-2.1016	5.6788	-0.6889	3.7661	1.7834
2.9653	0.4161	4.6158	2.5177	2.0981	2.7275	2.4618	0.7099	3.0947	3.1017	2.1331	3.2555	4.5983	1.0665	18.0715	2.9863	-2.0911	5.6438	-0.7308	3.7731	1.6925
2.9688	0.5105	4.5528	2.3953	2.0631	2.6261	2.3988	0.6049	2.9653	2.9933	1.9967	3.0737	4.4409	1.056	18.3023	3.0107	-2.0981	5.6019	-0.7448	3.7381	1.612
2.9373	0.5875	4.4969	2.2834	2.0701	2.5387	2.3219	0.577	2.8499	2.9128	1.8428	2.8849	4.3081	1.063	18.5156	3.0038	-2.1086	5.5145	-0.7413	3.7136	1.5246
2.9303	0.6749	4.4934	2.1925	2.0456	2.4583	2.2659	0.4861	2.7275	2.8044	1.6645	2.6995	4.1612	1.0735	18.6869	3.0597	-2.1226	5.455	-0.7168	3.7031	1.4407
2.9093	0.6924	4.4235	2.1016	2.0002	2.3673	2.182	0.3846	2.5736	2.724	1.5036	2.4792	3.9689	1.0805	18.8932	3.0667	-2.14	5.3851	-0.6819	3.6856	1.3707
2.8534	0.7728	4.371	2.0037	1.9757	2.2624	2.14	0.3077	2.4443	2.6366	1.3498	2.2519	3.801	1.0945	19.0751	3.0842	-2.161	5.2802	-0.6399	3.6402	1.2903
2.8324	0.7868	4.3081	1.9372	1.9407	2.2065	2.0666	0.2378	2.3079	2.4897	1.1714	2.0247	3.6052	1.1085	19.2359	3.1052	-2.189	5.1648	-0.549	3.5912	1.2309
2.7625	0.7763	4.2206	1.8743	1.8673	2.0666	2.0212	0.1469	2.147	2.3429	1.0036	1.7904	3.3814	1.1085	19.3968	3.1087	-2.189	5.0179	-0.4791	3.5283	1.1714
2.6925	0.6994	4.1367	1.7694	1.7974	1.9442	1.9128	0.049	1.9862	2.1995	0.8113	1.5421	3.1786	1.098	19.5192	3.1226	-2.1855	4.8466	-0.3777	3.4234	1.084
2.5946	0.6049	4.0388	1.668	1.7064	1.8078	1.8428	-0.0734	1.8323	2.0421	0.6189	1.3183	2.9618	1.0945	19.6486	3.1226	-2.175	4.6752	-0.2658	3.3604	1.0246
2.5072	0.5	3.9619	1.5666	1.633	1.7204	1.7624	-0.2273	1.661	1.9162	0.4336	1.077	2.7485	1.084	19.7744	3.1122	-2.147	4.4759	-0.1643	3.2555	0.9511
2.4023	0.3707	3.836	1.4652	1.5421	1.591	1.696	-0.3182	1.5526	1.7799	0.2728	0.8707	2.5352	1.0805	19.8793	3.0947	-2.1331	4.2941	-0.0315	3.1506	0.9057
2.2764	0.2902	3.7661	1.3812	1.4757	1.4582	1.605	-0.4091	1.4127	1.6365	0.1399	0.7099	2.3464	1.0595	19.9947	3.0492	-2.1086	4.1157	0.1084	3.0492	0.8847
2.1785	0.1399	3.6681	1.3008	1.4162	1.3812	1.5596	-0.5245	1.2868	1.5281	-0.0175	0.5315	2.1645	1.0525	20.1206	3.0107	-2.0771	3.9269	0.1993	2.9478	0.8183
2.0386	0.014	3.5842	1.2029	1.3463	1.2658	1.4861	-0.6084	1.1749	1.4197	-0.1154	0.3637	1.9862	1.0176	20.215	2.9338	-2.0142	3.7171	0.3042	2.8219	0.7903
1.9407	-0.1224	3.4793	1.1504	1.2728	1.1784	1.4442	-0.6924	1.1015	1.3113	-0.2273	0.2518	1.8253	0.9861	20.3164	2.8884	-1.9547	3.5318	0.3916	2.703	0.7553
1.8533	-0.2518	3.3954	1.1085	1.1959	1.1365	1.4127	-0.7623	1.0036	1.2449	-0.3217	0.1119	1.682	0.9651	20.4493	2.7974	-1.9162	3.3639	0.4791	2.5806	0.7448
1.7274	-0.4406	3.308	1.0455	1.1155	1.0351	1.3498	-0.8322	0.9197	1.112	-0.4231	-0.0105	1.5491	0.9302	20.5332	2.7205	-1.8498	3.1646	0.556	2.4548	0.7483
1.619	-0.5595	3.2415	0.9896	1.0176	0.9581	1.3358	-0.9092	0.8427	1.0351	-0.535	-0.1224	1.3917	0.8952	20.6347	2.6611	-1.7659	2.9933	0.598	2.3499	0.7133
1.4861	-0.7448	3.1331	0.9441	0.9127	0.8567	1.2833	-1.0071	0.7378	0.9511	-0.6504	-0.2483	1.2239	0.8357	20.7535	2.5317	-1.682	2.7974	0.6329	2.2205	0.6959
1.3742	-0.8742	3.0772	0.9302	0.8427	0.7658	1.2589	-1.0735	0.6679	0.8497	-0.7553	-0.3777	1.091	0.8148	20.8235	2.4687	-1.605	2.6121	0.6294	2.0946	0.6644
1.2938	-0.9686	3.0003	0.9267	0.7798	0.7099	1.2449	-1.1295	0.584	0.7588	-0.8602	-0.4861	0.9336	0.7973	20.9494	2.3953	-1.5316	2.4408	0.5735	1.9757	0.6329
1.2064	-1.0455	2.9513	0.9546	0.7343	0.6294	1.2309	-1.1749	0.507	0.6959	-0.9406	-0.591	0.8287	0.7273	21.0752	2.3079	-1.4547	2.3009	0.514	1.8638	0.5945
1.133	-1.1435	2.9233	0.9861	0.7343	0.6049	1.2414	-1.1749	0.4686	0.6609	-0.9756	-0.6819	0.7413	0.7203	21.2046	2.2275	-1.3987	2.1715	0.4266	1.7799	0.57
1.0525	-1.2204	2.8814	1.0211	0.7273	0.5665	1.2309	-1.1714	0.4511	0.6049	-1.0281	-0.7483	0.6469	0.6749	21.341	2.1505	-1.3533	2.0596	0.3287	1.6785	0.528
0.9966	-1.2693	2.8499	1.084	0.7518	0.57	1.2379	-1.1539	0.4371	0.5735	-1.084	-0.7833	0.577	0.6714	21.4949	2.0981	-1.3288	1.9687	0.2483	1.6015	0.4896
0.9546	-1.2973	2.8394	1.147	0.7693	0.5735	1.2554	-1.126	0.4336	0.5735	-1.0665	-0.8043	0.5385	0.6609	21.6732	2.0281	-1.3148	1.9058	0.1574	1.5351	0.4546
0.9616	-1.3533	2.8359	1.2414	0.8078	0.5875	1.2833	-1.0665	0.4336	0.563	-1.063	-0.7903	0.5245	0.6819	21.8376	2.0177	-1.3148	1.8498	0.0664	1.4966	0.4196
0.9022	-1.3917	2.8359	1.3113	0.8287	0.6189	1.2938	-1.0281	0.4616	0.5875	-1.0805	-0.7763	0.493	0.6504	22.0089	1.9652	-1.2973	1.8009	-0.042	1.4477	0.3951
0.8987	-1.4337	2.8569	1.3952	0.8532	0.6644	1.3358	-0.9756	0.5035	0.6084	-1.056	-0.7378	0.4861	0.6679	22.2012	1.9477	-1.3148	1.7694	-0.0944	1.4197	0.3462
0.9092	-1.4547	2.8849	1.4372	0.8707	0.6854	1.3393	-0.9336	0.5665	0.6399	-1.0386	-0.6889	0.493	0.6994	22.4215	1.9792	-1.3777	1.7484	-0.1224	1.3812	0.3042
0.9022	-1.4477	2.9023	1.5176	0.9022	0.7763	1.3917	-0.8637	0.6609	0.6889	-1.0036	-0.6084	0.521	0.7133	22.6103	2.0072	-1.4337	1.7764	-0.1818	1.3987	0.2867
0.9721	-1.4267	2.9338	1.5456	0.9232	0.8357	1.4022	-0.8322	0.7029	0.7308	-0.9861	-0.521	0.5385	0.7553	22.8167	2.0351	-1.4966	1.7729	-0.1923	1.3673	0.2413
0.9756	-1.3638	2.9758	1.5841	1.0036	0.9232	1.4302	-0.7728	0.8148	0.7728	-0.9127	-0.4336	0.5735	0.8043	23.044	2.0841	-1.591	1.7764	-0.2308	1.3777	0.2133
1.042	-1.3183	3.0247	1.5631	1.0386	0.9931	1.4302	-0.7168	0.8672	0.8008	-0.9022	-0.3637	0.584	0.8217	23.2363	2.168	-1.6715	1.7624	-0.2378	1.3777	0.1783
1.105	-1.2029	3.0702	1.5561	1.1015	1.105	1.4232	-0.6574	0.9791	0.8287	-0.8532	-0.2728	0.6434	0.8882	23.4566	2.2135	-1.7729	1.7834	-0.2483	1.3673	0.1469
1.1504	-1.1225	3.1646	1.5176	1.1644	1.1749	1.4197	-0.6364	1.049	0.8882	-0.8078	-0.1748	0.6854	0.9511	23.6909	2.2729	-1.8918	1.7799	-0.2797	1.3638	0.1224
1.2449	-0.9931	3.2276	1.4547	1.2134	1.2833	1.4022	-0.5385	1.1714	0.9162	-0.7448	-0.0944	0.7518	1.0176	23.9182	2.3429	-2.0247	1.8148	-0.2728	1.4057	0.1364
1.3498	-0.8532	3.315	1.3847	1.2833	1.3673	1.3742	-0.514	1.2379	0.9267	-0.7133	-0.028	0.7588	1.084	24.114	2.4268	-2.147	1.8183	-0.3042	1.3812	0.1259
1.4407	-0.7378	3.3569	1.3113	1.3288	1.4477	1.3463	-0.4686	1.3043	0.9686	-0.6854	0.0455	0.7693	1.1435	24.3378	2.4967	-2.2659	1.8044	-0.3287	1.3987	0.1084
1.5421	-0.5525	3.4793	1.2414	1.4057	1.5631	1.3358	-0.4021	1.3917	1.0071	-0.6399	0.1189	0.8462	1.2029	24.579	2.5667	-2.4128	1.8428	-0.3357	1.4232	0.1084
1.6855	-0.3986	3.6227	1.2309	1.4966	1.647	1.3777	-0.3567	1.4547	1.0211	-0.598	0.1783	0.8812	1.2833	24.7784	2.6471	-2.5352	1.8533	-0.3742	1.3987	0.1119
1.7764	-0.2623	3.7066	1.1749	1.5526	1.7729	1.3952	-0.2902	1.5666	1.07	-0.556	0.2693	0.9162	1.3463	25.0161	2.689	-2.6506	1.8428	-0.4231	1.4092	0.0874
1.9023	-0.1189	3.8395	1.1679	1.6365	1.8603	1.4092	-0.2308	1.6435	1.1295	-0.535	0.3392	0.9476	1.3777	25.205	2.759	-2.7345	1.8463	-0.4826	1.3882	0.0769
2.0526	0.007	3.9934	1.1749	1.7274	1.9932	1.4931	-0.1643	1.7554	1.2239	-0.4616	0.4476	1.0351	1.4197	25.4463	2.8114	-2.8359	1.8743	-0.5035	1.4407	0.0979
2.1715	0.1154	4.1122	1.1959	1.7694	2.1051	1.5631	-0.1329	1.8603	1.2938	-0.4336	0.5315	1.098	1.4547	25.6526	2.8849	-2.9023	1.8813	-0.5525	1.4372	0.0734
2.2799	0.2378	4.2416	1.2519	1.8218	2.21	1.668	-0.049	1.9442	1.3673	-0.3602	0.6294	1.1749	1.4931	25.8729	2.9163	-2.9548	1.8953	-0.591	1.4407	0.0769
2.4338	0.3077	4.4165	1.3113	1.8603	2.3184	1.7659	-0.007	2.0666	1.4826	-0.3182	0.7168	1.2414	1.5036	26.0792	2.9828	-2.9968	1.9093	-0.6539	1.4652	0.0699
2.5422	0.3916	4.5179	1.3533	1.9232	2.4163	1.8463	0.0385	2.1191	1.5351	-0.2867	0.7973	1.3008	1.5036	26.3065	2.9548	-2.9968	1.9058	-0.6749	1.4722	0.0455
2.6226	0.4091	4.6438	1.4372	1.9302	2.4792	1.9162	0.0629	2.1995	1.605	-0.2413	0.8742	1.3533	1.4966	26.5128	3.0177	-2.9723	1.9232	-0.7273	1.4931	0.007
2.71	0.4546	4.7242	1.4931	1.9372	2.5492	1.9827	0.0629	2.2729	1.6645	-0.2238	0.9406	1.3917	1.4722	26.7366	2.9828	-2.9373	1.9093	-0.7973	1.4861	0
2.766	0.4826	4.8326	1.5561	1.9687	2.6051	2.0247	0.0699	2.3114	1.696	-0.2028	0.9931	1.4302	1.4512	26.9569	2.9933	-2.8884	1.9197	-0.8567	1.5246	-0.028
2.8569	0.5	4.892	1.633	1.9792	2.6506	2.0666	0.0909	2.3534	1.6925	-0.1958	1.0071	1.4232	1.4407	27.1947	2.9723	-2.8534	1.9267	-0.9302	1.5281	-0.0594
2.9128	0.5035	4.9445	1.7239	1.9687	2.6786	2.0771	0.0979	2.3464	1.6994	-0.2028	1.0036	1.4162	1.3917	27.401	2.9093	-2.7695	1.8708	-1.042	1.5141	-0.1154
2.9513	0.5245	4.9934	1.7939	1.9932	2.6925	2.0771	0.0699	2.3394	1.6855	-0.1993	0.9791	1.3742	1.3463	27.6178	2.8989	-2.6855	1.8078	-1.1085	1.4791	-0.1399
3.0212	0.6049	5.0494	1.8778	2.0247	2.7345	2.0876	0.0699	2.3289	1.619	-0.2203	0.9336	1.3323	1.3218	27.8276	2.8534	-2.6296	1.7589	-1.1819	1.4652	-0.1469
3.0667	0.6854	5.0704	1.9232	2.0107	2.7065	2.0561	0.0559	2.3009	1.5596	-0.2378	0.8882	1.2728	1.2833	28.0199	2.7835	-2.5317	1.7029	-1.2623	1.4232	-0.1748
3.1192	0.7973	5.0913	1.9722	2.0666	2.6925	2.0037	0.042	2.2834	1.4931	-0.2378	0.8217	1.1889	1.2309	28.2402	2.7065	-2.4548	1.6085	-1.2763	1.3777	-0.2063
3.1681	0.8952	5.1053	2.0281	2.0806	2.7065	1.9897	0.0245	2.2659	1.4512	-0.2553	0.7378	1.1225	1.2029	28.4815	2.6121	-2.4128	1.5596	-1.3043	1.3393	-0.1993
3.231	1.0071	5.1298	2.0421	2.1226	2.731	1.9757	0.049	2.238	1.3777	-0.2658	0.6889	1.0455	1.1959	28.6703	2.5841	-2.3813	1.4687	-1.2623	1.3393	-0.1888
3.266	1.0665	5.1333	2.0351	2.1226	2.724	1.9093	0.0315	2.1995	1.3078	-0.2867	0.6015	0.9756	1.1854	28.9046	2.5212	-2.3499	1.3812	-1.1924	1.2938	-0.1958
3.2975	1.098	5.0983	2.0491	2.1121	2.6995	1.8778	0.0175	2.1331	1.2414	-0.3182	0.5525	0.8882	1.1749	29.1179	2.4967	-2.3184	1.2833	-1.112	1.2658	-0.2098
3.3255	1.119	5.1088	2.0596	2.1086	2.7135	1.8253	0.0035	2.1505	1.1819	-0.3287	0.4861	0.7903	1.1609	29.3417	2.4128	-2.2974	1.2204	-0.9966	1.2239	-0.1888
3.3569	1.098	5.0704	2.0386	2.0771	2.6855	1.7589	-0.0245	2.0771	1.0875	-0.3497	0.3986	0.7029	1.1435	29.5515	2.3708	-2.2554	1.1015	-0.8777	1.1889	-0.2133
3.3534	1.0036	5.0599	2.0491	2.0421	2.6646	1.7414	-0.042	2.0177	0.9966	-0.3567	0.3392	0.6154	1.1365	29.7963	2.2939	-2.2415	1.0141	-0.7693	1.147	-0.1958
3.3884	0.9546	5.0249	2.0666	2.0526	2.6576	1.682	-0.028	2.0002	0.9406	-0.3357	0.2797	0.535	1.119	30.0341	2.2415	-2.2345	0.9371	-0.6399	1.112	-0.2063
3.3884	0.8952	5.0319	2.0561	2.0491	2.6576	1.647	-0.0175	1.9617	0.8847	-0.3707	0.2378	0.4581	1.1085	30.2649	2.1855	-2.21	0.8287	-0.507	1.091	-0.1853
3.4444	0.8427	5.0179	2.0526	2.0386	2.6261	1.626	-0.028	1.9093	0.8322	-0.3672	0.1853	0.3846	1.126	30.5096	2.1261	-2.2135	0.7588	-0.4126	1.0665	-0.1783
3.4304	0.7798	4.9655	2.0212	2.0596	2.6191	1.605	-0.0559	1.8533	0.7343	-0.3846	0.0804	0.2937	1.105	30.7404	2.0841	-2.1925	0.6574	-0.2902	1.0316	-0.1923
3.4374	0.7693	4.969	1.9722	2.0701	2.5946	1.5666	-0.042	1.7869	0.6819	-0.4091	0.0035	0.2168	1.098	30.9852	2.0037	-2.175	0.577	-0.1609	1.0071	-0.1818
3.4339	0.7064	4.9375	1.8883	2.0771	2.5632	1.5316	-0.035	1.7169	0.6224	-0.4231	-0.0804	0.1329	1.084	31.244	1.9023	-2.1645	0.4826	-0.1049	0.9581	-0.1643
3.4304	0.6679	4.913	1.8498	2.0666	2.5317	1.4896	-0.0769	1.6155	0.5455	-0.4686	-0.1993	0.014	1.084	31.4782	1.8603	-2.1435	0.3637	-0.014	0.9127	-0.1993
3.4199	0.6749	4.892	1.8253	2.0631	2.5037	1.4722	-0.0909	1.5351	0.4965	-0.507	-0.3217	-0.0664	1.0875	31.751	1.8183	-2.147	0.2902	0.0594	0.8602	-0.1958
3.3779	0.6574	4.8256	1.7974	2.0351	2.4443	1.4652	-0.1574	1.4267	0.4161	-0.598	-0.4616	-0.1923	1.07	31.9748	1.7484	-2.1296	0.1888	0.1154	0.8078	-0.2378
3.3674	0.6259	4.7731	1.7554	2.0177	2.3918	1.4442	-0.1853	1.3253	0.3532	-0.6574	-0.6015	-0.2902	1.063	32.1776	1.6994	-2.1121	0.0594	0.1643	0.7343	-0.2832
3.329	0.6189	4.7172	1.7554	1.9967	2.3429	1.4337	-0.2343	1.2099	0.2937	-0.7203	-0.7168	-0.3812	1.056	32.3909	1.6645	-2.0876	-0.0559	0.2028	0.6784	-0.2937
3.3115	0.577	4.6822	1.7134	1.9477	2.3009	1.4232	-0.2553	1.105	0.2483	-0.8043	-0.8287	-0.4791	1.042	32.5832	1.633	-2.0561	-0.1364	0.2308	0.6189	-0.3392
3.231	0.5105	4.6018	1.689	1.9162	2.2205	1.3777	-0.3287	1.0071	0.1504	-0.8812	-0.9546	-0.5875	1.0106	32.7791	1.5316	-2.0142	-0.2623	0.2448	0.556	-0.3812
3.1996	0.493	4.5528	1.675	1.8848	2.168	1.3463	-0.3497	0.9127	0.1014	-0.9022	-1.0455	-0.6889	1.0106	32.9399	1.5106	-2.0002	-0.3777	0.2448	0.507	-0.4231
3.1331	0.4056	4.4584	1.598	1.8498	2.1051	1.2728	-0.3986	0.8008	0.0385	-0.9791	-1.1435	-0.8113	0.9756	33.0798	1.4722	-1.9442	-0.507	0.1853	0.4231	-0.4896
3.0807	0.3462	4.371	1.5491	1.8393	2.0841	1.2344	-0.4266	0.7413	0.007	-1.0246	-1.1994	-0.8777	0.9511	33.2267	1.4791	-1.8953	-0.591	0.1539	0.3916	-0.514
3.0107	0.2483	4.3011	1.4757	1.7974	1.9687	1.1539	-0.4476	0.6539	-0.1049	-1.0281	-1.2868	-0.9896	0.9022	33.3595	1.4512	-1.8218	-0.7273	0.0839	0.3357	-0.5735
2.9548	0.2098	4.2451	1.4337	1.7764	1.9302	1.1015	-0.4196	0.5945	-0.1434	-1.0665	-1.2973	-1.042	0.8882	33.44	1.5141	-1.7694	-0.8043	0.0105	0.2972	-0.6329
2.8884	0.0839	4.1892	1.3742	1.7379	1.8813	1.0176	-0.4266	0.542	-0.2063	-1.056	-1.3428	-1.1365	0.8602	33.5449	1.5281	-1.7099	-0.8952	-0.0594	0.2797	-0.6679
2.8149	0	4.0983	1.3288	1.7379	1.7904	0.9406	-0.4056	0.4476	-0.2832	-1.0455	-1.3742	-1.2099	0.8217	33.6078	1.5456	-1.6435	-1.0001	-0.1224	0.2203	-0.6819
2.7625	-0.0979	4.0388	1.2693	1.696	1.7099	0.8462	-0.3846	0.4021	-0.3462	-1.042	-1.4022	-1.3008	0.8008	33.6882	1.612	-1.612	-1.091	-0.1678	0.2028	-0.7238
2.6786	-0.2238	3.9619	1.1924	1.591	1.6295	0.7588	-0.3916	0.3252	-0.4196	-1.0805	-1.4791	-1.4197	0.7623	33.7302	1.6365	-1.5211	-1.2274	-0.2902	0.1783	-0.8008
2.5946	-0.3322	3.8745	1.126	1.5596	1.5491	0.6749	-0.4091	0.2203	-0.4826	-1.1155	-1.5001	-1.4966	0.7448	33.8071	1.661	-1.4791	-1.2868	-0.4091	0.1818	-0.8392
2.5352	-0.3846	3.8185	1.077	1.5351	1.4407	0.5735	-0.3986	0.1539	-0.591	-1.133	-1.5561	-1.6085	0.7378	33.8491	1.7239	-1.4547	-1.3742	-0.4896	0.1539	-0.8707
2.4722	-0.4056	3.7416	1.0211	1.5456	1.3847	0.5245	-0.3742	0.1049	-0.6259	-1.133	-1.6435	-1.668	0.7238	33.9295	1.7624	-1.4547	-1.4197	-0.6329	0.1643	-0.9022
2.4128	-0.4511	3.6856	0.9581	1.4966	1.3043	0.4441	-0.3881	0.0175	-0.7029	-1.1889	-1.6925	-1.7834	0.7168	33.982	1.8009	-1.4232	-1.5036	-0.7693	0.1189	-0.9896
2.3918	-0.4196	3.6472	0.9302	1.5351	1.2589	0.4056	-0.3637	-0.021	-0.7308	-1.1924	-1.7134	-1.8078	0.7308	34.0694	1.8533	-1.4512	-1.5141	-0.8847	0.1504	-1.0036
2.3464	-0.3951	3.6157	0.9057	1.5106	1.1784	0.3602	-0.3462	-0.0525	-0.7728	-1.1994	-1.7449	-1.8498	0.7343	34.1463	1.8393	-1.4442	-1.5316	-0.9756	0.1469	-1.0281
2.3254	-0.3881	3.5912	0.9302	1.5281	1.14	0.3532	-0.3427	-0.0804	-0.7903	-1.2239	-1.7764	-1.8673	0.7168	34.2547	1.8673	-1.4512	-1.5106	-1.0246	0.2098	-1.0455
2.3499	-0.3462	3.6087	0.9826	1.5456	1.119	0.3497	-0.2902	-0.0734	-0.7763	-1.2414	-1.7449	-1.8918	0.7343	34.3456	1.9267	-1.4722	-1.5001	-1.0176	0.2413	-1.07
2.3778	-0.3042	3.6297	1.0211	1.5736	1.1365	0.4301	-0.2867	-0.0734	-0.7623	-1.2484	-1.7239	-1.8848	0.7378	34.4575	1.9477	-1.4896	-1.4547	-1.0316	0.2937	-1.0525
2.3813	-0.3252	3.6227	1.049	1.5036	1.0805	0.4336	-0.3322	-0.0734	-0.7483	-1.3218	-1.7554	-1.9302	0.7553	34.5694	1.9792	-1.4896	-1.4512	-1.0141	0.3042	-1.1015
2.3953	-0.3707	3.6367	1.133	1.4302	1.042	0.4721	-0.3637	-0.1224	-0.7273	-1.3603	-1.7274	-1.9442	0.7483	34.6813	1.9792	-1.4826	-1.4512	-1.0071	0.3462	-1.133
2.4128	-0.4161	3.6472	1.1889	1.3463	1.0071	0.528	-0.4371	-0.1294	-0.7343	-1.4477	-1.7589	-1.9757	0.7588	34.8177	2.0002	-1.4931	-1.4442	-0.9686	0.3777	-1.1819
2.4722	-0.4336	3.6751	1.2589	1.2099	0.9511	0.5525	-0.5595	-0.1643	-0.7448	-1.5666	-1.7799	-2.0107	0.7448	34.9121	2.0107	-1.4896	-1.4687	-0.9861	0.3567	-1.2798
2.5072	-0.4546	3.6926	1.3742	1.1155	0.9476	0.6224	-0.6399	-0.2273	-0.7343	-1.668	-1.8323	-2.0316	0.7518	35.059	1.9967	-1.4861	-1.4617	-1.0036	0.3567	-1.3638
2.5492	-0.4441	3.7206	1.4512	0.9896	0.8987	0.6714	-0.7728	-0.2413	-0.7168	-1.7904	-1.8918	-2.0911	0.7483	35.1569	2.0037	-1.4791	-1.5036	-1.0036	0.3182	-1.4652
2.5981	-0.3217	3.7626	1.5561	0.8882	0.8847	0.7308	-0.9232	-0.3182	-0.7168	-1.9582	-1.9477	-2.1575	0.7518	35.2793	2.0316	-1.4896	-1.5386	-0.9931	0.2937	-1.5701
2.6576	-0.2308	3.843	1.6435	0.8287	0.8532	0.7833	-1.0211	-0.3532	-0.6924	-2.0841	-2.0281	-2.1785	0.7483	35.3912	2.0491	-1.4896	-1.5421	-0.9686	0.2867	-1.6575
2.752	-0.0979	3.864	1.7379	0.7553	0.8113	0.8217	-1.147	-0.4231	-0.7029	-2.2415	-2.1435	-2.2449	0.7413	35.4926	2.0351	-1.4791	-1.5736	-0.9826	0.2658	-1.7834
2.8534	0.0245	3.9724	1.8323	0.6959	0.8113	0.8707	-1.2693	-0.4791	-0.6854	-2.4023	-2.2415	-2.2589	0.7553	35.608	2.0107	-1.4931	-1.6015	-0.9686	0.2413	-1.8708
2.9268	0.0839	4.0073	1.8918	0.6329	0.7693	0.8742	-1.4127	-0.5735	-0.7064	-2.5981	-2.3848	-2.3429	0.7588	35.7094	1.9932	-1.5001	-1.6295	-0.9476	0.2133	-1.9897
3.0212	0.1888	4.0878	1.9722	0.6084	0.7448	0.9336	-1.5596	-0.6364	-0.6924	-2.731	-2.4967	-2.3953	0.7798	35.8353	2.0002	-1.5386	-1.654	-0.9092	0.2168	-2.0911
3.0877	0.1888	4.0738	2.0002	0.535	0.7343	0.9092	-1.6855	-0.7238	-0.6924	-2.9093	-2.6331	-2.4583	0.7868	35.9751	1.9477	-1.5701	-1.7169	-0.8847	0.1993	-2.161
3.1506	0.1713	4.1087	2.0177	0.4651	0.6889	0.9092	-1.8323	-0.8183	-0.7623	-3.0947	-2.7625	-2.5352	0.8008	36.1185	1.9232	-1.598	-1.7274	-0.8217	0.1783	-2.2589
3.1786	0.1224	4.1052	2.0072	0.3812	0.6749	0.9057	-1.9932	-0.8742	-0.7553	-3.2485	-2.8919	-2.6086	0.8148	36.2409	1.8953	-1.6155	-1.7904	-0.7938	0.1678	-2.3429
3.259	0.0629	4.1227	2.0002	0.3462	0.6119	0.9057	-2.1086	-0.9651	-0.7903	-3.3884	-2.9898	-2.6401	0.8322	36.3948	1.8848	-1.6715	-1.8148	-0.7238	0.1818	-2.4268
3.273	-0.0315	4.1227	1.9302	0.2902	0.591	0.8777	-2.1995	-0.9931	-0.8392	-3.5073	-3.0492	-2.6751	0.8637	36.5241	1.8778	-1.6994	-1.8218	-0.6854	0.1888	-2.4792
3.301	-0.1224	4.1437	1.8883	0.2343	0.584	0.8322	-2.2729	-1.0455	-0.8672	-3.6192	-3.1541	-2.7345	0.8672	36.664	1.8708	-1.7379	-1.8568	-0.6504	0.1958	-2.5142
3.3045	-0.2203	4.1192	1.8113	0.1888	0.598	0.8043	-2.3638	-1.098	-0.8777	-3.7031	-3.1996	-2.759	0.8882	36.8144	1.8568	-1.7659	-1.8708	-0.6364	0.2203	-2.5806
3.322	-0.3147	4.1262	1.7519	0.1643	0.591	0.7973	-2.3708	-1.0595	-0.8847	-3.7206	-3.2101	-2.7765	0.9127	36.9857	1.8848	-1.8323	-1.8883	-0.584	0.2273	-2.5946
3.3429	-0.4161	4.1297	1.7064	0.1853	0.6189	0.7903	-2.3743	-1.0386	-0.8847	-3.7731	-3.2345	-2.7695	0.9302	37.1501	1.8883	-1.8743	-1.8813	-0.6084	0.2238	-2.6366
3.3115	-0.5385	4.1402	1.633	0.1748	0.6364	0.7448	-2.3743	-1.0141	-0.9476	-3.8115	-3.231	-2.7905	0.9546	37.3144	1.8743	-1.8953	-1.8918	-0.6399	0.2413	-2.6995
3.3464	-0.6224	4.1297	1.5561	0.2133	0.6819	0.7273	-2.3534	-0.9861	-0.9581	-3.801	-3.2171	-2.766	0.9896	37.4438	1.9023	-1.9687	-1.8813	-0.6959	0.2518	-2.7205
3.3255	-0.6714	4.1332	1.5106	0.2448	0.7064	0.7133	-2.2904	-0.9441	-0.9371	-3.794	-3.2031	-2.7695	1.0036	37.5942	1.8988	-1.9897	-1.8883	-0.8183	0.2413	-2.78
3.3639	-0.6784	4.1927	1.4966	0.3112	0.7798	0.7168	-2.1925	-0.8847	-0.9441	-3.7626	-3.1541	-2.745	1.0176	37.741	1.8988	-2.0247	-1.8778	-0.9232	0.2483	-2.8044
3.3674	-0.6329	4.2137	1.5036	0.3812	0.8462	0.7238	-2.0981	-0.8287	-0.9406	-3.7206	-3.1506	-2.7485	1.0316	37.8879	1.8743	-2.0526	-1.9058	-1.07	0.2063	-2.8569
3.4094	-0.4721	4.2871	1.5526	0.535	0.9511	0.7588	-1.9512	-0.7168	-0.9127	-3.6367	-3.0842	-2.6855	1.0595	38.0243	1.8918	-2.1086	-1.8953	-1.1994	0.1993	-2.8709
3.4968	-0.3462	4.3885	1.647	0.7133	1.1085	0.8252	-1.7694	-0.6015	-0.8427	-3.5458	-3.0003	-2.6471	1.084	38.1746	1.9023	-2.175	-1.8498	-1.2309	0.1783	-2.8569
3.5388	-0.1713	4.4619	1.7344	0.8672	1.1924	0.9232	-1.5945	-0.4756	-0.8078	-3.4688	-2.9233	-2.5841	1.105	38.297	1.9372	-2.196	-1.8568	-1.2903	0.1294	-2.8324
3.6402	-0.0105	4.5354	1.8673	1.0281	1.3428	0.9931	-1.4652	-0.3567	-0.7133	-3.3709	-2.8114	-2.4687	1.119	38.3879	1.9792	-2.224	-1.8148	-1.3323	0.1154	-2.8254
3.6786	0.1469	4.6508	1.9687	1.1994	1.4757	1.091	-1.2973	-0.2238	-0.6399	-3.266	-2.6995	-2.3813	1.126	38.5488	1.9687	-2.2345	-1.8218	-1.3812	0.0909	-2.8219
3.7626	0.3707	4.7487	2.0876	1.3812	1.6575	1.2064	-1.1085	-0.0664	-0.514	-3.1192	-2.5352	-2.2484	1.1225	38.6712	2.0072	-2.238	-1.7834	-1.3463	0.042	-2.7485
3.8535	0.5455	4.8396	2.224	1.5491	1.7869	1.3253	-0.9232	0.1084	-0.3916	-2.9408	-2.3708	-2.1086	1.1295	38.839	2.0281	-2.2519	-1.7449	-1.3183	0.035	-2.6541
3.9129	0.7273	4.976	2.3638	1.7309	1.9407	1.4197	-0.7553	0.2693	-0.2518	-2.7765	-2.175	-1.9652	1.1295	38.9929	2.0701	-2.238	-1.7029	-1.2833	0.0105	-2.5667
4.0283	0.9581	5.0704	2.4792	1.9093	2.1121	1.591	-0.542	0.4756	-0.0979	-2.5632	-1.9442	-1.7904	1.1435	39.1537	2.1785	-2.2694	-1.661	-1.1854	0.0245	-2.4198
4.1367	1.1504	5.2032	2.5771	2.0736	2.2449	1.7099	-0.3672	0.6784	0.0385	-2.3429	-1.7204	-1.64	1.1574	39.3216	2.2484	-2.2764	-1.6155	-1.1015	0	-2.2834
4.2067	1.3288	5.3151	2.6786	2.2449	2.3918	1.8533	-0.1643	0.8567	0.2063	-2.1296	-1.5071	-1.4931	1.1574	39.5069	2.2974	-2.3009	-1.6015	-1.0176	0.021	-2.1226
4.3186	1.4372	5.4096	2.766	2.4023	2.5387	1.9372	-0.007	1.0351	0.3392	-1.9337	-1.3043	-1.3673	1.1784	39.6713	2.3813	-2.3219	-1.598	-0.9267	-0.0035	-2.0177
4.371	1.5351	5.504	2.8149	2.5282	2.6086	2.0107	0.1504	1.1644	0.4336	-1.7274	-1.1015	-1.2519	1.1889	39.8251	2.4478	-2.3394	-1.5841	-0.8008	0.0035	-1.8568
4.4165	1.5875	5.525	2.8219	2.6436	2.7065	2.0631	0.2623	1.2868	0.5	-1.5771	-0.9861	-1.1784	1.1854	39.9965	2.5177	-2.3638	-1.605	-0.6959	-0.0455	-1.7134
4.4235	1.619	5.5285	2.7765	2.7485	2.759	2.1051	0.3846	1.3882	0.5735	-1.3952	-0.8567	-1.1085	1.1959	40.1713	2.5492	-2.3813	-1.619	-0.5735	-0.0804	-1.5596
