"FZ"	"FC3"	"FCZ"	"FC4"	"C3"	"CZ"	"C4"	"CP3"	"CPZ"	"CP4"	"P3"	"PZ"	"P4"	"OZ"	"FP1"	"FP2"	"A2"	"P8"	"TP7"	"TP8"	"P7"
1.1061	0.6154	0.3701	1.2137	-0.5466	-0.241	0.6025	-1.502	-0.1162	0.2367	-0.7316	0.0689	-0.1722	-0.5982	2.5478	2.1777	-1.5967	-0.1377	-0.6585	0.8263	-1.1577
1.0286	0.6499	0.3013	1.1921	-0.4433	-0.2109	0.5982	-1.3729	-0.0301	0.3013	-0.5896	0.1678	-0.0646	-1.0458	2.565	1.898	-1.4202	-0.0559	-0.5982	0.8694	-1.0458
0.9683	0.6886	0.3099	1.1362	-0.3443	-0.1765	0.6111	-1.2567	0.0559	0.3314	-0.4175	0.2453	0.0559	-1.4805	2.5995	1.558	-1.2395	0.0646	-0.5165	0.9038	-0.9296
0.8263	0.6886	0.2367	1.0673	-0.297	-0.1765	0.5853	-1.1577	0.1119	0.3658	-0.3357	0.3185	0.1377	-1.9023	2.6038	1.2309	-1.0673	0.1592	-0.4691	0.9167	-0.8005
0.7446	0.6972	0.1808	0.9942	-0.2152	-0.1722	0.5337	-0.9985	0.1592	0.3615	-0.1678	0.3658	0.2238	-2.2595	2.5995	0.9296	-0.8952	0.2496	-0.383	0.9382	-0.6886
0.6456	0.6671	0.1033	0.878	-0.1549	-0.2281	0.4691	-0.8866	0.1549	0.3787	-0.0516	0.4132	0.2324	-2.5607	2.621	0.5423	-0.7316	0.2884	-0.284	0.8866	-0.5939
0.5552	0.6413	0.0258	0.7833	-0.1119	-0.241	0.3959	-0.7919	0.1635	0.3314	0.043	0.4648	0.3228	-2.7028	2.6038	0.2324	-0.5896	0.3314	-0.2066	0.9167	-0.4562
0.4304	0.5896	-0.0947	0.6499	-0.0861	-0.3142	0.3185	-0.7015	0.1549	0.2582	0.0904	0.439	0.3271	-2.7372	2.5392	-0.0732	-0.4304	0.3658	-0.1033	0.9081	-0.3529
0.3357	0.5595	-0.1678	0.5294	-0.043	-0.3572	0.2625	-0.5939	0.1248	0.2496	0.1937	0.4691	0.3873	-2.5823	2.4618	-0.2884	-0.3185	0.4132	-0.0086	0.8952	-0.198
0.2797	0.5509	-0.2066	0.5337	0.0086	-0.4002	0.2066	-0.4906	0.1119	0.2367	0.3099	0.5078	0.4605	-2.2638	2.3326	-0.4734	-0.2324	0.5251	0.1334	0.9339	-0.0387
0.2152	0.5509	-0.284	0.4347	0.043	-0.4046	0.1678	-0.3873	0.0904	0.2195	0.4089	0.5337	0.5251	-1.8937	2.1906	-0.581	-0.1549	0.5939	0.2539	0.9468	0.142
0.2281	0.5681	-0.3228	0.4218	0.099	-0.4433	0.1506	-0.284	0.1248	0.2496	0.5035	0.5681	0.6068	-1.4245	1.941	-0.581	-0.0861	0.7101	0.3873	1.0071	0.3271
0.1678	0.5896	-0.3572	0.4218	0.1377	-0.4562	0.1076	-0.2023	0.1205	0.2453	0.5939	0.6154	0.6757	-1.0501	1.7516	-0.5121	-0.0603	0.822	0.5509	1.0544	0.5121
0.1291	0.6111	-0.3873	0.4218	0.1506	-0.4691	0.099	-0.0904	0.0904	0.2625	0.68	0.6413	0.7575	-0.7532	1.5106	-0.4046	-0.0129	0.8823	0.6929	1.063	0.6671
0.1334	0.6757	-0.4218	0.4218	0.1808	-0.5035	0.0947	0.0086	0.1119	0.2754	0.7704	0.6585	0.8823	-0.5681	1.2739	-0.2023	-0.0129	1.0415	0.8263	1.1276	0.8435
0.1162	0.7058	-0.4218	0.4691	0.1937	-0.4863	0.1119	0.0818	0.1248	0.3142	0.8435	0.6499	0.9339	-0.5681	1.0544	0.0301	-0.043	1.1233	0.921	1.1835	0.964
0.1033	0.7402	-0.439	0.4906	0.2238	-0.5078	0.1248	0.1334	0.1506	0.3443	0.8952	0.6714	1.02	-0.6714	0.8177	0.2754	-0.0689	1.2051	0.9942	1.2007	1.1061
0.1076	0.779	-0.439	0.5466	0.2582	-0.5078	0.1377	0.2496	0.1463	0.3744	0.9468	0.68	1.1276	-0.8737	0.6542	0.5638	-0.1291	1.2266	1.1448	1.2137	1.2395
0.1592	0.8349	-0.4175	0.6154	0.2453	-0.4863	0.2195	0.2927	0.1506	0.4519	0.9899	0.6757	1.2007	-1.1749	0.4734	0.8349	-0.2066	1.3126	1.2352	1.2524	1.3772
0.1549	0.8823	-0.4304	0.6585	0.2754	-0.4734	0.2367	0.3615	0.1851	0.4734	1.0329	0.68	1.2309	-1.4848	0.3314	1.1104	-0.2797	1.2954	1.3126	1.261	1.4848
0.1722	0.8694	-0.4175	0.723	0.2668	-0.4691	0.3099	0.3959	0.1937	0.5251	1.0932	0.6499	1.2653	-1.7344	0.2281	1.3126	-0.3314	1.2825	1.3643	1.2696	1.5709
0.2023	0.8737	-0.4175	0.7575	0.2625	-0.4519	0.3529	0.4175	0.2023	0.6025	1.0889	0.6413	1.317	-2.0314	0.1291	1.4676	-0.3486	1.2438	1.4159	1.2094	1.6225
0.1678	0.822	-0.4175	0.8349	0.2496	-0.4433	0.4218	0.4734	0.1894	0.6068	1.0802	0.6025	1.3643	-2.2509	0.0861	1.5881	-0.3529	1.2007	1.4202	1.1964	1.6699
0.1205	0.7273	-0.4691	0.8478	0.1765	-0.4347	0.4648	0.4562	0.1506	0.6327	1.0458	0.5552	1.3256	-2.3757	0.0043	1.6354	-0.2797	1.1276	1.3729	1.1276	1.6569
0.1033	0.6068	-0.5208	0.8694	0.1506	-0.4476	0.5078	0.4261	0.1765	0.6628	1.0157	0.4906	1.3514	-2.4058	-0.099	1.6914	-0.1937	1.0587	1.317	1.0587	1.6483
0.043	0.4992	-0.538	0.9038	0.0904	-0.439	0.5638	0.3959	0.1549	0.7101	0.9683	0.4347	1.3342	-2.3455	-0.1808	1.6139	-0.0689	1.02	1.2911	1.0501	1.6182
-0.0473	0.3486	-0.5681	0.9124	-0.0172	-0.4863	0.581	0.3271	0.1162	0.723	0.878	0.3572	1.2997	-2.225	-0.2668	1.4934	0.099	0.9167	1.1878	0.964	1.5192
-0.1377	0.1937	-0.6628	0.921	-0.0473	-0.538	0.5724	0.2711	0.0947	0.7359	0.8306	0.3142	1.2825	-2.0572	-0.3056	1.3083	0.2884	0.8909	1.0845	0.9468	1.4504
-0.3013	0.0215	-0.7532	0.822	-0.1463	-0.5896	0.5896	0.2281	0.0344	0.7273	0.7273	0.2367	1.2524	-1.941	-0.3486	1.0544	0.5078	0.8048	0.9683	0.8694	1.36
-0.3701	-0.142	-0.8177	0.7833	-0.2066	-0.624	0.5982	0.1678	0.0129	0.7446	0.6283	0.1377	1.1878	-1.8721	-0.3787	0.8263	0.7316	0.7446	0.8608	0.7704	1.2438
-0.5552	-0.3228	-0.9382	0.7575	-0.2927	-0.7187	0.5724	0.0775	-0.0301	0.7618	0.5681	0.0603	1.1577	-1.9066	-0.4175	0.5165	0.9683	0.68	0.7575	0.6757	1.1147
-0.7359	-0.5423	-1.0544	0.6456	-0.4002	-0.7876	0.5466	0.0129	-0.1033	0.7402	0.4734	0.0258	1.0845	-2.1433	-0.3959	0.2066	1.1706	0.5939	0.6327	0.5767	1.0286
-0.8866	-0.6886	-1.1405	0.5035	-0.5078	-0.8651	0.5035	-0.0818	-0.1549	0.6714	0.3572	-0.0603	1.0114	-2.4833	-0.3615	-0.1334	1.3514	0.4949	0.5121	0.4648	0.8737
-1.0286	-0.8651	-1.2438	0.4132	-0.5896	-0.9124	0.4992	-0.1549	-0.2238	0.6843	0.2711	-0.1119	0.9597	-2.9653	-0.3615	-0.4304	1.4848	0.4002	0.4089	0.3744	0.7661
-1.1921	-1.0372	-1.3299	0.2797	-0.6972	-0.9856	0.4218	-0.2324	-0.2496	0.6025	0.1678	-0.1808	0.8737	-3.4904	-0.3529	-0.7101	1.5967	0.3013	0.2711	0.2324	0.637
-1.2911	-1.1448	-1.3729	0.1937	-0.7101	-1.0071	0.4046	-0.2453	-0.284	0.6068	0.1377	-0.2023	0.8005	-3.9465	-0.3228	-0.9296	1.6354	0.1808	0.1937	0.1463	0.5767
-1.36	-1.2782	-1.3944	0.1248	-0.7402	-1.0286	0.3959	-0.2539	-0.284	0.5896	0.1076	-0.2023	0.7101	-4.3511	-0.3056	-1.1405	1.6225	0.1205	0.1506	0.0559	0.5208
-1.3901	-1.3428	-1.3987	0.0301	-0.7919	-1.0286	0.3701	-0.2884	-0.2797	0.5638	0.0732	-0.2238	0.68	-4.6739	-0.2711	-1.3772	1.6053	0.0301	0.0646	-0.0086	0.4691
-1.4159	-1.4116	-1.3901	-0.0086	-0.8005	-1.0114	0.383	-0.3185	-0.2711	0.5681	0.0559	-0.2109	0.624	-4.8202	-0.2754	-1.5106	1.5278	-0.0387	0.0172	-0.0775	0.4046
-1.3901	-1.459	-1.3428	-0.0559	-0.8349	-1.02	0.3744	-0.3056	-0.2496	0.5595	0.0473	-0.2195	0.5767	-4.7858	-0.2797	-1.6483	1.4762	-0.1119	-0.0301	-0.1334	0.3787
-1.3643	-1.4891	-1.304	-0.1076	-0.8177	-0.964	0.4046	-0.3013	-0.2539	0.5035	0.0086	-0.2152	0.5121	-4.605	-0.241	-1.7645	1.3385	-0.2152	-0.0689	-0.2238	0.3529
-1.317	-1.4977	-1.2352	-0.1635	-0.822	-0.9124	0.4132	-0.2927	-0.2539	0.4906	0.0172	-0.2109	0.4519	-4.2779	-0.2152	-1.8119	1.1964	-0.3013	-0.1162	-0.2582	0.3443
-1.2911	-1.5192	-1.1921	-0.1894	-0.8737	-0.9167	0.3916	-0.3228	-0.2668	0.4476	0.0043	-0.2496	0.3744	-3.8347	-0.2195	-1.8377	1.0587	-0.3744	-0.1463	-0.34	0.3228
-1.2696	-1.5235	-1.1491	-0.2754	-0.8866	-0.9124	0.3443	-0.3314	-0.297	0.3873	-0.0258	-0.2797	0.3056	-3.301	-0.1851	-1.8635	0.9554	-0.5035	-0.2195	-0.4046	0.3056
-1.2395	-1.5364	-1.1104	-0.3099	-0.8909	-0.8521	0.3529	-0.3314	-0.3228	0.3572	-0.0387	-0.2668	0.2281	-2.7114	-0.2023	-1.8291	0.8177	-0.5724	-0.2367	-0.4691	0.3013
-1.2352	-1.5494	-1.0415	-0.3615	-0.9167	-0.8349	0.3271	-0.3228	-0.3099	0.3142	-0.0689	-0.297	0.1808	-2.2207	-0.2367	-1.7258	0.7058	-0.624	-0.2797	-0.4691	0.3228
-1.2094	-1.5149	-1.0028	-0.3916	-0.9167	-0.8091	0.3228	-0.3185	-0.34	0.2453	-0.0603	-0.3271	0.099	-1.8377	-0.2668	-1.6354	0.6068	-0.637	-0.3486	-0.5251	0.3271
-1.2137	-1.5106	-0.9726	-0.4433	-0.9124	-0.7661	0.2884	-0.284	-0.3357	0.2324	-0.0258	-0.284	0.0344	-1.6182	-0.2927	-1.4719	0.4734	-0.6499	-0.383	-0.4992	0.3787
-1.1878	-1.4805	-0.9253	-0.4562	-0.9081	-0.7489	0.2797	-0.2884	-0.3529	0.2281	-0.0603	-0.2754	0.0301	-1.5709	-0.3873	-1.2137	0.3529	-0.5982	-0.3959	-0.5035	0.4046
-1.162	-1.4375	-0.8521	-0.4562	-0.8995	-0.7359	0.2754	-0.2754	-0.3314	0.1765	-0.0215	-0.241	-0.0086	-1.6397	-0.482	-0.9468	0.2324	-0.5466	-0.4691	-0.4863	0.4046
-1.0975	-1.3901	-0.7919	-0.4347	-0.8651	-0.637	0.2884	-0.2238	-0.34	0.241	0.0086	-0.1722	0.0516	-1.8119	-0.6154	-0.6283	0.0732	-0.4218	-0.4734	-0.3529	0.4734
-0.9985	-1.2954	-0.6843	-0.3873	-0.8134	-0.5595	0.3228	-0.1635	-0.2582	0.2281	0.0258	-0.1033	0.0775	-2.0443	-0.7704	-0.2625	-0.0387	-0.2668	-0.4691	-0.2668	0.5121
-0.9167	-1.1964	-0.5982	-0.3228	-0.723	-0.4777	0.3314	-0.0947	-0.2109	0.2884	0.1119	-0.043	0.1463	-2.281	-0.9124	0.0732	-0.1635	-0.0689	-0.439	-0.1248	0.5638
-0.7747	-1.1018	-0.4519	-0.2324	-0.6929	-0.3615	0.3744	-0.0344	-0.1248	0.3615	0.1765	0.0603	0.2668	-2.522	-1.0673	0.3959	-0.2582	0.1463	-0.4046	0.0301	0.6456
-0.6585	-0.977	-0.3357	-0.1765	-0.5724	-0.2496	0.4218	0.0947	-0.0775	0.4347	0.2625	0.1722	0.34	-2.7157	-1.2395	0.6671	-0.3314	0.3744	-0.3873	0.198	0.7273
-0.5165	-0.8909	-0.2281	-0.0947	-0.4605	-0.1592	0.4476	0.1592	0.0129	0.4648	0.3013	0.2367	0.4218	-2.8577	-1.4202	0.921	-0.3701	0.5767	-0.3271	0.3185	0.7661
-0.3916	-0.7919	-0.1334	-0.0646	-0.3701	-0.0732	0.439	0.241	0.0861	0.4992	0.3787	0.3228	0.5078	-2.8921	-1.6182	1.1276	-0.4046	0.8005	-0.2453	0.4605	0.8392
-0.2582	-0.6886	-0.0258	0	-0.2625	0.0473	0.4476	0.3099	0.1119	0.538	0.439	0.3658	0.5337	-2.8147	-1.842	1.2954	-0.4261	0.964	-0.2281	0.5552	0.878
-0.1162	-0.5724	0.0775	0.0559	-0.1765	0.1463	0.4476	0.3658	0.1678	0.5939	0.4691	0.4218	0.6068	-2.6296	-2.04	1.4504	-0.482	1.1104	-0.1291	0.6757	0.9253
0.0258	-0.5035	0.1377	0.0559	-0.0603	0.2152	0.439	0.3959	0.1894	0.581	0.4648	0.4175	0.5853	-2.3283	-2.2939	1.5666	-0.5035	1.1964	-0.1119	0.7273	0.9124
0.1162	-0.4175	0.2367	0.0516	0	0.2496	0.3486	0.4132	0.198	0.5423	0.4562	0.3959	0.5767	-2.0012	-2.5091	1.6871	-0.5423	1.2782	-0.099	0.7704	0.8995
0.1894	-0.3615	0.2927	-0.0129	0.1076	0.3013	0.2539	0.3873	0.1808	0.4906	0.4175	0.383	0.5121	-1.6569	-2.7071	1.7258	-0.581	1.3342	-0.0947	0.8005	0.8177
0.2625	-0.2754	0.2927	-0.0473	0.142	0.3271	0.1678	0.3615	0.1722	0.4089	0.383	0.2927	0.439	-1.3944	-2.8964	1.8205	-0.637	1.3385	-0.099	0.7919	0.7273
0.2582	-0.2195	0.3142	-0.1334	0.1635	0.3314	0.0516	0.3357	0.0775	0.3056	0.3056	0.2238	0.3486	-1.2782	-3.0385	1.8377	-0.6843	1.2739	-0.1205	0.7489	0.6111
0.2453	-0.1722	0.3099	-0.2539	0.198	0.3056	-0.1076	0.2582	0.0473	0.1722	0.2066	0.1248	0.1678	-1.3213	-3.146	1.8592	-0.7661	1.2094	-0.1678	0.7015	0.4777
0.2023	-0.1506	0.2668	-0.3658	0.2066	0.2668	-0.2668	0.2152	-0.0559	0.0344	0.1119	-0.0258	0.0258	-1.5838	-3.2149	1.8506	-0.822	1.119	-0.2152	0.6283	0.3185
0.1506	-0.1162	0.2195	-0.4863	0.2109	0.2238	-0.4304	0.142	-0.1635	-0.1248	0.0172	-0.1506	-0.1205	-1.9883	-3.2321	1.8334	-0.9124	1.0071	-0.2754	0.5208	0.1549
0.1291	-0.1377	0.1678	-0.637	0.2023	0.1549	-0.5939	0.0473	-0.2539	-0.3013	-0.1076	-0.284	-0.3271	-2.5005	-3.2278	1.8248	-0.9942	0.8349	-0.3142	0.4046	0.0043
0.0775	-0.1506	0.099	-0.779	0.1722	0.099	-0.7575	-0.0646	-0.3959	-0.4777	-0.2324	-0.4175	-0.4734	-3.1245	-3.1633	1.8205	-1.0759	0.6542	-0.3658	0.2884	-0.1894
0	-0.1635	0	-0.9296	0.1248	0.0215	-0.9597	-0.142	-0.4906	-0.6499	-0.3744	-0.5853	-0.6757	-3.7141	-3.0643	1.7645	-1.119	0.4433	-0.4261	0.1205	-0.4002
-0.0861	-0.241	-0.0689	-1.0975	0.0947	-0.0732	-1.119	-0.2539	-0.6111	-0.8306	-0.4906	-0.7101	-0.8823	-4.3296	-2.9309	1.7043	-1.1362	0.2324	-0.482	-0.0301	-0.5681
-0.1377	-0.284	-0.1033	-1.2223	0.0516	-0.099	-1.261	-0.297	-0.7144	-0.9942	-0.5681	-0.8091	-1.0329	-4.846	-2.7587	1.6397	-1.1534	0.0387	-0.4906	-0.1291	-0.7101
-0.1894	-0.3443	-0.1851	-1.3385	0.0258	-0.1549	-1.3944	-0.34	-0.8091	-1.1362	-0.6929	-0.9167	-1.1921	-5.2936	-2.4919	1.5364	-1.162	-0.1506	-0.5251	-0.3013	-0.8521
-0.297	-0.439	-0.2711	-1.4676	-0.0387	-0.2281	-1.5623	-0.4089	-0.9167	-1.304	-0.7962	-1.0329	-1.3471	-5.6078	-2.2509	1.4073	-1.1147	-0.3658	-0.5466	-0.4777	-1.02
-0.3142	-0.5078	-0.3486	-1.5967	-0.0646	-0.3056	-1.6699	-0.439	-1.0028	-1.4418	-0.8651	-1.0932	-1.459	-5.7369	-1.9668	1.2481	-1.0716	-0.5638	-0.5767	-0.6499	-1.1577
-0.383	-0.5853	-0.3873	-1.7301	-0.1463	-0.3357	-1.8033	-0.4863	-1.0716	-1.5881	-0.9468	-1.2007	-1.6096	-5.7369	-1.6483	1.0673	-0.9942	-0.7575	-0.581	-0.8478	-1.304
-0.4347	-0.6714	-0.4218	-1.7731	-0.2152	-0.3744	-1.9023	-0.5035	-1.1362	-1.6957	-1.0372	-1.2352	-1.7473	-5.5475	-1.3643	0.8694	-0.8866	-0.9339	-0.6542	-1.0157	-1.4116
-0.5078	-0.7101	-0.439	-1.8807	-0.2496	-0.3873	-1.9883	-0.5165	-1.1749	-1.8291	-1.1276	-1.2782	-1.8549	-5.2936	-1.0889	0.6283	-0.7273	-1.1448	-0.6886	-1.1921	-1.5451
-0.5423	-0.7316	-0.4304	-1.9367	-0.2754	-0.4089	-2.0357	-0.538	-1.1964	-1.9023	-1.1577	-1.3083	-1.9496	-4.9751	-0.8263	0.3658	-0.5638	-1.317	-0.7058	-1.3471	-1.6785
-0.5466	-0.7446	-0.4347	-1.9453	-0.3142	-0.3916	-2.0615	-0.538	-1.2051	-1.9797	-1.2309	-1.3342	-1.9926	-4.6136	-0.6068	0.1377	-0.3873	-1.4288	-0.7618	-1.4762	-1.7688
-0.5466	-0.723	-0.3701	-1.9324	-0.2797	-0.3314	-2.0357	-0.4949	-1.1706	-1.984	-1.2696	-1.3299	-2.04	-4.2779	-0.3701	-0.1377	-0.2109	-1.5235	-0.779	-1.601	-1.8635
-0.4906	-0.6413	-0.2754	-1.885	-0.2668	-0.2496	-1.9969	-0.4691	-1.1276	-1.9969	-1.2825	-1.2954	-2.0228	-4.08	-0.1937	-0.3873	-0.043	-1.5752	-0.8263	-1.6656	-1.9109
-0.4046	-0.538	-0.1377	-1.7861	-0.2152	-0.1463	-1.898	-0.3959	-0.9985	-1.9367	-1.2954	-1.2309	-1.9969	-3.9853	-0.0129	-0.637	0.1377	-1.6354	-0.8134	-1.7129	-1.9367
-0.2927	-0.4132	0.0258	-1.6354	-0.1205	-0.0043	-1.7559	-0.3142	-0.8435	-1.8334	-1.2438	-1.1018	-1.9883	-3.9681	0.2023	-0.9167	0.2927	-1.6742	-0.7919	-1.7215	-1.9195
-0.1377	-0.2195	0.2109	-1.4461	-0.0086	0.198	-1.5537	-0.1765	-0.6886	-1.7215	-1.1964	-0.9726	-1.885	-3.9896	0.3744	-1.1233	0.4347	-1.6699	-0.7661	-1.7086	-1.9023
0.0301	-0.0301	0.4433	-1.2481	0.1205	0.3873	-1.3729	-0.0947	-0.482	-1.5838	-1.1405	-0.8306	-1.7775	-3.981	0.5466	-1.36	0.5724	-1.6268	-0.7058	-1.7172	-1.8635
0.2324	0.1592	0.6671	-1.0243	0.2582	0.6154	-1.1577	0.0473	-0.2884	-1.4159	-1.063	-0.7015	-1.6871	-3.9595	0.7402	-1.5149	0.6542	-1.6139	-0.6585	-1.6569	-1.8291
0.3916	0.3357	0.8823	-0.822	0.4089	0.8306	-0.9296	0.1937	-0.1033	-1.2825	-0.9726	-0.5595	-1.5666	-3.8476	0.9382	-1.7129	0.7187	-1.6053	-0.581	-1.6483	-1.7516
0.6111	0.5595	1.1577	-0.5896	0.5681	1.0802	-0.6886	0.3056	0.1549	-1.0759	-0.8823	-0.4002	-1.4245	-3.6324	1.1491	-1.8678	0.7316	-1.5235	-0.5078	-1.5666	-1.6182
0.8091	0.7704	1.3944	-0.3486	0.6972	1.2911	-0.4863	0.4218	0.3486	-0.9038	-0.779	-0.2496	-1.3299	-3.2967	1.36	-1.9539	0.7187	-1.5321	-0.4304	-1.5192	-1.558
1.0458	0.9856	1.6483	-0.1205	0.8866	1.558	-0.2066	0.5638	0.5767	-0.6972	-0.68	-0.0861	-1.1964	-2.8706	1.5881	-2.0443	0.6628	-1.5192	-0.3615	-1.4288	-1.4245
1.2352	1.2481	1.9152	0.1205	1.0501	1.7731	0.0172	0.6886	0.8048	-0.5121	-0.581	0.0818	-1.0458	-2.2681	1.8205	-2.1131	0.5767	-1.4848	-0.2797	-1.3686	-1.2782
1.4762	1.4762	2.1605	0.4002	1.2395	2.0271	0.2582	0.8177	1.0544	-0.2884	-0.4605	0.2539	-0.9167	-1.5881	2.0486	-2.1304	0.4863	-1.3987	-0.2066	-1.304	-1.1405
1.6871	1.7344	2.4144	0.6413	1.403	2.2853	0.5035	0.9425	1.2739	-0.0818	-0.3271	0.4089	-0.7833	-0.8651	2.2724	-2.139	0.4089	-1.3557	-0.1377	-1.1921	-1.0286
1.9324	1.9539	2.6812	0.8952	1.5838	2.4833	0.7359	1.0845	1.5235	0.1205	-0.2023	0.5896	-0.624	-0.1033	2.4962	-2.1562	0.3099	-1.2954	-0.0258	-1.0845	-0.8564
2.1131	2.2164	2.9309	1.0975	1.7344	2.7415	0.9468	1.1921	1.7258	0.297	-0.1119	0.7402	-0.5035	0.581	2.6769	-2.1562	0.2797	-1.2352	0.0086	-0.9942	-0.7359
2.3154	2.4833	3.146	1.3428	1.9195	2.9481	1.1147	1.317	1.9324	0.4777	-0.0086	0.8737	-0.3787	1.1018	2.8147	-2.1433	0.2668	-1.1749	0.0344	-0.9382	-0.6111
2.479	2.7587	3.3698	1.5838	2.0744	3.159	1.3126	1.3987	2.1261	0.6197	0.0947	1.0071	-0.3013	1.4676	2.9223	-2.1175	0.2582	-1.1018	0.1076	-0.8694	-0.4562
2.6985	3.004	3.5592	1.7904	2.2638	3.3698	1.5235	1.4805	2.281	0.7919	0.2109	1.1276	-0.1765	1.6311	3.0212	-2.1562	0.2668	-1.0458	0.1506	-0.8263	-0.34
2.8835	3.2407	3.783	2.0099	2.4101	3.5377	1.6742	1.5795	2.4359	0.921	0.2754	1.2051	-0.1119	1.6483	3.0729	-2.1088	0.2927	-0.9856	0.1851	-0.7532	-0.2539
3.0385	3.4344	3.9379	2.1863	2.5607	3.6883	1.7861	1.6354	2.565	0.9942	0.3271	1.2524	-0.0732	1.4418	3.103	-2.0787	0.3357	-1.0157	0.2195	-0.7618	-0.1722
3.1547	3.6496	4.0843	2.3542	2.6511	3.7658	1.8506	1.6742	2.6081	1.0114	0.3314	1.2782	-0.0947	1.1491	3.0858	-2.0357	0.4175	-1.0716	0.2066	-0.7876	-0.1076
3.2407	3.783	4.1746	2.4574	2.6899	3.826	1.8721	1.6656	2.6554	1.0544	0.3099	1.2438	-0.1162	0.822	3.0428	-2.0012	0.5165	-1.1491	0.2023	-0.8263	-0.1033
3.3741	3.8949	4.2822	2.5564	2.763	3.8863	1.9453	1.6828	2.6683	1.02	0.3142	1.2352	-0.1463	0.4734	3.0126	-2.0012	0.6111	-1.2094	0.1678	-0.8263	-0.0861
3.4473	3.9982	4.3425	2.6425	2.8104	3.8949	1.9367	1.6742	2.6511	1.0114	0.2754	1.1534	-0.2367	0.1722	2.9093	-1.9324	0.7402	-1.304	0.1033	-0.8866	-0.1162
3.5076	4.0326	4.3726	2.664	2.8147	3.8605	1.9109	1.6311	2.5952	0.9726	0.2324	1.0975	-0.2797	-0.0387	2.819	-1.9281	0.878	-1.403	0.043	-0.9683	-0.1765
3.5162	4.0671	4.3898	2.6855	2.8276	3.826	1.8807	1.6053	2.5177	0.9081	0.1377	0.9899	-0.3873	-0.1377	2.6985	-1.9324	1.0071	-1.4805	-0.0301	-1.0329	-0.2238
3.5592	4.0714	4.3855	2.7028	2.8147	3.7873	1.8807	1.601	2.4704	0.8349	0.0904	0.9296	-0.4734	-0.1635	2.5607	-1.898	1.1577	-1.5364	-0.1334	-1.0458	-0.3013
3.5463	4.0412	4.3554	2.6683	2.8362	3.7271	1.842	1.558	2.3886	0.7661	0.0258	0.8608	-0.5466	-0.043	2.4488	-1.9023	1.304	-1.6311	-0.2453	-1.0845	-0.3615
3.5807	4.0326	4.321	2.6683	2.8061	3.6668	1.8033	1.5451	2.281	0.7532	-0.0172	0.779	-0.5853	0.1635	2.3025	-1.8937	1.4762	-1.644	-0.3099	-1.0889	-0.4562
3.5334	3.9638	4.2736	2.6296	2.8233	3.5936	1.8119	1.5494	2.225	0.6929	-0.0603	0.7015	-0.624	0.4132	2.1648	-1.8635	1.6311	-1.6742	-0.3959	-1.0889	-0.5251
3.5119	3.9336	4.2521	2.6124	2.8233	3.5334	1.7818	1.5451	2.1734	0.6972	-0.0861	0.68	-0.6499	0.7532	2.0228	-1.8248	1.7775	-1.6871	-0.4519	-1.1061	-0.5896
3.4602	3.8605	4.166	2.5607	2.8233	3.4904	1.7731	1.5666	2.1218	0.6757	-0.1076	0.6283	-0.6671	0.9813	1.8678	-1.7602	1.9152	-1.7043	-0.4992	-1.0845	-0.6413
3.3914	3.8217	4.1273	2.5349	2.8362	3.4344	1.7818	1.601	2.083	0.6671	-0.099	0.5982	-0.6413	1.1061	1.7043	-1.6613	2.0658	-1.6871	-0.5121	-1.0716	-0.6671
3.3612	3.8045	4.08	2.4962	2.8663	3.3828	1.799	1.6397	2.0529	0.7359	-0.0732	0.6283	-0.6154	1.0673	1.5623	-1.5795	2.2121	-1.6569	-0.5251	-1.063	-0.6585
3.2623	3.7787	3.9939	2.4402	2.8835	3.344	1.8033	1.6957	2.0572	0.7661	-0.0258	0.6327	-0.5552	0.9167	1.4891	-1.5192	2.3283	-1.6096	-0.5121	-1.0071	-0.6585
3.1848	3.7658	3.9293	2.3972	2.9266	3.3311	1.842	1.7731	2.0572	0.8435	0.0516	0.6972	-0.4562	0.6025	1.4332	-1.4676	2.4101	-1.5451	-0.4734	-0.9726	-0.6154
3.1116	3.7228	3.8648	2.3714	2.9782	3.3268	1.8678	1.8463	2.083	0.9296	0.1033	0.7446	-0.3873	0.1808	1.4202	-1.459	2.4919	-1.4805	-0.4002	-0.9339	-0.5681
2.9997	3.6797	3.7873	2.3154	3.0643	3.2795	1.9023	1.9281	2.1175	1.0157	0.1765	0.8048	-0.3013	-0.2711	1.4461	-1.4332	2.5392	-1.4116	-0.3443	-0.8263	-0.538
2.9093	3.6367	3.6969	2.2293	3.0686	3.2235	1.8894	1.9797	2.1131	1.0372	0.2496	0.8392	-0.2367	-0.7359	1.4805	-1.4719	2.5909	-1.403	-0.3228	-0.822	-0.5251
2.7974	3.6539	3.6539	2.1562	3.1331	3.2321	1.9668	2.0701	2.139	1.1276	0.34	0.9253	-0.1291	-1.162	1.6182	-1.5407	2.5952	-1.3471	-0.2367	-0.7876	-0.4734
2.6812	3.5592	3.5592	2.0658	3.1374	3.1977	1.9453	2.1088	2.1304	1.1706	0.4304	0.964	-0.043	-1.4891	1.7904	-1.6268	2.5995	-1.2997	-0.2152	-0.7704	-0.4347
2.5607	3.4947	3.4731	1.9539	3.1417	3.1891	1.9668	2.1476	2.1519	1.2137	0.4734	1.0114	0.0301	-1.7473	2.0271	-1.7818	2.5995	-1.2868	-0.1248	-0.6671	-0.439
2.4359	3.4473	3.3612	1.8549	3.1719	3.1374	1.9625	2.238	2.1605	1.2868	0.5595	1.0802	0.1076	-1.8549	2.2423	-1.8764	2.5952	-1.2524	-0.0301	-0.6327	-0.3916
2.2939	3.3268	3.2579	1.7559	3.1676	3.0944	1.9754	2.2337	2.1433	1.3083	0.6068	1.1405	0.1851	-1.8463	2.5091	-2.0271	2.5823	-1.2137	0.0301	-0.6111	-0.3443
2.1691	3.1977	3.1073	1.6182	3.1547	3.0298	1.9582	2.2681	2.1476	1.3299	0.6843	1.1663	0.2582	-1.7	2.7845	-2.1519	2.578	-1.1964	0.0904	-0.5423	-0.3314
2.0099	3.0944	3.0255	1.5106	3.0772	2.9352	1.898	2.281	2.1347	1.3643	0.7144	1.2309	0.34	-1.4202	3.0428	-2.2293	2.5435	-1.1749	0.1506	-0.5078	-0.2884
1.8549	2.9266	2.905	1.3901	3.0514	2.8577	1.8635	2.2681	2.0787	1.3815	0.7316	1.2653	0.3744	-1.0372	3.2709	-2.324	2.5435	-1.1663	0.198	-0.4863	-0.2797
1.7473	2.7974	2.7802	1.2481	2.9696	2.7716	1.8291	2.2552	2.0443	1.3686	0.7532	1.2868	0.4175	-0.6327	3.4258	-2.3111	2.5091	-1.1491	0.241	-0.4605	-0.2797
1.5924	2.6726	2.6296	1.162	2.8663	2.6554	1.7645	2.225	1.984	1.3815	0.7359	1.317	0.4433	-0.2238	3.5506	-2.3369	2.4833	-1.1319	0.2668	-0.4261	-0.2238
1.4848	2.5048	2.5048	1.0415	2.8104	2.5736	1.7215	2.1691	1.9582	1.3686	0.7618	1.3213	0.5208	0.0473	3.6539	-2.3455	2.423	-1.0975	0.3529	-0.4261	-0.2281
1.3772	2.4015	2.4316	0.9899	2.7071	2.4876	1.6699	2.1175	1.8894	1.3729	0.7402	1.3729	0.538	0.1722	3.7055	-2.3455	2.38	-1.0587	0.3572	-0.3615	-0.1808
1.2825	2.2681	2.3671	0.8995	2.6081	2.3843	1.6139	2.0486	1.8764	1.3815	0.7316	1.4332	0.6154	0.2324	3.7271	-2.3369	2.3068	-1.0071	0.3744	-0.3271	-0.1248
1.2223	2.1131	2.2337	0.8263	2.4962	2.2767	1.5494	2.0012	1.8291	1.3772	0.723	1.4977	0.6628	0.1635	3.684	-2.3111	2.2552	-0.977	0.3486	-0.3142	-0.1076
1.162	1.9582	2.1304	0.7532	2.4015	2.1949	1.4848	1.9023	1.799	1.3729	0.6886	1.5537	0.7058	-0.0172	3.6281	-2.3154	2.1863	-0.9038	0.3486	-0.2625	-0.0516
1.1319	1.8377	2.0658	0.7661	2.2595	2.1218	1.4676	1.8205	1.7818	1.3858	0.6456	1.5967	0.7833	-0.2367	3.5248	-2.281	2.0873	-0.7962	0.2884	-0.2281	-0.0301
1.0889	1.6569	1.9969	0.7402	2.139	2.0572	1.4116	1.7344	1.7258	1.4073	0.637	1.6656	0.8392	-0.482	3.4172	-2.2595	1.9582	-0.7187	0.241	-0.1635	0.0258
1.063	1.5063	1.941	0.7402	2.0357	1.9969	1.403	1.6699	1.7473	1.3987	0.6499	1.7602	0.9339	-0.6068	3.3053	-2.2509	1.7947	-0.5853	0.2238	-0.1205	0.0732
1.0932	1.3299	1.8937	0.7919	1.8894	1.9367	1.3858	1.5537	1.7086	1.4504	0.6068	1.8162	0.9985	-0.7359	3.1245	-2.1605	1.6268	-0.5035	0.1377	-0.0732	0.0732
1.0759	1.1104	1.8377	0.8177	1.7516	1.8764	1.3815	1.4848	1.6957	1.459	0.581	1.885	1.0673	-0.779	2.9524	-2.1433	1.4547	-0.3787	0.0947	0	0.0861
1.0802	0.9554	1.8334	0.8564	1.6182	1.842	1.3643	1.3428	1.6699	1.4762	0.5552	1.9668	1.1491	-0.6972	2.763	-2.0529	1.2567	-0.2668	-0.0043	0.043	0.0732
1.0716	0.779	1.7861	0.9296	1.4977	1.7775	1.3514	1.2696	1.6354	1.4719	0.4906	2.0012	1.1835	-0.5121	2.5048	-1.9711	1.063	-0.1678	-0.0559	0.1033	0.0344
1.0716	0.5724	1.7258	0.9942	1.3471	1.7473	1.3557	1.1491	1.6397	1.5106	0.4648	2.0658	1.2352	-0.2539	2.2681	-1.8721	0.9124	-0.0646	-0.1549	0.1291	0.0043
1.063	0.4175	1.6957	1.0458	1.2653	1.7301	1.3729	1.063	1.6225	1.5235	0.439	2.1648	1.2911	0.1377	2.0443	-1.7775	0.723	0.0387	-0.2582	0.1808	-0.0258
1.0673	0.284	1.6699	1.119	1.1405	1.6699	1.3643	0.9942	1.601	1.5278	0.4261	2.1863	1.3471	0.482	1.7688	-1.6742	0.5939	0.1549	-0.3529	0.2238	-0.0947
1.0286	0.1334	1.5967	1.1491	1.0544	1.6483	1.3299	0.8694	1.5752	1.558	0.3486	2.2035	1.3471	0.8651	1.5494	-1.5795	0.4691	0.1937	-0.4433	0.284	-0.1678
1.0114	0.0904	1.6053	1.218	0.9899	1.6311	1.3385	0.822	1.5752	1.5537	0.3185	2.2423	1.3944	1.119	1.3428	-1.5494	0.3916	0.2711	-0.5681	0.3013	-0.2367
0.9425	0.0473	1.5666	1.2352	0.9253	1.6354	1.3428	0.779	1.6139	1.5623	0.3228	2.2724	1.3514	1.2223	1.1104	-1.4504	0.3185	0.3271	-0.6628	0.3443	-0.2884
0.921	0.0258	1.5752	1.2954	0.8909	1.644	1.3643	0.7446	1.6053	1.5881	0.297	2.2853	1.3686	1.1921	0.921	-1.3772	0.2453	0.4218	-0.7273	0.4132	-0.3615
0.8737	0.0215	1.5235	1.2739	0.8435	1.601	1.3299	0.6929	1.5795	1.5666	0.284	2.2939	1.3514	0.9899	0.723	-1.3299	0.2367	0.4562	-0.822	0.439	-0.4261
0.8478	0.0689	1.5494	1.2868	0.8521	1.6311	1.3428	0.68	1.5838	1.5709	0.2496	2.281	1.317	0.6585	0.5681	-1.2911	0.2453	0.5078	-0.8866	0.482	-0.4648
0.7962	0.1205	1.5321	1.2782	0.8435	1.6354	1.3213	0.6628	1.6139	1.5795	0.2453	2.281	1.2868	0.1937	0.4304	-1.2997	0.3056	0.4691	-0.8952	0.4863	-0.482
0.8048	0.198	1.5537	1.2567	0.8564	1.6268	1.2997	0.6413	1.5838	1.5451	0.2582	2.238	1.2137	-0.241	0.2927	-1.2696	0.3744	0.4949	-0.9253	0.5121	-0.5078
0.7704	0.2453	1.5149	1.218	0.8349	1.6225	1.2739	0.6327	1.5752	1.4934	0.2453	2.2121	1.1878	-0.7144	0.1463	-1.2825	0.4734	0.4605	-0.9339	0.482	-0.5251
0.7704	0.3185	1.5278	1.1921	0.822	1.5881	1.2051	0.6197	1.558	1.4633	0.2281	2.1304	1.0975	-1.1104	0.0258	-1.2524	0.5724	0.4562	-0.8823	0.4949	-0.5251
0.7876	0.3916	1.5235	1.119	0.8349	1.5924	1.1878	0.6025	1.5192	1.4332	0.2109	2.0658	1.0243	-1.4073	-0.099	-1.317	0.6972	0.4132	-0.8737	0.4562	-0.5337
0.8005	0.4777	1.5407	1.0932	0.8564	1.5623	1.1319	0.6025	1.4461	1.3557	0.2066	1.9582	0.9468	-1.6526	-0.1937	-1.4116	0.8005	0.4132	-0.8263	0.4347	-0.4906
0.8177	0.5466	1.5106	1.0673	0.8392	1.5364	1.0587	0.6025	1.3858	1.2997	0.1592	1.842	0.8521	-1.7301	-0.3056	-1.4375	0.8995	0.3873	-0.7489	0.4046	-0.482
0.8005	0.5982	1.4977	0.9985	0.8306	1.4848	0.9985	0.5251	1.2868	1.1792	0.0732	1.6914	0.7532	-1.7086	-0.4433	-1.4934	1.0286	0.3357	-0.7446	0.3658	-0.5251
0.8091	0.6197	1.4461	0.9296	0.7833	1.4159	0.9081	0.4218	1.1792	1.0759	-0.0172	1.4805	0.6068	-1.5967	-0.5509	-1.5838	1.1319	0.2927	-0.6972	0.2539	-0.5337
0.7876	0.68	1.3772	0.8651	0.7489	1.3299	0.8134	0.3443	0.9813	0.9425	-0.1463	1.2653	0.4476	-1.3944	-0.6757	-1.6397	1.2481	0.2023	-0.7101	0.1635	-0.5853
0.7273	0.6929	1.2911	0.7833	0.6283	1.1835	0.68	0.1937	0.8005	0.7187	-0.3873	0.9554	0.2066	-1.1878	-0.8091	-1.7258	1.4073	0.0344	-0.7359	-0.0086	-0.6972
0.6585	0.723	1.218	0.6929	0.5337	1.0673	0.4992	0.0129	0.624	0.5767	-0.5638	0.6886	-0.0301	-1.0501	-0.9124	-1.7775	1.5321	-0.1248	-0.7532	-0.1549	-0.7962
0.581	0.6757	1.0759	0.5466	0.3916	0.8866	0.3486	-0.2281	0.3529	0.3142	-0.8608	0.3314	-0.2927	-1.0243	-1.0802	-1.842	1.7	-0.3314	-0.8134	-0.3787	-0.9468
0.4863	0.624	0.964	0.439	0.2582	0.7144	0.1678	-0.4648	0.1119	0.0947	-1.1749	-0.0301	-0.5982	-1.1792	-1.2051	-1.9023	1.8549	-0.5939	-0.878	-0.6154	-1.0889
0.4046	0.5982	0.8263	0.3486	0.0861	0.538	-0.0043	-0.7316	-0.142	-0.1549	-1.4676	-0.4304	-0.9038	-1.4461	-1.3729	-1.9066	1.9754	-0.8306	-0.9597	-0.822	-1.2653
0.3099	0.5208	0.6585	0.2109	-0.1463	0.3013	-0.2109	-1.0157	-0.4261	-0.4347	-1.8506	-0.822	-1.2266	-1.8894	-1.5709	-1.9883	2.1175	-1.119	-1.0802	-1.0716	-1.4762
0.2023	0.4218	0.5121	0.1119	-0.3228	0.0947	-0.4046	-1.3385	-0.7101	-0.6757	-2.2035	-1.2395	-1.5967	-2.38	-1.7473	-2.0271	2.2207	-1.3643	-1.1749	-1.3213	-1.6742
0.0947	0.3013	0.3357	-0.043	-0.5294	-0.0861	-0.581	-1.6871	-0.9985	-0.9425	-2.5736	-1.6613	-1.8764	-2.8878	-1.8764	-2.0959	2.3111	-1.6268	-1.3126	-1.5364	-1.9238
-0.0086	0.1635	0.1722	-0.1463	-0.7704	-0.3056	-0.7962	-2.0142	-1.2868	-1.1663	-2.9782	-2.0701	-2.2035	-3.4172	-2.0443	-2.1347	2.3886	-1.9066	-1.4461	-1.7602	-2.182
-0.099	-0.0129	-0.0129	-0.34	-1.0544	-0.538	-0.9899	-2.38	-1.6053	-1.4504	-3.3871	-2.4919	-2.4962	-3.8691	-2.1949	-2.2293	2.4359	-2.139	-1.6354	-1.9926	-2.4359
-0.2539	-0.2066	-0.1851	-0.4863	-1.3256	-0.7661	-1.1706	-2.7673	-1.8937	-1.6785	-3.8088	-2.9223	-2.819	-4.2607	-2.3326	-2.3326	2.479	-2.3929	-1.8205	-2.182	-2.6985
-0.3787	-0.3959	-0.383	-0.6413	-1.5795	-0.9813	-1.3342	-3.1245	-2.1906	-1.898	-4.222	-3.3053	-3.0815	-4.4802	-2.4488	-2.4058	2.5048	-2.5952	-2.0185	-2.3843	-2.9825
-0.5337	-0.6542	-0.6111	-0.8005	-1.8463	-1.2309	-1.4977	-3.486	-2.4661	-2.1045	-4.6222	-3.6496	-3.3139	-4.5921	-2.5435	-2.5693	2.522	-2.7802	-2.2293	-2.5607	-3.2407
-0.6456	-0.8909	-0.8134	-0.964	-2.1261	-1.4461	-1.6742	-3.8045	-2.7114	-2.3283	-5.001	-3.9939	-3.5377	-4.5362	-2.6081	-2.6855	2.5134	-2.9438	-2.423	-2.763	-3.5033
-0.7833	-1.0932	-0.9985	-1.1061	-2.3585	-1.6483	-1.8119	-4.123	-2.9395	-2.4531	-5.3367	-4.2822	-3.6711	-4.321	-2.664	-2.7845	2.4833	-3.0126	-2.6038	-2.8792	-3.7055
-0.9425	-1.2868	-1.1921	-1.2395	-2.6081	-1.8291	-1.9238	-4.4071	-3.1417	-2.5736	-5.6594	-4.5319	-3.8131	-3.9595	-2.6683	-2.862	2.4574	-3.0686	-2.7802	-2.9696	-3.9422
-1.0759	-1.4977	-1.3557	-1.3901	-2.8147	-2.0056	-1.9754	-4.6524	-3.2752	-2.6425	-5.8832	-4.6911	-3.8217	-3.5162	-2.7071	-2.8878	2.4144	-3.0471	-2.9352	-3.0255	-4.1015
-1.218	-1.6311	-1.4891	-1.4848	-2.9782	-2.1261	-1.9969	-4.8331	-3.3741	-2.6726	-6.0726	-4.8116	-3.7873	-3.0126	-2.6382	-2.8964	2.3326	-2.9825	-3.0772	-3.0212	-4.2048
-1.3557	-1.7559	-1.601	-1.5838	-3.1116	-2.2423	-1.9926	-4.9665	-3.4344	-2.6253	-6.1888	-4.8374	-3.7271	-2.6081	-2.5866	-2.862	2.2337	-2.8319	-3.146	-2.9997	-4.2779
-1.4676	-1.8162	-1.6828	-1.644	-3.2063	-2.2681	-1.9152	-5.0526	-3.4172	-2.5392	-6.2577	-4.7858	-3.542	-2.3197	-2.479	-2.7415	2.1045	-2.6812	-3.2493	-2.9481	-4.2952
-1.5278	-1.8463	-1.7258	-1.6354	-3.2364	-2.281	-1.8334	-5.0612	-3.3483	-2.3929	-6.2103	-4.6868	-3.3139	-2.1562	-2.3283	-2.621	1.9195	-2.4101	-3.2321	-2.8362	-4.2392
-1.5752	-1.8377	-1.7086	-1.6225	-3.1977	-2.2207	-1.6225	-5.0225	-3.2149	-2.1734	-6.0984	-4.4974	-2.9997	-2.139	-2.1648	-2.4316	1.6785	-2.1088	-3.2407	-2.6382	-4.1273
-1.5795	-1.7904	-1.6742	-1.558	-3.1245	-2.1175	-1.4116	-4.8762	-3.0342	-1.8764	-5.9392	-4.2349	-2.6167	-2.2681	-1.9883	-2.1863	1.4073	-1.7473	-3.1805	-2.4316	-3.9595
-1.5451	-1.7	-1.5881	-1.4418	-3.0212	-1.9539	-1.1362	-4.7341	-2.8017	-1.5407	-5.6681	-3.8949	-2.1691	-2.5005	-1.7818	-1.9324	1.0845	-1.2997	-3.1073	-2.1863	-3.7184
-1.4461	-1.5494	-1.4245	-1.2954	-2.8405	-1.7818	-0.8005	-4.5103	-2.5005	-1.1706	-5.384	-3.4904	-1.644	-2.7415	-1.6053	-1.6053	0.7359	-0.8091	-2.9868	-1.8162	-3.4602
-1.3471	-1.4116	-1.2954	-1.1061	-2.6554	-1.5666	-0.4562	-4.2693	-2.1648	-0.6929	-5.0397	-3.0557	-1.0975	-2.961	-1.459	-1.2567	0.383	-0.2927	-2.8878	-1.4848	-3.159
-1.2395	-1.2567	-1.1319	-0.8995	-2.4273	-1.317	-0.0947	-3.9681	-1.8119	-0.2152	-4.6136	-2.5607	-0.4906	-3.146	-1.2911	-0.8995	0.0129	0.3013	-2.7501	-1.0802	-2.8233
-1.0544	-1.0845	-0.9081	-0.6542	-2.1906	-1.0372	0.3185	-3.6539	-1.4288	0.3056	-4.1703	-2.0443	0.1765	-3.1891	-1.162	-0.5939	-0.3658	0.9038	-2.6296	-0.6585	-2.4531
-0.8995	-0.9124	-0.7015	-0.4218	-1.9797	-0.7747	0.7015	-3.3139	-1.02	0.779	-3.7141	-1.4977	0.8349	-3.1805	-1.0415	-0.2625	-0.723	1.502	-2.479	-0.2754	-2.0916
-0.7316	-0.7661	-0.4992	-0.1722	-1.7344	-0.4906	1.1104	-2.961	-0.5939	1.3126	-3.202	-0.921	1.5063	-3.0385	-0.8952	0.0516	-1.0673	2.1088	-2.3025	0.1162	-1.6871
-0.5982	-0.6283	-0.3314	0.0301	-1.5106	-0.2367	1.4633	-2.6382	-0.1851	1.8076	-2.664	-0.3701	2.1949	-2.7888	-0.779	0.297	-1.3643	2.7458	-2.1691	0.5078	-1.2868
-0.4519	-0.5121	-0.1291	0.2797	-1.2739	0.0473	1.8033	-2.2595	0.2066	2.3455	-2.1562	0.2066	2.8319	-2.4402	-0.6757	0.4691	-1.5924	3.3268	-1.9969	0.8995	-0.8392
-0.3314	-0.3916	0.0172	0.4562	-1.0759	0.3099	2.139	-1.9238	0.6154	2.8061	-1.6483	0.7402	3.4731	-1.9668	-0.5638	0.581	-1.8119	3.8734	-1.8205	1.2309	-0.4519
-0.2324	-0.297	0.1851	0.6757	-0.8737	0.5423	2.4187	-1.558	0.9468	3.2407	-1.1147	1.2911	4.1058	-1.4934	-0.482	0.5939	-1.9668	4.4114	-1.6785	1.5666	-0.0172
-0.1549	-0.2238	0.2797	0.7919	-0.6972	0.7402	2.6339	-1.2825	1.3083	3.641	-0.6025	1.7904	4.661	-1.0716	-0.4519	0.5552	-2.0916	4.9063	-1.4977	1.8291	0.3916
-0.0818	-0.1678	0.4132	0.9382	-0.5251	0.9382	2.8534	-0.9554	1.6096	4.0197	-0.1248	2.2595	5.1903	-0.7187	-0.4261	0.4863	-2.225	5.3324	-1.3815	2.1045	0.7833
-0.0258	-0.0861	0.5251	1.0716	-0.3787	1.1018	3.0255	-0.6585	1.9152	4.364	0.3271	2.6985	5.6724	-0.5337	-0.4734	0.3314	-2.3154	5.7455	-1.2051	2.3197	1.1792
0.0258	-0.0344	0.5853	1.1964	-0.2625	1.2309	3.146	-0.4046	2.1261	4.6567	0.779	3.1159	6.1243	-0.4777	-0.5294	0.0947	-2.3886	6.1156	-1.0845	2.5306	1.5407
0.0646	0.0172	0.6068	1.2567	-0.1463	1.3256	3.2666	-0.1678	2.3455	4.8934	1.1749	3.4473	6.4772	-0.5466	-0.6327	-0.1549	-2.4531	6.4384	-0.9339	2.6855	1.885
0.0947	0.0818	0.6671	1.3126	-0.0086	1.4202	3.3139	0.0473	2.5349	5.1215	1.5451	3.7916	6.8172	-0.7704	-0.7489	-0.5121	-2.4704	6.7182	-0.779	2.8405	2.2337
0.1205	0.1334	0.7058	1.3686	0.0689	1.4805	3.3225	0.2496	2.664	5.285	1.8807	4.0757	7.1012	-1.0458	-0.8823	-0.8435	-2.4661	6.9678	-0.6542	2.9653	2.5306
0.1248	0.1894	0.68	1.3729	0.1894	1.5063	3.3053	0.4433	2.819	5.4357	2.2078	4.321	7.3121	-1.3944	-1.0157	-1.2352	-2.4402	7.183	-0.5251	3.0557	2.8233
0.2023	0.3013	0.7575	1.4288	0.3314	1.6053	3.344	0.6585	2.9653	5.5906	2.5263	4.6093	7.5531	-1.7	-1.119	-1.6096	-2.4316	7.3939	-0.3314	3.1547	3.1331
0.2367	0.3615	0.7661	1.4461	0.4304	1.6526	3.3483	0.8823	3.0772	5.7283	2.8233	4.8245	7.7597	-1.9754	-1.2395	-1.9195	-2.3843	7.5617	-0.1377	3.245	3.4172
0.2625	0.4304	0.779	1.4504	0.5724	1.6914	3.344	1.0845	3.1762	5.7972	3.0901	5.0311	7.9232	-2.1906	-1.3729	-2.2293	-2.2896	7.7166	-0.0258	3.2924	3.6324
0.3185	0.538	0.8134	1.5063	0.7618	1.7602	3.3354	1.2653	3.2709	5.922	3.3354	5.2291	8.0825	-2.324	-1.4891	-2.4531	-2.1734	7.8113	0.1463	3.3139	3.8433
0.3357	0.6499	0.8823	1.5451	0.8995	1.7904	3.3225	1.459	3.344	5.9822	3.5248	5.3668	8.1384	-2.3886	-1.558	-2.7329	-2.0185	7.8845	0.2797	3.3139	3.9896
0.3615	0.7316	0.9167	1.5795	1.0544	1.8592	3.3268	1.6871	3.4645	6.0339	3.7141	5.5131	8.2159	-2.3843	-1.6225	-2.9653	-1.8205	7.9447	0.4175	3.3225	4.1101
0.3959	0.8177	0.9382	1.6483	1.218	1.9195	3.3053	1.8807	3.5162	6.0683	3.8691	5.6164	8.246	-2.2466	-1.6914	-3.1676	-1.5795	7.9189	0.5337	3.3053	4.2263
0.4304	0.9382	0.9985	1.7	1.4073	1.9668	3.3354	2.04	3.5592	6.1113	3.9767	5.681	8.2374	-2.0787	-1.7129	-3.3785	-1.2997	7.8802	0.6413	3.2752	4.2564
0.4519	1.0157	1.0372	1.7602	1.5537	1.9797	3.3182	2.2466	3.5936	6.1415	4.0498	5.724	8.1987	-1.9023	-1.7559	-3.5893	-0.9985	7.7898	0.7316	3.2106	4.2822
0.4476	1.1319	1.0975	1.8162	1.7215	2.0443	3.3139	2.4058	3.6152	6.1329	4.0843	5.724	8.147	-1.7645	-1.7215	-3.8433	-0.6671	7.6478	0.7876	3.1417	4.2392
0.4992	1.2352	1.2007	1.9195	1.885	2.0916	3.3698	2.5866	3.6711	6.1501	4.1015	5.7326	8.0609	-1.7645	-1.6828	-4.0671	-0.3271	7.4972	0.8866	3.0385	4.2048
0.4949	1.36	1.2782	2.0314	2.1002	2.182	3.3785	2.7888	3.7012	6.1372	4.1187	5.7283	7.949	-1.8592	-1.5967	-4.2736	0.0172	7.325	0.9511	2.9567	4.1488
0.581	1.4461	1.3729	2.1519	2.281	2.2337	3.4215	2.9309	3.7271	6.1329	4.1015	5.6853	7.8371	-2.1605	-1.502	-4.5017	0.3572	7.0754	1.0028	2.8147	4.024
0.6025	1.5709	1.5364	2.2681	2.4273	2.3154	3.5076	3.0944	3.7572	6.1156	4.08	5.6078	7.7037	-2.5306	-1.3256	-4.7169	0.68	6.8215	1.0286	2.6942	3.882
0.7101	1.6656	1.644	2.4187	2.6382	2.4101	3.5635	3.2536	3.7744	6.0898	4.0455	5.5432	7.5832	-2.9438	-1.1491	-4.9321	0.964	6.5546	1.1147	2.5478	3.7787
0.8177	1.7731	1.8549	2.5736	2.8362	2.5435	3.6668	3.4172	3.8476	6.1156	3.9853	5.4787	7.4197	-3.3612	-0.9038	-5.0957	1.2223	6.3007	1.1663	2.4445	3.641
0.9124	1.885	2.0185	2.7028	3.0428	2.664	3.7615	3.5764	3.8777	6.0941	3.9164	5.3797	7.2734	-3.7615	-0.6154	-5.2334	1.4375	5.9822	1.1792	2.3499	3.4774
1.0587	2.0228	2.2121	2.8792	3.2666	2.8276	3.8906	3.7486	3.9595	6.1199	3.9035	5.3324	7.127	-4.0671	-0.3099	-5.2893	1.6096	5.7068	1.2438	2.2337	3.344
1.1878	2.139	2.4144	3.0083	3.4344	2.9567	4.0025	3.882	3.981	6.1286	3.7873	5.2377	6.9377	-4.2349	0.0215	-5.3151	1.7516	5.384	1.2911	2.1045	3.1805
1.3471	2.238	2.5866	3.1805	3.6797	3.1159	4.1488	4.024	4.0541	6.1156	3.7486	5.1473	6.8085	-4.2908	0.3615	-5.2549	1.8635	5.1129	1.3299	2.0142	2.9954
1.5364	2.3972	2.8319	3.3139	3.882	3.301	4.321	4.1531	4.1144	6.1199	3.6926	5.0741	6.6794	-4.2091	0.6843	-5.1516	1.9023	4.8245	1.4159	1.9066	2.862
1.7	2.5263	2.9997	3.4473	4.0886	3.4645	4.4587	4.3081	4.2048	6.1372	3.6539	5.0354	6.5116	-3.9207	1.0458	-5.0397	1.9281	4.5663	1.4461	1.8549	2.6985
1.898	2.6812	3.2321	3.6453	4.2952	3.6152	4.6136	4.4888	4.2822	6.1716	3.6195	4.9708	6.404	-3.4516	1.3428	-4.8589	1.9238	4.3253	1.5451	1.7861	2.5693
2.1175	2.8017	3.4344	3.8002	4.4974	3.7916	4.7557	4.5878	4.3597	6.1888	3.5807	4.9407	6.2921	-2.8534	1.6182	-4.704	1.9109	4.0757	1.5924	1.7086	2.4273
2.2939	2.9696	3.6109	3.9336	4.6954	3.981	4.9364	4.7514	4.4673	6.2318	3.5592	4.8891	6.1716	-2.1304	1.8592	-4.5103	1.8506	3.839	1.6871	1.6182	2.3412
2.479	3.1504	3.8217	4.0757	4.8676	4.1402	5.087	4.8546	4.5276	6.2448	3.5592	4.8762	6.0769	-1.3901	2.0486	-4.3167	1.8076	3.5807	1.7818	1.5924	2.2337
2.664	3.3397	3.9853	4.2005	5.0569	4.321	5.2506	4.9708	4.6222	6.2405	3.5463	4.8503	5.9736	-0.6628	2.1992	-4.1101	1.7215	3.3698	1.8248	1.5106	2.1648
2.8706	3.5506	4.1876	4.3941	5.2377	4.4931	5.427	5.1129	4.7212	6.2921	3.5764	4.8676	5.8962	-0.0947	2.281	-3.8045	1.644	3.1633	1.9109	1.4504	2.1519
3.0298	3.7271	4.3253	4.4974	5.3926	4.6308	5.5562	5.2032	4.8202	6.3007	3.585	4.8503	5.8101	0.3142	2.3455	-3.5334	1.5235	2.9653	1.9883	1.403	2.139
3.202	3.8906	4.4372	4.6007	5.5346	4.7643	5.6896	5.2764	4.8676	6.3265	3.585	4.8762	5.7197	0.5165	2.3843	-3.2364	1.3944	2.7372	2.0529	1.3342	2.1691
3.2924	4.0068	4.4888	4.661	5.5863	4.8417	5.78	5.2979	4.8977	6.2792	3.5893	4.8417	5.6379	0.5165	2.3671	-2.9481	1.2868	2.4962	2.0787	1.2739	2.1347
3.3871	4.1402	4.5534	4.7126	5.6724	4.8977	5.8144	5.3539	4.9278	6.2361	3.585	4.846	5.5389	0.4433	2.3499	-2.6985	1.1706	2.2638	2.0959	1.2094	2.1648
3.4688	4.2392	4.5534	4.7341	5.6594	4.945	5.8144	5.3281	4.9407	6.1716	3.585	4.7901	5.3797	0.2582	2.3455	-2.4618	1.0544	1.9969	2.1218	1.0889	2.1648
3.4473	4.2521	4.5319	4.6782	5.6035	4.9106	5.8058	5.285	4.8503	6.0382	3.5334	4.747	5.2119	0.043	2.3025	-2.2509	0.9468	1.7043	2.1175	0.9726	2.1906
3.3871	4.222	4.4157	4.5921	5.5346	4.8374	5.6982	5.2162	4.747	5.8273	3.4904	4.6524	5.0225	-0.1765	2.225	-2.0916	0.8694	1.4073	2.1218	0.8435	2.1605
3.3526	4.1746	4.2779	4.4888	5.4443	4.7341	5.5519	5.1043	4.6438	5.6422	3.3957	4.5491	4.803	-0.3443	2.1261	-1.9023	0.7575	1.0759	2.0701	0.6068	2.1433
3.2407	4.0929	4.0929	4.3296	5.3108	4.5835	5.3969	4.945	4.4802	5.3926	3.3225	4.4114	4.5491	-0.4476	2.04	-1.7473	0.6585	0.779	2.0185	0.439	2.0873
3.0987	3.9595	3.882	4.1058	5.1387	4.4157	5.1989	4.7557	4.2736	5.1086	3.1805	4.2564	4.2693	-0.4691	1.9152	-1.6397	0.5595	0.4304	1.9496	0.2238	2.0443
2.9438	3.8217	3.6453	3.8777	4.9149	4.1962	4.9493	4.5663	4.0584	4.8159	3.0858	4.1058	3.9767	-0.383	1.7387	-1.4762	0.482	0.099	1.8678	-0.0129	1.9754
2.7458	3.6324	3.4215	3.6238	4.6911	3.9767	4.6825	4.3382	3.8347	4.5103	2.905	3.9465	3.6582	-0.1937	1.5537	-1.3815	0.4175	-0.2281	1.7818	-0.2023	1.9066
2.5263	3.4387	3.1116	3.3569	4.4372	3.7098	4.4027	4.0886	3.5635	4.1531	2.7286	3.7658	3.3871	0.0473	1.3471	-1.304	0.4132	-0.5208	1.6656	-0.4648	1.8162
2.2681	3.2407	2.8276	3.0514	4.1402	3.3957	4.1101	3.839	3.2838	3.7701	2.5435	3.5334	3.0255	0.3056	1.1276	-1.3126	0.3873	-0.8005	1.5407	-0.6714	1.6742
1.984	2.9825	2.5263	2.7501	3.8863	3.103	3.7744	3.5678	3.0126	3.4172	2.3499	3.3741	2.7243	0.4992	0.8909	-1.2954	0.4089	-1.0587	1.4375	-0.8952	1.6311
1.7	2.7329	2.2035	2.4531	3.5549	2.7931	3.4473	3.2752	2.7028	3.0686	2.1347	3.1374	2.3757	0.6327	0.6542	-1.3083	0.439	-1.2825	1.2825	-1.1104	1.459
1.403	2.4919	1.898	2.1218	3.301	2.5091	3.1331	2.9653	2.4058	2.6769	1.9324	2.9782	2.0873	0.5896	0.3916	-1.3514	0.4605	-1.4719	1.1448	-1.2739	1.3256
1.1104	2.2078	1.5623	1.7775	2.961	2.1648	2.8104	2.6683	2.0787	2.3197	1.6871	2.763	1.7861	0.4002	0.1506	-1.459	0.5165	-1.6397	0.9856	-1.4719	1.1405
0.8478	1.9195	1.2481	1.4719	2.6339	1.8549	2.5091	2.324	1.8162	1.9883	1.459	2.621	1.5407	0.0473	-0.0689	-1.6053	0.5767	-1.7301	0.8177	-1.5881	0.9554
0.5251	1.6182	0.9511	1.1792	2.3111	1.5795	2.2078	2.04	1.5278	1.6311	1.1706	2.4359	1.2481	-0.4175	-0.2668	-1.7559	0.6456	-1.8205	0.6499	-1.7301	0.7359
0.2496	1.2739	0.6154	0.8478	1.9797	1.2266	1.8721	1.6569	1.2481	1.3256	0.9167	2.2681	0.9985	-0.9813	-0.4906	-1.9754	0.7704	-1.8937	0.4691	-1.8894	0.5208
-0.0215	0.8952	0.3185	0.5423	1.601	0.9382	1.5795	1.3299	0.977	0.9899	0.6283	2.1131	0.7402	-1.5623	-0.6929	-2.1734	0.921	-1.9066	0.2367	-2.0142	0.2453
-0.34	0.5165	-0.0043	0.2238	1.2438	0.6111	1.2739	0.9511	0.6886	0.6413	0.3185	1.9453	0.5294	-2.1949	-0.8823	-2.4058	1.1018	-1.9711	-0.0043	-2.1218	-0.0387
-0.6111	0.1076	-0.284	-0.0646	0.8995	0.3013	0.9597	0.6068	0.4132	0.3185	-0.0172	1.8076	0.2884	-2.7372	-1.0329	-2.5823	1.261	-2.0012	-0.2281	-2.2552	-0.3486
-0.8909	-0.3013	-0.637	-0.3486	0.5724	0.0043	0.6972	0.2625	0.1635	0.0043	-0.3099	1.644	0.0689	-3.2235	-1.162	-2.7716	1.4288	-2.0142	-0.4777	-2.3154	-0.6671
-1.162	-0.7144	-0.8651	-0.6499	0.1894	-0.241	0.4304	-0.0947	-0.0861	-0.297	-0.6757	1.4934	-0.1463	-3.6109	-1.2954	-2.9309	1.5838	-2.0314	-0.7402	-2.4058	-0.977
-1.4418	-1.1233	-1.1749	-0.9124	-0.1635	-0.5466	0.1678	-0.4476	-0.3572	-0.5681	-1.0071	1.3858	-0.3486	-3.9207	-1.4159	-3.0514	1.7473	-2.0443	-1.02	-2.5005	-1.304
-1.6828	-1.558	-1.4159	-1.1749	-0.5423	-0.8134	-0.1119	-0.8091	-0.581	-0.8737	-1.3514	1.2137	-0.5595	-4.0628	-1.5149	-3.1288	1.885	-2.0744	-1.2825	-2.5952	-1.6397
-1.941	-1.9496	-1.6742	-1.3858	-0.8564	-1.0243	-0.34	-1.1104	-0.8177	-1.1276	-1.7	1.0759	-0.7359	-4.0714	-1.5967	-3.245	2.0142	-2.0744	-1.5494	-2.6554	-1.9625
-2.1433	-2.324	-1.9023	-1.5795	-1.1491	-1.2438	-0.5337	-1.4375	-1.02	-1.3944	-2.0271	0.9339	-0.9167	-4.0068	-1.7172	-3.3096	2.1648	-2.0787	-1.7904	-2.7114	-2.3111
-2.4058	-2.6468	-2.1002	-1.7559	-1.4848	-1.459	-0.7833	-1.7688	-1.1835	-1.6354	-2.4015	0.7919	-1.0889	-3.925	-1.842	-3.4516	2.3068	-2.0744	-2.0701	-2.7974	-2.6253
-2.5823	-2.9309	-2.2939	-1.9195	-1.7473	-1.6139	-0.9468	-2.0314	-1.3643	-1.8549	-2.72	0.6757	-1.2309	-3.8045	-1.9496	-3.5463	2.4273	-2.0916	-2.3111	-2.8577	-2.9266
-2.7716	-3.2106	-2.4747	-2.0529	-2.0486	-1.7904	-1.0975	-2.3542	-1.5235	-2.0572	-3.0729	0.5208	-1.3944	-3.7787	-2.1088	-3.6711	2.5392	-2.0744	-2.5521	-2.9309	-3.2536
-2.8792	-3.4172	-2.5736	-2.1476	-2.2595	-1.8937	-1.2524	-2.6124	-1.6871	-2.2293	-3.3828	0.4132	-1.5364	-3.8906	-2.2423	-3.7529	2.5995	-2.083	-2.7587	-2.9739	-3.5076
-3.0212	-3.6195	-2.6812	-2.2552	-2.5134	-2.0012	-1.3858	-2.862	-1.799	-2.4273	-3.7228	0.2625	-1.7	-4.1488	-2.4187	-3.8734	2.6597	-2.1261	-3.0169	-3.0686	-3.8088
-3.0901	-3.7357	-2.7372	-2.3025	-2.6942	-2.0572	-1.5106	-3.0987	-1.898	-2.565	-4.0455	0.1549	-1.799	-4.4931	-2.5736	-3.9724	2.6554	-2.1304	-3.1977	-3.103	-4.0197
-3.1288	-3.8131	-2.7931	-2.3197	-2.8663	-2.1131	-1.6096	-3.2838	-1.9754	-2.6511	-4.2995	0.0473	-1.9109	-4.902	-2.7243	-4.08	2.6425	-2.1605	-3.3914	-3.1202	-4.2865
-3.1331	-3.8906	-2.8061	-2.3628	-3.0298	-2.1304	-1.6397	-3.5119	-2.0529	-2.7329	-4.5319	-0.0344	-2.0228	-5.3453	-2.905	-4.1703	2.5995	-2.1906	-3.5463	-3.1676	-4.4759
-3.1676	-3.9465	-2.8319	-2.3757	-3.1891	-2.1863	-1.7258	-3.7141	-2.1261	-2.8792	-4.8159	-0.1549	-2.1347	-5.7498	-3.1073	-4.265	2.5607	-2.2638	-3.7443	-3.2321	-4.747
-3.1676	-3.9767	-2.8147	-2.3757	-3.2924	-2.1691	-1.7301	-3.8992	-2.182	-2.8921	-5.0397	-0.241	-2.182	-6.064	-3.2924	-4.3683	2.5263	-2.3068	-3.8992	-3.2838	-4.9192
-3.1805	-3.9638	-2.7931	-2.3929	-3.3871	-2.1519	-1.7602	-4.0369	-2.1992	-2.9309	-5.2119	-0.3099	-2.2853	-6.3093	-3.486	-4.4888	2.5091	-2.3455	-4.0584	-3.3225	-5.0827
-3.1331	-3.981	-2.7716	-2.3929	-3.486	-2.1175	-1.7387	-4.1833	-2.2207	-2.9309	-5.384	-0.383	-2.2896	-6.4126	-3.6281	-4.6093	2.4618	-2.3499	-4.1876	-3.3828	-5.2592
-3.0772	-3.9078	-2.6855	-2.3283	-3.5076	-2.0357	-1.6742	-4.2736	-2.2035	-2.8835	-5.5174	-0.4132	-2.2509	-6.3437	-3.783	-4.6782	2.4359	-2.3455	-4.3038	-3.3483	-5.3969
-3.0385	-3.8777	-2.664	-2.2638	-3.5377	-1.9883	-1.6139	-4.364	-2.1519	-2.7888	-5.5691	-0.3959	-2.1949	-6.1931	-3.9465	-4.6997	2.423	-2.2724	-4.3898	-3.3483	-5.4787
-2.9567	-3.7744	-2.5521	-2.182	-3.499	-1.9023	-1.4805	-4.3812	-2.0873	-2.6511	-5.6379	-0.3873	-2.1088	-5.8875	-4.0757	-4.7643	2.3972	-2.225	-4.4544	-3.2967	-5.5475
-2.8878	-3.6625	-2.479	-2.0959	-3.4559	-1.7904	-1.3686	-4.3812	-1.9711	-2.479	-5.6637	-0.3615	-1.9668	-5.4701	-4.1962	-4.7643	2.3886	-2.0873	-4.5233	-3.2407	-5.5949
-2.8147	-3.5377	-2.3886	-1.941	-3.3698	-1.6569	-1.1792	-4.3253	-1.8592	-2.2767	-5.6078	-0.3314	-1.7947	-4.9795	-4.3339	-4.747	2.3843	-1.8937	-4.5319	-3.1288	-5.5863
-2.72	-3.3698	-2.281	-1.8076	-3.2321	-1.5364	-1.0071	-4.265	-1.7473	-2.0615	-5.5389	-0.2453	-1.5838	-4.4673	-4.4931	-4.6308	2.3843	-1.7	-4.5405	-2.9911	-5.5734
-2.6425	-3.159	-2.1648	-1.6483	-3.0772	-1.3686	-0.7876	-4.1617	-1.5881	-1.7861	-5.4055	-0.142	-1.3428	-4.0197	-4.6481	-4.4888	2.3972	-1.4719	-4.5146	-2.8964	-5.5131
-2.5263	-2.9395	-2.0314	-1.4547	-2.8706	-1.1921	-0.5294	-4.0498	-1.3901	-1.4848	-5.2721	-0.0473	-1.0802	-3.7141	-4.8073	-4.3081	2.3972	-1.2137	-4.5017	-2.7501	-5.4615
-2.4359	-2.7243	-1.9109	-1.2997	-2.6942	-1.0114	-0.2582	-3.8949	-1.1835	-1.1878	-5.1086	0.0775	-0.8349	-3.5979	-4.9579	-4.0843	2.3886	-0.9813	-4.4114	-2.6038	-5.3453
-2.3025	-2.4661	-1.7688	-1.0975	-2.4316	-0.822	0.0344	-3.684	-0.9597	-0.8048	-4.8934	0.2367	-0.5035	-3.6022	-5.1172	-3.7873	2.3455	-0.723	-4.3296	-2.4704	-5.2248
-2.2078	-2.2121	-1.601	-0.878	-2.1992	-0.624	0.3357	-3.4602	-0.7101	-0.4519	-4.6696	0.4218	-0.1765	-3.8002	-5.2119	-3.486	2.2896	-0.4648	-4.222	-2.3154	-5.0526
-2.0529	-1.9453	-1.4288	-0.6413	-1.8937	-0.34	0.7015	-3.1977	-0.4218	-0.0775	-4.4157	0.6413	0.1851	-4.0757	-5.3065	-3.1934	2.2035	-0.1549	-4.0671	-2.1433	-4.8374
-1.9195	-1.6871	-1.2696	-0.4002	-1.5795	-0.0904	1.0243	-2.905	-0.1678	0.3443	-4.1273	0.8306	0.5035	-4.42	-5.3582	-2.8534	2.1002	0.1248	-3.9379	-1.9797	-4.6782
-1.7861	-1.3901	-1.0759	-0.1722	-1.2524	0.1291	1.3901	-2.621	0.1033	0.7273	-3.8433	1.0501	0.8435	-4.7341	-5.3883	-2.5521	1.9883	0.3873	-3.7744	-1.8119	-4.4759
-1.6397	-1.1276	-0.8737	0.0559	-0.921	0.4089	1.7258	-2.3369	0.4002	1.1534	-3.5549	1.2954	1.2137	-4.9795	-5.3711	-2.2035	1.8291	0.6542	-3.585	-1.6483	-4.2263
-1.4288	-0.8478	-0.6542	0.3873	-0.5337	0.7359	2.139	-1.941	0.7532	1.5967	-3.1977	1.5752	1.6182	-5.1602	-5.3367	-1.9195	1.6354	0.9339	-3.3871	-1.4676	-3.9767
-1.261	-0.5638	-0.4132	0.6154	-0.2023	1.0157	2.5177	-1.644	1.0802	2.0012	-2.8792	1.8205	1.9711	-5.2119	-5.2764	-1.6957	1.4762	1.218	-3.1934	-1.2997	-3.7529
-1.0501	-0.284	-0.1851	0.9124	0.198	1.2954	2.905	-1.261	1.3901	2.4618	-2.5306	2.1045	2.3628	-5.186	-5.1903	-1.5321	1.3126	1.5106	-2.9524	-1.1319	-3.4473
-0.8608	0.0258	0.0861	1.1749	0.5853	1.6397	3.3311	-0.8823	1.7344	2.905	-2.182	2.38	2.7243	-5.0268	-5.0311	-1.4719	1.119	1.7645	-2.7286	-0.9425	-3.1805
-0.6499	0.3013	0.3271	1.4934	0.977	1.9625	3.7271	-0.4734	2.0744	3.3354	-1.8162	2.6683	3.1331	-4.7255	-4.8848	-1.4547	0.9856	2.0443	-2.4962	-0.7575	-2.8663
-0.4992	0.5509	0.581	1.7602	1.3342	2.2595	4.0886	-0.1162	2.4015	3.7314	-1.4547	2.9395	3.499	-4.3554	-4.7169	-1.5235	0.8866	2.3154	-2.2681	-0.5853	-2.5521
-0.3271	0.8651	0.8349	2.04	1.7301	2.5736	4.4673	0.2539	2.7415	4.1703	-1.0673	3.2321	3.8734	-3.9035	-4.5319	-1.6311	0.8134	2.578	-2.0357	-0.4562	-2.2121
-0.1592	1.1319	1.1061	2.3326	2.0701	2.8921	4.8417	0.6327	3.0729	4.5921	-0.7187	3.5549	4.2607	-3.4774	-4.3683	-1.7645	0.7876	2.8577	-1.7818	-0.2754	-1.8549
-0.043	1.3987	1.3471	2.6124	2.4316	3.1891	5.1946	0.977	3.3741	4.9708	-0.34	3.8347	4.6093	-3.1073	-4.1531	-1.9281	0.779	3.1288	-1.5795	-0.1291	-1.5149
0.1248	1.6483	1.5623	2.8706	2.7888	3.4559	5.5045	1.3213	3.7098	5.3194	0.0301	4.1058	4.9192	-2.862	-3.9896	-2.0658	0.7919	3.4129	-1.3514	0.0516	-1.1706
0.2281	1.885	1.7688	3.0987	3.0772	3.7098	5.7455	1.6354	3.9853	5.6336	0.383	4.4071	5.2635	-2.8276	-3.8303	-2.1949	0.8392	3.6453	-1.1491	0.1678	-0.8306
0.3701	2.1045	1.984	3.3354	3.3957	3.9982	6.0339	1.9754	4.2779	5.9693	0.7058	4.6825	5.5648	-2.8878	-3.6582	-2.2982	0.8349	3.8863	-0.9554	0.3099	-0.4777
0.4605	2.281	2.1605	3.5205	3.6195	4.2005	6.2577	2.2207	4.5491	6.262	1.0372	4.9278	5.8531	-3.1331	-3.5248	-2.3886	0.8564	4.1531	-0.7489	0.482	-0.1722
0.5251	2.4402	2.3025	3.6668	3.8519	4.3855	6.4772	2.4488	4.7729	6.4901	1.3299	5.1645	6.1329	-3.5205	-3.4172	-2.4402	0.8564	4.3984	-0.6154	0.5982	0.1162
0.6068	2.565	2.4661	3.8045	4.0541	4.5749	6.6622	2.6855	5.001	6.7268	1.5967	5.4141	6.3997	-3.9078	-3.301	-2.4747	0.8263	4.6395	-0.4648	0.7359	0.4002
0.6757	2.6511	2.6167	3.9336	4.2134	4.747	6.8042	2.8878	5.186	6.9592	1.8506	5.6336	6.6278	-4.3511	-3.1977	-2.479	0.7833	4.8805	-0.34	0.8478	0.6499
0.7489	2.763	2.7372	4.0541	4.3511	4.9192	6.9807	3.0901	5.3926	7.1744	2.1218	5.8789	6.886	-4.7083	-3.0858	-2.4445	0.6929	5.1172	-0.2152	1.0501	0.921
0.8263	2.7802	2.8491	4.1273	4.4458	5.0354	7.0926	3.2536	5.5777	7.3164	2.3585	6.0511	7.1055	-5.044	-3.004	-2.4187	0.637	5.3453	-0.099	1.1491	1.0932
0.8995	2.7888	2.9223	4.2048	4.5103	5.143	7.226	3.3655	5.7197	7.467	2.5607	6.2318	7.2949	-5.2936	-2.8835	-2.3972	0.5294	5.5734	-0.0086	1.2825	1.261
0.9511	2.7931	3.0385	4.2908	4.5319	5.2549	7.2949	3.4817	5.8445	7.609	2.7415	6.3997	7.4842	-5.3754	-2.7931	-2.3499	0.4218	5.8101	0.0344	1.4547	1.403
0.9683	2.7587	3.0858	4.321	4.5103	5.3065	7.3465	3.5936	5.9392	7.6994	2.9007	6.5202	7.6263	-5.341	-2.7028	-2.3843	0.3185	6.0037	0.099	1.5494	1.5235
0.9985	2.6769	3.0944	4.3468	4.5017	5.3281	7.3809	3.6453	6.0081	7.7468	3.0083	6.5977	7.7597	-5.1645	-2.6511	-2.423	0.2496	6.1673	0.1463	1.6656	1.6139
1.0071	2.5736	3.1116	4.3468	4.4415	5.3453	7.3637	3.6926	6.064	7.7941	3.1116	6.6923	7.8501	-4.8805	-2.6038	-2.5177	0.2195	6.3222	0.1162	1.7602	1.6656
0.9985	2.4962	3.0901	4.3124	4.3812	5.3539	7.3637	3.7572	6.0984	7.7984	3.2407	6.7741	7.9318	-4.5405	-2.5823	-2.664	0.2281	6.4686	0.1549	1.8334	1.7473
0.9726	2.4144	3.0815	4.3038	4.3339	5.3582	7.3207	3.7658	6.1113	7.8027	3.301	6.7956	7.9921	-4.1703	-2.578	-2.8319	0.2927	6.5589	0.1722	1.9023	1.7818
0.921	2.2681	3.0342	4.2478	4.2091	5.2893	7.2432	3.7357	6.0941	7.7425	3.3612	6.8172	8.005	-3.9164	-2.6038	-3.06	0.4261	6.6536	0.1635	1.9539	1.8162
0.8995	2.1992	2.9997	4.179	4.0886	5.2592	7.1744	3.7486	6.0726	7.7037	3.3957	6.8301	8.0222	-3.7572	-2.6124	-3.3268	0.5724	6.7139	0.1678	1.9926	1.8377
0.8435	2.1045	2.9352	4.1058	4.0025	5.2032	7.0883	3.7228	6.0769	7.665	3.4473	6.8774	8.0222	-3.7314	-2.6339	-3.585	0.7618	6.7655	0.1635	2.0443	1.9367
0.8048	2.0185	2.9007	4.0671	3.9293	5.1903	7.0237	3.7228	6.1027	7.6047	3.5635	6.9032	8.0007	-3.7959	-2.6597	-3.7916	0.9468	6.8085	0.1722	2.0615	1.9797
0.7919	1.9883	2.8835	3.9939	3.8562	5.2076	6.9635	3.7314	6.107	7.5445	3.6066	6.9549	8.005	-3.9121	-2.6942	-4.0326	1.1491	6.8215	0.2066	2.1088	2.0572
0.7747	1.9238	2.862	3.9164	3.8303	5.1903	6.843	3.7098	6.1802	7.4713	3.6711	6.985	8.0265	-4.0843	-2.7415	-4.2263	1.36	6.8344	0.1894	2.1562	2.0873
0.7833	1.9238	2.862	3.9078	3.7959	5.2119	6.7784	3.7615	6.2146	7.4283	3.783	7.0797	8.0222	-4.2091	-2.7458	-4.4157	1.5451	6.8387	0.1808	2.2121	2.1992
0.7661	1.8894	2.8749	3.8088	3.783	5.2377	6.7139	3.7787	6.262	7.3896	3.9035	7.1356	8.005	-4.2478	-2.7845	-4.5189	1.7301	6.8774	0.198	2.2509	2.281
0.7919	1.9066	2.9007	3.7658	3.8088	5.3108	6.688	3.8217	6.3222	7.3766	3.9767	7.2389	8.0222	-4.2005	-2.7716	-4.5878	1.8635	6.8559	0.2195	2.3154	2.38
0.8521	1.9324	2.9524	3.7141	3.826	5.3711	6.645	3.9121	6.4642	7.3637	4.1316	7.3551	8.0566	-4.1187	-2.7888	-4.5749	2.0056	6.8946	0.297	2.3628	2.4747
0.8909	1.9539	3.0385	3.6582	3.9035	5.4916	6.6364	3.9939	6.5632	7.3465	4.2521	7.4541	8.0739	-3.8863	-2.763	-4.5663	2.1304	6.8946	0.3228	2.4187	2.6081
0.9683	2.0099	3.0858	3.585	3.9939	5.5906	6.6106	4.0628	6.6923	7.3508	4.3726	7.5918	8.0825	-3.585	-2.7587	-4.4888	2.2337	6.9032	0.3787	2.4445	2.6985
1.0157	2.0701	3.1331	3.5076	4.0972	5.6939	6.5589	4.2134	6.8172	7.3422	4.506	7.6779	8.0997	-3.1848	-2.7372	-4.4415	2.3369	6.8602	0.4562	2.4962	2.7802
1.0889	2.1605	3.1977	3.4172	4.2048	5.7972	6.5589	4.3468	6.9377	7.3207	4.6524	7.7769	8.1126	-2.6812	-2.7071	-4.3554	2.4359	6.8129	0.538	2.5005	2.9136
1.1319	2.2724	3.2881	3.3182	4.3124	5.922	6.5245	4.463	7.0883	7.3164	4.7772	7.8931	8.1083	-2.1433	-2.6683	-4.2564	2.5134	6.7827	0.6068	2.4876	3.0169
1.1706	2.3671	3.3569	3.2321	4.4372	6.0339	6.503	4.6093	7.1701	7.3121	4.9235	7.949	8.0609	-1.6397	-2.6382	-4.1876	2.5909	6.701	0.6972	2.5005	3.1073
1.2266	2.4747	3.4215	3.1288	4.5835	6.1329	6.4556	4.7686	7.282	7.2604	5.0311	8.0265	8.0222	-1.2051	-2.6468	-4.0843	2.6511	6.6106	0.7704	2.4316	3.1762
1.2309	2.5823	3.4688	2.9911	4.6911	6.2189	6.4212	4.8503	7.3422	7.226	5.1215	8.0265	7.949	-0.8995	-2.6124	-4.0326	2.6985	6.4341	0.7876	2.3499	3.2192
1.261	2.6511	3.5291	2.8964	4.8288	6.2706	6.3653	4.9881	7.4154	7.1399	5.186	8.048	7.8371	-0.8306	-2.578	-4.0025	2.7243	6.2663	0.8306	2.2466	3.2579
1.2911	2.7845	3.5549	2.7974	4.9235	6.3437	6.3136	5.1172	7.4842	7.0754	5.2162	8.0351	7.7554	-0.9038	-2.5263	-3.9336	2.72	6.0597	0.878	2.1433	3.2838
1.317	2.905	3.6022	2.6812	5.0741	6.3997	6.2577	5.2119	7.5144	7.0323	5.2979	8.0911	7.6607	-1.1878	-2.4618	-3.9207	2.6942	5.8962	0.921	2.0142	3.3139
1.3256	2.9954	3.6453	2.5995	5.1516	6.4729	6.2275	5.2807	7.5531	6.942	5.3711	8.0696	7.5574	-1.6096	-2.2982	-3.9422	2.6554	5.7025	0.9038	1.9066	3.2838
1.3385	3.1116	3.7012	2.522	5.2678	6.5331	6.1673	5.4313	7.6177	6.9161	5.4098	8.0954	7.4412	-2.0615	-2.1605	-3.9767	2.5823	5.4529	0.9167	1.7473	3.2881
1.403	3.1934	3.7529	2.4876	5.3797	6.5805	6.1329	5.5045	7.665	6.8559	5.483	8.0437	7.3723	-2.5263	-1.9883	-3.9982	2.4747	5.2678	0.9167	1.601	3.2493
1.4159	3.2579	3.7916	2.3972	5.427	6.6407	6.064	5.5777	7.6693	6.7612	5.526	8.0523	7.2389	-2.9352	-1.8119	-4.0369	2.3499	5.0354	0.8909	1.4159	3.2364
1.459	3.3096	3.8519	2.3671	5.5174	6.688	6.021	5.6551	7.6994	6.7397	5.582	8.0308	7.1529	-3.2536	-1.5967	-4.0714	2.2164	4.803	0.9038	1.2782	3.1934
1.4848	3.3311	3.8605	2.3197	5.5648	6.7268	5.9607	5.7111	7.6994	6.6622	5.6035	8.0007	7.0194	-3.486	-1.4418	-4.1316	2.1088	4.5189	0.8737	1.0329	3.1288
1.5451	3.3483	3.882	2.281	5.6207	6.744	5.9564	5.7713	7.7166	6.5891	5.6379	7.962	6.9204	-3.5807	-1.2309	-4.166	1.9539	4.2908	0.8177	0.8866	3.0772
1.5967	3.3741	3.9681	2.2896	5.6724	6.7956	5.9306	5.8488	7.7511	6.5934	5.6637	7.9749	6.8301	-3.5248	-1.0544	-4.1316	1.8162	4.024	0.7962	0.7187	3.0557
1.601	3.4258	3.9939	2.2896	5.6939	6.8215	5.9306	5.8703	7.7339	6.5116	5.6637	7.9404	6.7268	-3.3526	-0.8737	-4.1617	1.7215	3.7486	0.7446	0.5294	2.9954
1.6225	3.3871	3.9939	2.3025	5.7369	6.8215	5.8918	5.9005	7.7382	6.4858	5.6853	7.9146	6.6364	-3.1288	-0.7532	-4.2005	1.6914	3.4947	0.6972	0.3271	2.9352
1.6526	3.4344	4.0326	2.3283	5.7584	6.8645	5.8918	5.9693	7.7296	6.4944	5.7369	7.9361	6.5718	-2.8147	-0.6111	-4.222	1.6656	3.2795	0.6671	0.1635	2.9395
1.6569	3.4	4.0283	2.3628	5.7886	6.8258	5.8531	5.9822	7.7339	6.4255	5.7627	7.9318	6.4772	-2.5693	-0.5165	-4.2521	1.7086	3.0471	0.6154	0.0086	2.9266
1.6742	3.4	4.0326	2.3972	5.8359	6.8731	5.8488	6.0683	7.7597	6.3868	5.8015	7.9103	6.4255	-2.3671	-0.4261	-4.3511	1.7731	2.7759	0.6068	-0.1678	2.905
1.7129	3.4645	4.0628	2.4488	5.8832	6.8774	5.8273	6.1673	7.7726	6.3825	5.9134	7.9447	6.3782	-2.324	-0.3787	-4.4501	1.8807	2.6167	0.5939	-0.3357	2.9739
1.7043	3.4731	4.0757	2.479	5.922	6.8774	5.8101	6.2275	7.7898	6.3911	5.9435	7.9878	6.3351	-2.4747	-0.3701	-4.5448	2.0529	2.3972	0.5466	-0.4562	2.9739
1.7043	3.5162	4.0412	2.5392	5.9693	6.9032	5.7756	6.3308	7.8371	6.3437	6.0124	8.0136	6.2835	-2.7329	-0.34	-4.7298	2.2164	2.2164	0.5423	-0.6327	3.004
1.7516	3.5678	4.0714	2.6038	6.0726	6.9377	5.7972	6.4556	7.8888	6.3954	6.1544	8.1126	6.262	-3.1288	-0.3443	-4.846	2.3886	2.0701	0.5509	-0.7316	3.0772
1.743	3.6238	4.1015	2.6339	6.163	6.9807	5.7627	6.5805	7.9663	6.3997	6.2534	8.1556	6.2491	-3.5635	-0.3185	-5.0354	2.5823	1.898	0.5423	-0.8349	3.1159
1.7861	3.6926	4.1402	2.7286	6.262	7.0496	5.7886	6.7311	8.0609	6.4169	6.3739	8.2761	6.2749	-4.0455	-0.3228	-5.1903	2.7587	1.7818	0.5423	-0.964	3.1977
1.8549	3.7787	4.179	2.7888	6.3696	7.0969	5.8058	6.886	8.1642	6.4901	6.5503	8.4095	6.2964	-4.4716	-0.3013	-5.3151	2.9352	1.6656	0.6025	-1.0415	3.2536
1.898	3.8605	4.2435	2.8792	6.5245	7.1959	5.8617	7.0668	8.302	6.5331	6.7225	8.5645	6.3437	-4.7815	-0.2668	-5.4227	3.0643	1.5451	0.6843	-1.0975	3.3655
1.9711	3.9379	4.3253	2.9825	6.6794	7.3164	5.9177	7.2475	8.4354	6.6235	6.8989	8.728	6.3825	-4.9278	-0.241	-5.4916	3.146	1.4633	0.7273	-1.1104	3.4516
2.0701	4.024	4.4243	3.0815	6.8129	7.424	5.9779	7.467	8.6161	6.701	7.0883	8.8959	6.4513	-4.9579	-0.1722	-5.5174	3.2278	1.3643	0.8134	-1.1706	3.5635
2.1476	4.1101	4.5276	3.1848	6.9678	7.566	6.0554	7.6435	8.7625	6.7827	7.2777	9.068	6.4815	-4.8116	-0.1635	-5.4873	3.2924	1.2653	0.8737	-1.218	3.6238
2.2466	4.2091	4.661	3.2881	7.127	7.6908	6.1113	7.8113	8.9432	6.9032	7.4713	9.2746	6.5934	-4.4888	-0.1334	-5.4141	3.3139	1.2137	0.977	-1.218	3.7529
2.3585	4.265	4.747	3.3914	7.282	7.8285	6.1931	7.9878	9.1154	7.0022	7.6349	9.4511	6.6665	-3.9982	-0.1205	-5.3194	3.3526	1.1706	1.0759	-1.2524	3.8217
2.423	4.364	4.8589	3.4817	7.4283	7.9577	6.262	8.1427	9.2832	7.0582	7.8027	9.6146	6.7225	-3.4559	-0.0904	-5.2506	3.4086	1.0889	1.1663	-1.261	3.9164
2.4876	4.4286	4.9493	3.585	7.5789	8.0523	6.305	8.3106	9.4425	7.1313	7.949	9.7523	6.787	-2.8534	-0.0516	-5.1602	3.4645	1.02	1.2481	-1.261	4.0197
2.5005	4.5017	5.0311	3.6238	7.665	8.1858	6.3394	8.4397	9.606	7.1959	8.0868	9.8987	6.8215	-2.3369	0.0215	-5.1172	3.5291	1.0028	1.3385	-1.261	4.0757
2.5478	4.5491	5.1215	3.6539	7.8113	8.302	6.3653	8.5473	9.748	7.2389	8.2116	10.0579	6.8645	-1.9324	0.1291	-5.1	3.5979	0.9554	1.4504	-1.2696	4.1574
2.5306	4.6136	5.1688	3.6969	7.8845	8.388	6.3782	8.6721	9.9073	7.2906	8.3106	10.1784	6.8731	-1.6656	0.2539	-5.1301	3.6969	0.8737	1.4934	-1.2309	4.1919
2.5349	4.6567	5.2205	3.74	8.005	8.4999	6.4126	8.7625	10.0536	7.325	8.3837	10.2946	6.9291	-1.5537	0.4089	-5.1172	3.7615	0.8349	1.6139	-1.2524	4.2521
2.4833	4.6997	5.2893	3.7184	8.0868	8.5774	6.4427	8.8055	10.1741	7.3809	8.4784	10.4108	6.9463	-1.6225	0.5681	-5.1473	3.8605	0.7661	1.6699	-1.2051	4.3167
2.5091	4.7169	5.3367	3.7572	8.1728	8.6592	6.4384	8.8744	10.3247	7.368	8.5645	10.5485	6.9377	-1.7731	0.7359	-5.1688	3.9164	0.6972	1.7344	-1.2007	4.3726
2.5005	4.7729	5.3754	3.7787	8.2804	8.7366	6.447	8.926	10.4495	7.3896	8.6549	10.6432	6.9721	-1.9754	0.921	-5.1344	3.9293	0.6154	1.8205	-1.1792	4.4286
2.4962	4.7772	5.4184	3.8002	8.3278	8.7926	6.4384	8.9647	10.5313	7.368	8.728	10.7551	6.9118	-2.1562	1.1104	-5.1516	3.9465	0.5165	1.8678	-1.2007	4.4802
2.5005	4.76	5.4227	3.7916	8.3923	8.8657	6.4686	8.9819	10.6432	7.3853	8.7625	10.824	6.9248	-2.3111	1.2825	-5.1387	3.9035	0.4304	1.9668	-1.1491	4.5276
2.5091	4.7083	5.4313	3.8002	8.444	8.926	6.4642	9.0508	10.7422	7.4197	8.8485	10.9316	6.9075	-2.3972	1.4719	-5.1	3.8217	0.3658	2.0357	-1.1362	4.6136
2.4531	4.5964	5.4184	3.7572	8.4698	8.9303	6.4599	9.0078	10.7852	7.3982	8.8571	10.9703	6.8731	-2.4359	1.7	-5.143	3.7529	0.2668	2.0787	-1.1147	4.6395
2.4316	4.5362	5.3582	3.7314	8.487	8.969	6.4858	9.0336	10.8799	7.4068	8.9346	11.0693	6.8989	-2.2982	1.9152	-5.1817	3.6195	0.2195	2.139	-1.0889	4.6997
2.3929	4.4157	5.3151	3.6926	8.4827	8.9776	6.4686	9.025	10.9445	7.4154	8.9819	11.1252	6.8989	-2.0486	2.1088	-5.2248	3.4817	0.1635	2.1863	-1.0114	4.7384
2.3499	4.2435	5.2162	3.5764	8.4182	8.9819	6.4599	8.969	10.966	7.424	8.9475	11.1252	6.8817	-1.7301	2.2896	-5.3324	3.3698	0.1377	2.1906	-0.9813	4.7557
2.2423	4.0843	5.0698	3.5076	8.3751	8.9389	6.4686	8.9174	10.9574	7.4068	8.9733	11.1424	6.8688	-1.3299	2.4445	-5.4744	3.245	0.1162	2.1949	-0.8952	4.76
2.1476	3.8863	4.945	3.4086	8.2977	8.8787	6.4642	8.827	10.9445	7.4154	8.9432	11.151	6.8731	-0.8392	2.5435	-5.6035	3.1288	0.1119	2.1992	-0.8005	4.7772
2.0185	3.7141	4.7901	3.3182	8.1685	8.7754	6.4341	8.7495	10.9014	7.4154	8.8959	11.1166	6.8774	-0.3314	2.621	-5.7455	3.0342	0.1334	2.1605	-0.7273	4.76
1.8678	3.4774	4.5706	3.1676	8.0351	8.6764	6.3868	8.6161	10.824	7.3982	8.8012	11.0478	6.8301	0.0947	2.6468	-5.8746	2.9739	0.1463	2.1175	-0.6628	4.7126
1.7387	3.3311	4.3855	3.0428	7.8802	8.5559	6.3997	8.4784	10.7336	7.3723	8.7237	10.9961	6.7913	0.383	2.664	-5.9736	2.8878	0.1334	2.1002	-0.5853	4.6911
1.5709	3.1417	4.166	2.8878	7.6865	8.3837	6.3653	8.3063	10.5916	7.3637	8.642	10.8842	6.8085	0.5337	2.6296	-6.0511	2.8577	0.1722	2.0357	-0.5078	4.6136
1.4073	2.961	3.9164	2.7587	7.5144	8.2202	6.3093	8.1728	10.4667	7.3551	8.5645	10.7637	6.7311	0.5035	2.5607	-6.1415	2.8491	0.1894	2.0142	-0.4347	4.5706
1.2524	2.8276	3.7055	2.6124	7.3207	8.048	6.3007	7.9964	10.3462	7.325	8.4268	10.6475	6.688	0.383	2.4618	-6.206	2.8405	0.1937	1.9453	-0.3916	4.5362
1.1362	2.6812	3.4817	2.5478	7.127	7.8371	6.2577	7.8587	10.1526	7.2906	8.3278	10.5657	6.6665	0.198	2.3369	-6.2534	2.8319	0.2109	1.941	-0.3056	4.5103
0.964	2.5134	3.2106	2.3455	6.9506	7.6478	6.2017	7.6779	9.9847	7.2518	8.2245	10.4366	6.5891	0.0086	2.2207	-6.3265	2.8448	0.2023	1.8894	-0.3099	4.4759
0.8823	2.4015	3.0083	2.2638	6.7784	7.4627	6.1587	7.5101	9.804	7.2002	8.1169	10.3247	6.5288	-0.1248	2.0787	-6.3351	2.8405	0.198	1.8678	-0.2453	4.4027
0.7919	2.2939	2.8017	2.139	6.5848	7.2734	6.0984	7.3594	9.6361	7.1485	8.005	10.187	6.4642	-0.1334	1.9195	-6.2792	2.8405	0.1635	1.842	-0.2324	4.3511
0.7489	2.2466	2.6511	2.0615	6.4642	7.1098	6.0597	7.2475	9.4338	7.1184	7.8931	10.0923	6.3911	0.0086	1.7172	-6.2275	2.8233	0.1722	1.8033	-0.1765	4.3167
0.7187	2.1734	2.5005	1.9969	6.3179	6.9204	5.9994	7.1055	9.2832	7.0582	7.8156	9.9761	6.3567	0.3056	1.5106	-6.0726	2.8017	0.2066	1.7947	-0.1248	4.2736
0.7316	2.182	2.3972	1.9496	6.1931	6.7655	5.9478	7.0022	9.1369	7.0194	7.7209	9.9159	6.3093	0.723	1.304	-5.8875	2.7329	0.2625	1.799	-0.0775	4.2521
0.7532	2.2164	2.2982	1.9066	6.1027	6.6364	5.8875	6.9118	8.9906	6.9635	7.6607	9.8255	6.3222	1.2954	1.0759	-5.6379	2.664	0.3142	1.7818	-0.0086	4.1746
0.7876	2.1992	2.2337	1.842	6.0339	6.503	5.8359	6.7741	8.8528	6.9204	7.5961	9.7308	6.2878	1.9367	0.8435	-5.4141	2.6038	0.383	1.7904	0.0258	4.1488
0.8306	2.2724	2.1605	1.8119	5.9607	6.3696	5.7498	6.6967	8.6678	6.8602	7.467	9.6533	6.2146	2.664	0.6154	-5.1387	2.5693	0.4089	1.8291	0.1119	4.123
0.8564	2.2853	2.1045	1.743	5.8832	6.2491	5.6637	6.602	8.5344	6.7784	7.4025	9.5543	6.1888	3.3741	0.4304	-4.9321	2.5607	0.4777	1.8162	0.1033	4.0886
0.8478	2.3455	2.0529	1.6914	5.8402	6.1587	5.5992	6.5245	8.3923	6.6967	7.3293	9.4812	6.1415	3.9939	0.297	-4.7514	2.5736	0.5208	1.8291	0.1506	4.0843
0.8564	2.3886	1.9969	1.6139	5.7843	6.0339	5.4658	6.404	8.246	6.5891	7.2734	9.4037	6.0511	4.4673	0.2066	-4.661	2.6339	0.5466	1.8119	0.142	4.0714
0.8349	2.4273	1.9539	1.5537	5.7369	5.9521	5.3582	6.3179	8.1427	6.503	7.1744	9.309	5.965	4.7212	0.1808	-4.6265	2.7243	0.5509	1.8248	0.1722	4.0412
0.8263	2.5048	1.9496	1.4805	5.7197	5.9091	5.2463	6.2189	8.0308	6.3911	7.1313	9.2144	5.8918	4.7557	0.1808	-4.6179	2.8104	0.6283	1.8635	0.1894	4.0283
0.8263	2.5736	1.9324	1.403	5.6896	5.8316	5.1301	6.1587	7.8974	6.2577	7.0323	9.1197	5.7627	4.5749	0.2539	-4.6954	2.905	0.5681	1.8635	0.1506	4.0111
0.8564	2.6597	2.0099	1.3729	5.7326	5.8359	5.0569	6.1156	7.8716	6.1802	7.028	9.0895	5.7068	4.2779	0.3357	-4.747	2.9782	0.6327	1.9754	0.1635	4.0757
0.8564	2.7587	2.0615	1.3299	5.7972	5.8617	4.9838	6.1372	7.8415	6.0769	6.9936	9.0766	5.6293	3.8347	0.4734	-4.8159	3.06	0.637	2.0271	0.1808	4.1402
0.9511	2.8878	2.1648	1.36	5.8746	5.9306	4.9536	6.1501	7.8845	6.0167	7.0194	9.0637	5.5734	3.3612	0.637	-4.8891	3.1245	0.6843	2.1304	0.2066	4.179
1.0286	3.004	2.2853	1.3643	5.9693	5.9994	4.9106	6.1716	7.8888	5.9693	7.0108	9.0422	5.5303	2.9352	0.7833	-4.8719	3.1547	0.723	2.2595	0.2324	4.2779
1.1534	3.1633	2.4618	1.4202	6.1113	6.1286	4.8891	6.2491	7.949	5.9134	7.0539	9.0551	5.4658	2.565	0.9382	-4.8589	3.1762	0.7489	2.3886	0.2496	4.3554
1.2696	3.2709	2.5952	1.4934	6.2318	6.262	4.9235	6.2835	8.0308	5.8746	7.0883	9.0982	5.4227	2.3154	1.0716	-4.7815	3.159	0.8177	2.5435	0.3228	4.4544
1.4116	3.4215	2.8061	1.5752	6.361	6.3868	4.9579	6.3179	8.0997	5.8875	7.127	9.0982	5.3969	2.2121	1.1749	-4.6739	3.0944	0.878	2.664	0.3658	4.5189
1.5666	3.5764	2.9997	1.6742	6.4556	6.5245	5.0096	6.3394	8.1642	5.8574	7.1356	9.1283	5.3711	2.2767	1.2825	-4.5577	3.0212	0.9597	2.8017	0.4304	4.6007
1.7258	3.6797	3.1676	1.8162	6.5675	6.6665	5.0827	6.3696	8.2417	5.8531	7.1615	9.1283	5.3797	2.4876	1.3686	-4.4071	2.9179	1.0372	2.9007	0.4562	4.6954
1.885	3.7357	3.3526	1.9539	6.6364	6.8042	5.1645	6.3911	8.3063	5.8789	7.183	9.1541	5.3797	2.8448	1.4375	-4.265	2.8233	1.1448	3.0428	0.5294	4.747
2.0529	3.8734	3.5506	2.1088	6.7397	6.9592	5.2592	6.4169	8.4009	5.9177	7.183	9.1713	5.3711	3.2924	1.5321	-4.1402	2.7028	1.2481	3.1331	0.5724	4.7987
2.2078	3.9638	3.7271	2.281	6.8215	7.1055	5.3926	6.4341	8.5171	5.9521	7.2002	9.2144	5.4012	3.8217	1.6139	-4.0541	2.621	1.3342	3.2364	0.624	4.8546
2.2939	4.0154	3.8949	2.4488	6.8559	7.2131	5.4873	6.4427	8.5473	5.9478	7.1615	9.223	5.3582	4.3081	1.7301	-3.981	2.5866	1.3901	3.301	0.6843	4.9063
2.4101	4.1015	4.0369	2.5823	6.9291	7.3422	5.6078	6.4298	8.6075	5.9693	7.1356	9.2316	5.3711	4.7427	1.8463	-3.925	2.565	1.4332	3.3914	0.68	4.9622
2.4316	4.123	4.123	2.7286	6.9161	7.3508	5.6767	6.3825	8.6118	5.9521	7.041	9.167	5.2807	5.0397	1.984	-3.9121	2.5823	1.4116	3.4344	0.6628	4.8977
2.4919	4.1746	4.222	2.8276	6.9075	7.4369	5.7713	6.3739	8.629	5.9134	7.0108	9.1068	5.2162	5.242	2.1347	-3.9509	2.6253	1.3901	3.4731	0.5896	4.8977
2.5263	4.2048	4.3081	2.9266	6.9075	7.467	5.8058	6.305	8.642	5.8918	6.886	9.0637	5.1516	5.3065	2.3025	-4.0068	2.6726	1.3342	3.499	0.5509	4.8719
2.5306	4.2478	4.3683	3.004	6.8731	7.5101	5.8445	6.2577	8.6247	5.8359	6.7913	9.0035	5.0354	5.2678	2.4747	-4.1058	2.7501	1.2524	3.5033	0.4562	4.7901
2.5435	4.2521	4.4243	3.0772	6.8559	7.5101	5.8832	6.1931	8.5645	5.767	6.6794	8.883	4.9321	5.2506	2.6942	-4.2693	2.8491	1.1061	3.4559	0.3572	4.7298
2.5263	4.2607	4.4673	3.0514	6.7827	7.5144	5.8445	6.1415	8.5473	5.6681	6.5546	8.784	4.747	5.1774	2.9179	-4.4372	2.9524	0.9296	3.3871	0.2195	4.5835
2.5435	4.2865	4.5146	3.0471	6.7999	7.5402	5.8617	6.0898	8.5258	5.5906	6.4298	8.6893	4.6136	5.1043	3.202	-4.6524	3.0428	0.7446	3.3612	0.0689	4.5017
2.5392	4.3038	4.5491	3.0557	6.7225	7.5402	5.8316	6.0253	8.4612	5.5174	6.3222	8.5602	4.4845	5.1344	3.4602	-4.8331	3.103	0.5423	3.2838	-0.1248	4.3769
2.5823	4.364	4.6007	3.0298	6.688	7.5574	5.7886	6.0339	8.4569	5.4184	6.2318	8.4827	4.3167	5.1688	3.7572	-5.0053	3.1288	0.34	3.2278	-0.297	4.2564
2.6167	4.3898	4.6524	3.0255	6.6708	7.566	5.7627	5.9779	8.4009	5.3238	6.1027	8.3751	4.166	5.3496	4.0455	-5.1516	3.1245	0.1291	3.1288	-0.439	4.1101
2.7071	4.506	4.7643	3.0169	6.688	7.6134	5.78	6.0037	8.3837	5.2463	5.9908	8.289	4.0111	5.6379	4.3511	-5.285	3.06	-0.0559	3.0643	-0.6025	3.9896
2.7974	4.562	4.8676	3.0471	6.7096	7.6607	5.7713	5.9779	8.4052	5.2119	5.8832	8.2073	3.8777	6.0769	4.6265	-5.3883	2.9739	-0.2281	2.9997	-0.7359	3.8992
2.9481	4.7212	5.0053	3.1245	6.787	7.7855	5.8144	6.0425	8.4268	5.1946	5.8531	8.147	3.7959	6.6579	4.902	-5.5002	2.8577	-0.3787	2.9395	-0.8521	3.7959
3.0686	4.8719	5.1516	3.1547	6.8387	7.8716	5.866	6.0941	8.4698	5.1645	5.8316	8.0911	3.684	7.3379	5.0655	-5.5303	2.763	-0.5121	2.8835	-0.9597	3.7098
3.2623	5.044	5.3108	3.2364	6.9936	8.005	5.9263	6.1716	8.5128	5.1817	5.78	8.0652	3.6238	8.0782	5.2592	-5.5648	2.6726	-0.6068	2.862	-1.0243	3.6367
3.4301	5.2291	5.4658	3.3311	7.1399	8.1169	5.9736	6.262	8.5645	5.1774	5.7541	8.0351	3.5248	8.7151	5.4141	-5.6724	2.5909	-0.7058	2.8577	-1.1147	3.6281
3.6281	5.4916	5.6767	3.4645	7.3293	8.289	6.0769	6.348	8.6721	5.1989	5.767	8.0308	3.4947	9.2746	5.5475	-5.6724	2.4833	-0.7661	2.8534	-1.1233	3.5678
3.882	5.7584	5.9134	3.6238	7.5359	8.4913	6.1931	6.5116	8.8012	5.2936	5.823	8.0696	3.4774	9.6749	5.6551	-5.6853	2.3585	-0.7747	2.8749	-1.1921	3.5764
4.1273	6.064	6.1544	3.8174	7.7726	8.6721	6.3222	6.645	8.9131	5.3797	5.8875	8.0911	3.5248	9.9073	5.724	-5.6681	2.2337	-0.7532	2.8792	-1.1491	3.5248
4.3726	6.361	6.4341	4.0197	8.0523	8.9131	6.5245	6.8172	9.0938	5.483	5.9564	8.1427	3.5248	9.9761	5.8101	-5.6121	2.083	-0.7187	2.9179	-1.1104	3.5334
4.6438	6.6364	6.7182	4.2392	8.2977	9.1283	6.6967	6.9635	9.2359	5.625	6.0167	8.1901	3.585	9.9202	5.8617	-5.5475	1.9195	-0.7015	2.9696	-1.0802	3.5162
4.902	6.9291	6.9635	4.4329	8.5301	9.3693	6.8645	7.1313	9.4209	5.7498	6.0898	8.2503	3.6367	9.7824	5.9392	-5.4615	1.7344	-0.624	3.0212	-1.0673	3.4904
5.1946	7.2002	7.2647	4.6868	8.827	9.6017	7.0668	7.3035	9.5759	5.9048	6.1802	8.3192	3.74	9.6662	5.9908	-5.2979	1.5192	-0.581	3.0643	-0.9856	3.4947
5.4701	7.5015	7.5531	4.9235	9.1369	9.8642	7.2691	7.4885	9.7868	6.1113	6.2921	8.3966	3.8217	9.5543	6.0984	-5.1301	1.2782	-0.4562	3.1073	-0.8866	3.4817
5.7541	7.764	7.8716	5.1387	9.3822	10.1009	7.5058	7.6564	9.9417	6.2534	6.3739	8.5042	3.9595	9.5156	6.1974	-4.9493	1.0372	-0.3486	3.1719	-0.7747	3.5205
6.0124	7.9878	8.147	5.3324	9.6447	10.3505	7.6822	7.8199	10.1181	6.4255	6.4599	8.5516	4.0498	9.6017	6.2792	-4.747	0.8005	-0.2324	3.2321	-0.6671	3.5377
6.2405	8.1944	8.4225	5.5002	9.8814	10.5657	7.8931	7.9663	10.3032	6.5934	6.5546	8.629	4.1833	9.7954	6.3954	-4.5534	0.5853	-0.1248	3.3139	-0.538	3.5463
6.4341	8.3794	8.6333	5.6551	10.1052	10.7723	8.0652	8.0825	10.4065	6.7483	6.645	8.6506	4.2607	10.1612	6.5288	-4.3984	0.4132	-0.0215	3.3741	-0.4046	3.5721
6.5891	8.5171	8.8356	5.7929	10.2688	10.8971	8.1901	8.1685	10.5184	6.8731	6.6708	8.6506	4.3296	10.6862	6.6407	-4.2822	0.284	0.0559	3.4043	-0.3142	3.5764
6.7569	8.6807	9.025	5.9048	10.4624	11.065	8.3622	8.2761	10.6346	7.0151	6.7397	8.6721	4.3898	11.448	6.8215	-4.2134	0.1894	0.1722	3.5033	-0.1592	3.6281
6.8516	8.8098	9.2057	5.9779	10.6174	11.1769	8.4784	8.3622	10.6819	7.1356	6.7698	8.6333	4.4716	12.369	6.9592	-4.179	0.1506	0.2195	3.5979	-0.0473	3.6625
6.9334	8.926	9.3047	6.0597	10.7336	11.2457	8.5688	8.4225	10.7035	7.1873	6.7956	8.5817	4.4931	13.4665	7.1313	-4.1703	0.142	0.3185	3.6797	0.0516	3.7098
6.9764	9.0379	9.4166	6.1243	10.8283	11.3146	8.6635	8.444	10.725	7.2432	6.7569	8.4784	4.4673	14.6586	7.282	-4.265	0.2023	0.3142	3.7184	0.1549	3.6797
7.0065	9.1369	9.4726	6.1673	10.8713	11.3146	8.6936	8.444	10.6862	7.3121	6.7182	8.4009	4.4587	15.9411	7.4369	-4.3812	0.2539	0.3228	3.783	0.2324	3.7141
7.0453	9.223	9.5242	6.2361	10.966	11.3275	8.7582	8.4655	10.6776	7.3035	6.6967	8.302	4.4114	17.2495	7.5875	-4.5276	0.3357	0.3185	3.8476	0.2797	3.7098
7.0582	9.3349	9.5543	6.305	11.0133	11.3361	8.8098	8.4569	10.6518	7.325	6.6665	8.2116	4.3726	18.5234	7.7425	-4.747	0.4218	0.2927	3.8992	0.3271	3.7271
7.1227	9.4166	9.6189	6.361	11.0348	11.3103	8.8313	8.4827	10.6217	7.3121	6.6192	8.0825	4.3296	19.7973	7.8716	-4.9924	0.5337	0.2367	3.9595	0.3615	3.7184
7.0883	9.4683	9.5931	6.3911	11.0435	11.2716	8.8442	8.4225	10.5399	7.2949	6.5546	7.9921	4.222	20.9937	8.0222	-5.3367	0.6542	0.1248	4.0154	0.34	3.7357
7.1313	9.5199	9.5931	6.4815	11.0564	11.2414	8.8614	8.4009	10.4797	7.2561	6.5245	7.863	4.1273	22.1687	8.1384	-5.6379	0.7618	0.0301	4.0584	0.3357	3.7357
7.1184	9.5543	9.5802	6.4987	11.0348	11.1726	8.8614	8.345	10.4108	7.2088	6.4642	7.7339	4.0369	23.2489	8.2374	-5.9736	0.8564	-0.0818	4.0929	0.3056	3.7184
7.0926	9.563	9.563	6.5202	10.9789	11.1252	8.8184	8.3235	10.3419	7.1442	6.4126	7.6177	3.9336	24.1785	8.3149	-6.2663	0.9382	-0.2023	4.0714	0.2754	3.6926
7.1098	9.5716	9.507	6.5503	10.9402	11.0305	8.8055	8.289	10.2386	7.0926	6.348	7.5273	3.8777	24.9962	8.4311	-6.5288	0.9813	-0.2797	4.0714	0.2453	3.6754
7.1615	9.5888	9.5414	6.5977	10.9445	11.0564	8.827	8.3063	10.2128	7.084	6.3567	7.4799	3.8131	25.7021	8.487	-6.6665	0.9813	-0.3701	4.08	0.2496	3.7098
7.1658	9.5845	9.5113	6.602	10.9143	11.0004	8.8227	8.2977	10.1698	7.0453	6.3136	7.4111	3.7615	26.2271	8.5602	-6.8258	0.9899	-0.3916	4.0886	0.2324	3.7271
7.1873	9.5974	9.4726	6.6364	10.9014	10.9918	8.8227	8.3106	10.1181	7.028	6.3567	7.3982	3.7572	26.6231	8.5774	-6.9291	1.0114	-0.3959	4.0972	0.241	3.8045
7.226	9.6361	9.5027	6.7096	10.9402	11.0004	8.8571	8.3751	10.1741	7.084	6.4126	7.424	3.7787	26.9071	8.642	-6.9893	0.9942	-0.3357	4.1316	0.3056	3.8433
7.2432	9.6792	9.5328	6.7569	10.9746	11.0262	8.9217	8.4526	10.2085	7.1313	6.4642	7.4283	3.839	27.0104	8.6376	-6.9721	0.9856	-0.2711	4.1574	0.3572	3.925
7.2906	9.7136	9.5543	6.8258	10.9918	11.0521	8.9992	8.5171	10.2645	7.1916	6.5288	7.4885	3.9035	26.9157	8.6032	-6.9334	1.0114	-0.2281	4.1833	0.3787	4.0197
7.3465	9.804	9.6146	6.942	11.0779	11.1166	9.0766	8.629	10.3333	7.3207	6.645	7.5918	4.0068	26.6403	8.5688	-6.8172	1.0114	-0.0947	4.2392	0.5035	4.166
7.4197	9.8943	9.6792	7.0453	11.1338	11.2027	9.2014	8.7625	10.4366	7.4369	6.7698	7.7037	4.1402	26.0851	8.5344	-6.6321	0.9985	-0.0086	4.3382	0.5767	4.3124
7.4154	9.989	9.7222	7.1873	11.2328	11.3103	9.3047	8.9088	10.5528	7.5445	6.8774	7.8328	4.2607	25.2588	8.4956	-6.4987	1.0114	0.1033	4.4157	0.68	4.4329
7.4412	10.0622	9.7695	7.2777	11.3103	11.3878	9.4166	9.0379	10.6819	7.6607	7.0323	7.9835	4.3769	24.1785	8.4483	-6.2835	1.0544	0.2238	4.4673	0.7402	4.6093
7.4885	10.1311	9.8255	7.3982	11.405	11.5169	9.5242	9.1756	10.7981	7.8027	7.1615	8.1298	4.5276	22.9132	8.4095	-6.0683	1.0759	0.3228	4.5189	0.7919	4.7901
7.523	10.2386	9.8771	7.5101	11.5599	11.6159	9.6275	9.3521	10.9488	7.9577	7.3723	8.3063	4.6567	21.5231	8.3966	-5.8402	1.0845	0.4347	4.6136	0.8952	5.0053
7.609	10.3075	9.9847	7.6392	11.6675	11.745	9.7523	9.5242	11.1295	8.1255	7.5316	8.4784	4.846	20.1545	8.3622	-5.6078	1.0975	0.538	4.7212	0.9899	5.1731
7.5918	10.3721	10.0493	7.7123	11.7364	11.844	9.8685	9.6447	11.2414	8.2546	7.6822	8.6936	5.0053	18.8246	8.3235	-5.4313	1.1405	0.637	4.7901	1.0544	5.3969
7.6908	10.4538	10.1655	7.8501	11.8827	11.9989	10.0149	9.8298	11.4394	8.4483	7.8931	8.9088	5.2506	17.6282	8.2977	-5.2119	1.1405	0.779	4.9192	1.1577	5.625
7.7554	10.4883	10.187	7.906	11.9472	12.1022	10.1181	9.9933	11.5986	8.629	8.1083	9.1197	5.427	16.5867	8.246	-5.044	1.1663	0.9382	4.9881	1.2438	5.8144
7.7941	10.5399	10.2688	7.9792	12.0505	12.2528	10.2473	10.144	11.788	8.8227	8.3106	9.3435	5.6724	15.812	8.2159	-4.9536	1.1964	1.1319	5.0741	1.3858	6.0124
7.8501	10.5571	10.3419	8.0523	12.0807	12.369	10.3721	10.2817	11.9386	9.0207	8.4956	9.5759	5.9091	15.274	8.1599	-4.8073	1.2696	1.3342	5.1473	1.5192	6.2405
7.906	10.57	10.4108	8.1298	12.1969	12.5024	10.5227	10.4667	12.1237	9.2316	8.7452	9.8255	6.206	15.0373	8.1341	-4.7514	1.317	1.558	5.2592	1.7086	6.4513
7.9749	10.5528	10.4624	8.1599	12.27	12.6057	10.6518	10.6432	12.2915	9.4381	8.9518	10.0622	6.5116	15.1492	8.0954	-4.6567	1.3901	1.8119	5.3582	1.8635	6.6794
7.9921	10.57	10.5227	8.1987	12.3174	12.7434	10.7379	10.8067	12.4637	9.6189	9.1627	10.3032	6.7741	15.5323	8.0609	-4.6308	1.4633	2.0873	5.44	2.0228	6.9075
8.0523	10.5399	10.5786	8.2288	12.412	12.8769	10.8971	10.9488	12.6358	9.8599	9.3908	10.5399	7.0539	16.2295	8.0437	-4.5749	1.5149	2.3499	5.5217	2.1777	7.1227
8.0437	10.4969	10.6217	8.2331	12.4293	12.9371	10.9488	11.0607	12.752	10.0062	9.5328	10.7207	7.2992	17.0472	7.9921	-4.5448	1.5924	2.5995	5.6035	2.3111	7.3078
8.0782	10.4538	10.6647	8.2417	12.4723	13.0146	11.0262	11.1597	12.8855	10.23	9.7308	10.9316	7.6047	18.0155	7.9017	-4.4802	1.6613	2.8792	5.6508	2.4747	7.4842
8.0609	10.3936	10.6432	8.2374	12.4809	13.0705	11.0865	11.2328	13.0189	10.3678	9.9159	11.0994	7.8974	18.9753	7.8587	-4.4759	1.7344	3.1805	5.6853	2.621	7.609
8.0696	10.3721	10.7121	8.2632	12.5498	13.1824	11.1597	11.3576	13.1523	10.5614	10.0579	11.3017	8.1642	19.9264	7.7683	-4.4114	1.8033	3.4473	5.7541	2.8017	7.764
8.0825	10.3419	10.7164	8.2718	12.5971	13.2513	11.2242	11.4394	13.2771	10.7637	10.2386	11.4652	8.4483	20.8173	7.7037	-4.3898	1.885	3.7529	5.8144	2.9739	7.8888
8.0652	10.3075	10.7594	8.246	12.6143	13.3072	11.2931	11.5298	13.4019	10.91	10.385	11.6374	8.7452	21.6694	7.665	-4.4157	1.9539	4.0154	5.8531	3.1374	8.005
8.0696	10.2516	10.7508	8.2288	12.6186	13.3804	11.3447	11.5771	13.4966	11.0736	10.4969	11.7579	9.0379	22.4872	7.6392	-4.4759	2.0185	4.3339	5.8875	3.3053	8.0782
8.0394	10.1956	10.7809	8.1944	12.6401	13.4363	11.3834	11.6331	13.5956	11.2199	10.6002	11.9214	9.3219	23.3092	7.6521	-4.506	2.04	4.6308	5.9306	3.4774	8.1642
7.9964	10.1397	10.7766	8.1556	12.6531	13.488	11.4093	11.6675	13.6774	11.349	10.7164	12.0505	9.55	24.1011	7.6004	-4.5706	2.0916	4.9106	5.9349	3.6195	8.2331
7.9749	10.0665	10.7508	8.1255	12.6358	13.5138	11.4437	11.7062	13.7763	11.5169	10.8024	12.1753	9.804	24.9446	7.6004	-4.6782	2.1131	5.1946	5.9435	3.7873	8.1987
7.906	10.0278	10.768	8.0825	12.6143	13.5612	11.4781	11.7105	13.8667	11.646	10.8842	12.2958	10.0966	25.814	7.609	-4.8159	2.1476	5.5088	5.9048	3.925	8.2073
7.8673	9.9847	10.7508	8.048	12.6401	13.6128	11.5212	11.7923	13.9055	11.8267	10.9875	12.4637	10.3936	26.6532	7.6607	-4.9795	2.1476	5.8316	5.8918	4.0843	8.2503
7.8156	9.9718	10.7637	8.048	12.7176	13.6946	11.5771	11.8612	14.0948	12.029	11.1467	12.6746	10.7293	27.5656	7.7253	-5.1559	2.1304	6.1716	5.9263	4.2736	8.2933
7.8156	9.9632	10.8541	8.0696	12.7693	13.8194	11.6847	11.9688	14.2713	12.2313	11.2974	12.9113	11.0693	28.4737	7.8027	-5.3194	2.0873	6.5116	5.922	4.4415	8.3321
7.7984	9.9933	10.9057	8.1341	12.8596	13.9786	11.8052	12.0807	14.4176	12.4594	11.4523	13.148	11.4179	29.356	7.8673	-5.4572	2.0443	6.8602	5.8875	4.6179	8.345
7.7597	10.0149	10.9531	8.1858	12.9844	14.1034	11.8913	12.2313	14.6027	12.6789	11.6245	13.3847	11.7665	30.1134	7.9663	-5.6207	1.984	7.2217	5.9048	4.8159	8.388
7.7597	10.1138	11.0564	8.2847	13.1179	14.2541	12.0462	12.3819	14.8265	12.9199	11.7923	13.6515	12.1194	30.8149	8.0394	-5.7713	1.9324	7.5574	5.8531	5.0182	8.4052
7.7339	10.187	11.1123	8.3794	13.247	14.3875	12.1495	12.5412	15.0718	13.191	11.9386	13.9442	12.4809	31.284	8.1169	-5.9263	1.8807	7.8673	5.823	5.2032	8.4569
7.7597	10.2989	11.2328	8.4483	13.3976	14.5682	12.3045	12.6746	15.2784	13.4363	12.128	14.2325	12.8209	31.5078	8.1987	-6.0253	1.8205	8.1858	5.767	5.3754	8.4827
7.7425	10.4194	11.3232	8.5602	13.587	14.7533	12.468	12.8424	15.4892	13.7118	12.3174	14.4908	13.1179	31.439	8.2331	-6.1199	1.7516	8.4784	5.7584	5.5562	8.4741
7.7339	10.5571	11.4093	8.6764	13.7333	14.9125	12.6057	13.0017	15.7001	13.8968	12.4637	14.7361	13.3804	31	8.2804	-6.1759	1.6742	8.6807	5.6939	5.6637	8.4268
7.7166	10.6475	11.4867	8.7409	13.871	15.0416	12.7176	13.1222	15.8766	14.0819	12.5369	14.9685	13.6085	30.1694	8.2589	-6.1974	1.5967	8.8098	5.6078	5.7369	8.3923
7.7554	10.7981	11.5986	8.9002	14.0389	15.2052	12.8725	13.2857	16.0875	14.2885	12.666	15.1708	13.7979	29.1623	8.2589	-6.1716	1.4848	8.9131	5.5605	5.7972	8.3235
7.7554	10.8928	11.6632	9.0121	14.1551	15.3171	12.9801	13.3589	16.2166	14.4047	12.7305	15.3343	13.9399	27.8625	8.1987	-6.1286	1.403	8.8959	5.4744	5.8058	8.1944
7.7984	10.9875	11.7321	9.0982	14.2627	15.4376	13.0834	13.4406	16.3285	14.5209	12.7779	15.5021	14.0303	26.4337	8.1513	-6.0812	1.3643	8.8184	5.3926	5.7412	8.0825
7.7855	11.0348	11.788	9.2445	14.366	15.571	13.2039	13.5224	16.4533	14.6414	12.7822	15.627	14.0518	24.8499	8.0954	-6.0339	1.3126	8.685	5.2807	5.6767	7.9232
7.7984	11.0822	11.8741	9.3865	14.4649	15.6528	13.3115	13.5396	16.5867	14.7103	12.7693	15.7216	14.0819	23.2833	7.9921	-5.9607	1.2954	8.4698	5.1946	5.5562	7.7554
7.8501	11.1295	11.9214	9.5156	14.5166	15.7518	13.4105	13.5655	16.6426	14.7963	12.7477	15.7948	14.0819	21.7469	7.9189	-5.9392	1.2997	8.2589	5.1129	5.4443	7.5832
7.9189	11.1683	12.029	9.6662	14.5898	15.8378	13.5181	13.5741	16.7588	14.8781	12.7004	15.8895	14.0776	20.331	7.8156	-5.823	1.3083	8.0308	5.0053	5.2979	7.4197
7.9749	11.2242	12.1108	9.8083	14.6586	15.9583	13.673	13.5784	16.8664	14.947	12.6531	15.9885	14.0948	19.0786	7.7123	-5.7972	1.3256	7.8027	4.9579	5.1731	7.2604
8.0136	11.2457	12.1667	10.0149	14.7318	16.0745	13.7548	13.5741	16.974	15.0287	12.6057	16.0487	14.0518	18.0026	7.6435	-5.7283	1.3686	7.5402	4.902	5.0655	7.0926
8.1427	11.3361	12.3001	10.1741	14.8178	16.2166	13.9184	13.5956	17.0816	15.1277	12.5885	16.1864	14.0733	17.1591	7.5402	-5.6422	1.3944	7.3508	4.8934	4.945	7.0022
8.2245	11.3791	12.4164	10.3032	14.8652	16.35	14.0432	13.5741	17.1763	15.2224	12.5541	16.2553	14.0518	16.5394	7.5015	-5.625	1.4418	7.1184	4.8589	4.8116	6.8817
8.2977	11.4781	12.5498	10.4624	14.947	16.4662	14.1723	13.5612	17.314	15.3128	12.5153	16.3715	14.0862	16.109	7.4498	-5.5777	1.4848	6.9549	4.8503	4.7341	6.8215
8.3622	11.5599	12.6358	10.5614	14.9943	16.5824	14.2842	13.5396	17.4216	15.4204	12.4938	16.4705	14.1163	15.8077	7.4541	-5.5734	1.5494	6.7999	4.9192	4.6308	6.7483
8.4569	11.6933	12.7736	10.6776	15.0546	16.7416	14.4047	13.5353	17.5335	15.5366	12.4508	16.5996	14.112	15.6442	7.467	-5.5131	1.6139	6.6493	4.945	4.5706	6.6923
8.5085	11.8353	12.9199	10.7121	15.1622	16.9138	14.5037	13.5181	17.6583	15.6356	12.4336	16.6986	14.1594	15.6356	7.5144	-5.4744	1.6785	6.5632	4.9795	4.5276	6.6493
8.5731	11.9386	13.0232	10.7379	15.2353	16.9912	14.5768	13.4622	17.71	15.6743	12.3991	16.789	14.1422	15.7001	7.6004	-5.4787	1.7559	6.4255	5.0354	4.4974	6.6235
8.6549	12.128	13.1523	10.7766	15.3386	17.1591	14.6672	13.4406	17.8434	15.7604	12.3604	16.9009	14.168	16.0143	7.7037	-5.4055	1.7861	6.3739	5.1	4.4587	6.5977
8.7582	12.2743	13.2685	10.7336	15.4204	17.271	14.7016	13.4105	17.8821	15.7948	12.3045	16.9697	14.1249	16.5178	7.8458	-5.3625	1.7861	6.2835	5.1731	4.4458	6.5891
8.8485	12.4551	13.4363	10.725	15.5065	17.3958	14.7361	13.3718	17.9553	15.8034	12.2786	17.0429	14.1249	17.2624	7.9706	-5.3022	1.7731	6.2189	5.2334	4.4329	6.5202
8.9088	12.6315	13.5482	10.6432	15.6011	17.4862	14.7447	13.3115	18.0026	15.7561	12.2313	17.0945	14.0604	18.2609	8.1255	-5.3151	1.7258	6.1286	5.3194	4.4157	6.4513
9.0078	12.7994	13.6601	10.5528	15.713	17.5636	14.7189	13.247	18.0328	15.7216	12.1753	17.1118	13.9872	19.4874	8.2718	-5.3194	1.6526	6.0425	5.4012	4.3812	6.3911
9.0766	12.9199	13.7376	10.4711	15.7991	17.6368	14.6758	13.1738	17.994	15.6614	12.0936	17.1333	13.8839	20.9378	8.4139	-5.3625	1.5494	5.9134	5.4572	4.3382	6.3265
9.1541	13.1136	13.8452	10.3419	15.8766	17.6798	14.6113	13.0791	17.994	15.5538	12.0204	17.1333	13.7505	22.5861	8.543	-5.4055	1.403	5.7929	5.5605	4.2822	6.2577
9.2617	13.2642	13.9442	10.2042	15.9799	17.7315	14.5768	13.006	17.951	15.4677	11.9903	17.1333	13.6085	24.4411	8.6893	-5.4787	1.2223	5.7025	5.6121	4.2564	6.1974
9.3004	13.4019	13.9958	10.0751	16.0401	17.7487	14.5037	12.8855	17.8864	15.2611	11.8827	17.0902	13.4191	26.4423	8.8055	-5.5605	1.0501	5.5088	5.625	4.1445	6.1113
9.3521	13.5353	14.0475	9.9288	16.1348	17.7659	14.4047	12.7779	17.7874	15.1019	11.788	17.0128	13.2427	28.5512	8.926	-5.6207	0.8521	5.3238	5.7068	4.0498	6.021
9.3564	13.673	14.0819	9.7868	16.1735	17.7358	14.3057	12.666	17.6798	14.9082	11.6976	16.9138	13.0146	30.7246	9.0078	-5.681	0.6197	5.143	5.7197	3.9509	5.9005
9.4123	13.7849	14.1249	9.6404	16.2338	17.7014	14.1981	12.5239	17.5636	14.693	11.5728	16.8234	12.7693	32.8291	9.0551	-5.6767	0.4089	4.9493	5.7111	3.826	5.7886
9.3607	13.8495	14.0905	9.4554	16.2381	17.6325	14.0518	12.3518	17.3958	14.452	11.3921	16.6426	12.4766	34.7012	9.0852	-5.6767	0.241	4.6954	5.6637	3.6453	5.6379
9.3435	13.9141	14.069	9.3263	16.2381	17.568	13.9356	12.1624	17.2064	14.2454	11.2328	16.4877	12.2012	36.3453	9.0508	-5.5992	0.0603	4.4931	5.5992	3.5119	5.483
9.2832	13.9657	13.9958	9.1584	16.1994	17.4647	13.8108	11.9688	16.974	13.9442	11.0133	16.251	11.8655	37.5116	9.0121	-5.5174	-0.0689	4.2134	5.5088	3.3741	5.2635
9.1928	13.9313	13.9055	8.9733	16.1047	17.3226	13.6257	11.7321	16.7158	13.6257	10.8024	16.01	11.5083	38.2045	8.926	-5.4529	-0.1549	3.9465	5.3453	3.1719	5.0311
9.0895	13.8968	13.8194	8.8055	16.01	17.1892	13.488	11.5126	16.4748	13.3287	10.5743	15.7604	11.164	38.3852	8.8399	-5.3668	-0.2281	3.6582	5.1946	2.9481	4.8116
8.9776	13.8452	13.7118	8.6247	15.8938	17.0558	13.3201	11.2543	16.208	13.0533	10.329	15.4892	10.7895	38.0926	8.7366	-5.2893	-0.2884	3.3698	5.0053	2.763	4.5749
8.8787	13.7505	13.63	8.4999	15.7819	16.9052	13.191	11.0435	15.9626	12.7693	10.1181	15.2525	10.484	37.4255	8.6376	-5.2291	-0.3572	3.103	4.8331	2.5995	4.3511
8.7625	13.6515	13.5138	8.4009	15.6183	16.7201	13.0318	10.8067	15.6958	12.4723	9.8814	14.9556	10.1397	36.4012	8.5516	-5.1688	-0.4175	2.8017	4.6438	2.3929	4.0886
8.6893	13.5827	13.4277	8.2933	15.5237	16.634	12.95	10.6561	15.4548	12.2313	9.7179	14.7318	9.8255	35.2005	8.4526	-5.0784	-0.5423	2.5435	4.4888	2.2337	3.9035
8.5989	13.4363	13.3417	8.2116	15.3989	16.4834	12.8338	10.4409	15.2224	12.0161	9.4855	14.4908	9.5199	33.8878	8.3407	-5.0397	-0.6456	2.2509	4.2736	2.0486	3.6711
8.5516	13.3761	13.2943	8.2073	15.3214	16.3973	12.7908	10.2731	15.0115	11.8138	9.3607	14.3014	9.2617	32.5149	8.2589	-4.945	-0.779	2.0185	4.1402	1.8807	3.5033
8.487	13.2599	13.2427	8.2202	15.2353	16.3285	12.7477	10.1698	14.8308	11.6761	9.2187	14.1292	9.0465	31.1463	8.1556	-4.8805	-0.8995	1.8033	3.9896	1.7602	3.3311
8.4397	13.2125	13.2169	8.246	15.1622	16.2682	12.7348	10.1311	14.706	11.5513	9.1197	13.9786	8.8744	29.782	8.0868	-4.8073	-0.9985	1.6139	3.9078	1.6483	3.202
8.444	13.1652	13.2169	8.3106	15.0976	16.2467	12.7822	10.0493	14.6027	11.4953	9.0852	13.8882	8.7926	28.4565	8.0179	-4.8159	-1.0415	1.4848	3.8303	1.5881	3.0987
8.4354	13.1781	13.2556	8.4182	15.1105	16.2596	12.8467	10.0579	14.551	11.491	9.0938	13.8753	8.7668	27.1137	7.9706	-4.7643	-1.0673	1.4116	3.7787	1.5838	3.1116
8.444	13.1781	13.29	8.5214	15.1148	16.2768	12.9457	10.0966	14.5209	11.5427	9.1412	13.8667	8.7495	25.9086	7.9275	-4.6954	-1.0372	1.3643	3.7701	1.558	3.1073
8.4569	13.2255	13.3675	8.6678	15.1578	16.35	13.0791	10.1784	14.5252	11.6159	9.2187	13.8624	8.784	24.6089	7.8888	-4.6179	-0.9339	1.3686	3.8002	1.5881	3.103
8.444	13.2513	13.389	8.7926	15.1966	16.393	13.1867	10.2257	14.5553	11.7277	9.2961	13.9184	8.8787	23.2188	7.8759	-4.5749	-0.8048	1.3944	3.8476	1.6225	3.1805
8.4569	13.2943	13.4406	8.9174	15.2138	16.4791	13.3244	10.3075	14.5854	11.831	9.3908	13.97	8.9389	21.7125	7.8716	-4.4802	-0.6456	1.4418	3.9078	1.6613	3.2752
8.4095	13.3632	13.4579	9.0379	15.274	16.5049	13.4449	10.3592	14.6242	11.9171	9.4984	14.0087	9.0293	20.0254	7.8974	-4.4716	-0.4132	1.459	3.9896	1.7301	3.3569
8.388	13.4449	13.5009	9.1971	15.3042	16.5652	13.5913	10.4624	14.6758	12.0764	9.6232	14.0991	9.1541	18.2479	7.9534	-4.4415	-0.2281	1.5063	4.0628	1.799	3.5291
8.3751	13.488	13.5138	9.2574	15.33	16.6168	13.7075	10.5184	14.7146	12.1883	9.7523	14.1594	9.2574	16.3113	8.0093	-4.3855	-0.0043	1.5838	4.166	1.8162	3.6539
8.2977	13.4966	13.4579	9.3392	15.3472	16.6469	13.8022	10.5959	14.7275	12.2743	9.7997	14.2067	9.3219	14.2971	8.1212	-4.4415	0.2195	1.5407	4.2349	1.842	3.8174
8.2847	13.5224	13.4449	9.4295	15.3472	16.6728	13.9399	10.6647	14.7533	12.3905	9.9417	14.2799	9.4209	12.3303	8.2718	-4.463	0.4046	1.601	4.3468	1.898	3.9724
8.2675	13.531	13.4536	9.5156	15.3601	16.6943	14.0087	10.7336	14.7834	12.5196	10.0493	14.3444	9.5242	10.4452	8.4095	-4.4673	0.5466	1.6096	4.4458	1.9324	4.1402
8.1599	13.5181	13.4105	9.5414	15.3558	16.7029	14.1206	10.7551	14.8135	12.6186	10.1181	14.3746	9.606	8.6721	8.5989	-4.5405	0.6585	1.6397	4.5276	1.9625	4.2908
8.1169	13.4493	13.3417	9.5759	15.3085	16.6771	14.1594	10.7422	14.8006	12.7133	10.1956	14.4176	9.6706	7.1184	8.7151	-4.5706	0.779	1.7043	4.6136	2.0056	4.4329
8.0911	13.4191	13.2943	9.5931	15.287	16.6943	14.267	10.7895	14.8265	12.8252	10.2386	14.5123	9.7566	5.8187	8.8744	-4.6308	0.8694	1.7301	4.6911	2.0744	4.5964
8.0739	13.3503	13.2384	9.6275	15.2568	16.6857	14.3401	10.7981	14.848	12.9801	10.3419	14.5725	9.8556	4.8546	8.9776	-4.6868	0.9511	1.8506	4.8116	2.1605	4.7514
8.0222	13.2642	13.1738	9.6318	15.2052	16.6513	14.4434	10.8067	14.8566	13.0662	10.3678	14.6285	9.9546	4.1833	9.0766	-4.8116	1.0716	1.9109	4.8676	2.2509	4.9063
7.9792	13.1824	13.0963	9.6361	15.2052	16.6599	14.4951	10.8197	14.8824	13.1695	10.4409	14.7016	10.0794	3.8303	9.1283	-4.9751	1.2309	2.0701	4.9536	2.3412	5.0354
7.8845	13.0834	12.9888	9.606	15.1363	16.5867	14.5424	10.8154	14.8738	13.2771	10.4797	14.7447	10.1741	3.7959	9.1584	-5.1559	1.4073	2.1992	5.0354	2.4402	5.1731
7.8673	13.0146	12.9328	9.5888	15.0718	16.5609	14.6027	10.824	14.8824	13.389	10.5356	14.8222	10.3075	4.0068	9.1197	-5.3754	1.6182	2.3714	5.1172	2.5736	5.3324
7.8027	12.907	12.8252	9.5802	15.0244	16.5221	14.6414	10.8412	14.9125	13.4923	10.5959	14.891	10.4237	4.4071	9.1111	-5.6121	1.8592	2.6038	5.1946	2.6855	5.4701
7.6607	12.7736	12.6961	9.5027	14.9556	16.4318	14.693	10.8197	14.9211	13.5827	10.6475	14.9384	10.5528	4.8589	9.0465	-5.9048	2.1347	2.7845	5.2678	2.8017	5.6035
7.5445	12.666	12.5713	9.4812	14.9168	16.4102	14.7189	10.824	14.947	13.6558	10.725	15.0244	10.6647	5.2592	8.9819	-6.1931	2.3757	3.0212	5.3711	2.9524	5.7584
7.4412	12.5971	12.468	9.3994	14.8824	16.3285	14.749	10.824	14.9341	13.7462	10.768	15.1019	10.7766	5.5777	8.9604	-6.5417	2.6296	3.2536	5.4443	3.0643	5.9435
7.2949	12.4293	12.3045	9.3693	14.8222	16.2553	14.7705	10.8369	14.9728	13.8323	10.867	15.1363	10.8928	5.7412	8.8614	-6.8258	2.8792	3.4688	5.5303	3.1504	6.0812
7.1916	12.3088	12.1538	9.2961	14.7963	16.1994	14.7791	10.8627	14.9728	13.9098	10.9445	15.2095	11.0176	5.823	8.7969	-7.1012	3.0858	3.6754	5.5777	3.2709	6.2534
7.0668	12.2012	12.0505	9.2574	14.7447	16.1262	14.7834	10.8971	14.9943	13.97	11.0133	15.2784	11.1252	5.823	8.7151	-7.3422	3.2795	3.8691	5.6681	3.3871	6.4341
6.942	12.0807	11.93	9.2144	14.706	16.0832	14.7877	10.91	15.0158	14.0432	11.1037	15.3257	11.2371	5.8144	8.6549	-7.5746	3.4516	4.0498	5.7197	3.443	6.5934
6.8903	11.9774	11.844	9.2014	14.7619	16.053	14.8265	10.9875	15.089	14.1206	11.2457	15.4548	11.405	5.866	8.6506	-7.7339	3.5377	4.2435	5.8144	3.5635	6.7741
6.8645	11.9171	11.831	9.1971	14.7834	16.0918	14.8824	11.0822	15.1535	14.2239	11.3705	15.5581	11.5212	6.0339	8.6161	-7.8328	3.5893	4.4243	5.8918	3.6883	6.9635
6.8602	11.887	11.8181	9.2273	14.8566	16.1004	14.9599	11.2027	15.231	14.3143	11.5212	15.6915	11.6933	6.3437	8.6376	-7.8759	3.5592	4.6352	5.9865	3.7787	7.1787
6.8301	11.8052	11.8009	9.223	14.8609	16.1047	14.9986	11.2629	15.2654	14.3918	11.6546	15.7905	11.7923	6.8301	8.6333	-7.8673	3.5205	4.747	6.0296	3.8433	7.3293
6.8946	11.8095	11.8483	9.2574	14.99	16.1821	15.1062	11.4007	15.4247	14.5424	11.8353	15.9626	11.9645	7.5746	8.685	-7.8415	3.4043	4.8848	6.1458	3.9509	7.5273
6.9764	11.7751	11.9085	9.3306	15.0675	16.2639	15.2009	11.5255	15.4849	14.65	11.9774	16.0961	12.1323	8.5042	8.7452	-7.7166	3.245	4.9924	6.1931	4.0283	7.6779
7.1012	11.844	12.0161	9.4252	15.2138	16.3629	15.3171	11.7148	15.6356	14.7963	12.1926	16.3026	12.3088	9.6749	8.7969	-7.5832	3.0342	5.1086	6.2921	4.1316	7.8716
7.2174	11.8827	12.128	9.5156	15.3214	16.492	15.4806	11.844	15.7819	14.9685	12.3776	16.449	12.4938	10.9961	8.8787	-7.4326	2.7845	5.186	6.3179	4.179	7.9921
7.3853	11.9645	12.3045	9.6447	15.4505	16.6383	15.6571	12.0204	15.9196	15.1665	12.5541	16.6556	12.6789	12.4293	8.969	-7.1916	2.5048	5.2549	6.3394	4.2392	8.1212
7.5273	12.0548	12.4551	9.7911	15.5925	16.8105	15.8206	12.2227	16.1219	15.3601	12.7348	16.8406	12.8984	13.8022	9.0465	-6.9463	2.2035	5.3582	6.3179	4.2908	8.2159
7.6951	12.2141	12.666	9.946	15.7561	16.9783	16.0143	12.4164	16.3242	15.6054	12.9199	17.0343	13.1179	15.1148	9.1412	-6.6708	1.885	5.4141	6.3308	4.3511	8.3063
7.8931	12.3862	12.8855	10.1569	15.9497	17.1935	16.251	12.61	16.5609	15.8335	13.1093	17.2624	13.3546	16.2037	9.266	-6.3954	1.5838	5.4744	6.3093	4.4114	8.4052
8.1083	12.5799	13.1437	10.3936	16.1606	17.4474	16.5049	12.8596	16.7976	16.1004	13.3546	17.4862	13.6343	17.0859	9.4252	-6.0812	1.2524	5.6164	6.2792	4.5103	8.5128
8.3536	12.8769	13.4449	10.6518	16.4188	17.7315	16.8535	13.1179	17.0816	16.4145	13.6257	17.7874	13.9313	17.6669	9.6232	-5.7886	0.9511	5.78	6.2964	4.6179	8.642
8.5903	13.0963	13.7161	10.9402	16.6771	18.0242	17.1161	13.4148	17.3829	16.7804	13.8882	18.0844	14.2541	18.0069	9.8384	-5.526	0.6929	5.9091	6.3093	4.76	8.7582
8.8399	13.3761	14.0561	11.2371	16.9138	18.3469	17.469	13.7075	17.6842	17.0902	14.1723	18.3469	14.5639	18.1145	10.0665	-5.3281	0.4734	6.0769	6.3093	4.8934	8.8744
9.1326	13.6644	14.3918	11.5556	17.2107	18.6654	17.8348	14.0303	18.0543	17.4819	14.4822	18.6697	14.9427	18.1145	10.3376	-5.1301	0.284	6.262	6.3739	5.0612	8.9949
9.4338	13.9829	14.7189	11.9257	17.512	19.014	18.2049	14.4133	18.4416	17.8778	14.8135	19.0527	15.3085	17.9553	10.6045	-4.9708	0.1463	6.4384	6.4083	5.2205	9.2057
9.7566	14.2799	15.132	12.3001	17.8262	19.4057	18.6009	14.7748	18.8031	18.2652	15.1837	19.3927	15.6872	17.7143	10.8885	-4.8589	0.0516	6.6364	6.4686	5.4184	9.4037
10.045	14.5295	15.4677	12.6488	18.1016	19.7414	18.9882	15.1105	19.2034	18.6697	15.5409	19.75	16.0789	17.3183	11.1941	-4.8374	0.0129	6.8042	6.5417	5.6078	9.5888
10.3548	14.8006	15.7991	13.049	18.4201	20.0986	19.3454	15.4548	19.5563	19.0226	15.8809	20.0598	16.4188	16.8234	11.4781	-4.8503	0.0344	6.9506	6.645	5.7713	9.748
10.626	15.0459	16.1004	13.4234	18.7041	20.4429	19.7026	15.8292	19.9049	19.3927	16.2166	20.3912	16.7718	16.1994	11.7407	-4.8934	0.0818	7.0711	6.7311	5.9392	9.9632
10.9143	15.2827	16.4275	13.7806	18.9925	20.7398	20.0598	16.1821	20.2621	19.7414	16.5781	20.7355	17.0902	15.4419	12.0505	-5.0139	0.1506	7.2002	6.8559	6.0898	10.187
11.151	15.4978	16.6469	14.0948	19.2421	21.0067	20.3439	16.4877	20.5634	20.09	16.8621	20.9981	17.3528	14.5898	12.3303	-5.0913	0.2195	7.282	6.9549	6.2491	10.3678
11.3533	15.67	16.8923	14.3875	19.4874	21.2348	20.6107	16.7804	20.8302	20.3568	17.1634	21.2735	17.6067	13.4751	12.6014	-5.2463	0.3357	7.3379	7.0582	6.4083	10.5485
11.5599	15.812	17.0859	14.6543	19.6897	21.4198	20.8345	17.0429	21.0626	20.5849	17.4733	21.5102	17.8348	12.1883	12.8639	-5.3797	0.439	7.4025	7.1873	6.5073	10.7293
11.646	15.9411	17.2064	14.8049	19.8489	21.5834	21.0368	17.2839	21.2477	20.7829	17.6885	21.6694	17.9811	10.5356	13.1179	-5.5346	0.6025	7.4111	7.2949	6.602	10.8756
11.7407	16.0616	17.2753	14.9728	19.9996	21.6996	21.1788	17.5034	21.4069	20.9722	17.9166	21.8502	18.1404	8.5774	13.3589	-5.681	0.7402	7.4584	7.4283	6.7311	11.0391
11.7407	16.109	17.2882	15.0244	20.1115	21.734	21.2218	17.6239	21.4801	21.0626	18.0758	21.9363	18.2006	6.2534	13.5353	-5.8574	0.9296	7.4412	7.5273	6.7354	11.1467
11.7019	16.1176	17.2495	15.0244	20.1631	21.7254	21.2348	17.7315	21.5016	21.1013	18.1748	21.9836	18.2436	3.6324	13.7032	-5.9478	1.1018	7.4154	7.6435	6.744	11.25
11.6374	16.1047	17.1419	14.947	20.1545	21.635	21.2046	17.809	21.5102	21.1013	18.2695	21.9793	18.2092	0.7489	13.8065	-6.0683	1.2911	7.3809	7.7296	6.7526	11.3447
11.504	16.0229	17.0085	14.8222	20.1115	21.5274	21.1229	17.7917	21.4155	21.0196	18.2695	21.932	18.0973	-2.2466	13.8925	-6.1501	1.4547	7.2863	7.8113	6.701	11.3447
11.3404	15.8938	16.7718	14.6242	20.0297	21.3294	20.955	17.7444	21.2477	20.8818	18.2221	21.7985	17.9725	-5.2549	13.9657	-6.2491	1.6354	7.1572	7.8371	6.6278	11.3103
11.1941	15.7776	16.5738	14.3746	19.9092	21.1401	20.7441	17.6411	21.0798	20.6796	18.1447	21.6307	17.7573	-8.147	14.013	-6.348	1.7775	6.9936	7.8501	6.5073	11.2672
10.9488	15.5796	16.2639	14.0733	19.7241	20.8302	20.4601	17.4819	20.8001	20.3869	17.9424	21.3811	17.4388	-10.8067	14.013	-6.4556	1.9496	6.7182	7.8113	6.3524	11.1467
10.7379	15.3515	15.954	13.7376	19.5434	20.5462	20.1459	17.3011	20.5203	20.077	17.7659	21.1143	17.1118	-13.1351	14.0217	-6.5202	2.0572	6.4772	7.7855	6.1587	11.0262
10.4969	15.0976	15.6614	13.3847	19.2852	20.2492	19.8317	17.0472	20.1975	19.7327	17.5378	20.813	16.7459	-15.0718	13.9958	-6.5632	2.1433	6.1372	7.7382	5.9306	10.8584
10.3075	14.8437	15.3429	13.0318	19.07	19.9135	19.4788	16.7804	19.8446	19.3497	17.2538	20.473	16.3586	-16.5781	13.9915	-6.5805	2.2035	5.8187	7.6435	5.7068	10.6432
10.0622	14.5725	15.033	12.6875	18.8031	19.5692	19.113	16.5006	19.5003	18.9452	16.9181	20.1072	15.8852	-17.5852	13.9915	-6.5891	2.2035	5.427	7.5574	5.4916	10.4151
9.9116	14.3358	14.7361	12.3303	18.5234	19.2464	18.7601	16.1864	19.1345	18.5621	16.5953	19.737	15.4118	-18.149	14.0346	-6.5503	2.1648	5.0225	7.4972	5.242	10.1698
9.748	14.0948	14.4908	11.986	18.2523	18.9452	18.4244	15.868	18.7601	18.1533	16.2467	19.3325	14.9297	-18.2436	14.0475	-6.5245	2.0873	4.6395	7.3982	5.0053	9.8987
9.5716	13.8323	14.1938	11.6718	17.9725	18.5966	18.093	15.5065	18.3555	17.71	15.8335	18.9322	14.4348	-18.0069	14.0819	-6.4729	1.9969	4.2263	7.282	4.7944	9.5931
9.4295	13.6386	14.013	11.4093	17.7186	18.334	17.8004	15.1622	18.0285	17.3485	15.4548	18.5277	13.9829	-17.4647	14.1551	-6.3653	1.8635	3.8906	7.1744	4.6308	9.3263
9.309	13.4191	13.8108	11.2027	17.4647	18.0672	17.5292	14.8135	17.6497	17.0343	15.0589	18.1317	13.5009	-16.733	14.2196	-6.2921	1.7215	3.5334	7.0711	4.4544	8.9949
9.21	13.2427	13.6558	10.9875	17.2323	17.8262	17.2968	14.4391	17.3269	16.6383	14.65	17.7444	13.1136	-15.9067	14.3229	-6.1931	1.5709	3.2235	6.9678	4.3253	8.6807
9.1326	13.0404	13.5138	10.8541	16.9654	17.6067	17.1204	14.0819	17.03	16.35	14.2024	17.3614	12.7004	-15.0632	14.4348	-6.0898	1.3858	2.9524	6.8215	4.2091	8.345
9.0982	12.8941	13.4493	10.7766	16.7459	17.4173	16.974	13.7204	16.7373	16.0616	13.7849	17.0042	12.3303	-14.3057	14.5725	-5.9048	1.1921	2.7329	6.6967	4.1402	8.0222
9.0852	12.7477	13.4062	10.7508	16.5092	17.2624	16.8191	13.3632	16.4361	15.812	13.346	16.6728	11.9946	-13.5612	14.749	-5.7412	0.9985	2.5177	6.5589	4.0714	7.6779
9.124	12.5842	13.3632	10.7594	16.2811	17.1247	16.7545	12.9888	16.208	15.5796	12.9285	16.3414	11.6546	-12.8812	14.9254	-5.5519	0.8134	2.3542	6.4255	4.0498	7.3336
9.1928	12.4809	13.4105	10.8455	16.0616	17.0472	16.7244	12.6358	16.0014	15.3515	12.4895	16.0143	11.3748	-12.2184	15.1148	-5.3367	0.6025	2.225	6.3093	4.0714	7.0108
9.2961	12.3518	13.4751	10.9832	15.8637	16.9525	16.7072	12.3174	15.769	15.1622	12.0548	15.7216	11.0564	-11.4996	15.2913	-5.0655	0.4002	2.1045	6.1888	4.0498	6.6751
9.4425	12.2657	13.5655	11.164	15.6743	16.9095	16.7115	11.9645	15.6011	14.9986	11.6072	15.4462	10.7938	-10.8197	15.4075	-4.7686	0.2238	1.984	6.0683	4.0671	6.305
9.5759	12.128	13.6644	11.3748	15.4763	16.8837	16.7416	11.6331	15.4462	14.8178	11.164	15.1578	10.4883	-10.0966	15.5323	-4.4845	0.0387	1.8162	5.922	4.0541	5.9392
9.7609	12.0376	13.7979	11.5771	15.2999	16.8621	16.7631	11.2845	15.2525	14.6672	10.7207	14.8437	10.2343	-9.3865	15.5882	-4.179	-0.1205	1.6785	5.7886	4.0498	5.582
9.9761	11.9774	13.9528	11.844	15.1578	16.8923	16.8277	10.9832	15.1578	14.5037	10.3075	14.5898	9.9718	-8.6204	15.6313	-3.8347	-0.2625	1.5407	5.6896	4.0412	5.2205
10.1956	11.9085	14.112	12.1065	15.0029	16.8794	16.875	10.6733	15.0072	14.3918	9.8814	14.3358	9.6964	-7.8501	15.6227	-3.5205	-0.3486	1.3514	5.6035	4.0498	4.8503
10.4108	11.8741	14.2799	12.3561	14.8867	16.9224	16.9396	10.4022	14.9211	14.2928	9.5113	14.1206	9.4941	-7.041	15.6097	-3.2795	-0.4002	1.2223	5.4744	4.0111	4.4931
10.6002	11.844	14.4176	12.5842	14.7576	16.9869	16.9826	10.1526	14.8394	14.2196	9.1283	13.8839	9.2617	-6.1974	15.5021	-3.0471	-0.3916	1.0932	5.3926	3.981	4.1617
10.8067	11.8396	14.5811	12.8252	14.6543	17.0472	17.0644	9.9546	14.7877	14.0948	8.8356	13.6946	9.0551	-5.341	15.4376	-2.9007	-0.3701	0.9942	5.285	3.9552	3.882
10.9531	11.8396	14.7361	13.0447	14.5811	17.0773	17.1031	9.7566	14.7318	14.069	8.487	13.5009	8.9002	-4.4888	15.3558	-2.763	-0.3056	0.8651	5.2032	3.9207	3.5979
11.0693	11.8698	14.8738	13.2341	14.5381	17.1505	17.2021	9.6318	14.6801	13.9958	8.2116	13.346	8.7668	-3.7486	15.2784	-2.6899	-0.2023	0.7747	5.1602	3.925	3.3569
11.1597	11.9042	14.9556	13.3976	14.5037	17.1935	17.2667	9.4941	14.65	13.9786	7.9878	13.1824	8.629	-3.1547	15.2009	-2.7286	-0.0646	0.7575	5.0784	3.9078	3.103
11.2845	11.9645	15.0589	13.5353	14.4649	17.228	17.3183	9.4295	14.6328	14.0001	7.8199	13.0447	8.5688	-2.7458	15.1363	-2.8061	0.1119	0.7962	5.0784	3.9121	2.9567
11.2931	12.0204	15.0976	13.6429	14.4305	17.2753	17.3786	9.3994	14.6156	13.9872	7.6908	12.9285	8.5085	-2.6124	15.1191	-2.9739	0.34	0.8392	5.0741	3.9164	2.8319
11.2931	12.1022	15.1751	13.7118	14.4606	17.3356	17.4474	9.3521	14.6242	14.0087	7.5832	12.8338	8.4956	-2.6942	15.1105	-3.202	0.581	0.9554	5.0741	3.9896	2.7759
11.2716	12.1452	15.1665	13.772	14.4563	17.3269	17.4518	9.3951	14.6113	14.0001	7.4756	12.6961	8.4612	-3.004	15.1105	-3.4731	0.8478	1.0243	5.0483	4.0326	2.6899
11.1553	12.171	15.0976	13.7333	14.4477	17.3226	17.4819	9.4554	14.5381	14.0044	7.4584	12.6229	8.4268	-3.3871	15.1665	-3.8605	1.1061	1.1706	5.1086	4.0757	2.7114
11.0693	12.2227	15.0718	13.673	14.4391	17.2667	17.4216	9.4984	14.4994	14.0044	7.4326	12.5153	8.4268	-3.8992	15.2396	-4.2263	1.2997	1.3342	5.0698	4.1101	2.7071
10.9746	12.2528	15.0115	13.6128	14.4779	17.2409	17.4216	9.5414	14.508	14.0432	7.4627	12.4336	8.4913	-4.4329	15.3257	-4.5792	1.4159	1.5364	5.1172	4.2091	2.7845
10.8842	12.227	14.891	13.4751	14.4606	17.1548	17.3442	9.6447	14.4219	14.0087	7.4928	12.3174	8.4698	-5.0311	15.4333	-4.9708	1.5192	1.7172	5.1731	4.2564	2.8491
10.7465	12.2356	14.7834	13.3115	14.4219	17.0687	17.271	9.7179	14.3573	13.9958	7.5574	12.2184	8.4655	-5.5605	15.5409	-5.3065	1.5752	1.9109	5.1903	4.3382	2.9352
10.5528	12.1753	14.5984	13.0748	14.3573	16.9181	17.1505	9.7437	14.2541	13.9528	7.5789	12.0936	8.4698	-6.0726	15.6054	-5.6637	1.6096	2.0744	5.186	4.3941	2.9997
10.3505	12.0807	14.4219	12.8123	14.267	16.7804	17.0042	9.804	14.112	13.8796	7.6177	11.9472	8.4268	-6.4729	15.6786	-5.9822	1.5924	2.2552	5.1731	4.4286	3.0858
10.1311	11.9731	14.1809	12.5153	14.1981	16.5953	16.8277	9.8298	13.9485	13.7979	7.6607	11.7708	8.3923	-6.7397	15.6915	-6.2964	1.5752	2.4144	5.1387	4.4415	3.1504
9.9116	11.8483	13.9227	12.1969	14.0518	16.3844	16.6211	9.8298	13.7634	13.6903	7.6521	11.6029	8.3493	-6.8473	15.6915	-6.5374	1.5063	2.5693	5.1	4.4845	3.202
9.7136	11.7105	13.6774	11.8655	13.9485	16.1907	16.4576	9.7997	13.5655	13.5956	7.6779	11.3791	8.3149	-6.7999	15.6097	-6.6622	1.4116	2.72	5.0397	4.4888	3.2493
9.4511	11.4867	13.3761	11.5083	13.7548	15.9196	16.2295	9.7179	13.3029	13.4536	7.6177	11.164	8.2288	-6.6794	15.5409	-6.8042	1.3126	2.8491	4.9493	4.4888	3.2795
9.1842	11.306	13.1093	11.1295	13.5999	15.6743	16.01	9.6361	13.0662	13.3115	7.5918	10.8885	8.1599	-6.4944	15.4634	-6.8473	1.1706	2.9911	4.8546	4.4716	3.301
8.9131	11.1037	12.7951	10.7594	13.4019	15.373	15.769	9.507	12.7908	13.1566	7.523	10.6174	8.0523	-6.3567	15.3472	-6.8344	1.0243	3.1374	4.7255	4.4759	3.3053
8.6549	10.8326	12.4551	10.4065	13.1437	15.0976	15.5194	9.365	12.5239	12.9758	7.4541	10.3118	7.9232	-6.2706	15.231	-6.8344	0.8521	3.2192	4.5835	4.4329	3.301
8.3794	10.5829	12.1237	10.0493	12.907	14.8135	15.2654	9.2014	12.2012	12.7908	7.3121	10.0105	7.8113	-6.3093	15.089	-6.7397	0.6757	3.3397	4.4027	4.3855	3.2666
8.0997	10.2774	11.8224	9.7179	12.61	14.5037	15.0416	8.9863	11.8999	12.5971	7.2002	9.7136	7.7209	-6.3997	14.9341	-6.6364	0.482	3.443	4.2564	4.3296	3.2364
7.8415	9.9804	11.5083	9.3736	12.326	14.1981	14.7705	8.7237	11.5384	12.3948	7.0108	9.3607	7.5574	-6.5977	14.7877	-6.5848	0.3142	3.5119	4.0843	4.2564	3.1891
7.6134	9.6662	11.1769	9.0508	12.0333	13.9313	14.5682	8.4913	11.2242	12.1753	6.8645	9.0422	7.4541	-6.8817	14.6758	-6.4901	0.1076	3.6109	3.9035	4.1876	3.1159
7.4068	9.3908	10.9057	8.8012	11.7407	13.6644	14.3186	8.2116	10.9186	12.0118	6.688	8.7151	7.3207	-7.2045	14.5338	-6.4126	-0.0947	3.6926	3.7098	4.1144	3.0385
7.2389	9.0809	10.6647	8.5602	11.4781	13.4019	14.1077	7.9534	10.5786	11.8095	6.5675	8.4182	7.2131	-7.5574	14.3961	-6.2749	-0.3357	3.8088	3.5549	4.0929	2.9868
7.0883	8.7969	10.4495	8.3751	11.2113	13.2125	13.9571	7.7166	10.3462	11.6761	6.404	8.1814	7.127	-7.9878	14.2627	-6.1027	-0.5552	3.9336	3.3785	4.123	2.9481
6.9764	8.5559	10.2559	8.2202	10.9832	12.9758	13.7936	7.4799	10.0966	11.5427	6.2792	7.9103	7.0496	-8.4095	14.1249	-5.9306	-0.7747	4.0584	3.2407	4.0757	2.8577
6.8946	8.388	10.1483	8.1169	10.7938	12.851	13.6903	7.2604	9.8857	11.4652	6.1544	7.7123	7.0323	-8.8313	14.013	-5.7326	-1.0028	4.222	3.1245	4.0843	2.8405
6.8903	8.2331	10.0493	8.0782	10.6303	12.7305	13.6128	7.0582	9.7179	11.4093	6.0855	7.5832	7.0151	-9.1627	13.8581	-5.4529	-1.1964	4.3855	3.0643	4.1402	2.8491
6.8774	8.1126	10.0321	8.0868	10.5012	12.6746	13.5913	6.9118	9.5716	11.3748	5.9994	7.4498	7.0323	-9.4554	13.7419	-5.2162	-1.3815	4.506	2.9911	4.179	2.8405
6.9463	8.0394	10.0235	8.1341	10.4237	12.6014	13.5956	6.7354	9.4683	11.3748	5.9736	7.3896	7.0797	-9.7136	13.6042	-4.9536	-1.5192	4.6739	2.9696	4.2134	2.862
6.985	7.9921	10.0493	8.2116	10.329	12.5756	13.6128	6.5934	9.3865	11.3705	5.9349	7.2906	7.1098	-9.9245	13.4449	-4.704	-1.601	4.8073	2.9179	4.2564	2.8448
7.0625	7.9964	10.1052	8.3063	10.2903	12.5928	13.6817	6.5073	9.3176	11.3964	5.9306	7.226	7.1572	-10.144	13.3374	-4.4501	-1.6569	4.9235	2.9007	4.2908	2.8577
7.1615	8.0394	10.2171	8.4913	10.2688	12.6272	13.729	6.4083	9.3133	11.4652	5.9306	7.2131	7.2174	-10.4065	13.1953	-4.2177	-1.6656	5.001	2.8749	4.3124	2.9007
7.2518	8.147	10.3032	8.6376	10.2946	12.6703	13.8151	6.3265	9.2961	11.4824	5.9822	7.2389	7.2475	-10.7809	13.1093	-4.0111	-1.6225	5.0741	2.8921	4.3511	2.9309
7.3551	8.2202	10.4323	8.8227	10.2989	12.7004	13.8538	6.2792	9.3004	11.4867	5.9564	7.2346	7.2863	-11.2586	13.0318	-3.8691	-1.5321	5.1215	2.8835	4.3511	2.9179
7.4842	8.3364	10.5786	8.9992	10.3419	12.7779	13.9614	6.206	9.3263	11.547	5.9693	7.2691	7.3551	-11.745	12.9629	-3.6926	-1.4633	5.1258	2.8921	4.3382	2.9136
7.5703	8.4268	10.6992	9.1756	10.3721	12.8553	14.0303	6.1501	9.3607	11.5728	5.9392	7.3379	7.3766	-12.3733	12.9371	-3.6324	-1.3729	5.1043	2.8835	4.2952	2.9136
7.6779	8.5344	10.811	9.3435	10.4323	12.9113	14.112	6.0898	9.408	11.59	5.9779	7.3723	7.3939	-12.9888	12.9199	-3.6066	-1.2997	5.087	2.8147	4.2478	2.8792
7.8328	8.6807	11.009	9.5156	10.4926	13.0103	14.1766	6.064	9.4597	11.6288	5.9822	7.4541	7.4326	-13.5827	12.95	-3.5334	-1.2567	5.0311	2.8233	4.1962	2.8276
7.9706	8.8141	11.1812	9.7308	10.5916	13.1265	14.3057	6.0468	9.5457	11.6675	6.0167	7.5531	7.4756	-14.0733	13.0103	-3.5076	-1.2524	4.9751	2.8147	4.166	2.763
8.1169	8.9475	11.349	9.8728	10.6561	13.2341	14.3789	6.0124	9.6576	11.7105	6.021	7.665	7.5058	-14.5209	13.1136	-3.5162	-1.2438	4.8891	2.7587	4.1359	2.6855
8.2288	9.0594	11.504	10.0235	10.6862	13.3244	14.4822	5.9779	9.7222	11.7148	5.9865	7.7468	7.4972	-14.8523	13.2642	-3.5678	-1.2481	4.7686	2.7114	4.0714	2.5736
8.3579	9.1283	11.6288	10.1784	10.7422	13.3976	14.5338	5.9349	9.7566	11.7277	5.9908	7.8415	7.4972	-15.0546	13.4062	-3.6625	-1.2223	4.6265	2.6081	3.9681	2.4101
8.4741	9.2273	11.8009	10.2688	10.7981	13.4966	14.6242	5.9177	9.847	11.7407	5.965	7.9706	7.4885	-15.0503	13.6214	-3.74	-1.2309	4.5189	2.5306	3.9465	2.2853
8.5516	9.2445	11.9085	10.3548	10.824	13.5439	14.6371	5.8875	9.9073	11.7148	5.9521	8.0652	7.4498	-14.8953	13.8323	-3.8949	-1.1749	4.3425	2.4618	3.8433	2.1562
8.6506	9.3133	11.986	10.4151	10.8326	13.5956	14.6715	5.8445	9.9675	11.6804	5.9306	8.1513	7.4197	-14.5596	14.0819	-4.0498	-1.1233	4.0972	2.4187	3.7873	1.9926
8.6936	9.2789	12.0677	10.4452	10.8498	13.5956	14.6672	5.7843	9.9976	11.6503	5.8832	8.2374	7.3164	-14.1206	14.2713	-4.1531	-1.0329	3.8562	2.3154	3.6969	1.8205
8.7711	9.3306	12.1366	10.5055	10.8713	13.6472	14.693	5.767	10.0536	11.6288	5.8316	8.302	7.2604	-13.5612	14.5123	-4.3124	-0.9726	3.5979	2.2853	3.6152	1.6699
8.7797	9.3047	12.171	10.5055	10.8498	13.6257	14.6586	5.6982	10.0751	11.547	5.7713	8.345	7.1184	-13.0791	14.6672	-4.463	-0.8478	3.3096	2.2207	3.5334	1.5106
8.8012	9.3004	12.2141	10.5313	10.8154	13.6085	14.6199	5.6379	10.0622	11.4738	5.6939	8.3794	6.985	-12.7822	14.7963	-4.5878	-0.7359	2.9997	2.225	3.4344	1.3299
8.7797	9.2445	12.1883	10.5098	10.7723	13.5655	14.5898	5.5519	9.9976	11.3834	5.5777	8.345	6.8344	-12.7563	14.8953	-4.7384	-0.5853	2.6382	2.1734	3.3397	1.1534
8.8055	9.2014	12.2184	10.4969	10.7121	13.5224	14.5209	5.4916	9.9847	11.2629	5.4916	8.3665	6.6579	-12.9758	14.947	-4.8073	-0.4691	2.2896	2.1691	3.2278	0.977
8.7754	9.0852	12.1108	10.4409	10.6303	13.4148	14.4047	5.3582	9.9245	11.1166	5.3539	8.302	6.4212	-13.4751	14.9857	-4.9364	-0.3658	1.9066	2.1347	3.1116	0.7876
8.784	8.9088	12.0548	10.3936	10.5141	13.3115	14.2713	5.1946	9.8083	10.9402	5.1946	8.2374	6.1673	-14.2627	14.9642	-5.0268	-0.2754	1.5106	2.083	2.9653	0.6154
8.7237	8.8098	11.986	10.3419	10.4194	13.1867	14.1508	5.0741	9.7136	10.7637	5.0182	8.1513	5.9349	-15.2224	14.9168	-5.1344	-0.2324	1.1147	2.0787	2.8577	0.4132
8.7366	8.6721	11.8612	10.3204	10.329	13.0834	14.0303	4.9708	9.5974	10.5959	4.902	8.0782	5.7154	-16.2682	14.8738	-5.1817	-0.2281	0.7273	2.1088	2.7286	0.2754
8.7711	8.5473	11.8267	10.2903	10.243	12.9844	13.9098	4.8589	9.4941	10.4194	4.7384	8.0179	5.4787	-17.3183	14.7619	-5.1086	-0.2582	0.3787	2.1777	2.6554	0.142
8.7625	8.3708	11.7148	10.2473	10.0923	12.851	13.8022	4.7384	9.3908	10.2688	4.6524	7.9361	5.285	-18.4158	14.6242	-5.0225	-0.2711	0.0646	2.2121	2.5693	0.0387
8.7711	8.246	11.6417	10.187	10.0364	12.7434	13.673	4.6653	9.2832	10.1095	4.5146	7.8845	5.0957	-19.4831	14.5037	-4.9106	-0.284	-0.2884	2.3025	2.4962	-0.043
8.8098	8.1427	11.5857	10.1526	9.9933	12.6531	13.587	4.5706	9.2144	9.9503	4.4802	7.8587	4.9149	-20.3912	14.3918	-4.7427	-0.34	-0.5681	2.3929	2.4488	-0.0603
8.8399	7.9749	11.5255	10.1354	9.9503	12.5713	13.4923	4.5103	9.1455	9.8169	4.3984	7.8285	4.7514	-21.2649	14.2541	-4.5534	-0.3615	-0.8521	2.5478	2.4316	-0.1033
8.8959	7.9103	11.4652	10.1095	9.9116	12.4809	13.4234	4.4845	9.0551	9.6878	4.3511	7.8242	4.5921	-22.0137	14.0862	-4.3382	-0.383	-1.1147	2.6812	2.4058	-0.0947
8.926	7.8759	11.4265	10.088	9.8814	12.412	13.3503	4.4544	8.9733	9.5759	4.2952	7.7898	4.4372	-22.6636	13.9786	-4.123	-0.4304	-1.3256	2.8405	2.3972	-0.0646
8.9346	7.7984	11.3834	10.0708	9.8771	12.3131	13.2599	4.4071	8.8744	9.4683	4.2134	7.7726	4.2779	-23.3221	13.8452	-3.9422	-0.4175	-1.5838	2.9782	2.3929	-0.0689
8.9303	7.7339	11.3146	10.0321	9.8341	12.2313	13.2082	4.3339	8.7754	9.3263	4.1574	7.7166	4.1359	-23.8859	13.7333	-3.7787	-0.4304	-1.7688	3.1245	2.3671	-0.0732
8.9389	7.6822	11.2629	10.0105	9.8298	12.1452	13.1308	4.2995	8.6376	9.2057	4.1187	7.6865	3.9939	-24.5271	13.6817	-3.6797	-0.4132	-1.9797	3.2795	2.3542	-0.0603
8.9432	7.6435	11.2113	10.0321	9.7738	12.0419	13.0619	4.2478	8.5171	9.0594	4.0197	7.609	3.8562	-25.1426	13.6472	-3.5592	-0.4046	-2.1433	3.4	2.3499	-0.043
8.9346	7.6047	11.1252	9.9761	9.7179	11.9257	12.9888	4.1833	8.3708	8.969	3.9207	7.5359	3.6625	-25.8269	13.6429	-3.6066	-0.34	-2.3326	3.5162	2.3197	-0.0689
8.9045	7.5703	11.0693	9.9718	9.6576	11.8267	12.8855	4.0714	8.2503	8.8141	3.8217	7.4154	3.5205	-26.4208	13.6989	-3.6066	-0.297	-2.5005	3.6022	2.2853	-0.0775
8.9002	7.5402	11.0564	9.9718	9.606	11.7277	12.8252	4.024	8.1212	8.6721	3.7055	7.3508	3.3612	-26.9717	13.7893	-3.6152	-0.241	-2.6597	3.6969	2.2509	-0.0775
8.9131	7.523	11.0047	9.9374	9.5371	11.59	12.7348	3.8777	7.9577	8.4999	3.5506	7.1959	3.1633	-27.3977	13.9098	-3.6496	-0.198	-2.8276	3.7486	2.2078	-0.1377
8.9002	7.5101	10.9574	9.9331	9.5027	11.4996	12.6401	3.7701	7.7898	8.3837	3.4387	7.0582	3.0126	-27.6474	14.026	-3.6625	-0.142	-2.9739	3.7572	2.2078	-0.1851
8.8959	7.5101	10.9272	9.9202	9.4338	11.3748	12.5627	3.6539	7.6306	8.2503	3.2795	6.9291	2.8362	-27.7507	14.211	-3.684	-0.0947	-3.1073	3.8174	2.1562	-0.2496
8.9346	7.5402	10.9272	9.9073	9.3951	11.3275	12.5326	3.5334	7.4928	8.147	3.1417	6.8129	2.6942	-27.7507	14.4004	-3.6969	-0.0732	-3.2321	3.839	2.1261	-0.2927
8.9647	7.5832	10.9229	9.8556	9.3435	11.2716	12.4551	3.4215	7.325	8.005	2.9782	6.645	2.5435	-27.6	14.6027	-3.684	-0.0344	-3.3569	3.8088	2.1002	-0.3787
9.025	7.6306	10.9445	9.8212	9.3478	11.1941	12.4034	3.3225	7.2475	7.9318	2.862	6.5546	2.423	-27.3848	14.8222	-3.6496	-0.0215	-3.4301	3.8002	2.1088	-0.439
9.0637	7.7683	10.9875	9.804	9.3349	11.1467	12.3647	3.2192	7.1098	7.8501	2.7071	6.404	2.3197	-27.0836	15.0589	-3.6066	-0.0215	-3.5076	3.783	2.0873	-0.5078
9.124	7.8371	10.9961	9.7265	9.3306	11.1252	12.3131	3.1116	6.9893	7.7554	2.5521	6.2405	2.1734	-26.7651	15.3171	-3.6195	-0.0086	-3.5721	3.7271	2.0572	-0.637
9.1326	7.9964	11.0305	9.6921	9.3779	11.065	12.2571	3.0298	6.8774	7.6779	2.4144	6.1286	2.083	-26.3089	15.5796	-3.5721	-0.0387	-3.6453	3.7055	2.04	-0.7015
9.2014	8.1384	11.0478	9.6017	9.3908	11.0564	12.2356	2.9438	6.7526	7.609	2.2595	5.9865	2.0271	-25.8269	15.8421	-3.542	-0.0904	-3.6496	3.6453	2.0314	-0.7962
9.223	8.2933	11.0994	9.5457	9.4381	11.0478	12.2012	2.862	6.6837	7.5789	2.1476	5.8273	1.9625	-25.3104	16.0789	-3.5162	-0.1463	-3.6453	3.6022	2.0314	-0.8995
9.2703	8.5214	11.1683	9.4855	9.4941	11.065	12.2055	2.8319	6.602	7.5574	2.0443	5.7498	1.9324	-24.7595	16.3457	-3.4473	-0.2324	-3.5549	3.5678	2.0615	-0.964
9.2875	8.7022	11.1898	9.408	9.5845	11.0607	12.1883	2.8061	6.5202	7.5531	1.9453	5.6035	1.9324	-24.2904	16.5867	-3.4215	-0.3099	-3.4947	3.5162	2.0873	-1.02
9.3521	8.9432	11.2629	9.3564	9.6792	11.0521	12.1796	2.7931	6.4901	7.5445	1.8721	5.5174	1.9152	-23.8385	16.8191	-3.3483	-0.3959	-3.3397	3.486	2.1131	-1.0759
9.3693	9.1498	11.2931	9.2961	9.7954	11.0435	12.1495	2.8061	6.4126	7.5574	1.7602	5.4055	1.9324	-23.5114	17.0257	-3.3225	-0.4648	-3.2407	3.4301	2.1691	-1.1276
9.3951	9.3478	11.3189	9.2187	9.847	11.0435	12.1323	2.8061	6.3179	7.5531	1.7	5.2678	1.9797	-23.2274	17.2495	-3.3741	-0.5337	-3.06	3.4043	2.225	-1.1706
9.4166	9.5587	11.3361	9.1326	9.9589	11.0391	12.1194	2.8405	6.262	7.5488	1.6397	5.1602	1.9969	-22.9864	17.4431	-3.4301	-0.6025	-2.9093	3.3698	2.2337	-1.1921
9.4425	9.748	11.3361	9.0938	10.0708	11.0305	12.1022	2.8964	6.206	7.5875	1.601	5.0612	2.0486	-22.7497	17.5981	-3.5248	-0.637	-2.7114	3.3139	2.2982	-1.2007
9.4425	9.8857	11.3189	9.025	10.1526	11.0435	12.0979	2.9266	6.1802	7.5918	1.6096	4.9493	2.083	-22.4527	17.7831	-3.6453	-0.6972	-2.479	3.2752	2.3154	-1.1663
9.4683	10.045	11.3275	8.9949	10.2645	11.0004	12.0807	3.0255	6.1156	7.6004	1.6053	4.8719	2.1131	-22.0525	17.9209	-3.7701	-0.7446	-2.2853	3.2881	2.3757	-1.1104
9.4855	10.1569	11.3318	8.969	10.3419	11.0133	12.1151	3.1073	6.0812	7.6521	1.6569	4.7944	2.1992	-21.5834	18.05	-3.9207	-0.7919	-2.0744	3.2623	2.3972	-1.0415
9.507	10.2473	11.3103	8.926	10.4624	10.9746	12.1065	3.2321	6.0683	7.6607	1.7215	4.7557	2.2853	-20.9851	18.1662	-4.08	-0.8478	-1.8119	3.3182	2.4402	-0.8952
9.5199	10.3161	11.3017	8.9131	10.5399	10.9531	12.0677	3.3182	6.0683	7.7037	1.8205	4.704	2.3714	-20.275	18.2824	-4.2478	-0.8694	-1.5752	3.3139	2.5177	-0.7661
9.5673	10.3118	11.25	8.9174	10.6432	10.9143	12.0462	3.4516	6.0511	7.708	1.9066	4.6825	2.4316	-19.3884	18.3383	-4.42	-0.8564	-1.36	3.3526	2.5478	-0.6757
9.5543	10.3204	11.1984	8.9045	10.7078	10.8627	11.9946	3.5635	5.9951	7.6994	2.0314	4.6438	2.4531	-18.3512	18.3598	-4.6395	-0.8263	-1.162	3.3612	2.6038	-0.5251
9.5457	10.2817	11.1295	8.883	10.7164	10.8197	11.9817	3.6281	5.9693	7.7037	2.0787	4.5577	2.5005	-17.2323	18.3857	-4.846	-0.8091	-0.9813	3.3698	2.6511	-0.4175
9.5199	10.1999	11.0779	8.8528	10.7422	10.7207	11.9602	3.7055	5.9263	7.6822	2.1906	4.5276	2.5349	-16.0186	18.3297	-5.0139	-0.7747	-0.7532	3.3871	2.6899	-0.2884
9.4941	10.1138	11.009	8.8701	10.7336	10.6432	11.9386	3.7658	5.8746	7.6349	2.3068	4.4802	2.5478	-14.8394	18.3039	-5.1989	-0.7446	-0.5337	3.3698	2.7028	-0.1808
9.4425	9.989	10.8842	8.8916	10.7422	10.5012	11.844	3.8648	5.8316	7.6134	2.3886	4.3683	2.565	-13.7419	18.2307	-5.3496	-0.7015	-0.3056	3.3871	2.7544	-0.0818
9.3693	9.8814	10.7723	8.8744	10.6647	10.4022	11.8052	3.8863	5.7412	7.5273	2.4359	4.2736	2.5349	-12.808	18.1274	-5.5562	-0.637	-0.1205	3.344	2.7286	-0.0043
9.3133	9.7394	10.6561	8.8701	10.6088	10.2645	11.7148	3.9078	5.6379	7.4498	2.4919	4.1617	2.5263	-12.1194	17.9897	-5.6853	-0.5638	0.0689	3.3139	2.7372	0.0861
9.2316	9.5673	10.5399	8.9346	10.5356	10.1311	11.6632	3.9078	5.5562	7.368	2.565	4.0584	2.5134	-11.6331	17.809	-5.6853	-0.4906	0.2711	3.2579	2.7458	0.1334
9.1584	9.3908	10.4495	8.9561	10.428	9.989	11.6115	3.882	5.4486	7.3035	2.5995	3.9509	2.4833	-11.3232	17.6411	-5.7197	-0.4433	0.4562	3.1934	2.7415	0.1937
9.0723	9.2057	10.2989	8.9906	10.3204	9.8642	11.547	3.882	5.3496	7.2045	2.621	3.8174	2.4531	-11.2113	17.4561	-5.6896	-0.3916	0.6283	3.103	2.7673	0.2324
8.9776	9.0465	10.2171	9.0207	10.2085	9.7265	11.4996	3.8433	5.2205	7.1313	2.6468	3.7098	2.4101	-11.164	17.2925	-5.5777	-0.3529	0.7876	3.0212	2.7157	0.2582
8.9389	8.8356	10.1052	9.0336	10.0622	9.606	11.4566	3.7787	5.1344	7.0668	2.6382	3.6195	2.4187	-11.1597	17.1505	-5.4313	-0.3314	0.9683	2.9524	2.7673	0.297
8.8657	8.6463	10.0105	9.0723	9.9589	9.5156	11.4265	3.7486	5.0612	7.0323	2.6769	3.5205	2.4015	-11.2242	16.9999	-5.2162	-0.3185	1.1362	2.8663	2.763	0.3228
8.8184	8.4526	9.9546	9.0766	9.8298	9.4037	11.4179	3.7228	5.0139	7.0151	2.7071	3.4559	2.4531	-11.1984	16.875	-4.9321	-0.3228	1.3256	2.7802	2.8104	0.3443
8.7883	8.2632	9.9159	9.1154	9.7222	9.3435	11.4136	3.6969	4.9579	6.9979	2.7716	3.4258	2.5091	-11.1726	16.8062	-4.6782	-0.3615	1.5235	2.7415	2.8405	0.4132
8.7711	8.104	9.8987	9.1455	9.6361	9.3219	11.4394	3.6711	4.9364	7.0539	2.8276	3.4043	2.5693	-11.0865	16.7588	-4.4114	-0.383	1.7086	2.6382	2.8835	0.4218
8.7582	8.0007	9.9331	9.1842	9.563	9.2875	11.491	3.684	4.9795	7.1399	2.9136	3.4344	2.7157	-10.9445	16.7459	-4.1488	-0.4562	1.9324	2.6554	2.9825	0.5121
8.7582	7.8673	9.9288	9.21	9.4984	9.3306	11.5556	3.6883	4.9838	7.2131	2.9954	3.4904	2.8534	-10.669	16.7718	-3.8863	-0.5423	2.1605	2.5952	3.0772	0.5896
8.7668	7.7898	9.9761	9.2617	9.4554	9.3607	11.6245	3.7271	5.0569	7.325	3.0858	3.5549	3.0126	-10.3118	16.8406	-3.6281	-0.6283	2.3714	2.578	3.146	0.6843
8.8227	7.7511	10.0708	9.3047	9.4554	9.4252	11.7234	3.7916	5.1172	7.4627	3.202	3.6668	3.1977	-9.9288	16.9525	-3.4473	-0.7187	2.6253	2.5909	3.2795	0.7962
8.8356	7.7382	10.1181	9.309	9.4123	9.4898	11.7966	3.7916	5.1946	7.566	3.2967	3.7098	3.3354	-9.5845	17.0472	-3.2192	-0.7876	2.7931	2.565	3.3785	0.8478
8.8787	7.7726	10.2386	9.3607	9.408	9.5543	11.8956	3.8519	5.2807	7.708	3.4	3.8174	3.5162	-9.2918	17.2064	-3.0342	-0.8737	2.9997	2.565	3.4774	0.9382
8.926	7.8199	10.3333	9.408	9.4295	9.6447	11.9429	3.882	5.3625	7.8285	3.4645	3.9078	3.6883	-9.1541	17.3183	-2.8405	-0.9296	3.1331	2.5478	3.5506	1.0071
8.9819	7.8931	10.4194	9.3908	9.4166	9.7136	12.0118	3.9078	5.44	7.906	3.5162	3.9853	3.8174	-9.1799	17.4561	-2.72	-0.977	3.2579	2.5392	3.5936	1.0975
9.0164	7.9835	10.5313	9.4381	9.4468	9.7781	12.0591	3.9121	5.4744	8.0222	3.6238	4.0757	3.9293	-9.4252	17.568	-2.5866	-0.9942	3.3483	2.522	3.6238	1.1792
9.0982	8.104	10.6604	9.4898	9.507	9.8814	12.1237	3.9164	5.5734	8.1255	3.6797	4.166	4.0628	-9.8083	17.6626	-2.4316	-1.0415	3.4086	2.5134	3.6754	1.2352
9.1928	8.2718	10.7809	9.5716	9.5759	9.9675	12.1796	3.9724	5.6207	8.2159	3.7357	4.2822	4.1833	-10.2817	17.7616	-2.2939	-1.0889	3.443	2.5435	3.7184	1.3428
9.2918	8.4268	10.9143	9.649	9.6146	10.0708	12.2485	3.9595	5.7025	8.2804	3.7916	4.3554	4.2521	-10.824	17.8176	-2.139	-1.1233	3.4731	2.5349	3.684	1.3987
9.4338	8.6075	11.0564	9.748	9.705	10.1612	12.2743	3.9552	5.7584	8.3407	3.826	4.4759	4.3554	-11.4179	17.8907	-2.0572	-1.1491	3.443	2.5306	3.7012	1.4848
9.5673	8.7754	11.1683	9.8126	9.748	10.2516	12.2657	3.9681	5.7627	8.3751	3.839	4.5362	4.3941	-11.986	17.9424	-2.0443	-1.1792	3.3569	2.5349	3.6324	1.5192
9.7007	8.9561	11.306	9.903	9.847	10.3032	12.2829	3.9207	5.8101	8.3622	3.8303	4.6352	4.3812	-12.5024	17.9639	-2.0142	-1.1577	3.2407	2.522	3.5506	1.5235
9.8255	9.0852	11.3748	9.9675	9.8987	10.329	12.2313	3.8863	5.8015	8.3364	3.8303	4.6825	4.3984	-12.9543	17.9811	-2.0572	-1.1405	3.0686	2.5349	3.4344	1.5192
9.9288	9.2617	11.4652	10.0062	9.9331	10.3721	12.1839	3.826	5.7627	8.289	3.8002	4.7126	4.3468	-13.2513	17.994	-2.1519	-1.0845	2.8577	2.4876	3.3053	1.4762
10.0235	9.3693	11.5126	10.0062	9.9761	10.3592	12.0893	3.74	5.7025	8.1556	3.7314	4.7341	4.222	-13.4493	17.9553	-2.3025	-0.9942	2.5823	2.4359	3.0858	1.4202
10.1354	9.4812	11.547	10.0192	9.9804	10.3204	11.9946	3.6453	5.6637	8.048	3.6797	4.7255	4.1101	-13.4449	17.9123	-2.4488	-0.8995	2.2767	2.3886	2.905	1.3083
10.2085	9.5974	11.5814	10.045	9.9976	10.2903	11.8784	3.5807	5.5906	7.9318	3.5807	4.7643	3.9982	-13.3331	17.8821	-2.5823	-0.8048	1.9754	2.3542	2.6855	1.2266
10.2903	9.7351	11.5943	10.0235	10.0321	10.2473	11.7622	3.5076	5.5131	7.7468	3.5119	4.747	3.8691	-13.1136	17.8176	-2.7759	-0.6671	1.6354	2.2939	2.4488	1.1147
10.3462	9.8599	11.5986	10.0364	10.0622	10.2042	11.6503	3.4301	5.4658	7.6478	3.4602	4.76	3.7486	-12.8295	17.71	-2.9653	-0.5208	1.3299	2.281	2.2853	1.0071
10.4065	10.0105	11.6159	10.0192	10.0923	10.187	11.5556	3.3871	5.4184	7.5316	3.4086	4.7944	3.6496	-12.5799	17.6368	-3.159	-0.3787	1.0458	2.2681	2.0701	0.9296
10.4667	10.1181	11.6159	9.9933	10.1267	10.1267	11.4523	3.3053	5.4012	7.4111	3.3871	4.8116	3.5549	-12.4164	17.5852	-3.344	-0.2109	0.7919	2.2767	1.8937	0.8694
10.5098	10.2473	11.6374	9.9804	10.1999	10.0622	11.349	3.2666	5.3797	7.3207	3.3698	4.8977	3.4645	-12.3217	17.5206	-3.5592	-0.0344	0.5595	2.2595	1.7516	0.7876
10.57	10.3204	11.6331	9.9546	10.2042	10.0278	11.2457	3.2149	5.3496	7.2131	3.3655	4.9838	3.3914	-12.2958	17.4561	-3.7873	0.1463	0.3615	2.2509	1.5881	0.7187
10.5873	10.4151	11.6115	9.8987	10.243	9.9761	11.1467	3.1762	5.341	7.1227	3.3612	5.0526	3.344	-12.3174	17.4044	-4.0455	0.2927	0.1894	2.2595	1.4805	0.6929
10.6002	10.4624	11.5986	9.8083	10.2688	9.9202	11.0736	3.1633	5.3194	7.028	3.3698	5.1387	3.2623	-12.3303	17.3657	-4.2607	0.4476	0.0043	2.2638	1.4202	0.6283
10.6131	10.4797	11.5728	9.7695	10.3032	9.8857	10.9961	3.0901	5.3108	6.9032	3.3741	5.2076	3.2278	-12.3346	17.3614	-4.5103	0.5767	-0.1678	2.281	1.3428	0.5767
10.5786	10.4538	11.491	9.6619	10.3075	9.8083	10.8713	3.0514	5.2936	6.8645	3.3741	5.3108	3.1934	-12.2657	17.4173	-4.7858	0.7187	-0.2927	2.2638	1.2395	0.4992
10.5442	10.3721	11.4394	9.5414	10.3032	9.7179	10.768	2.9954	5.2936	6.744	3.4387	5.4357	3.1202	-12.1366	17.4905	-5.0225	0.8435	-0.4347	2.2982	1.1706	0.4347
10.4883	10.2731	11.3017	9.408	10.2774	9.6533	10.6776	2.9567	5.2678	6.602	3.4172	5.5131	3.0428	-11.9515	17.5895	-5.341	0.9899	-0.6327	2.3068	1.1104	0.3615
10.3807	10.1354	11.2027	9.2703	10.2128	9.5673	10.5614	2.8835	5.2377	6.4815	3.3957	5.5863	2.9653	-11.6804	17.7315	-5.5992	1.0975	-0.8521	2.2724	1.0501	0.2668
10.2989	9.9933	11.0951	9.1197	10.1483	9.4511	10.4538	2.8319	5.2032	6.3524	3.4043	5.6379	2.8577	-11.2974	17.8821	-5.8445	1.1878	-1.0501	2.2423	0.9942	0.1506
10.1827	9.7997	10.9531	8.9733	10.1009	9.3736	10.3075	2.7501	5.2076	6.2275	3.3698	5.724	2.7888	-10.8971	18.0586	-6.0597	1.2567	-1.2739	2.2207	0.9253	0.0516
10.0923	9.6146	10.824	8.8184	10.0192	9.309	10.1999	2.7243	5.1559	6.0898	3.3698	5.7627	2.6554	-10.428	18.235	-6.2232	1.304	-1.5063	2.2035	0.8263	-0.0646
9.9374	9.4209	10.6862	8.6721	9.9417	9.2187	10.0751	2.6554	5.1301	5.9564	3.344	5.7886	2.5263	-10.0364	18.4115	-6.404	1.3256	-1.7688	2.1347	0.8005	-0.1937
9.8255	9.2746	10.57	8.5085	9.8169	9.1326	9.9503	2.5866	5.0913	5.7886	3.2967	5.8316	2.4058	-9.6706	18.6181	-6.503	1.3083	-1.984	2.0959	0.7575	-0.297
