"FZ"	"FC3"	"FCZ"	"FC4"	"C3"	"CZ"	"C4"	"CP3"	"CPZ"	"CP4"	"P3"	"PZ"	"P4"	"OZ"	"FP1"	"FP2"	"A2"	"P8"	"TP7"	"TP8"	"P7"	"VEOG"	"HEOG"
-0.774	0.5222	-0.4134	-0.6496	0.6527	-0.631	-0.2953	0.8641	-0.1368	0.2456	1.293	0.2083	0.6248	-1.2216	-1.1283	-1.0009	2.4213	-0.0373	1.2899	-0.6621	1.3552	-2.757	-1.551
-0.7429	0.5533	-0.4103	-0.6154	0.6683	-0.6248	-0.2331	0.8454	-0.1647	0.2611	1.2278	0.1772	0.6061	-1.1998	-1.1749	-0.9107	2.3685	0.0093	1.3055	-0.6217	1.3428	-3.4222	-1.4422
-0.746	0.5346	-0.432	-0.5968	0.6341	-0.6527	-0.1927	0.8082	-0.2083	0.2331	1.1532	0.1212	0.5875	-1.1967	-1.2278	-0.8517	2.3747	0.0093	1.3117	-0.6185	1.2899	-3.9568	-1.3428
-0.6931	0.5533	-0.4289	-0.5626	0.6279	-0.6185	-0.1616	0.7833	-0.2269	0.2176	1.1252	0.0964	0.5533	-1.1874	-1.2744	-0.7957	2.3374	0.0062	1.293	-0.603	1.2589	-4.1993	-1.2651
-0.6372	0.5408	-0.4134	-0.5408	0.5999	-0.6434	-0.1181	0.7615	-0.2487	0.1958	1.0537	0.0218	0.5222	-1.1874	-1.3366	-0.7522	2.3281	0.0218	1.2526	-0.6434	1.2122	-4.0843	-1.1998
-0.6154	0.5222	-0.4289	-0.5035	0.5657	-0.6123	-0.0746	0.7584	-0.258	0.1927	1.0164	0.0218	0.516	-1.1594	-1.3459	-0.7336	2.2877	0.0342	1.2216	-0.6341	1.1998	-3.6429	-1.147
-0.5937	0.4756	-0.4445	-0.4662	0.4787	-0.6123	-0.0684	0.6776	-0.2829	0.1585	0.9511	-0.0466	0.4756	-1.1407	-1.3925	-0.6963	2.2721	0.0342	1.1656	-0.6496	1.1625	-2.956	-1.1314
-0.5471	0.4041	-0.3979	-0.4165	0.4414	-0.5688	-0.0062	0.6372	-0.3202	0.1461	0.8796	-0.0808	0.4352	-1.1252	-1.4205	-0.6776	2.2317	0.0218	1.0941	-0.6279	1.1159	-2.1602	-1.1065
-0.5222	0.373	-0.4103	-0.3979	0.3512	-0.5812	0.0342	0.5844	-0.3139	0.1119	0.8268	-0.1119	0.4041	-1.119	-1.4298	-0.6776	2.1944	0	1.0164	-0.6465	1.0506	-1.4018	-1.1221
-0.4569	0.3575	-0.3885	-0.3015	0.3357	-0.5439	0.0653	0.5564	-0.3264	0.087	0.7677	-0.115	0.3668	-1.0848	-1.4049	-0.7118	2.1385	0.0093	0.9263	-0.631	0.9915	-0.8019	-1.1283
-0.4103	0.3357	-0.345	-0.2549	0.3015	-0.5346	0.1026	0.5222	-0.3139	0.0715	0.7367	-0.1337	0.317	-1.0475	-1.3894	-0.6963	2.067	0.0124	0.8548	-0.6496	0.9542	-0.3575	-1.1314
-0.373	0.317	-0.3295	-0.2331	0.2673	-0.5035	0.1057	0.5346	-0.3046	0.0404	0.7149	-0.1399	0.2922	-1.0164	-1.3179	-0.8113	1.9986	-0.0186	0.7771	-0.6248	0.9729	-0.087	-1.1345
-0.317	0.3543	-0.2829	-0.2238	0.2424	-0.4569	0.0932	0.5004	-0.2953	0.0124	0.6963	-0.1212	0.2518	-0.9915	-1.2402	-0.9169	1.924	0	0.7149	-0.5999	0.9356	0.0155	-1.1221
-0.2238	0.3264	-0.2393	-0.1958	0.2393	-0.4383	0.0839	0.4942	-0.2797	-0.0342	0.6776	-0.1399	0.1958	-0.9325	-1.1438	-1.0009	1.8401	-0.0124	0.6621	-0.5781	0.9263	-0.0684	-1.091
-0.1461	0.3326	-0.2114	-0.1896	0.2238	-0.3916	0.0528	0.488	-0.258	-0.0622	0.6621	-0.143	0.1741	-0.889	-1.0755	-1.091	1.7468	-0.0062	0.5781	-0.5502	0.9294	-0.3854	-1.0568
-0.0932	0.3699	-0.1741	-0.1865	0.2207	-0.3512	0.0342	0.4973	-0.2051	-0.0901	0.6652	-0.1026	0.1554	-0.8206	-0.9605	-1.1563	1.6163	0.0186	0.5502	-0.4725	0.9325	-0.9294	-1.0413
0.0124	0.3854	-0.1181	-0.1741	0.1803	-0.2953	0.0218	0.4693	-0.1803	-0.1057	0.659	-0.115	0.1368	-0.7646	-0.8827	-1.1749	1.492	0.0404	0.5035	-0.4289	0.9356	-1.6536	-1.0133
0.0466	0.3668	-0.087	-0.2083	0.1647	-0.2797	-0.0622	0.4352	-0.1772	-0.1461	0.6217	-0.1181	0.087	-0.6994	-0.8113	-1.1967	1.3894	0.0497	0.4538	-0.4041	0.9138	-2.4897	-1.0319
0.1088	0.3637	-0.0808	-0.2362	0.1088	-0.2673	-0.0995	0.4258	-0.1212	-0.1772	0.6248	-0.0995	0.0249	-0.6403	-0.7491	-1.1501	1.2589	0.0559	0.3885	-0.3668	0.9076	-3.3072	-1.0692
0.1492	0.373	-0.0591	-0.2704	0.0839	-0.23	-0.1399	0.3854	-0.1057	-0.202	0.603	-0.0653	0.0249	-0.5688	-0.6558	-1.1314	1.1159	0.0591	0.373	-0.3264	0.8765	-3.904	-1.091
0.1585	0.3575	-0.0653	-0.3139	0.028	-0.2114	-0.1927	0.3699	-0.0964	-0.2331	0.5626	-0.0746	-0.0186	-0.5004	-0.5688	-1.0537	0.9853	0.0591	0.3202	-0.258	0.8548	-4.2335	-1.1128
0.1523	0.3512	-0.0559	-0.3637	-0.0062	-0.1492	-0.2331	0.2829	-0.0746	-0.2797	0.5129	-0.087	-0.0653	-0.4414	-0.4911	-0.9791	0.8703	0.0622	0.2829	-0.2207	0.7926	-4.2272	-1.1345
0.1337	0.3792	-0.0622	-0.46	-0.0311	-0.171	-0.2922	0.258	-0.0528	-0.3326	0.4507	-0.0777	-0.1057	-0.3823	-0.3854	-0.9356	0.7646	0.0622	0.2518	-0.1834	0.7367	-3.9351	-1.1687
0.1337	0.4103	-0.0622	-0.5315	-0.0404	-0.1119	-0.3295	0.2238	-0.028	-0.3543	0.4196	-0.0932	-0.1368	-0.3202	-0.2393	-0.8423	0.6434	0.0777	0.2549	-0.1243	0.6776	-3.3942	-1.1936
0.0901	0.4289	-0.0808	-0.6092	-0.0435	-0.0964	-0.3512	0.1741	-0.0155	-0.3885	0.3823	-0.0746	-0.1585	-0.2922	-0.1088	-0.8237	0.5595	0.0964	0.2238	-0.0684	0.6217	-2.8316	-1.1936
0.0715	0.4756	-0.0839	-0.6745	-0.0249	-0.0404	-0.3606	0.1337	0	-0.4072	0.3326	-0.0715	-0.202	-0.2424	0.0373	-0.7677	0.4693	0.0839	0.2051	-0.028	0.5471	-2.297	-1.1718
0.0249	0.5315	-0.0901	-0.7584	-0.028	-0.0435	-0.3948	0.0932	0.0249	-0.4725	0.2922	-0.0559	-0.2424	-0.1958	0.1678	-0.6745	0.3823	0.0746	0.1927	-0.0311	0.4725	-1.8463	-1.147
-0.0155	0.575	-0.1181	-0.8299	-0.0342	0.0031	-0.3948	0.0653	0.0435	-0.4973	0.2393	-0.087	-0.3015	-0.1492	0.3015	-0.6372	0.286	0.0373	0.1492	-0.0311	0.4289	-1.4795	-1.0941
-0.0373	0.5999	-0.1274	-0.9325	-0.0155	0.0124	-0.46	0.0249	0.0373	-0.5533	0.1989	-0.0995	-0.373	-0.0964	0.4072	-0.575	0.1927	-0.0062	0.1305	-0.028	0.3388	-1.2029	-1.0382
-0.0497	0.6123	-0.1616	-0.9946	0	0.0342	-0.5066	-0.0093	0.0373	-0.6217	0.1368	-0.1119	-0.4103	-0.0559	0.5066	-0.5222	0.0995	-0.0591	0.0932	-0.0249	0.2922	-1.0537	-0.9573
-0.0932	0.6403	-0.171	-1.0351	-0.0062	0.0559	-0.5533	-0.0435	0.028	-0.69	0.087	-0.1368	-0.4725	-0.0093	0.5875	-0.5004	0.0218	-0.1181	0.0777	-0.0497	0.202	-1.0941	-0.8672
-0.087	0.6372	-0.1865	-1.0382	0.0031	0.0591	-0.6248	-0.0622	0.0249	-0.7118	0.0186	-0.1803	-0.5253	0.0218	0.6558	-0.4538	-0.0497	-0.1678	0.0404	-0.0901	0.1399	-1.3272	-0.7864
-0.1119	0.6714	-0.1554	-1.0102	0.0373	0.087	-0.6372	-0.0995	0.0093	-0.7522	-0.0186	-0.1834	-0.5719	0.0528	0.6683	-0.3916	-0.1026	-0.2518	0.0062	-0.1243	0.0715	-1.7344	-0.6869
-0.0653	0.7056	-0.1337	-0.9573	0.0746	0.1026	-0.659	-0.0964	0	-0.7429	-0.0528	-0.2114	-0.6341	0.0559	0.6652	-0.3357	-0.1461	-0.3233	-0.0155	-0.1492	0.0218	-2.2753	-0.6061
-0.0622	0.7056	-0.1243	-0.8827	0.0964	0.115	-0.6745	-0.0839	0.0124	-0.7522	-0.1088	-0.2238	-0.6527	0.0932	0.6372	-0.2922	-0.1958	-0.3823	-0.0373	-0.1896	-0.028	-2.8441	-0.5222
-0.0622	0.718	-0.1274	-0.8144	0.1337	0.1181	-0.6652	-0.0932	-0.0155	-0.7522	-0.1399	-0.2673	-0.6621	0.1057	0.5875	-0.2456	-0.2238	-0.4445	-0.0839	-0.2176	-0.0995	-3.3041	-0.4538
-0.0591	0.7336	-0.1243	-0.6931	0.1678	0.1243	-0.6248	-0.0839	-0.0062	-0.7087	-0.1678	-0.2673	-0.6745	0.1305	0.5253	-0.1772	-0.258	-0.4942	-0.1119	-0.2735	-0.1647	-3.4813	-0.3637
-0.0591	0.718	-0.1274	-0.631	0.1647	0.115	-0.5719	-0.0995	-0.0435	-0.6869	-0.2083	-0.2829	-0.6838	0.1243	0.4414	-0.1741	-0.2518	-0.5844	-0.1181	-0.3388	-0.2051	-3.3103	-0.286
-0.0777	0.6745	-0.1554	-0.516	0.2051	0.0932	-0.5222	-0.0995	-0.0622	-0.6683	-0.2362	-0.3015	-0.6838	0.1119	0.3668	-0.1803	-0.23	-0.631	-0.1461	-0.4041	-0.2549	-2.757	-0.1958
-0.087	0.6465	-0.1616	-0.4289	0.1896	0.0746	-0.4476	-0.1057	-0.0746	-0.6341	-0.2797	-0.3357	-0.6963	0.1026	0.258	-0.171	-0.202	-0.69	-0.143	-0.4787	-0.3015	-1.896	-0.1368
-0.1554	0.575	-0.2051	-0.3512	0.1678	0.0653	-0.3916	-0.1243	-0.1274	-0.5875	-0.3108	-0.3388	-0.6994	0.0839	0.1803	-0.1834	-0.1772	-0.7149	-0.1492	-0.5408	-0.3326	-0.8579	-0.0591
-0.1337	0.5129	-0.1958	-0.2797	0.1741	0.0249	-0.3202	-0.0808	-0.1305	-0.5502	-0.3077	-0.3295	-0.6621	0.0622	0.1026	-0.2145	-0.1337	-0.7398	-0.171	-0.5937	-0.3512	0.1834	-0.0062
-0.1772	0.4414	-0.2393	-0.1741	0.1337	-0.0155	-0.2487	-0.0995	-0.1492	-0.4725	-0.3357	-0.3543	-0.6558	0.0497	0.0528	-0.2424	-0.0964	-0.7988	-0.1803	-0.6496	-0.3668	1.1159	0.0466
-0.1834	0.345	-0.2673	-0.0932	0.1057	-0.0373	-0.1803	-0.1305	-0.1834	-0.4258	-0.3264	-0.3481	-0.6527	0.028	0.0155	-0.286	-0.0684	-0.805	-0.1834	-0.7025	-0.3668	1.9365	0.1088
-0.1741	0.2829	-0.2673	0.0093	0.0964	-0.0684	-0.0932	-0.1026	-0.1554	-0.3419	-0.3357	-0.3077	-0.5875	0.0218	0.0093	-0.317	-0.0777	-0.805	-0.202	-0.7304	-0.3419	2.5705	0.1554
-0.1896	0.1678	-0.2891	0.0715	0.0218	-0.0777	-0.0311	-0.0995	-0.1616	-0.2735	-0.3046	-0.2891	-0.5688	0.028	0.0124	-0.3823	-0.0746	-0.8299	-0.2051	-0.7553	-0.3388	3.0803	0.2145
-0.1927	0.0808	-0.2922	0.1492	0.0155	-0.1057	0.0062	-0.1057	-0.1616	-0.1958	-0.3046	-0.2611	-0.5253	0.0404	-0.0155	-0.3637	-0.0808	-0.833	-0.2207	-0.7584	-0.3481	3.4471	0.2766
-0.1741	-0.0031	-0.3326	0.202	0	-0.1243	0.0528	-0.0528	-0.143	-0.1305	-0.2704	-0.2114	-0.4507	0.0591	0.0186	-0.3885	-0.1305	-0.7988	-0.2238	-0.7677	-0.3077	3.5496	0.3326
-0.1523	-0.1119	-0.3326	0.2362	-0.028	-0.1772	0.0622	-0.0249	-0.1181	-0.0653	-0.2176	-0.1585	-0.4041	0.0901	0.028	-0.3606	-0.1647	-0.7957	-0.2549	-0.7833	-0.2766	3.416	0.3792
-0.1461	-0.2145	-0.3512	0.2797	-0.0528	-0.1896	0.087	-0.0062	-0.0995	0	-0.1865	-0.115	-0.345	0.1057	0.0466	-0.3264	-0.2176	-0.7336	-0.2393	-0.7584	-0.2207	3.0958	0.4352
-0.1368	-0.2829	-0.345	0.3015	-0.0591	-0.1989	0.0964	0.0186	-0.0653	0.0466	-0.171	-0.0466	-0.3046	0.1212	0.0559	-0.2953	-0.2518	-0.7118	-0.2393	-0.7646	-0.1896	2.6172	0.5129
-0.0808	-0.3357	-0.3388	0.3077	-0.0528	-0.1927	0.1119	0.0622	-0.0186	0.1181	-0.1057	0	-0.2362	0.1554	0.0528	-0.202	-0.317	-0.6869	-0.1989	-0.7149	-0.1305	2.1571	0.5719
-0.0622	-0.3761	-0.3077	0.2891	-0.0559	-0.2207	0.115	0.0932	0.0155	0.1896	-0.0622	0.0528	-0.1772	0.1554	0.0031	-0.1243	-0.3326	-0.6185	-0.202	-0.6745	-0.1088	1.8587	0.6217
-0.0186	-0.4383	-0.3077	0.3108	-0.0435	-0.1616	0.1461	0.1492	0.0932	0.2704	0.0031	0.1523	-0.0808	0.1772	-0.0218	-0.0093	-0.3823	-0.5502	-0.1523	-0.6185	-0.0591	1.7375	0.6403
0.0404	-0.4538	-0.2611	0.3388	-0.0062	-0.1243	0.2083	0.2083	0.1678	0.373	0.0777	0.2487	0.0218	0.1989	-0.0777	0.1181	-0.4196	-0.4289	-0.0964	-0.5191	0.0311	1.9333	0.6372
0.0684	-0.4538	-0.258	0.3233	0.0062	-0.1181	0.2269	0.2518	0.1989	0.4445	0.1274	0.317	0.1026	0.202	-0.1337	0.23	-0.4352	-0.3699	-0.0497	-0.432	0.0466	2.4027	0.631
0.0808	-0.4911	-0.2269	0.3606	0.0218	-0.0777	0.2891	0.2953	0.258	0.5066	0.1834	0.3854	0.1772	0.2145	-0.2393	0.373	-0.4383	-0.3326	0	-0.3481	0.0808	3.0679	0.5937
0.115	-0.5564	-0.1896	0.4165	0.0373	-0.0497	0.345	0.3108	0.3326	0.5999	0.258	0.4973	0.2424	0.23	-0.2642	0.488	-0.4693	-0.2269	0.0528	-0.2424	0.1088	3.7641	0.5688
0.1492	-0.6123	-0.1865	0.4756	0.0342	0.0093	0.4103	0.3543	0.4258	0.6496	0.3202	0.5657	0.3326	0.258	-0.3326	0.659	-0.5098	-0.1647	0.0932	-0.1119	0.143	4.4044	0.5408
0.143	-0.6465	-0.171	0.5129	0.0031	0.0342	0.4165	0.3699	0.4476	0.6994	0.3419	0.6185	0.3916	0.2642	-0.3761	0.7771	-0.5377	-0.1274	0.1243	-0.0186	0.1647	4.8489	0.516
0.171	-0.7304	-0.1461	0.5377	-0.0093	0.0746	0.4289	0.373	0.4911	0.7398	0.3823	0.6869	0.4258	0.2922	-0.4227	0.8827	-0.575	-0.0777	0.1305	0.087	0.1523	5.1193	0.5035
0.1803	-0.8206	-0.1305	0.5719	-0.0591	0.0932	0.4196	0.3543	0.5471	0.7242	0.3948	0.7273	0.4352	0.3077	-0.432	0.9853	-0.6154	-0.0622	0.1212	0.1305	0.1492	5.1722	0.5098
0.1927	-0.8579	-0.0995	0.6279	-0.0964	0.1461	0.4134	0.373	0.5564	0.746	0.3948	0.7553	0.4818	0.3264	-0.4631	1.1003	-0.6558	-0.0311	0.1119	0.1989	0.1399	5.0603	0.4818
0.2145	-0.8921	-0.0591	0.6745	-0.1181	0.202	0.4383	0.3606	0.5906	0.7895	0.4383	0.7988	0.5533	0.3637	-0.4476	1.2247	-0.7367	0.0062	0.1243	0.2797	0.1399	4.6873	0.4849
0.2083	-0.9667	-0.0497	0.6869	-0.143	0.2083	0.4227	0.3233	0.6123	0.7584	0.4041	0.7988	0.5502	0.3948	-0.4569	1.3334	-0.7833	0.0124	0.0528	0.2984	0.0995	4.0687	0.488
0.2456	-0.9138	0	0.6994	-0.171	0.258	0.4258	0.3015	0.631	0.7553	0.3979	0.8082	0.5812	0.4165	-0.4693	1.4453	-0.8423	0.0373	0.0404	0.3512	0.0653	3.2388	0.488
0.2766	-0.9107	0.0218	0.7304	-0.1896	0.2611	0.3854	0.2735	0.631	0.746	0.3512	0.7771	0.5595	0.4569	-0.4849	1.5883	-0.8952	0.0342	-0.0342	0.3792	0.0249	2.2162	0.5066
0.2704	-0.8517	0.0777	0.718	-0.1678	0.3108	0.3512	0.2549	0.6341	0.718	0.3326	0.7709	0.5875	0.4818	-0.4507	1.6536	-0.9636	0.0497	-0.0901	0.4103	-0.028	1.091	0.5191
0.3388	-0.7802	0.143	0.7149	-0.1492	0.3295	0.3139	0.2145	0.6185	0.6621	0.2891	0.7584	0.5906	0.516	-0.4041	1.6909	-1.0288	0.0901	-0.1368	0.4414	-0.0995	-0.0311	0.5346
0.3543	-0.6807	0.202	0.7087	-0.1026	0.3575	0.3077	0.2114	0.5906	0.6248	0.2487	0.7522	0.6061	0.5439	-0.3419	1.7127	-1.0879	0.1461	-0.2269	0.4787	-0.1616	-0.9107	0.5564
0.345	-0.631	0.2083	0.6621	-0.1337	0.3481	0.23	0.1337	0.5688	0.5781	0.1834	0.69	0.5688	0.5284	-0.2735	1.6691	-1.0941	0.1492	-0.2984	0.488	-0.2456	-1.4547	0.5937
0.3326	-0.5253	0.2456	0.6248	-0.0932	0.3637	0.202	0.0684	0.5222	0.5439	0.0653	0.5968	0.5595	0.5688	-0.1741	1.6381	-1.1376	0.2114	-0.3916	0.5098	-0.3326	-1.6723	0.603
0.3419	-0.4196	0.2704	0.5937	-0.0622	0.3543	0.1492	0.0311	0.4693	0.5035	0.0218	0.5657	0.5657	0.5781	-0.0186	1.5417	-1.1811	0.2424	-0.4165	0.5471	-0.3823	-1.5697	0.5968
0.317	-0.373	0.2829	0.5657	-0.0653	0.3575	0.1337	-0.0466	0.3823	0.4693	-0.0777	0.4973	0.5533	0.5875	0.1243	1.4267	-1.1811	0.2797	-0.4942	0.5471	-0.4725	-1.2775	0.6279
0.3233	-0.286	0.3295	0.5719	-0.0404	0.3792	0.0995	-0.0622	0.3637	0.4476	-0.1368	0.4258	0.5439	0.5906	0.3108	1.3024	-1.206	0.3637	-0.5315	0.5906	-0.516	-0.8206	0.6683
0.2953	-0.202	0.3481	0.5688	-0.0373	0.3606	0.0466	-0.1368	0.3108	0.3761	-0.2207	0.3575	0.5098	0.5968	0.5004	1.1594	-1.206	0.3699	-0.5564	0.603	-0.5626	-0.4289	0.7211
0.2642	-0.1647	0.373	0.5098	-0.0528	0.3357	-0.0031	-0.2176	0.2207	0.2984	-0.317	0.2642	0.4538	0.5781	0.6714	0.976	-1.1656	0.4165	-0.6092	0.5968	-0.6248	-0.1119	0.7771
0.2393	-0.1243	0.3606	0.4818	-0.0653	0.3139	-0.0404	-0.2797	0.143	0.2207	-0.4258	0.1616	0.4041	0.5688	0.8237	0.8175	-1.1345	0.4258	-0.6465	0.6061	-0.6994	0.1399	0.8392
0.2424	-0.0373	0.3761	0.4165	-0.0559	0.3077	-0.0684	-0.3419	0.0622	0.143	-0.488	0.0653	0.3326	0.5626	0.9978	0.6714	-1.1252	0.4383	-0.6403	0.6372	-0.7273	0.3233	0.92
0.2145	-0.0249	0.3916	0.3512	-0.0622	0.2766	-0.0964	-0.4134	0.0124	0.0559	-0.5844	-0.0093	0.2518	0.5471	1.1003	0.5471	-1.1159	0.46	-0.6745	0.6652	-0.7677	0.432	0.9978
0.2083	0	0.3948	0.3077	-0.0342	0.2549	-0.1057	-0.4476	-0.0591	-0.0311	-0.6496	-0.0839	0.2176	0.5471	1.2122	0.4072	-1.1065	0.4787	-0.6994	0.69	-0.7802	0.317	1.0102
0.1803	0.028	0.3948	0.2487	-0.0684	0.2642	-0.1337	-0.5346	-0.1305	-0.115	-0.7211	-0.1741	0.1181	0.5502	1.2806	0.286	-1.1003	0.4507	-0.7304	0.7025	-0.8019	0.0435	1.063
0.1554	0.0124	0.3979	0.2269	-0.0622	0.258	-0.1492	-0.5626	-0.171	-0.1834	-0.7709	-0.2114	0.0777	0.5502	1.349	0.1741	-1.1097	0.4756	-0.6994	0.7242	-0.8299	-0.4134	1.0537
0.1585	0.0062	0.4196	0.2145	-0.0653	0.2362	-0.1492	-0.5844	-0.2269	-0.2145	-0.8175	-0.286	-0.0062	0.5284	1.3863	0.0559	-1.0786	0.46	-0.7025	0.6994	-0.8237	-0.9822	1.0319
0.1523	0.0062	0.46	0.2766	-0.0808	0.258	-0.0839	-0.6185	-0.258	-0.2549	-0.833	-0.3264	-0.0466	0.5222	1.3987	-0.0155	-1.0599	0.46	-0.6714	0.6963	-0.8175	-1.6101	1.004
0.143	-0.0373	0.4756	0.3233	-0.115	0.2797	-0.0031	-0.6558	-0.2456	-0.2424	-0.8703	-0.3419	-0.0964	0.5098	1.3863	-0.1026	-1.0288	0.46	-0.6465	0.6994	-0.833	-2.1012	0.9356
0.1461	-0.0746	0.4818	0.3761	-0.1585	0.2549	0.0342	-0.7056	-0.286	-0.2362	-0.8859	-0.3699	-0.1181	0.4756	1.3179	-0.1119	-0.9822	0.4662	-0.631	0.69	-0.8268	-2.2628	0.9076
0.1865	-0.115	0.5129	0.4693	-0.1616	0.2735	0.1554	-0.7149	-0.2704	-0.1803	-0.8796	-0.3512	-0.1274	0.4662	1.2837	-0.1337	-0.948	0.5004	-0.5875	0.7025	-0.7864	-2.0857	0.8454
0.1678	-0.1399	0.516	0.5222	-0.2269	0.2953	0.23	-0.7553	-0.2642	-0.1368	-0.8765	-0.3419	-0.1305	0.4476	1.2464	-0.1647	-0.9263	0.5315	-0.5626	0.7273	-0.7615	-1.5821	0.8206
0.1647	-0.1834	0.5315	0.5533	-0.2766	0.2891	0.2922	-0.7833	-0.2735	-0.1337	-0.9045	-0.3512	-0.1243	0.4258	1.1501	-0.143	-0.8734	0.5377	-0.5315	0.7522	-0.7957	-0.7398	0.7833
0.1741	-0.2331	0.5408	0.5502	-0.3326	0.3077	0.3668	-0.8206	-0.2673	-0.0777	-0.9014	-0.3295	-0.1492	0.401	1.063	-0.1057	-0.8237	0.5688	-0.5346	0.7584	-0.7864	0.2797	0.7522
0.171	-0.2891	0.5564	0.5502	-0.4072	0.3233	0.4289	-0.8206	-0.2456	-0.0622	-0.889	-0.3264	-0.1461	0.3854	1.0195	-0.1026	-0.7926	0.5999	-0.5098	0.8019	-0.7864	1.262	0.7398
0.1523	-0.3823	0.5346	0.5035	-0.4849	0.2735	0.4507	-0.8703	-0.2704	-0.0342	-0.889	-0.317	-0.1461	0.3823	0.9232	0.0249	-0.7864	0.5937	-0.4973	0.8361	-0.8268	2.1882	0.7522
0.1554	-0.4693	0.5129	0.4445	-0.575	0.2735	0.46	-0.9263	-0.2673	0	-0.9076	-0.3139	-0.1803	0.373	0.8237	0.087	-0.7709	0.5812	-0.4911	0.8734	-0.833	2.9125	0.8019
0.1337	-0.5066	0.5098	0.345	-0.6621	0.2487	0.4725	-0.9636	-0.2829	0.0249	-0.9232	-0.3295	-0.1803	0.3699	0.718	0.1896	-0.7615	0.5937	-0.4911	0.9014	-0.8672	3.4999	0.8423
0.1399	-0.5439	0.4756	0.2704	-0.6745	0.2176	0.4507	-0.976	-0.2953	0.0342	-0.9169	-0.3202	-0.1803	0.3761	0.5999	0.3233	-0.7709	0.5999	-0.4818	0.9387	-0.8983	3.904	0.9107
0.1368	-0.5595	0.4383	0.1554	-0.7304	0.171	0.4041	-1.0071	-0.3139	0.0342	-0.92	-0.3357	-0.2176	0.3792	0.4818	0.4352	-0.7864	0.5999	-0.5315	0.9542	-0.9511	4.0843	0.9915
0.1585	-0.5284	0.4383	0.0404	-0.7149	0.1678	0.3916	-0.9853	-0.2922	0.0715	-0.8672	-0.3202	-0.2114	0.3979	0.345	0.6061	-0.8299	0.5937	-0.5502	0.9822	-0.9698	4.019	1.0568
0.1772	-0.488	0.4165	-0.1243	-0.7025	0.1399	0.3264	-0.9698	-0.2642	0.0777	-0.8703	-0.3326	-0.2051	0.432	0.1741	0.7895	-0.8734	0.5844	-0.5533	1.0009	-1.0071	3.6988	1.1376
0.2393	-0.4196	0.4289	-0.2642	-0.659	0.1181	0.2642	-0.9418	-0.2331	0.1337	-0.8361	-0.2984	-0.202	0.4569	0.0404	1.0009	-0.9542	0.6248	-0.5595	1.0133	-1.0537	3.1456	1.2122
0.2735	-0.3419	0.4383	-0.3916	-0.6185	0.1026	0.1678	-0.9076	-0.2114	0.143	-0.8299	-0.3077	-0.1616	0.4756	-0.1057	1.1563	-0.9915	0.6092	-0.5906	0.9822	-1.0941	2.4245	1.2837
0.3264	-0.2238	0.4569	-0.4631	-0.5502	0.0839	0.115	-0.8765	-0.2176	0.1803	-0.8175	-0.286	-0.115	0.5222	-0.2487	1.3894	-1.063	0.6279	-0.5906	0.9636	-1.1034	1.7064	1.3397
0.401	-0.1337	0.5098	-0.5439	-0.4725	0.1057	0.0932	-0.8392	-0.1554	0.2424	-0.7833	-0.2797	-0.1088	0.5471	-0.3948	1.6008	-1.1003	0.631	-0.575	0.9356	-1.1438	1.1376	1.3956
0.4725	0.0155	0.5626	-0.5812	-0.4134	0.115	0.0404	-0.7957	-0.143	0.3077	-0.7429	-0.2362	-0.0466	0.5657	-0.5004	1.7593	-1.1438	0.6279	-0.5781	0.8983	-1.1345	0.7988	1.4671
0.5408	0.1243	0.5906	-0.5688	-0.345	0.1305	0.0404	-0.7709	-0.1057	0.3388	-0.7087	-0.2051	-0.0155	0.575	-0.5626	1.9023	-1.1687	0.6434	-0.5408	0.861	-1.1438	0.8082	1.5106
0.6061	0.2238	0.6558	-0.5564	-0.258	0.1741	0.0435	-0.7211	-0.0559	0.3948	-0.6869	-0.1865	0.0218	0.575	-0.6185	2.0235	-1.1749	0.6154	-0.5222	0.8237	-1.1656	1.091	1.5604
0.659	0.286	0.6745	-0.5502	-0.2331	0.1865	0.028	-0.6994	-0.0218	0.4227	-0.6434	-0.1865	0.028	0.5812	-0.6123	2.0639	-1.1811	0.5533	-0.4973	0.7615	-1.1687	1.6101	1.5914
0.6931	0.317	0.7429	-0.5129	-0.1958	0.2238	0.0373	-0.6714	-0.0031	0.4383	-0.6341	-0.1678	0.0435	0.5719	-0.5875	2.095	-1.178	0.5315	-0.4849	0.6994	-1.1811	2.1913	1.607
0.7087	0.3512	0.7615	-0.488	-0.2114	0.2673	0.0342	-0.6776	0.0124	0.432	-0.6154	-0.171	0.0435	0.5564	-0.5191	2.0173	-1.1563	0.4569	-0.4631	0.6341	-1.1843	2.7228	1.6008
0.746	0.3295	0.7864	-0.4134	-0.1865	0.2953	0.0404	-0.6527	0.0528	0.4538	-0.603	-0.1585	0.0497	0.5626	-0.3916	1.9427	-1.1532	0.3885	-0.4507	0.5812	-1.1905	3.0958	1.6039
0.7709	0.3077	0.833	-0.3264	-0.1803	0.3295	0.0684	-0.6279	0.1088	0.488	-0.5657	-0.1399	0.0591	0.5657	-0.2114	1.8246	-1.147	0.3668	-0.4165	0.5284	-1.1625	3.3134	1.5945
0.7833	0.2891	0.9014	-0.23	-0.171	0.4072	0.1181	-0.6248	0.1523	0.5191	-0.5346	-0.0901	0.0964	0.5533	-0.0435	1.7127	-1.1097	0.3264	-0.3916	0.4818	-1.1314	3.4191	1.5728
0.7833	0.2766	0.9449	-0.1119	-0.1368	0.4662	0.1554	-0.575	0.2238	0.5471	-0.4849	-0.028	0.0839	0.5377	0.1803	1.551	-1.0724	0.2984	-0.3481	0.4662	-1.1034	3.3041	1.5883
0.8206	0.2331	0.9822	0.028	-0.1305	0.5346	0.202	-0.5315	0.2984	0.5906	-0.4383	-0.0155	0.115	0.4942	0.4165	1.3459	-1.0164	0.2611	-0.3015	0.4103	-1.0537	3.0461	1.5604
0.7988	0.1865	1.0382	0.1834	-0.1305	0.6123	0.2829	-0.4631	0.3916	0.6279	-0.3637	0.0528	0.1337	0.4756	0.6434	1.1811	-0.9729	0.2487	-0.2083	0.3885	-0.9884	2.4928	1.5386
0.8548	0.143	1.1221	0.373	-0.1057	0.718	0.401	-0.4041	0.4725	0.718	-0.2953	0.1181	0.171	0.4569	0.8983	1.0257	-0.92	0.2424	-0.1461	0.3792	-0.9418	1.75	1.4858
0.8454	0.0591	1.1376	0.5098	-0.1119	0.7771	0.4818	-0.3512	0.5657	0.8019	-0.2362	0.171	0.202	0.4134	1.1501	0.8019	-0.8361	0.2145	-0.0777	0.3699	-0.889	0.8082	1.436
0.8486	0.0062	1.2309	0.6776	-0.0715	0.8641	0.5906	-0.2953	0.6434	0.8641	-0.1647	0.2424	0.2362	0.3699	1.3645	0.6372	-0.7615	0.2269	0.0249	0.3512	-0.8175	-0.1989	1.3739
0.8517	-0.0186	1.2713	0.8392	-0.0497	0.9449	0.6776	-0.23	0.7304	0.92	-0.115	0.2766	0.2487	0.3295	1.5883	0.4569	-0.6776	0.2083	0.0901	0.317	-0.7677	-1.1843	1.321
0.8703	-0.0622	1.3366	1.0102	-0.0124	1.0568	0.805	-0.1678	0.8206	1.0133	0.0031	0.3575	0.3264	0.2829	1.7997	0.2953	-0.5875	0.2145	0.1772	0.3015	-0.6994	-1.8867	1.2961
0.8983	-0.0653	1.408	1.1718	0.0186	1.1501	0.9138	-0.0684	0.9511	1.0941	0.0684	0.4569	0.3885	0.2487	2.0048	0.143	-0.5098	0.2487	0.2393	0.3233	-0.6217	-2.2535	1.2806
0.9294	-0.0839	1.464	1.3148	0.0964	1.2589	1.0195	0.0093	1.0506	1.1718	0.1492	0.5253	0.4507	0.1958	2.1696	-0.0031	-0.4103	0.2766	0.3326	0.3326	-0.5564	-2.1758	1.2868
0.9636	-0.0404	1.5448	1.4329	0.1616	1.3397	1.0786	0.1119	1.1594	1.234	0.2269	0.5999	0.4569	0.1678	2.3436	-0.1088	-0.345	0.3015	0.4072	0.3823	-0.4662	-1.7095	1.321
0.9946	-0.0342	1.6039	1.5417	0.2393	1.408	1.1159	0.1741	1.2557	1.2993	0.3233	0.6869	0.5004	0.1212	2.4618	-0.2207	-0.2673	0.3077	0.5129	0.4538	-0.3979	-0.9107	1.3707
1.0133	-0.0031	1.6443	1.5883	0.2984	1.5013	1.1563	0.2704	1.349	1.3428	0.4041	0.7771	0.5191	0.0995	2.5736	-0.317	-0.2207	0.3699	0.5906	0.5222	-0.3357	0.0311	1.436
1.0257	0.0093	1.6723	1.6287	0.345	1.5293	1.1407	0.3357	1.408	1.3521	0.4818	0.8082	0.5222	0.0808	2.6389	-0.4165	-0.1741	0.3792	0.6092	0.5812	-0.2797	0.9573	1.4951
1.0319	0.0373	1.7127	1.6039	0.4196	1.5883	1.1065	0.3854	1.4422	1.3521	0.5222	0.8268	0.5098	0.0591	2.6855	-0.5066	-0.1368	0.3668	0.6527	0.6154	-0.2362	1.8246	1.5977
1.0506	0.0559	1.7127	1.6225	0.4911	1.6101	1.0755	0.4507	1.4795	1.3397	0.5626	0.8734	0.5004	0.0497	2.726	-0.5719	-0.1243	0.3637	0.7118	0.6994	-0.2176	2.5643	1.7064
1.0195	0.0964	1.7127	1.607	0.5377	1.6101	1.0102	0.5004	1.4982	1.321	0.5844	0.8703	0.4445	0.0373	2.7073	-0.5968	-0.1181	0.3637	0.7367	0.7429	-0.2145	3.1984	1.8277
1.0351	0.1585	1.7033	1.5759	0.5875	1.6163	0.9511	0.516	1.5013	1.2651	0.5844	0.8796	0.401	0.0528	2.67	-0.6092	-0.1337	0.3264	0.7615	0.7553	-0.2176	3.6553	1.9675
1.0257	0.1741	1.7033	1.5666	0.6372	1.5883	0.8827	0.5191	1.464	1.2122	0.5564	0.8144	0.3264	0.0311	2.5736	-0.6248	-0.0901	0.2735	0.7242	0.7118	-0.2766	3.8698	2.1261
1.0195	0.2766	1.6785	1.5852	0.6745	1.5852	0.8796	0.5408	1.4702	1.1936	0.5315	0.7864	0.2549	0.0342	2.4618	-0.5906	-0.0995	0.2207	0.6869	0.7304	-0.317	3.7797	2.3001
1.0319	0.3046	1.6629	1.5728	0.7056	1.5635	0.861	0.5191	1.4112	1.1097	0.4942	0.7242	0.1772	0.0093	2.3219	-0.6092	-0.0528	0.1616	0.6061	0.6963	-0.3637	3.4191	2.4897
1.0351	0.3543	1.635	1.6008	0.7149	1.5324	0.8641	0.4942	1.3925	1.0879	0.4352	0.6963	0.115	0.0031	2.1727	-0.5688	-0.0404	0.115	0.5471	0.6496	-0.4383	2.8347	2.6327
1.0444	0.4227	1.6225	1.635	0.7709	1.5013	0.9138	0.488	1.3583	1.0288	0.3606	0.6061	0.0342	0.0031	2.0048	-0.5377	-0.0155	0.028	0.4973	0.6123	-0.4818	2.1354	2.7539
1.0444	0.4476	1.5821	1.6318	0.7646	1.4516	0.9605	0.46	1.2993	1.0009	0.3015	0.5346	-0.0466	-0.028	1.8152	-0.5191	0.0249	-0.0155	0.4227	0.5812	-0.5471	1.4236	2.8472
1.0257	0.4414	1.5199	1.6194	0.7273	1.3863	1.0133	0.4072	1.2216	0.9542	0.2238	0.4849	-0.1026	-0.028	1.6194	-0.4818	0.0715	-0.0995	0.3419	0.488	-0.6372	0.948	2.9218
0.9729	0.4165	1.4578	1.5852	0.69	1.3303	1.0382	0.373	1.1656	0.92	0.1243	0.4103	-0.1647	-0.0746	1.4391	-0.5004	0.1212	-0.1523	0.2766	0.4165	-0.7087	0.7646	2.9715
0.9169	0.3979	1.4143	1.5417	0.6621	1.2868	1.0661	0.3264	1.1097	0.9107	0.0777	0.345	-0.2051	-0.0901	1.2744	-0.5004	0.1647	-0.2114	0.2207	0.3575	-0.7584	0.8361	2.9715
0.8703	0.3139	1.3428	1.4733	0.6279	1.2216	1.0972	0.2829	1.0475	0.8827	-0.0218	0.2984	-0.2549	-0.1212	1.1065	-0.5129	0.2238	-0.258	0.1523	0.2829	-0.8268	1.1252	2.9311
0.805	0.258	1.2744	1.408	0.5377	1.1687	1.1314	0.2238	0.9915	0.8517	-0.1119	0.2393	-0.3046	-0.1368	0.9387	-0.4973	0.2766	-0.3326	0.1088	0.2051	-0.8579	1.5821	2.9031
0.774	0.2114	1.2247	1.3832	0.4973	1.1128	1.1749	0.1834	0.9573	0.8361	-0.171	0.202	-0.3139	-0.1741	0.8237	-0.5004	0.3202	-0.3512	0.0528	0.1678	-0.889	1.9955	2.8192
0.7273	0.1616	1.1905	1.3614	0.4787	1.0599	1.1936	0.1616	0.9107	0.8672	-0.2362	0.2083	-0.3326	-0.1803	0.7336	-0.4942	0.3512	-0.3575	0.0186	0.0995	-0.9107	2.3126	2.7446
0.6683	0.0964	1.1314	1.2899	0.4196	1.0288	1.2091	0.1119	0.8827	0.8486	-0.2797	0.1741	-0.3357	-0.2145	0.6527	-0.4911	0.4041	-0.3854	-0.0497	0.0435	-0.9387	2.4555	2.6669
0.6279	0.0591	1.0941	1.2464	0.3948	1.0102	1.206	0.0528	0.8361	0.8299	-0.3543	0.1616	-0.3637	-0.2362	0.5906	-0.4569	0.4538	-0.4165	-0.0559	-0.0031	-0.9729	2.4773	2.5736
0.575	0.028	1.0661	1.1718	0.3761	0.9698	1.1625	0.0031	0.8268	0.8361	-0.4134	0.1678	-0.345	-0.2642	0.5533	-0.4383	0.488	-0.3979	-0.0932	-0.0684	-0.9667	2.3934	2.5208
0.516	-0.0218	1.0009	1.0972	0.3233	0.9263	1.1221	-0.0497	0.7957	0.7833	-0.4693	0.1523	-0.3606	-0.2735	0.5222	-0.3761	0.5222	-0.432	-0.1212	-0.0932	-0.9729	2.1509	2.4524
0.4538	-0.0466	0.9698	1.0133	0.2797	0.9107	1.091	-0.1088	0.7491	0.7709	-0.5253	0.143	-0.3823	-0.2673	0.5098	-0.3046	0.5253	-0.4196	-0.1927	-0.1181	-1.004	1.6816	2.3872
0.3854	-0.087	0.9387	0.9076	0.2362	0.8641	1.0226	-0.1585	0.7336	0.746	-0.5968	0.1305	-0.3885	-0.2829	0.5222	-0.2829	0.5377	-0.4258	-0.2238	-0.1678	-1.0133	1.0319	2.2939
0.317	-0.1368	0.889	0.8113	0.1896	0.8361	0.9978	-0.2207	0.6994	0.7304	-0.6465	0.1212	-0.3979	-0.286	0.4942	-0.2145	0.5533	-0.4103	-0.2891	-0.1647	-1.0444	0.1927	2.1727
0.2238	-0.1958	0.8206	0.746	0.1492	0.8082	0.9356	-0.2953	0.6652	0.7056	-0.7429	0.1368	-0.3699	-0.286	0.4942	-0.1896	0.5377	-0.4103	-0.3419	-0.1834	-1.0599	-0.718	2.0079
0.1181	-0.2922	0.7584	0.6527	0.0932	0.7615	0.889	-0.3885	0.6185	0.6621	-0.8082	0.1119	-0.4134	-0.2642	0.4942	-0.143	0.5191	-0.3948	-0.4134	-0.2269	-1.119	-1.6412	1.8681
0.0093	-0.401	0.6776	0.5439	0.0435	0.7242	0.8019	-0.5066	0.5781	0.6652	-0.8921	0.0964	-0.3979	-0.2549	0.4942	-0.0995	0.4818	-0.4103	-0.488	-0.2331	-1.1532	-2.3467	1.7468
-0.115	-0.516	0.5719	0.3823	-0.0497	0.6465	0.7087	-0.6061	0.516	0.5968	-0.9729	0.0528	-0.4227	-0.2424	0.4911	-0.0839	0.4538	-0.3761	-0.6061	-0.2549	-1.2278	-2.7664	1.635
-0.2549	-0.631	0.4569	0.2549	-0.1492	0.5781	0.603	-0.7429	0.4352	0.5688	-1.0879	0	-0.4569	-0.2176	0.4849	-0.0249	0.4041	-0.3916	-0.7149	-0.3015	-1.2993	-2.8254	1.5479
-0.4103	-0.7336	0.3668	0.0901	-0.2331	0.5315	0.4756	-0.8703	0.3637	0.5004	-1.1811	-0.0186	-0.4538	-0.1834	0.5315	-0.0186	0.345	-0.3699	-0.8268	-0.3046	-1.3894	-2.5488	1.4609
-0.5657	-0.8983	0.2487	-0.0995	-0.317	0.4165	0.345	-0.9418	0.2797	0.4662	-1.2464	-0.0715	-0.4631	-0.1399	0.575	0	0.2611	-0.3575	-0.889	-0.3108	-1.4112	-1.9738	1.4049
-0.7025	-1.0661	0.1057	-0.2704	-0.3948	0.3419	0.2238	-1.0786	0.1834	0.373	-1.3179	-0.0932	-0.5004	-0.1088	0.6527	0.0155	0.1927	-0.3668	-0.9915	-0.3046	-1.4826	-1.349	1.3552
-0.8486	-1.1874	0.0031	-0.4414	-0.4849	0.3015	0.0995	-1.1687	0.1337	0.3077	-1.3863	-0.1274	-0.5346	-0.0497	0.7025	0.0497	0.0901	-0.3792	-1.0568	-0.2735	-1.5199	-0.6994	1.3086
-0.9946	-1.3148	-0.0932	-0.6092	-0.5812	0.2456	-0.0373	-1.2775	0.0715	0.2114	-1.4453	-0.1616	-0.5719	-0.0155	0.7677	0.0466	0.0124	-0.3823	-1.0972	-0.2797	-1.5448	-0.1834	1.2868
-1.1345	-1.4298	-0.202	-0.718	-0.6248	0.1958	-0.1834	-1.3241	0.0155	0.1337	-1.4453	-0.1678	-0.5875	0.0404	0.8361	0.087	-0.087	-0.3761	-1.0848	-0.2424	-1.5541	0.2704	1.3024
-1.2309	-1.5075	-0.2922	-0.8268	-0.6838	0.1896	-0.3015	-1.3739	-0.028	0.0373	-1.4547	-0.1896	-0.6248	0.0901	0.9169	0.0964	-0.1896	-0.3637	-1.1128	-0.2114	-1.5604	0.5875	1.3055
-1.3303	-1.5355	-0.3512	-0.9138	-0.7056	0.1554	-0.4072	-1.4143	-0.0653	-0.0559	-1.4422	-0.1989	-0.6372	0.1305	0.976	0.1337	-0.2984	-0.3419	-1.1159	-0.1523	-1.5293	0.7646	1.349
-1.3614	-1.5137	-0.3512	-0.9356	-0.6807	0.1647	-0.4973	-1.408	-0.0591	-0.1088	-1.4112	-0.1585	-0.6403	0.1834	1.0288	0.1896	-0.3823	-0.3264	-1.0599	-0.0808	-1.5137	0.7833	1.4391
-1.3956	-1.4578	-0.3388	-0.948	-0.6217	0.2051	-0.5564	-1.3832	-0.0528	-0.1741	-1.3397	-0.1274	-0.6154	0.2207	1.0568	0.2114	-0.4756	-0.2829	-0.9915	0.0062	-1.4236	0.6279	1.5106
-1.4049	-1.3707	-0.3512	-0.9325	-0.5471	0.2766	-0.5812	-1.3024	0.0031	-0.1989	-1.2402	-0.0653	-0.603	0.2735	1.0879	0.2673	-0.5564	-0.2145	-0.8796	0.0839	-1.3676	0.2331	1.6194
-1.3614	-1.262	-0.3326	-0.8703	-0.4569	0.3295	-0.5781	-1.234	0.0342	-0.2145	-1.1407	-0.0124	-0.5533	0.2922	1.091	0.2891	-0.6123	-0.143	-0.7895	0.1741	-1.2526	-0.2984	1.6971
-1.321	-1.1252	-0.258	-0.7864	-0.3481	0.3885	-0.5626	-1.1345	0.1026	-0.2083	-0.9884	0.0777	-0.5284	0.3108	1.0599	0.3543	-0.6496	-0.0653	-0.6403	0.2549	-1.1314	-0.9605	1.7997
-1.2775	-0.9915	-0.2051	-0.6963	-0.2331	0.4787	-0.5191	-1.0413	0.1803	-0.171	-0.8579	0.1554	-0.4445	0.3108	1.0226	0.3668	-0.659	0.0155	-0.5222	0.3233	-0.9884	-1.6225	1.8836
-1.1998	-0.8299	-0.1274	-0.5626	-0.115	0.5875	-0.4258	-0.9138	0.2922	-0.1554	-0.6869	0.2611	-0.4041	0.3202	0.976	0.3606	-0.6527	0.0839	-0.373	0.3699	-0.8361	-2.0577	1.952
-1.1065	-0.6558	-0.0311	-0.3823	0.0342	0.7211	-0.3077	-0.7677	0.3948	-0.0839	-0.4787	0.3699	-0.2953	0.2953	0.9573	0.3264	-0.6341	0.1927	-0.2238	0.4693	-0.6558	-2.2504	2.0297
-0.9915	-0.4662	0.0964	-0.2331	0.1834	0.8454	-0.202	-0.5999	0.516	-0.0218	-0.2891	0.4756	-0.2238	0.286	0.9387	0.2487	-0.5875	0.2549	-0.0715	0.5253	-0.4942	-2.1136	2.0732
-0.9138	-0.2797	0.202	-0.0777	0.3481	0.9884	-0.0746	-0.4507	0.659	0.0249	-0.0932	0.6217	-0.143	0.2393	0.9263	0.1337	-0.5098	0.3015	0.0559	0.5657	-0.3326	-1.6847	2.1043
-0.8144	-0.0964	0.3357	0.0591	0.5098	1.1221	0.0497	-0.258	0.7895	0.0746	0.1274	0.7273	-0.0715	0.2051	0.92	-0.0093	-0.432	0.3792	0.23	0.6372	-0.1523	-1.0537	2.1229
-0.6838	0.1523	0.4569	0.1834	0.7056	1.2682	0.171	-0.0964	0.9014	0.1368	0.3699	0.8548	0.0062	0.171	0.9076	-0.1119	-0.3761	0.4165	0.3823	0.6652	0.0466	-0.3357	2.1416
-0.5595	0.3357	0.5875	0.3046	0.9014	1.4112	0.2611	0.0995	1.0319	0.2238	0.5719	1.0009	0.0839	0.1274	0.8859	-0.2393	-0.2766	0.4258	0.5066	0.6558	0.2083	0.2922	2.1447
-0.4818	0.5284	0.6652	0.3481	1.0537	1.5137	0.3419	0.2518	1.1438	0.2704	0.7957	1.119	0.1274	0.0622	0.8548	-0.3419	-0.1585	0.4258	0.6217	0.6496	0.3295	0.7833	2.1354
-0.3761	0.6838	0.805	0.4507	1.2153	1.6225	0.4289	0.4134	1.262	0.3512	1.0102	1.2651	0.2145	0.0155	0.8144	-0.432	-0.0435	0.4538	0.7584	0.6372	0.5004	1.1345	2.1136
-0.2797	0.8423	0.8921	0.5315	1.3645	1.7313	0.5129	0.575	1.3863	0.4569	1.2526	1.4049	0.3139	-0.0528	0.7646	-0.4973	0.0777	0.46	0.8517	0.603	0.6496	1.321	2.0825
-0.1865	1.0133	1.0009	0.5626	1.5199	1.8308	0.5875	0.7398	1.4889	0.5533	1.4951	1.5666	0.4196	-0.1212	0.718	-0.6061	0.2145	0.4693	0.9636	0.5346	0.8299	1.3148	2.0079
-0.1088	1.1003	1.1003	0.631	1.6878	1.9147	0.6683	0.9014	1.6101	0.6496	1.722	1.7375	0.5004	-0.1678	0.6496	-0.6807	0.3108	0.4414	1.0755	0.4569	0.9853	1.0786	1.9489
-0.0466	1.2433	1.2153	0.6714	1.7904	1.9955	0.7336	1.0568	1.7158	0.7677	1.9769	1.9023	0.631	-0.2331	0.5844	-0.7367	0.4289	0.4134	1.206	0.3948	1.1501	0.5719	1.8619
0.0528	1.3801	1.293	0.7025	1.9116	2.0732	0.805	1.2278	1.8432	0.92	2.2162	2.0981	0.7709	-0.2642	0.5004	-0.7864	0.516	0.3979	1.3148	0.3233	1.2993	-0.1741	1.7531
0.1057	1.4889	1.3801	0.7242	2.0359	2.1292	0.8827	1.3583	1.9365	1.0475	2.4555	2.269	0.8921	-0.3139	0.4352	-0.8921	0.6092	0.3512	1.4422	0.2518	1.4236	-1.1314	1.6132
0.1647	1.5914	1.4485	0.7336	2.154	2.1975	0.9667	1.5231	2.0515	1.1811	2.7166	2.4928	1.0537	-0.3543	0.3543	-0.889	0.6838	0.3295	1.5137	0.1927	1.6132	-2.1261	1.4578
0.2114	1.666	1.4951	0.7336	2.2411	2.2348	1.0351	1.6785	2.182	1.3024	2.9808	2.6887	1.2091	-0.401	0.2424	-0.9045	0.7615	0.2922	1.6163	0.1181	1.7904	-3.0057	1.3148
0.2145	1.7189	1.5199	0.7273	2.3281	2.2442	1.0972	1.781	2.2784	1.4174	3.2046	2.9218	1.3303	-0.4445	0.1057	-0.889	0.8548	0.2083	1.7095	0.0497	1.9489	-3.6491	1.1532
0.2114	1.7935	1.5541	0.6838	2.3872	2.2753	1.1532	1.9147	2.3809	1.5448	3.4782	3.1549	1.4733	-0.4756	0.0218	-0.9418	0.948	0.1399	1.7997	-0.0062	2.1074	-3.9941	1.0133
0.2393	1.8556	1.5914	0.6652	2.4866	2.3001	1.2309	2.0608	2.5053	1.6754	3.7113	3.3818	1.6381	-0.5408	-0.087	-0.9729	1.0568	0.0746	1.8681	-0.1026	2.2348	-3.9817	0.8703
0.1896	1.8743	1.5728	0.6527	2.5332	2.2753	1.2247	2.1447	2.5799	1.7531	3.9506	3.6118	1.7624	-0.6092	-0.1865	-1.0661	1.1905	-0.0031	1.9489	-0.1865	2.384	-3.7175	0.746
0.171	1.9054	1.5821	0.6403	2.6109	2.297	1.3086	2.3001	2.6918	1.8774	4.19	3.8853	1.952	-0.6745	-0.2704	-1.1283	1.3179	-0.0311	2.0204	-0.2549	2.555	-3.2699	0.6341
0.1803	1.9054	1.5852	0.6558	2.642	2.2877	1.3552	2.3965	2.8192	2.0111	4.4448	4.1402	2.1136	-0.746	-0.3512	-1.2184	1.436	-0.0653	2.1198	-0.3512	2.7197	-2.8285	0.5471
0.1088	1.8992	1.5541	0.6372	2.6949	2.2939	1.4329	2.5053	2.8845	2.0919	4.6748	4.3764	2.2721	-0.7957	-0.4227	-1.2993	1.5635	-0.1274	2.1882	-0.4134	2.8503	-2.4369	0.4662
0.0715	1.9085	1.5541	0.6496	2.7228	2.3001	1.4982	2.6203	3.0057	2.2193	4.9173	4.6593	2.468	-0.8392	-0.5004	-1.3428	1.6536	-0.1274	2.297	-0.4725	3.0212	-2.1758	0.3948
-0.0124	1.8681	1.4951	0.5875	2.7446	2.2908	1.5137	2.7011	3.0958	2.3001	5.1224	4.9017	2.642	-0.8921	-0.5781	-1.4112	1.7593	-0.1585	2.3623	-0.5284	3.1673	-2.0546	0.3357
-0.0653	1.8556	1.4702	0.575	2.7974	2.3001	1.5821	2.8223	3.214	2.4182	5.3183	5.1566	2.8254	-0.9169	-0.6465	-1.3707	1.8121	-0.1399	2.4307	-0.5657	3.301	-2.0266	0.2953
-0.1305	1.8463	1.4236	0.5066	2.8068	2.2784	1.5821	2.8689	3.2886	2.5177	5.5203	5.4457	3.043	-0.9573	-0.7211	-1.3863	1.8743	-0.1492	2.4866	-0.6217	3.4284	-2.1696	0.3015
-0.2487	1.7841	1.3459	0.4538	2.8037	2.2442	1.5759	2.9342	3.3663	2.5674	5.6912	5.6912	3.2171	-0.9915	-0.8019	-1.3739	1.924	-0.1181	2.5177	-0.6714	3.5652	-2.5457	0.2704
-0.3575	1.7313	1.2464	0.345	2.7881	2.1975	1.5728	2.9964	3.444	2.6172	5.8871	5.9461	3.4067	-0.9946	-0.8392	-1.3614	1.952	-0.087	2.5799	-0.6807	3.6988	-3.1331	0.2642
-0.5098	1.6629	1.147	0.2456	2.7881	2.1571	1.5448	3.0523	3.5434	2.6669	6.0891	6.1886	3.5901	-1.004	-0.8952	-1.3334	1.9862	-0.0342	2.6109	-0.69	3.8014	-3.8729	0.2829
-0.6403	1.6008	1.0692	0.171	2.8068	2.1447	1.5324	3.1735	3.6211	2.7508	6.3067	6.487	3.8107	-1.0071	-0.9418	-1.2868	1.9893	0.0342	2.6731	-0.7025	3.9506	-4.6873	0.2891
-0.774	1.5262	0.9946	0.087	2.8347	2.1198	1.5448	3.2326	3.7393	2.8441	6.5243	6.7791	4.0656	-1.0164	-0.9884	-1.2402	2.0048	0.1585	2.698	-0.69	4.1154	-5.5234	0.2797
-0.9263	1.4516	0.9076	0.0093	2.8441	2.1043	1.5262	3.329	3.848	2.9311	6.7543	7.09	4.3423	-1.0288	-1.0195	-1.2402	2.0266	0.2704	2.7508	-0.69	4.3112	-6.1233	0.2829
-1.0537	1.3645	0.8206	-0.0808	2.8658	2.1136	1.4889	3.4346	3.9879	3.0368	6.9998	7.4257	4.6065	-1.0351	-1.063	-1.2029	2.0515	0.4258	2.8099	-0.6745	4.5163	-6.4652	0.2829
-1.1843	1.3148	0.7149	-0.1337	2.8845	2.1136	1.4671	3.5869	4.1278	3.1642	7.2578	7.7458	4.908	-1.0568	-1.1097	-1.1811	2.0794	0.5875	2.9156	-0.6745	4.7277	-6.3657	0.258
-1.3148	1.2309	0.6931	-0.202	2.9187	2.1167	1.4329	3.6895	4.2708	3.2948	7.5158	8.0846	5.2374	-1.0661	-1.1563	-1.1811	2.1012	0.7833	2.9715	-0.6745	4.9608	-5.9523	0.2424
-1.4018	1.1749	0.6061	-0.2611	2.9435	2.1229	1.3614	3.8294	4.4169	3.4409	7.78	8.4141	5.5452	-1.0817	-1.234	-1.1438	2.1385	0.9822	3.0803	-0.6931	5.2188	-5.2312	0.2797
-1.5199	1.0972	0.5315	-0.3202	2.9777	2.1385	1.3272	3.932	4.5319	3.5248	8.0287	8.7187	5.8404	-1.1003	-1.3521	-1.1003	2.1913	1.1718	3.1362	-0.6745	5.4426	-4.392	0.3233
-1.6101	1.0475	0.4973	-0.401	2.9964	2.1416	1.2184	4.0812	4.6842	3.674	8.2991	9.0513	6.1513	-1.1314	-1.4329	-1.0972	2.2193	1.4112	3.2295	-0.6931	5.6664	-3.5776	0.345
-1.6816	1.0009	0.4352	-0.4849	3.0461	2.1851	1.1345	4.2148	4.8365	3.8325	8.5477	9.3497	6.4963	-1.1594	-1.5697	-1.0848	2.2753	1.6505	3.3103	-0.6745	5.915	-2.8316	0.4258
-1.7748	0.9667	0.3668	-0.5471	3.0554	2.2007	1.0382	4.3081	4.9328	3.9071	8.7622	9.6201	6.7574	-1.1811	-1.7033	-1.0724	2.3281	1.8401	3.3756	-0.7149	6.1357	-2.2473	0.4973
-1.837	0.92	0.3388	-0.6092	3.0834	2.21	0.9325	4.3889	5.0509	3.9972	8.9736	9.8812	7.0309	-1.2122	-1.8712	-1.1221	2.3872	2.039	3.4657	-0.7304	6.3502	-1.8183	0.5533
-1.9085	0.8952	0.2829	-0.6372	3.0927	2.21	0.8486	4.4883	5.1442	4.0843	9.1787	10.1112	7.3107	-1.2495	-2.0204	-1.1843	2.4462	2.2317	3.503	-0.7491	6.5336	-1.551	0.6123
-1.9427	0.8517	0.2549	-0.6558	3.0834	2.2193	0.7988	4.5536	5.2561	4.1806	9.3372	10.3008	7.55	-1.2682	-2.1602	-1.2651	2.4866	2.4058	3.5683	-0.7802	6.7481	-1.5386	0.6434
-2.0484	0.7802	0.1741	-0.6994	3.0648	2.2131	0.7584	4.5598	5.3089	4.249	9.4585	10.4531	7.7427	-1.3055	-2.2939	-1.3925	2.5674	2.5581	3.5838	-0.8299	6.891	-1.7779	0.6621
-2.1074	0.6931	0.1181	-0.7367	2.9902	2.1571	0.6838	4.5754	5.3431	4.2863	9.5797	10.5712	7.9354	-1.3366	-2.4182	-1.5448	2.6389	2.6607	3.6522	-0.9107	7.0216	-2.3001	0.6931
-2.1789	0.6092	0.0559	-0.7833	2.9125	2.1323	0.6527	4.5598	5.3618	4.3329	9.6263	10.6334	8.0784	-1.3707	-2.5301	-1.722	2.7104	2.7384	3.646	-0.9978	7.1428	-3.015	0.6963
-2.2535	0.5066	-0.0062	-0.8423	2.8503	2.1167	0.6279	4.5536	5.4084	4.3796	9.6854	10.6862	8.2245	-1.3956	-2.642	-1.865	2.785	2.8254	3.6491	-1.0755	7.2174	-3.8636	0.7087
-2.325	0.3979	-0.0466	-0.9045	2.7726	2.1074	0.5968	4.5163	5.4115	4.4137	9.7258	10.7298	8.3271	-1.4267	-2.7073	-2.0421	2.841	2.9187	3.646	-1.147	7.3107	-4.7028	0.7118
-2.3872	0.2891	-0.1212	-0.9573	2.7011	2.067	0.5533	4.5008	5.4395	4.4169	9.7227	10.7298	8.4421	-1.4671	-2.7695	-2.182	2.9031	2.9684	3.6833	-1.1843	7.3884	-5.3369	0.69
-2.4711	0.1741	-0.1834	-1.0661	2.6141	2.0079	0.4849	4.4386	5.4022	4.4386	9.6729	10.6862	8.5073	-1.492	-2.8161	-2.3157	2.9591	3.0057	3.6491	-1.262	7.3853	-5.6881	0.6807
-2.5177	0.0715	-0.2393	-1.1345	2.5332	1.9893	0.4445	4.4075	5.3929	4.4324	9.6574	10.652	8.5571	-1.5106	-2.8379	-2.4307	3.0026	3.0461	3.6429	-1.2868	7.4257	-5.6912	0.69
-2.5923	-0.0062	-0.3015	-1.2153	2.4431	1.9458	0.3699	4.3454	5.3462	4.42	9.6015	10.5712	8.5882	-1.5386	-2.8441	-2.527	3.0399	3.0834	3.618	-1.3521	7.3946	-5.3742	0.6776
-2.642	-0.0964	-0.3326	-1.293	2.3685	1.8836	0.3295	4.2614	5.3245	4.3858	9.502	10.4438	8.5944	-1.5541	-2.8752	-2.5705	3.0648	3.0896	3.531	-1.3801	7.3604	-4.8396	0.659
-2.7166	-0.1927	-0.3606	-1.3459	2.269	1.8774	0.2953	4.2148	5.2716	4.3702	9.387	10.3412	8.5975	-1.5541	-2.872	-2.6172	3.0616	3.1052	3.4813	-1.408	7.3013	-4.2397	0.6372
-2.7539	-0.2922	-0.4041	-1.4018	2.1944	1.8183	0.2487	4.1278	5.2188	4.3267	9.2471	10.1889	8.5384	-1.5386	-2.8565	-2.642	3.0461	3.1176	3.3632	-1.4236	7.2081	-3.7299	0.603
-2.8192	-0.4134	-0.4352	-1.4485	2.0639	1.7562	0.2238	4.0003	5.1349	4.2614	9.1072	9.9993	8.5011	-1.5293	-2.8534	-2.6172	3.0368	3.1331	3.2295	-1.4174	7.0962	-3.3196	0.5875
-2.8845	-0.5688	-0.4911	-1.5168	1.952	1.7095	0.202	3.904	5.0074	4.1931	8.8959	9.7973	8.3706	-1.5199	-2.841	-2.5954	3.0088	3.1238	3.1331	-1.3925	6.9252	-3.0554	0.5408
-2.9497	-0.7211	-0.5408	-1.6008	1.8183	1.6505	0.1554	3.7299	4.8986	4.1122	8.6565	9.5548	8.2618	-1.492	-2.8347	-2.5457	2.9653	3.1207	2.9777	-1.3894	6.717	-2.9093	0.5098
-2.9964	-0.8517	-0.5626	-1.6163	1.7127	1.5977	0.1274	3.646	4.8209	4.0687	8.4607	9.3217	8.1499	-1.4733	-2.8285	-2.4524	2.9031	3.1487	2.8441	-1.3521	6.5305	-2.8969	0.4725
-3.0088	-0.9915	-0.5657	-1.6598	1.5604	1.5604	0.1119	3.4968	4.6873	3.9817	8.2152	9.073	7.9945	-1.4453	-2.8503	-2.3405	2.8472	3.1176	2.6793	-1.2837	6.2974	-3.1083	0.4289
-3.0492	-1.119	-0.5812	-1.6971	1.4609	1.4951	0.0995	3.3321	4.5598	3.9226	7.9696	8.8026	7.8608	-1.4205	-2.8379	-2.1975	2.7788	3.1238	2.5457	-1.234	6.0673	-3.5621	0.4165
-3.0212	-1.2278	-0.5533	-1.6785	1.349	1.4982	0.1212	3.2295	4.479	3.8574	7.7085	8.5571	7.7023	-1.3739	-2.8285	-2.0204	2.698	3.1269	2.3996	-1.1407	5.8187	-4.2117	0.4041
-3.0181	-1.3272	-0.5253	-1.6816	1.2899	1.4858	0.1585	3.0679	4.3764	3.8107	7.4381	8.2929	7.5313	-1.3179	-2.8192	-1.8401	2.6016	3.1145	2.2659	-1.0506	5.5514	-5.0261	0.4352
-2.9746	-1.4049	-0.4693	-1.6443	1.1998	1.5013	0.23	2.9404	4.2801	3.8045	7.1646	8.0349	7.3821	-1.262	-2.7757	-1.6474	2.4928	3.1394	2.1261	-0.9449	5.2903	-5.8591	0.4787
-2.9622	-1.5044	-0.4476	-1.6163	1.1097	1.5075	0.286	2.7881	4.1589	3.7734	6.8879	7.7365	7.2392	-1.2122	-2.7788	-1.4485	2.3903	3.1176	1.9924	-0.889	4.9981	-6.5895	0.5408
-2.9622	-1.6163	-0.4134	-1.6163	1.004	1.4764	0.3233	2.6109	4.0221	3.7424	6.5647	7.4163	7.0216	-1.1501	-2.7104	-1.2961	2.2784	3.071	1.8401	-0.8082	4.6655	-7.0651	0.6123
-2.9373	-1.6785	-0.3543	-1.5945	0.9387	1.4982	0.4103	2.4338	3.932	3.7113	6.2321	7.1242	6.832	-1.0972	-2.6669	-1.1501	2.1665	3.0492	1.7282	-0.7087	4.3454	-7.1739	0.7025
-2.8907	-1.7437	-0.2922	-1.6039	0.8703	1.5262	0.5035	2.297	3.8232	3.6802	5.8933	6.7947	6.6299	-1.0288	-2.583	-0.9978	2.0266	3.0212	1.5883	-0.603	4.0159	-6.9346	0.805
-2.8503	-1.7966	-0.2269	-1.5697	0.7709	1.5541	0.5719	2.1261	3.7051	3.6895	5.5731	6.4901	6.4124	-0.9791	-2.4835	-0.8703	1.9147	2.9995	1.4578	-0.5035	3.6833	-6.4248	0.9107
-2.8037	-1.8308	-0.1461	-1.551	0.7242	1.5759	0.6496	1.9365	3.6025	3.674	5.2281	6.1824	6.2041	-0.92	-2.3561	-0.8082	1.7935	2.9622	1.3179	-0.3916	3.3507	-5.7876	1.0071
-2.7228	-1.8432	-0.0373	-1.4858	0.6558	1.635	0.774	1.7748	3.4937	3.6678	4.9049	5.8746	5.9865	-0.8486	-2.2504	-0.6496	1.6754	2.9342	1.1936	-0.2549	2.9995	-5.1193	1.0941
-2.6296	-1.8277	0.0684	-1.3987	0.603	1.6754	0.8641	1.6474	3.4191	3.6584	4.5754	5.5483	5.7721	-0.805	-2.0888	-0.6279	1.5728	2.8783	1.091	-0.1305	2.6451	-4.5847	1.1811
-2.5146	-1.7593	0.2393	-1.2589	0.5937	1.7686	1.0071	1.4609	3.2948	3.6584	4.2521	5.2499	5.5327	-0.7398	-1.9458	-0.603	1.4671	2.7974	0.976	-0.0466	2.2784	-4.2024	1.2589
-2.353	-1.6816	0.401	-1.1065	0.6185	1.8867	1.1563	1.3366	3.2575	3.6584	3.9475	4.9639	5.3058	-0.69	-1.8059	-0.5284	1.3676	2.6887	0.8268	0.0435	1.9271	-3.9257	1.3366
-2.1696	-1.5168	0.6123	-0.8765	0.7087	2.0297	1.3334	1.293	3.2544	3.7144	3.6988	4.7432	5.1442	-0.6496	-1.6256	-0.4973	1.2589	2.6389	0.7802	0.1834	1.6412	-3.7517	1.4236
-1.9706	-1.349	0.8517	-0.6714	0.7926	2.1696	1.5075	1.2247	3.2388	3.7641	3.4533	4.5132	4.9328	-0.6123	-1.5044	-0.4662	1.1874	2.5581	0.6869	0.2673	1.321	-3.7206	1.4858
-1.7282	-1.1221	1.1034	-0.3792	0.9263	2.3561	1.7033	1.1749	3.2606	3.8201	3.2419	4.3329	4.7588	-0.5657	-1.3676	-0.4383	1.119	2.468	0.6092	0.373	1.0475	-3.8511	1.5293
-1.4329	-0.8392	1.4049	-0.115	1.0848	2.5799	1.9365	1.1594	3.3134	3.8916	3.0368	4.1558	4.5816	-0.5408	-1.2589	-0.3512	1.0382	2.3965	0.5719	0.4631	0.7864	-4.1433	1.5697
-1.1656	-0.5408	1.7189	0.1772	1.2495	2.7974	2.1758	1.1811	3.3694	3.9475	2.8534	3.9724	4.4169	-0.5129	-1.1843	-0.3419	0.9946	2.2597	0.5191	0.5346	0.4849	-4.5598	1.607
-0.8423	-0.2362	2.0204	0.4662	1.4702	3.0306	2.4151	1.2122	3.4377	4.0345	2.7104	3.848	4.2272	-0.4756	-1.0972	-0.2673	0.92	2.1261	0.5035	0.5844	0.2611	-5.0509	1.6443
-0.5066	0.115	2.3561	0.7988	1.7064	3.2979	2.6482	1.2837	3.5496	4.0749	2.5861	3.7361	4.0936	-0.4258	-0.9915	-0.2549	0.8206	2.0266	0.4662	0.6994	0.0342	-5.5203	1.6629
-0.1865	0.4693	2.7011	1.1097	1.9085	3.531	2.8752	1.3303	3.6274	4.1278	2.4431	3.6336	3.9133	-0.401	-0.9045	-0.2704	0.7677	1.8619	0.4414	0.7895	-0.1989	-5.7845	1.6816
0.1181	0.7988	3.0275	1.4485	2.1323	3.7921	3.1145	1.4112	3.7113	4.1589	2.3561	3.5248	3.7299	-0.3854	-0.8175	-0.2922	0.7149	1.7344	0.4258	0.8579	-0.401	-5.7285	1.6816
0.4476	1.1376	3.3414	1.7717	2.3623	4.0345	3.3352	1.4889	3.8232	4.1837	2.2473	3.444	3.5745	-0.345	-0.7211	-0.3264	0.6621	1.5883	0.4041	0.9325	-0.6185	-5.3058	1.6567
0.7864	1.4764	3.6802	2.1261	2.5736	4.3143	3.6025	1.579	3.9413	4.2272	2.2038	3.4004	3.416	-0.3015	-0.5906	-0.3264	0.5875	1.4547	0.3948	0.9822	-0.8144	-4.5847	1.6567
1.0786	1.8028	3.9879	2.4431	2.7664	4.5505	3.8232	1.6536	4.0376	4.277	2.1478	3.3321	3.3041	-0.2922	-0.4818	-0.3979	0.5408	1.3334	0.4041	1.0288	-0.9822	-3.6056	1.6256
1.377	2.1292	4.2863	2.7664	2.9902	4.7898	4.0345	1.7655	4.162	4.3143	2.067	3.2917	3.1611	-0.2642	-0.3668	-0.4383	0.488	1.2247	0.3854	1.1034	-1.1407	-2.4959	1.6256
1.6598	2.4431	4.5629	3.0648	3.1798	4.995	4.2428	1.8587	4.2552	4.3764	2.0297	3.2823	3.0834	-0.2269	-0.258	-0.4476	0.432	1.1625	0.3575	1.1687	-1.293	-1.408	1.6194
1.9489	2.7508	4.8489	3.3569	3.388	5.2374	4.4946	1.9489	4.3982	4.4075	1.9986	3.2544	2.9964	-0.1865	-0.1647	-0.4103	0.3481	1.091	0.3606	1.2433	-1.436	-0.4041	1.6287
2.2659	3.0585	5.1286	3.6149	3.6056	5.4488	4.6779	2.0484	4.5132	4.4448	1.9738	3.2917	2.9622	-0.1399	-0.0342	-0.373	0.2393	1.0133	0.3388	1.3241	-1.5728	0.4507	1.6287
2.4959	3.3165	5.3711	3.8543	3.7828	5.6446	4.8582	2.1634	4.6189	4.4946	1.9769	3.3041	2.9125	-0.0808	0.0591	-0.3233	0.1368	1.0009	0.3233	1.4049	-1.7189	1.1501	1.6381
2.7788	3.5994	5.6198	4.0874	3.9848	5.8436	5.0292	2.2628	4.7308	4.5598	1.9675	3.3352	2.8752	-0.0435	0.1585	-0.2393	0.0497	0.9853	0.2891	1.4764	-1.8308	1.6847	1.6629
2.9964	3.876	5.8342	4.2956	4.1713	6.0238	5.1939	2.384	4.8738	4.5971	1.9986	3.4004	2.8969	0.0186	0.2673	-0.1274	-0.0715	1.004	0.2393	1.5759	-1.9396	2.0577	1.6878
3.2513	4.1309	6.0487	4.479	4.3547	6.1792	5.3587	2.5146	4.9763	4.6748	2.0017	3.4782	2.9093	0.087	0.3512	0.0124	-0.1927	1.0164	0.1927	1.6785	-2.0297	2.1882	1.7344
3.4782	4.3827	6.2538	4.6624	4.5536	6.3626	5.5452	2.6358	5.11	4.7401	2.0328	3.5683	2.9435	0.1492	0.4196	0.1772	-0.317	1.0475	0.143	1.7375	-2.1012	2.0857	1.8028
3.7051	4.6251	6.4714	4.8334	4.7308	6.5367	5.7285	2.7788	5.2312	4.8582	2.1074	3.674	3.0275	0.2114	0.516	0.373	-0.4507	1.1003	0.1088	1.865	-2.1665	1.8152	1.865
3.9102	4.8582	6.6735	4.9857	4.9204	6.689	5.8933	2.9125	5.34	4.9608	2.1602	3.8045	3.1083	0.2984	0.5937	0.5657	-0.6061	1.1625	0.0995	1.9924	-2.2162	1.4174	1.952
4.1309	5.0976	6.8693	5.1504	5.0727	6.8444	6.0549	3.0554	5.4954	5.0758	2.2628	3.9133	3.1767	0.3575	0.7118	0.7398	-0.7522	1.2371	0.1212	2.1571	-2.1944	1.0444	2.0297
4.3391	5.2747	7.034	5.2903	5.2437	6.9936	6.1948	3.2015	5.6446	5.1753	2.3499	4.0594	3.2792	0.4383	0.8299	0.9169	-0.8952	1.349	0.1119	2.3343	-2.2131	0.7895	2.1043
4.479	5.4737	7.2143	5.4239	5.396	7.1179	6.3378	3.3383	5.7721	5.3058	2.4649	4.2086	3.3942	0.5066	0.92	1.063	-1.0133	1.4671	0.1585	2.4928	-2.1634	0.8641	2.182
4.6065	5.6291	7.3635	5.5638	5.5452	7.2392	6.4559	3.4533	5.8902	5.3835	2.555	4.3578	3.4875	0.5533	1.0351	1.1563	-1.119	1.5386	0.1958	2.6482	-2.1105	1.2309	2.2317
4.765	5.7752	7.4692	5.7099	5.685	7.3759	6.5771	3.6274	6.03	5.5016	2.6887	4.5256	3.6211	0.5999	1.1718	1.2433	-1.2309	1.6785	0.2642	2.8627	-2.0328	1.8681	2.2877
4.8986	5.9181	7.6059	5.8467	5.7938	7.4692	6.6921	3.7455	6.1326	5.6291	2.841	4.6655	3.7455	0.6403	1.3117	1.2961	-1.3272	1.809	0.3481	3.0554	-1.9209	2.6762	2.3561
4.9453	5.9834	7.6868	5.9275	5.8902	7.5407	6.7418	3.8356	6.2072	5.6757	2.9529	4.7805	3.848	0.6931	1.4049	1.3739	-1.4049	1.9147	0.4041	3.245	-1.8339	3.5092	2.4462
5.0168	6.0363	7.7551	5.9959	5.9772	7.6028	6.7947	3.9506	6.3005	5.7658	3.0958	4.9204	3.9537	0.7273	1.5262	1.3801	-1.492	2.0111	0.4911	3.4129	-1.6785	4.2521	2.5177
5.0261	6.0269	7.7924	6.0114	6.0114	7.6277	6.7978	4.0283	6.3315	5.8063	3.2046	5.0168	4.0376	0.7771	1.6318	1.3894	-1.5541	2.1074	0.5626	3.5341	-1.5759	4.8147	2.6078
5.0416	5.9648	7.7769	6.0083	6.03	7.6153	6.7418	4.0625	6.3502	5.8436	3.3259	5.1131	4.1371	0.7957	1.7468	1.349	-1.6101	2.1944	0.659	3.6584	-1.4547	5.1908	2.6949
5.0292	5.8995	7.7645	6.0052	6.0207	7.5935	6.7263	4.1216	6.3813	5.8777	3.4533	5.2499	4.2521	0.8392	1.8898	1.3272	-1.7127	2.2939	0.7491	3.7734	-1.321	5.396	2.7943
4.9857	5.7907	7.7023	5.9523	5.9772	7.5438	6.6548	4.1402	6.372	5.8964	3.5434	5.3462	4.3454	0.8859	1.9706	1.3055	-1.7655	2.384	0.805	3.8356	-1.1936	5.4053	2.8689
4.967	5.6726	7.665	5.8777	5.9492	7.4972	6.5802	4.1775	6.4093	5.9586	3.674	5.4706	4.4479	0.9107	2.1136	1.2371	-1.8494	2.4897	0.8859	3.9444	-1.0568	5.1722	2.9622
4.88	5.5265	7.5811	5.8218	5.9026	7.4381	6.5274	4.1558	6.3688	5.9896	3.7859	5.5576	4.5878	0.9511	2.1975	1.1998	-1.9209	2.5985	0.9667	3.9879	-0.9511	4.7121	3.043
4.7992	5.3991	7.4785	5.7037	5.8373	7.3511	6.4279	4.1837	6.3626	6.0238	3.8511	5.6415	4.7059	0.9946	2.2753	1.178	-1.9924	2.7228	1.0413	4.047	-0.8113	4.0563	3.1207
4.7152	5.2405	7.4008	5.6135	5.7503	7.2671	6.3626	4.1806	6.3222	6.0518	3.9724	5.7006	4.8085	1.0009	2.3654	1.1065	-2.0452	2.8379	1.0724	4.0874	-0.6496	3.2015	3.1642
4.622	5.0385	7.3013	5.5016	5.6415	7.1397	6.2725	4.1433	6.2694	6.0611	4.0843	5.8063	4.9204	1.0382	2.412	1.0661	-2.0857	2.9156	1.1345	4.1029	-0.5129	2.3188	3.1922
4.5225	4.8582	7.1801	5.3866	5.5483	7.0558	6.2197	4.1495	6.229	6.1046	4.2179	5.8684	5.0354	1.0413	2.468	0.9822	-2.1074	3.0275	1.2153	4.1122	-0.3357	1.5168	3.2202
4.3671	4.6469	7.0185	5.2654	5.4364	6.9346	6.1357	4.134	6.1948	6.0953	4.3112	5.9306	5.1442	1.0475	2.4897	0.8641	-2.1261	3.13	1.2713	4.1154	-0.1896	0.9946	3.2326
4.2645	4.4697	6.9252	5.1722	5.34	6.8133	6.058	4.1495	6.173	6.1233	4.4479	6.0083	5.2841	1.0444	2.4866	0.746	-2.1229	3.2295	1.3241	4.1091	-0.0093	0.8361	3.2388
4.1154	4.2614	6.7294	5.0292	5.2157	6.6952	5.9772	4.1154	6.0829	6.0984	4.5039	6.0549	5.3462	1.0506	2.4369	0.6652	-2.1043	3.3165	1.3676	4.0656	0.1523	1.0537	3.2637
3.9662	4.0501	6.5895	4.8831	5.0882	6.5678	5.8933	4.106	6.0269	6.0984	4.5971	6.0642	5.4333	1.0319	2.3778	0.5377	-2.0825	3.3756	1.4485	3.9817	0.3326	1.579	3.2575
3.7859	3.8605	6.3906	4.7339	4.9608	6.3906	5.7845	4.0749	5.9554	6.0953	4.6997	6.1015	5.5016	1.0133	2.2846	0.3792	-2.0452	3.4191	1.4764	3.9257	0.4818	2.2566	3.2575
3.6242	3.6615	6.2259	4.5598	4.8303	6.2507	5.6757	4.047	5.8871	6.0518	4.7743	6.1388	5.5731	1.0009	2.1385	0.3015	-2.0235	3.4595	1.5479	3.8232	0.6496	3.0368	3.2606
3.4875	3.4626	6.0176	4.3982	4.7246	6.0798	5.5731	4.0718	5.8125	6.0705	4.8707	6.1419	5.6539	0.9791	1.9769	0.1678	-1.9893	3.4906	1.6039	3.7113	0.8144	3.7268	3.2419
3.3196	3.3072	5.8436	4.2117	4.6282	5.943	5.4861	4.0594	5.7565	6.0269	5.0012	6.1761	5.7348	0.9667	1.7873	0.0901	-1.952	3.5621	1.7002	3.6149	0.9884	4.3205	3.2077
3.1176	3.1518	5.626	3.9972	4.507	5.7596	5.3524	4.0594	5.7006	6.0114	5.0882	6.2134	5.8031	0.9449	1.5666	0.0653	-1.9147	3.5963	1.7531	3.4813	1.1283	4.824	3.1798
2.9466	3.0026	5.427	3.8014	4.4262	5.6166	5.2405	4.0625	5.626	5.9896	5.1908	6.2383	5.8871	0.9325	1.3366	0.0311	-1.8681	3.6678	1.8214	3.3569	1.293	5.1784	3.1176
2.7539	2.841	5.1753	3.5434	4.3454	5.4488	5.0976	4.0998	5.5576	5.9741	5.2903	6.2663	5.9554	0.8952	1.1345	0.0373	-1.8121	3.7113	1.8867	3.2233	1.4422	5.3493	3.0772
2.5395	2.7042	4.9515	3.2761	4.2614	5.2685	4.9888	4.1154	5.511	5.9523	5.3991	6.3067	6.0425	0.861	0.9294	0.0124	-1.7375	3.7797	1.9551	3.1114	1.607	5.2716	3.0492
2.2815	2.5363	4.6779	2.9746	4.1993	5.11	4.8209	4.1091	5.4115	5.9181	5.4768	6.3284	6.0984	0.8175	0.7242	0.0373	-1.6598	3.848	1.9893	2.9591	1.7748	4.9484	3.0057
2.0639	2.4338	4.4355	2.6482	4.1464	4.9142	4.65	4.1464	5.3618	5.884	5.6042	6.3657	6.201	0.7677	0.5564	0.0622	-1.579	3.9226	2.0017	2.8316	1.924	4.4137	3.0181
1.7966	2.2784	4.2024	2.3281	4.106	4.7619	4.4883	4.162	5.3245	5.8498	5.7068	6.403	6.2694	0.7367	0.4041	0.1212	-1.5013	3.9693	2.0266	2.698	2.0794	3.7486	2.9964
1.5821	2.182	3.9257	2.0204	4.0625	4.5692	4.2987	4.1806	5.2437	5.7938	5.8125	6.4124	6.3098	0.69	0.2487	0.1554	-1.3925	4.0345	2.0297	2.5519	2.2224	3.0523	2.9964
1.3148	2.0452	3.6647	1.6971	3.9972	4.3796	4.0998	4.1837	5.1722	5.7503	5.8622	6.4093	6.3347	0.6372	0.0995	0.23	-1.2806	4.0625	2.0048	2.3965	2.3467	2.4991	2.9995
1.0568	1.924	3.3911	1.3583	3.9413	4.1962	3.9226	4.1931	5.0851	5.6819	5.9648	6.4061	6.3533	0.5906	-0.0031	0.3077	-1.206	4.0843	2.0048	2.2255	2.5239	2.2473	2.9964
0.8082	1.7624	3.1331	1.0319	3.8605	4.0097	3.6926	4.2148	5.0136	5.5762	6.0394	6.4124	6.3782	0.5346	-0.115	0.3357	-1.091	4.1029	1.9893	2.095	2.6731	2.3032	2.987
0.5502	1.6412	2.8658	0.7304	3.789	3.848	3.475	4.162	4.9235	5.4985	6.0736	6.3968	6.3626	0.4942	-0.2549	0.4445	-1.0009	4.1122	1.9955	1.9427	2.8254	2.6918	3.0088
0.2922	1.4609	2.6141	0.4072	3.6802	3.6242	3.245	4.0967	4.8054	5.3866	6.0891	6.3347	6.3222	0.432	-0.4041	0.4662	-0.8796	4.0967	1.9675	1.8183	2.9435	3.329	2.9933
0.0435	1.2899	2.3561	0.0777	3.5776	3.4222	2.9902	4.0408	4.6562	5.225	6.1078	6.2632	6.2911	0.3854	-0.5564	0.5222	-0.7709	4.0687	1.9427	1.6723	3.0772	4.0501	3.0026
-0.1927	1.1221	2.0639	-0.1927	3.4222	3.2171	2.7384	3.9506	4.5163	5.0634	6.0891	6.2041	6.2228	0.3202	-0.7118	0.5253	-0.6558	4.0532	1.9116	1.5448	3.1922	4.7401	2.9746
-0.4196	0.9418	1.8308	-0.4445	3.2948	3.0057	2.5053	3.8232	4.3547	4.88	6.058	6.1015	6.114	0.2642	-0.8486	0.5004	-0.5439	3.9941	1.8743	1.4422	3.2979	5.2716	2.9435
-0.6403	0.7988	1.5821	-0.6776	3.1518	2.7912	2.297	3.7175	4.1962	4.7121	6.0114	6.0207	6.0487	0.2114	-0.9978	0.4631	-0.4258	3.9475	1.8619	1.3334	3.3787	5.6571	2.8938
-0.861	0.6341	1.3614	-0.8392	2.9933	2.5954	2.1229	3.5807	4.0221	4.5443	5.9617	5.9306	5.971	0.1492	-1.1376	0.4196	-0.317	3.8822	1.8059	1.2216	3.475	5.8777	2.8379
-1.0475	0.4942	1.1252	-0.9356	2.8689	2.3996	1.9924	3.4533	3.8543	4.3827	5.8995	5.8311	5.8529	0.1057	-1.2557	0.3854	-0.2238	3.8325	1.7904	1.1221	3.5652	5.8871	2.7943
-1.2278	0.3233	0.9449	-1.0475	2.7384	2.1789	1.8525	3.2886	3.7113	4.2148	5.8498	5.7503	5.741	0.0497	-1.3925	0.3108	-0.1212	3.7517	1.7282	1.0071	3.646	5.7161	2.7353
-1.3739	0.143	0.7211	-1.1345	2.5705	1.9924	1.7189	3.1518	3.5092	4.0345	5.7658	5.6291	5.6229	0.0031	-1.5231	0.2393	-0.0155	3.6833	1.6754	0.9014	3.7206	5.2747	2.6855
-1.5572	0	0.5066	-1.2402	2.4307	1.809	1.5852	2.9497	3.3227	3.8605	5.6633	5.5265	5.5141	-0.0435	-1.6754	0.1958	0.0684	3.5963	1.6412	0.7957	3.7766	4.5909	2.6327
-1.7158	-0.1927	0.2829	-1.3583	2.2597	1.5821	1.4236	2.8161	3.158	3.6864	5.598	5.3991	5.3711	-0.0746	-1.8028	0.1616	0.1212	3.4844	1.6101	0.6807	3.8294	3.6771	2.5736
-1.8587	-0.3885	0.0932	-1.4795	2.0732	1.3863	1.2557	2.6358	2.9466	3.4937	5.4488	5.2437	5.2437	-0.1026	-1.9831	0.143	0.1989	3.3569	1.5417	0.5626	3.8418	2.6762	2.5395
-2.0235	-0.5533	-0.1088	-1.6163	1.9333	1.1656	1.0817	2.4649	2.7384	3.301	5.368	5.0976	5.0696	-0.1492	-2.1136	0.0684	0.2735	3.2419	1.4982	0.4507	3.8916	1.6536	2.4711
-2.1602	-0.7056	-0.3202	-1.7095	1.8028	0.9325	0.8983	2.325	2.5146	3.1145	5.2405	4.9701	4.9484	-0.1834	-2.2815	0.0653	0.3606	3.1394	1.4609	0.3419	3.9071	0.8517	2.4276
-2.3001	-0.8268	-0.5129	-1.8308	1.6754	0.7491	0.7336	2.1758	2.3343	2.9591	5.1442	4.8458	4.7992	-0.2362	-2.4276	0.0186	0.4507	3.0461	1.3894	0.2331	3.9568	0.3202	2.3747
-2.4245	-0.9387	-0.6776	-1.9054	1.5635	0.5564	0.6092	2.0732	2.182	2.8254	5.0509	4.7184	4.6779	-0.2735	-2.5581	0.0062	0.5315	2.9622	1.3583	0.1337	4.0035	0.1368	2.3312
-2.5208	-1.0009	-0.8268	-1.9613	1.5075	0.401	0.4942	1.98	2.0328	2.7322	4.9888	4.6251	4.6127	-0.3295	-2.6669	-0.0155	0.6279	2.9093	1.3366	0.0342	4.0594	0.2424	2.2939
-2.6358	-1.0879	-0.9822	-2.039	1.4049	0.2269	0.3512	1.8681	1.8494	2.5954	4.8955	4.5256	4.5101	-0.3823	-2.813	-0.0186	0.7398	2.8347	1.2713	-0.0746	4.0594	0.5999	2.269
-2.7384	-1.1438	-1.1128	-2.0857	1.377	0.1181	0.2797	1.7779	1.7375	2.5612	4.8707	4.4324	4.4977	-0.432	-2.928	-0.0093	0.8361	2.8347	1.2402	-0.1585	4.1278	1.063	2.2348
-2.813	-1.2153	-1.2402	-2.1292	1.3179	-0.0249	0.1772	1.6971	1.6194	2.4586	4.8116	4.3671	4.4169	-0.4849	-3.0057	-0.0249	0.9325	2.813	1.206	-0.2704	4.1682	1.436	2.2317
-2.9218	-1.2899	-1.3645	-2.1758	1.2371	-0.1772	0.0995	1.6163	1.4982	2.3872	4.7401	4.2614	4.3858	-0.5408	-3.0865	-0.0964	1.063	2.8161	1.1314	-0.3637	4.1651	1.7033	2.1975
-3.0243	-1.377	-1.5075	-2.2224	1.1625	-0.3077	0.0373	1.5355	1.3739	2.3405	4.6842	4.2024	4.3391	-0.5937	-3.1425	-0.1585	1.1594	2.813	1.0724	-0.4662	4.2272	1.8556	2.1758
-3.0616	-1.4422	-1.6039	-2.2628	1.0475	-0.4538	-0.0435	1.4329	1.234	2.297	4.6313	4.1309	4.336	-0.6341	-3.1798	-0.23	1.2464	2.8254	1.0351	-0.5564	4.2428	1.9116	2.1727
-3.1735	-1.5324	-1.7251	-2.3094	0.9729	-0.5657	-0.0964	1.3614	1.1283	2.238	4.5754	4.0594	4.3081	-0.6714	-3.2015	-0.3326	1.3303	2.8503	0.9822	-0.659	4.2739	1.8059	2.1323
-3.2606	-1.6225	-1.8556	-2.353	0.8734	-0.6963	-0.1741	1.2744	1.0164	2.1758	4.5194	3.9599	4.2894	-0.6994	-3.2015	-0.4507	1.3956	2.8472	0.9387	-0.7677	4.2739	1.4982	2.1167
-3.3445	-1.6878	-1.9769	-2.4089	0.7957	-0.8144	-0.2331	1.1998	0.8983	2.1385	4.4728	3.8916	4.2708	-0.7336	-3.1704	-0.5564	1.4391	2.8938	0.9138	-0.8517	4.2863	0.9915	2.0888
-3.4471	-1.7717	-2.0608	-2.4431	0.718	-0.9263	-0.2984	1.1345	0.7802	2.0919	4.4355	3.8263	4.2366	-0.7553	-3.1704	-0.6621	1.4858	2.9093	0.8796	-0.9667	4.2708	0.3046	2.0888
-3.5403	-1.8246	-2.1696	-2.5084	0.6434	-1.0444	-0.3388	1.0537	0.6776	2.0235	4.3547	3.7455	4.2179	-0.7709	-3.0989	-0.7802	1.5106	2.9218	0.8517	-1.0319	4.3205	-0.5533	2.0608
-3.6367	-1.9116	-2.2784	-2.5643	0.5937	-1.1874	-0.4196	0.9511	0.5471	1.9333	4.2894	3.6522	4.1589	-0.7833	-3.0679	-0.8734	1.5479	2.9187	0.8392	-1.1252	4.3174	-1.4143	2.0639
-3.7144	-1.9489	-2.384	-2.6109	0.5066	-1.2899	-0.4911	0.9107	0.4134	1.9023	4.2366	3.5807	4.1371	-0.805	-3.0399	-0.9107	1.5728	2.9373	0.8299	-1.2153	4.3112	-2.1354	2.0328
-3.8045	-2.0173	-2.4804	-2.6762	0.4383	-1.3894	-0.5377	0.8392	0.3233	1.8463	4.1682	3.4719	4.1029	-0.8268	-3.0026	-0.9605	1.6318	2.9591	0.8144	-1.3303	4.2863	-2.6265	2.0266
-3.9413	-2.0763	-2.6234	-2.7819	0.3575	-1.5168	-0.6154	0.7429	0.202	1.7624	4.0843	3.3663	4.0781	-0.8548	-2.9995	-1.0071	1.6878	2.9715	0.8144	-1.408	4.2614	-2.7788	2.0204
-4.0066	-2.0857	-2.6762	-2.8534	0.2984	-1.6101	-0.6745	0.6714	0.0964	1.7562	4.0314	3.2886	4.0625	-0.8734	-2.9529	-0.9791	1.7189	2.9839	0.8423	-1.4858	4.2677	-2.5177	2.0452
-4.1154	-2.1261	-2.8254	-3.0026	0.2083	-1.7127	-0.7398	0.5906	-0.0249	1.7251	3.9413	3.1829	4.0221	-0.9045	-2.9311	-0.9822	1.7779	3.0026	0.8268	-1.5635	4.2801	-2.0266	2.0484
-4.221	-2.1944	-2.9342	-3.158	0.1461	-1.837	-0.8144	0.5253	-0.1305	1.6785	3.8511	3.1114	3.9879	-0.9169	-2.9093	-0.9573	1.8277	3.0057	0.8113	-1.6412	4.2459	-1.3583	2.039
-4.3547	-2.2753	-3.0741	-3.3259	0.0684	-1.9333	-0.9014	0.4911	-0.23	1.635	3.7766	3.0057	3.9444	-0.9636	-2.8472	-0.9325	1.8867	2.9995	0.8206	-1.7002	4.2521	-0.6714	2.0484
-4.4977	-2.3623	-3.2233	-3.5123	-0.0218	-2.0452	-1.0071	0.3885	-0.3481	1.579	3.7113	2.8969	3.904	-0.9791	-2.8161	-0.8983	1.9427	2.9902	0.7926	-1.7624	4.221	-0.0497	2.0266
-4.6127	-2.4773	-3.3663	-3.6957	-0.0839	-2.1727	-1.1283	0.345	-0.46	1.5106	3.6336	2.8006	3.8387	-1.0195	-2.726	-0.9294	2.0048	2.9715	0.8082	-1.7686	4.1837	0.3637	2.0515
-4.7525	-2.583	-3.4906	-3.8884	-0.1741	-2.2504	-1.2216	0.2797	-0.5564	1.4889	3.5652	2.7011	3.8014	-1.0413	-2.6607	-0.8983	2.067	2.9653	0.8082	-1.7935	4.162	0.6652	2.0421
-4.9173	-2.6918	-3.6149	-4.0812	-0.2518	-2.353	-1.3583	0.2549	-0.6248	1.4764	3.531	2.642	3.7828	-1.0879	-2.5674	-0.9605	2.1416	2.9653	0.8113	-1.7997	4.1464	0.7491	2.0515
-5.0665	-2.7912	-3.733	-4.2739	-0.3139	-2.4182	-1.4826	0.2207	-0.7056	1.4049	3.4875	2.5612	3.7424	-1.1221	-2.468	-1.0102	2.21	2.9746	0.8361	-1.75	4.1527	0.6683	2.0484
-5.2032	-2.9062	-3.8667	-4.4542	-0.3761	-2.4959	-1.635	0.2207	-0.7273	1.3832	3.4533	2.5426	3.7424	-1.1532	-2.3654	-1.0817	2.2846	2.987	0.8486	-1.7127	4.1558	0.3139	2.0484
-5.3089	-2.9902	-3.991	-4.6096	-0.4227	-2.5395	-1.7531	0.2051	-0.7926	1.3614	3.4346	2.5146	3.7268	-1.1967	-2.2784	-1.1501	2.3654	2.9902	0.8423	-1.6847	4.1682	-0.2922	2.0701
-5.4675	-3.071	-4.0905	-4.7774	-0.4569	-2.5985	-1.8525	0.202	-0.8237	1.3459	3.4377	2.4835	3.6926	-1.2247	-2.1851	-1.2589	2.4369	3.0119	0.8796	-1.5977	4.1775	-1.1003	2.0888
-5.5669	-3.1362	-4.1527	-4.8644	-0.4693	-2.6141	-1.9396	0.2207	-0.8361	1.3024	3.4253	2.4524	3.6895	-1.2589	-2.1385	-1.3334	2.5053	3.0212	0.9014	-1.5417	4.1962	-2.0017	2.0857
-5.7037	-3.2295	-4.2645	-4.9732	-0.5035	-2.6451	-2.0297	0.2487	-0.8423	1.2837	3.4222	2.4245	3.6553	-1.2899	-2.0608	-1.4671	2.5643	3.015	0.948	-1.492	4.2086	-2.9591	2.1074
-5.7969	-3.2854	-4.3205	-5.054	-0.5066	-2.6358	-2.067	0.2704	-0.8392	1.2526	3.4284	2.4245	3.6149	-1.3303	-2.0079	-1.579	2.6327	3.0243	0.9791	-1.408	4.2179	-3.7082	2.1323
-5.9057	-3.3383	-4.3827	-5.0976	-0.5253	-2.67	-2.1385	0.2953	-0.8579	1.2247	3.4409	2.412	3.5745	-1.3583	-1.9893	-1.6878	2.698	3.0306	1.0195	-1.3583	4.2304	-4.1806	2.154
-5.9772	-3.4098	-4.4448	-5.1628	-0.5004	-2.6358	-2.1478	0.3419	-0.833	1.1936	3.4719	2.4307	3.559	-1.3583	-1.9427	-1.7873	2.7042	3.0088	1.0941	-1.2526	4.2583	-4.2645	2.1354
-6.0798	-3.4968	-4.5381	-5.225	-0.5471	-2.6824	-2.1882	0.3637	-0.8268	1.1314	3.4595	2.3903	3.5092	-1.3832	-1.9489	-1.9023	2.7508	3.0057	1.1376	-1.1967	4.2801	-4.0097	2.1354
-6.1792	-3.5745	-4.6034	-5.3276	-0.5502	-2.6762	-2.2411	0.3979	-0.8019	1.0848	3.5061	2.4089	3.4688	-1.3894	-1.9613	-1.9644	2.7539	3.0337	1.2216	-1.1065	4.305	-3.503	2.1261
-6.2601	-3.6584	-4.7121	-5.3991	-0.5719	-2.7228	-2.325	0.4196	-0.8237	1.0226	3.4999	2.3903	3.4191	-1.3801	-1.9862	-2.0017	2.7446	3.0306	1.2682	-1.0133	4.3516	-2.9	2.1261
-6.3564	-3.7517	-4.7867	-5.4954	-0.631	-2.7415	-2.4089	0.4476	-0.8299	0.9636	3.5155	2.3623	3.3538	-1.3645	-2.0142	-2.039	2.726	3.015	1.3428	-0.8983	4.4044	-2.3405	2.1323
-6.4714	-3.8667	-4.8986	-5.5731	-0.6465	-2.7881	-2.4742	0.4476	-0.8299	0.8641	3.5186	2.3685	3.2979	-1.349	-2.0639	-2.0608	2.6887	3.0057	1.4267	-0.8672	4.4231	-1.8898	2.1571
-6.5895	-3.9506	-5.0136	-5.6384	-0.6931	-2.8161	-2.5332	0.4693	-0.8579	0.7864	3.5155	2.3188	3.2108	-1.3241	-2.1292	-2.0515	2.6451	2.9839	1.5137	-0.7895	4.4697	-1.607	2.1789
-6.6797	-4.0594	-5.1286	-5.6912	-0.7398	-2.8907	-2.6172	0.4662	-0.8703	0.7025	3.5341	2.2753	3.1425	-1.3117	-2.2069	-2.0359	2.6234	2.9373	1.5728	-0.7273	4.5008	-1.4578	2.1634
-6.7947	-4.1464	-5.2126	-5.7441	-0.7522	-2.9342	-2.6296	0.4818	-0.8827	0.6248	3.5403	2.2628	3.071	-1.3055	-2.2659	-2.0079	2.5674	2.9218	1.6691	-0.6869	4.5692	-1.4671	2.1105
-6.9004	-4.2272	-5.3338	-5.7596	-0.7833	-3.0057	-2.6887	0.4849	-0.9107	0.5439	3.5465	2.2473	2.9653	-1.2713	-2.3436	-1.9458	2.5332	2.8596	1.7686	-0.6341	4.6034	-1.6225	2.0546
-7.0309	-4.3018	-5.4581	-5.7721	-0.8113	-3.0554	-2.7477	0.4818	-0.9636	0.4569	3.5652	2.2162	2.8752	-1.2589	-2.4058	-1.8712	2.4897	2.8223	1.8214	-0.5968	4.6469	-2.0452	2.0111
-7.1179	-4.3516	-5.5358	-5.7907	-0.8082	-3.0958	-2.7757	0.4911	-0.9667	0.3699	3.559	2.1944	2.785	-1.2278	-2.4866	-1.7841	2.4276	2.7664	1.9023	-0.5564	4.6842	-2.6265	1.9613
-7.2236	-4.4137	-5.6446	-5.7845	-0.8113	-3.1704	-2.8223	0.488	-1.004	0.2766	3.5745	2.1261	2.6638	-1.1998	-2.5363	-1.6816	2.3809	2.6887	1.98	-0.5377	4.7246	-3.4253	1.9116
-7.3697	-4.479	-5.7721	-5.8031	-0.8672	-3.2544	-2.8969	0.4631	-1.063	0.1772	3.5496	2.0639	2.5581	-1.1905	-2.6203	-1.5883	2.353	2.6016	2.0328	-0.5812	4.7339	-4.3018	1.8463
-7.4443	-4.4946	-5.8653	-5.8156	-0.8299	-3.301	-2.9311	0.4693	-1.091	0.0932	3.5652	2.0173	2.4307	-1.1594	-2.6887	-1.4547	2.3157	2.5395	2.0794	-0.5875	4.737	-5.1753	1.7873
-7.5438	-4.4883	-5.9244	-5.8342	-0.8113	-3.3538	-2.9218	0.46	-1.1159	0.0311	3.5652	1.9644	2.3343	-1.1501	-2.7508	-1.3428	2.2815	2.412	2.1354	-0.6061	4.7588	-5.8342	1.7344
-7.609	-4.4697	-5.9803	-5.8529	-0.746	-3.3911	-2.9529	0.4631	-1.1252	-0.0373	3.5621	1.9333	2.2411	-1.1376	-2.813	-1.2029	2.2597	2.3499	2.1975	-0.6403	4.7805	-6.1979	1.6816
-7.6401	-4.4169	-6.0487	-5.8902	-0.7087	-3.4098	-2.9902	0.4911	-1.1159	-0.0684	3.5994	1.9023	2.1634	-1.1376	-2.8752	-1.0755	2.2411	2.2784	2.2535	-0.6869	4.8085	-6.2352	1.666
-7.6961	-4.364	-6.0642	-5.8995	-0.6745	-3.4315	-2.9933	0.4973	-1.1283	-0.1088	3.6087	1.8681	2.1012	-1.1314	-2.9125	-0.9232	2.2348	2.1975	2.297	-0.7429	4.8178	-5.9772	1.6412
-7.7303	-4.2894	-6.0705	-5.9461	-0.5688	-3.4191	-3.0026	0.5253	-1.147	-0.1212	3.6274	1.8463	2.0235	-1.1221	-2.9218	-0.7957	2.2193	2.1602	2.3436	-0.7522	4.8458	-5.5576	1.6132
-7.7707	-4.2614	-6.0798	-6.0363	-0.5035	-3.4098	-3.0616	0.5533	-1.1159	-0.1741	3.6615	1.8121	1.9551	-1.119	-2.9373	-0.6403	2.2224	2.1043	2.3965	-0.8144	4.8707	-5.0447	1.5945
-7.78	-4.1744	-6.0767	-6.0984	-0.4383	-3.416	-3.0896	0.5875	-1.1097	-0.171	3.6522	1.8121	1.9116	-1.1034	-2.9187	-0.4507	2.2069	2.0359	2.4182	-0.8579	4.8707	-4.6717	1.5914
-7.8049	-4.0843	-6.0394	-6.1855	-0.3295	-3.3663	-3.1394	0.6248	-1.0848	-0.1989	3.6802	1.8028	1.8712	-1.1065	-2.8938	-0.2673	2.2224	1.98	2.4835	-0.8952	4.8893	-4.4075	1.5945
-7.7893	-3.9879	-5.9927	-6.2507	-0.2207	-3.3196	-3.1735	0.6838	-1.0288	-0.1678	3.7299	1.837	1.8556	-1.1128	-2.8285	-0.0746	2.21	1.9489	2.5239	-0.9076	4.9266	-4.3205	1.5852
-7.7831	-3.8729	-5.9368	-6.3191	-0.0964	-3.2606	-3.214	0.774	-0.976	-0.1772	3.7921	1.837	1.8401	-1.1003	-2.757	0.1026	2.1975	1.9023	2.5768	-0.9356	4.9701	-4.336	1.6039
-7.7614	-3.7703	-5.8777	-6.3502	0.0186	-3.1642	-3.2233	0.8392	-0.8983	-0.1554	3.8107	1.8587	1.809	-1.1065	-2.6451	0.2238	2.1789	1.865	2.6172	-0.9449	4.9826	-4.5381	1.607
-7.7241	-3.6274	-5.7814	-6.3657	0.1647	-3.0741	-3.2388	0.8983	-0.8454	-0.143	3.8667	1.8836	1.781	-1.091	-2.5643	0.3916	2.1634	1.8121	2.6793	-0.9729	5.0105	-4.9017	1.6194
-7.665	-3.4564	-5.6539	-6.3626	0.2984	-2.9777	-3.245	0.9915	-0.7398	-0.1305	3.9351	1.924	1.7624	-1.0817	-2.4276	0.4911	2.1323	1.781	2.7322	-0.9542	5.0323	-5.4923	1.607
-7.5686	-3.2792	-5.5358	-6.3378	0.4818	-2.8658	-3.2357	1.1065	-0.6434	-0.087	4.0252	1.9644	1.7468	-1.0351	-2.2815	0.5844	2.0577	1.7344	2.7726	-0.9449	5.0696	-6.2694	1.6287
-7.4816	-3.0896	-5.4177	-6.3005	0.6527	-2.7322	-3.2046	1.1998	-0.5688	-0.0684	4.0812	2.0111	1.7095	-1.0195	-2.1416	0.6061	2.0235	1.6691	2.813	-0.9232	5.0882	-7.1801	1.6443
-7.3853	-2.9031	-5.2405	-6.2476	0.8486	-2.5643	-3.1611	1.3241	-0.4383	-0.0559	4.1682	2.067	1.7033	-0.9915	-2.0266	0.659	1.9769	1.6225	2.8907	-0.9107	5.1069	-8.125	1.666
-7.2671	-2.6824	-5.0727	-6.2041	0.9884	-2.44	-3.13	1.4516	-0.3264	-0.0435	4.2366	2.1043	1.6536	-0.9698	-1.9147	0.6963	1.924	1.551	2.9373	-0.8952	5.1628	-8.9394	1.7002
-7.1179	-2.4555	-4.8924	-6.1451	1.1687	-2.2659	-3.0803	1.6101	-0.2083	-0.0186	4.3329	2.1789	1.6443	-0.9511	-1.7966	0.7211	1.8743	1.5231	3.0026	-0.8548	5.2188	-9.4523	1.7313
-6.9874	-2.2535	-4.7121	-6.0953	1.3521	-2.1012	-3.0399	1.7344	-0.0995	-0.0218	4.4231	2.2224	1.6194	-0.9294	-1.7251	0.7242	1.8432	1.4671	3.0772	-0.8268	5.253	-9.6325	1.7655
-6.8227	-2.0079	-4.479	-6.0456	1.5448	-1.8836	-2.9777	1.8898	0.0404	0.0435	4.5319	2.2815	1.5914	-0.9107	-1.6505	0.6745	1.809	1.436	3.1487	-0.7833	5.2903	-9.446	1.7997
-6.6362	-1.7966	-4.2925	-5.9865	1.7158	-1.7313	-2.9529	2.0079	0.1647	0.0218	4.6034	2.3374	1.5355	-0.9138	-1.6318	0.6963	1.809	1.3925	3.2233	-0.7615	5.3524	-8.899	1.8308
-6.4839	-1.5914	-4.0749	-5.9368	1.8712	-1.5479	-2.9529	2.1229	0.3015	0.0093	4.6748	2.4213	1.5075	-0.9356	-1.5759	0.575	1.8494	1.3521	3.2761	-0.7429	5.3649	-8.2556	1.865
-6.2974	-1.4049	-3.8698	-5.8653	2.0328	-1.3583	-2.9249	2.2815	0.4258	0.0435	4.7681	2.4866	1.5106	-0.9542	-1.5231	0.4849	1.8898	1.3397	3.3632	-0.69	5.4239	-7.55	1.896
-6.0953	-1.1687	-3.6522	-5.7814	2.1913	-1.1687	-2.9	2.3965	0.5937	0.0435	4.8769	2.5892	1.5075	-0.9884	-1.4795	0.3419	1.952	1.321	3.4626	-0.6496	5.4457	-6.9346	1.9209
-5.8622	-0.9667	-3.4471	-5.6819	2.3436	-0.9418	-2.8472	2.5395	0.7522	0.0622	4.9732	2.6887	1.5168	-1.0195	-1.4018	0.1803	2.0079	1.2993	3.5621	-0.6123	5.4985	-6.5087	1.9271
-5.6912	-0.7771	-3.2171	-5.5762	2.5115	-0.7429	-2.7974	2.6638	0.9138	0.0901	5.0665	2.7974	1.5262	-1.0413	-1.321	0.0062	2.0701	1.3055	3.6336	-0.5719	5.5389	-6.2041	1.9209
-5.4768	-0.5657	-2.9839	-5.4675	2.6638	-0.5315	-2.7166	2.8006	1.0972	0.1399	5.1815	2.9746	1.5728	-1.0848	-1.2153	-0.23	2.1416	1.3303	3.7455	-0.5471	5.5793	-6.0518	1.952
-5.2903	-0.4041	-2.7726	-5.3276	2.8192	-0.3139	-2.6234	2.9249	1.2464	0.1554	5.2685	3.1176	1.6412	-1.1221	-1.1252	-0.4165	2.21	1.3552	3.817	-0.5066	5.6073	-6.0891	1.9706
-5.0976	-0.2331	-2.5301	-5.1815	2.9808	-0.0808	-2.5177	3.0772	1.4671	0.2051	5.3866	3.2823	1.722	-1.1314	-0.9884	-0.5906	2.2473	1.4018	3.9102	-0.4756	5.6353	-6.3502	1.9706
-4.9484	-0.0995	-2.3716	-5.023	3.1145	0.0995	-2.412	3.1767	1.635	0.2362	5.4612	3.4315	1.7686	-1.1656	-0.8921	-0.8144	2.3219	1.4391	3.9257	-0.4756	5.6353	-6.8568	1.98
-4.765	0.0591	-2.1416	-4.8147	3.2886	0.345	-2.2504	3.3165	1.8494	0.3512	5.5825	3.6584	1.9054	-1.1936	-0.7304	-0.9822	2.3436	1.4858	4.0035	-0.4569	5.6757	-7.5407	2.0142
-4.594	0.1834	-1.9396	-4.6251	3.4191	0.5408	-2.0857	3.4315	2.0328	0.4414	5.6571	3.8045	1.9955	-1.1874	-0.6123	-1.1128	2.3623	1.4889	4.0283	-0.4787	5.6819	-8.3364	2.0546
-4.4728	0.2766	-1.7904	-4.4324	3.5403	0.7367	-1.9085	3.5559	2.2255	0.5284	5.7223	3.9382	2.0546	-1.2184	-0.5004	-1.2216	2.3996	1.5231	4.0314	-0.4787	5.685	-9.0855	2.0981
-4.3205	0.3357	-1.6225	-4.2583	3.6242	0.9076	-1.7406	3.6336	2.3965	0.6092	5.7721	4.106	2.1634	-1.2278	-0.373	-1.321	2.44	1.4982	3.9972	-0.5377	5.6291	-9.7444	2.1323
-4.221	0.3606	-1.4795	-4.0501	3.7082	1.0786	-1.5137	3.7144	2.583	0.7802	5.8249	4.277	2.2721	-1.2309	-0.23	-1.4018	2.4276	1.5044	3.991	-0.5844	5.6073	-10.0957	2.1447
-4.1029	0.4041	-1.3334	-3.8574	3.7517	1.2557	-1.3055	3.7517	2.7446	0.8859	5.8529	4.4324	2.3809	-1.2371	-0.1026	-1.4516	2.4369	1.5199	3.9879	-0.6372	5.5452	-10.0832	2.1478
-4.0283	0.4352	-1.206	-3.6491	3.8201	1.4236	-1.0724	3.7921	2.9125	1.0444	5.856	4.5785	2.5053	-1.2184	0.0373	-1.492	2.4462	1.5075	3.9506	-0.6963	5.4612	-9.7289	2.1323
-3.9786	0.4662	-1.0661	-3.4844	3.9009	1.551	-0.8734	3.8232	3.0865	1.178	5.8933	4.7152	2.6172	-1.2526	0.1741	-1.551	2.4773	1.4826	3.9195	-0.7553	5.3773	-9.1663	2.1136
-3.9164	0.5004	-0.9822	-3.301	3.9195	1.6847	-0.69	3.8574	3.2419	1.321	5.8809	4.8458	2.7228	-1.2557	0.2953	-1.5572	2.4959	1.4671	3.8636	-0.7988	5.2872	-8.498	2.0919
-3.8822	0.5284	-0.8859	-3.1487	3.9972	1.8339	-0.5098	3.9102	3.3818	1.436	5.9088	5.0199	2.8472	-1.2557	0.4414	-1.5541	2.4928	1.4578	3.8418	-0.8517	5.2157	-7.8701	2.0732
-3.8636	0.4973	-0.7864	-3.015	4.019	1.9271	-0.4041	3.9351	3.5217	1.5324	5.8933	5.1318	2.9125	-1.2651	0.5502	-1.5199	2.5115	1.4018	3.8076	-0.9107	5.1162	-7.3635	2.0421
-3.8107	0.5222	-0.7398	-2.9031	4.0221	2.0111	-0.3202	3.9413	3.6678	1.6163	5.9088	5.2654	2.9995	-1.2713	0.6465	-1.5106	2.5177	1.3583	3.7548	-0.9636	5.0012	-7.034	2.0235
-3.848	0.5284	-0.6341	-2.8254	4.0314	2.1012	-0.23	3.9693	3.7921	1.7002	5.8746	5.396	3.0741	-1.2744	0.7367	-1.4453	2.527	1.3024	3.6988	-1.0288	4.9049	-6.8195	2.0079
-3.8232	0.5253	-0.5626	-2.7384	4.0563	2.2193	-0.1865	3.963	3.9226	1.7779	5.8902	5.5172	3.1767	-1.262	0.8175	-1.3521	2.5115	1.2464	3.6429	-1.091	4.8023	-6.7916	1.9862
-3.8356	0.5595	-0.5004	-2.6482	4.0905	2.3188	-0.1212	3.9693	4.0408	1.8587	5.8871	5.6664	3.245	-1.2557	0.8952	-1.2744	2.4835	1.2091	3.6025	-1.1065	4.709	-6.9252	1.9893
-3.817	0.5937	-0.4693	-2.6389	4.106	2.3965	-0.1088	3.9693	4.1495	1.924	5.8684	5.7441	3.3103	-1.2557	0.948	-1.2029	2.4959	1.1376	3.559	-1.1438	4.6034	-7.2827	1.9955
-3.7859	0.6652	-0.3916	-2.5768	4.1464	2.4866	-0.0715	3.9817	4.2801	1.9893	5.8902	5.8995	3.4036	-1.2433	1.0009	-1.0786	2.4742	1.0941	3.5092	-1.1594	4.5319	-7.8049	2.0079
-3.7734	0.7367	-0.317	-2.5519	4.2024	2.6047	-0.028	4.0066	4.4386	2.0919	5.8809	6.0363	3.4937	-1.2309	1.0413	-0.9325	2.44	1.0444	3.4688	-1.1625	4.451	-8.5477	1.9986
-3.6895	0.7957	-0.2549	-2.5146	4.2366	2.7073	-0.0093	4.0501	4.5505	2.1727	5.8964	6.1668	3.5838	-1.2153	1.0848	-0.7926	2.4213	0.9884	3.4315	-1.1998	4.3516	-9.3248	2.0359
-3.6553	0.8734	-0.1803	-2.4928	4.2956	2.7943	0.0435	4.0843	4.7059	2.2815	5.9213	6.316	3.6864	-1.1967	1.147	-0.7025	2.3747	0.92	3.3818	-1.2309	4.2894	-10.049	2.0484
-3.5838	0.948	-0.0653	-2.4369	4.3423	2.9466	0.1368	4.1495	4.8489	2.3934	5.9834	6.4683	3.7828	-1.1718	1.1967	-0.5408	2.325	0.8859	3.3507	-1.2278	4.2304	-10.5712	2.0825
-3.5186	1.0164	0.0124	-2.4462	4.4075	3.0461	0.1616	4.2148	4.9795	2.4804	6.0114	6.574	3.8667	-1.1563	1.2402	-0.4507	2.2846	0.8206	3.3196	-1.2557	4.1651	-10.7857	2.1105
-3.4409	1.0972	0.1399	-2.3996	4.479	3.1704	0.1989	4.2863	5.138	2.5861	6.0798	6.7418	3.9506	-1.1283	1.2837	-0.3357	2.2442	0.7615	3.2917	-1.2557	4.1154	-10.6396	2.1571
-3.3725	1.1376	0.2114	-2.3778	4.535	3.3259	0.2549	4.3796	5.3027	2.67	6.1171	6.86	4.0003	-1.119	1.3148	-0.2797	2.2007	0.6869	3.2637	-1.2775	4.0625	-10.1765	2.1789
-3.3134	1.206	0.3233	-2.3219	4.6344	3.4564	0.3202	4.4852	5.4457	2.7384	6.1979	7.0278	4.0532	-1.0941	1.3739	-0.2207	2.1571	0.6061	3.2171	-1.293	4.0159	-9.4896	2.238
-3.2077	1.262	0.4041	-2.2784	4.7215	3.5994	0.3823	4.622	5.598	2.8192	6.3005	7.1677	4.1247	-1.0661	1.4422	-0.1989	2.1198	0.5408	3.1891	-1.3117	3.9848	-8.7498	2.2877
-3.1331	1.3024	0.5222	-2.2504	4.8023	3.7455	0.4569	4.7836	5.7658	2.9093	6.4248	7.348	4.1837	-1.0413	1.4702	-0.2114	2.0794	0.4756	3.1798	-1.3055	3.9724	-8.0349	2.3561
-3.0523	1.3956	0.6621	-2.1696	4.9266	3.9226	0.5719	4.9515	5.9368	2.9964	6.5585	7.5065	4.2583	-1.0195	1.5199	-0.2269	2.0204	0.432	3.2015	-1.3148	4.0003	-7.4816	2.4431
-2.9311	1.4485	0.7584	-2.0701	5.023	4.0625	0.69	5.1131	6.1202	3.1021	6.6952	7.6961	4.3267	-1.004	1.5168	-0.2176	1.9893	0.3606	3.2264	-1.3241	4.0035	-7.034	2.5177
-2.8534	1.4795	0.8734	-1.9613	5.1069	4.2428	0.8268	5.2778	6.2943	3.158	6.8351	7.836	4.3578	-0.9978	1.5013	-0.2331	1.9613	0.2611	3.2419	-1.3397	4.0159	-6.7139	2.5923
-2.726	1.5883	1.0226	-1.7997	5.2281	4.4262	1.0319	5.4395	6.459	3.2761	6.9905	8.0287	4.4448	-0.9667	1.4578	-0.1834	1.9085	0.2207	3.3134	-1.3272	4.0501	-6.5491	2.6451
-2.6296	1.6132	1.1656	-1.6381	5.3493	4.622	1.2216	5.626	6.6828	3.388	7.1646	8.2214	4.4946	-0.9542	1.4267	-0.1585	1.8867	0.1741	3.3383	-1.3241	4.0781	-6.6299	2.7011
-2.5239	1.7158	1.3117	-1.464	5.4612	4.8271	1.4391	5.8249	6.8662	3.5279	7.3417	8.4017	4.5878	-0.9294	1.3863	-0.1305	1.8401	0.1399	3.4067	-1.2961	4.1216	-6.9408	2.7477
-2.4089	1.8183	1.4547	-1.2433	5.5762	5.0074	1.6723	5.999	7.062	3.6429	7.5189	8.5757	4.6438	-0.9076	1.3614	-0.0839	1.7997	0.0995	3.4657	-1.2433	4.1713	-7.4661	2.8068
-2.3436	1.8898	1.6194	-1.0724	5.7099	5.2374	1.896	6.1606	7.2298	3.7579	7.7023	8.7684	4.7028	-0.8859	1.3148	-0.028	1.7593	0.0746	3.5496	-1.1998	4.2335	-8.1748	2.8658
-2.2317	2.0048	1.75	-0.8734	5.7969	5.4333	2.1012	6.3253	7.4412	3.8698	7.8328	8.9363	4.7712	-0.8921	1.2993	-0.0435	1.7655	0.0342	3.5776	-1.1718	4.2552	-8.9456	2.928
-2.1571	2.1167	1.9209	-0.6838	5.9461	5.6446	2.3374	6.5118	7.6463	4.019	8.0224	9.1228	4.8644	-0.8672	1.3241	-0.0155	1.7282	0.0435	3.6491	-1.1003	4.3112	-9.6201	2.9995
-2.1074	2.2286	2.067	-0.5315	6.0487	5.8249	2.5053	6.6362	7.8142	4.1402	8.1748	9.2906	4.9422	-0.8734	1.3459	-0.0218	1.7375	0.0653	3.733	-1.0724	4.364	-10.0739	3.0989
-2.0608	2.3405	2.2131	-0.3699	6.1606	6.0269	2.6669	6.7854	8.0318	4.2614	8.324	9.446	5.0385	-0.8672	1.4049	-0.0124	1.7251	0.1026	3.7734	-0.9853	4.3827	-10.1734	3.1642
-2.0204	2.4742	2.3499	-0.2456	6.2849	6.2134	2.8192	6.947	8.2183	4.3951	8.4794	9.6325	5.1566	-0.8703	1.4578	-0.0404	1.7282	0.1927	3.8138	-0.9107	4.4355	-9.9527	3.2854
-1.9955	2.6296	2.4804	-0.0839	6.4061	6.4061	2.9684	7.0402	8.4327	4.5288	8.6255	9.8097	5.2592	-0.8796	1.5448	-0.1119	1.7375	0.2953	3.8667	-0.8299	4.479	-9.4212	3.4004
-1.9986	2.757	2.6389	0.0466	6.5149	6.5771	3.0927	7.1615	8.5975	4.6686	8.7715	9.9496	5.3835	-0.8672	1.6256	-0.1616	1.7282	0.3916	3.8853	-0.7864	4.5039	-8.7591	3.5341
-1.9738	2.9031	2.7757	0.2145	6.6548	6.7854	3.245	7.2796	8.8399	4.8365	8.8959	10.1485	5.5483	-0.8579	1.7189	-0.23	1.7158	0.5253	3.9413	-0.6776	4.5661	-8.0411	3.6553
-1.9769	3.0368	2.8783	0.3823	6.7605	6.9439	3.3569	7.3821	9.0109	4.9639	9.0078	10.3008	5.6664	-0.8703	1.8059	-0.3108	1.75	0.6217	3.9568	-0.6558	4.5909	-7.4288	3.7548
-1.9582	3.2233	3.0492	0.5657	6.8973	7.1397	3.5279	7.4847	9.2036	5.1442	9.1476	10.5215	5.828	-0.8859	1.8992	-0.4352	1.7468	0.7398	4.0283	-0.5812	4.65	-6.9594	3.8325
-1.9613	3.388	3.1891	0.746	7.0402	7.3044	3.6647	7.5718	9.359	5.3058	9.272	10.7018	5.9772	-0.8859	2.0079	-0.5502	1.75	0.8268	4.0843	-0.5595	4.6748	-6.6486	3.8978
-1.9489	3.531	3.3072	0.9387	7.1646	7.4878	3.817	7.6899	9.5766	5.5047	9.4087	10.8914	6.1202	-0.8734	2.1012	-0.6465	1.7375	0.9263	4.1371	-0.5129	4.7308	-6.4621	3.9413
-1.9489	3.6833	3.4377	1.1159	7.2982	7.6339	3.932	7.7489	9.7506	5.6477	9.5051	11.0623	6.2601	-0.8827	2.1416	-0.6963	1.7593	1.0133	4.1962	-0.488	4.7588	-6.4217	3.9817
-1.9613	3.8138	3.5496	1.2682	7.407	7.8204	4.0687	7.8266	9.9061	5.8	9.6139	11.2333	6.3906	-0.8859	2.1602	-0.7646	1.7717	1.0786	4.2521	-0.4538	4.7774	-6.6051	4.0221
-1.9333	3.9599	3.6709	1.3707	7.5469	7.9354	4.1495	7.8795	10.0739	5.915	9.6761	11.3514	6.4839	-0.8952	2.1634	-0.8082	1.7841	1.1501	4.2863	-0.4103	4.8085	-6.9532	4.047
-1.9644	4.0812	3.761	1.4733	7.6215	8.0597	4.1931	7.923	10.2293	6.0363	9.7631	11.5068	6.6144	-0.8765	2.1447	-0.7988	1.7562	1.2184	4.3174	-0.3699	4.8582	-7.5749	4.0625
-1.9644	4.2397	3.8511	1.5075	7.7365	8.1841	4.221	7.9541	10.3474	6.1046	9.7786	11.597	6.6704	-0.8796	2.0981	-0.7709	1.7468	1.2495	4.3454	-0.3388	4.8582	-8.3146	4.0781
-1.98	4.3516	3.9599	1.5199	7.7831	8.2929	4.2366	7.9696	10.4376	6.1482	9.7911	11.6778	6.6859	-0.8672	1.9924	-0.7025	1.7251	1.2682	4.3298	-0.3419	4.8396	-9.0482	4.0781
-1.9489	4.4977	4.0749	1.5355	7.8826	8.411	4.2272	7.9945	10.5837	6.2228	9.8315	11.771	6.7325	-0.8423	1.8743	-0.5626	1.6754	1.262	4.3733	-0.286	4.852	-9.6201	4.0905
-1.9613	4.6189	4.1527	1.4764	7.9479	8.4887	4.1931	7.9603	10.6272	6.2445	9.8159	11.8083	6.7387	-0.8423	1.7158	-0.4352	1.6723	1.2278	4.3298	-0.2922	4.8365	-9.962	4.0812
-1.9489	4.7028	4.2583	1.3863	8.0038	8.5726	4.134	7.951	10.7018	6.2507	9.8066	11.8394	6.7263	-0.8392	1.5262	-0.2393	1.666	1.1718	4.2925	-0.3108	4.7992	-9.934	4.0656
-1.9365	4.8676	4.3454	1.3303	8.0784	8.6969	4.0967	7.9945	10.8075	6.2911	9.8035	11.8985	6.7418	-0.8454	1.3179	-0.0404	1.6629	1.147	4.2614	-0.3233	4.7992	-9.5673	4.0501
-1.8836	5.0074	4.4728	1.2744	8.1841	8.843	4.0625	8.0038	10.9287	6.3315	9.8252	11.9731	6.7605	-0.8268	1.1128	0.1616	1.6474	1.1345	4.2366	-0.317	4.7805	-8.9953	4.0003
-1.8308	5.1722	4.622	1.1749	8.2618	8.9549	4.0035	8.0473	11.0126	6.3813	9.847	12.0539	6.776	-0.8392	0.8952	0.3512	1.666	1.0817	4.221	-0.3637	4.7743	-8.2929	3.9568
-1.7531	5.3431	4.737	1.1252	8.3675	9.1072	3.9662	8.1033	11.1432	6.4466	9.8719	12.144	6.8413	-0.8517	0.6807	0.5066	1.6723	1.0786	4.2086	-0.4072	4.8147	-7.5624	3.9009
-1.6598	5.5047	4.9328	1.1283	8.5042	9.2999	3.9755	8.1872	11.2986	6.5305	9.9371	12.2932	6.9221	-0.8548	0.4756	0.6838	1.6723	1.1252	4.1775	-0.4258	4.8427	-6.9221	3.8449
-1.5262	5.7068	5.1255	1.1532	8.6379	9.5082	4.0221	8.2773	11.4447	6.6704	10.018	12.4362	7.034	-0.8299	0.2704	0.8237	1.6505	1.1656	4.1775	-0.46	4.8707	-6.3844	3.789
-1.3645	5.8746	5.3245	1.1749	8.7684	9.704	4.0501	8.3799	11.5939	6.7636	10.0988	12.5667	7.1552	-0.8113	0.0932	0.9542	1.6101	1.2464	4.1837	-0.4787	4.9049	-5.8964	3.7237
-1.2278	6.03	5.511	1.2433	8.8928	9.9123	4.0998	8.4607	11.7555	6.8941	10.1765	12.719	7.2734	-0.8082	-0.1243	1.0133	1.5914	1.3055	4.1527	-0.5098	4.9422	-5.5234	3.6584
-1.0724	6.1979	5.7223	1.3055	9.0078	10.1205	4.1247	8.5819	11.914	7.0216	10.2449	12.8589	7.3853	-0.7833	-0.2766	1.0879	1.5479	1.3863	4.1185	-0.5004	4.9453	-5.3214	3.5994
-0.8703	6.403	5.9461	1.4049	9.1787	10.3568	4.2366	8.7218	12.0912	7.1646	10.3692	13.0361	7.5407	-0.7491	-0.4165	1.1811	1.4764	1.492	4.1185	-0.46	4.995	-5.2965	3.5248
-0.7087	6.5585	6.1637	1.4982	9.3062	10.5557	4.2987	8.8399	12.2808	7.3013	10.4624	13.2102	7.6961	-0.7149	-0.5284	1.2247	1.4205	1.6008	4.0687	-0.46	4.9981	-5.455	3.4813
-0.5812	6.6859	6.3502	1.5728	9.3994	10.7391	4.364	8.9456	12.4144	7.4101	10.5495	13.3376	7.7955	-0.7056	-0.6403	1.147	1.4018	1.6878	4.0035	-0.4787	4.9981	-5.8125	3.4409
-0.4165	6.8164	6.5398	1.7406	9.5455	10.9442	4.5039	9.0575	12.5854	7.5718	10.6676	13.521	7.9696	-0.6776	-0.6652	1.1065	1.3303	1.8277	3.9817	-0.4258	5.0509	-6.2818	3.3694
-0.258	6.9128	6.6735	1.8525	9.617	11.0872	4.5971	9.1632	12.7222	7.6681	10.7484	13.6267	8.0691	-0.6745	-0.718	1.0195	1.3148	1.924	3.9226	-0.4041	5.0323	-6.6704	3.3103
-0.1399	7.0185	6.8817	2.0048	9.7009	11.2675	4.7059	9.2502	12.8745	7.7862	10.8137	13.7386	8.1903	-0.6403	-0.7491	0.9449	1.2744	2.0484	3.8543	-0.3512	5.0385	-6.9097	3.273
-0.028	7.1117	7.0433	2.1167	9.7942	11.4136	4.7743	9.331	12.9833	7.8826	10.9225	13.894	8.2898	-0.6248	-0.7304	0.8237	1.2371	2.1354	3.8076	-0.3481	5.0416	-6.8631	3.2295
0.1119	7.2112	7.1894	2.2411	9.8688	11.5286	4.8676	9.3963	13.092	7.9572	10.9784	13.9903	8.3706	-0.6154	-0.746	0.69	1.2247	2.1882	3.7144	-0.2953	4.9857	-6.5118	3.1829
0.2083	7.2796	7.348	2.3312	9.9061	11.656	4.9359	9.4616	13.176	8.01	11.0717	14.0805	8.4234	-0.6061	-0.7118	0.575	1.2029	2.2504	3.6647	-0.2642	4.9701	-5.8653	3.1767
0.3512	7.348	7.4412	2.4245	9.9713	11.7524	5.0105	9.5051	13.2537	8.0411	11.081	14.1333	8.4731	-0.5906	-0.6838	0.4445	1.1843	2.3094	3.5994	-0.2642	4.9484	-4.9981	3.1456
0.4445	7.4319	7.5811	2.527	10.049	11.8549	5.1069	9.5517	13.3252	8.0722	11.1649	14.2203	8.5104	-0.5844	-0.6838	0.3481	1.1656	2.3436	3.5341	-0.1989	4.908	-4.1091	3.1425
0.5408	7.4661	7.6619	2.5799	10.0335	11.886	5.1286	9.5797	13.3842	8.097	11.1805	14.2483	8.5073	-0.5844	-0.6994	0.2673	1.1718	2.3716	3.4409	-0.1958	4.8427	-3.2854	3.1518
0.6434	7.5593	7.7676	2.6731	10.077	11.9606	5.2374	9.6108	13.4371	8.1561	11.2115	14.2918	8.5446	-0.5595	-0.6838	0.1741	1.1283	2.4307	3.4036	-0.1616	4.8116	-2.6172	3.186
0.7367	7.5749	7.8701	2.7104	10.0739	11.9762	5.3058	9.5828	13.4433	8.153	11.224	14.3229	8.5602	-0.5595	-0.7056	0.0715	1.0941	2.468	3.3818	-0.1399	4.7619	-2.1136	3.2046
0.8361	7.6153	7.9416	2.7601	10.077	12.0104	5.3929	9.5952	13.4899	8.1996	11.224	14.3726	8.5944	-0.5346	-0.7336	0.0186	1.0568	2.5146	3.3321	-0.0932	4.7121	-1.7531	3.2513
0.8703	7.6619	8.0007	2.8068	10.0584	11.9948	5.4737	9.5735	13.5241	8.2307	11.224	14.4193	8.6317	-0.5222	-0.7553	-0.0715	1.0195	2.555	3.2575	-0.0249	4.6717	-1.6287	3.3103
0.9449	7.6743	8.0193	2.8752	10.0615	11.9917	5.5731	9.5486	13.5396	8.2587	11.2146	14.4877	8.669	-0.488	-0.7584	-0.143	0.9698	2.6109	3.2264	0.0218	4.622	-1.7189	3.3787
0.9822	7.6588	8.0908	2.9435	10.0242	11.9917	5.685	9.5424	13.5614	8.3177	11.2209	14.5281	8.7342	-0.4631	-0.8019	-0.2176	0.9356	2.6638	3.2046	0.0964	4.6034	-1.9986	3.4315
1.0164	7.6463	8.1126	3.0243	9.9651	11.9886	5.7752	9.5082	13.5707	8.3892	11.2084	14.6058	8.8026	-0.46	-0.8113	-0.3233	0.9014	2.7539	3.2108	0.1772	4.6002	-2.5208	3.4813
1.063	7.6122	8.1592	3.1207	9.9278	11.9762	5.8809	9.4802	13.6173	8.47	11.2675	14.727	8.9238	-0.4165	-0.8268	-0.3948	0.8392	2.8534	3.1642	0.2549	4.6034	-3.2388	3.5465
1.147	7.6059	8.2431	3.2357	9.903	11.9731	5.9741	9.4771	13.6422	8.5695	11.3079	14.8544	9.0357	-0.401	-0.805	-0.4849	0.7926	2.9933	3.2233	0.3668	4.6531	-3.991	3.5776
1.1843	7.5718	8.2649	3.3663	9.875	11.9668	6.0953	9.4616	13.7075	8.6503	11.3763	14.9694	9.1849	-0.373	-0.833	-0.5191	0.7522	3.1238	3.2388	0.4569	4.6873	-4.6624	3.5807
1.2216	7.5189	8.3177	3.4471	9.8377	11.9544	6.1979	9.4989	13.7634	8.7871	11.4415	15.1435	9.3435	-0.3637	-0.8486	-0.5719	0.7304	3.2979	3.3072	0.5999	4.765	-5.0913	3.5869
1.2713	7.4723	8.3333	3.5248	9.7817	11.9637	6.2725	9.502	13.8442	8.9052	11.5255	15.3113	9.5548	-0.3606	-0.8765	-0.5906	0.7056	3.4502	3.3756	0.7615	4.88	-5.1162	3.5932
1.3148	7.4257	8.3519	3.6242	9.76	11.9731	6.3626	9.5082	13.9095	9.0451	11.6343	15.5072	9.7444	-0.345	-0.9045	-0.5502	0.6683	3.6274	3.4471	0.8734	4.9888	-4.7992	3.5683
1.3055	7.3386	8.3177	3.6305	9.6667	11.9295	6.3626	9.5082	13.9592	9.1445	11.7368	15.6812	9.9371	-0.3295	-0.9946	-0.5222	0.6714	3.761	3.5155	0.9418	5.0789	-4.1962	3.6025
1.3024	7.2547	8.3053	3.6274	9.6139	11.8985	6.4155	9.5113	14.009	9.2564	11.8052	15.8553	10.1423	-0.3419	-1.0755	-0.4818	0.6776	3.9382	3.5994	1.063	5.1846	-3.36	3.6025
1.3521	7.2019	8.324	3.6087	9.5828	11.8922	6.4683	9.5455	14.1022	9.4367	11.9482	16.0977	10.3941	-0.3295	-1.1625	-0.3885	0.6496	4.1216	3.7051	1.1376	5.3151	-2.5115	3.6087
1.3645	7.1552	8.3333	3.5838	9.5237	11.8549	6.4932	9.5579	14.1457	9.589	12.0477	16.3029	10.6179	-0.317	-1.2682	-0.3077	0.6279	4.2956	3.7797	1.2184	5.4333	-1.722	3.5901
1.3614	7.0744	8.2649	3.5061	9.4678	11.8114	6.5429	9.5548	14.1955	9.7196	12.1533	16.4987	10.8479	-0.3326	-1.4143	-0.2083	0.6434	4.4542	3.8667	1.2775	5.5483	-1.0413	3.5994
1.3614	7.0309	8.2494	3.4688	9.4025	11.7897	6.5802	9.561	14.2981	9.8874	12.2808	16.707	11.1059	-0.2984	-1.5324	-0.1212	0.5999	4.6438	3.963	1.3645	5.7037	-0.5408	3.6025
1.3676	6.9936	8.2245	3.3756	9.387	11.7493	6.5989	9.6046	14.3571	10.0211	12.3865	16.8935	11.3079	-0.2953	-1.7033	0.0404	0.5688	4.7961	4.0625	1.4547	5.8498	-0.1368	3.5963
1.4174	6.9967	8.2152	3.3259	9.3839	11.7275	6.6548	9.6325	14.4286	10.1672	12.5139	17.0893	11.5348	-0.2766	-1.8556	0.1896	0.5253	4.9608	4.1558	1.5572	5.9803	0.0964	3.5901
1.4112	6.9843	8.2027	3.273	9.3777	11.7275	6.7108	9.6481	14.5032	10.3195	12.6227	17.3037	11.7679	-0.2642	-2.0173	0.3295	0.4973	5.1038	4.2583	1.6691	6.114	0.0653	3.5807
1.4547	7.0216	8.1872	3.2481	9.4243	11.7399	6.776	9.7133	14.6182	10.4624	12.747	17.5027	11.9824	-0.2456	-2.1944	0.4973	0.4693	5.2778	4.3205	1.7748	6.2414	-0.1927	3.5683
1.4889	7.0682	8.1965	3.1642	9.4616	11.7399	6.8506	9.76	14.6928	10.6085	12.8838	17.7016	12.1938	-0.2238	-2.384	0.6558	0.4352	5.4084	4.451	1.9365	6.3502	-0.6061	3.5745
1.5604	7.1615	8.2152	3.1798	9.5455	11.7804	6.9408	9.8532	14.8016	10.7702	13.0143	17.913	12.4175	-0.2114	-2.6047	0.8579	0.4196	5.5327	4.5505	2.0701	6.4745	-1.1532	3.5807
1.6256	7.2516	8.2587	3.1829	9.6294	11.8301	7.0465	9.9154	14.9166	10.9007	13.1138	18.1088	12.6227	-0.2083	-2.7974	1.0133	0.4041	5.6757	4.6531	2.2131	6.5833	-1.7127	3.5714
1.694	7.3324	8.2929	3.1922	9.6823	11.8643	7.1304	9.9838	15.0161	11.0654	13.2257	18.3202	12.8341	-0.2083	-3.0306	1.2029	0.4227	5.7938	4.7246	2.3716	6.7014	-2.0919	3.6087
1.7686	7.4039	8.3084	3.1891	9.7786	11.914	7.2361	10.0863	15.1342	11.2022	13.3376	18.5098	13.0361	-0.202	-3.2606	1.436	0.4103	5.9213	4.8178	2.5177	6.776	-2.1944	3.6553
1.8401	7.494	8.3737	3.2326	9.8625	11.9606	7.3107	10.1267	15.2399	11.3359	13.4277	18.7056	13.2319	-0.1989	-3.4875	1.6163	0.3948	6.058	4.8986	2.6638	6.8817	-1.9147	3.7268
1.8805	7.5531	8.3861	3.245	9.934	12.001	7.3697	10.1827	15.3455	11.4509	13.5117	18.8734	13.3873	-0.1927	-3.7051	1.7841	0.3823	6.1637	4.9546	2.7943	6.9563	-1.3428	3.7797
1.952	7.6215	8.4514	3.273	9.9962	12.0756	7.4412	10.2418	15.4295	11.5659	13.5707	19.0226	13.5738	-0.1865	-3.9289	1.9831	0.3699	6.2538	4.9919	2.9373	7.0029	-0.4756	3.8791
2.0142	7.7209	8.4856	3.3103	10.0801	12.1223	7.494	10.3039	15.5134	11.6591	13.6111	19.1811	13.7075	-0.1803	-4.1122	2.1198	0.3388	6.3347	5.023	3.0212	7.0371	0.5066	3.963
2.0763	7.7893	8.5446	3.3849	10.1361	12.1689	7.5655	10.3381	15.616	11.7617	13.6484	19.3117	13.8474	-0.1585	-4.2987	2.2908	0.2922	6.4217	5.0292	3.1021	7.0806	1.4453	4.0408
2.1198	7.8453	8.5509	3.416	10.1951	12.2373	7.6215	10.3537	15.6843	11.827	13.6671	19.436	13.981	-0.1212	-4.4448	2.4089	0.2424	6.4528	5.0416	3.1642	7.0744	2.2784	4.1371
2.1851	7.8826	8.5944	3.5061	10.2511	12.2932	7.6712	10.3972	15.7993	11.9389	13.7044	19.5821	14.1116	-0.0839	-4.5785	2.6047	0.1585	6.518	5.0385	3.2295	7.0806	2.9715	4.2086
2.2038	7.9199	8.6286	3.5372	10.3132	12.3554	7.7241	10.4127	15.8615	12.0321	13.7075	19.694	14.2421	-0.0622	-4.6966	2.6887	0.1057	6.5647	5.0043	3.2699	7.09	3.503	4.2708
2.2317	7.9479	8.6255	3.5155	10.3443	12.3616	7.7551	10.4158	15.9299	12.0663	13.7137	19.8152	14.3447	-0.0186	-4.7961	2.8161	0.0373	6.602	4.9453	3.2823	7.0247	3.848	4.336
2.2007	7.923	8.6379	3.5248	10.3723	12.4144	7.8018	10.4283	16.0076	12.1285	13.7075	19.9147	14.4348	0.028	-4.8676	2.9311	-0.0497	6.6393	4.908	3.2886	6.9905	3.991	4.4013
2.2566	7.9758	8.7001	3.503	10.4034	12.4704	7.8328	10.45	16.0698	12.1969	13.7168	19.9769	14.5312	0.0591	-4.8769	2.9746	-0.1243	6.661	4.8427	3.2886	6.9252	3.8574	4.4666
2.2348	7.9665	8.6876	3.4844	10.4314	12.4953	7.867	10.4345	16.1071	12.2466	13.6702	20.0639	14.6182	0.1026	-4.9049	3.0243	-0.2083	6.6735	4.7836	3.301	6.8351	3.5403	4.5754
2.2348	8.01	8.7001	3.4782	10.4935	12.5388	7.8826	10.4656	16.1661	12.2901	13.6702	20.0919	14.6493	0.1461	-4.8893	3.0523	-0.2953	6.6797	4.7121	3.2699	6.7667	2.9746	4.6282
2.2566	8.0349	8.7187	3.4782	10.5401	12.6103	7.9603	10.4749	16.2127	12.3274	13.6795	20.1198	14.6897	0.2051	-4.852	3.0679	-0.3979	6.6952	4.6282	3.2823	6.6548	2.3032	4.7028
2.2286	8.0287	8.7249	3.4875	10.5526	12.6227	8.01	10.4656	16.2469	12.3305	13.6298	20.1354	14.6928	0.2238	-4.8209	3.0119	-0.46	6.6952	4.5319	3.2637	6.5429	1.6816	4.7619
2.2038	8.0224	8.7187	3.4875	10.5712	12.6413	8.0224	10.4407	16.2469	12.3305	13.5707	20.1105	14.6555	0.2611	-4.7805	2.9466	-0.5191	6.6393	4.4386	3.2264	6.4061	1.2464	4.8023
2.154	7.9727	8.6876	3.475	10.5743	12.6476	8.0318	10.4096	16.2376	12.3088	13.4744	20.0421	14.6151	0.2704	-4.7463	2.8472	-0.5408	6.5802	4.3329	3.1767	6.2414	1.1159	4.8303
2.1261	7.951	8.6814	3.5155	10.5215	12.6258	8.0318	10.3754	16.219	12.2808	13.4557	19.9675	14.5374	0.2984	-4.6935	2.7726	-0.603	6.5367	4.2428	3.1549	6.1078	1.2557	4.8582
2.067	7.895	8.6286	3.531	10.5122	12.604	8.0131	10.3319	16.1786	12.2124	13.3531	19.8898	14.4566	0.3233	-4.5971	2.6358	-0.6558	6.4683	4.1464	3.1269	5.9648	1.666	4.8551
1.9893	7.8173	8.5664	3.5496	10.4624	12.5574	7.9634	10.2759	16.1164	12.144	13.2599	19.7748	14.326	0.3202	-4.5443	2.468	-0.6745	6.3751	4.0345	3.0896	5.8	2.2784	4.8303
1.9147	7.7614	8.5042	3.5279	10.3972	12.5263	7.9168	10.2138	16.0325	12.057	13.1511	19.6287	14.2017	0.3512	-4.4604	2.3281	-0.7149	6.2663	3.932	3.0368	5.6135	2.9	4.7898
1.8152	7.6619	8.4359	3.5341	10.3288	12.4673	7.8235	10.1454	15.9921	11.9606	13.0734	19.5137	14.0525	0.3885	-4.3889	2.2069	-0.7646	6.1451	3.8045	3.0026	5.4208	3.4657	4.7401
1.7437	7.5966	8.3519	3.5092	10.2635	12.402	7.7458	10.077	15.8957	11.8736	12.9926	19.4018	13.9313	0.401	-4.3236	2.095	-0.8299	6.0673	3.6957	2.9839	5.253	3.8667	4.6997
1.6536	7.4723	8.2587	3.475	10.1796	12.3523	7.6805	10.0117	15.8273	11.799	12.8993	19.2993	13.8442	0.4258	-4.2894	2.0173	-0.8672	6.0114	3.5683	2.9808	5.0758	4.1216	4.6717
1.5883	7.3448	8.1779	3.4409	10.0801	12.2559	7.6153	9.9092	15.7403	11.7275	12.7843	19.178	13.7386	0.4631	-4.249	1.9675	-0.9232	5.9399	3.4346	2.9933	4.908	4.2304	4.6438
1.5075	7.2454	8.097	3.3818	9.9744	12.1875	7.5282	9.8221	15.6564	11.6871	12.7284	19.0724	13.6671	0.4818	-4.221	1.9427	-0.9605	5.9088	3.3041	3.0461	4.7277	4.1216	4.6002
1.4516	7.1055	7.9976	3.3383	9.8501	12.116	7.494	9.7724	15.6222	11.6374	12.66	18.9791	13.6049	0.5004	-4.2179	2.0079	-1.0133	5.8777	3.1549	3.0585	4.5785	3.9009	4.5847
1.3707	6.9812	7.9043	3.2823	9.7165	12.0166	7.3853	9.6543	15.5351	11.5721	12.5667	18.8765	13.5272	0.516	-4.2677	2.0701	-1.0226	5.8373	2.9995	3.0927	4.3796	3.4191	4.5567
1.3552	6.8941	7.8546	3.2823	9.6356	11.9544	7.3635	9.5766	15.4481	11.5597	12.5015	18.805	13.493	0.5253	-4.305	2.1944	-1.0786	5.8404	2.8752	3.1207	4.2397	2.7508	4.535
1.3055	6.7698	7.7614	3.245	9.5269	11.914	7.3138	9.4958	15.3953	11.5441	12.4362	18.7211	13.4619	0.5439	-4.364	2.3188	-1.1097	5.8436	2.7353	3.2108	4.0749	1.9427	4.5008
1.2464	6.6797	7.6557	3.2388	9.4274	11.8332	7.2671	9.4056	15.3424	11.5286	12.3554	18.6341	13.4215	0.5595	-4.42	2.4835	-1.1221	5.8249	2.5488	3.2792	3.9444	1.0724	4.4573
1.2184	6.6237	7.5811	3.2202	9.3466	11.7493	7.2361	9.3839	15.2927	11.5037	12.2839	18.5377	13.3531	0.5595	-4.5163	2.6669	-1.1283	5.828	2.412	3.3632	3.7983	0.3233	4.4479
1.1718	6.5585	7.4878	3.1953	9.2689	11.6716	7.1925	9.2999	15.215	11.4882	12.2093	18.4631	13.3127	0.5626	-4.6065	2.8534	-1.1283	5.8031	2.2784	3.4222	3.6553	-0.1243	4.4417
1.1283	6.5243	7.435	3.1767	9.2191	11.6125	7.1956	9.2627	15.1777	11.482	12.1347	18.3854	13.2941	0.575	-4.6935	3.0616	-1.1563	5.7969	2.1509	3.4875	3.5186	-0.1927	4.4666
1.0661	6.4466	7.3417	3.1114	9.1321	11.5628	7.1832	9.1881	15.1093	11.4851	12.0041	18.286	13.2537	0.575	-4.8054	3.2544	-1.1532	5.7752	1.9955	3.5372	3.3725	0.0684	4.5163
1.0009	6.3813	7.2765	3.0865	9.0824	11.513	7.2267	9.1259	15.0471	11.5068	11.9264	18.2083	13.2288	0.5968	-4.8831	3.4222	-1.1905	5.8031	1.8587	3.5745	3.2388	0.6248	4.5567
0.9542	6.3098	7.1925	3.0492	8.9984	11.4633	7.2298	9.0513	15.013	11.5379	11.8208	18.1399	13.2381	0.5999	-5.0012	3.6242	-1.2122	5.7814	1.6909	3.5932	3.0741	1.408	4.6189
0.8952	6.2228	7.0806	2.987	8.8865	11.3918	7.2485	8.9767	14.9694	11.5503	11.6902	18.0497	13.2102	0.6341	-5.1007	3.8076	-1.2589	5.7783	1.5759	3.5963	2.9156	2.238	4.6842
0.8299	6.1482	6.9781	2.956	8.8275	11.3638	7.2889	8.9238	14.9135	11.6094	11.5659	17.972	13.1946	0.6621	-5.1691	3.9693	-1.3272	5.7721	1.464	3.6087	2.7912	3.0088	4.7432
0.7833	6.086	6.9439	2.9497	8.7653	11.3545	7.3417	8.8834	14.9135	11.6467	11.4944	17.9285	13.2164	0.7025	-5.2405	4.1029	-1.4236	5.7907	1.3832	3.6336	2.6482	3.6553	4.8396
0.7336	6.0114	6.8506	2.8503	8.6752	11.3017	7.3697	8.7871	14.87	11.6653	11.367	17.8757	13.207	0.7553	-5.3493	4.2397	-1.5013	5.7845	1.2744	3.6149	2.4711	4.1837	4.9266
0.6558	5.9554	6.7978	2.8316	8.6223	11.3017	7.4039	8.756	14.8824	11.7089	11.2706	17.8259	13.207	0.7957	-5.3804	4.2987	-1.5945	5.7721	1.1811	3.6367	2.3312	4.5567	5.0354
0.6154	5.9461	6.7947	2.8285	8.6379	11.3359	7.5096	8.7249	14.9384	11.7772	11.196	17.8384	13.2568	0.8517	-5.4581	4.392	-1.7033	5.7969	1.1283	3.6895	2.2193	4.7774	5.1566
0.575	5.9213	6.7574	2.8347	8.6223	11.3763	7.5966	8.7001	14.9788	11.8332	11.1152	17.8446	13.2816	0.8952	-5.511	4.3951	-1.7873	5.741	1.0599	3.6895	2.0919	4.7525	5.2437
0.5657	5.9554	6.8009	2.9125	8.6317	11.4851	7.7551	8.7218	15.0813	11.9233	11.0686	17.9036	13.3469	0.9698	-5.5389	4.4324	-1.9271	5.7938	1.0288	3.7828	1.9955	4.4759	5.3338
0.5719	6.0021	6.8475	2.9933	8.6565	11.5752	7.9074	8.7684	15.2057	12.0539	11.0654	17.9751	13.4308	1.0102	-5.598	4.4697	-2.0173	5.8156	0.9978	3.8449	1.9209	4.0252	5.4053
0.6061	6.0922	6.9346	3.1362	8.7684	11.7555	8.1033	8.8275	15.3611	12.2124	11.0592	18.0933	13.5676	1.0755	-5.6042	4.4728	-2.1478	5.884	1.0102	3.9444	1.8712	3.4036	5.4706
0.6341	6.173	7.0123	3.2668	8.871	11.9047	8.3022	8.8865	15.5476	12.3896	11.081	18.1989	13.7137	1.119	-5.6384	4.4635	-2.2348	5.971	1.0164	4.0501	1.8463	2.8037	5.5265
0.6776	6.316	7.1366	3.416	9.0326	12.1223	8.5384	9.0047	15.7683	12.6227	11.1245	18.3606	13.8815	1.1749	-5.6415	4.4946	-2.353	6.1295	1.0755	4.2086	1.8432	2.3654	5.5514
0.7304	6.487	7.2796	3.5683	9.1414	12.3367	8.7436	9.0762	15.9672	12.8185	11.1463	18.4631	14.0649	1.2122	-5.6757	4.5008	-2.4245	6.2507	1.1532	4.3112	1.8214	2.1851	5.5452
0.7895	6.6424	7.3977	3.6926	9.3031	12.573	8.9643	9.1787	16.191	13.0299	11.1587	18.6185	14.267	1.2464	-5.6571	4.4821	-2.4897	6.3968	1.2091	4.4852	1.7966	2.3343	5.5296
0.8019	6.8258	7.5313	3.8107	9.4709	12.7626	9.1849	9.2906	16.3961	13.2848	11.1867	18.7677	14.441	1.262	-5.6291	4.451	-2.5239	6.574	1.2806	4.6251	1.8152	2.7912	5.4923
0.8952	7.0309	7.7178	3.932	9.645	13.0392	9.4181	9.4025	16.6572	13.5117	11.2302	18.8952	14.6648	1.2713	-5.6011	4.392	-2.5457	6.7481	1.377	4.793	1.7997	3.4906	5.4581
0.9573	7.2236	7.8919	4.0843	9.8594	13.2848	9.6574	9.5206	16.9059	13.7976	11.3048	19.0724	14.9011	1.2961	-5.5762	4.3764	-2.5799	6.9408	1.5013	4.967	1.7966	4.2956	5.3929
0.9915	7.4381	8.0411	4.2024	10.0117	13.5054	9.8657	9.6108	17.1173	14.0432	11.3328	19.206	15.1155	1.2899	-5.5669	4.3112	-2.5612	7.1179	1.5417	5.0789	1.7935	5.0851	5.3524
1.0755	7.6495	8.1965	4.364	10.1858	13.7541	10.0801	9.7382	17.3628	14.2981	11.3763	19.3894	15.3393	1.2806	-5.57	4.2677	-2.5581	7.3044	1.6412	5.2219	1.7935	5.7596	5.2965
1.1563	7.8297	8.3644	4.5039	10.391	14.009	10.3195	9.8625	17.627	14.5716	11.4602	19.579	15.5787	1.2961	-5.5762	4.2055	-2.5799	7.5282	1.7095	5.3773	1.8277	6.344	5.2623
1.262	8.0411	8.5757	4.7059	10.5681	14.2825	10.5743	10.0055	17.8788	14.8669	11.5193	19.7469	15.8366	1.3055	-5.6166	4.2459	-2.6078	7.7147	1.8246	5.5016	1.8246	6.7885	5.2343
1.349	8.2494	8.7498	4.8831	10.7764	14.5436	10.8137	10.1703	18.1399	15.1466	11.6156	19.9551	16.076	1.321	-5.6695	4.2987	-2.6389	7.9261	1.9365	5.6446	1.8712	7.1117	5.2312
1.4422	8.4327	8.9549	5.0634	10.9629	14.8016	11.0779	10.3101	18.4165	15.4295	11.7306	20.1323	16.3402	1.3334	-5.7534	4.4013	-2.67	8.125	2.0328	5.7938	1.8774	7.2329	5.2188
1.5852	8.6255	9.1166	5.2965	11.1556	15.0596	11.3297	10.478	18.6621	15.731	11.8518	20.3592	16.5982	1.3739	-5.8342	4.5008	-2.7322	8.3302	2.1447	5.9244	1.9862	7.1459	5.2157
1.6754	8.7995	9.3279	5.5452	11.3421	15.3207	11.6094	10.6365	18.9418	16.0294	11.9855	20.5643	16.8531	1.3925	-5.9554	4.6531	-2.7788	8.5446	2.2473	6.0611	2.039	6.8568	5.197
1.7748	8.9301	9.5144	5.7876	11.5193	15.5787	11.9016	10.8292	19.2122	16.3029	12.1223	20.7539	17.1048	1.4112	-6.0549	4.8085	-2.8285	8.7249	2.3405	6.1917	2.1043	6.3657	5.1939
1.8556	9.0544	9.6885	6.0207	11.6964	15.8056	12.1471	10.9846	19.4453	16.5702	12.2466	20.9529	17.3069	1.4422	-6.1419	4.9359	-2.8752	8.8834	2.4369	6.3502	2.1727	5.7472	5.1691
1.9271	9.129	9.8532	6.2197	11.8487	16.0169	12.4238	11.1587	19.6816	16.8282	12.3834	21.13	17.5338	1.4578	-6.2601	5.0634	-2.9218	9.042	2.5363	6.4963	2.2131	5.1566	5.1691
2.0048	9.2316	9.9962	6.4497	12.029	16.2469	12.6973	11.311	19.924	17.0986	12.517	21.301	17.7389	1.492	-6.3471	5.2095	-2.9839	9.2409	2.6109	6.6424	2.3126	4.7184	5.1691
1.9986	9.2906	10.1267	6.6082	12.1409	16.4303	12.9304	11.4726	20.1292	17.3131	12.6227	21.4409	17.9036	1.5324	-6.3968	5.3027	-3.043	9.3808	2.6731	6.7698	2.384	4.5785	5.1659
2.0235	9.3372	10.2231	6.7481	12.2715	16.5982	13.1449	11.6187	20.3126	17.4654	12.7563	21.5683	18.0653	1.5448	-6.4621	5.3804	-3.0834	9.5144	2.7446	6.919	2.4711	4.7215	5.1535
2.0359	9.3714	10.3195	6.8817	12.402	16.7443	13.3345	11.7741	20.4804	17.6426	12.8527	21.6771	18.1585	1.5759	-6.4963	5.4364	-3.1331	9.6294	2.8037	7.0527	2.5612	5.1535	5.1908
2.0484	9.4212	10.422	7.0651	12.5388	16.8966	13.5241	11.9202	20.6638	17.829	13.0112	21.7797	18.2891	1.607	-6.5305	5.5016	-3.2046	9.7382	2.8503	7.264	2.6669	5.8063	5.1815
2.039	9.4523	10.4966	7.205	12.6445	17.0209	13.6888	12.0632	20.8192	17.9378	13.1356	21.876	18.4134	1.635	-6.5585	5.5203	-3.2513	9.8625	2.9466	7.3915	2.7726	6.5429	5.2001
2.0328	9.4896	10.6147	7.3542	12.775	17.1546	13.8567	12.2279	20.9839	18.0964	13.263	21.9972	18.5129	1.6412	-6.5833	5.542	-3.2979	9.99	3.0275	7.5749	2.9062	7.1956	5.2281
2.0359	9.5393	10.6862	7.5158	12.862	17.2975	14.037	12.3834	21.1487	18.2238	13.4215	22.1278	18.6279	1.6723	-6.5802	5.5887	-3.3445	10.1112	3.1269	7.752	3.0492	7.7116	5.2499
2.0981	9.53	10.7795	7.6868	12.977	17.4405	14.1893	12.5419	21.3414	18.3637	13.6173	22.2335	18.7336	1.7064	-6.5709	5.6166	-3.416	10.2542	3.2513	7.9074	3.2233	8.0908	5.2561
2.1074	9.5486	10.8696	7.836	13.0827	17.5711	14.354	12.747	21.503	18.5191	13.7852	22.3733	18.8486	1.7282	-6.5336	5.6166	-3.4657	10.4127	3.3476	8.1002	3.4129	8.3302	5.2778
2.1385	9.5362	10.9504	7.982	13.1977	17.7109	14.4783	12.9428	21.6771	18.6714	13.9965	22.5008	18.9946	1.7593	-6.518	5.6446	-3.503	10.5339	3.503	8.2618	3.6149	8.4296	5.2778
2.1665	9.5517	11.0717	8.1002	13.291	17.857	14.6244	13.1169	21.8574	18.7988	14.211	22.6593	19.1438	1.7686	-6.459	5.6508	-3.5465	10.7018	3.6274	8.4172	3.8138	8.3115	5.2841
2.1882	9.5579	11.168	8.1996	13.3873	18.0093	14.7643	13.3438	22.0625	18.9729	14.4659	22.8334	19.3086	1.7966	-6.3844	5.6571	-3.5838	10.8479	3.7517	8.6099	4.0501	7.9385	5.281
2.2255	9.5455	11.2861	8.324	13.5179	18.1989	14.8948	13.58	22.2894	19.1345	14.7394	23.0074	19.464	1.8183	-6.2911	5.6757	-3.6336	11.0188	3.8822	8.7871	4.2801	7.3635	5.2778
2.3157	9.5828	11.4167	8.4296	13.6298	18.3979	15.0347	13.8225	22.4977	19.293	15.0036	23.1784	19.6163	1.8432	-6.1886	5.6664	-3.674	11.1649	4.0345	8.9643	4.5474	6.5989	5.2468
2.3778	9.6015	11.541	8.526	13.7759	18.5844	15.1342	14.0556	22.709	19.4174	15.2492	23.3431	19.7531	1.8619	-6.0642	5.6384	-3.7051	11.2986	4.1806	9.1135	4.8085	5.7814	5.253
2.4773	9.6388	11.684	8.6192	13.9064	18.8113	15.2554	14.2949	22.939	19.5697	15.5134	23.5141	19.9302	1.8712	-5.9523	5.6415	-3.7393	11.4322	4.3391	9.2751	5.0696	5.0447	5.2499
2.5954	9.7165	11.8643	8.7125	14.0525	19.004	15.3455	14.5467	23.1473	19.7096	15.7869	23.6944	20.0577	1.8929	-5.8094	5.6011	-3.7579	11.5534	4.4883	9.4243	5.3431	4.5256	5.2281
2.7135	9.7942	12.0383	8.8151	14.2297	19.2464	15.4419	14.7767	23.3618	19.8619	16.0356	23.8342	20.1882	1.8805	-5.6726	5.5669	-3.7672	11.6747	4.6531	9.5269	5.5793	4.3578	5.2095
2.8316	9.8874	12.2155	8.9394	14.3789	19.4671	15.56	15.0347	23.5825	20.0017	16.2967	23.9896	20.3343	1.8867	-5.5762	5.5669	-3.7797	11.7928	4.7867	9.6512	5.8498	4.5412	5.1784
2.987	9.9993	12.3927	9.0513	14.5343	19.7282	15.6657	15.2958	23.8094	20.1354	16.5111	24.1295	20.4524	1.8774	-5.4488	5.5016	-3.7548	11.886	4.9453	9.7351	6.0891	4.995	5.1659
3.1425	10.1485	12.6103	9.2129	14.7363	19.9769	15.8025	15.532	24.0456	20.3063	16.7598	24.2725	20.6047	1.8712	-5.3338	5.4768	-3.7237	11.9979	5.1038	9.8315	6.344	5.6602	5.1411
3.3134	10.3101	12.8341	9.3745	14.9415	20.2411	15.9641	15.8087	24.2849	20.468	16.9898	24.4279	20.7601	1.8463	-5.197	5.4426	-3.6895	12.1192	5.2281	9.9371	6.5895	6.3098	5.0882
3.4409	10.4904	13.0858	9.5486	15.1031	20.4991	16.1195	16.0356	24.4807	20.6172	17.1887	24.5678	20.9093	1.809	-5.0447	5.3991	-3.6211	12.2279	5.34	10.0117	6.8164	6.8631	5.0758
3.6149	10.7018	13.3034	9.7569	15.3611	20.7819	16.3091	16.2718	24.7139	20.8192	17.3908	24.6983	21.0679	1.7593	-4.8986	5.3462	-3.5403	12.3678	5.4395	10.1081	7.062	7.2858	5.0292
3.789	10.9225	13.5583	9.9403	15.5631	21.0585	16.5142	16.5515	24.9656	21.0244	17.6488	24.8631	21.2419	1.7375	-4.737	5.312	-3.4688	12.4953	5.5389	10.1951	7.2796	7.5282	4.9857
3.9662	11.1463	13.8007	10.1423	15.79	21.3196	16.738	16.7878	25.1863	21.2388	17.829	25.0123	21.4253	1.6878	-4.6189	5.2903	-3.3725	12.6134	5.6291	10.2542	7.4816	7.6588	4.9328
4.1744	11.3794	14.0432	10.3537	16.0262	21.6118	16.9587	17.0147	25.3853	21.4626	18.0218	25.1335	21.6398	1.635	-4.4852	5.2778	-3.2823	12.7284	5.7192	10.3288	7.693	7.5593	4.908
4.3298	11.628	14.2732	10.5464	16.2221	21.8543	17.1794	17.2043	25.5718	21.6615	18.171	25.2392	21.7734	1.5945	-4.3702	5.2872	-3.1922	12.8309	5.7721	10.3568	7.836	7.2236	4.9017
4.5101	11.8456	14.5187	10.736	16.4179	22.1247	17.4436	17.3939	25.7582	21.8853	18.3046	25.348	21.9195	1.5572	-4.2956	5.3649	-3.0989	12.918	5.828	10.3878	7.9634	6.6486	4.8986
4.6686	12.0539	14.7177	10.9194	16.5857	22.3547	17.6488	17.5555	25.9199	22.1122	18.4352	25.4257	22.0749	1.5013	-4.2024	5.3307	-2.9933	12.9926	5.8746	10.4065	8.0473	5.8218	4.8955
4.8489	12.2683	14.9415	11.0872	16.766	22.5816	17.8819	17.6985	26.0815	22.3174	18.5191	25.5251	22.2241	1.4733	-4.1402	5.4146	-2.928	13.0827	5.9306	10.4314	8.125	4.8831	4.8769
5.0136	12.4828	15.128	11.2644	16.909	22.7836	18.0995	17.7949	26.1965	22.5039	18.5719	25.578	22.3578	1.4267	-4.0781	5.455	-2.8503	13.1418	5.9803	10.4718	8.1748	3.9257	4.8582
5.1784	12.6507	15.3145	11.4198	17.0737	22.9639	18.3046	17.9036	26.3333	22.7184	18.6341	25.6308	22.4666	1.4018	-4.0097	5.4861	-2.7974	13.2226	6.03	10.5184	8.2058	3.0803	4.8489
5.2996	12.7968	15.4574	11.5752	17.1577	23.0976	18.4756	17.9596	26.3892	22.8271	18.6403	25.6215	22.5256	1.3552	-3.9817	5.5514	-2.7104	13.2443	6.0673	10.5401	8.2121	2.5115	4.8489
5.4208	12.9553	15.6004	11.7026	17.2571	23.2437	18.6621	18.0093	26.47	23.0105	18.6341	25.6028	22.6127	1.3117	-3.9351	5.5514	-2.6265	13.3034	6.0829	10.5681	8.2089	2.3032	4.8303
5.5327	13.1138	15.731	11.8114	17.3535	23.3618	18.8423	18.0187	26.5136	23.1255	18.5937	25.5873	22.6438	1.2744	-3.9071	5.5731	-2.555	13.3345	6.0984	10.5992	8.1654	2.4307	4.8427
5.6353	13.2195	15.8335	11.9358	17.425	23.4519	18.9698	18.0187	26.5042	23.2312	18.516	25.5407	22.678	1.2371	-3.9133	5.626	-2.468	13.3811	6.086	10.6179	8.0877	2.8037	4.8644
5.7441	13.3749	15.9175	12.0383	17.5151	23.5545	19.1252	18.0249	26.5384	23.3369	18.4414	25.4972	22.7059	1.2029	-3.8822	5.6384	-2.4182	13.434	6.0673	10.6676	8.0224	3.2761	4.8893
5.8653	13.5054	16.0169	12.1098	17.5928	23.6104	19.2184	18.0155	26.5322	23.4115	18.3699	25.4132	22.7121	1.1687	-3.8947	5.6695	-2.3716	13.4775	6.086	10.7173	7.9572	3.7952	4.9359
5.9213	13.5521	16.0573	12.1782	17.6115	23.6571	19.3024	17.9907	26.5011	23.4706	18.2735	25.3697	22.7432	1.1563	-3.9351	5.6944	-2.3188	13.5085	6.0705	10.7484	7.867	4.1993	4.9763
5.9834	13.6329	16.1133	12.2342	17.627	23.6912	19.349	17.9161	26.4669	23.5079	18.1958	25.2858	22.7215	1.147	-3.9382	5.713	-2.2908	13.5365	6.0487	10.7857	7.7614	4.4013	5.0292
6.0829	13.7075	16.163	12.315	17.6767	23.7285	19.3863	17.8788	26.4483	23.5452	18.0715	25.2081	22.7215	1.1407	-3.9568	5.6695	-2.2908	13.58	6.0518	10.823	7.6805	4.5008	5.0696
6.1419	13.7448	16.1879	12.3585	17.6457	23.7254	19.4018	17.8228	26.3799	23.5638	17.9689	25.1428	22.7215	1.1501	-3.9444	5.6322	-2.2939	13.6142	6.0456	10.8541	7.5811	4.451	5.1162
6.1855	13.7945	16.2221	12.402	17.6798	23.7441	19.4143	17.7793	26.3457	23.5887	17.8819	25.09	22.6997	1.1656	-3.9693	5.5949	-2.3126	13.6609	6.0425	10.9131	7.5003	4.2366	5.1597
6.2197	13.8194	16.2407	12.4269	17.627	23.741	19.3801	17.6798	26.2742	23.6011	17.7482	24.9998	22.6935	1.1687	-3.963	5.4923	-2.3436	13.6826	6.0269	10.9318	7.3853	3.7734	5.1908
6.2476	13.8069	16.2221	12.4455	17.6115	23.7348	19.3739	17.6301	26.2338	23.6166	17.6363	24.9066	22.6624	1.1874	-3.9444	5.3431	-2.384	13.7323	6.0083	10.9877	7.2982	3.1145	5.2188
6.2445	13.8101	16.2096	12.4517	17.5711	23.6757	19.3117	17.54	26.1468	23.5731	17.4996	24.804	22.6158	1.2184	-3.9071	5.1877	-2.4151	13.751	5.9586	10.994	7.1552	2.297	5.2343
6.2849	13.8007	16.2159	12.4673	17.5493	23.6695	19.2589	17.4871	26.097	23.5638	17.3939	24.7045	22.5971	1.2122	-3.8853	5.0043	-2.4462	13.7541	5.9244	11.0437	7.0465	1.377	5.2343
6.2756	13.7759	16.1848	12.4207	17.5182	23.6353	19.2091	17.4032	26.0069	23.511	17.2447	24.5833	22.5225	1.2495	-3.8232	4.8147	-2.4928	13.7696	5.8684	11.053	6.8941	0.4911	5.2343
6.2911	13.7603	16.1879	12.4486	17.5275	23.6198	19.2029	17.3504	25.9603	23.4861	17.111	24.4652	22.4448	1.2713	-3.761	4.6313	-2.5457	13.7572	5.8342	11.0903	6.7636	-0.2051	5.225
6.2818	13.7759	16.1506	12.4455	17.4685	23.5856	19.1656	17.254	25.8857	23.455	16.9618	24.3502	22.4169	1.2993	-3.7237	4.4697	-2.6016	13.7292	5.7814	11.1152	6.5958	-0.5688	5.2188
6.2943	13.7852	16.1661	12.489	17.4001	23.5452	19.1407	17.2012	25.7831	23.4146	16.794	24.2352	22.3298	1.3179	-3.646	4.3112	-2.6265	13.7323	5.7223	11.1494	6.4714	-0.6434	5.2374
6.2445	13.7386	16.104	12.5294	17.3721	23.5358	19.1811	17.0862	25.7427	23.368	16.6261	24.1015	22.2739	1.3241	-3.6025	4.2055	-2.642	13.7417	5.6166	11.1742	6.3222	-0.373	5.2437
6.2476	13.7106	16.0977	12.573	17.2975	23.4892	19.1718	17.0271	25.6619	23.3338	16.4832	23.9679	22.1962	1.3241	-3.5155	4.0967	-2.67	13.7075	5.5887	11.1991	6.1979	0.1399	5.253
6.2383	13.6515	16.0791	12.6382	17.2509	23.455	19.2153	16.9494	25.6122	23.3431	16.334	23.8591	22.1589	1.349	-3.4253	4.0439	-2.7104	13.7448	5.5296	11.2799	6.0736	0.7087	5.2747
6.2103	13.58	16.0604	12.7222	17.1359	23.4333	19.2526	16.8251	25.5469	23.2778	16.1568	23.7223	22.0874	1.3707	-3.3414	4.0376	-2.7322	13.7199	5.4364	11.3079	5.9213	1.2278	5.3027
6.2072	13.4992	16.0542	12.8185	17.0675	23.3991	19.3086	16.7256	25.494	23.2654	15.9921	23.6073	22.019	1.377	-3.2481	4.019	-2.7633	13.7323	5.396	11.3483	5.7783	1.6567	5.3307
6.1575	13.4122	16.0356	12.918	16.9494	23.3618	19.3521	16.5888	25.407	23.2374	15.8273	23.4799	21.9475	1.3863	-3.1611	4.0563	-2.7819	13.7199	5.3027	11.3887	5.6415	1.9675	5.3524
6.1637	13.3407	16.0231	13.0361	16.8468	23.3649	19.4453	16.4863	25.3728	23.2499	15.703	23.4084	21.9226	1.4174	-3.0368	4.0781	-2.8285	13.7292	5.2437	11.4291	5.5172	2.1509	5.4115
6.1109	13.2319	16.0262	13.1418	16.7256	23.3431	19.5262	16.3806	25.3417	23.2374	15.5538	23.3183	21.8729	1.4298	-2.928	4.1371	-2.8503	13.7417	5.1535	11.4882	5.3991	2.2007	5.4581
6.0953	13.1387	16.0045	13.2568	16.6355	23.3338	19.635	16.278	25.3169	23.253	15.4357	23.253	21.8418	1.4422	-2.8192	4.1651	-2.8814	13.7603	5.0882	11.5317	5.2996	2.0857	5.4892
6.0798	13.0485	16.0014	13.4122	16.5236	23.3276	19.7531	16.1941	25.292	23.3027	15.3051	23.2032	21.8543	1.4578	-2.7197	4.2645	-2.9093	13.7821	5.0012	11.5597	5.1753	1.7904	5.5265
6.0642	12.9584	16.0138	13.5179	16.4148	23.3524	19.8277	16.0729	25.2703	23.3183	15.1839	23.1442	21.8387	1.4795	-2.6047	4.3671	-2.9497	13.8318	4.9701	11.6218	5.0913	1.2806	5.5856
6.0767	12.9055	16.0449	13.6391	16.3371	23.3431	19.9178	16.0231	25.2734	23.34	15.1249	23.0945	21.8201	1.4982	-2.4555	4.4417	-2.9964	13.8878	4.9328	11.712	5.0292	0.5781	5.6166
6.0642	12.7999	16.0977	13.7821	16.2718	23.3897	20.0204	15.9361	25.292	23.3835	15.0378	23.0665	21.8418	1.5231	-2.3467	4.5536	-3.0399	13.9437	4.88	11.8052	4.9608	-0.1772	5.6912
6.0736	12.7377	16.0822	13.8505	16.1941	23.4053	20.0701	15.8988	25.2889	23.4177	14.9757	23.0354	21.8232	1.5231	-2.2038	4.6189	-3.0616	14.0059	4.8644	11.9109	4.939	-0.8921	5.7441
6.0332	12.6817	16.0853	13.9375	16.1133	23.4146	20.1292	15.8584	25.2858	23.455	14.9259	22.9981	21.8232	1.5262	-2.0421	4.6655	-3.0523	14.0618	4.8116	12.0166	4.8893	-1.3832	5.7969
5.9865	12.5978	16.0822	13.9934	16.0449	23.4239	20.1727	15.8025	25.2734	23.4581	14.842	22.9235	21.7828	1.5168	-1.8743	4.6842	-3.0275	14.1178	4.7805	12.1192	4.8365	-1.5541	5.8467
5.9679	12.5667	16.0884	14.0867	15.9641	23.4333	20.2162	15.7465	25.2734	23.4706	14.8047	22.8831	21.7517	1.5013	-1.7127	4.7152	-3.0057	14.1582	4.7215	12.2342	4.8178	-1.3925	5.9057
5.9088	12.4766	16.0915	14.1333	15.9175	23.4302	20.2908	15.7279	25.2454	23.5141	14.7736	22.8458	21.7424	1.4858	-1.5199	4.7121	-2.9902	14.2297	4.7028	12.3305	4.7961	-1.0257	5.9617
5.8342	12.3927	16.0604	14.2141	15.8522	23.4302	20.3592	15.6937	25.2392	23.5327	14.7052	22.7526	21.7113	1.4702	-1.3459	4.7059	-2.9466	14.2918	4.6438	12.4269	4.7401	-0.4569	6.0269
5.7969	12.3492	16.0262	14.2949	15.8025	23.4177	20.4618	15.6284	25.205	23.5825	14.6617	22.7059	21.6957	1.4764	-1.1718	4.6842	-2.9435	14.3602	4.535	12.5605	4.7028	0.087	6.1015
5.7223	12.259	15.9765	14.3509	15.7279	23.3929	20.555	15.5849	25.1708	23.6011	14.6151	22.6251	21.6771	1.4547	-1.0475	4.6873	-2.9311	14.4162	4.4915	12.632	4.6624	0.575	6.1544
5.6477	12.1347	15.933	14.3478	15.6253	23.3462	20.583	15.5227	25.0993	23.6011	14.5591	22.5412	21.6118	1.4578	-0.9356	4.6531	-2.928	14.4535	4.4013	12.6973	4.5847	0.8859	6.2321
5.5514	12.0352	15.8833	14.382	15.56	23.2996	20.6576	15.4574	25.0278	23.6291	14.497	22.4573	21.559	1.4609	-0.8392	4.6686	-2.9311	14.4877	4.336	12.7968	4.5256	1.1003	6.2943
5.4768	11.9264	15.7807	14.3633	15.4512	23.2405	20.6855	15.3953	24.9719	23.5731	14.4286	22.3609	21.4688	1.4485	-0.8175	4.6966	-2.9	14.4939	4.2801	12.8372	4.479	1.1407	6.3098
5.4022	11.827	15.7496	14.3571	15.3611	23.1691	20.6918	15.3424	24.8879	23.5545	14.3758	22.2521	21.4005	1.4516	-0.7802	4.7121	-2.9062	14.5094	4.2304	12.8931	4.4355	0.9791	6.3409
5.2654	11.6809	15.6315	14.2608	15.243	23.0758	20.6483	15.2647	24.8102	23.4892	14.3198	22.1371	21.2823	1.4298	-0.805	4.7059	-2.8534	14.4845	4.1682	12.8962	4.3609	0.6248	6.3533
5.2095	11.5814	15.5476	14.2701	15.1466	23.0043	20.6327	15.2305	24.7387	23.4612	14.3043	22.0781	21.214	1.4143	-0.833	4.7432	-2.8379	14.497	4.1527	12.9397	4.3423	0.0746	6.3502
5.11	11.4509	15.473	14.2545	15.0534	22.9546	20.6234	15.1715	24.6766	23.368	14.2887	22.0035	21.1487	1.3987	-0.8859	4.793	-2.8099	14.525	4.134	12.946	4.3143	-0.6092	6.316
5.0168	11.3545	15.4015	14.2048	14.957	22.8489	20.5768	15.1	24.5585	23.2778	14.2576	21.932	21.0492	1.3956	-0.9511	4.8489	-2.7912	14.5156	4.1309	12.9366	4.2832	-1.3956	6.3005
4.9826	11.2768	15.3486	14.2048	14.8917	22.765	20.5581	15.0782	24.5305	23.2561	14.2576	21.8729	20.9653	1.3956	-1.0071	4.9266	-2.7912	14.5218	4.1154	12.9553	4.2583	-2.154	6.2476
4.852	11.1649	15.2461	14.1582	14.7643	22.6686	20.4649	14.9943	24.4434	23.1535	14.2141	21.7952	20.8752	1.377	-1.1097	4.9577	-2.7384	14.5032	4.0563	12.9273	4.2179	-2.7228	6.2072
4.7619	11.1214	15.1528	14.096	14.6928	22.5909	20.4276	14.9477	24.372	23.0851	14.1862	21.6988	20.7757	1.3645	-1.147	5.0136	-2.7228	14.4752	4.0376	12.9087	4.1682	-3.0057	6.1668
4.6406	11.0126	15.072	13.9841	14.5996	22.5101	20.3312	14.8451	24.288	23.0168	14.1582	21.6274	20.67	1.3366	-1.2309	5.054	-2.67	14.4504	3.9599	12.8558	4.1185	-2.9497	6.0953
4.5412	10.9784	14.9725	13.8411	14.5312	22.392	20.2348	14.7798	24.1699	22.9422	14.0836	21.5248	20.5985	1.3024	-1.3241	5.0758	-2.6141	14.4317	3.8884	12.8247	4.0687	-2.5208	6.0487
4.4044	10.8852	14.8482	13.6857	14.441	22.305	20.1447	14.7052	24.0767	22.8458	14.0245	21.4191	20.4991	1.2775	-1.408	5.0882	-2.555	14.3851	3.7859	12.719	3.9972	-1.9085	5.9741
4.2677	10.8883	14.7425	13.5148	14.3695	22.1837	20.0142	14.6182	23.9803	22.7712	13.9499	21.3321	20.4027	1.2526	-1.4795	5.11	-2.5022	14.3633	3.6522	12.6196	3.9382	-1.2029	5.8964
4.1589	10.8448	14.6244	13.3314	14.3322	22.1029	19.9302	14.5281	23.8746	22.6624	13.8753	21.2108	20.2877	1.2153	-1.5666	5.1131	-2.4493	14.3012	3.5465	12.5201	3.8822	-0.5595	5.8
4.0501	10.8044	14.5436	13.2257	14.2483	21.9972	19.7904	14.4472	23.7721	22.6096	13.7976	21.1331	20.2473	1.2029	-1.666	5.1473	-2.4058	14.2856	3.4191	12.3927	3.8418	-0.0559	5.7037
3.9351	10.8168	14.4441	13.1014	14.1893	21.9475	19.7593	14.3664	23.713	22.6127	13.7634	21.0772	20.2348	1.1905	-1.7189	5.197	-2.3903	14.3012	3.3321	12.3025	3.8045	0.2766	5.6135
3.8263	10.7608	14.3509	12.946	14.1084	21.8263	19.666	14.2794	23.6353	22.5536	13.695	21.0026	20.1789	1.1656	-1.8432	5.2095	-2.3374	14.2825	3.2388	12.2062	3.7672	0.4445	5.5545
3.7579	10.7702	14.2918	12.8589	14.0711	21.7828	19.6101	14.2266	23.5483	22.5536	13.6515	20.9622	20.154	1.1563	-1.9054	5.2716	-2.3188	14.2639	3.158	12.1129	3.7579	0.4072	5.455
3.6895	10.7888	14.2359	12.7688	14.0587	21.733	19.6039	14.1768	23.4923	22.5723	13.6422	20.9529	20.1851	1.147	-1.9831	5.2965	-2.3032	14.3012	3.0772	12.0383	3.7517	0.1616	5.396
3.5901	10.8137	14.1737	12.6569	14.0121	21.6833	19.5821	14.1457	23.4768	22.5661	13.6267	20.9249	20.1944	1.1221	-2.0701	5.3058	-2.2566	14.2856	3.0181	11.9668	3.7703	-0.3077	5.3307
3.5559	10.8541	14.1551	12.604	14.0307	21.6833	19.5852	14.1116	23.4457	22.6127	13.636	20.9529	20.2317	1.1283	-2.1198	5.3245	-2.2597	14.3229	3.0057	11.9016	3.789	-1.0382	5.2903
3.5186	10.9473	14.124	12.5326	14.0121	21.6802	19.5852	14.0929	23.4364	22.65	13.6671	20.9715	20.2784	1.1252	-2.1571	5.368	-2.2504	14.3229	3.0212	11.8736	3.8076	-1.924	5.2219
3.475	11.0095	14.1116	12.4611	14.0183	21.6709	19.579	14.0991	23.4333	22.6748	13.6919	21.0088	20.2908	1.119	-2.1789	5.3369	-2.2348	14.3105	3.0337	11.8456	3.876	-2.9715	5.1473
3.4533	11.1152	14.1178	12.4113	14.096	21.6833	19.5914	14.1053	23.455	22.7059	13.7696	21.043	20.3126	1.1252	-2.2255	5.3431	-2.2348	14.3291	3.0803	11.827	3.9444	-3.9506	5.0789
3.4409	11.2209	14.1364	12.3802	14.1116	21.6895	19.5324	14.1302	23.4364	22.7277	13.8225	21.043	20.3623	1.1097	-2.2038	5.3089	-2.2162	14.3478	3.1549	11.8021	4.0376	-4.7743	5.0043
3.4067	11.3576	14.152	12.3429	14.1986	21.7455	19.5697	14.1706	23.4488	22.765	13.8815	21.1021	20.4027	1.1003	-2.2007	5.2592	-2.2038	14.3602	3.2202	11.8052	4.106	-5.3027	4.9359
3.4036	11.4664	14.1364	12.259	14.2545	21.7051	19.5106	14.1986	23.4457	22.7805	13.9437	21.0927	20.4151	1.1003	-2.2007	5.225	-2.182	14.3758	3.2917	11.8021	4.2024	-5.4985	4.8303
3.4036	11.6032	14.1644	12.1969	14.3136	21.7455	19.4702	14.2297	23.455	22.7898	13.9841	21.1052	20.4524	1.0879	-2.1758	5.1691	-2.1758	14.3913	3.3911	11.8301	4.2739	-5.3711	4.7494
3.4129	11.7275	14.1986	12.144	14.382	21.7455	19.4733	14.2794	23.4364	22.8085	14.0245	21.1114	20.4897	1.0786	-2.1789	5.0913	-2.1665	14.4286	3.4533	11.8145	4.3423	-5.0199	4.6748
3.4346	11.8208	14.2266	12.0414	14.4286	21.7237	19.3676	14.2763	23.4053	22.7619	14.0121	21.0523	20.4245	1.091	-2.1727	5.0572	-2.1665	14.3944	3.4999	11.7959	4.3702	-4.5971	4.5816
3.4253	11.9233	14.211	11.9482	14.4379	21.6864	19.2962	14.2576	23.34	22.6997	13.9872	20.9808	20.384	1.0879	-2.1975	4.9888	-2.1665	14.3571	3.5279	11.8052	4.3702	-4.1651	4.5163
3.4471	11.9886	14.1955	11.8394	14.4783	21.6491	19.2526	14.2235	23.2778	22.6593	13.9095	20.8969	20.3126	1.0848	-2.2286	4.967	-2.1851	14.3291	3.559	11.7897	4.3702	-3.8325	4.4573
3.4502	12.0508	14.2048	11.7275	14.4224	21.559	19.1314	14.1582	23.1566	22.5163	13.8349	20.7788	20.21	1.0848	-2.2908	4.9111	-2.1789	14.267	3.5559	11.7772	4.3174	-3.6118	4.4324
3.4782	12.0943	14.1986	11.6591	14.3851	21.5248	19.0692	14.0867	23.0758	22.4542	13.7292	20.6576	20.1261	1.0972	-2.3219	4.88	-2.1913	14.2203	3.5776	11.7648	4.2552	-3.475	4.3889
3.5248	12.1067	14.1706	11.6218	14.3695	21.475	19.0071	14.0432	23.0012	22.3423	13.6173	20.5395	19.9986	1.1034	-2.3716	4.908	-2.21	14.1737	3.6025	11.7741	4.2086	-3.475	4.392
3.5901	12.1285	14.2017	11.5783	14.2825	21.3973	18.9387	13.9686	22.8707	22.2335	13.5117	20.4027	19.9023	1.1097	-2.4213	4.8955	-2.21	14.1178	3.5994	11.7555	4.1122	-3.6242	4.3982
3.6709	12.1378	14.2141	11.5907	14.2545	21.3507	18.8983	13.9033	22.7712	22.1247	13.4122	20.2721	19.7904	1.1159	-2.4618	4.9359	-2.238	14.0743	3.6211	11.7741	4.0594	-3.9475	4.4542
3.7548	12.1378	14.2421	11.6249	14.2048	21.3103	18.8392	13.866	22.6904	22.0345	13.3469	20.182	19.7033	1.1376	-2.4959	4.9515	-2.2504	14.0338	3.6491	11.827	4.0066	-4.4697	4.5039
3.8574	12.1223	14.2856	11.7058	14.1768	21.2948	18.8237	13.8069	22.6158	21.9413	13.235	20.0794	19.5852	1.1283	-2.4991	4.9795	-2.2597	14.0028	3.6647	11.8394	3.9755	-5.1255	4.5692
3.9413	12.0819	14.2918	11.7337	14.1116	21.2233	18.7553	13.7261	22.5319	21.8387	13.1293	19.9738	19.4764	1.1314	-2.5022	4.9981	-2.2566	13.953	3.6429	11.8891	3.8947	-5.8	4.6158
4.0687	12.0756	14.3354	11.8208	14.0556	21.1953	18.7118	13.6453	22.4573	21.7361	13.033	19.8556	19.3676	1.1407	-2.4742	5.0261	-2.2628	13.9282	3.6149	11.9327	3.8201	-6.344	4.6842
4.1216	12.0414	14.3664	11.8798	13.9592	21.13	18.659	13.5645	22.3391	21.6056	12.9024	19.7096	19.2495	1.1065	-2.4586	5.0136	-2.21	13.8909	3.5714	11.9482	3.7299	-6.6579	4.7184
4.2117	11.9762	14.3726	11.9482	13.866	21.0865	18.6341	13.4868	22.2304	21.5124	12.803	19.5852	19.1221	1.0941	-2.4058	4.9981	-2.1944	13.8598	3.5155	11.9917	3.6709	-6.6299	4.7557
4.2801	11.8549	14.3695	12.0414	13.7448	21.0119	18.575	13.3469	22.1154	21.3973	12.6476	19.4298	18.976	1.0786	-2.3654	4.9795	-2.1261	13.8287	3.4471	11.9979	3.559	-6.288	4.7681
4.3174	11.7897	14.3478	12.1316	13.6236	20.9093	18.5222	13.2381	22.0003	21.2637	12.5108	19.2557	18.8455	1.0599	-2.2846	4.908	-2.0825	13.8069	3.3942	12.0197	3.4657	-5.713	4.793
4.3423	11.6653	14.2981	12.172	13.4713	20.7974	18.4662	13.0641	21.8387	21.1176	12.3429	19.0848	18.6838	1.0071	-2.1851	4.7867	-2.0173	13.7696	3.3445	12.0259	3.3694	-4.9826	4.7992
4.4044	11.541	14.2794	12.2652	13.3003	20.6762	18.4227	12.9428	21.6802	20.9995	12.2062	18.8641	18.5346	0.9729	-2.0732	4.6406	-1.9613	13.7292	3.3041	12.0508	3.301	-4.2304	4.7961
4.392	11.367	14.1737	12.3336	13.12	20.5395	18.4072	12.7843	21.5372	20.9062	12.085	18.7273	18.4134	0.948	-1.9489	4.4852	-1.9147	13.723	3.2544	12.1098	3.2264	-3.6149	4.7805
4.3702	11.224	14.1147	12.4082	12.9708	20.4245	18.401	12.6351	21.3818	20.7695	11.9202	18.5408	18.2735	0.9232	-1.8432	4.3423	-1.8587	13.695	3.1953	12.1409	3.13	-3.1207	4.7712
4.3485	11.0033	13.9872	12.4175	12.7595	20.269	18.3512	12.458	21.2108	20.6172	11.771	18.3388	18.1212	0.9045	-1.6878	4.1371	-1.8121	13.6702	3.1394	12.1596	3.0399	-2.8037	4.7588
4.2956	10.8012	13.8505	12.43	12.5481	20.1167	18.3108	12.315	21.0306	20.5115	11.6467	18.1803	17.9907	0.8921	-1.5759	3.9786	-1.7748	13.6329	3.0772	12.2124	2.9684	-2.6109	4.7557
4.1993	10.5526	13.7261	12.402	12.3429	19.9396	18.2704	12.144	20.8596	20.3996	11.5193	18.0249	17.8726	0.8672	-1.4733	3.8014	-1.7344	13.6142	3.0275	12.231	2.8783	-2.555	4.7494
4.1185	10.3257	13.5583	12.3336	12.1596	19.7469	18.2145	11.9637	20.6824	20.269	11.398	17.8322	17.7358	0.8548	-1.3583	3.6678	-1.7127	13.5956	2.9622	12.2559	2.8037	-2.7508	4.7246
4.0066	10.0926	13.3967	12.2652	11.9606	19.5821	18.1616	11.8301	20.5301	20.1292	11.3203	17.7109	17.6332	0.8423	-1.2713	3.5372	-1.7002	13.5894	2.9218	12.287	2.7508	-3.1487	4.7152
3.8916	9.8066	13.1884	12.1471	11.7337	19.3583	18.0622	11.6622	20.3374	20.039	11.2022	17.5462	17.4902	0.8423	-1.2216	3.4502	-1.6691	13.5521	2.8565	12.2839	2.67	-3.7299	4.709
3.7672	9.5642	12.9833	12.0446	11.5161	19.1843	17.9907	11.5286	20.1634	19.98	11.1525	17.397	17.4219	0.833	-1.1314	3.3756	-1.6754	13.5334	2.7974	12.287	2.5985	-4.4231	4.7059
3.6056	9.2906	12.7936	11.8891	11.3328	18.9978	17.8943	11.3638	20.0297	19.8836	11.0686	17.2758	17.3317	0.833	-1.1221	3.3134	-1.6629	13.5179	2.7633	12.3056	2.5643	-5.1224	4.709
3.4533	9.0326	12.5916	11.7244	11.1432	18.833	17.8166	11.2551	19.8774	19.8152	11.0157	17.1546	17.2696	0.8423	-1.1065	3.3134	-1.6785	13.521	2.7601	12.3212	2.5395	-5.6726	4.7028
3.3103	8.7778	12.374	11.5783	10.9504	18.6434	17.7234	11.1152	19.7158	19.7469	10.9691	17.0395	17.2136	0.8672	-1.091	3.3507	-1.7095	13.4992	2.7601	12.3336	2.5426	-5.9399	4.7215
3.1331	8.5788	12.1844	11.4602	10.8075	18.488	17.6301	11.0561	19.5945	19.6847	10.9722	16.9618	17.1701	0.8672	-1.119	3.416	-1.7468	13.5365	2.785	12.3647	2.5581	-5.8902	4.765
2.9497	8.2898	11.9327	11.2644	10.6085	18.2704	17.4902	10.9318	19.4143	19.6225	10.8945	16.7971	17.0893	0.9045	-1.1656	3.4999	-1.781	13.5241	2.7508	12.3554	2.5177	-5.5358	4.7898
2.7726	8.0349	11.7182	11.0623	10.4096	18.1057	17.369	10.8354	19.2806	19.5262	10.851	16.6852	17.0427	0.9014	-1.2589	3.6211	-1.8121	13.5179	2.7633	12.3927	2.5768	-4.9204	4.8334
2.5954	7.7862	11.4882	10.8821	10.248	17.9161	17.282	10.7204	19.119	19.4609	10.8199	16.5391	16.9712	0.9325	-1.3334	3.7859	-1.865	13.5272	2.7788	12.4238	2.5799	-4.2366	4.8676
2.3996	7.5376	11.2426	10.6893	10.0397	17.7047	17.1297	10.5992	18.9325	19.3428	10.7702	16.4024	16.8966	0.9605	-1.436	3.9413	-1.9302	13.5241	2.7912	12.43	2.5954	-3.5776	4.8893
2.1851	7.2702	10.9815	10.5029	9.7973	17.4934	17.0085	10.4904	18.7491	19.2557	10.6707	16.2469	16.8344	0.9853	-1.5324	4.106	-1.9769	13.521	2.7633	12.4362	2.5581	-3.0492	4.9173
2.0173	6.9781	10.708	10.3039	9.6046	17.2913	16.8841	10.335	18.5502	19.1501	10.6023	16.1071	16.7785	1.0257	-1.6474	4.2987	-2.0421	13.5458	2.7415	12.4393	2.5674	-2.6949	4.9204
