"FZ"	"FC3"	"FCZ"	"FC4"	"C3"	"CZ"	"C4"	"CP3"	"CPZ"	"CP4"	"P3"	"PZ"	"P4"	"OZ"	"FP1"	"FP2"	"A2"	"P8"	"TP7"	"TP8"	"P7"
-0.2747	0.0427	0.119	-0.9735	0.2533	0.0916	-0.9003	0.2167	0.1251	-0.7721	0.1404	0.061	-0.1312	-0.5951	-0.4364	-0.5981	1.2085	-0.8881	0.3418	-1.1383	0.0397
-0.2502	0.1099	0.1068	-0.9949	0.2747	0.0793	-0.9216	0.2502	0.0946	-0.8331	0.1709	0.0305	-0.2045	-0.6226	-0.4608	-0.6012	1.2634	-0.9827	0.3571	-1.1963	0.061
-0.2716	0.1495	0.0885	-1.0162	0.2991	0.0916	-0.9918	0.2472	0.0671	-0.9308	0.1892	-0.0031	-0.2808	-0.6439	-0.4608	-0.6287	1.3153	-1.0193	0.3754	-1.2512	0.1099
-0.2472	0.2197	0.0885	-1.001	0.3296	0.1068	-1.0162	0.2472	0.0488	-0.9918	0.1801	-0.0275	-0.351	-0.6622	-0.4822	-0.6805	1.358	-1.0681	0.3967	-1.2939	0.1373
-0.2228	0.2716	0.0946	-0.9918	0.351	0.1282	-1.0162	0.2533	0.0366	-1.0315	0.1923	-0.0397	-0.3967	-0.6714	-0.4456	-0.6989	1.3672	-1.0803	0.4059	-1.3245	0.1678
-0.1709	0.3082	0.119	-0.9766	0.3754	0.1617	-1.0132	0.2747	0.0275	-1.0651	0.1892	-0.0519	-0.4517	-0.6683	-0.4181	-0.7355	1.3763	-1.0864	0.4059	-1.355	0.174
-0.1495	0.3357	0.1221	-0.9308	0.3815	0.177	-1.0071	0.2655	0.0061	-1.0986	0.1984	-0.061	-0.47	-0.6622	-0.3723	-0.7782	1.3855	-1.0742	0.412	-1.3428	0.2228
-0.119	0.4059	0.1617	-0.8911	0.4211	0.2167	-0.9857	0.2563	-0.0092	-1.1078	0.2258	-0.0702	-0.5035	-0.6805	-0.351	-0.824	1.4008	-1.0681	0.4059	-1.3397	0.2533
-0.0885	0.412	0.174	-0.8514	0.4242	0.2594	-0.9399	0.2197	-0.0122	-1.1047	0.2289	-0.061	-0.5188	-0.6836	-0.3265	-0.8484	1.4191	-1.0315	0.3876	-1.3275	0.2594
-0.0275	0.4425	0.1953	-0.7751	0.4303	0.2869	-0.8942	0.2319	0.0153	-1.0773	0.2686	-0.0519	-0.5157	-0.6836	-0.2838	-0.8942	1.4069	-0.9949	0.3784	-1.2848	0.3021
0.0275	0.4852	0.2441	-0.705	0.4425	0.3082	-0.8301	0.2441	0.0153	-1.0498	0.2747	-0.0366	-0.4791	-0.6897	-0.2502	-0.9155	1.4038	-0.9216	0.3723	-1.2238	0.3326
0.0702	0.5249	0.2991	-0.6317	0.4517	0.3632	-0.7477	0.235	0.0641	-0.9766	0.2899	-0.0244	-0.4272	-0.6744	-0.2136	-0.9613	1.3855	-0.8514	0.3754	-1.1749	0.3815
0.1129	0.5585	0.3021	-0.5829	0.4456	0.3784	-0.7111	0.238	0.058	-0.9521	0.3052	-0.0061	-0.4181	-0.6775	-0.1587	-0.9583	1.3947	-0.8026	0.3845	-1.12	0.4211
0.177	0.6134	0.3601	-0.5005	0.4639	0.412	-0.6256	0.2441	0.0977	-0.8881	0.3357	0.0122	-0.354	-0.6683	-0.1373	-0.9918	1.3855	-0.7263	0.3815	-1.0529	0.4669
0.2106	0.6348	0.3723	-0.4852	0.4547	0.4333	-0.5768	0.2258	0.1038	-0.8453	0.354	0.0519	-0.3052	-0.6561	-0.1038	-1.0071	1.3489	-0.6531	0.412	-0.9827	0.5219
0.238	0.6439	0.3723	-0.4395	0.4608	0.4547	-0.5371	0.2228	0.1007	-0.8087	0.3387	0.0366	-0.3174	-0.65	-0.0702	-1.0376	1.3336	-0.6042	0.4517	-0.9491	0.5615
0.2472	0.6622	0.3815	-0.4425	0.4456	0.4456	-0.5127	0.2014	0.1007	-0.7782	0.3143	0.0397	-0.2838	-0.6256	-0.0519	-1.0284	1.3031	-0.5585	0.4211	-0.9003	0.5737
0.2563	0.6439	0.3784	-0.4395	0.4089	0.4425	-0.4913	0.1678	0.0916	-0.7294	0.293	0.0122	-0.2594	-0.6195	-0.0092	-1.0284	1.2695	-0.5219	0.412	-0.8545	0.6073
0.2441	0.6317	0.3357	-0.473	0.3967	0.412	-0.5005	0.1526	0.061	-0.7141	0.2716	-0.0061	-0.2563	-0.5981	0.0092	-1.0468	1.2299	-0.4944	0.415	-0.8453	0.6317
0.2441	0.5798	0.3113	-0.473	0.3265	0.3448	-0.4791	0.0946	0.0275	-0.7172	0.2136	-0.0397	-0.2747	-0.5707	0.0092	-1.0376	1.1841	-0.4852	0.4028	-0.8057	0.6317
0.1953	0.5341	0.2502	-0.5127	0.2563	0.293	-0.5005	0.0305	-0.058	-0.7263	0.1373	-0.0885	-0.3235	-0.5432	0.0244	-1.0162	1.123	-0.4913	0.3754	-0.8209	0.6226
0.2075	0.47	0.1984	-0.5585	0.2319	0.2472	-0.5035	0	-0.116	-0.7172	0.0885	-0.1404	-0.3448	-0.5005	0.0519	-0.9613	1.0498	-0.4791	0.354	-0.7843	0.5981
0.1678	0.4242	0.174	-0.592	0.1587	0.1831	-0.5249	-0.0671	-0.1648	-0.7416	0.0214	-0.1892	-0.3876	-0.4639	0.0427	-0.9644	0.9888	-0.4913	0.3265	-0.7874	0.5646
0.1465	0.3571	0.0885	-0.6348	0.1007	0.116	-0.5493	-0.1251	-0.2289	-0.7477	-0.0427	-0.235	-0.4395	-0.4333	0.061	-0.9369	0.9338	-0.4547	0.2838	-0.7751	0.5585
0.1068	0.3082	0.0488	-0.6805	0.0824	0.058	-0.5707	-0.1617	-0.2777	-0.7507	-0.0885	-0.2838	-0.4303	-0.4089	0.058	-0.8942	0.8636	-0.4059	0.2777	-0.7507	0.531
0.0824	0.2502	-0.0122	-0.7385	-0.0061	-0.0366	-0.5798	-0.2136	-0.3632	-0.7629	-0.1831	-0.3693	-0.5005	-0.3784	0.0305	-0.885	0.8118	-0.4303	0.2289	-0.7813	0.4944
0.0305	0.1709	-0.0946	-0.7599	-0.0488	-0.1221	-0.589	-0.2472	-0.3967	-0.7599	-0.2289	-0.3967	-0.528	-0.351	0.0458	-0.882	0.7507	-0.3784	0.2228	-0.766	0.4395
0.0183	0.1343	-0.1373	-0.8179	-0.1007	-0.1862	-0.6073	-0.2808	-0.4547	-0.7507	-0.2563	-0.4395	-0.5646	-0.3113	0.0641	-0.8667	0.6592	-0.3418	0.2197	-0.7446	0.4547
-0.0427	0.0824	-0.2228	-0.8423	-0.1343	-0.2502	-0.6195	-0.3174	-0.5188	-0.7599	-0.3235	-0.4974	-0.5951	-0.2747	0.061	-0.8423	0.5981	-0.3052	0.2014	-0.7416	0.4242
-0.0671	0.0519	-0.2625	-0.8484	-0.1404	-0.2991	-0.6104	-0.3357	-0.5432	-0.7538	-0.3479	-0.5341	-0.6287	-0.2258	0.0336	-0.7935	0.5066	-0.2747	0.2319	-0.708	0.4333
-0.1129	0	-0.3143	-0.885	-0.174	-0.3815	-0.6256	-0.3448	-0.592	-0.7385	-0.3754	-0.5615	-0.6622	-0.1953	0.0336	-0.705	0.4303	-0.2319	0.2411	-0.6714	0.4242
-0.1312	-0.0397	-0.3815	-0.8667	-0.1831	-0.412	-0.5951	-0.3387	-0.6287	-0.708	-0.3784	-0.5981	-0.6531	-0.1465	0.0702	-0.6348	0.3448	-0.1801	0.235	-0.6195	0.415
-0.1526	-0.0305	-0.4211	-0.885	-0.2014	-0.4456	-0.5981	-0.3448	-0.6378	-0.6622	-0.3906	-0.6012	-0.6622	-0.1099	0.0916	-0.5463	0.2563	-0.1068	0.293	-0.5524	0.4486
-0.1312	-0.0305	-0.4456	-0.8423	-0.177	-0.4669	-0.5432	-0.3052	-0.6287	-0.6012	-0.3723	-0.5981	-0.6561	-0.0488	0.119	-0.4272	0.1373	-0.0275	0.3052	-0.4852	0.4822
-0.1709	-0.058	-0.5005	-0.8118	-0.1678	-0.5035	-0.528	-0.293	-0.65	-0.5737	-0.354	-0.6287	-0.6409	0.0122	0.1282	-0.3326	0.0183	0.0275	0.3479	-0.4272	0.4944
-0.1465	-0.0671	-0.5371	-0.8057	-0.1801	-0.5371	-0.4883	-0.293	-0.6683	-0.5188	-0.351	-0.6348	-0.6226	0.0763	0.1312	-0.2502	-0.0916	0.1068	0.3479	-0.351	0.5005
-0.1587	-0.0732	-0.589	-0.7782	-0.1678	-0.5646	-0.4608	-0.2838	-0.6897	-0.5005	-0.3723	-0.6287	-0.6195	0.1373	0.1282	-0.1648	-0.2228	0.1617	0.4059	-0.2869	0.5219
-0.1678	-0.0702	-0.5981	-0.7355	-0.1648	-0.5676	-0.4211	-0.2716	-0.6836	-0.4517	-0.3357	-0.6409	-0.5829	0.2045	0.1404	-0.0916	-0.3632	0.235	0.4333	-0.2197	0.5463
-0.1709	-0.0977	-0.6287	-0.6989	-0.1526	-0.592	-0.4089	-0.2472	-0.7019	-0.4181	-0.3204	-0.647	-0.5707	0.2838	0.1404	-0.0031	-0.528	0.2808	0.4547	-0.1678	0.5676
-0.2106	-0.1526	-0.6775	-0.6805	-0.1801	-0.6287	-0.3906	-0.2502	-0.7233	-0.3967	-0.3174	-0.6592	-0.6042	0.3357	0.0885	0.0519	-0.6531	0.3052	0.4456	-0.0977	0.5737
-0.2502	-0.1831	-0.7385	-0.6531	-0.1831	-0.6531	-0.3662	-0.2533	-0.7263	-0.3662	-0.3357	-0.6683	-0.5859	0.412	0.058	0.0916	-0.7843	0.3418	0.4303	-0.061	0.5524
-0.2686	-0.2319	-0.7629	-0.6287	-0.2106	-0.6866	-0.3357	-0.2747	-0.7568	-0.3204	-0.3479	-0.6989	-0.5768	0.4822	-0.0153	0.1251	-0.9125	0.3632	0.3723	0.0031	0.5188
-0.351	-0.2716	-0.8423	-0.6104	-0.2625	-0.7294	-0.3326	-0.2991	-0.7935	-0.293	-0.3632	-0.6989	-0.5676	0.5402	-0.0946	0.1312	-1.0498	0.3845	0.3326	0.0488	0.4852
-0.3632	-0.3052	-0.8698	-0.5554	-0.3052	-0.7599	-0.2899	-0.3204	-0.8179	-0.293	-0.4089	-0.7538	-0.5951	0.6104	-0.1617	0.1343	-1.1719	0.3845	0.2899	0.1038	0.4272
-0.4242	-0.354	-0.885	-0.5219	-0.3296	-0.7935	-0.2747	-0.354	-0.8331	-0.2625	-0.415	-0.7599	-0.5829	0.6836	-0.2258	0.1404	-1.3184	0.3998	0.238	0.1648	0.3967
-0.4211	-0.3937	-0.9186	-0.4669	-0.354	-0.8179	-0.2655	-0.3693	-0.827	-0.1984	-0.4181	-0.7568	-0.5676	0.7568	-0.2716	0.1587	-1.4496	0.4211	0.2045	0.2197	0.3204
-0.4608	-0.4089	-0.9552	-0.412	-0.3845	-0.8362	-0.2411	-0.3754	-0.8392	-0.2167	-0.4333	-0.7507	-0.5615	0.8087	-0.3113	0.1495	-1.5686	0.4242	0.1373	0.2502	0.2716
-0.5066	-0.4395	-0.9521	-0.3693	-0.4028	-0.8545	-0.2319	-0.3876	-0.8636	-0.1831	-0.4486	-0.7507	-0.5493	0.8362	-0.3601	0.1648	-1.6479	0.4333	0.0946	0.2869	0.2167
-0.5005	-0.4639	-0.9674	-0.3235	-0.4517	-0.8606	-0.1923	-0.4181	-0.8545	-0.1526	-0.4791	-0.7324	-0.5493	0.8911	-0.3448	0.2075	-1.7273	0.4669	0.058	0.3326	0.1465
-0.5035	-0.4211	-0.9338	-0.2441	-0.4242	-0.8514	-0.177	-0.4028	-0.8087	-0.1129	-0.4547	-0.6805	-0.5096	0.9094	-0.3479	0.2502	-1.7731	0.4974	0.0153	0.412	0.116
-0.528	-0.4395	-0.9338	-0.1678	-0.4181	-0.8423	-0.1495	-0.3967	-0.7996	-0.0702	-0.4517	-0.647	-0.4822	0.9216	-0.3479	0.235	-1.7853	0.5188	-0.0336	0.4608	0.0397
-0.5066	-0.3937	-0.8881	-0.0946	-0.3967	-0.7751	-0.0671	-0.3571	-0.7355	-0.0336	-0.4059	-0.5646	-0.4181	0.9216	-0.3174	0.2899	-1.7853	0.5615	-0.0214	0.528	0.0153
-0.4669	-0.3662	-0.827	-0.0092	-0.3357	-0.7416	-0.0183	-0.2899	-0.6653	0.0397	-0.354	-0.4944	-0.3601	0.8911	-0.2502	0.3479	-1.7365	0.5951	-0.0397	0.5707	0.0092
-0.4364	-0.3052	-0.7568	0.1221	-0.2716	-0.6561	0.0671	-0.2289	-0.5676	0.1251	-0.2838	-0.3967	-0.2655	0.882	-0.2014	0.412	-1.7029	0.647	-0.0183	0.6531	0.0122
-0.3632	-0.2502	-0.6744	0.2258	-0.2136	-0.6073	0.1495	-0.1648	-0.4639	0.1862	-0.2045	-0.3052	-0.2014	0.8545	-0.0854	0.4883	-1.6602	0.6775	0.0153	0.7355	0.0305
-0.3082	-0.1617	-0.5707	0.3387	-0.1373	-0.5035	0.2319	-0.0916	-0.3601	0.2594	-0.119	-0.2045	-0.1038	0.8148	-0.0153	0.5249	-1.5869	0.7111	0.0336	0.8026	0.0519
-0.2563	-0.0671	-0.4852	0.4456	-0.0763	-0.4395	0.3174	-0.0275	-0.2777	0.3265	-0.0397	-0.1099	-0.0366	0.7782	0.061	0.589	-1.5076	0.7507	0.061	0.8545	0.1007
-0.177	-0.0122	-0.4181	0.5402	0	-0.3601	0.4028	0.0793	-0.1709	0.415	0.0336	-0.0031	0.0732	0.7355	0.1343	0.6561	-1.4099	0.7629	0.0824	0.9094	0.1221
-0.1007	0.0854	-0.296	0.647	0.0702	-0.2625	0.4608	0.1617	-0.0671	0.4608	0.1099	0.0671	0.0977	0.6866	0.2075	0.6775	-1.3214	0.7721	0.119	0.9399	0.1648
-0.0336	0.1709	-0.2075	0.7477	0.1587	-0.1892	0.5524	0.238	0.0366	0.528	0.2014	0.177	0.1923	0.6317	0.2716	0.708	-1.2299	0.7996	0.1617	0.9979	0.1801
0.0214	0.2441	-0.1099	0.8575	0.2441	-0.0946	0.6226	0.3265	0.1404	0.6012	0.2747	0.2441	0.2502	0.589	0.3265	0.705	-1.1444	0.7996	0.1984	1.0468	0.2258
0.1251	0.3448	-0.0122	0.9491	0.3143	0.0153	0.6989	0.3998	0.2563	0.6592	0.351	0.3235	0.3326	0.531	0.3815	0.7416	-1.0437	0.8179	0.238	1.1047	0.2594
0.1862	0.4303	0.1038	1.0254	0.3906	0.0916	0.7446	0.4669	0.3571	0.7202	0.415	0.415	0.3967	0.4791	0.4486	0.7324	-0.9369	0.7843	0.2533	1.0956	0.2502
0.2472	0.5035	0.2014	1.1322	0.4364	0.1678	0.824	0.5432	0.4303	0.7874	0.47	0.4913	0.4791	0.4303	0.5035	0.7324	-0.8423	0.8087	0.2502	1.1261	0.2502
0.3296	0.5554	0.293	1.2146	0.5066	0.2502	0.9003	0.5798	0.4913	0.8331	0.5005	0.5615	0.528	0.3845	0.5219	0.7324	-0.7324	0.7843	0.2747	1.1322	0.2136
0.3754	0.5859	0.3723	1.2573	0.5341	0.3357	0.9308	0.6378	0.5981	0.885	0.5768	0.6317	0.5951	0.3448	0.5341	0.6653	-0.6378	0.7874	0.2563	1.1475	0.2258
0.4669	0.6775	0.4486	1.3245	0.5707	0.4211	0.9857	0.6653	0.6378	0.9491	0.5524	0.6653	0.6348	0.3052	0.5768	0.6439	-0.5493	0.769	0.2258	1.1505	0.1923
0.4822	0.6409	0.4974	1.3397	0.5768	0.4639	0.9888	0.6775	0.6714	0.9735	0.5798	0.6958	0.6775	0.2441	0.5646	0.6042	-0.4456	0.7538	0.1984	1.123	0.1465
0.5249	0.7019	0.528	1.3641	0.5859	0.5157	1.0071	0.7141	0.7324	0.9979	0.592	0.7233	0.6989	0.2045	0.589	0.5615	-0.3876	0.7111	0.1953	1.1017	0.1312
0.5219	0.647	0.5493	1.3672	0.5341	0.5219	0.9979	0.6866	0.7324	1.0071	0.5859	0.7141	0.7233	0.174	0.5371	0.4822	-0.2991	0.6683	0.1465	1.0681	0.0732
0.5493	0.6226	0.5707	1.3214	0.5096	0.5402	0.9857	0.6622	0.7507	1.0254	0.5707	0.7019	0.7324	0.1373	0.4913	0.4395	-0.235	0.6287	0.0824	1.0345	0.0336
0.5219	0.5554	0.5676	1.2756	0.4272	0.531	0.9521	0.5859	0.7324	1.0071	0.5188	0.6622	0.7324	0.0977	0.4395	0.4028	-0.1556	0.5829	0.0183	0.9827	-0.0519
0.5219	0.5219	0.6042	1.236	0.3815	0.528	0.9338	0.5707	0.7172	1.004	0.5035	0.6409	0.7233	0.0702	0.3937	0.3632	-0.1038	0.5188	-0.0275	0.9491	-0.1038
0.4913	0.4456	0.5402	1.1749	0.3296	0.4944	0.8698	0.5157	0.6805	0.9766	0.4547	0.5981	0.7233	0.0336	0.3204	0.3479	-0.0366	0.4608	-0.0732	0.8881	-0.1617
0.4333	0.3265	0.5066	1.0681	0.2319	0.4211	0.7965	0.4303	0.6317	0.9216	0.3845	0.5554	0.6897	0.0061	0.2197	0.3143	0.0336	0.4181	-0.1617	0.8179	-0.2594
0.4059	0.2289	0.47	1.001	0.1434	0.3998	0.7294	0.3693	0.5951	0.9094	0.3296	0.5219	0.6927	-0.0214	0.2075	0.3143	0.0641	0.3815	-0.2106	0.7599	-0.3601
0.3571	0.1434	0.4425	0.9338	0.0549	0.3571	0.6927	0.293	0.5341	0.8545	0.2533	0.47	0.6622	-0.0427	0.177	0.3113	0.1099	0.3448	-0.2686	0.6897	-0.4486
0.2716	0.0183	0.3784	0.824	-0.0549	0.2869	0.6531	0.2136	0.5096	0.824	0.2136	0.4333	0.6287	-0.0641	0.1221	0.2747	0.1587	0.3052	-0.3418	0.6317	-0.5066
0.2136	-0.0763	0.3326	0.7507	-0.1434	0.2563	0.5798	0.119	0.4578	0.7843	0.1068	0.3967	0.6134	-0.0732	0.0946	0.293	0.1862	0.2655	-0.4211	0.5707	-0.6134
0.1495	-0.1984	0.293	0.6531	-0.2228	0.2014	0.5188	0.0336	0.3998	0.7233	0.0549	0.3387	0.589	-0.0854	0.058	0.3021	0.2045	0.2106	-0.47	0.5188	-0.7019
0.0916	-0.3052	0.2625	0.589	-0.2869	0.1709	0.4883	-0.0519	0.3571	0.6897	-0.0275	0.3235	0.5798	-0.0916	0.058	0.3326	0.2319	0.1617	-0.528	0.473	-0.7874
0.0458	-0.4211	0.2075	0.5035	-0.3876	0.1221	0.4272	-0.1526	0.3052	0.6012	-0.0885	0.2808	0.5615	-0.1068	-0.0031	0.3571	0.2441	0.119	-0.5981	0.4303	-0.8453
0.0183	-0.4761	0.2045	0.4852	-0.4272	0.1038	0.3876	-0.2045	0.2808	0.5768	-0.1282	0.2747	0.5493	-0.0854	0.0153	0.4089	0.2197	0.0793	-0.65	0.3967	-0.9308
-0.0153	-0.5646	0.1434	0.415	-0.528	0.0519	0.3326	-0.2838	0.2319	0.5157	-0.1892	0.2167	0.5188	-0.0885	-0.0427	0.4333	0.2228	0.0244	-0.6927	0.3571	-0.9888
-0.058	-0.6226	0.0977	0.3448	-0.5554	0.0183	0.3143	-0.3265	0.2075	0.4974	-0.2319	0.2136	0.5157	-0.0763	-0.0641	0.4608	0.1831	-0.0092	-0.7233	0.3143	-1.0101
-0.116	-0.7263	0.0793	0.2991	-0.6073	-0.0061	0.2625	-0.3937	0.177	0.4608	-0.2655	0.1862	0.5035	-0.0549	-0.1251	0.4395	0.1678	-0.0427	-0.7874	0.293	-1.0712
-0.1282	-0.7721	0.0641	0.2869	-0.6195	-0.0061	0.2502	-0.4181	0.1709	0.4364	-0.3113	0.1831	0.5127	-0.0458	-0.1221	0.5249	0.1068	-0.0702	-0.8301	0.2716	-1.123
-0.1556	-0.8087	0.0366	0.2563	-0.6531	-0.0183	0.2533	-0.4639	0.1648	0.4272	-0.3693	0.1678	0.4822	-0.0061	-0.1343	0.531	0.0488	-0.0946	-0.8545	0.238	-1.1353
-0.1648	-0.8545	0.0488	0.2502	-0.6622	-0.0305	0.2747	-0.473	0.1465	0.4303	-0.3693	0.1862	0.4974	0.0275	-0.1678	0.5493	-0.0244	-0.1251	-0.9033	0.2258	-1.1658
-0.1465	-0.8789	0.058	0.2472	-0.65	-0.0061	0.2716	-0.4791	0.174	0.4364	-0.3693	0.1892	0.5096	0.0488	-0.2075	0.531	-0.0488	-0.1648	-0.943	0.2319	-1.1749
-0.1404	-0.8545	0.0793	0.3021	-0.6134	0.0244	0.3174	-0.4639	0.2106	0.4761	-0.354	0.2411	0.5249	0.0519	-0.1892	0.5676	-0.0824	-0.1648	-0.9399	0.2167	-1.1475
-0.119	-0.8484	0.1068	0.3204	-0.5707	0.0763	0.3632	-0.4425	0.2319	0.531	-0.3357	0.2655	0.5768	0.0519	-0.1678	0.5768	-0.0916	-0.1862	-0.9338	0.2228	-1.12
-0.0763	-0.824	0.1678	0.3906	-0.528	0.1404	0.4395	-0.3998	0.296	0.6073	-0.3021	0.3143	0.6012	0.0397	-0.1251	0.592	-0.0671	-0.2014	-0.9277	0.235	-1.062
-0.0519	-0.7599	0.2045	0.4486	-0.4608	0.2075	0.5096	-0.3448	0.3632	0.6622	-0.2594	0.3754	0.6653	0.0458	-0.0793	0.6165	-0.0427	-0.1892	-0.9033	0.2441	-1.004
0.0305	-0.6744	0.2777	0.5188	-0.3815	0.3052	0.5798	-0.2747	0.4608	0.7538	-0.1862	0.4486	0.7355	0.0214	-0.0153	0.6439	-0.0214	-0.1892	-0.8728	0.2441	-0.9308
0.061	-0.6439	0.3326	0.5859	-0.2869	0.3784	0.6836	-0.2014	0.5585	0.827	-0.1465	0.5402	0.7874	0.0244	0.0153	0.6561	0	-0.1862	-0.824	0.2655	-0.8728
0.1556	-0.531	0.4425	0.6714	-0.2228	0.47	0.7599	-0.1282	0.6561	0.9033	-0.1007	0.6287	0.8667	0.0031	0.0977	0.7172	0.0214	-0.1953	-0.8057	0.2899	-0.7996
0.2228	-0.4425	0.531	0.7233	-0.119	0.589	0.8423	-0.0427	0.7629	1.0193	-0.0153	0.6958	0.9308	-0.0183	0.1434	0.7263	0.0641	-0.1831	-0.7843	0.2991	-0.7172
0.3113	-0.3448	0.6256	0.8392	-0.0031	0.7141	0.9583	0.058	0.8972	1.1139	0.0671	0.824	1.0132	-0.0214	0.238	0.7965	0.0854	-0.1495	-0.7141	0.3571	-0.6348
0.4028	-0.2167	0.7172	0.9277	0.1068	0.8209	1.0406	0.1434	1.0101	1.2115	0.1465	0.8881	1.0895	-0.0275	0.3021	0.8636	0.1038	-0.119	-0.6714	0.3845	-0.5463
0.5035	-0.0854	0.824	0.9918	0.235	0.9491	1.1139	0.2228	1.1322	1.2848	0.2289	0.9827	1.178	-0.0641	0.3326	0.882	0.1373	-0.0977	-0.6073	0.4089	-0.4517
0.5615	0.0275	0.9216	1.0864	0.3113	1.062	1.1871	0.296	1.2054	1.3733	0.2899	1.0437	1.2512	-0.0824	0.3967	0.9094	0.1678	-0.0854	-0.5768	0.4272	-0.3906
0.705	0.1465	1.0223	1.1658	0.4303	1.1932	1.2787	0.3845	1.3153	1.4343	0.3265	1.1169	1.3092	-0.0885	0.4181	0.9735	0.2014	-0.0458	-0.5554	0.4913	-0.3265
0.7996	0.2594	1.1444	1.2451	0.5432	1.3306	1.3489	0.4639	1.416	1.5137	0.412	1.1871	1.3824	-0.0854	0.4822	1.0437	0.1984	0.0061	-0.4791	0.5249	-0.2563
0.9033	0.3815	1.2329	1.3214	0.5981	1.416	1.4374	0.5035	1.5198	1.6022	0.4456	1.2512	1.4252	-0.1038	0.5402	1.1108	0.2228	0.058	-0.4456	0.5615	-0.1953
0.9979	0.4669	1.3245	1.4008	0.7019	1.535	1.5137	0.5768	1.6052	1.6724	0.5249	1.3	1.4893	-0.0946	0.6226	1.239	0.2045	0.1282	-0.4059	0.6165	-0.1129
1.1047	0.5585	1.4191	1.4801	0.7629	1.6235	1.5625	0.6317	1.7059	1.7395	0.5554	1.3489	1.5442	-0.1068	0.7202	1.3519	0.235	0.1831	-0.3998	0.6714	-0.0641
1.2085	0.6592	1.5106	1.535	0.8331	1.7365	1.6388	0.6866	1.7578	1.825	0.5981	1.3794	1.6052	-0.1251	0.7843	1.4679	0.2655	0.2472	-0.3784	0.7294	-0.0031
1.297	0.7202	1.6266	1.6144	0.9216	1.8555	1.6846	0.7477	1.8463	1.8585	0.6348	1.4343	1.6602	-0.1373	0.8698	1.6022	0.296	0.3113	-0.3235	0.7813	0.0732
1.3885	0.7874	1.7059	1.6785	0.9644	1.9196	1.7548	0.766	1.9012	1.9073	0.6653	1.4526	1.6968	-0.1587	0.9338	1.7365	0.3357	0.3815	-0.3113	0.8453	0.1129
1.4496	0.8484	1.77	1.6998	0.9918	1.9867	1.7883	0.7721	1.9409	1.9775	0.6927	1.4893	1.7456	-0.177	1.001	1.8555	0.3754	0.4639	-0.296	0.8728	0.1465
1.4984	0.8972	1.8433	1.7395	1.0468	2.0569	1.825	0.7965	1.9775	1.9867	0.7111	1.5015	1.7731	-0.1892	1.0803	2.0081	0.4089	0.528	-0.2808	0.9338	0.1892
1.5503	0.9155	1.8768	1.7639	1.0559	2.0996	1.8158	0.769	1.9897	2.0081	0.7172	1.4893	1.77	-0.2045	1.0895	2.0874	0.4364	0.6042	-0.2655	0.9796	0.2136
1.593	0.9094	1.9135	1.7761	1.059	2.124	1.8188	0.7782	1.9958	2.0203	0.7172	1.4832	1.8066	-0.2167	1.1566	2.2064	0.4639	0.6622	-0.2838	1.0376	0.2594
1.5747	0.9033	1.9348	1.767	1.0559	2.1423	1.8066	0.7416	2.005	2.0355	0.6897	1.4648	1.7944	-0.2197	1.1597	2.2644	0.4913	0.7416	-0.3113	1.0712	0.2441
1.5564	0.8911	1.9348	1.7273	1.0284	2.1545	1.7731	0.708	1.9989	2.005	0.6927	1.4313	1.8005	-0.2319	1.2207	2.3773	0.5035	0.7965	-0.3204	1.1108	0.2625
1.5503	0.8545	1.9104	1.6937	0.9735	2.1057	1.7059	0.6561	1.9531	1.9836	0.6317	1.3855	1.767	-0.2289	1.2756	2.4414	0.5096	0.8423	-0.3326	1.1261	0.2197
1.4587	0.7721	1.8433	1.6113	0.8911	2.0386	1.6418	0.589	1.8951	1.9257	0.5493	1.3458	1.7395	-0.238	1.2756	2.4445	0.5127	0.8759	-0.4028	1.1566	0.1648
1.3733	0.6653	1.7792	1.5045	0.7813	1.9379	1.5381	0.473	1.7822	1.8494	0.4608	1.2482	1.6632	-0.2228	1.2573	2.4658	0.4944	0.8698	-0.4852	1.123	0.0732
1.2512	0.5188	1.6632	1.3733	0.6836	1.8463	1.4282	0.3418	1.6724	1.7303	0.3326	1.1261	1.5869	-0.2167	1.2024	2.4384	0.473	0.8301	-0.5829	1.0834	-0.0214
1.1292	0.3906	1.5472	1.2543	0.5554	1.709	1.3092	0.2319	1.5625	1.651	0.2197	1.0284	1.5076	-0.1862	1.1261	2.3529	0.4211	0.7874	-0.6989	1.0376	-0.1251
0.9674	0.2258	1.3824	1.0895	0.3967	1.5503	1.1383	0.0824	1.4191	1.5289	0.0671	0.882	1.3824	-0.1648	1.0345	2.2156	0.3571	0.705	-0.8148	0.9552	-0.2716
0.827	0.0519	1.2604	0.9583	0.2563	1.4221	1.0101	-0.058	1.2878	1.4099	-0.0946	0.7477	1.2695	-0.1068	0.9216	2.1606	0.2594	0.6409	-0.9521	0.9186	-0.412
0.6622	-0.1068	1.0864	0.7965	0.0885	1.2604	0.8759	-0.2319	1.0986	1.2787	-0.2441	0.6073	1.1292	-0.0641	0.7751	2.0386	0.1678	0.5371	-1.1078	0.827	-0.5615
0.4852	-0.2838	0.9003	0.6409	-0.1007	1.0895	0.7538	-0.3906	0.946	1.1322	-0.415	0.4547	0.9857	-0.0305	0.6256	1.9409	0.1099	0.4333	-1.2482	0.7385	-0.7141
0.3357	-0.47	0.7324	0.5005	-0.2655	0.9155	0.6165	-0.5402	0.7843	1.0101	-0.5768	0.3204	0.8331	0	0.4761	1.828	0.0305	0.3204	-1.3916	0.65	-0.8667
0.2197	-0.5981	0.6012	0.3845	-0.3937	0.7904	0.5157	-0.6805	0.6775	0.8942	-0.7111	0.2045	0.7233	0.0458	0.351	1.7517	-0.0488	0.2228	-1.4984	0.6012	-0.9979
0.0732	-0.7782	0.4395	0.2411	-0.528	0.6683	0.4028	-0.8179	0.5463	0.7996	-0.8606	0.0916	0.6226	0.061	0.1709	1.6327	-0.0854	0.1129	-1.651	0.5188	-1.123
-0.0671	-0.8698	0.296	0.1404	-0.6409	0.5524	0.3082	-0.9277	0.415	0.6836	-1.004	-0.0183	0.4822	0.0732	0.0519	1.5747	-0.1068	-0.0061	-1.7456	0.4242	-1.2604
-0.177	-1.0315	0.177	0.0519	-0.7568	0.4486	0.2472	-1.0284	0.3387	0.6226	-1.1169	-0.119	0.3876	0.0885	-0.0793	1.5106	-0.1282	-0.0732	-1.8616	0.351	-1.3702
-0.2838	-1.12	0.0519	-0.0214	-0.8301	0.3693	0.1801	-1.1108	0.2472	0.5493	-1.1932	-0.1678	0.3021	0.0732	-0.2014	1.4404	-0.1312	-0.1831	-1.944	0.296	-1.4435
-0.3326	-1.2024	-0.0061	-0.0824	-0.9064	0.296	0.1587	-1.1566	0.2106	0.4913	-1.2939	-0.2136	0.238	0.0702	-0.2777	1.416	-0.1099	-0.2563	-2.0264	0.2563	-1.5228
-0.415	-1.2695	-0.116	-0.0977	-0.9888	0.238	0.1251	-1.2207	0.1526	0.47	-1.3641	-0.2808	0.1862	0.0549	-0.3693	1.3885	-0.0671	-0.2899	-2.1027	0.238	-1.5839
-0.47	-1.3245	-0.2014	-0.1068	-1.001	0.2014	0.1251	-1.236	0.1404	0.4272	-1.3916	-0.2716	0.1465	0.0336	-0.4486	1.3916	-0.0244	-0.3113	-2.1362	0.2075	-1.6174
-0.4608	-1.3519	-0.2075	-0.1068	-1.0468	0.1953	0.1434	-1.2482	0.1495	0.415	-1.4069	-0.2655	0.1495	0.0031	-0.4913	1.3977	0.0153	-0.3296	-2.1698	0.2045	-1.6113
-0.4761	-1.3977	-0.235	-0.0916	-1.0437	0.2014	0.1892	-1.2115	0.1587	0.4425	-1.3916	-0.2289	0.1434	-0.0122	-0.5585	1.4069	0.0488	-0.3052	-2.1454	0.2258	-1.593
-0.473	-1.3824	-0.235	-0.0366	-1.0193	0.2289	0.235	-1.1719	0.2075	0.47	-1.3519	-0.1923	0.1648	-0.0153	-0.5981	1.4557	0.0793	-0.2777	-2.1545	0.2655	-1.5564
-0.4486	-1.3916	-0.2411	0.0061	-0.9949	0.2716	0.2655	-1.1475	0.238	0.5035	-1.3275	-0.1434	0.1801	-0.0397	-0.6104	1.4862	0.1129	-0.2441	-2.1332	0.3052	-1.5198
-0.4211	-1.3611	-0.2472	0.0549	-0.9613	0.3235	0.3357	-1.0986	0.3052	0.5371	-1.2787	-0.0885	0.1923	-0.0427	-0.6348	1.5533	0.1251	-0.2045	-2.1057	0.3601	-1.4648
-0.3754	-1.3184	-0.2167	0.1129	-0.9277	0.3571	0.3967	-1.0376	0.3387	0.5951	-1.236	-0.061	0.2106	-0.0549	-0.6287	1.59	0.1434	-0.1953	-2.0782	0.4028	-1.3916
-0.3387	-1.3062	-0.1587	0.1892	-0.9033	0.3967	0.473	-0.9705	0.3937	0.6378	-1.1871	-0.0061	0.238	-0.0488	-0.5981	1.6968	0.1526	-0.1221	-2.0142	0.4913	-1.3458
-0.2838	-1.2421	-0.1373	0.2777	-0.8331	0.4669	0.5371	-0.9247	0.4639	0.6866	-1.1353	0.0641	0.2625	-0.0488	-0.5493	1.7792	0.1495	-0.0793	-1.9714	0.5371	-1.2634
-0.238	-1.2054	-0.1038	0.351	-0.7813	0.528	0.5981	-0.8392	0.5341	0.7507	-1.0834	0.0946	0.2899	-0.0458	-0.47	1.8738	0.1404	-0.061	-1.9196	0.592	-1.1841
-0.1617	-1.1353	-0.0488	0.4181	-0.7385	0.5951	0.6744	-0.7568	0.592	0.8209	-1.0315	0.1312	0.3021	-0.0366	-0.3906	1.9531	0.119	-0.0092	-1.828	0.6653	-1.1017
-0.1251	-1.1047	0.0061	0.47	-0.6866	0.6439	0.7172	-0.7233	0.6531	0.8698	-0.9918	0.1862	0.3021	-0.0336	-0.3265	2.0081	0.1282	0.0458	-1.7944	0.7172	-1.0284
-0.0732	-1.059	0.0488	0.5371	-0.65	0.6897	0.7843	-0.6653	0.7019	0.8881	-0.9399	0.2167	0.3082	-0.0305	-0.2075	2.0599	0.1129	0.1038	-1.7151	0.7813	-0.9674
-0.0275	-1.0071	0.0977	0.6104	-0.6042	0.7629	0.8514	-0.6195	0.766	0.9399	-0.8881	0.2686	0.3326	-0.0275	-0.0824	2.1729	0.0946	0.1678	-1.6388	0.8453	-0.885
-0.0214	-1.0162	0.0977	0.6348	-0.5646	0.7935	0.8728	-0.5829	0.7751	0.9583	-0.8575	0.293	0.3326	-0.0336	-0.0031	2.2095	0.1068	0.2563	-1.5808	0.885	-0.8209
0.0244	-0.9705	0.1678	0.7141	-0.5524	0.8362	0.9308	-0.5249	0.8301	0.9766	-0.7751	0.3265	0.3479	-0.0275	0.0916	2.2766	0.0977	0.3571	-1.5137	0.943	-0.7629
0.0336	-0.9705	0.1831	0.7538	-0.5249	0.8728	0.9674	-0.5035	0.8636	1.0223	-0.7263	0.354	0.3571	-0.0458	0.1953	2.3102	0.1129	0.4059	-1.4557	1.004	-0.6958
0.058	-0.9796	0.2014	0.7874	-0.5371	0.8698	0.9827	-0.4822	0.9003	1.0345	-0.708	0.354	0.354	-0.0397	0.2411	2.3376	0.1312	0.4974	-1.413	1.059	-0.647
0.0427	-0.9705	0.1862	0.824	-0.5219	0.8728	1.0162	-0.4822	0.9277	1.0651	-0.6775	0.3571	0.3754	-0.0366	0.3143	2.3651	0.119	0.5493	-1.358	1.0986	-0.5768
0.0519	-0.9918	0.2014	0.8453	-0.5524	0.885	1.0254	-0.4913	0.943	1.0773	-0.6348	0.3632	0.3845	-0.0244	0.3998	2.3712	0.0885	0.6042	-1.3397	1.1353	-0.5554
0.0336	-1.0315	0.1892	0.8636	-0.6042	0.8575	1.0437	-0.5219	0.8972	1.062	-0.6714	0.3571	0.3601	-0.0092	0.4486	2.3621	0.0458	0.6592	-1.3306	1.181	-0.5463
0	-1.1017	0.1251	0.8636	-0.6989	0.7813	1.0254	-0.5707	0.8514	1.0284	-0.6683	0.296	0.3143	0.0275	0.4425	2.3132	-0.0336	0.6897	-1.3397	1.178	-0.5432
-0.0854	-1.1871	0.0641	0.8301	-0.7935	0.705	0.9857	-0.6348	0.7935	0.9827	-0.7111	0.238	0.3082	0.0763	0.4608	2.2827	-0.1251	0.6653	-1.3916	1.1902	-0.589
-0.1312	-1.2817	-0.0122	0.8209	-0.9003	0.6226	0.9674	-0.7141	0.708	0.9521	-0.7507	0.2167	0.2502	0.1556	0.473	2.2461	-0.2655	0.6989	-1.4221	1.181	-0.6317
-0.2136	-1.3794	-0.1251	0.766	-1.0101	0.5096	0.9094	-0.827	0.6104	0.8789	-0.8362	0.116	0.1862	0.2228	0.4242	2.1637	-0.4059	0.708	-1.4893	1.1658	-0.6683
-0.3082	-1.5198	-0.2228	0.7233	-1.1566	0.3998	0.8667	-0.9521	0.5005	0.8148	-0.9094	0.0397	0.1343	0.3082	0.3754	2.1179	-0.5646	0.6866	-1.5839	1.1536	-0.769
-0.4272	-1.6205	-0.3479	0.6683	-1.3397	0.2533	0.7996	-1.0834	0.3937	0.769	-0.9827	-0.0519	0.0732	0.3967	0.3143	2.0416	-0.7324	0.6531	-1.6815	1.1414	-0.8484
-0.5402	-1.77	-0.4669	0.6439	-1.4801	0.1007	0.7263	-1.1932	0.2686	0.6958	-1.0742	-0.1343	0.0458	0.4761	0.238	1.9653	-0.9033	0.6409	-1.7548	1.1078	-0.9247
-0.6378	-1.8921	-0.6134	0.5829	-1.6449	-0.0336	0.6683	-1.3367	0.1587	0.6317	-1.1749	-0.2319	0	0.5524	0.1801	1.889	-1.0529	0.6104	-1.8646	1.0834	-1.0101
-0.7263	-2.0264	-0.7111	0.5676	-1.7792	-0.1678	0.6287	-1.4679	0.0244	0.5737	-1.2482	-0.2899	-0.0092	0.6378	0.1312	1.8494	-1.2238	0.5829	-1.9379	1.0681	-1.0895
-0.8453	-2.121	-0.827	0.5524	-1.9379	-0.3052	0.5707	-1.5869	-0.0885	0.5005	-1.3214	-0.3662	-0.0244	0.7202	0.0641	1.8158	-1.3794	0.5585	-2.0111	1.0345	-1.1414
-0.9247	-2.2064	-0.9094	0.531	-2.0264	-0.4059	0.5524	-1.7059	-0.2045	0.4913	-1.3855	-0.4456	-0.0183	0.7965	0.0214	1.767	-1.5259	0.5402	-2.0752	1.0559	-1.1658
-0.9827	-2.3041	-1.004	0.531	-2.1545	-0.531	0.531	-1.8005	-0.3235	0.4486	-1.4618	-0.528	-0.0458	0.8453	-0.0458	1.7426	-1.6388	0.5402	-2.1454	1.062	-1.2329
-1.0284	-2.3682	-1.0712	0.5432	-2.2339	-0.592	0.528	-1.8951	-0.4059	0.4456	-1.5137	-0.5707	-0.0336	0.9033	-0.1038	1.712	-1.7548	0.5585	-2.1729	1.059	-1.2787
-1.0468	-2.3651	-1.0712	0.6134	-2.2766	-0.6866	0.5676	-1.947	-0.4608	0.473	-1.5747	-0.6134	0	0.9644	-0.1099	1.7273	-1.8768	0.592	-2.1973	1.123	-1.2756
-1.0529	-2.3987	-1.1017	0.6622	-2.3468	-0.7294	0.6165	-2.0203	-0.5096	0.473	-1.6235	-0.6531	0.0244	0.9949	-0.1404	1.7365	-1.9501	0.6104	-2.2247	1.1292	-1.3214
-1.0193	-2.417	-1.1047	0.7477	-2.3773	-0.769	0.6622	-2.0538	-0.5737	0.5066	-1.6632	-0.6714	0.0549	1.0345	-0.1953	1.7273	-2.0233	0.6317	-2.2644	1.1688	-1.3397
-0.9552	-2.3926	-1.0529	0.882	-2.3773	-0.769	0.7568	-2.066	-0.589	0.5676	-1.6998	-0.6927	0.1129	1.0742	-0.2075	1.77	-2.1057	0.6836	-2.2583	1.239	-1.355
-0.9155	-2.3621	-0.9979	0.9949	-2.3834	-0.7629	0.8331	-2.0782	-0.5859	0.6378	-1.7181	-0.6958	0.1801	1.1108	-0.2594	1.7456	-2.1606	0.6897	-2.3102	1.2909	-1.4008
-0.7935	-2.3224	-0.8881	1.1444	-2.3529	-0.7324	0.9552	-2.0844	-0.5463	0.7141	-1.709	-0.6714	0.238	1.1536	-0.2777	1.8036	-2.2552	0.7477	-2.3102	1.3519	-1.3977
-0.6714	-2.24	-0.7843	1.2878	-2.3224	-0.708	1.0529	-2.0813	-0.5402	0.7996	-1.6907	-0.6622	0.2899	1.1719	-0.2869	1.828	-2.2949	0.7721	-2.3254	1.4069	-1.4374
-0.5219	-2.1667	-0.6561	1.4374	-2.2552	-0.6317	1.2054	-2.0325	-0.4883	0.8972	-1.6724	-0.592	0.3967	1.1993	-0.2747	1.8829	-2.356	0.7996	-2.3346	1.4648	-1.4465
-0.3601	-2.0477	-0.4822	1.651	-2.1667	-0.5035	1.3397	-1.9836	-0.3906	1.0132	-1.6357	-0.5219	0.5157	1.2268	-0.2563	1.9562	-2.417	0.8636	-2.3254	1.5198	-1.4313
-0.2289	-1.9348	-0.3235	1.8341	-2.0569	-0.3876	1.4801	-1.889	-0.2808	1.1536	-1.5747	-0.4211	0.6348	1.2482	-0.238	2.0203	-2.4597	0.9064	-2.3193	1.6174	-1.4343
-0.0488	-1.8036	-0.1221	1.9836	-1.9592	-0.2777	1.6327	-1.7944	-0.1434	1.3092	-1.5045	-0.3052	0.7629	1.2848	-0.238	2.063	-2.5116	0.946	-2.3071	1.6571	-1.4313
0.1343	-1.6724	0.0824	2.1851	-1.8158	-0.1099	1.7883	-1.6876	0.0031	1.4557	-1.4038	-0.1587	0.9125	1.3123	-0.1862	2.1454	-2.5787	1.0132	-2.2766	1.7273	-1.416
0.2838	-1.5137	0.2869	2.3376	-1.6724	0.0885	1.9348	-1.59	0.1343	1.6022	-1.297	-0.0183	1.0742	1.3306	-0.1556	2.2308	-2.6123	1.0681	-2.2644	1.7761	-1.3824
0.4639	-1.3733	0.4791	2.5269	-1.5411	0.2655	2.0905	-1.4496	0.354	1.7975	-1.1505	0.1801	1.2512	1.358	-0.1373	2.3102	-2.655	1.1139	-2.2552	1.8341	-1.3428
0.6256	-1.2573	0.6744	2.6611	-1.416	0.4364	2.2125	-1.3367	0.5005	1.947	-1.0498	0.3662	1.4282	1.358	-0.1099	2.4017	-2.6825	1.1475	-2.243	1.8738	-1.3123
0.7782	-1.1383	0.8881	2.8473	-1.2329	0.6653	2.3865	-1.181	0.705	2.1423	-0.8972	0.5585	1.6418	1.3885	-0.0671	2.5024	-2.7222	1.2299	-2.2369	1.9684	-1.2604
0.9216	-1.0071	1.0773	2.9694	-1.0742	0.8423	2.536	-1.0559	0.885	2.298	-0.7355	0.7813	1.8616	1.4069	-0.0488	2.597	-2.7618	1.3062	-2.243	2.0081	-1.2054
1.062	-0.9003	1.2665	3.1006	-0.9338	1.0498	2.6672	-0.9003	1.123	2.4994	-0.5676	1.0284	2.0996	1.4282	-0.061	2.7222	-2.7863	1.3916	-2.2217	2.0721	-1.1658
1.2085	-0.7721	1.4801	3.2104	-0.7751	1.2634	2.8168	-0.7141	1.3458	2.7283	-0.4028	1.2878	2.3438	1.4282	-0.0275	2.8442	-2.829	1.4801	-2.1973	2.1271	-1.0956
1.3763	-0.6622	1.6815	3.3752	-0.6134	1.4954	2.9785	-0.5585	1.6022	2.9358	-0.1892	1.5594	2.6276	1.4648	0.0214	3.0029	-2.8839	1.593	-2.1606	2.2186	-0.9888
1.4954	-0.5737	1.8433	3.476	-0.4669	1.6724	3.1006	-0.3754	1.8127	3.1555	0.0183	1.8524	2.8931	1.4618	0.0275	3.1433	-2.8931	1.6602	-2.1576	2.2552	-0.8881
1.5991	-0.4822	2.0233	3.5553	-0.3448	1.8463	3.2257	-0.2411	2.0233	3.3447	0.2106	2.1118	3.1708	1.4832	0.0763	3.2684	-2.9022	1.7578	-2.1515	2.3193	-0.8148
1.712	-0.4211	2.1576	3.6316	-0.2045	2.0081	3.3539	-0.0824	2.2095	3.537	0.4089	2.3651	3.418	1.474	0.1221	3.36	-2.887	1.828	-2.1393	2.3682	-0.7294
1.7944	-0.3357	2.2919	3.6957	-0.0916	2.179	3.4302	0.0763	2.4048	3.7109	0.6317	2.6398	3.6804	1.4618	0.1648	3.4973	-2.8656	1.8738	-2.1149	2.3895	-0.6378
1.8738	-0.293	2.3895	3.7292	0.0244	2.3041	3.5034	0.1953	2.5696	3.8483	0.8087	2.887	3.9154	1.4252	0.2197	3.5736	-2.8137	1.9257	-2.1271	2.417	-0.5676
1.9012	-0.2411	2.4689	3.7445	0.0916	2.4109	3.5706	0.293	2.7435	3.9825	1.004	3.1403	4.1412	1.4069	0.2808	3.6224	-2.7679	1.9562	-2.1149	2.4261	-0.4974
1.9043	-0.2411	2.533	3.7048	0.1678	2.4933	3.6011	0.4089	2.8595	4.0924	1.1688	3.3569	4.3488	1.3824	0.351	3.6652	-2.7191	1.9928	-2.1301	2.417	-0.4395
1.9501	-0.2258	2.6062	3.6804	0.2411	2.5818	3.6041	0.5249	2.9877	4.1809	1.3611	3.595	4.5624	1.3611	0.412	3.7109	-2.6733	1.9928	-2.1362	2.42	-0.3601
1.9806	-0.1831	2.6428	3.6438	0.3082	2.655	3.6133	0.6378	3.1036	4.2847	1.5686	3.8391	4.7729	1.3428	0.4761	3.7323	-2.6489	1.9958	-2.1301	2.4231	-0.3052
1.9318	-0.2411	2.6306	3.5675	0.3357	2.6917	3.6224	0.6989	3.1799	4.3396	1.7303	4.0497	4.9744	1.3214	0.5371	3.714	-2.594	2.0081	-2.1393	2.4323	-0.2441
1.8799	-0.2136	2.6062	3.476	0.351	2.6917	3.5675	0.7782	3.2715	4.3976	1.9012	4.2511	5.1514	1.2939	0.5951	3.6804	-2.5269	2.0203	-2.1637	2.4109	-0.2045
1.8402	-0.2502	2.5909	3.3875	0.3723	2.6978	3.537	0.8484	3.3295	4.4647	2.0599	4.4678	5.3436	1.2665	0.6683	3.653	-2.4963	2.0599	-2.1851	2.3834	-0.1495
1.7975	-0.2625	2.5757	3.3081	0.3937	2.6978	3.4882	0.9094	3.4149	4.4922	2.2369	4.6661	5.5206	1.2512	0.7172	3.6194	-2.4597	2.0874	-2.1759	2.3804	-0.1007
1.7273	-0.296	2.5055	3.1738	0.4089	2.6947	3.4515	0.9827	3.479	4.5685	2.3865	4.8676	5.7098	1.2268	0.7751	3.5645	-2.417	2.1332	-2.1515	2.356	-0.0397
1.6479	-0.3113	2.4506	3.0762	0.4059	2.6733	3.4149	1.0681	3.5339	4.599	2.5513	5.0751	5.8838	1.2085	0.8301	3.5248	-2.3651	2.1912	-2.1118	2.3407	0.0336
1.59	-0.3571	2.3926	2.9663	0.4211	2.6337	3.363	1.1322	3.5675	4.6265	2.6947	5.2582	6.0669	1.1841	0.8423	3.5004	-2.3346	2.2491	-2.0691	2.3468	0.1312
1.4923	-0.4211	2.3041	2.8137	0.3845	2.5726	3.2898	1.1597	3.6102	4.6448	2.8351	5.4199	6.2103	1.1536	0.8484	3.421	-2.2736	2.3102	-2.0447	2.3285	0.2045
1.4008	-0.473	2.2217	2.6855	0.351	2.4994	3.2104	1.2054	3.6194	4.657	2.9724	5.5511	6.3629	1.1261	0.8759	3.3539	-2.2491	2.3773	-1.9653	2.3132	0.3265
1.3245	-0.5585	2.1057	2.5879	0.3143	2.417	3.2013	1.2268	3.595	4.6295	3.064	5.661	6.5002	1.1414	0.8606	3.2959	-2.2278	2.4658	-1.9379	2.3224	0.3998
1.2512	-0.6256	2.0172	2.4872	0.2533	2.3315	3.1219	1.2207	3.5706	4.6173	3.1525	5.7312	6.5887	1.1292	0.8331	3.2532	-2.2064	2.5024	-1.8616	2.3163	0.5066
1.1292	-0.7385	1.8677	2.3407	0.1831	2.179	3.009	1.1932	3.4851	4.5746	3.2166	5.7587	6.6559	1.0986	0.7599	3.1616	-2.1454	2.5391	-1.8341	2.3102	0.5768
1.0132	-0.8545	1.7059	2.1851	0.0885	2.0386	2.8931	1.1597	3.4058	4.4861	3.2379	5.7312	6.665	1.0651	0.6653	3.0792	-2.1027	2.6093	-1.7883	2.2614	0.6561
0.8881	-0.9918	1.5442	2.0477	-0.0092	1.8921	2.7802	1.1169	3.2898	4.3945	3.2288	5.6671	6.6559	1.0345	0.5768	2.9724	-2.0477	2.6184	-1.7548	2.2034	0.7324
0.7477	-1.1078	1.3367	1.886	-0.1373	1.6754	2.6398	1.0162	3.125	4.2603	3.1952	5.5603	6.601	1.0101	0.473	2.8717	-1.9836	2.6581	-1.7365	2.1759	0.7904
0.6165	-1.2756	1.181	1.7303	-0.2319	1.4893	2.4933	0.9491	2.951	4.1229	3.1403	5.4291	6.5216	0.9857	0.3662	2.7466	-1.9348	2.6794	-1.6754	2.1118	0.8698
0.4761	-1.4252	0.9827	1.5228	-0.3784	1.2817	2.3224	0.8484	2.7374	3.9185	3.067	5.2399	6.369	0.9399	0.2136	2.6062	-1.8585	2.6642	-1.6663	2.0081	0.9308
0.3326	-1.6022	0.766	1.355	-0.528	1.0193	2.1362	0.705	2.4933	3.7079	2.9663	5.011	6.1981	0.8972	0.1007	2.4689	-1.7609	2.6611	-1.6388	1.9196	0.9827
0.177	-1.7426	0.5432	1.1505	-0.6897	0.7599	1.9348	0.5615	2.2369	3.4698	2.8351	4.7363	5.9875	0.8453	-0.0275	2.2949	-1.6541	2.6062	-1.6266	1.7883	1.0559
-0.0305	-1.9531	0.2899	0.9308	-0.885	0.4761	1.6937	0.3906	1.9226	3.1921	2.6825	4.4189	5.7281	0.7874	-0.1862	2.1576	-1.5076	2.5543	-1.593	1.6754	1.0956
-0.2228	-2.1576	0.0244	0.6989	-1.0559	0.1587	1.4343	0.2014	1.6296	2.8931	2.5208	4.0619	5.4169	0.6805	-0.293	1.9806	-1.3214	2.4567	-1.5839	1.4984	1.1505
-0.4333	-2.3621	-0.2289	0.4333	-1.2665	-0.1556	1.1169	0.0092	1.2756	2.533	2.3224	3.6957	5.1086	0.5768	-0.4608	1.7914	-1.1261	2.3254	-1.5533	1.3123	1.2085
-0.6195	-2.5391	-0.4791	0.2075	-1.4526	-0.4608	0.8453	-0.2045	0.9155	2.1942	2.0935	3.2593	4.7394	0.4791	-0.5585	1.6449	-0.9125	2.2247	-1.5472	1.1414	1.2238
-0.8057	-2.7557	-0.769	-0.061	-1.6785	-0.8301	0.5341	-0.4181	0.5157	1.825	1.8677	2.7924	4.3396	0.3571	-0.6958	1.4893	-0.6744	2.0477	-1.5381	0.9216	1.2604
-1.001	-2.9633	-1.0101	-0.2899	-1.8677	-1.1475	0.235	-0.6348	0.1068	1.4465	1.6357	2.3254	3.9276	0.2472	-0.8057	1.3824	-0.4547	1.8982	-1.5228	0.7324	1.2695
-1.181	-3.1036	-1.2573	-0.5432	-2.0599	-1.4526	-0.0519	-0.8606	-0.2869	1.0651	1.3733	1.8433	3.5217	0.1312	-0.885	1.239	-0.2258	1.7365	-1.5045	0.5035	1.297
-1.3245	-3.2623	-1.5076	-0.769	-2.2736	-1.7944	-0.354	-1.0895	-0.6866	0.6927	1.1108	1.3519	3.0762	0.0244	-0.9888	1.1444	-0.0092	1.5381	-1.4862	0.3143	1.3
-1.4343	-3.3936	-1.7059	-0.946	-2.4261	-2.0905	-0.6195	-1.3	-1.0773	0.3235	0.8636	0.8728	2.6459	-0.0854	-1.0284	1.1261	0.1953	1.3855	-1.4374	0.1099	1.3184
-1.5747	-3.537	-1.8951	-1.1383	-2.6001	-2.3804	-0.8636	-1.4923	-1.4496	-0.0183	0.6195	0.3998	2.2247	-0.1923	-1.1047	1.0742	0.3998	1.2054	-1.416	-0.0671	1.3184
-1.6602	-3.6377	-2.0874	-1.2878	-2.7527	-2.655	-1.1261	-1.6754	-1.8066	-0.3479	0.4089	-0.0488	1.825	-0.2777	-1.1353	1.0376	0.592	1.0468	-1.3824	-0.2258	1.3489
-1.7303	-3.7109	-2.2339	-1.4648	-2.8992	-2.8992	-1.3824	-1.8555	-2.1576	-0.7019	0.1709	-0.5188	1.4221	-0.3754	-1.1414	1.0925	0.7874	0.8392	-1.3275	-0.415	1.3458
-1.7883	-3.7567	-2.3712	-1.5778	-2.9907	-3.1219	-1.6083	-2.002	-2.4689	-0.9735	-0.0458	-0.9521	1.0437	-0.4639	-1.1292	1.1353	0.9521	0.6805	-1.2878	-0.5524	1.3519
-1.8433	-3.775	-2.4597	-1.6754	-3.0792	-3.3142	-1.8127	-2.1332	-2.7374	-1.2604	-0.238	-1.3763	0.6744	-0.5371	-1.0864	1.1963	1.1078	0.4883	-1.2299	-0.705	1.3702
-1.8494	-3.8025	-2.5452	-1.7456	-3.1525	-3.4485	-1.9836	-2.2614	-3.0212	-1.5381	-0.415	-1.7853	0.3235	-0.6073	-1.059	1.2756	1.2634	0.2991	-1.1963	-0.8301	1.3519
-1.8402	-3.7781	-2.6031	-1.8127	-3.2227	-3.5675	-2.1362	-2.359	-3.2684	-1.7639	-0.6012	-2.1423	-0.0122	-0.6714	-0.9705	1.3947	1.3794	0.0854	-1.181	-0.9399	1.358
-1.8158	-3.7323	-2.6184	-1.8616	-3.2379	-3.6865	-2.2522	-2.4597	-3.4943	-1.9775	-0.766	-2.4689	-0.3357	-0.7263	-0.8728	1.5411	1.4984	-0.1434	-1.1444	-1.0834	1.3458
-1.7578	-3.6713	-2.594	-1.8433	-3.2318	-3.7354	-2.3499	-2.5116	-3.6591	-2.1423	-0.8972	-2.774	-0.6104	-0.7751	-0.7324	1.709	1.5808	-0.3326	-1.1017	-1.1627	1.3397
-1.6785	-3.5919	-2.5482	-1.7883	-3.2227	-3.7628	-2.3956	-2.5635	-3.7781	-2.2766	-1.0193	-3.0396	-0.882	-0.8026	-0.5859	1.9196	1.6602	-0.5402	-1.0345	-1.2054	1.3092
-1.5778	-3.479	-2.4872	-1.7426	-3.2074	-3.7689	-2.4414	-2.5757	-3.8757	-2.4109	-1.1292	-3.2562	-1.1292	-0.8514	-0.4181	2.1484	1.7426	-0.7721	-0.9918	-1.2909	1.2817
-1.4191	-3.3325	-2.3682	-1.6602	-3.125	-3.717	-2.4445	-2.5604	-3.9215	-2.4567	-1.2115	-3.4515	-1.3123	-0.8667	-0.235	2.3987	1.767	-0.9705	-0.9369	-1.3123	1.2299
-1.2817	-3.2166	-2.2125	-1.5625	-3.067	-3.6682	-2.4017	-2.5604	-3.9642	-2.5208	-1.2756	-3.6011	-1.4832	-0.8911	-0.0397	2.6581	1.8066	-1.1658	-0.9094	-1.3306	1.1627
-1.0864	-3.064	-2.066	-1.4069	-2.9785	-3.5675	-2.3376	-2.5208	-3.9429	-2.5085	-1.3214	-3.7048	-1.6296	-0.8972	0.1862	2.9266	1.7975	-1.3397	-0.8667	-1.3214	1.0864
-0.8759	-2.8656	-1.8677	-1.236	-2.8534	-3.4515	-2.2491	-2.4689	-3.891	-2.5085	-1.355	-3.7689	-1.7609	-0.8759	0.3601	3.2196	1.7822	-1.5503	-0.8301	-1.3123	1.0071
-0.6805	-2.6917	-1.6663	-1.0712	-2.7374	-3.2867	-2.0905	-2.4078	-3.7964	-2.4292	-1.3489	-3.8055	-1.8311	-0.8636	0.5768	3.4729	1.7456	-1.712	-0.7935	-1.3092	0.9003
-0.4456	-2.4689	-1.4618	-0.8728	-2.5848	-3.1036	-1.9623	-2.3193	-3.6957	-2.3651	-1.3458	-3.7872	-1.8799	-0.8331	0.7782	3.7781	1.6998	-1.8707	-0.7599	-1.2482	0.7965
-0.2258	-2.2491	-1.2085	-0.6531	-2.4292	-2.8992	-1.7761	-2.24	-3.5614	-2.2675	-1.3123	-3.7445	-1.9226	-0.8087	0.9674	4.0558	1.6632	-2.0752	-0.7385	-1.2238	0.6836
0.0275	-2.0355	-0.9277	-0.3906	-2.2461	-2.6489	-1.5686	-2.0905	-3.3539	-2.1118	-1.2451	-3.6407	-1.9104	-0.7751	1.2085	4.361	1.5869	-2.2156	-0.6897	-1.1505	0.6012
0.2808	-1.8127	-0.647	-0.1434	-2.0355	-2.3743	-1.3519	-1.9409	-3.1372	-1.9501	-1.1749	-3.5126	-1.8982	-0.7538	1.3916	4.6539	1.5259	-2.3621	-0.65	-1.0956	0.5127
0.5737	-1.5564	-0.3418	0.1068	-1.7914	-2.0782	-1.0895	-1.767	-2.8564	-1.7487	-1.0773	-3.3325	-1.8341	-0.7233	1.6022	4.9072	1.4557	-2.4994	-0.5615	-1.0468	0.3937
0.8484	-1.2909	-0.0305	0.4059	-1.5747	-1.77	-0.8362	-1.5594	-2.5604	-1.5259	-0.9338	-3.1403	-1.7426	-0.6775	1.8066	5.1514	1.3733	-2.6245	-0.531	-0.9583	0.3235
1.1475	-1.0437	0.3235	0.7294	-1.3245	-1.413	-0.5554	-1.3428	-2.2339	-1.297	-0.7782	-2.89	-1.6266	-0.6439	2.0172	5.3925	1.297	-2.7557	-0.4272	-0.8698	0.2502
1.4496	-0.7507	0.65	1.0437	-1.0559	-1.0406	-0.2197	-1.1261	-1.8951	-1.0193	-0.6165	-2.6062	-1.4771	-0.5859	2.2461	5.6671	1.2054	-2.8442	-0.3876	-0.7507	0.177
1.7517	-0.5219	0.9735	1.3458	-0.7813	-0.6744	0.0732	-0.9125	-1.5411	-0.7599	-0.4486	-2.3376	-1.3031	-0.5463	2.4597	5.8563	1.12	-2.9236	-0.3418	-0.647	0.0854
2.0294	-0.2625	1.3092	1.6632	-0.5188	-0.2838	0.3998	-0.6714	-1.1444	-0.4639	-0.2686	-1.9897	-1.1139	-0.5005	2.655	6.0638	1.0223	-3.0212	-0.2716	-0.5463	-0.0031
2.3376	0.0061	1.6602	1.9989	-0.2533	0.0916	0.7385	-0.4333	-0.7507	-0.1862	-0.0946	-1.6632	-0.9369	-0.4547	2.8442	6.2378	0.9186	-3.0914	-0.2472	-0.4456	-0.0946
2.6306	0.2625	1.9775	2.3132	0.0122	0.4822	1.0559	-0.2014	-0.3479	0.1282	0.0977	-1.2909	-0.6897	-0.3815	3.0792	6.4178	0.7843	-3.0975	-0.2075	-0.3143	-0.1831
2.9022	0.47	2.3193	2.6154	0.2655	0.827	1.3763	0.0214	0.0336	0.3998	0.2655	-0.9491	-0.4852	-0.3235	3.2623	6.546	0.6683	-3.1616	-0.2075	-0.2197	-0.3204
3.1525	0.705	2.597	2.9327	0.5188	1.2024	1.6876	0.2167	0.4181	0.6989	0.4242	-0.6104	-0.2747	-0.2411	3.476	6.7169	0.5249	-3.2288	-0.1709	-0.1007	-0.4486
3.418	0.8972	2.9053	3.2166	0.7416	1.5411	1.9806	0.4303	0.8026	0.9521	0.6104	-0.2502	-0.0519	-0.1617	3.6346	6.8848	0.3479	-3.2349	-0.1801	0.0244	-0.5524
3.653	1.0742	3.1525	3.4821	0.9735	1.8585	2.2736	0.6287	1.1414	1.2299	0.7385	0.0854	0.1587	-0.0702	3.8239	6.9977	0.1648	-3.2806	-0.1648	0.1282	-0.708
3.8666	1.239	3.4027	3.7354	1.1353	2.1423	2.536	0.7843	1.4709	1.4801	0.8759	0.3998	0.3693	0.0366	3.9978	7.132	-0.0366	-3.299	-0.1862	0.235	-0.8331
4.068	1.4069	3.598	3.9795	1.3214	2.4078	2.8046	0.943	1.767	1.6876	0.9857	0.6775	0.5615	0.1404	4.1748	7.2784	-0.235	-3.302	-0.2167	0.3082	-0.9766
4.2603	1.535	3.7994	4.1656	1.474	2.652	3.0212	1.0773	2.0538	1.8982	1.0895	0.9979	0.7477	0.2411	4.3213	7.4097	-0.4333	-3.3447	-0.235	0.415	-1.1047
4.422	1.6357	3.9581	4.361	1.6022	2.8717	3.2104	1.2024	2.301	2.0752	1.1963	1.2726	0.9216	0.3448	4.4617	7.5073	-0.647	-3.3447	-0.2747	0.5035	-1.2482
4.5685	1.6968	4.068	4.541	1.709	3.0457	3.3813	1.3092	2.536	2.2552	1.2939	1.5289	1.123	0.4364	4.6143	7.6202	-0.8453	-3.3325	-0.3174	0.5737	-1.3672
4.6875	1.8066	4.1962	4.6387	1.8158	3.2074	3.537	1.3641	2.7161	2.3987	1.3519	1.767	1.3	0.5402	4.7241	7.6996	-1.0345	-3.3264	-0.3754	0.6714	-1.4709
4.7913	1.8768	4.2755	4.7485	1.9073	3.3325	3.6804	1.4465	2.9053	2.5452	1.4221	1.9836	1.4526	0.6378	4.8737	7.8003	-1.2207	-3.2928	-0.4181	0.7446	-1.5686
4.8431	1.9104	4.3304	4.8309	1.9562	3.4363	3.7811	1.5137	3.0579	2.6642	1.5015	2.1942	1.6052	0.7263	4.953	7.8613	-1.4008	-3.2349	-0.4883	0.8392	-1.6541
4.9438	1.9958	4.3732	4.9011	2.0386	3.5583	3.8788	1.5869	3.2074	2.7832	1.5625	2.4109	1.8005	0.8087	5.1086	7.962	-1.5869	-3.1769	-0.5157	0.9186	-1.6907
5.011	2.0081	4.4067	4.9377	2.0844	3.6377	3.9429	1.6174	3.3234	2.9022	1.6571	2.6001	1.9958	0.8881	5.1819	8.0322	-1.7365	-3.0701	-0.5463	1.0223	-1.712
5.0079	2.005	4.3884	4.9774	2.1149	3.6621	4.007	1.6541	3.4332	3.009	1.7212	2.7679	2.1484	0.9644	5.2704	8.0536	-1.8799	-2.9663	-0.592	1.1108	-1.709
5.0385	2.002	4.3854	4.9713	2.1301	3.6865	4.0649	1.6907	3.5187	3.1067	1.7914	2.9327	2.3376	1.0254	5.3131	8.1116	-1.9928	-2.8229	-0.6256	1.1963	-1.6968
5.0262	1.9989	4.3488	4.9713	2.1271	3.7079	4.1016	1.7273	3.595	3.2227	1.8616	3.0884	2.5146	1.0773	5.3802	8.1512	-2.1301	-2.6276	-0.6287	1.3214	-1.6541
5.0446	1.9745	4.2755	4.9469	2.1484	3.717	4.1351	1.7426	3.6682	3.2898	1.9257	3.2593	2.6886	1.1444	5.4199	8.1604	-2.2491	-2.4658	-0.6714	1.4313	-1.5869
4.9744	1.9318	4.2206	4.8981	2.1149	3.6774	4.1534	1.7426	3.6713	3.3752	1.9806	3.36	2.8687	1.1963	5.3833	8.1543	-2.3346	-2.2705	-0.7019	1.5259	-1.5503
4.95	1.9043	4.1443	4.8737	2.1057	3.6316	4.1656	1.7578	3.7079	3.4576	2.0538	3.4851	3.0762	1.2665	5.3802	8.1512	-2.4658	-2.0386	-0.7141	1.6541	-1.4526
4.8767	1.825	4.0314	4.8065	2.066	3.595	4.1718	1.7517	3.7079	3.54	2.121	3.595	3.244	1.3184	5.3162	8.1207	-2.5665	-1.8341	-0.7294	1.767	-1.3306
4.8126	1.767	3.9459	4.7516	2.0386	3.537	4.1687	1.7517	3.7292	3.595	2.1698	3.6774	3.4271	1.3794	5.2734	8.075	-2.6947	-1.5991	-0.7263	1.8738	-1.2146
4.6844	1.6388	3.8025	4.6692	1.9379	3.4119	4.1321	1.709	3.6591	3.6377	2.1942	3.6987	3.5767	1.416	5.191	8.0261	-2.774	-1.4069	-0.7599	1.9653	-1.1383
4.5685	1.532	3.6591	4.5776	1.8677	3.3112	4.1016	1.6815	3.6194	3.6896	2.24	3.7537	3.7262	1.4709	5.1239	7.9529	-2.8748	-1.2024	-0.7843	2.0599	-1.0223
4.4495	1.4038	3.5156	4.5013	1.7853	3.2135	4.0833	1.6327	3.5492	3.7262	2.2797	3.7567	3.8513	1.5106	5.0385	7.8735	-2.9633	-0.9949	-0.7996	2.124	-0.9186
4.303	1.2726	3.36	4.3854	1.6754	3.0731	4.0527	1.5533	3.4698	3.7262	2.2583	3.717	3.952	1.5472	4.9347	7.7881	-3.0365	-0.8118	-0.8301	2.2095	-0.8179
4.1504	1.1292	3.186	4.3152	1.5533	2.9327	3.9917	1.4923	3.3691	3.7476	2.24	3.6835	4.0314	1.5717	4.8828	7.724	-3.0914	-0.6409	-0.8636	2.2552	-0.7294
3.9673	0.9613	2.9785	4.1901	1.4343	2.7618	3.9276	1.4099	3.2349	3.7201	2.2034	3.598	4.0833	1.5961	4.8035	7.6355	-3.1281	-0.4944	-0.8972	2.3102	-0.6897
3.7628	0.7782	2.8076	4.071	1.2756	2.5696	3.8696	1.2634	3.0579	3.653	2.1423	3.4698	4.1168	1.6022	4.7394	7.5836	-3.1494	-0.3815	-0.9369	2.3224	-0.6317
3.5461	0.589	2.5665	3.9124	1.1169	2.3499	3.772	1.1536	2.8656	3.6072	2.0447	3.3173	4.1229	1.5991	4.6722	7.5348	-3.1403	-0.293	-1.0132	2.3376	-0.5981
3.3447	0.3906	2.3651	3.7476	0.9491	2.124	3.6499	1.0223	2.6642	3.5431	1.9531	3.1525	4.1138	1.5839	4.5959	7.5073	-3.1403	-0.2136	-1.0529	2.3163	-0.5737
3.1464	0.1892	2.124	3.598	0.7904	1.9226	3.5309	0.8667	2.4628	3.4515	1.8555	2.9816	4.0741	1.5747	4.5288	7.4707	-3.1128	-0.1434	-1.1078	2.2919	-0.5615
2.9419	0.0031	1.9043	3.4546	0.6317	1.7181	3.4088	0.7477	2.2827	3.3844	1.7578	2.8259	4.0619	1.5564	4.48	7.4646	-3.0762	-0.1129	-1.1383	2.2614	-0.531
2.7252	-0.1801	1.7303	3.3173	0.5035	1.535	3.3203	0.6134	2.0874	3.3112	1.6937	2.6703	4.0497	1.5259	4.3854	7.431	-3.0243	-0.0549	-1.1963	2.243	-0.4974
2.5299	-0.3693	1.5167	3.1616	0.3448	1.297	3.183	0.5127	1.9226	3.2471	1.6022	2.4994	4.0222	1.4862	4.303	7.4432	-2.951	-0.0153	-1.2115	2.1942	-0.4852
2.3254	-0.5341	1.3397	3.0304	0.2289	1.1292	3.0853	0.3937	1.7242	3.183	1.5259	2.3346	4.01	1.4526	4.2267	7.4402	-2.8717	0.0275	-1.2573	2.1637	-0.4456
2.1454	-0.708	1.1749	2.8839	0.0977	0.9369	3.006	0.3052	1.5717	3.1372	1.4496	2.182	3.9948	1.413	4.126	7.4432	-2.7802	0.0641	-1.2878	2.1423	-0.415
1.9775	-0.8362	1.0437	2.7802	0.0305	0.8026	2.948	0.2319	1.4374	3.1189	1.4374	2.0477	4.0009	1.3672	4.0466	7.4341	-2.6947	0.119	-1.2756	2.1301	-0.354
1.8311	-0.9827	0.9003	2.6672	-0.0458	0.7019	2.887	0.1556	1.3245	3.1006	1.4099	1.9379	4.0161	1.3245	3.9581	7.4249	-2.594	0.1801	-1.2787	2.1271	-0.2838
1.6815	-1.0986	0.8179	2.6154	-0.1068	0.5493	2.8595	0.116	1.2054	3.0884	1.3824	1.828	4.0558	1.2665	3.8666	7.4066	-2.4841	0.2533	-1.2299	2.1179	-0.2258
1.5594	-1.1841	0.7416	2.5513	-0.1282	0.473	2.832	0.1099	1.1475	3.1189	1.4008	1.7578	4.1138	1.2024	3.775	7.4097	-2.3773	0.3235	-1.2054	2.0966	-0.1404
1.4465	-1.2573	0.6866	2.5146	-0.177	0.3906	2.8229	0.0854	1.059	3.1219	1.4069	1.6663	4.1443	1.1383	3.7231	7.373	-2.243	0.415	-1.1871	2.1179	-0.0549
1.3794	-1.3153	0.6409	2.4872	-0.1923	0.3418	2.832	0.0916	1.0315	3.1586	1.3916	1.6327	4.2023	1.1078	3.6469	7.3517	-2.1606	0.5371	-1.1536	2.1362	0.0275
1.3275	-1.3702	0.6012	2.5024	-0.2014	0.3021	2.8351	0.0977	0.9888	3.2013	1.4313	1.6022	4.2633	1.062	3.5736	7.312	-2.0844	0.6226	-1.1139	2.1637	0.1251
1.2848	-1.413	0.5981	2.5055	-0.2258	0.2502	2.8717	0.1129	0.9705	3.2379	1.4893	1.5747	4.3671	1.0284	3.5065	7.2845	-2.0233	0.7599	-1.0803	2.182	0.2289
1.2665	-1.4435	0.5859	2.5726	-0.1831	0.2502	2.9175	0.1617	0.9583	3.299	1.5289	1.5839	4.4556	1.0223	3.4851	7.2754	-2.0111	0.8789	-1.0162	2.1942	0.3418
1.2756	-1.4282	0.6226	2.6062	-0.1343	0.2563	2.9785	0.2197	0.9613	3.3661	1.6327	1.5961	4.5685	1.0223	3.4729	7.2693	-2.0111	1.0132	-0.9735	2.2675	0.4547
1.3031	-1.413	0.65	2.6947	-0.1221	0.2991	3.0609	0.2686	1.0132	3.4668	1.6754	1.6327	4.7272	1.0498	3.4576	7.2937	-2.0477	1.1688	-0.9644	2.3346	0.5676
1.355	-1.3916	0.7141	2.7954	-0.0671	0.3235	3.1433	0.3418	1.0681	3.5522	1.77	1.7181	4.8462	1.059	3.4485	7.3334	-2.0966	1.3275	-0.8972	2.3956	0.6927
1.3794	-1.3824	0.7568	2.887	-0.0519	0.3479	3.241	0.3876	1.1139	3.6743	1.8494	1.7914	5.0049	1.1139	3.4424	7.3608	-2.1667	1.5137	-0.8698	2.475	0.8026
1.4679	-1.3336	0.8392	3.0273	0.0122	0.4089	3.3325	0.4608	1.1841	3.7903	1.9409	1.8921	5.1819	1.1597	3.4882	7.431	-2.2766	1.6876	-0.8057	2.5696	0.9033
1.5533	-1.2878	0.9216	3.1525	0.0549	0.4669	3.479	0.5127	1.2512	3.9276	2.0294	1.9867	5.3558	1.2238	3.4973	7.4707	-2.3865	1.8707	-0.8057	2.652	1.0162
1.6632	-1.2421	1.001	3.3295	0.0977	0.5371	3.6011	0.5737	1.3367	4.0497	2.124	2.0874	5.5206	1.2817	3.5767	7.5806	-2.5238	2.0294	-0.7629	2.7344	1.1017
1.7944	-1.1963	1.123	3.4882	0.1648	0.6042	3.7628	0.6439	1.4069	4.1748	2.2003	2.1973	5.6976	1.3702	3.6072	7.6538	-2.6672	2.179	-0.7294	2.8442	1.1993
1.889	-1.1475	1.2268	3.6652	0.174	0.6989	3.8971	0.6836	1.4923	4.3152	2.2736	2.3041	5.8685	1.4313	3.6407	7.7301	-2.8107	2.3468	-0.7324	2.9541	1.297
2.0142	-1.0864	1.3214	3.8208	0.2319	0.7568	4.0314	0.7355	1.5747	4.4464	2.3438	2.4048	6.015	1.4893	3.6652	7.7972	-2.9114	2.4872	-0.6897	3.0212	1.3641
2.1667	-1.0315	1.4313	3.9948	0.2838	0.8514	4.1901	0.8026	1.6632	4.5532	2.4048	2.4811	6.1737	1.5411	3.7323	7.8827	-3.0365	2.6184	-0.6805	3.1006	1.4282
2.3163	-0.9583	1.5625	4.1534	0.3387	0.9674	4.3274	0.8453	1.7548	4.6753	2.4597	2.5696	6.3232	1.6083	3.7628	7.9254	-3.1494	2.7222	-0.6866	3.1738	1.4801
2.4445	-0.9003	1.6785	4.3243	0.4089	1.0559	4.4739	0.885	1.8188	4.776	2.5055	2.6428	6.4545	1.6571	3.8055	7.9834	-3.2593	2.8229	-0.6622	3.2593	1.535
2.5574	-0.8362	1.767	4.4708	0.4333	1.1169	4.5868	0.9247	1.8951	4.8553	2.5787	2.7313	6.5552	1.7212	3.8635	8.0566	-3.3722	2.9022	-0.6592	3.3325	1.5991
2.6794	-0.7721	1.8585	4.6112	0.4761	1.181	4.6997	0.9338	1.9745	4.9408	2.5848	2.7985	6.662	1.7548	3.9032	8.1146	-3.4515	2.9694	-0.6836	3.3813	1.6144
2.832	-0.6958	1.9958	4.7424	0.5219	1.2573	4.8004	0.9705	2.0355	5.0171	2.597	2.832	6.7352	1.8036	3.9612	8.1848	-3.5645	3.0579	-0.6744	3.4424	1.6479
2.951	-0.6409	2.0447	4.8523	0.5402	1.2939	4.892	0.9918	2.0844	5.0812	2.5879	2.8625	6.8298	1.8707	4.0192	8.2428	-3.6682	3.1036	-0.6927	3.4882	1.6571
3.0396	-0.6042	2.0966	4.9591	0.5463	1.3336	4.9713	0.9857	2.0905	5.127	2.5543	2.8564	6.8604	1.9104	4.1229	8.3038	-3.7598	3.125	-0.7233	3.537	1.651
3.125	-0.5615	2.1545	5.0171	0.5676	1.3428	5.0262	0.943	2.0996	5.1392	2.5146	2.8442	6.9061	1.9379	4.2297	8.3679	-3.8391	3.1494	-0.7324	3.5675	1.6327
3.2288	-0.5402	2.179	5.072	0.5585	1.3092	5.0659	0.9216	2.0996	5.1605	2.4536	2.8198	6.9214	2.002	4.3213	8.4045	-3.9368	3.1738	-0.7629	3.5706	1.6052
3.2776	-0.528	2.1881	5.13	0.5585	1.2878	5.0812	0.882	2.0752	5.1666	2.3926	2.8229	6.9427	2.0508	4.4647	8.4656	-4.0497	3.2013	-0.7874	3.6011	1.5869
3.3173	-0.5157	2.1729	5.1453	0.5371	1.2482	5.0812	0.8118	2.0325	5.127	2.3438	2.7649	6.9305	2.0996	4.5807	8.4808	-4.126	3.2104	-0.8331	3.6224	1.5411
3.3142	-0.5646	2.1423	5.1331	0.473	1.1963	5.072	0.7599	1.9806	5.0995	2.24	2.6886	6.9031	2.1362	4.7058	8.493	-4.1962	3.1921	-0.8911	3.6316	1.5076
3.3142	-0.6012	2.0813	5.0903	0.4028	1.1108	5.0659	0.6714	1.9012	5.0476	2.1179	2.6093	6.8298	2.1667	4.7974	8.5052	-4.2603	3.1799	-0.9308	3.6469	1.4801
3.3173	-0.6226	2.0203	5.0812	0.3204	1.0132	4.9988	0.5859	1.8127	5.0079	2.0142	2.5085	6.778	2.1881	4.9011	8.5052	-4.3121	3.1555	-0.9644	3.6499	1.4557
3.2959	-0.6714	1.9653	4.9927	0.2686	0.9247	4.9561	0.531	1.7151	4.9591	1.944	2.417	6.723	2.2125	5.0049	8.5052	-4.3549	3.1525	-0.9918	3.6499	1.4526
3.2745	-0.6989	1.8982	4.9713	0.2136	0.8423	4.8859	0.4852	1.6663	4.9316	1.8555	2.3407	6.6772	2.2186	5.0842	8.5022	-4.3579	3.1403	-1.004	3.6804	1.4709
3.2532	-0.7446	1.825	4.9042	0.1526	0.7385	4.8492	0.4456	1.5656	4.8798	1.7639	2.2491	6.6406	2.2003	5.1788	8.5297	-4.3427	3.1281	-0.9766	3.6987	1.4984
3.2318	-0.7874	1.7578	4.8309	0.1099	0.6592	4.7913	0.3998	1.5228	4.8615	1.6785	2.1637	6.5643	2.1912	5.2734	8.5632	-4.3091	3.1342	-0.9735	3.7262	1.5289
3.1799	-0.8301	1.6785	4.7943	0.0366	0.5585	4.7485	0.3479	1.4221	4.8065	1.5869	2.0569	6.5002	2.1698	5.3162	8.5815	-4.2511	3.125	-0.9705	3.7323	1.5411
3.1647	-0.8423	1.593	4.7272	0.0214	0.47	4.7028	0.3204	1.3855	4.7577	1.5533	1.9806	6.4484	2.1149	5.4291	8.6212	-4.1901	3.1616	-0.9247	3.7628	1.6052
3.1494	-0.8972	1.4862	4.6906	-0.0458	0.3723	4.6753	0.2747	1.3092	4.7394	1.4862	1.8585	6.3904	2.0844	5.5267	8.6823	-4.1199	3.183	-0.9094	3.8086	1.6083
3.1097	-0.9155	1.416	4.6509	-0.0854	0.2777	4.6173	0.2441	1.2573	4.6967	1.4343	1.7883	6.3477	2.0325	5.5786	8.7128	-4.0253	3.2288	-0.8881	3.8513	1.6541
3.0457	-0.9644	1.3397	4.5898	-0.116	0.177	4.5715	0.2075	1.1749	4.6722	1.3733	1.6998	6.2927	1.9806	5.6244	8.7097	-3.894	3.2715	-0.9064	3.9001	1.651
3.0273	-0.9766	1.2665	4.5654	-0.1587	0.0854	4.5807	0.1648	1.1292	4.6478	1.3214	1.6296	6.2775	1.9257	5.6915	8.8013	-3.7903	3.3569	-0.8606	3.9764	1.6693
2.9938	-1.0284	1.1841	4.5319	-0.1984	-0.0031	4.5319	0.1465	1.0468	4.6234	1.2512	1.5289	6.2408	1.8463	5.7373	8.847	-3.6316	3.4515	-0.8667	4.0466	1.6785
2.9266	-1.0803	1.0773	4.4922	-0.2472	-0.1007	4.5227	0.1038	0.9827	4.6234	1.2177	1.4648	6.2225	1.7761	5.8014	8.902	-3.4912	3.5492	-0.8514	4.1443	1.6815
2.8809	-1.1169	0.9613	4.4617	-0.293	-0.1984	4.4769	0.0732	0.8972	4.5898	1.181	1.3763	6.2134	1.6876	5.8289	8.9478	-3.3264	3.6774	-0.8301	4.2267	1.6937
2.8107	-1.1719	0.8728	4.425	-0.3418	-0.3174	4.422	0.0244	0.8148	4.5502	1.1078	1.2787	6.1737	1.593	5.8655	8.9966	-3.1494	3.772	-0.8484	4.2908	1.6571
2.7405	-1.2543	0.7751	4.3976	-0.3998	-0.412	4.3732	-0.0275	0.7172	4.5013	1.0162	1.181	6.131	1.5137	5.8594	9.0607	-2.9755	3.8605	-0.8759	4.3671	1.6205
2.6886	-1.3	0.6256	4.3243	-0.5066	-0.5859	4.2938	-0.1007	0.6073	4.4678	0.9338	1.0376	6.0608	1.413	5.8868	9.1187	-2.7924	3.949	-0.8881	4.4312	1.5839
2.5665	-1.3824	0.5157	4.2572	-0.5951	-0.705	4.2023	-0.1953	0.4761	4.3671	0.8606	0.9155	5.9509	1.3428	5.8533	9.1431	-2.6215	4.0222	-0.9338	4.48	1.5411
2.4689	-1.4954	0.3479	4.1656	-0.7111	-0.9064	4.0802	-0.3235	0.3113	4.2694	0.7507	0.7538	5.8594	1.2451	5.8502	9.2163	-2.4475	4.0741	-0.9735	4.541	1.4893
2.3193	-1.6266	0.1617	4.0283	-0.8514	-1.1047	3.9337	-0.4303	0.119	4.1382	0.6348	0.5432	5.719	1.1536	5.8014	9.2468	-2.2583	4.0771	-1.0223	4.5441	1.4313
2.1698	-1.7456	-0.0427	3.9001	-0.9705	-1.2909	3.8055	-0.5402	-0.061	3.9917	0.5524	0.3662	5.6061	1.0742	5.7678	9.2651	-2.0935	4.1138	-1.059	4.5624	1.3733
2.0203	-1.8768	-0.235	3.7659	-1.1292	-1.5045	3.6377	-0.6958	-0.2502	3.8483	0.4181	0.1495	5.4535	0.9705	5.7251	9.3262	-1.9196	4.1199	-1.0773	4.5471	1.3397
1.8646	-2.0294	-0.4486	3.6072	-1.2726	-1.7151	3.4637	-0.824	-0.4517	3.7048	0.3082	-0.0519	5.2856	0.885	5.6427	9.3903	-1.7334	4.0924	-1.1383	4.5288	1.2817
1.7273	-2.1393	-0.6714	3.4393	-1.4069	-1.9226	3.2837	-0.9521	-0.6744	3.5492	0.2045	-0.2441	5.1483	0.8026	5.6122	9.4299	-1.5564	4.0527	-1.1597	4.5197	1.2573
1.5533	-2.2888	-0.9125	3.2837	-1.6083	-2.1423	3.1006	-1.1078	-0.882	3.3478	0.0824	-0.4883	4.9469	0.7202	5.5664	9.5123	-1.3855	3.9825	-1.2024	4.4678	1.2146
1.3855	-2.4506	-1.1627	3.0853	-1.7609	-2.3865	2.887	-1.2665	-1.1383	3.1494	-0.0366	-0.7202	4.7455	0.6256	5.5115	9.5795	-1.2054	3.9001	-1.2512	4.3854	1.1627
1.2238	-2.5757	-1.3702	2.9053	-1.9318	-2.6154	2.6978	-1.413	-1.3672	2.9572	-0.1404	-0.9491	4.5563	0.5554	5.4657	9.6741	-1.0468	3.8483	-1.297	4.3427	1.1383
1.0437	-2.7618	-1.6205	2.6672	-2.1393	-2.8595	2.4719	-1.6083	-1.6357	2.7435	-0.2686	-1.1902	4.3152	0.4547	5.4413	9.7748	-0.8667	3.7384	-1.3245	4.2236	1.062
0.885	-2.9236	-1.8951	2.4628	-2.3193	-3.1281	2.243	-1.7517	-1.8982	2.5116	-0.3967	-1.4191	4.0802	0.3571	5.4321	9.8816	-0.6958	3.6407	-1.3733	4.1199	1.0223
0.7233	-3.0823	-2.1118	2.2644	-2.5299	-3.3691	2.0416	-1.9379	-2.1301	2.2949	-0.5219	-1.6602	3.891	0.2869	5.3955	9.9487	-0.5432	3.5461	-1.413	4.0192	0.9552
0.5615	-3.2104	-2.3499	2.0691	-2.6886	-3.5583	1.8707	-2.0996	-2.3773	2.1118	-0.6378	-1.8738	3.6804	0.238	5.4138	10.0555	-0.4242	3.4454	-1.4557	3.9215	0.9033
0.4181	-3.3752	-2.5665	1.8677	-2.8442	-3.7781	1.6876	-2.2522	-2.5909	1.9043	-0.7538	-2.0874	3.479	0.1923	5.4199	10.1563	-0.3448	3.3447	-1.5259	3.8208	0.8331
0.3082	-3.5034	-2.7679	1.6785	-3.0304	-3.9978	1.5198	-2.4139	-2.8351	1.7395	-0.8789	-2.2919	3.302	0.1678	5.426	10.2203	-0.293	3.2745	-1.5564	3.7292	0.769
0.1587	-3.6591	-2.9724	1.4832	-3.1921	-4.1809	1.3428	-2.5696	-3.0426	1.5442	-0.9949	-2.4902	3.1372	0.1465	5.4291	10.2936	-0.2563	3.1708	-1.5961	3.6072	0.7019
0.061	-3.7903	-3.1403	1.297	-3.363	-4.3884	1.1963	-2.7008	-3.2501	1.3947	-1.1017	-2.6764	2.9541	0.1404	5.481	10.3821	-0.2533	3.0914	-1.6296	3.5339	0.647
-0.0366	-3.9398	-3.3417	1.1322	-3.5156	-4.5471	1.0651	-2.8687	-3.4485	1.2634	-1.2085	-2.8442	2.7985	0.1617	5.5206	10.4523	-0.2808	3.0457	-1.6937	3.476	0.5737
-0.1282	-4.068	-3.4882	1.0162	-3.6804	-4.7272	0.9155	-2.9846	-3.6072	1.1139	-1.3245	-3.0182	2.655	0.1831	5.5664	10.5042	-0.3326	2.948	-1.7365	3.4058	0.5127
-0.2075	-4.1809	-3.6102	0.8759	-3.8269	-4.8798	0.8087	-3.0975	-3.775	1.001	-1.4191	-3.1616	2.5177	0.2289	5.6458	10.5469	-0.415	2.8748	-1.7761	3.3508	0.4517
-0.2869	-4.3152	-3.7628	0.7446	-3.9307	-4.9988	0.6927	-3.2135	-3.9001	0.8942	-1.5167	-3.2776	2.4048	0.2869	5.7281	10.5774	-0.5524	2.829	-1.825	3.3051	0.3845
-0.3632	-4.4373	-3.8818	0.6165	-4.0741	-5.127	0.5829	-3.3417	-4.0405	0.8026	-1.6083	-3.4241	2.2736	0.3693	5.8105	10.611	-0.6958	2.7802	-1.8951	3.2684	0.293
-0.4089	-4.541	-3.9795	0.5463	-4.1718	-5.1941	0.5005	-3.4271	-4.129	0.7172	-1.6815	-3.5431	2.2003	0.4669	5.8777	10.6323	-0.8972	2.7222	-1.947	3.241	0.2197
-0.4822	-4.6478	-4.0894	0.4272	-4.2786	-5.2826	0.4395	-3.537	-4.2511	0.6378	-1.7853	-3.6316	2.0935	0.5768	5.9601	10.672	-1.1047	2.6459	-2.0386	3.2196	0.0977
-0.5127	-4.7577	-4.1687	0.3693	-4.3823	-5.3802	0.351	-3.6041	-4.3518	0.5707	-1.8616	-3.7079	2.005	0.705	6.0516	10.7025	-1.3641	2.5879	-2.121	3.2227	0.0366
-0.5798	-4.8309	-4.245	0.2899	-4.4861	-5.4535	0.3143	-3.6835	-4.4312	0.4944	-1.9379	-3.7994	1.9196	0.8362	6.134	10.6964	-1.6296	2.5452	-2.2034	3.2288	-0.1068
-0.5951	-4.9377	-4.306	0.2686	-4.5441	-5.4993	0.2747	-3.7506	-4.4861	0.473	-2.0172	-3.8605	1.8616	0.9766	6.1584	10.6873	-1.9012	2.533	-2.298	3.244	-0.2197
-0.6287	-4.9957	-4.361	0.2411	-4.6143	-5.5176	0.2655	-3.7994	-4.5105	0.47	-2.063	-3.891	1.8219	1.1169	6.2286	10.6934	-2.2003	2.5238	-2.3682	3.2837	-0.3113
-0.6622	-5.0629	-4.3915	0.238	-4.657	-5.5573	0.235	-3.8391	-4.5471	0.4639	-2.1027	-3.9215	1.8097	1.2604	6.2653	10.7086	-2.4811	2.5269	-2.4506	3.3264	-0.4181
-0.65	-5.0934	-4.3945	0.2533	-4.6783	-5.5603	0.2869	-3.8544	-4.538	0.4822	-2.1454	-3.9276	1.7944	1.4008	6.2775	10.6964	-2.7679	2.5635	-2.5177	3.3905	-0.528
-0.6134	-5.1086	-4.3671	0.3204	-4.6936	-5.5389	0.3326	-3.8483	-4.5105	0.5157	-2.1698	-3.9307	1.8188	1.5656	6.3629	10.7483	-3.0762	2.6031	-2.6367	3.4698	-0.6348
-0.5859	-5.1147	-4.3396	0.354	-4.6936	-5.5267	0.3723	-3.8452	-4.4952	0.5798	-2.1881	-3.9154	1.825	1.712	6.4087	10.7361	-3.3691	2.6581	-2.6733	3.5583	-0.7507
-0.5096	-5.1025	-4.3091	0.4059	-4.7058	-5.5023	0.4028	-3.833	-4.4586	0.6104	-2.2034	-3.8727	1.8372	1.8494	6.4392	10.7422	-3.6438	2.7039	-2.774	3.6194	-0.8453
-0.4578	-5.069	-4.245	0.4547	-4.6692	-5.4596	0.4761	-3.7933	-4.4098	0.6714	-2.1912	-3.8452	1.8707	1.9745	6.5125	10.7788	-3.9185	2.774	-2.7802	3.7384	-0.8972
-0.3815	-5.0262	-4.1687	0.5676	-4.6021	-5.3864	0.5707	-3.7415	-4.3549	0.7294	-2.2064	-3.8055	1.9257	2.1149	6.5826	10.8307	-4.1687	2.8595	-2.8473	3.8391	-0.9674
-0.3418	-4.953	-4.1016	0.6561	-4.541	-5.3253	0.6409	-3.6865	-4.2908	0.7996	-2.1881	-3.7659	1.944	2.2034	6.6406	10.8612	-4.3671	2.9205	-2.8778	3.9185	-1.0437
-0.2563	-4.895	-4.0314	0.7446	-4.48	-5.2643	0.708	-3.6377	-4.2297	0.8606	-2.1759	-3.7415	1.9714	2.2888	6.7322	10.8917	-4.5349	2.9877	-2.8961	4.0039	-1.0925
-0.2045	-4.8065	-3.952	0.8392	-4.4128	-5.2002	0.7721	-3.5645	-4.126	0.9277	-2.1423	-3.6896	2.002	2.359	6.8024	10.9344	-4.6631	3.0457	-2.9175	4.0741	-1.1292
-0.1343	-4.7211	-3.8666	0.9277	-4.3335	-5.1331	0.824	-3.5156	-4.0741	0.9735	-2.1149	-3.6774	2.0264	2.3987	6.8665	10.9497	-4.7424	3.0914	-2.9175	4.1534	-1.1688
-0.0763	-4.6265	-3.8116	1.0071	-4.2664	-5.0446	0.8881	-3.4576	-4.01	1.0223	-2.0996	-3.6285	2.0172	2.42	6.955	10.9863	-4.7638	3.1311	-2.9297	4.1962	-1.1932
-0.0275	-4.5441	-3.7537	1.059	-4.1809	-4.9957	0.9277	-3.3844	-3.952	1.0559	-2.0599	-3.5797	2.0477	2.3956	7.0282	11.0016	-4.7241	3.125	-2.9419	4.2114	-1.2268
0.0427	-4.4312	-3.6682	1.1292	-4.0833	-4.9286	0.9552	-3.3203	-3.8696	1.0986	-2.0172	-3.54	2.0508	2.3529	7.1289	11.0504	-4.657	3.1555	-2.9053	4.2267	-1.2177
0.0732	-4.3518	-3.598	1.1597	-4.0283	-4.8431	0.9796	-3.2501	-3.7933	1.1566	-1.9867	-3.4882	2.066	2.298	7.1625	11.0657	-4.5471	3.1494	-2.8748	4.2236	-1.2207
0.1251	-4.245	-3.5675	1.2115	-3.9368	-4.7852	1.0132	-3.1799	-3.7201	1.181	-1.9379	-3.4363	2.0935	2.2125	7.2144	11.084	-4.3854	3.1464	-2.8564	4.1992	-1.2024
0.1801	-4.1443	-3.5004	1.2451	-3.8177	-4.7058	1.0345	-3.1128	-3.6285	1.2238	-1.9012	-3.3661	2.0935	2.1271	7.2205	11.0962	-4.2023	3.1342	-2.8168	4.187	-1.1871
0.1648	-4.0741	-3.4668	1.2604	-3.7659	-4.66	1.0315	-3.0609	-3.5706	1.2238	-1.8433	-3.3081	2.1179	2.0264	7.2327	11.087	-3.9948	3.0884	-2.774	4.1473	-1.1475
0.174	-3.9856	-3.4363	1.2512	-3.6713	-4.5929	1.0284	-2.9907	-3.4912	1.239	-1.8005	-3.244	2.124	1.9135	7.2235	11.0626	-3.772	3.067	-2.7283	4.1199	-1.1078
0.174	-3.9185	-3.418	1.2451	-3.598	-4.538	1.0284	-2.9144	-3.4027	1.2573	-1.7395	-3.1738	2.1393	1.8066	7.1686	11.0718	-3.5583	3.0243	-2.6611	4.0649	-1.0681
0.1556	-3.8879	-3.421	1.2207	-3.5675	-4.5105	0.9674	-2.8687	-3.363	1.2451	-1.6998	-3.1128	2.1454	1.6785	7.1411	11.0199	-3.3112	2.9816	-2.6245	4.007	-1.0101
0.1343	-3.8361	-3.4302	1.1658	-3.5217	-4.5135	0.9247	-2.8442	-3.3203	1.2085	-1.6357	-3.0701	2.1179	1.5594	7.0801	11.0077	-3.0518	2.9083	-2.5848	3.9246	-0.9613
0.1251	-3.775	-3.4271	1.1292	-3.4637	-4.4861	0.8759	-2.7893	-3.2532	1.1871	-1.593	-3.0151	2.1057	1.4221	7.0435	11.0107	-2.7863	2.8412	-2.5513	3.8208	-0.9155
0.1007	-3.7659	-3.4546	1.0803	-3.4332	-4.4678	0.8209	-2.7588	-3.2104	1.1566	-1.5594	-2.9572	2.1271	1.297	6.9611	10.9772	-2.5421	2.7527	-2.4933	3.7384	-0.8667
0.0946	-3.7048	-3.4515	1.0345	-3.3905	-4.4525	0.7874	-2.7069	-3.1616	1.1139	-1.5106	-2.8992	2.1301	1.1871	6.9244	11.0077	-2.3346	2.6947	-2.4414	3.6682	-0.7996
0.0549	-3.6774	-3.4454	0.9552	-3.3386	-4.4342	0.6989	-2.6794	-3.1189	1.0864	-1.4526	-2.8656	2.0874	1.0834	6.8451	10.9772	-2.1149	2.6245	-2.3926	3.5492	-0.7629
0.0427	-3.6255	-3.4607	0.9277	-3.3173	-4.4128	0.6317	-2.6337	-3.0762	1.0315	-1.4099	-2.832	2.066	1.001	6.7688	10.9985	-1.944	2.533	-2.3499	3.5034	-0.708
0.0275	-3.6072	-3.5065	0.8545	-3.2745	-4.3854	0.6012	-2.597	-3.0121	0.9888	-1.3367	-2.7527	2.0752	0.9369	6.6681	10.9924	-1.8219	2.4872	-2.301	3.4698	-0.6531
0.0488	-3.5522	-3.4821	0.8362	-3.2379	-4.3671	0.5341	-2.5757	-2.9724	0.9247	-1.2909	-2.7069	2.0172	0.9033	6.5948	11.0168	-1.7303	2.4231	-2.3041	3.4027	-0.6073
0.0427	-3.5248	-3.5065	0.7813	-3.2104	-4.3396	0.47	-2.5452	-2.9419	0.8423	-1.2329	-2.6794	1.9836	0.8667	6.5125	11.0413	-1.6785	2.3407	-2.2552	3.3478	-0.6012
0.0153	-3.4821	-3.5004	0.7477	-3.1769	-4.3243	0.4181	-2.4963	-2.9053	0.7843	-1.1963	-2.6123	1.9745	0.8636	6.4362	11.0413	-1.6663	2.2919	-2.243	3.3203	-0.5585
-0.0092	-3.4882	-3.5187	0.6714	-3.1708	-4.3335	0.3357	-2.4841	-2.8778	0.7233	-1.1749	-2.5787	1.9287	0.8759	6.3385	11.0596	-1.6968	2.2217	-2.2247	3.2715	-0.531
0	-3.4393	-3.5095	0.6378	-3.1281	-4.2969	0.3082	-2.4445	-2.8412	0.6744	-1.1169	-2.5299	1.8951	0.9003	6.2622	11.0657	-1.7548	2.2034	-2.2156	3.2654	-0.5005
-0.0183	-3.4241	-3.5126	0.6226	-3.1189	-4.2786	0.2533	-2.4231	-2.8229	0.5951	-1.0895	-2.4902	1.8616	0.9399	6.192	11.0596	-1.825	2.1667	-2.2186	3.2593	-0.5066
-0.0092	-3.4088	-3.5126	0.6195	-3.0853	-4.2633	0.2289	-2.3987	-2.7924	0.5646	-1.0193	-2.4323	1.8524	1.001	6.1462	11.084	-1.947	2.1393	-2.2278	3.2593	-0.4883
-0.0122	-3.3875	-3.5126	0.6042	-3.0731	-4.2267	0.2197	-2.3804	-2.771	0.5096	-1.0071	-2.3895	1.8219	1.0651	6.0852	11.0657	-2.0752	2.1362	-2.243	3.2593	-0.5188
0.0275	-3.3905	-3.5156	0.6073	-3.064	-4.187	0.2167	-2.359	-2.7374	0.4852	-0.9766	-2.3407	1.7853	1.1566	6.0455	11.084	-2.2583	2.1454	-2.2797	3.2623	-0.5249
0.0214	-3.4027	-3.476	0.6287	-3.0396	-4.1656	0.2197	-2.3438	-2.713	0.473	-0.9613	-2.2858	1.7792	1.2604	6.015	11.084	-2.4506	2.1515	-2.3163	3.302	-0.531
0.0275	-3.4027	-3.4454	0.6409	-3.0243	-4.1351	0.2075	-2.3315	-2.6947	0.4425	-0.9552	-2.2705	1.7548	1.3336	5.9784	11.0504	-2.6276	2.1576	-2.3743	3.3081	-0.5737
0.0458	-3.4241	-3.4546	0.6622	-3.0334	-4.1229	0.2319	-2.3285	-2.6703	0.4242	-0.9583	-2.2247	1.7242	1.4374	5.9814	11.0718	-2.829	2.1973	-2.4261	3.302	-0.6042
0.0549	-3.418	-3.421	0.7111	-3.0334	-4.1138	0.238	-2.3071	-2.652	0.4181	-0.943	-2.1973	1.7151	1.5411	5.9753	11.0229	-3.0212	2.2003	-2.475	3.3295	-0.6317
0.0885	-3.4363	-3.3875	0.766	-3.0396	-4.0894	0.296	-2.3102	-2.655	0.4181	-0.9399	-2.1606	1.6815	1.6266	5.9631	11.0382	-3.2013	2.2217	-2.5177	3.3356	-0.6775
0.0885	-3.421	-3.3569	0.7996	-2.9999	-4.0497	0.3204	-2.301	-2.6489	0.4028	-0.9247	-2.1393	1.6724	1.7059	5.957	11.0474	-3.3569	2.2278	-2.5696	3.3508	-0.7019
0.1221	-3.3997	-3.2959	0.882	-2.948	-4.0009	0.3784	-2.2797	-2.6459	0.3784	-0.9247	-2.1057	1.6724	1.7914	5.957	11.026	-3.5278	2.2705	-2.6031	3.3752	-0.7294
0.1556	-3.3539	-3.2562	0.9277	-2.9236	-3.9734	0.3937	-2.2552	-2.6093	0.4028	-0.9003	-2.0538	1.6479	1.8646	5.954	11.0535	-3.6713	2.2888	-2.6123	3.3844	-0.7568
0.2289	-3.3173	-3.1921	1.001	-2.8564	-3.9185	0.4211	-2.2369	-2.5787	0.3998	-0.8728	-2.0203	1.6266	1.9043	5.9906	11.0657	-3.7689	2.3071	-2.6337	3.4119	-0.7874
0.2838	-3.2776	-3.1189	1.0437	-2.774	-3.8391	0.4578	-2.1667	-2.5269	0.4333	-0.8423	-1.944	1.6388	1.947	6.0089	11.1176	-3.8452	2.3407	-2.6245	3.3997	-0.7782
0.3387	-3.183	-3.0334	1.1475	-2.6764	-3.7384	0.531	-2.0996	-2.4384	0.4761	-0.7782	-1.8433	1.6724	1.9836	6.0944	11.1755	-3.8971	2.3987	-2.6031	3.4332	-0.769
0.412	-3.0914	-2.951	1.2238	-2.5696	-3.6346	0.5951	-2.0172	-2.3529	0.5249	-0.708	-1.7456	1.6907	1.9928	6.1523	11.2183	-3.9307	2.4353	-2.5696	3.476	-0.7202
0.4883	-3.006	-2.8687	1.2878	-2.4719	-3.5583	0.6256	-1.9318	-2.2888	0.5585	-0.647	-1.6602	1.7426	2.005	6.1829	11.2549	-3.9185	2.475	-2.5574	3.5065	-0.705
0.5737	-2.9083	-2.7557	1.3794	-2.3376	-3.4363	0.6927	-1.8372	-2.1637	0.6134	-0.5493	-1.5289	1.8066	1.9775	6.2714	11.3129	-3.8971	2.5452	-2.5299	3.5522	-0.647
0.6683	-2.7832	-2.6398	1.4557	-2.2156	-3.299	0.7935	-1.7395	-2.0386	0.7111	-0.4547	-1.3763	1.8707	1.9775	6.3141	11.3831	-3.894	2.6123	-2.4597	3.6163	-0.5951
0.7477	-2.655	-2.5085	1.5625	-2.0996	-3.2013	0.8514	-1.6327	-1.9196	0.7813	-0.3693	-1.2482	1.9592	1.9562	6.3629	11.4288	-3.8635	2.6764	-2.4384	3.653	-0.5249
0.8728	-2.536	-2.3956	1.6357	-1.9592	-3.0701	0.9369	-1.5137	-1.7822	0.882	-0.2472	-1.0864	2.0538	1.9592	6.4117	11.5021	-3.833	2.7618	-2.4017	3.7079	-0.4822
0.9521	-2.4475	-2.2644	1.7181	-1.8555	-2.9297	1.0162	-1.416	-1.6449	0.9613	-0.1526	-0.9705	2.1332	1.9165	6.4545	11.5356	-3.775	2.8198	-2.3621	3.7628	-0.4242
1.0956	-2.3102	-2.1515	1.8066	-1.6998	-2.7649	1.1139	-1.2909	-1.4893	1.0742	-0.0458	-0.7813	2.243	1.889	6.5308	11.6211	-3.7231	2.8992	-2.3315	3.8239	-0.3418
1.1627	-2.1973	-2.0142	1.8921	-1.5778	-2.6428	1.1841	-1.1749	-1.3306	1.1871	0.058	-0.6104	2.3499	1.8524	6.543	11.6272	-3.653	2.9663	-2.298	3.8757	-0.2899
1.2726	-2.0691	-1.8707	1.9989	-1.4709	-2.533	1.2848	-1.062	-1.1749	1.297	0.1678	-0.4517	2.4414	1.8127	6.5948	11.7035	-3.5614	3.0151	-2.2766	3.9032	-0.2106
1.4069	-1.9226	-1.7456	2.0874	-1.3245	-2.3651	1.3702	-0.9308	-0.9766	1.4038	0.3021	-0.2472	2.5757	1.7731	6.6315	11.7462	-3.476	3.1036	-2.2186	3.9551	-0.1526
1.4618	-1.8158	-1.6052	2.1698	-1.2146	-2.2369	1.4404	-0.8362	-0.827	1.5228	0.3906	-0.1038	2.6733	1.7212	6.6681	11.7615	-3.363	3.1555	-2.2034	4.0009	-0.0854
1.5564	-1.6998	-1.5015	2.2552	-1.0681	-2.0752	1.5594	-0.7019	-0.65	1.6327	0.5188	0.0916	2.7802	1.6724	6.6803	11.7798	-3.2654	3.2288	-2.1881	4.0527	-0.0031
1.6449	-1.5778	-1.3641	2.3193	-0.9613	-1.9531	1.6357	-0.5981	-0.4639	1.7334	0.6348	0.2808	2.9114	1.6205	6.7139	11.7859	-3.1677	3.2806	-2.1271	4.0771	0.0549
1.7303	-1.4679	-1.2482	2.3651	-0.824	-1.7883	1.6968	-0.4822	-0.3052	1.8219	0.7294	0.4639	3.0182	1.5717	6.7017	11.7645	-3.0945	3.3325	-2.1088	4.0802	0.119
1.7883	-1.3794	-1.1566	2.42	-0.6989	-1.6632	1.7639	-0.3876	-0.1495	1.889	0.8331	0.6439	3.1067	1.5381	6.6925	11.7706	-3.0029	3.3722	-2.1027	4.0894	0.174
1.8402	-1.2848	-1.0681	2.4506	-0.6348	-1.5564	1.8066	-0.3113	-0.0031	1.944	0.9399	0.8118	3.2135	1.5015	6.6956	11.7584	-2.9541	3.4241	-2.066	4.1046	0.238
1.8616	-1.2268	-0.9888	2.4658	-0.5188	-1.4404	1.825	-0.1984	0.1678	2.0111	1.0468	0.9796	3.299	1.4771	6.6498	11.7157	-2.8839	3.4424	-2.0752	4.0955	0.2899
1.8677	-1.1566	-0.9369	2.4719	-0.4578	-1.3428	1.8494	-0.1251	0.296	2.0691	1.1444	1.1383	3.4149	1.4618	6.5887	11.7035	-2.8503	3.4546	-2.0599	4.0955	0.3204
1.8921	-1.12	-0.8667	2.4567	-0.3693	-1.2299	1.8768	-0.0427	0.4333	2.0996	1.2604	1.2756	3.4882	1.4404	6.5399	11.6699	-2.8168	3.4668	-2.0355	4.0863	0.3754
1.9012	-1.0559	-0.7996	2.4689	-0.2808	-1.1322	1.9104	0.0458	0.5859	2.1759	1.3397	1.4557	3.5919	1.4465	6.485	11.6455	-2.8137	3.5034	-2.0233	4.1046	0.3998
1.9104	-1.0132	-0.7446	2.4902	-0.1923	-1.0315	1.9379	0.1526	0.705	2.2339	1.4465	1.6052	3.6835	1.4404	6.424	11.6241	-2.8229	3.5095	-1.9806	4.0955	0.4181
1.9318	-0.9766	-0.6897	2.4658	-0.1312	-0.9369	1.9257	0.2258	0.8118	2.2675	1.5656	1.7853	3.7567	1.4526	6.3934	11.5845	-2.8625	3.5339	-1.9592	4.0924	0.4761
1.9257	-0.9369	-0.65	2.4963	-0.0397	-0.8331	1.9684	0.3296	0.9552	2.3285	1.6968	1.944	3.894	1.4893	6.3416	11.5631	-2.9114	3.5858	-1.9226	4.1168	0.5554
1.9287	-0.9064	-0.6073	2.478	0.0397	-0.7507	1.9928	0.4211	1.0681	2.3743	1.8127	2.1057	3.9948	1.5289	6.2592	11.5295	-2.9785	3.6316	-1.8921	4.1534	0.6134
1.9348	-0.8698	-0.5524	2.4689	0.1099	-0.6622	2.0111	0.5066	1.1932	2.4261	1.9226	2.2308	4.1077	1.5533	6.1737	11.4471	-3.0365	3.6865	-1.8372	4.1748	0.6561
1.8951	-0.8514	-0.5249	2.4872	0.1587	-0.6134	2.0264	0.6134	1.2878	2.4628	2.0294	2.3804	4.1962	1.5747	6.1218	11.4136	-3.1036	3.7384	-1.8036	4.1992	0.6836
1.8921	-0.824	-0.4944	2.4872	0.2258	-0.5249	2.0355	0.6775	1.3885	2.5177	2.1393	2.5116	4.3152	1.6418	6.0394	11.3556	-3.2074	3.7811	-1.77	4.2145	0.7538
1.8555	-0.8331	-0.4791	2.475	0.2991	-0.4486	2.0569	0.7629	1.4862	2.5574	2.2125	2.6306	4.3884	1.6876	5.9387	11.2579	-3.3203	3.8269	-1.7365	4.2114	0.7904
1.8219	-0.8148	-0.4944	2.4506	0.3235	-0.3906	2.0721	0.8667	1.5625	2.6093	2.3102	2.7496	4.5074	1.7548	5.7983	11.1969	-3.4576	3.8544	-1.6998	4.2694	0.7965
1.8158	-0.7996	-0.4364	2.4658	0.3845	-0.3357	2.0752	0.9186	1.6205	2.6398	2.3743	2.8381	4.5868	1.8188	5.722	11.1389	-3.5858	3.891	-1.6632	4.2511	0.8545
1.767	-0.8118	-0.4211	2.4811	0.415	-0.2838	2.1057	0.9766	1.6907	2.6794	2.4597	2.9388	4.6539	1.886	5.5969	11.0931	-3.7262	3.8971	-1.6571	4.2694	0.8545
1.7365	-0.8057	-0.4028	2.4536	0.4547	-0.2136	2.1362	1.0254	1.7639	2.7283	2.4963	3.006	4.7302	1.9562	5.4901	11.0138	-3.8605	3.9032	-1.6357	4.2969	0.8606
1.6724	-0.8148	-0.3998	2.4536	0.4761	-0.1831	2.1332	1.0498	1.8219	2.7557	2.5513	3.0701	4.7729	2.0264	5.3711	10.9558	-3.9764	3.8879	-1.6449	4.2999	0.8484
1.6663	-0.7721	-0.3571	2.4933	0.5219	-0.1251	2.179	1.1108	1.8738	2.8107	2.6123	3.1342	4.8645	2.0813	5.3192	10.9467	-4.1168	3.9032	-1.5991	4.3182	0.8881
1.6479	-0.7324	-0.3601	2.5177	0.5646	-0.0641	2.243	1.1932	1.9623	2.9053	2.6703	3.186	4.95	2.1423	5.2429	10.9039	-4.2358	3.9276	-1.5533	4.3457	0.9186
1.6113	-0.705	-0.3113	2.5574	0.6165	-0.0122	2.2827	1.2054	2.0142	2.9449	2.71	3.2379	4.9927	2.1973	5.1849	10.8704	-4.3365	3.9459	-1.5137	4.3823	0.9308
1.6266	-0.6592	-0.238	2.6367	0.6714	0.0824	2.3743	1.2512	2.063	3.0334	2.771	3.2745	5.0903	2.2491	5.1941	10.8704	-4.4586	3.9734	-1.4832	4.4067	0.9827
1.6052	-0.6592	-0.2197	2.71	0.705	0.1129	2.4292	1.2909	2.0966	3.1097	2.7985	3.3295	5.1331	2.3224	5.1971	10.8948	-4.5654	3.9978	-1.4404	4.4464	1.0071
1.6296	-0.6073	-0.1587	2.7985	0.7507	0.2014	2.5299	1.3367	2.1515	3.2013	2.8473	3.3539	5.1971	2.3651	5.1941	10.8612	-4.6661	4.01	-1.3855	4.4983	1.0651
1.6602	-0.5707	-0.0824	2.8778	0.7935	0.2716	2.6459	1.355	2.1942	3.2928	2.8503	3.3478	5.2551	2.4048	5.2277	10.8826	-4.7638	4.0466	-1.3428	4.5563	1.1017
1.6449	-0.5341	-0.0244	2.9938	0.8514	0.3418	2.7405	1.3794	2.243	3.3966	2.8839	3.363	5.3131	2.4475	5.2399	10.8582	-4.8401	4.0802	-1.2848	4.5929	1.1505
1.7059	-0.4578	0.0336	3.1311	0.9094	0.412	2.8564	1.4313	2.2949	3.5156	2.9358	3.3752	5.3833	2.475	5.2856	10.8612	-4.8889	4.1138	-1.2238	4.6814	1.2115
1.7426	-0.4211	0.1038	3.2349	0.9644	0.473	2.9846	1.4862	2.356	3.6377	2.9755	3.3691	5.4291	2.4933	5.3253	10.849	-4.9194	4.1718	-1.1566	4.7455	1.2909
1.7578	-0.3571	0.2014	3.3722	1.0284	0.5676	3.1128	1.5289	2.3956	3.7415	3.0029	3.3691	5.481	2.4963	5.3925	10.8368	-4.95	4.248	-1.0956	4.8401	1.3458
1.7456	-0.3021	0.2563	3.4668	1.0895	0.6592	3.2288	1.5472	2.4445	3.8605	3.0121	3.3539	5.5115	2.5085	5.4108	10.8002	-4.953	4.2664	-1.0406	4.9042	1.3885
1.8097	-0.2472	0.3265	3.595	1.1627	0.7416	3.3447	1.593	2.4902	3.9703	3.0304	3.3813	5.5786	2.5055	5.4504	10.7849	-4.9591	4.3182	-0.9979	5.0171	1.4313
1.8311	-0.2228	0.3937	3.6743	1.178	0.7965	3.4424	1.6052	2.5269	4.0527	3.0182	3.3356	5.6	2.4933	5.4169	10.73	-4.9225	4.3335	-0.9827	5.0568	1.4648
1.8341	-0.1892	0.4425	3.7354	1.2451	0.8514	3.5095	1.6418	2.536	4.1229	3.0334	3.3203	5.6122	2.4689	5.423	10.6781	-4.8828	4.3335	-0.9369	5.1239	1.4923
1.8158	-0.1617	0.4822	3.7842	1.2695	0.8789	3.5706	1.6388	2.5452	4.1901	3.009	3.2837	5.5908	2.4292	5.3955	10.611	-4.7943	4.303	-0.9277	5.1544	1.5198
1.828	-0.1312	0.531	3.833	1.3245	0.943	3.6255	1.6663	2.5421	4.2236	2.9999	3.244	5.5908	2.3895	5.3589	10.5743	-4.6967	4.2664	-0.9064	5.1849	1.5381
1.8188	-0.1068	0.531	3.8208	1.355	0.9583	3.656	1.6754	2.5299	4.2206	2.9846	3.186	5.5664	2.3193	5.3223	10.5316	-4.5746	4.2267	-0.8728	5.1819	1.5594
1.8127	-0.0885	0.5798	3.8483	1.4038	1.004	3.6774	1.6998	2.536	4.2419	2.9663	3.1097	5.5389	2.24	5.2551	10.4492	-4.422	4.1565	-0.8514	5.1819	1.5839
1.8005	-0.0732	0.5798	3.8452	1.4191	1.0071	3.6743	1.6663	2.5238	4.248	2.9327	3.0609	5.4932	2.1454	5.2216	10.4034	-4.2419	4.0955	-0.824	5.1727	1.6144
1.77	-0.0214	0.6256	3.8574	1.4679	1.0559	3.7231	1.6785	2.5482	4.2877	2.9236	3.0365	5.4993	2.063	5.1422	10.379	-4.068	4.0497	-0.7813	5.1605	1.6418
1.7792	-0.0244	0.6226	3.8635	1.4923	1.062	3.7354	1.6968	2.5421	4.2908	2.8961	2.9846	5.4565	1.9531	5.0781	10.3271	-3.8391	3.9795	-0.7416	5.1208	1.651
1.767	0.0031	0.6622	3.8574	1.5167	1.0651	3.7384	1.6937	2.536	4.2999	2.8687	2.9388	5.423	1.8219	5.0232	10.3119	-3.6102	3.9307	-0.6927	5.0781	1.6876
1.7456	0.0366	0.6592	3.8422	1.5472	1.1078	3.7506	1.7212	2.5604	4.2969	2.8442	2.8931	5.4169	1.6937	4.9591	10.2509	-3.36	3.8605	-0.6683	5.069	1.7181
1.7273	0.0427	0.6927	3.7964	1.59	1.1505	3.7476	1.7242	2.5757	4.303	2.8259	2.8595	5.3955	1.5594	4.9072	10.1898	-3.0701	3.7872	-0.6317	5.0079	1.7548
1.7029	0.0458	0.6866	3.7659	1.5991	1.1658	3.7476	1.7395	2.5604	4.2847	2.8076	2.829	5.3802	1.4191	4.8218	10.1349	-2.7924	3.7079	-0.6134	4.9561	1.7883
1.6846	0.0458	0.708	3.7201	1.6296	1.181	3.7384	1.7273	2.5665	4.2755	2.771	2.7985	5.368	1.2848	4.7699	10.0891	-2.4994	3.6621	-0.5768	4.8828	1.8127
1.651	0.0305	0.705	3.6835	1.6602	1.2177	3.717	1.7456	2.5818	4.2389	2.7191	2.774	5.3528	1.1566	4.6906	9.9854	-2.2217	3.5828	-0.5676	4.8187	1.828
1.6113	0.0305	0.6653	3.6072	1.6602	1.2329	3.6896	1.7273	2.5696	4.2114	2.6764	2.7161	5.3131	0.9918	4.6265	9.903	-1.9501	3.5126	-0.5371	4.7302	1.8372
1.5808	0.0183	0.6866	3.5706	1.6785	1.2543	3.6682	1.7609	2.594	4.2053	2.6581	2.7039	5.3162	0.8667	4.5746	9.8267	-1.7151	3.4485	-0.4913	4.6692	1.8738
1.5198	-0.0183	0.6683	3.5034	1.6815	1.2451	3.6224	1.7426	2.5818	4.1595	2.6123	2.6581	5.2673	0.7538	4.5044	9.6863	-1.4557	3.3875	-0.4761	4.5898	1.8921
1.4801	-0.0366	0.6317	3.4729	1.7059	1.2726	3.6194	1.7639	2.6062	4.1626	2.6031	2.6428	5.2795	0.65	4.425	9.5978	-1.2421	3.3264	-0.4456	4.5197	1.9592
1.4435	-0.0397	0.647	3.4424	1.7212	1.3	3.6011	1.7883	2.6459	4.1473	2.6245	2.652	5.2826	0.531	4.3732	9.4696	-1.0315	3.2745	-0.3998	4.4495	2.0081
1.4191	-0.0427	0.65	3.4393	1.7395	1.3306	3.6072	1.8158	2.6642	4.1504	2.6428	2.6794	5.2979	0.4456	4.3365	9.3658	-0.8453	3.2349	-0.3662	4.3945	2.0752
1.3855	-0.0519	0.6622	3.4058	1.7822	1.3763	3.6102	1.8585	2.7252	4.1687	2.6794	2.7405	5.3528	0.3571	4.2786	9.2529	-0.6805	3.2288	-0.293	4.3335	2.1484
1.3702	-0.0336	0.6958	3.4241	1.828	1.4404	3.6041	1.9379	2.7985	4.2114	2.7435	2.8168	5.3955	0.2838	4.2328	9.1431	-0.5249	3.2104	-0.2228	4.2969	2.2156
1.3763	-0.0122	0.7416	3.4332	1.8616	1.5137	3.6652	2.0264	2.9053	4.2511	2.8107	2.9114	5.4596	0.1984	4.1931	9.0881	-0.3571	3.1952	-0.1556	4.2725	2.3254
1.3489	0.0153	0.7904	3.4882	1.9257	1.59	3.6987	2.1027	2.9968	4.3091	2.9205	3.0243	5.5511	0.1282	4.1351	9.0027	-0.2014	3.2043	-0.0793	4.2572	2.4078
1.3885	0.0549	0.8453	3.5339	2.0142	1.7181	3.7872	2.1912	3.1097	4.4006	3.0334	3.1738	5.6458	0.0519	4.1199	8.9752	-0.061	3.2288	-0.0061	4.2389	2.4872
1.3947	0.0946	0.943	3.6133	2.0844	1.8097	3.8696	2.3102	3.2501	4.4952	3.1769	3.3813	5.7709	-0.0031	4.0802	8.9447	0.0671	3.2654	0.061	4.2572	2.6001
1.4526	0.1617	1.0101	3.6865	2.182	1.9379	3.9307	2.4261	3.3936	4.5776	3.3264	3.537	5.8868	-0.0671	4.0527	8.9325	0.1984	3.3112	0.1343	4.2572	2.6886
1.4557	0.2197	1.1108	3.775	2.2919	2.0752	4.0344	2.5635	3.5767	4.7119	3.5187	3.7567	6.0364	-0.1343	4.0375	8.9508	0.3113	3.3478	0.2228	4.2664	2.8046
1.4923	0.296	1.2024	3.8696	2.3773	2.2095	4.1382	2.7039	3.7445	4.837	3.6957	3.9886	6.2012	-0.174	4.0039	8.9569	0.3937	3.4363	0.296	4.3182	2.9022
1.5594	0.4059	1.3397	4.007	2.4811	2.356	4.2877	2.8534	3.9307	4.9927	3.8513	4.2328	6.3751	-0.2014	3.9856	8.9996	0.4486	3.5248	0.3662	4.3854	3.0029
1.6205	0.4669	1.4465	4.1412	2.5543	2.4933	4.4006	2.9785	4.1016	5.13	4.0283	4.483	6.5308	-0.2197	3.9551	9.0454	0.4883	3.6163	0.4517	4.4556	3.0914
1.6693	0.5646	1.5656	4.2725	2.6794	2.6245	4.5319	3.1372	4.2938	5.2979	4.2267	4.7394	6.7291	-0.2075	3.9581	9.1187	0.47	3.7384	0.5341	4.5502	3.1921
1.712	0.6653	1.6296	4.3976	2.7985	2.774	4.66	3.2684	4.4739	5.4291	4.4098	5.0049	6.9153	-0.1892	3.9368	9.1766	0.4303	3.83	0.5859	4.6265	3.2898
1.7792	0.8026	1.7578	4.5105	2.9205	2.9419	4.7913	3.418	4.6722	5.6061	4.6143	5.3131	7.1289	-0.1587	3.9368	9.256	0.3387	3.9734	0.6836	4.7272	3.4119
1.8524	0.9155	1.8555	4.6173	3.0334	3.0762	4.9316	3.595	4.8767	5.7526	4.8279	5.6213	7.3578	-0.1007	3.9154	9.2926	0.2502	4.1077	0.7477	4.8065	3.4882
1.8951	0.9979	1.947	4.7333	3.1189	3.1769	5.0323	3.7231	5.0598	5.9143	5.0201	5.8868	7.55	-0.0397	3.8757	9.3201	0.1343	4.2389	0.8301	4.9255	3.5736
1.9043	1.0651	1.9836	4.8065	3.2104	3.2867	5.1453	3.8513	5.2277	6.0577	5.1849	6.189	7.7667	0.0092	3.8818	9.3536	0.0031	4.3823	0.8972	5.0232	3.6621
1.9409	1.1597	2.0386	4.8645	3.299	3.4027	5.2368	3.9978	5.3894	6.1981	5.3589	6.4545	7.9865	0.061	3.8696	9.3536	-0.1007	4.5074	0.9583	5.13	3.7354
1.9379	1.2024	2.0599	4.9133	3.3661	3.4485	5.3162	4.0802	5.5389	6.3385	5.5023	6.6925	8.1635	0.1556	3.8452	9.3536	-0.2686	4.6448	1.004	5.2399	3.7872
1.9531	1.2634	2.0874	4.9805	3.4058	3.5156	5.3711	4.2053	5.6885	6.4819	5.6671	6.9397	8.3679	0.2197	3.8116	9.3323	-0.4211	4.7729	1.059	5.3192	3.8361
1.8982	1.2848	2.0752	4.9957	3.4607	3.5675	5.4535	4.2877	5.8014	6.6101	5.8167	7.1899	8.5602	0.3113	3.7933	9.2499	-0.5768	4.8859	1.0651	5.3986	3.894
1.8921	1.3062	2.0905	5.014	3.5187	3.6377	5.5054	4.364	5.9326	6.7322	5.9692	7.4127	8.7463	0.3937	3.7659	9.2102	-0.769	4.9866	1.0956	5.5023	3.9398
1.8829	1.3062	2.0691	5.0201	3.5431	3.6743	5.5359	4.4403	6.0394	6.8512	6.1066	7.6019	8.905	0.4852	3.7598	9.1553	-0.9216	5.0873	1.1108	5.5786	3.9612
1.8463	1.3275	2.0691	5.0171	3.5828	3.714	5.603	4.538	6.1646	6.9702	6.2408	7.8186	9.0515	0.5768	3.7292	9.0881	-1.0925	5.1758	1.1414	5.6763	4.0253
1.8341	1.3245	2.0477	5.011	3.6224	3.7292	5.6244	4.5959	6.2469	7.0557	6.3568	7.9987	9.1705	0.6439	3.6591	9.0027	-1.239	5.2399	1.1566	5.7129	4.0527
1.8005	1.358	2.0782	5.011	3.6865	3.7628	5.6549	4.6967	6.3538	7.1899	6.4972	8.1757	9.317	0.7385	3.6224	8.963	-1.416	5.304	1.181	5.7739	4.0924
1.7761	1.3702	2.0386	4.9713	3.717	3.8116	5.6946	4.7729	6.4697	7.2754	6.6559	8.3466	9.4299	0.8057	3.5797	8.8684	-1.5717	5.3558	1.2177	5.8258	4.1443
1.7059	1.3763	2.0264	4.9591	3.7964	3.8452	5.7251	4.8798	6.5521	7.3517	6.7963	8.5052	9.5123	0.885	3.5156	8.7891	-1.7273	5.3833	1.2573	5.8594	4.1962
1.6968	1.3947	1.9928	4.95	3.8483	3.8696	5.7617	4.9774	6.6467	7.4341	6.9427	8.6395	9.6039	0.9521	3.4271	8.6945	-1.8616	5.3955	1.2848	5.899	4.2572
1.6663	1.4435	2.0386	4.9347	3.9215	3.9246	5.7922	5.0873	6.7566	7.5287	7.1289	8.8013	9.6832	1.0315	3.3569	8.6273	-2.0264	5.423	1.3306	5.9387	4.3335
1.6785	1.4771	2.0355	4.8859	3.9825	3.952	5.8441	5.1727	6.8542	7.6019	7.2632	8.9325	9.7534	1.1078	3.2867	8.5541	-2.1729	5.4199	1.3824	5.9692	4.3915
1.651	1.5076	2.005	4.8706	4.0375	3.9825	5.8472	5.2734	6.9092	7.6385	7.3944	9.0271	9.7748	1.1688	3.2104	8.5022	-2.3102	5.4047	1.3885	5.9753	4.4495
1.6144	1.4954	1.9867	4.8401	4.0924	4.01	5.9052	5.3436	6.9611	7.6721	7.5409	9.1522	9.8022	1.2512	3.1372	8.4381	-2.4475	5.3864	1.416	5.9998	4.4891
1.5991	1.535	2.0081	4.8004	4.1687	4.0741	5.9387	5.4504	7.0618	7.7545	7.6782	9.2682	9.8419	1.3245	3.0121	8.3588	-2.6001	5.4138	1.4496	6.0181	4.5441
1.5839	1.5289	1.9714	4.7668	4.2206	4.0924	5.9387	5.5206	7.1045	7.7759	7.7881	9.3689	9.8419	1.3885	2.9541	8.3435	-2.7435	5.3589	1.4526	6.0059	4.5898
1.5442	1.5228	1.9714	4.7272	4.2664	4.1077	5.9814	5.6091	7.1869	7.8339	7.8979	9.4666	9.8511	1.4679	2.887	8.2794	-2.89	5.3772	1.4709	6.0211	4.6112
1.5381	1.5442	1.9897	4.7302	4.3152	4.1748	6.0364	5.6854	7.2601	7.8888	8.0231	9.5673	9.8969	1.5594	2.8229	8.2611	-3.0762	5.3741	1.4954	6.0547	4.657
1.532	1.5625	1.9653	4.6936	4.3488	4.1962	6.0516	5.7404	7.2754	7.9071	8.0902	9.6252	9.8724	1.6388	2.7863	8.2275	-3.2288	5.3375	1.4862	6.0211	4.657
1.5167	1.5656	1.9775	4.6539	4.3976	4.245	6.0944	5.7953	7.3547	7.9376	8.1879	9.7107	9.8846	1.7395	2.7374	8.2123	-3.4027	5.3467	1.4893	6.0242	4.6509
1.4893	1.5533	1.944	4.6295	4.4189	4.2633	6.1127	5.835	7.3914	7.9803	8.2977	9.787	9.8938	1.8005	2.6672	8.1879	-3.5553	5.3284	1.5015	6.0089	4.6631
1.5106	1.59	1.9775	4.6082	4.4739	4.3152	6.1768	5.9052	7.4402	8.0139	8.3771	9.8724	9.8907	1.8921	2.6855	8.194	-3.714	5.3131	1.5015	6.015	4.657
1.4526	1.5198	1.9165	4.5502	4.4739	4.3121	6.1951	5.9174	7.4463	8.0292	8.4259	9.8999	9.8511	1.9562	2.6276	8.1604	-3.8361	5.3101	1.4618	6.015	4.6448
1.4557	1.535	1.9562	4.5074	4.5074	4.3671	6.25	5.957	7.4921	8.0719	8.5052	9.9548	9.8389	2.0264	2.6215	8.1665	-4.0009	5.3253	1.4557	6.015	4.6448
1.4221	1.5259	1.947	4.483	4.5288	4.4006	6.3019	5.9906	7.5562	8.1085	8.5663	10.0128	9.848	2.1149	2.6123	8.1573	-4.1626	5.3528	1.4587	6.0455	4.6417
1.413	1.4832	1.9073	4.4586	4.5166	4.422	6.3446	6.0028	7.5439	8.1207	8.5999	10.0281	9.7992	2.1851	2.6672	8.1757	-4.306	5.3406	1.413	6.0425	4.6082
1.3824	1.4648	1.8738	4.4189	4.5105	4.4189	6.3782	6.0181	7.5439	8.1207	8.6273	10.0403	9.7595	2.2583	2.6611	8.1421	-4.4525	5.3711	1.3855	6.0394	4.5685
1.3794	1.4343	1.8494	4.3671	4.48	4.4098	6.3751	5.9845	7.5378	8.1268	8.6151	10.022	9.7107	2.3193	2.71	8.1909	-4.5837	5.3345	1.3336	6.0608	4.5074
1.3641	1.416	1.8097	4.3365	4.4678	4.4189	6.4026	5.9845	7.5287	8.139	8.6334	10.025	9.6619	2.3926	2.7649	8.255	-4.7424	5.368	1.3184	6.0913	4.4556
1.3306	1.3611	1.7334	4.2786	4.4464	4.3884	6.4117	5.9387	7.4799	8.1329	8.5876	9.9976	9.5642	2.4506	2.8198	8.2794	-4.8462	5.3497	1.2573	6.0913	4.3671
1.2787	1.2817	1.6937	4.2297	4.4159	4.3671	6.4117	5.9174	7.4493	8.1024	8.548	9.9426	9.4818	2.5055	2.8381	8.2977	-4.953	5.3436	1.2115	6.0822	4.303
1.2207	1.2299	1.6144	4.1901	4.3793	4.3213	6.4026	5.8716	7.4097	8.0994	8.493	9.8816	9.3903	2.5452	2.8503	8.3038	-5.0232	5.3162	1.1536	6.0822	4.1992
1.1566	1.1627	1.5564	4.129	4.3274	4.2908	6.4026	5.8411	7.3822	8.0566	8.4473	9.8267	9.2987	2.5818	2.8687	8.316	-5.1086	5.2765	1.0895	6.0608	4.0985
1.1139	1.1047	1.4679	4.0955	4.306	4.2419	6.4117	5.7892	7.3578	8.0536	8.3923	9.7504	9.2133	2.6184	2.9114	8.2642	-5.1788	5.2612	1.0681	6.076	4.0039
1.0345	1.0437	1.3672	4.0131	4.2175	4.1565	6.3782	5.7526	7.2906	7.9987	8.2947	9.6619	9.1064	2.6489	2.9144	8.2489	-5.2246	5.2002	1.0101	6.0669	3.8849
1.0223	0.9827	1.3184	4.0131	4.1992	4.129	6.369	5.7007	7.2266	7.9742	8.2489	9.6008	9.0271	2.6917	2.9602	8.2428	-5.3223	5.1849	0.9491	6.0913	3.7994
0.9613	0.9705	1.2421	4.01	4.1626	4.0955	6.3843	5.6366	7.1625	7.9346	8.1696	9.5123	8.9447	2.7252	2.9846	8.2397	-5.3741	5.1392	0.8972	6.0883	3.6835
0.9216	0.9155	1.178	4.0039	4.1412	4.0497	6.3782	5.5969	7.1411	7.9254	8.0841	9.4238	8.8623	2.7374	2.9968	8.2214	-5.4169	5.1147	0.8362	6.0883	3.5767
0.9003	0.882	1.1475	4.0375	4.0833	4.0009	6.3965	5.5481	7.0923	7.9041	8.0078	9.3353	8.783	2.7679	3.0457	8.197	-5.4688	5.0995	0.7874	6.0944	3.4882
0.8759	0.8759	1.0651	4.0619	4.071	3.9673	6.4178	5.5328	7.0496	7.8979	7.9285	9.259	8.7036	2.771	3.064	8.1787	-5.4871	5.0568	0.7568	6.073	3.4149
0.8484	0.8759	1.0712	4.0955	4.0649	3.9551	6.4545	5.481	6.9916	7.8735	7.8186	9.1705	8.6456	2.771	3.1128	8.1696	-5.4993	5.0568	0.708	6.0822	3.3264
0.8728	0.882	1.0681	4.1962	4.071	3.9642	6.5002	5.4657	6.955	7.8644	7.7576	9.079	8.6029	2.7863	3.1555	8.1512	-5.5176	5.0446	0.6866	6.1127	3.2623
0.8759	0.9277	1.059	4.2694	4.0924	3.949	6.5399	5.4291	6.9275	7.8735	7.6752	8.9752	8.5358	2.771	3.1525	8.1299	-5.4993	5.0201	0.6409	6.1188	3.2013
0.9277	0.9735	1.0773	4.3823	4.1077	3.9673	6.5857	5.4169	6.9031	7.8857	7.6141	8.8715	8.4961	2.7771	3.1891	8.1146	-5.4962	5.0232	0.6165	6.1249	3.1616
0.9766	1.0315	1.1261	4.483	4.126	3.9795	6.6681	5.4077	6.8939	7.8979	7.5104	8.7738	8.4473	2.7557	3.1982	8.1207	-5.4565	5.0201	0.6012	6.1554	3.1097
1.0498	1.1169	1.1932	4.6112	4.1595	4.0131	6.7596	5.3986	6.8878	7.9254	7.4554	8.6914	8.4076	2.7435	3.241	8.1512	-5.4291	5.014	0.5707	6.189	3.0701
1.1505	1.2421	1.3	4.7638	4.2145	4.071	6.8726	5.3986	6.9061	7.9559	7.3608	8.6121	8.3832	2.7191	3.2776	8.1696	-5.3864	5.0232	0.5554	6.2622	3.0304
1.239	1.3367	1.3977	4.95	4.2572	4.1199	6.9946	5.4077	6.9153	8.0139	7.309	8.5358	8.3679	2.6947	3.3173	8.2214	-5.3223	5.011	0.5463	6.311	2.9907
1.358	1.4557	1.5228	5.1239	4.3518	4.1992	7.132	5.4108	6.9427	8.078	7.2266	8.4686	8.3832	2.6581	3.3478	8.2886	-5.2551	5.0323	0.5341	6.369	2.9785
1.4893	1.5991	1.6724	5.3467	4.4342	4.306	7.2998	5.4138	7.0038	8.1696	7.1869	8.4412	8.429	2.6337	3.4149	8.3588	-5.2185	5.0659	0.5585	6.4667	2.9449
1.6418	1.7273	1.8433	5.5481	4.5166	4.4373	7.4738	5.4291	7.0679	8.2733	7.1228	8.4045	8.4625	2.6123	3.4851	8.4534	-5.1636	5.1025	0.5432	6.5643	2.9419
1.7914	1.8738	2.0081	5.7709	4.5868	4.5319	7.6538	5.4688	7.1564	8.3893	7.0679	8.3923	8.5144	2.594	3.5461	8.5358	-5.1178	5.1666	0.5371	6.6711	2.9022
1.9714	2.0477	2.2156	6.0181	4.6967	4.6844	7.8613	5.4962	7.2479	8.5144	7.0313	8.4076	8.6121	2.5818	3.6285	8.6426	-5.1147	5.249	0.5646	6.7993	2.9144
2.0996	2.1942	2.4017	6.2561	4.8279	4.8523	8.0933	5.5481	7.3853	8.6975	7.019	8.4442	8.7433	2.5818	3.7201	8.7463	-5.1025	5.3558	0.5859	6.9275	2.9144
2.2614	2.3346	2.5726	6.4697	4.9225	4.9927	8.313	5.5969	7.5165	8.844	7.0007	8.4686	8.8562	2.5696	3.7994	8.8196	-5.0812	5.4413	0.6073	7.074	2.9114
2.4078	2.475	2.774	6.6925	5.0354	5.1605	8.5236	5.6366	7.6263	8.9905	6.9977	8.5144	8.9813	2.5757	3.8605	8.8806	-5.0873	5.5573	0.6134	7.2174	2.9297
2.5238	2.597	2.9541	6.8939	5.1483	5.3131	8.7433	5.7098	7.7881	9.1461	6.9946	8.5571	9.1217	2.5879	3.9429	8.9783	-5.0995	5.6824	0.6744	7.3425	2.9297
2.6184	2.6947	3.125	7.0709	5.2582	5.4352	8.9417	5.7556	7.9285	9.3109	7.019	8.6243	9.256	2.5696	3.9734	8.9844	-5.0873	5.7831	0.6927	7.4707	2.9907
2.7191	2.8076	3.2776	7.2144	5.3345	5.5695	9.0881	5.7892	8.02	9.4086	7.0129	8.667	9.375	2.5848	4.071	9.0271	-5.0964	5.8594	0.7355	7.5714	3.0182
2.7679	2.9022	3.3936	7.3059	5.4138	5.6732	9.2316	5.8502	8.139	9.5215	7.0496	8.7006	9.5154	2.5787	4.1168	9.0515	-5.1025	5.9265	0.8026	7.6477	3.0975
2.8229	2.9449	3.4851	7.4066	5.4688	5.7465	9.3323	5.8838	8.2275	9.6008	7.0526	8.725	9.6069	2.5757	4.1473	9.0881	-5.0873	5.9662	0.8575	7.7332	3.1342
2.8351	2.9877	3.5522	7.4371	5.4993	5.8014	9.4086	5.9143	8.2916	9.6588	7.0618	8.7433	9.6649	2.5635	4.1718	9.0912	-5.0537	5.9998	0.8606	7.782	3.1647
2.8595	3.0457	3.6438	7.4951	5.5847	5.9052	9.4818	5.9479	8.3527	9.7198	7.0801	8.7402	9.7412	2.533	4.1962	9.1125	-5.014	6.0364	0.9125	7.8278	3.244
2.8564	3.064	3.6804	7.5256	5.6122	5.9265	9.5184	5.9479	8.3801	9.7473	7.0801	8.7646	9.79	2.5085	4.2206	9.1492	-4.9561	6.0272	0.9491	7.8491	3.2867
2.8442	3.0762	3.6987	7.4982	5.6122	5.9601	9.5367	5.9753	8.4229	9.7687	7.1106	8.7585	9.845	2.4689	4.2389	9.1736	-4.8859	6.0181	0.9735	7.8461	3.3295
2.8595	3.0914	3.7445	7.4951	5.658	5.9998	9.5825	5.9906	8.493	9.8053	7.135	8.7708	9.8907	2.4384	4.2633	9.2316	-4.8157	5.9998	1.0406	7.8583	3.4027
2.8748	3.1036	3.7598	7.5043	5.7007	6.0699	9.61	6.0089	8.5266	9.8206	7.1716	8.7799	9.9243	2.4017	4.3152	9.317	-4.7424	5.9753	1.059	7.8644	3.476
2.8717	3.125	3.7872	7.4921	5.719	6.1066	9.6313	6.0364	8.5632	9.8602	7.2083	8.7891	9.9854	2.3621	4.364	9.4055	-4.66	5.957	1.0956	7.8888	3.5492
2.9205	3.1281	3.8513	7.5165	5.7251	6.134	9.6771	6.0944	8.6273	9.9121	7.2723	8.8409	10.0403	2.3285	4.4312	9.5367	-4.5807	5.9753	1.1475	7.9071	3.6224
2.9572	3.1555	3.8849	7.5287	5.7861	6.2073	9.7107	6.1432	8.7067	9.967	7.3486	8.8928	10.1257	2.2705	4.4952	9.6832	-4.4891	5.9875	1.2024	7.9407	3.717
2.9907	3.1799	3.9185	7.5684	5.835	6.2836	9.79	6.1951	8.783	10.0342	7.4249	8.9386	10.2234	2.2278	4.5959	9.848	-4.4067	6.0211	1.2665	7.9773	3.8361
3.0151	3.1921	3.9368	7.5867	5.8441	6.3232	9.8236	6.2256	8.8531	10.08	7.4768	8.9661	10.2478	2.1667	4.6417	9.9792	-4.2877	5.9998	1.2909	7.9773	3.9063
3.0792	3.2196	3.9978	7.6202	5.9052	6.3873	9.8877	6.2805	8.9355	10.1349	7.547	8.9966	10.3333	2.124	4.7272	10.1501	-4.187	6.015	1.3672	7.9865	4.01
3.067	3.1982	4.0131	7.6355	5.9479	6.4667	9.9457	6.3293	8.9874	10.202	7.6111	9.0363	10.3943	2.066	4.8248	10.3363	-4.068	6.0272	1.416	8.0078	4.0985
3.0731	3.2013	4.007	7.6477	5.9601	6.4972	9.9762	6.3751	9.0393	10.2295	7.6721	9.082	10.4401	1.9958	4.8737	10.4919	-3.9429	6.0394	1.4496	8.0048	4.187
3.1158	3.186	4.01	7.6996	5.9875	6.5277	10.0037	6.4056	9.0881	10.26	7.7332	9.1003	10.4553	1.9409	4.9652	10.6628	-3.8269	6.0333	1.4984	8.0292	4.2908
3.1158	3.1464	3.9764	7.7057	6.0089	6.5643	10.0342	6.4362	9.1278	10.2966	7.8003	9.1309	10.4889	1.8799	5.014	10.8002	-3.7048	6.0608	1.5381	8.0627	4.3945
3.1036	3.1036	3.9398	7.7057	5.9967	6.5704	10.0464	6.4484	9.1156	10.2844	7.8247	9.1309	10.5011	1.8097	5.0598	10.9497	-3.5583	6.0333	1.535	8.0292	4.4525
3.0975	3.0334	3.9032	7.7026	5.9937	6.5796	10.0494	6.4484	9.1248	10.2844	7.8735	9.1461	10.498	1.7517	5.0842	11.0413	-3.4363	6.0394	1.5686	8.0597	4.541
3.0731	2.9572	3.8361	7.7179	5.9692	6.5826	10.0342	6.4575	9.1217	10.2753	7.8796	9.1248	10.4797	1.7029	5.1086	11.1511	-3.3234	6.0181	1.5686	8.0353	4.5776
3.0304	2.8625	3.7659	7.7179	5.9296	6.5399	10.0128	6.4209	9.0912	10.2325	7.8583	9.0881	10.437	1.6327	5.1208	11.2213	-3.2166	5.9875	1.5594	8.0078	4.6082
2.948	2.7374	3.6438	7.6965	5.8319	6.4606	9.9762	6.3904	9.0454	10.2234	7.8674	9.0546	10.3851	1.59	5.0781	11.2427	-3.1128	5.9479	1.5137	8.0017	4.6326
2.89	2.6306	3.5675	7.6965	5.7617	6.4301	9.964	6.3416	8.9905	10.1776	7.843	9.0363	10.3424	1.5625	5.0446	11.2762	-3.0579	5.9296	1.5045	7.9803	4.6326
2.8198	2.4933	3.4546	7.666	5.661	6.366	9.9182	6.2561	8.9539	10.1318	7.7728	8.9569	10.2844	1.5411	4.9835	11.2762	-3.0243	5.8716	1.4526	7.9559	4.6051
2.7283	2.3224	3.3417	7.6721	5.5725	6.2988	9.8694	6.1981	8.8654	10.0983	7.7271	8.9172	10.2203	1.5503	4.953	11.2671	-3.0273	5.838	1.3885	7.9468	4.5868
2.6306	2.1912	3.2318	7.6721	5.481	6.25	9.848	6.1279	8.7952	10.0311	7.6477	8.8531	10.1715	1.5747	4.9103	11.2335	-3.0792	5.8197	1.3092	7.9163	4.5319
2.5604	2.0477	3.1281	7.666	5.368	6.2012	9.8267	6.0394	8.725	9.9792	7.5928	8.7982	10.1563	1.6052	4.8645	11.1938	-3.1433	5.7861	1.2573	7.8979	4.4678
2.4658	1.8555	2.9968	7.6508	5.2338	6.0852	9.79	5.9265	8.6334	9.9335	7.5104	8.7433	10.0677	1.6602	4.8096	11.1328	-3.2349	5.777	1.1505	7.901	4.3945
2.3346	1.7059	2.8687	7.6263	5.1147	5.9967	9.7412	5.8533	8.5571	9.8816	7.4097	8.6456	10.0098	1.6876	4.7211	11.0321	-3.3234	5.7587	1.059	7.8552	4.3304
2.2339	1.5381	2.7588	7.6233	4.9957	5.9296	9.6954	5.7343	8.4503	9.8328	7.3242	8.5815	9.9396	1.7456	4.6509	10.9558	-3.4393	5.7434	0.9705	7.8491	4.2267
2.1057	1.413	2.6489	7.6111	4.8798	5.8411	9.6588	5.6396	8.3496	9.7717	7.2174	8.4839	9.8846	1.8097	4.5746	10.8429	-3.5522	5.7434	0.8698	7.8339	4.1199
2.0386	1.2787	2.5238	7.6172	4.7546	5.777	9.6039	5.5298	8.2489	9.7107	7.1167	8.4045	9.8145	1.8707	4.4952	10.7452	-3.6713	5.7404	0.7629	7.8217	4.0436
1.9287	1.1841	2.4567	7.6019	4.6509	5.7159	9.5703	5.426	8.1696	9.6527	7.0343	8.2977	9.7443	1.9318	4.4281	10.6659	-3.8025	5.7556	0.6653	7.8186	3.952
1.8341	1.0681	2.3438	7.5531	4.541	5.6488	9.5184	5.3162	8.0933	9.5886	6.9305	8.2153	9.6863	1.9775	4.3732	10.5682	-3.9001	5.7587	0.5524	7.8125	3.8391
1.7609	0.9949	2.2614	7.547	4.4373	5.6122	9.4849	5.2216	8.0048	9.5123	6.8176	8.1207	9.6252	2.0233	4.3213	10.4736	-4.0009	5.7892	0.47	7.8003	3.7598
1.709	0.9033	2.1881	7.5287	4.3701	5.5756	9.4299	5.1422	7.9071	9.4513	6.7108	8.0231	9.5306	2.066	4.306	10.4034	-4.0619	5.7861	0.3723	7.7789	3.6407
1.6357	0.8453	2.1606	7.5043	4.2847	5.5359	9.3689	5.0415	7.84	9.3689	6.6101	7.9132	9.4574	2.0905	4.2664	10.3119	-4.1321	5.7831	0.2899	7.7789	3.5461
1.6235	0.8209	2.121	7.5134	4.2236	5.542	9.3384	4.9835	7.8064	9.3323	6.5125	7.8461	9.4025	2.1271	4.2206	10.257	-4.1901	5.8167	0.2319	7.782	3.4851
1.59	0.8209	2.121	7.5012	4.1656	5.5359	9.2773	4.9133	7.7423	9.2682	6.4209	7.7545	9.3384	2.1362	4.2328	10.2203	-4.2114	5.8167	0.1556	7.7789	3.3813
1.5961	0.7874	2.1393	7.486	4.129	5.542	9.2651	4.8492	7.6904	9.2163	6.3354	7.6904	9.2834	2.1454	4.2389	10.2203	-4.2542	5.8411	0.0885	7.8094	3.3051
1.5991	0.8423	2.1698	7.5165	4.1534	5.6274	9.2499	4.837	7.6935	9.1766	6.2775	7.6508	9.2529	2.1881	4.2969	10.2295	-4.3243	5.8868	0.0702	7.8369	3.2349
1.651	0.8514	2.2156	7.5134	4.1443	5.6641	9.2651	4.8065	7.6874	9.1522	6.2073	7.6233	9.2224	2.2247	4.3427	10.2478	-4.3823	5.9174	0.0153	7.8674	3.1708
1.712	0.9155	2.301	7.5226	4.1656	5.7526	9.2712	4.7974	7.7026	9.137	6.1615	7.5836	9.1949	2.2705	4.422	10.318	-4.4708	5.9662	-0.0244	7.8979	3.0884
1.767	0.9644	2.3529	7.5562	4.1809	5.835	9.259	4.7729	7.6904	9.1125	6.073	7.5439	9.1797	2.3041	4.4952	10.376	-4.5441	6.0181	-0.0671	7.9407	2.9785
1.8341	1.0529	2.4567	7.5439	4.1962	5.9265	9.2499	4.7729	7.724	9.1034	6.0028	7.5226	9.1522	2.3529	4.5898	10.4675	-4.6387	6.0669	-0.0946	7.9681	2.9144
1.8646	1.1078	2.5208	7.5867	4.2206	5.9998	9.2377	4.776	7.724	9.0759	5.9387	7.4829	9.137	2.3895	4.6661	10.5347	-4.718	6.1005	-0.1495	8.02	2.8198
1.9409	1.1597	2.6184	7.5958	4.2542	6.1035	9.2407	4.7241	7.7301	9.0515	5.8594	7.4554	9.0942	2.4353	4.7852	10.6476	-4.8126	6.1371	-0.1648	8.0627	2.7344
2.002	1.2207	2.7405	7.6263	4.2633	6.1737	9.2346	4.7119	7.7362	9.0485	5.78	7.4127	9.0759	2.4689	4.8676	10.7361	-4.8889	6.1676	-0.2289	8.0811	2.6428
2.0538	1.2909	2.7924	7.6202	4.2816	6.2408	9.2285	4.6936	7.724	8.9996	5.6824	7.3486	9.021	2.5146	4.9408	10.8002	-4.9469	6.1798	-0.2899	8.0841	2.5421
2.1057	1.3367	2.8961	7.6355	4.2816	6.3263	9.201	4.6417	7.7301	8.9539	5.603	7.2998	8.96	2.5604	5.0476	10.91	-5.0354	6.1737	-0.3143	8.0841	2.4536
2.1698	1.3947	2.951	7.6416	4.2938	6.3721	9.1644	4.5746	7.6996	8.9081	5.4596	7.1991	8.8989	2.5818	5.1025	11.0016	-5.0964	6.1768	-0.3815	8.0933	2.3468
2.2217	1.4557	3.0273	7.6508	4.2786	6.4148	9.1156	4.5349	7.6721	8.844	5.3802	7.1472	8.8104	2.6123	5.1788	11.0809	-5.1605	6.1523	-0.4547	8.0811	2.243
2.2491	1.474	3.1067	7.6752	4.2603	6.4484	9.1339	4.483	7.6385	8.7921	5.2734	7.0526	8.725	2.6459	5.2765	11.145	-5.2032	6.1279	-0.4913	8.0872	2.1667
2.2858	1.4984	3.1219	7.6752	4.248	6.4758	9.082	4.425	7.608	8.7189	5.1331	6.9336	8.6121	2.6672	5.3345	11.2274	-5.2368	6.0822	-0.5737	8.0383	2.0721
2.3224	1.5411	3.186	7.7179	4.2358	6.4941	9.082	4.3732	7.5745	8.667	5.0171	6.839	8.5144	2.6672	5.426	11.2793	-5.2704	6.0669	-0.6165	8.0109	1.9958
2.3071	1.5472	3.2288	7.7118	4.2206	6.5155	9.0454	4.2664	7.5165	8.609	4.8889	6.7291	8.4137	2.6794	5.4932	11.3495	-5.2856	5.9967	-0.6836	7.9681	1.9073
2.3315	1.5564	3.2623	7.7515	4.1748	6.5186	9.0363	4.1962	7.4615	8.5449	4.7668	6.6193	8.3038	2.7008	5.5756	11.4075	-5.3192	5.9357	-0.7538	7.9132	1.8066
2.3376	1.5411	3.2715	7.7728	4.1351	6.5155	9.021	4.1077	7.4005	8.4839	4.6417	6.5094	8.2214	2.7222	5.6427	11.4166	-5.3528	5.8807	-0.827	7.8644	1.7273
2.3438	1.5442	3.2806	7.782	4.0833	6.5308	9.0088	4.0314	7.3517	8.4442	4.5044	6.4026	8.139	2.7374	5.7129	11.438	-5.3864	5.8136	-0.8881	7.8125	1.6327
2.3315	1.4771	3.2959	7.8003	4.0253	6.4911	9.0027	3.9185	7.2876	8.4045	4.3488	6.2653	8.0475	2.7344	5.7495	11.4594	-5.3986	5.7556	-0.9552	7.7515	1.5381
2.3132	1.4313	3.2593	7.8186	3.9398	6.4484	9.0027	3.8086	7.2174	8.3649	4.2175	6.1615	7.9651	2.7405	5.7739	11.4594	-5.4077	5.7007	-1.0284	7.6965	1.4404
2.24	1.3672	3.2227	7.84	3.8513	6.4056	8.9569	3.7262	7.1564	8.313	4.0802	6.0547	7.8857	2.7527	5.7739	11.4807	-5.4077	5.6427	-1.1169	7.6385	1.358
2.2095	1.3397	3.2074	7.84	3.7903	6.3782	8.9325	3.6285	7.0984	8.3191	3.9764	5.957	7.8552	2.7405	5.7709	11.4594	-5.3894	5.6	-1.1963	7.5867	1.2909
2.124	1.2543	3.1494	7.8217	3.6713	6.3141	8.9264	3.5278	7.0435	8.313	3.8696	5.8594	7.8186	2.7191	5.7068	11.441	-5.3375	5.5756	-1.2848	7.547	1.2177
2.0721	1.1963	3.1311	7.8491	3.6255	6.2714	8.9325	3.4515	6.9794	8.316	3.7567	5.7648	7.7698	2.6947	5.6793	11.4655	-5.3131	5.5267	-1.3489	7.5104	1.1505
1.9989	1.1261	3.0914	7.8522	3.5431	6.2439	8.9325	3.3478	6.9183	8.3008	3.6713	5.6763	7.7454	2.6489	5.6366	11.4624	-5.2277	5.5176	-1.416	7.4768	1.0986
1.947	1.0681	3.0396	7.8827	3.4698	6.189	8.9264	3.2379	6.8573	8.2825	3.5706	5.5664	7.7087	2.6123	5.5664	11.4929	-5.1575	5.4901	-1.4832	7.4524	1.0406
1.8799	1.0376	3.0273	7.9041	3.4088	6.1646	8.9447	3.1647	6.8024	8.2977	3.4943	5.481	7.6874	2.5665	5.5084	11.5082	-5.0659	5.4779	-1.5381	7.4371	0.9857
1.8097	0.9796	2.9816	7.9102	3.36	6.131	8.9569	3.067	6.72	8.2764	3.4088	5.3772	7.6691	2.5238	5.4321	11.5356	-4.9622	5.4657	-1.59	7.4371	0.9338
1.7578	0.946	2.951	7.9254	3.2867	6.0699	8.9661	3.006	6.6833	8.3344	3.3234	5.2948	7.6508	2.4689	5.3925	11.557	-4.8553	5.4688	-1.6418	7.4249	0.8575
1.7517	0.9338	2.948	7.959	3.2532	6.0516	8.9966	2.9572	6.662	8.3557	3.2745	5.2307	7.6599	2.4017	5.3619	11.5662	-4.7363	5.4749	-1.6907	7.3975	0.8209
1.7212	0.9399	2.9388	8.0078	3.2227	6.0272	9.0302	2.8931	6.6132	8.3557	3.2166	5.1483	7.6416	2.3315	5.3741	11.5997	-4.5959	5.4596	-1.7151	7.3853	0.7751
1.7395	0.9369	2.951	8.0353	3.183	6.0303	9.0424	2.8687	6.5491	8.3801	3.1616	5.0659	7.6447	2.2552	5.3528	11.6058	-4.4281	5.4352	-1.7548	7.373	0.7202
1.7456	0.9735	2.951	8.0933	3.1799	6.0333	9.1064	2.8107	6.5369	8.4198	3.125	5.0018	7.6477	2.1698	5.3802	11.6394	-4.2725	5.4565	-1.7395	7.3486	0.6958
1.7548	1.0071	2.9816	8.1421	3.1647	6.012	9.1309	2.8015	6.5002	8.4351	3.0823	4.953	7.6599	2.0844	5.3894	11.6211	-4.0924	5.4504	-1.77	7.3578	0.6439
1.8066	1.0254	2.9999	8.1848	3.1738	6.0242	9.1553	2.7649	6.485	8.4412	3.0182	4.8828	7.6385	1.9867	5.4138	11.5997	-3.894	5.4352	-1.7761	7.3395	0.592
1.8829	1.0925	3.0579	8.2367	3.1708	6.0303	9.2133	2.771	6.4453	8.4869	2.9968	4.8462	7.6416	1.8921	5.4565	11.6455	-3.714	5.4626	-1.7578	7.3517	0.5493
1.9531	1.1658	3.1097	8.2886	3.183	6.0272	9.2529	2.7771	6.4423	8.5114	2.9694	4.8126	7.6385	1.8036	5.4901	11.6333	-3.5309	5.4413	-1.7426	7.3517	0.5219
2.0233	1.2604	3.183	8.3618	3.2471	6.0883	9.2865	2.8107	6.4606	8.5175	2.9877	4.776	7.6752	1.7029	5.5237	11.5967	-3.3417	5.4382	-1.7151	7.373	0.5219
2.0996	1.3275	3.241	8.3893	3.2898	6.0944	9.2926	2.8259	6.4423	8.5419	2.9846	4.7455	7.666	1.6083	5.5664	11.5906	-3.1494	5.4077	-1.6785	7.3517	0.5157
2.1637	1.416	3.3264	8.4747	3.3569	6.1401	9.3384	2.8778	6.4697	8.5785	2.9999	4.7241	7.6782	1.5167	5.5511	11.5997	-2.9694	5.4047	-1.6357	7.428	0.5341
2.2766	1.5228	3.421	8.5663	3.4241	6.1981	9.3842	2.9266	6.4911	8.5876	3.0365	4.7028	7.6843	1.4282	5.5573	11.5753	-2.8198	5.3619	-1.59	7.4371	0.5524
2.356	1.6113	3.479	8.609	3.4943	6.2408	9.3964	2.9907	6.5094	8.5938	3.0334	4.6692	7.6874	1.3794	5.5634	11.5509	-2.6886	5.3406	-1.5656	7.4646	0.5585
2.4658	1.7181	3.5797	8.6945	3.5767	6.2714	9.3933	3.0487	6.5338	8.5876	3.064	4.6722	7.6935	1.3214	5.5481	11.5601	-2.6001	5.3223	-1.5076	7.5043	0.6104
2.5757	1.828	3.6804	8.7311	3.6499	6.3263	9.4086	3.1097	6.5674	8.609	3.1006	4.657	7.6813	1.3062	5.5084	11.5356	-2.5299	5.2948	-1.4404	7.5409	0.6287
2.655	1.9409	3.7628	8.8135	3.7567	6.3629	9.4238	3.2074	6.604	8.606	3.1372	4.6539	7.6874	1.2878	5.4962	11.5479	-2.4933	5.2887	-1.3794	7.5836	0.6805
2.7649	2.0233	3.8452	8.8531	3.8452	6.4117	9.3964	3.244	6.6162	8.5754	3.1586	4.6021	7.6508	1.2634	5.4657	11.5295	-2.4658	5.2307	-1.3214	7.5684	0.705
2.8534	2.124	3.9215	8.8715	3.9459	6.4575	9.3842	3.3051	6.6162	8.5175	3.1982	4.5746	7.6172	1.2543	5.4474	11.5631	-2.4567	5.2032	-1.2878	7.5836	0.7416
2.9083	2.182	3.9948	8.9172	4.0283	6.5002	9.3536	3.3905	6.6315	8.49	3.2318	4.538	7.5806	1.2573	5.4321	11.5906	-2.4536	5.13	-1.239	7.5897	0.7599
3.0212	2.2858	4.0924	8.963	4.1321	6.5582	9.3384	3.4546	6.662	8.4534	3.2562	4.5013	7.5348	1.2665	5.4535	11.6608	-2.475	5.1025	-1.1841	7.5989	0.7996
3.067	2.3407	4.1534	8.9783	4.2114	6.5887	9.317	3.5095	6.6528	8.4015	3.2715	4.4678	7.4799	1.2817	5.484	11.7157	-2.5055	5.0293	-1.1627	7.5714	0.8118
3.1311	2.3926	4.2542	9.0179	4.2694	6.6071	9.256	3.5736	6.662	8.3405	3.2715	4.4312	7.4188	1.3123	5.4871	11.7645	-2.5604	4.9683	-1.1566	7.5562	0.7965
3.2104	2.4414	4.3335	9.024	4.3488	6.6376	9.2224	3.6194	6.6315	8.2855	3.2593	4.3701	7.3547	1.3397	5.5359	11.8561	-2.6123	4.9286	-1.1444	7.5317	0.7843
3.2471	2.4658	4.3732	9.0485	4.4037	6.6589	9.198	3.6499	6.6315	8.2306	3.2806	4.3427	7.2968	1.358	5.6	11.9202	-2.6581	4.8615	-1.1414	7.5104	0.7568
3.3173	2.5116	4.4434	9.082	4.4342	6.6803	9.1614	3.6743	6.6101	8.1665	3.2501	4.2847	7.2021	1.3824	5.6396	11.9812	-2.7161	4.776	-1.1536	7.431	0.7294
3.3875	2.5513	4.5074	9.137	4.4739	6.6772	9.1278	3.7018	6.6101	8.1329	3.2379	4.2389	7.1411	1.4008	5.7098	12.0544	-2.7679	4.7302	-1.1749	7.4005	0.6958
3.4332	2.5818	4.5807	9.1705	4.5227	6.72	9.1278	3.7415	6.6223	8.0963	3.2318	4.1931	7.077	1.4313	5.7495	12.1063	-2.8076	4.6722	-1.1749	7.373	0.6561
3.4851	2.5848	4.6173	9.198	4.541	6.7139	9.1034	3.7506	6.5948	8.0414	3.2043	4.129	6.9794	1.4465	5.8014	12.149	-2.8229	4.6143	-1.1902	7.3181	0.5981
3.5431	2.6093	4.6753	9.2651	4.5471	6.7352	9.1003	3.7537	6.5674	7.9956	3.1738	4.0924	6.9183	1.4435	5.8746	12.2223	-2.8351	4.541	-1.2482	7.2723	0.5432
3.598	2.6306	4.7272	9.314	4.6112	6.7749	9.137	3.772	6.5552	7.9773	3.1219	4.0344	6.8481	1.4496	5.9235	12.2498	-2.8473	4.4983	-1.2726	7.2571	0.4974
3.6041	2.6215	4.7546	9.3628	4.5929	6.7688	9.1309	3.7415	6.5216	7.9346	3.0792	3.9612	6.7719	1.4404	5.9357	12.3169	-2.832	4.425	-1.3092	7.196	0.4395
3.6438	2.6337	4.8035	9.4177	4.6173	6.778	9.14	3.7659	6.5094	7.8949	3.0457	3.894	6.6956	1.4252	5.9723	12.3535	-2.8046	4.364	-1.3458	7.1625	0.3815
3.6835	2.6123	4.8492	9.4635	4.5837	6.7871	9.1614	3.7231	6.488	7.8613	2.9755	3.8177	6.601	1.4252	5.9875	12.439	-2.7863	4.3182	-1.3641	7.1228	0.3448
3.6896	2.5757	4.834	9.4666	4.5471	6.7627	9.1553	3.6835	6.4636	7.843	2.9083	3.7323	6.5033	1.4038	6.0089	12.5153	-2.7466	4.2542	-1.4221	7.0862	0.2899
3.7018	2.5909	4.8645	9.5337	4.541	6.7871	9.1919	3.6835	6.4575	7.8461	2.8595	3.6591	6.4575	1.3855	6.0303	12.5885	-2.713	4.2084	-1.4801	7.0709	0.235
3.7323	2.5635	4.895	9.6069	4.5105	6.7963	9.259	3.6621	6.4575	7.8613	2.8229	3.6194	6.4087	1.3794	6.076	12.7106	-2.6947	4.1687	-1.4923	7.0465	0.1984
3.7537	2.533	4.953	9.668	4.4861	6.8146	9.317	3.6285	6.4362	7.8613	2.7649	3.5675	6.3477	1.3641	6.1157	12.7808	-2.6489	4.129	-1.5167	7.0496	0.1373
3.7933	2.5635	5.011	9.7504	4.4922	6.8695	9.4086	3.6011	6.4575	7.9132	2.7405	3.5583	6.3477	1.3489	6.1981	12.9272	-2.6398	4.1199	-1.5289	7.0648	0.1282
3.8666	2.5635	5.0598	9.8541	4.4983	6.9183	9.5032	3.6011	6.5033	7.9529	2.7069	3.5309	6.3263	1.3458	6.2744	13.0798	-2.6154	4.0833	-1.5533	7.0801	0.0732
3.9246	2.5757	5.1239	9.9335	4.5197	6.9855	9.6039	3.5889	6.5491	8.0414	2.6855	3.5309	6.3477	1.3367	6.366	13.2355	-2.6215	4.0771	-1.5717	7.1136	0.0458
3.9764	2.5787	5.2032	10.0342	4.5074	7.0251	9.7046	3.5706	6.5613	8.0902	2.6154	3.5248	6.3263	1.3245	6.4484	13.3911	-2.6031	4.0375	-1.6022	7.1228	-0.0061
4.0375	2.5696	5.2399	10.1105	4.4891	7.0587	9.7839	3.5156	6.601	8.1512	2.5696	3.5034	6.3263	1.3062	6.546	13.5468	-2.5848	3.9795	-1.6388	7.1381	-0.0977
4.1107	2.5818	5.3131	10.2142	4.4769	7.0984	9.906	3.4729	6.6315	8.2092	2.5238	3.4821	6.3232	1.3	6.6223	13.681	-2.5574	3.9307	-1.6998	7.1411	-0.1709
4.1931	2.5879	5.3802	10.2783	4.5044	7.1564	10.0098	3.4698	6.6803	8.2611	2.4567	3.4729	6.3232	1.297	6.7047	13.8214	-2.5391	3.8849	-1.7181	7.1564	-0.235
4.2603	2.5879	5.4596	10.3729	4.4891	7.1838	10.1135	3.4515	6.7261	8.3435	2.4323	3.4882	6.3293	1.3062	6.7749	13.9404	-2.5452	3.8391	-1.7303	7.1594	-0.2899
4.3518	2.6306	5.5298	10.4858	4.541	7.2571	10.2295	3.4393	6.7871	8.3984	2.417	3.5309	6.3354	1.3153	6.8695	14.0686	-2.5574	3.8147	-1.7761	7.1808	-0.3326
4.4189	2.6733	5.6274	10.553	4.541	7.3029	10.3271	3.421	6.8054	8.4717	2.3712	3.5248	6.3263	1.3245	6.9031	14.1388	-2.6031	3.7781	-1.7944	7.1869	-0.3845
4.5074	2.71	5.722	10.675	4.5685	7.3853	10.4889	3.421	6.8726	8.551	2.3529	3.5461	6.3446	1.358	6.9824	14.1907	-2.6642	3.7445	-1.8494	7.2357	-0.4181
4.599	2.7557	5.7953	10.7666	4.6051	7.428	10.5652	3.421	6.9061	8.6029	2.3315	3.5431	6.3446	1.413	7.0251	14.2517	-2.7588	3.7109	-1.8616	7.251	-0.4639
4.6906	2.774	5.8716	10.8551	4.6173	7.4707	10.6476	3.4027	6.9489	8.6487	2.2858	3.5339	6.2988	1.4648	7.0404	14.2822	-2.8717	3.6835	-1.8982	7.2784	-0.5157
4.7272	2.7771	5.9357	10.91	4.6143	7.4921	10.7391	3.3997	6.9519	8.6823	2.2278	3.5126	6.2683	1.535	7.0526	14.2883	-3.006	3.6652	-1.8951	7.309	-0.5402
4.8279	2.8137	5.9631	10.9772	4.6356	7.5317	10.8215	3.36	6.9763	8.7006	2.1942	3.5095	6.2469	1.59	7.0709	14.2853	-3.1464	3.656	-1.9226	7.3486	-0.589
4.895	2.8473	6.0455	11.0748	4.6478	7.5714	10.907	3.3539	6.9916	8.728	2.1454	3.5034	6.2134	1.6846	7.0679	14.2731	-3.3173	3.6499	-1.9531	7.4066	-0.65
4.9347	2.887	6.0883	11.1053	4.6844	7.6141	10.9436	3.3417	6.9916	8.7219	2.1149	3.4821	6.1615	1.767	7.0374	14.2426	-3.4821	3.6346	-1.9562	7.428	-0.6805
5.0171	2.9663	6.1401	11.1664	4.7089	7.663	11.026	3.3508	7.0251	8.7524	2.0874	3.5034	6.1584	1.886	7.0526	14.2365	-3.6865	3.6407	-1.9775	7.5195	-0.7111
5.0659	2.9755	6.1981	11.2122	4.7272	7.7026	11.0748	3.3417	7.0496	8.786	2.0813	3.5034	6.1035	1.9623	7.0343	14.212	-3.8483	3.6133	-2.0172	7.5592	-0.7355
5.1239	3.0548	6.2561	11.2762	4.7821	7.7545	11.142	3.3875	7.0892	8.8043	2.0905	3.537	6.1005	2.066	7.0313	14.1968	-4.0619	3.6316	-2.0111	7.6355	-0.7782
5.1849	3.0762	6.3141	11.3251	4.8035	7.8064	11.1786	3.3783	7.1198	8.8043	2.0477	3.5431	6.0333	2.1515	7.0038	14.1724	-4.2328	3.6316	-2.0416	7.663	-0.7996
5.2063	3.1586	6.3629	11.3678	4.8431	7.8583	11.2335	3.4241	7.1777	8.8196	2.0538	3.5553	6.012	2.2308	7.0465	14.1846	-4.4189	3.656	-2.0416	7.7148	-0.8087
5.2704	3.2257	6.3995	11.3861	4.892	7.9254	11.264	3.4515	7.2174	8.8379	2.0508	3.595	5.9814	2.3285	7.0557	14.1815	-4.6021	3.6743	-2.0416	7.7637	-0.8636
5.2795	3.2776	6.4178	11.4014	4.8889	7.9468	11.2732	3.4607	7.2266	8.8165	1.9928	3.6194	5.957	2.417	7.0465	14.1205	-4.7607	3.6713	-2.0844	7.7942	-0.9033
5.2948	3.3112	6.4484	11.4349	4.9347	7.9895	11.2885	3.4882	7.2815	8.8135	1.9897	3.6133	5.9235	2.5146	7.0465	14.09	-4.9438	3.6835	-2.0935	7.8033	-0.9521
5.2979	3.36	6.4514	11.4044	4.9713	8.0231	11.2823	3.4729	7.2845	8.7982	1.9653	3.6102	5.8655	2.597	7.0587	14.0717	-5.1117	3.6713	-2.1088	7.8094	-0.9979
5.3162	3.4271	6.4484	11.4105	4.9896	8.0322	11.2793	3.479	7.2906	8.7708	1.9348	3.6194	5.835	2.6672	7.0953	14.0259	-5.2704	3.6865	-2.1332	7.8339	-1.0254
5.304	3.4332	6.424	11.38	4.9988	8.0536	11.2457	3.476	7.2845	8.6975	1.8951	3.5919	5.7709	2.7344	7.0923	13.9893	-5.3986	3.6713	-2.1423	7.7881	-1.0681
5.304	3.4943	6.4423	11.3678	5.0171	8.0597	11.2213	3.4943	7.2906	8.6639	1.8768	3.5858	5.7129	2.8168	7.1228	13.913	-5.5511	3.6682	-2.1454	7.7789	-1.0986
5.2673	3.5309	6.4331	11.319	5.0049	8.0627	11.1633	3.4515	7.2723	8.5846	1.8097	3.537	5.6244	2.8625	7.0984	13.8306	-5.6458	3.6285	-2.182	7.7362	-1.1261
5.246	3.5431	6.3965	11.2854	5.0232	8.0536	11.1176	3.4454	7.2571	8.5083	1.7822	3.5187	5.5573	2.8992	7.1198	13.8062	-5.719	3.6102	-2.1759	7.6965	-1.1566
5.1788	3.5431	6.3507	11.1938	4.9805	8.0231	11.026	3.4027	7.2083	8.4229	1.7181	3.4698	5.4382	2.9175	7.0892	13.7451	-5.7465	3.5522	-2.2034	7.6263	-1.1963
5.1727	3.5492	6.308	11.1237	4.9835	7.9956	10.9375	3.3752	7.1808	8.3466	1.6632	3.3844	5.3528	2.9114	7.077	13.681	-5.7587	3.4912	-2.2003	7.5439	-1.236
5.1147	3.54	6.2805	11.0382	4.9316	7.9376	10.8521	3.3295	7.1381	8.2672	1.6113	3.3234	5.2612	2.9144	7.0862	13.678	-5.7526	3.4363	-2.1881	7.5195	-1.2512
5.0781	3.5126	6.2256	11.0016	4.8828	7.8979	10.7819	3.2715	7.077	8.1909	1.5228	3.2532	5.1483	2.887	7.0679	13.6261	-5.6915	3.3661	-2.2125	7.3975	-1.3
5.0232	3.5156	6.2012	10.9222	4.8645	7.8827	10.7147	3.2227	7.0374	8.1085	1.4709	3.186	5.0751	2.8442	7.0465	13.5773	-5.6091	3.3295	-2.2217	7.3517	-1.3184
4.9622	3.476	6.1768	10.8368	4.8096	7.8308	10.6262	3.186	6.9885	8.0292	1.4282	3.1281	4.9927	2.7802	7.0404	13.5681	-5.4932	3.2562	-2.2522	7.2876	-1.358
4.9133	3.421	6.1218	10.7635	4.7363	7.7789	10.5469	3.1342	6.9641	7.9651	1.3641	3.064	4.9072	2.713	7.0282	13.5498	-5.3589	3.2196	-2.2552	7.2296	-1.4038
4.8981	3.4119	6.0974	10.6964	4.7028	7.7454	10.4736	3.0792	6.9	7.9193	1.3123	2.9999	4.8706	2.6428	7.0282	13.5284	-5.2002	3.1799	-2.2766	7.1777	-1.4069
4.8462	3.3691	6.0394	10.6476	4.657	7.7026	10.4187	3.0151	6.842	7.8369	1.2665	2.9358	4.8065	2.5604	7.0129	13.5406	-5.0262	3.125	-2.2766	7.1167	-1.4435
4.7882	3.3325	6.015	10.5621	4.599	7.6355	10.3516	2.9755	6.8024	7.7911	1.2054	2.8809	4.7455	2.4597	7.0251	13.5406	-4.8492	3.0945	-2.3041	7.0648	-1.4587
4.7852	3.3295	6.0242	10.5499	4.5807	7.6233	10.3088	2.9633	6.7719	7.7545	1.1993	2.8442	4.715	2.3834	7.0038	13.6078	-4.6875	3.0853	-2.2858	7.0557	-1.4648
4.7729	3.3203	6.012	10.5225	4.5593	7.5989	10.2936	2.9449	6.7566	7.7301	1.1871	2.8198	4.6539	2.2949	7.0404	13.6292	-4.5288	3.064	-2.2522	7.0099	-1.4435
4.7546	3.3478	6.0394	10.5225	4.5593	7.5958	10.2631	2.948	6.7535	7.7026	1.2177	2.8076	4.6417	2.2369	7.0496	13.6871	-4.4067	3.0609	-2.2186	7.0221	-1.3855
4.7577	3.3386	6.0303	10.4858	4.5807	7.5989	10.2478	2.9785	6.7261	7.666	1.2268	2.7863	4.6051	2.1515	7.0984	13.736	-4.2664	3.0304	-2.1759	6.9885	-1.3275
4.7638	3.3264	6.0272	10.4645	4.5776	7.5806	10.1868	2.9694	6.7169	7.6202	1.236	2.7527	4.5563	2.0966	7.0953	13.7543	-4.1473	2.9938	-2.1271	6.958	-1.2848
4.7577	3.3508	6.0577	10.4828	4.5959	7.5684	10.1837	3.006	6.72	7.6202	1.2634	2.7344	4.538	2.0508	7.1106	13.7848	-4.068	2.9816	-2.0844	6.9489	-1.1993
4.7607	3.3569	6.0699	10.4919	4.5654	7.5531	10.1471	3.0182	6.7047	7.5867	1.2787	2.7008	4.4769	2.0233	7.1564	13.8062	-3.9856	2.9388	-2.0294	6.9153	-1.1475
4.7852	3.3569	6.0791	10.4919	4.5776	7.5317	10.1563	3.0273	6.6772	7.5439	1.2909	2.6703	4.425	1.9836	7.1625	13.8275	-3.9185	2.9022	-1.9806	6.9061	-1.0956
4.7699	3.3691	6.1066	10.5377	4.5837	7.55	10.144	3.064	6.6772	7.5409	1.2817	2.6306	4.3945	1.9684	7.196	13.8458	-3.8818	2.8687	-1.9348	6.897	-1.0315
4.776	3.3447	6.131	10.5194	4.5837	7.5256	10.1105	3.0457	6.6528	7.5104	1.2787	2.6062	4.3427	1.9409	7.2266	13.8336	-3.8513	2.7954	-1.9012	6.8604	-0.9918
4.7729	3.3539	6.1584	10.5194	4.5776	7.5256	10.1257	3.0731	6.6254	7.5134	1.2878	2.5757	4.2908	1.9318	7.2449	13.8245	-3.8208	2.7374	-1.886	6.8268	-0.9491
4.7913	3.36	6.1859	10.5591	4.5654	7.5195	10.144	3.0548	6.604	7.4615	1.2604	2.5543	4.2419	1.9226	7.2601	13.8062	-3.7872	2.655	-1.8799	6.8054	-0.943
4.8035	3.3539	6.1951	10.5865	4.5441	7.4982	10.1471	3.0426	6.5857	7.4585	1.2268	2.5024	4.184	1.8921	7.2479	13.7695	-3.7292	2.5757	-1.8677	6.7474	-0.9247
4.8065	3.3417	6.2378	10.6232	4.5502	7.4951	10.1929	3.0487	6.5979	7.4921	1.236	2.4841	4.1412	1.8921	7.2662	13.736	-3.7109	2.5299	-1.828	6.7535	-0.882
4.837	3.3478	6.2622	10.6506	4.5471	7.4921	10.1837	3.0823	6.5948	7.5043	1.2299	2.4689	4.1138	1.8707	7.2357	13.7299	-3.6774	2.4689	-1.8005	6.7474	-0.882
4.8615	3.3569	6.3171	10.7086	4.5685	7.5104	10.2509	3.0701	6.5826	7.5134	1.2421	2.4536	4.1168	1.8616	7.254	13.7268	-3.6621	2.4231	-1.7944	6.7352	-0.8667
4.8615	3.3539	6.3232	10.7574	4.5441	7.5043	10.2814	3.064	6.5948	7.5317	1.2146	2.4139	4.1046	1.8524	7.1869	13.7024	-3.653	2.3956	-1.7761	6.7413	-0.8484
4.892	3.3752	6.3568	10.8063	4.5563	7.5134	10.3394	3.0762	6.6284	7.605	1.2177	2.4384	4.1199	1.8677	7.1655	13.681	-3.6621	2.3682	-1.7609	6.7444	-0.8301
4.9377	3.4088	6.4026	10.8856	4.5959	7.5653	10.4156	3.0975	6.6254	7.6538	1.1932	2.4292	4.1382	1.8738	7.1686	13.6871	-3.7048	2.356	-1.7334	6.7566	-0.8148
4.9683	3.4393	6.4606	10.9528	4.6112	7.5745	10.498	3.1036	6.6559	7.7423	1.2085	2.4292	4.184	1.9043	7.1228	13.6902	-3.7384	2.356	-1.7242	6.7902	-0.8057
5.0537	3.476	6.546	11.0565	4.6478	7.6111	10.5957	3.1311	6.6711	7.8156	1.2207	2.4353	4.2175	1.9409	7.1259	13.739	-3.7964	2.3865	-1.6998	6.8604	-0.8026
5.1056	3.5217	6.6254	11.1755	4.6875	7.6691	10.6964	3.1403	6.6925	7.9102	1.2299	2.4261	4.2664	1.9623	7.132	13.797	-3.8574	2.4109	-1.6815	6.9	-0.8148
5.2094	3.5797	6.723	11.2915	4.7089	7.7118	10.7635	3.1708	6.7474	8.0017	1.2299	2.4323	4.3121	1.9684	7.1686	13.8702	-3.891	2.4261	-1.6663	6.9397	-0.7904
5.3131	3.6469	6.8207	11.4014	4.7729	7.7698	10.8612	3.2104	6.7963	8.1116	1.239	2.4323	4.3915	2.002	7.1655	13.9526	-3.952	2.4841	-1.6632	7.0068	-0.8057
5.4535	3.7445	6.9183	11.5356	4.8462	7.8461	10.9955	3.2745	6.8207	8.197	1.2665	2.4628	4.48	2.0447	7.196	14.0594	-4.0436	2.5482	-1.5991	7.077	-0.8179
5.5756	3.83	7.0618	11.6608	4.9316	7.9163	11.0809	3.299	6.8787	8.3008	1.2909	2.4994	4.5593	2.0844	7.2113	14.1602	-4.1107	2.5787	-1.6144	7.135	-0.8148
5.7098	3.9307	7.1808	11.792	4.9652	7.9651	11.145	3.3234	6.8787	8.3893	1.2848	2.4933	4.5959	2.1179	7.2174	14.2731	-4.1901	2.6154	-1.5961	7.1777	-0.8392
5.8868	4.0436	7.312	11.911	5.0323	8.0475	11.2335	3.3691	6.9366	8.4595	1.3123	2.5269	4.6875	2.1667	7.2571	14.3921	-4.2816	2.6672	-1.5717	7.2418	-0.8423
6.0577	4.1626	7.4829	12.0331	5.1056	8.1238	11.319	3.4363	6.9916	8.5724	1.3519	2.5696	4.7607	2.2003	7.2968	14.505	-4.3579	2.71	-1.5503	7.3181	-0.8636
6.2225	4.2847	7.6355	12.1643	5.1819	8.2062	11.3953	3.4637	7.0343	8.6487	1.3611	2.6184	4.8492	2.243	7.3822	14.6759	-4.4342	2.7802	-1.5503	7.3639	-0.9094
6.4056	4.4373	7.785	12.3016	5.2551	8.2825	11.4807	3.5187	7.0709	8.7372	1.355	2.6398	4.9225	2.2736	7.4615	14.7888	-4.4983	2.7954	-1.5137	7.4036	-0.9308
6.5918	4.5746	7.9681	12.4237	5.3314	8.3618	11.5417	3.5736	7.1472	8.8257	1.4008	2.7069	5.0201	2.2888	7.5531	14.9109	-4.5288	2.8534	-1.5106	7.4524	-0.9521
6.7352	4.7363	8.139	12.5458	5.4016	8.4564	11.5967	3.6224	7.1869	8.8898	1.4069	2.7405	5.0934	2.2919	7.6477	15.0391	-4.5441	2.8656	-1.474	7.5073	-0.9888
6.9	4.8218	8.3038	12.6373	5.4474	8.4839	11.6089	3.656	7.2388	8.9508	1.4313	2.7893	5.1544	2.2797	7.7545	15.1672	-4.5044	2.8931	-1.4404	7.5378	-0.9979
7.0648	4.9561	8.4564	12.7411	5.5054	8.551	11.6638	3.6926	7.2723	9.0057	1.4404	2.8107	5.188	2.2461	7.8705	15.2924	-4.4586	2.9022	-1.4252	7.5409	-1.0529
7.2205	5.0964	8.6151	12.8326	5.5847	8.5876	11.7218	3.7415	7.3212	9.079	1.4465	2.8259	5.2338	2.2125	8.0048	15.4175	-4.3823	2.9114	-1.4374	7.5592	-1.0895
7.3456	5.2002	8.7555	12.912	5.6	8.6334	11.7065	3.7506	7.309	9.082	1.4313	2.8168	5.2643	2.1454	8.0811	15.5121	-4.2572	2.8564	-1.4313	7.5348	-1.1353
7.4951	5.365	8.8806	13.0066	5.6671	8.6792	11.7523	3.7689	7.3212	9.0942	1.4404	2.8534	5.2734	2.1149	8.2275	15.6342	-4.1534	2.8473	-1.4008	7.5256	-1.1597
7.6111	5.4688	9.0302	13.0859	5.6732	8.6884	11.7462	3.7842	7.312	9.1003	1.4313	2.8168	5.2429	2.0172	8.3466	15.7349	-3.9917	2.7679	-1.3641	7.5012	-1.178
7.7515	5.5725	9.1339	13.147	5.7007	8.6945	11.731	3.772	7.2815	9.0881	1.4099	2.7832	5.2094	1.9409	8.4534	15.8417	-3.83	2.71	-1.355	7.4768	-1.2177
7.9071	5.7007	9.256	13.2202	5.722	8.7067	11.734	3.772	7.2693	9.0546	1.3763	2.7405	5.1758	1.8463	8.5815	15.9668	-3.6407	2.6031	-1.3702	7.4402	-1.2512
8.017	5.777	9.3781	13.2721	5.7434	8.7311	11.7126	3.7628	7.2327	9.0088	1.3611	2.6764	5.1331	1.7517	8.7372	16.0614	-3.4546	2.5055	-1.3397	7.3853	-1.2939
8.1421	5.8838	9.4727	13.3087	5.7465	8.7097	11.6913	3.7323	7.1777	8.9691	1.3062	2.6001	5.0354	1.651	8.8806	16.1774	-3.2684	2.3987	-1.3336	7.3242	-1.3245
8.255	5.9448	9.5703	13.3728	5.7373	8.7097	11.6699	3.6926	7.1228	8.9081	1.2726	2.533	4.9408	1.5747	8.9905	16.2872	-3.1006	2.2736	-1.3458	7.251	-1.3702
8.3618	6.0089	9.6436	13.4125	5.7465	8.7036	11.6425	3.6346	7.0435	8.8348	1.2085	2.4353	4.8431	1.4893	9.1125	16.3635	-2.9388	2.1576	-1.3367	7.196	-1.3947
8.4595	6.0364	9.726	13.4369	5.7037	8.67	11.6028	3.5858	6.9733	8.7646	1.1322	2.356	4.7394	1.4099	9.2163	16.4337	-2.7802	2.0203	-1.3611	7.0984	-1.4282
8.5083	6.0455	9.7687	13.4491	5.658	8.6426	11.5631	3.5156	6.897	8.6914	1.0681	2.2461	4.6204	1.3336	9.3048	16.4917	-2.6001	1.8921	-1.3885	7.0435	-1.4496
8.5907	6.073	9.8267	13.4766	5.6427	8.5999	11.499	3.4485	6.8115	8.609	0.9796	2.1423	4.5319	1.2512	9.4116	16.5283	-2.4536	1.7731	-1.3824	6.9366	-1.5198
8.6365	6.0638	9.8389	13.4766	5.5725	8.5266	11.4685	3.3752	6.6956	8.5236	0.8911	2.0386	4.4128	1.1719	9.4604	16.5131	-2.2949	1.6296	-1.416	6.8542	-1.5228
8.6853	6.076	9.8846	13.4796	5.5176	8.4839	11.4227	3.2898	6.6101	8.4351	0.7996	1.944	4.3091	1.1078	9.5367	16.5344	-2.1759	1.532	-1.4038	6.8024	-1.5839
8.7463	6.0669	9.8999	13.4583	5.4565	8.4534	11.3739	3.1921	6.5369	8.3405	0.7141	1.8463	4.1992	1.062	9.6069	16.5405	-2.0721	1.416	-1.4404	6.7383	-1.6144
8.7524	6.0333	9.906	13.4399	5.3833	8.3832	11.3098	3.0823	6.3934	8.2489	0.5981	1.7303	4.0894	1.0376	9.6527	16.51	-2.005	1.2939	-1.4771	6.6803	-1.6785
8.7891	5.9845	9.9091	13.4033	5.2826	8.2977	11.2274	2.9663	6.2683	8.1177	0.4822	1.5991	3.9459	1.0071	9.7168	16.5253	-1.9562	1.1871	-1.5106	6.5826	-1.7517
8.8257	5.954	9.8969	13.3728	5.1666	8.2184	11.1664	2.8595	6.1279	8.0017	0.3601	1.4893	3.8269	0.9918	9.787	16.5039	-1.9379	1.0864	-1.5564	6.5369	-1.8341
8.8531	5.8868	9.8633	13.3179	5.0781	8.1329	11.0748	2.7039	5.9937	7.8735	0.2106	1.3489	3.6957	1.004	9.8328	16.4978	-1.9653	0.9766	-1.5869	6.4758	-1.8982
8.844	5.8228	9.8511	13.2599	4.9469	8.017	10.9619	2.5818	5.8777	7.7881	0.0946	1.2085	3.5522	1.0406	9.8694	16.4917	-2.0111	0.8789	-1.6357	6.4056	-1.9775
8.8379	5.7343	9.7748	13.1683	4.8035	7.8949	10.8704	2.42	5.719	7.6385	-0.0916	1.0406	3.3783	1.0651	9.9274	16.4917	-2.0721	0.7477	-1.7181	6.3416	-2.0905
8.8715	5.6488	9.7595	13.0981	4.6844	7.8033	10.7788	2.2736	5.5756	7.489	-0.235	0.8942	3.2501	1.12	9.9487	16.4825	-2.182	0.6805	-1.7731	6.2805	-2.1942
8.8776	5.5786	9.7137	13.0615	4.5532	7.7026	10.6842	2.0874	5.426	7.3517	-0.3784	0.7477	3.1097	1.181	9.9792	16.4886	-2.3041	0.5737	-1.8158	6.2561	-2.3102
8.8837	5.4932	9.6832	12.973	4.4067	7.5714	10.5804	1.9501	5.2765	7.2113	-0.5371	0.6287	2.9785	1.2634	10.0159	16.5009	-2.4506	0.4822	-1.9165	6.192	-2.42
8.8806	5.3986	9.6252	12.9242	4.2725	7.4738	10.4858	1.7883	5.1605	7.0892	-0.6653	0.4822	2.832	1.3245	10.0922	16.5344	-2.6031	0.3906	-1.9714	6.1554	-2.5269
8.8928	5.307	9.5886	12.8448	4.1504	7.3761	10.4065	1.6418	5.0385	6.9733	-0.8148	0.3723	2.7039	1.4008	10.1257	16.568	-2.7435	0.3052	-2.063	6.1127	-2.6611
8.8928	5.2216	9.5184	12.7411	4.0009	7.254	10.2997	1.5015	4.9255	6.8634	-0.9369	0.2472	2.5482	1.4557	10.1624	16.5894	-2.8748	0.1984	-2.1149	6.073	-2.7557
8.8867	5.1331	9.4666	12.6678	3.9032	7.1991	10.2417	1.3855	4.8584	6.781	-1.0468	0.1648	2.4597	1.532	10.2386	16.6718	-3.0182	0.116	-2.1759	6.0303	-2.8595
8.9203	5.0751	9.4421	12.6404	3.8239	7.1228	10.1563	1.3062	4.7943	6.6956	-1.123	0.116	2.3712	1.5991	10.3058	16.7175	-3.1464	0.0336	-2.182	5.9906	-2.9327
8.9081	4.9988	9.4147	12.5427	3.7109	7.0618	10.083	1.2054	4.7302	6.5979	-1.1993	0.0519	2.298	1.651	10.3638	16.8335	-3.2318	-0.058	-2.2308	5.957	-3.0182
8.8959	4.95	9.3781	12.4847	3.6224	7.0099	10.0342	1.1322	4.6722	6.5247	-1.2695	-0.0153	2.2156	1.6754	10.437	16.9403	-3.3173	-0.1099	-2.24	5.9235	-3.067
8.8989	4.9011	9.3323	12.4329	3.5278	6.9244	9.9609	1.0651	4.6143	6.4423	-1.3092	-0.061	2.1393	1.7303	10.5011	17.038	-3.3844	-0.1831	-2.2705	5.9082	-3.1158
8.8654	4.834	9.2926	12.3688	3.4821	6.8848	9.8938	1.001	4.5685	6.3751	-1.3519	-0.0977	2.0844	1.7517	10.556	17.1692	-3.4546	-0.2594	-2.2614	5.8746	-3.1097
8.8715	4.7913	9.2529	12.2864	3.4027	6.8115	9.8236	0.9583	4.5319	6.2927	-1.3702	-0.119	2.0233	1.7792	10.6506	17.2852	-3.4973	-0.296	-2.2522	5.8472	-3.1464
8.8165	4.7241	9.1888	12.1857	3.3386	6.7383	9.7504	0.8972	4.4617	6.2042	-1.4282	-0.1648	1.9592	1.7761	10.6781	17.3737	-3.5156	-0.3662	-2.2491	5.8075	-3.1555
8.7677	4.657	9.1187	12.0972	3.2745	6.6681	9.6497	0.8423	4.4067	6.1218	-1.4587	-0.2045	1.9104	1.7975	10.7422	17.4835	-3.5156	-0.4028	-2.2278	5.7739	-3.1433
8.6792	4.5563	9.0118	11.9812	3.183	6.5735	9.5398	0.7996	4.3396	6.0089	-1.4893	-0.2899	1.8372	1.77	10.7361	17.569	-3.4882	-0.4761	-2.243	5.7007	-3.1525
8.6029	4.4769	8.9142	11.8469	3.0914	6.4636	9.3994	0.7202	4.245	5.8868	-1.5778	-0.3906	1.7334	1.7456	10.7269	17.6575	-3.4424	-0.5554	-2.2705	5.6427	-3.186
8.493	4.3579	8.7921	11.7126	2.9846	6.3232	9.2377	0.6348	4.129	5.7495	-1.6693	-0.4974	1.6235	1.7212	10.7361	17.7185	-3.3875	-0.6378	-2.2919	5.5695	-3.241
8.3923	4.2603	8.6792	11.557	2.8473	6.1707	9.0515	0.5219	3.9825	5.5786	-1.7303	-0.5859	1.5045	1.6876	10.6995	17.7612	-3.3447	-0.6958	-2.3438	5.4718	-3.2867
8.252	4.129	8.5327	11.3831	2.7435	6.0303	8.8531	0.4333	3.8544	5.4382	-1.8127	-0.708	1.3916	1.6785	10.6384	17.7948	-3.3081	-0.7629	-2.3804	5.4047	-3.3142
8.1116	3.9856	8.3405	11.2213	2.5909	5.8563	8.667	0.3021	3.6774	5.2429	-1.9226	-0.8362	1.236	1.6632	10.5957	17.8192	-3.2623	-0.8331	-2.478	5.304	-3.4088
7.9742	3.8422	8.1696	11.0626	2.4506	5.6885	8.4808	0.1862	3.5309	5.0842	-2.0233	-0.9552	1.0864	1.6357	10.5103	17.8101	-3.2288	-0.8942	-2.5299	5.2246	-3.5156
7.8766	3.7506	8.0292	10.9039	2.3224	5.545	8.2825	0.0916	3.3661	4.9072	-2.121	-1.059	0.9674	1.6205	10.4614	17.8101	-3.1921	-0.9491	-2.6245	5.1422	-3.5858
7.7118	3.5919	7.8644	10.73	2.182	5.3467	8.0719	-0.0427	3.1982	4.7241	-2.2308	-1.1932	0.8179	1.6052	10.4034	17.7704	-3.1525	-1.0193	-2.6855	5.0659	-3.6896
7.605	3.5065	7.6996	10.5927	2.0477	5.1819	7.8796	-0.1404	3.0426	4.5593	-2.3407	-1.3	0.6836	1.5869	10.379	17.7704	-3.125	-1.0559	-2.7405	4.9591	-3.8055
