"FZ"	"FC3"	"FCZ"	"FC4"	"C3"	"CZ"	"C4"	"CP3"	"CPZ"	"CP4"	"P3"	"PZ"	"P4"	"OZ"	"FP1"	"FP2"	"A2"	"P8"	"TP7"	"TP8"	"P7"
-1.5817	-1.9032	-1.5419	-0.8193	-1.5675	-1.2119	-0.2276	-0.8051	-0.6344	0.2247	-0.5832	-0.2219	0.5832	0.3613	-0.8791	-0.404	-0.8677	1.3485	-0.7795	0.6458	-0.458
-1.6244	-1.9317	-1.5647	-0.8506	-1.6329	-1.246	-0.2361	-0.8193	-0.6657	0.2105	-0.6259	-0.2589	0.5747	0.5263	-0.9502	-0.4637	-0.8762	1.3598	-0.8079	0.6486	-0.4865
-1.6472	-1.9544	-1.559	-0.8677	-1.6614	-1.2773	-0.256	-0.8563	-0.7055	0.2105	-0.6372	-0.2703	0.569	0.3357	-1.0412	-0.5434	-0.8648	1.3826	-0.8478	0.6515	-0.4979
-1.6898	-1.9914	-1.6187	-0.8762	-1.6756	-1.3086	-0.276	-0.8819	-0.7539	0.2077	-0.6515	-0.3044	0.5547	-0.1223	-1.0782	-0.6287	-0.8591	1.3826	-0.8876	0.6401	-0.5121
-1.7012	-2.0227	-1.6415	-0.8848	-1.7211	-1.3513	-0.3016	-0.9075	-0.7681	0.2134	-0.6657	-0.2987	0.5462	-0.7539	-1.1379	-0.7141	-0.8563	1.3399	-0.9217	0.6429	-0.5291
-1.724	-2.0369	-1.6586	-0.9047	-1.724	-1.3285	-0.3016	-0.9303	-0.7738	0.2191	-0.6771	-0.3101	0.5348	-1.3684	-1.1493	-0.8222	-0.8563	1.3456	-0.9075	0.6515	-0.5007
-1.7354	-2.0369	-1.6586	-0.9132	-1.7581	-1.3456	-0.3357	-0.9189	-0.8051	0.1935	-0.6714	-0.3385	0.5007	-1.8435	-1.1294	-0.9331	-0.825	1.2916	-0.9047	0.5832	-0.4865
-1.7297	-2.017	-1.6472	-0.9473	-1.7467	-1.3485	-0.3272	-0.9445	-0.7823	0.1906	-0.6429	-0.3158	0.4836	-2.0625	-1.1408	-1.0099	-0.7994	1.2773	-0.8848	0.5804	-0.4523
-1.6898	-2.0085	-1.6273	-0.9217	-1.7354	-1.3371	-0.3385	-0.9104	-0.7937	0.1678	-0.6344	-0.3215	0.4666	-2.0654	-1.1038	-1.0924	-0.7681	1.2347	-0.8904	0.5661	-0.4296
-1.6358	-1.943	-1.5761	-0.8819	-1.6586	-1.2717	-0.3016	-0.8648	-0.7283	0.1792	-0.5547	-0.2731	0.4637	-1.8634	-1.0554	-1.1607	-0.734	1.2204	-0.825	0.5462	-0.3613
-1.5903	-1.9089	-1.5163	-0.8762	-1.6045	-1.2261	-0.2703	-0.8079	-0.6941	0.1906	-0.5206	-0.2361	0.4779	-1.5362	-1.0213	-1.2233	-0.7112	1.1835	-0.7852	0.532	-0.3016
-1.522	-1.815	-1.448	-0.7994	-1.5277	-1.1465	-0.256	-0.734	-0.6372	0.2134	-0.458	-0.1707	0.5149	-1.1379	-0.9673	-1.2432	-0.6742	1.1465	-0.7084	0.5092	-0.2048
-1.4054	-1.7581	-1.3712	-0.7425	-1.4423	-1.0611	-0.1849	-0.6742	-0.5832	0.2532	-0.3897	-0.1166	0.5092	-0.6657	-0.9217	-1.2546	-0.6429	1.1465	-0.6287	0.5291	-0.1479
-1.3342	-1.6813	-1.3058	-0.6657	-1.3655	-1.0042	-0.1536	-0.569	-0.5291	0.2589	-0.3072	-0.0683	0.532	-0.1821	-0.8848	-1.2375	-0.5775	1.1095	-0.5804	0.5064	-0.0797
-1.2631	-1.6017	-1.2119	-0.6145	-1.2745	-0.9303	-0.1053	-0.4779	-0.4666	0.3016	-0.2077	-0.0114	0.5377	0.3641	-0.7909	-1.2091	-0.5178	1.0754	-0.4836	0.5178	0.0256
-1.1408	-1.5163	-1.1095	-0.5235	-1.1721	-0.8563	-0.0569	-0.3954	-0.3755	0.3471	-0.0996	0.074	0.5747	0.9132	-0.7027	-1.1266	-0.4609	1.0498	-0.4011	0.5434	0.0996
-1.0754	-1.4509	-1.0099	-0.4296	-1.0611	-0.7624	0.0085	-0.2845	-0.3072	0.3812	0.0114	0.1565	0.5946	1.3456	-0.5917	-1.0384	-0.3897	1.0213	-0.3016	0.5633	0.202
-0.9815	-1.3769	-0.9331	-0.3556	-0.9786	-0.6913	0.0313	-0.1963	-0.2333	0.3954	0.0996	0.2247	0.5832	1.5732	-0.4836	-0.899	-0.3272	0.9729	-0.202	0.5633	0.2902
-0.8791	-1.3115	-0.8478	-0.2902	-0.8705	-0.623	0.0683	-0.0939	-0.1821	0.4324	0.1878	0.2503	0.5974	1.5277	-0.3414	-0.7397	-0.2646	0.936	-0.128	0.5547	0.3556
-0.8165	-1.2233	-0.7681	-0.2219	-0.771	-0.5291	0.0882	-0.0228	-0.1252	0.458	0.2617	0.3016	0.5974	1.1522	-0.2191	-0.5633	-0.2162	0.8848	-0.0427	0.5576	0.4239
-0.7254	-1.1579	-0.6998	-0.1622	-0.7027	-0.4808	0.1223	0.0541	-0.0853	0.4552	0.3328	0.3471	0.5889	0.5291	-0.0967	-0.3727	-0.165	0.8279	0.0228	0.5547	0.4836
-0.6913	-1.1067	-0.6372	-0.0996	-0.6202	-0.4353	0.1223	0.0882	-0.0711	0.4239	0.3897	0.3613	0.5405	-0.2276	-0.0114	-0.202	-0.1195	0.7567	0.0768	0.5291	0.5092
-0.6316	-1.0384	-0.5747	-0.0597	-0.5348	-0.3897	0.1024	0.1593	-0.0541	0.3926	0.4153	0.3585	0.5291	-0.9957	0.0825	-0.0541	-0.0597	0.7141	0.1252	0.495	0.5206
-0.6116	-0.9843	-0.569	0.0057	-0.4836	-0.3755	0.0882	0.1821	-0.0569	0.3585	0.4523	0.3528	0.4694	-1.5618	0.1422	0.0853	0	0.6116	0.1678	0.4324	0.532
-0.586	-0.8933	-0.4979	0.037	-0.4125	-0.3471	0.0541	0.2162	-0.0654	0.3016	0.4865	0.3613	0.441	-1.9373	0.2105	0.165	0.037	0.5291	0.2247	0.3954	0.5377
-0.5604	-0.825	-0.4722	0.074	-0.3442	-0.3272	0.0199	0.2503	-0.0711	0.2447	0.4979	0.3499	0.3926	-2.1137	0.2674	0.2447	0.0853	0.4495	0.2475	0.3186	0.5291
-0.5007	-0.7397	-0.4495	0.1138	-0.2703	-0.2987	0.0256	0.2902	-0.0484	0.2219	0.5178	0.3414	0.33	-2.1109	0.33	0.2788	0.1252	0.3556	0.2731	0.2503	0.5263
-0.4836	-0.6572	-0.4466	0.1394	-0.2333	-0.3016	-0.0427	0.3101	-0.0939	0.1422	0.5263	0.2788	0.2503	-1.963	0.367	0.3101	0.1707	0.239	0.3129	0.1678	0.4922
-0.4267	-0.6003	-0.4239	0.1166	-0.1764	-0.293	-0.0654	0.3186	-0.0654	0.0825	0.5291	0.2617	0.1792	-1.7183	0.3641	0.2788	0.2191	0.1536	0.3585	0.0853	0.4808
-0.4011	-0.5035	-0.3926	0.1394	-0.1195	-0.2845	-0.1024	0.3385	-0.091	0.0171	0.5121	0.2304	0.1081	-1.3428	0.4011	0.2304	0.276	0.0512	0.3357	-0.0256	0.4438
-0.3556	-0.4324	-0.3784	0.128	-0.0654	-0.2873	-0.1508	0.3442	-0.1252	-0.0512	0.5035	0.1935	0.0398	-0.7795	0.4125	0.2077	0.3158	-0.0484	0.3698	-0.1195	0.3897
-0.3101	-0.3471	-0.3385	0.1394	-0.0228	-0.2873	-0.1849	0.3243	-0.1309	-0.1166	0.4836	0.1536	-0.0597	-0.1991	0.4466	0.1394	0.367	-0.1678	0.3983	-0.2276	0.3841
-0.2617	-0.2987	-0.3613	0.0711	-0.0199	-0.3158	-0.2361	0.3385	-0.1593	-0.1906	0.4324	0.074	-0.1366	0.3983	0.4239	0.0455	0.4153	-0.2788	0.3698	-0.3016	0.3158
-0.2276	-0.2077	-0.3357	0.0654	0.0541	-0.2902	-0.2589	0.3499	-0.1565	-0.2447	0.441	0.074	-0.1906	0.9189	0.4609	-0.0341	0.4296	-0.3585	0.421	-0.367	0.3101
-0.1878	-0.1366	-0.3186	0.0541	0.0597	-0.3044	-0.2674	0.33	-0.1792	-0.2987	0.3926	0.0142	-0.2731	1.2034	0.4552	-0.1195	0.4637	-0.4552	0.421	-0.458	0.256
-0.1309	-0.0569	-0.3044	-0.0028	0.1053	-0.2987	-0.293	0.3243	-0.2048	-0.3442	0.3613	-0.0427	-0.3328	1.1351	0.4637	-0.2304	0.495	-0.5377	0.4296	-0.5291	0.1963
-0.1166	0.0284	-0.2816	-0.0541	0.165	-0.276	-0.3186	0.3243	-0.2105	-0.3954	0.3442	-0.0541	-0.3897	0.8165	0.5178	-0.3471	0.5149	-0.6145	0.4296	-0.5661	0.1451
-0.0711	0.1138	-0.2703	-0.0484	0.1991	-0.2589	-0.3129	0.3186	-0.202	-0.4523	0.2959	-0.1109	-0.4609	0.2646	0.532	-0.4267	0.5491	-0.6856	0.4324	-0.6116	0.1024
-0.0427	0.2162	-0.2247	-0.0853	0.2475	-0.2418	-0.3243	0.3072	-0.2361	-0.4694	0.2589	-0.1479	-0.5064	-0.33	0.5633	-0.5092	0.569	-0.7567	0.4722	-0.6543	0.0825
0.0256	0.3158	-0.2077	-0.1166	0.3129	-0.2162	-0.3072	0.3101	-0.2219	-0.5235	0.239	-0.1707	-0.5633	-0.825	0.5946	-0.5974	0.6031	-0.8279	0.4609	-0.6742	0.0455
0.0569	0.4153	-0.1536	-0.0996	0.3641	-0.1707	-0.2646	0.3072	-0.202	-0.5206	0.2077	-0.1991	-0.5661	-1.1067	0.6088	-0.6629	0.6173	-0.8904	0.5035	-0.6714	0.037
0.1195	0.5377	-0.0797	-0.0882	0.4523	-0.1166	-0.2418	0.3585	-0.1707	-0.5377	0.2162	-0.1792	-0.586	-1.1692	0.6344	-0.7169	0.6287	-0.9246	0.5291	-0.6714	0.0256
0.1821	0.6287	-0.0171	-0.1109	0.5064	-0.0711	-0.1935	0.3641	-0.1508	-0.5291	0.1935	-0.1935	-0.6031	-1.0185	0.6372	-0.7197	0.6543	-0.9616	0.5633	-0.6629	0.0256
0.239	0.7539	0.0541	-0.0853	0.5889	-0.0171	-0.1479	0.3727	-0.1109	-0.5206	0.1678	-0.1849	-0.606	-0.7283	0.6572	-0.6998	0.6685	-0.9957	0.5832	-0.6742	-0.0142
0.3243	0.8705	0.1565	-0.0654	0.6515	0.0654	-0.0996	0.4011	-0.0768	-0.5121	0.1508	-0.1991	-0.5747	-0.3897	0.7027	-0.6657	0.6714	-1.0469	0.6202	-0.6458	-0.0142
0.421	0.9729	0.2361	-0.0228	0.7368	0.1479	-0.0427	0.421	-0.0256	-0.4722	0.165	-0.1508	-0.569	0.0114	0.7254	-0.5832	0.6657	-1.0583	0.623	-0.6344	-0.0171
0.5035	1.0981	0.3499	-0.0171	0.8051	0.2418	0.0171	0.4239	0.0114	-0.421	0.1593	-0.1394	-0.5604	0.4922	0.7795	-0.4637	0.6572	-1.0498	0.66	-0.6173	-0.0284
0.5917	1.2091	0.4552	0.0284	0.8848	0.3272	0.0939	0.4779	0.0825	-0.3983	0.1735	-0.1138	-0.5235	1.0583	0.8591	-0.3328	0.623	-1.0298	0.6998	-0.586	-0.0085
0.6856	1.3485	0.5633	0.0825	0.9587	0.4239	0.1422	0.4979	0.1479	-0.33	0.1878	-0.0711	-0.4922	1.6472	0.9303	-0.1906	0.6003	-1.0156	0.7112	-0.569	-0.0085
0.7681	1.4623	0.6714	0.1366	1.0441	0.5377	0.2361	0.5348	0.2219	-0.2646	0.2304	-0.0085	-0.4381	2.2304	0.99	-0.0142	0.5576	-0.9929	0.7425	-0.5263	-0.0085
0.8791	1.559	0.7852	0.1821	1.1123	0.6259	0.3101	0.5661	0.2589	-0.2048	0.2247	0.0199	-0.3841	2.6855	1.0583	0.1366	0.5121	-0.9473	0.734	-0.4979	0.0028
0.9929	1.6699	0.9246	0.2532	1.1835	0.7283	0.3812	0.6287	0.3442	-0.1366	0.2646	0.0711	-0.3186	2.9046	1.1266	0.3385	0.4552	-0.9104	0.7283	-0.4637	0
1.0839	1.7439	1.0156	0.33	1.2688	0.8335	0.4722	0.6429	0.4097	-0.0541	0.2703	0.1223	-0.2646	2.8193	1.1351	0.4865	0.4153	-0.8563	0.734	-0.4353	0.0114
1.1664	1.8207	1.1209	0.3812	1.3172	0.9047	0.5121	0.7084	0.4381	0	0.3101	0.1622	-0.2134	2.4523	1.1209	0.6429	0.3556	-0.8079	0.6913	-0.4068	0.0256
1.2347	1.8691	1.2204	0.4523	1.3655	0.9843	0.5775	0.7197	0.4893	0.0853	0.3072	0.1963	-0.1394	1.8975	1.1067	0.734	0.2845	-0.751	0.66	-0.3784	0.0199
1.3371	1.9317	1.3058	0.5121	1.4224	1.1095	0.66	0.7823	0.5519	0.1764	0.3414	0.2532	-0.0768	1.3314	1.0611	0.8364	0.202	-0.7027	0.66	-0.3471	0.0427
1.4139	1.98	1.394	0.5633	1.4679	1.1692	0.7226	0.788	0.6088	0.2247	0.3641	0.2703	-0.0341	0.8762	1.0014	0.8791	0.128	-0.6458	0.6173	-0.3243	0.0427
1.4537	2.0113	1.4537	0.6515	1.5192	1.2005	0.7823	0.8449	0.6316	0.2987	0.3869	0.2987	0.0228	0.6173	0.9445	0.9388	0.0398	-0.5775	0.6344	-0.3129	0.074
1.5277	2.0483	1.4992	0.7226	1.5647	1.2717	0.8193	0.8392	0.6828	0.3186	0.404	0.3414	0.0541	0.5832	0.9331	0.9416	-0.037	-0.5035	0.569	-0.2674	0.0597
1.5647	2.0796	1.5874	0.7937	1.6216	1.3285	0.8762	0.8819	0.7197	0.3841	0.4353	0.3869	0.1366	0.7084	0.8961	0.9872	-0.1195	-0.4125	0.5633	-0.2247	0.0853
1.5903	2.0824	1.6244	0.8591	1.6216	1.357	0.899	0.8904	0.7539	0.4267	0.4495	0.3897	0.1764	0.9502	0.8335	0.9644	-0.1878	-0.3328	0.5206	-0.1849	0.074
1.6472	2.0796	1.6728	0.9445	1.6529	1.4167	0.9388	0.899	0.788	0.4666	0.4893	0.4182	0.2191	1.2574	0.8079	0.9843	-0.2674	-0.2589	0.5092	-0.1565	0.1109
1.6472	2.0625	1.6927	0.9985	1.6529	1.4281	0.9416	0.9018	0.8023	0.5007	0.5206	0.4324	0.2361	1.5817	0.7852	0.9758	-0.3129	-0.1991	0.495	-0.1223	0.1366
1.6642	2.0369	1.7069	1.0526	1.6415	1.4281	0.9587	0.8933	0.8222	0.5235	0.5064	0.4353	0.2674	1.98	0.7368	0.9786	-0.3755	-0.1479	0.4609	-0.0683	0.1422
1.6273	2.0028	1.7183	1.0981	1.6415	1.4224	0.953	0.8762	0.8449	0.5434	0.5348	0.4694	0.293	2.4238	0.6998	1.0014	-0.4097	-0.0683	0.4495	-0.0085	0.165
1.6045	1.9886	1.7183	1.1493	1.6017	1.4423	0.9559	0.8535	0.8591	0.5491	0.5519	0.4609	0.3044	2.8505	0.6515	1.0014	-0.4438	-0.037	0.3954	0.037	0.1565
1.5448	1.8805	1.6699	1.1379	1.5305	1.3854	0.9274	0.8051	0.8506	0.5405	0.5348	0.4381	0.3016	3.2147	0.6031	1.0128	-0.4609	0.0085	0.367	0.0597	0.1593
1.4879	1.8036	1.6443	1.1579	1.4623	1.3712	0.8819	0.7567	0.8563	0.5235	0.5121	0.4267	0.2731	3.3939	0.569	1.0327	-0.458	0.0341	0.3215	0.0797	0.1707
1.4708	1.7297	1.6301	1.1863	1.4082	1.3485	0.8591	0.7084	0.8449	0.5121	0.4979	0.4097	0.276	3.3313	0.5263	1.0213	-0.458	0.0626	0.3044	0.1109	0.1906
1.4082	1.5903	1.5448	1.1465	1.3229	1.2745	0.7823	0.6316	0.8051	0.4666	0.4666	0.3755	0.2162	2.9786	0.4808	0.9957	-0.4438	0.0541	0.2503	0.1309	0.165
1.3598	1.4964	1.5135	1.1607	1.229	1.2432	0.751	0.5775	0.771	0.4438	0.4381	0.3556	0.1878	2.4523	0.4523	1.0185	-0.4381	0.0768	0.2191	0.128	0.1821
1.2916	1.394	1.4452	1.1465	1.1778	1.1892	0.6998	0.5064	0.7482	0.4097	0.3897	0.3101	0.1508	1.7923	0.3983	1.0213	-0.4097	0.0711	0.2134	0.1394	0.1707
1.229	1.2574	1.3883	1.1095	1.0583	1.1209	0.6401	0.421	0.7226	0.3755	0.3641	0.276	0.1138	1.1835	0.3698	1.0441	-0.3926	0.0256	0.1878	0.1366	0.1707
1.1436	1.118	1.3115	1.0583	0.9388	1.0611	0.5804	0.3556	0.6799	0.3215	0.3357	0.2361	0.0853	0.7141	0.3158	1.0498	-0.3556	0.0512	0.1678	0.165	0.1593
1.0611	0.9929	1.2375	0.9929	0.8193	1.0014	0.5035	0.2617	0.606	0.2703	0.2646	0.202	0.0455	0.4666	0.2873	1.0583	-0.3129	0.0114	0.1223	0.1536	0.1394
0.9559	0.8421	1.1038	0.8961	0.697	0.8904	0.4068	0.1622	0.5348	0.1764	0.1735	0.1138	-0.0284	0.4011	0.2589	1.0384	-0.2617	-0.0171	0.1195	0.1536	0.0939
0.8478	0.6913	1.0298	0.8165	0.586	0.8108	0.3613	0.0996	0.495	0.1508	0.1195	0.0597	-0.0683	0.4808	0.2304	1.027	-0.202	-0.0512	0.0654	0.1394	0.0853
0.771	0.569	0.9502	0.7169	0.4722	0.7283	0.2589	0.0085	0.4125	0.1024	0.0597	0.0171	-0.1138	0.6372	0.2048	1.0071	-0.1479	-0.0512	0.0398	0.1309	0.0683
0.6429	0.4097	0.825	0.5775	0.3357	0.6344	0.165	-0.0996	0.3442	0.037	-0.0199	-0.0512	-0.1849	0.8762	0.1479	0.9758	-0.0882	-0.0768	-0.0142	0.1479	0.0398
0.5348	0.2902	0.7112	0.4666	0.2304	0.5661	0.091	-0.1678	0.276	-0.0171	-0.091	-0.1166	-0.2077	1.1863	0.1309	0.9502	-0.0228	-0.0825	-0.0284	0.1366	0.0228
0.4153	0.1366	0.6031	0.3357	0.1081	0.4694	-0.0171	-0.2617	0.1849	-0.091	-0.1764	-0.1764	-0.2447	1.5277	0.0626	0.899	0.0512	-0.1451	-0.0654	0.1223	-0.0228
0.3129	-0.0114	0.4836	0.1735	-0.0256	0.3499	-0.1223	-0.3698	0.1053	-0.1479	-0.2333	-0.2361	-0.3243	1.9146	-0.0085	0.8449	0.1081	-0.1678	-0.1166	0.1138	-0.0654
0.2048	-0.1309	0.367	0.0569	-0.1053	0.256	-0.202	-0.4125	0.0398	-0.1991	-0.3072	-0.2902	-0.3499	2.2787	-0.0597	0.7994	0.1593	-0.1821	-0.1565	0.1053	-0.0882
0.1081	-0.2503	0.2418	-0.091	-0.2134	0.1394	-0.2873	-0.4694	-0.0142	-0.2503	-0.3698	-0.3499	-0.3755	2.5063	-0.0967	0.7425	0.2077	-0.1906	-0.2304	0.0967	-0.1337
0.0199	-0.3499	0.1337	-0.1991	-0.3044	0.0512	-0.3897	-0.5377	-0.1138	-0.3186	-0.4466	-0.4097	-0.4125	2.4949	-0.1735	0.6856	0.2589	-0.239	-0.2503	0.074	-0.165
-0.0541	-0.4267	0.037	-0.2959	-0.3897	-0.0256	-0.4722	-0.5974	-0.1622	-0.3641	-0.495	-0.4438	-0.4239	2.2247	-0.239	0.6173	0.2788	-0.239	-0.3243	0.0711	-0.2077
-0.1081	-0.5007	-0.0654	-0.3954	-0.4722	-0.1337	-0.5405	-0.6771	-0.2134	-0.4097	-0.5547	-0.4523	-0.4381	1.65	-0.3158	0.5519	0.3158	-0.2816	-0.3727	0.0455	-0.239
-0.1792	-0.5491	-0.1337	-0.4751	-0.5035	-0.1707	-0.5974	-0.6742	-0.2788	-0.458	-0.5974	-0.4694	-0.4523	0.9246	-0.4068	0.4751	0.3272	-0.276	-0.4239	0.0313	-0.2617
-0.2532	-0.6031	-0.2276	-0.5434	-0.5633	-0.2503	-0.66	-0.7311	-0.3186	-0.4836	-0.6515	-0.4922	-0.4722	0.1565	-0.5092	0.3641	0.3499	-0.293	-0.4893	0.0028	-0.2873
-0.2788	-0.6145	-0.2845	-0.5974	-0.5804	-0.3243	-0.7254	-0.751	-0.33	-0.4922	-0.6799	-0.4865	-0.4438	-0.4836	-0.5974	0.2333	0.3528	-0.3072	-0.5405	-0.037	-0.2987
-0.3243	-0.6287	-0.3585	-0.6344	-0.6401	-0.3442	-0.7539	-0.7596	-0.3556	-0.5092	-0.7141	-0.5064	-0.4466	-0.8961	-0.7454	0.0882	0.3471	-0.3186	-0.606	-0.0768	-0.3215
-0.3841	-0.6458	-0.4296	-0.697	-0.6344	-0.4153	-0.771	-0.788	-0.3926	-0.5291	-0.734	-0.5092	-0.4153	-1.1209	-0.8307	-0.0654	0.33	-0.3158	-0.6344	-0.1195	-0.3442
-0.4466	-0.6657	-0.495	-0.6856	-0.66	-0.441	-0.788	-0.8222	-0.4097	-0.532	-0.751	-0.4779	-0.3841	-1.1379	-0.9587	-0.2646	0.3215	-0.3072	-0.6799	-0.1849	-0.3499
-0.4922	-0.6799	-0.5348	-0.6941	-0.697	-0.4979	-0.7994	-0.8335	-0.4011	-0.5235	-0.7766	-0.4751	-0.3641	-1.0469	-1.064	-0.458	0.2816	-0.2816	-0.751	-0.2162	-0.3755
-0.5291	-0.6885	-0.5917	-0.697	-0.7254	-0.5092	-0.7937	-0.8307	-0.404	-0.5007	-0.7909	-0.4466	-0.3328	-0.8563	-1.1835	-0.6401	0.2447	-0.2703	-0.7766	-0.239	-0.3869
-0.5604	-0.7084	-0.6372	-0.6998	-0.734	-0.5149	-0.7823	-0.862	-0.3869	-0.4751	-0.7766	-0.4153	-0.2845	-0.5889	-1.3086	-0.8222	0.2077	-0.2617	-0.7852	-0.2674	-0.3897
-0.5946	-0.6998	-0.6685	-0.6685	-0.7368	-0.5462	-0.7596	-0.8421	-0.3784	-0.4722	-0.7482	-0.3841	-0.2503	-0.2703	-1.4367	-0.9559	0.1707	-0.2418	-0.8279	-0.3072	-0.3897
-0.6486	-0.734	-0.7169	-0.7169	-0.7567	-0.5775	-0.7567	-0.8648	-0.3727	-0.4552	-0.7766	-0.3755	-0.2304	0.1451	-1.5448	-1.1095	0.1309	-0.2162	-0.8591	-0.3158	-0.404
-0.7169	-0.7795	-0.7596	-0.7454	-0.8023	-0.6003	-0.7681	-0.8648	-0.3812	-0.4552	-0.7766	-0.3499	-0.202	0.5661	-1.6756	-1.1892	0.1053	-0.202	-0.8904	-0.3755	-0.4068
-0.7795	-0.8307	-0.8222	-0.771	-0.7937	-0.623	-0.7482	-0.8478	-0.3784	-0.4182	-0.7454	-0.3243	-0.1479	0.9673	-1.761	-1.2233	0.074	-0.1935	-0.8904	-0.3926	-0.4097
-0.8222	-0.8762	-0.8506	-0.8051	-0.7909	-0.6629	-0.7482	-0.8591	-0.3613	-0.4324	-0.7197	-0.293	-0.1109	1.1692	-1.852	-1.2261	0.0313	-0.1821	-0.8791	-0.4296	-0.4011
-0.899	-0.953	-0.9331	-0.8335	-0.8392	-0.7141	-0.7425	-0.8535	-0.367	-0.4153	-0.697	-0.256	-0.0853	1.1209	-1.9203	-1.1749	-0.0199	-0.1565	-0.9274	-0.4552	-0.4296
-0.9843	-1.0498	-0.9957	-0.8819	-0.8848	-0.7368	-0.7567	-0.8677	-0.3698	-0.4153	-0.6856	-0.256	-0.0654	0.7596	-1.9829	-1.1067	-0.0455	-0.165	-0.9331	-0.4836	-0.4438
-1.0839	-1.155	-1.0839	-0.9331	-0.9303	-0.7852	-0.771	-0.8648	-0.3755	-0.4239	-0.6856	-0.2674	-0.0228	0.091	-2.0312	-1.0156	-0.0939	-0.1565	-0.9445	-0.4979	-0.4552
-1.192	-1.246	-1.1806	-0.9786	-0.9502	-0.8421	-0.7823	-0.8819	-0.3784	-0.421	-0.6629	-0.256	-0.0171	-0.8108	-2.0767	-0.8876	-0.1138	-0.1565	-0.9559	-0.495	-0.4865
-1.2944	-1.3485	-1.2204	-1.0014	-1.0071	-0.8705	-0.7795	-0.8677	-0.3755	-0.3812	-0.6287	-0.2162	0.0256	-1.6785	-2.0824	-0.734	-0.1707	-0.1053	-0.9502	-0.4552	-0.4666
-1.4224	-1.4594	-1.3029	-1.0498	-1.0469	-0.9189	-0.8023	-0.8705	-0.3698	-0.3784	-0.6088	-0.202	0.0199	-2.4494	-2.1052	-0.6429	-0.1849	-0.0711	-0.9673	-0.4438	-0.4666
-1.522	-1.6045	-1.3997	-1.0924	-1.0839	-0.9701	-0.7966	-0.8904	-0.3641	-0.3812	-0.5775	-0.2162	0.074	-2.9985	-2.1052	-0.5547	-0.1991	-0.074	-0.9758	-0.3755	-0.5007
-1.6529	-1.6955	-1.485	-1.1152	-1.1465	-1.0014	-0.7653	-0.8677	-0.3499	-0.3528	-0.5519	-0.1935	0.1081	-3.3768	-2.0824	-0.5149	-0.2191	-0.0284	-0.9985	-0.3357	-0.495
-1.7923	-1.8065	-1.5704	-1.1522	-1.1749	-1.0298	-0.7567	-0.8876	-0.3442	-0.3186	-0.5291	-0.1565	0.1394	-3.5618	-2.0796	-0.5064	-0.2191	0.0028	-0.9985	-0.2788	-0.5121
-1.8805	-1.9089	-1.6443	-1.155	-1.2062	-1.0839	-0.7454	-0.8848	-0.3129	-0.3016	-0.4779	-0.1366	0.2048	-3.6016	-2.0597	-0.5206	-0.2247	0.0541	-1.0128	-0.1991	-0.5377
-1.9942	-2.0284	-1.7183	-1.1579	-1.2233	-1.101	-0.697	-0.8961	-0.3328	-0.2447	-0.4495	-0.1252	0.2532	-3.6357	-2.0426	-0.5206	-0.2219	0.0882	-1.0526	-0.1337	-0.5491
-2.1308	-2.1166	-1.778	-1.1721	-1.266	-1.0924	-0.6771	-0.9104	-0.2902	-0.1935	-0.4666	-0.0825	0.3072	-3.5333	-2.0028	-0.5747	-0.2191	0.1166	-1.0754	-0.0768	-0.5661
-2.2332	-2.1934	-1.8349	-1.1351	-1.3001	-1.1152	-0.623	-0.9047	-0.2447	-0.1024	-0.421	-0.0541	0.3613	-3.3712	-1.9089	-0.6173	-0.2162	0.202	-1.0924	0.0057	-0.5747
-2.3584	-2.2674	-1.8918	-1.1351	-1.3172	-1.1067	-0.5747	-0.8961	-0.2304	-0.0541	-0.4182	-0.0398	0.3983	-3.0895	-1.8918	-0.6629	-0.2048	0.2503	-1.1294	0.1053	-0.623
-2.438	-2.3328	-1.9288	-1.1123	-1.3257	-1.0953	-0.5263	-0.916	-0.2048	0.0284	-0.3983	-0.0341	0.4523	-2.751	-1.8036	-0.6685	-0.2048	0.3072	-1.1408	0.1735	-0.6372
-2.5405	-2.3868	-1.9772	-1.0839	-1.3428	-1.1095	-0.4694	-0.9047	-0.1821	0.0853	-0.3869	0.0028	0.5235	-2.4324	-1.7268	-0.66	-0.1991	0.3755	-1.1465	0.2418	-0.6685
-2.5917	-2.421	-2.0085	-1.0583	-1.3485	-1.0867	-0.4011	-0.9132	-0.1394	0.1451	-0.3841	0.0228	0.5633	-2.2417	-1.6443	-0.6202	-0.202	0.4125	-1.1607	0.3101	-0.6828
-2.6599	-2.458	-2.054	-1.0412	-1.3542	-1.0839	-0.3585	-0.9331	-0.1451	0.2418	-0.3698	0.0427	0.5974	-2.2332	-1.6045	-0.5633	-0.1935	0.4666	-1.1806	0.3869	-0.7226
-2.7083	-2.4551	-2.0711	-1.0697	-1.3627	-1.0782	-0.3272	-0.9416	-0.1109	0.2987	-0.4068	0.0455	0.6259	-2.4608	-1.5476	-0.4979	-0.2048	0.5064	-1.2091	0.4523	-0.7397
-2.7311	-2.4722	-2.0938	-1.0441	-1.3655	-1.0754	-0.2646	-0.9559	-0.0882	0.3328	-0.404	0.074	0.6629	-2.8306	-1.4907	-0.3784	-0.2048	0.5235	-1.2148	0.5178	-0.771
-2.7567	-2.4978	-2.1393	-1.0697	-1.3712	-1.0754	-0.2788	-0.9701	-0.1081	0.3926	-0.458	0.0512	0.6714	-3.2631	-1.4992	-0.2703	-0.1792	0.5547	-1.246	0.5547	-0.8364
-2.7424	-2.4722	-2.1194	-1.0384	-1.3456	-1.0725	-0.2304	-0.9473	-0.0939	0.4353	-0.4552	0.0541	0.7027	-3.5902	-1.4765	-0.1593	-0.1764	0.5747	-1.2119	0.606	-0.8478
-2.7424	-2.4779	-2.1365	-1.0441	-1.3314	-1.0725	-0.2134	-0.953	-0.091	0.4552	-0.4865	0.0398	0.6828	-3.7211	-1.448	-0.037	-0.1479	0.5661	-1.1863	0.6259	-0.8734
-2.6998	-2.4295	-2.1422	-1.027	-1.3143	-1.0697	-0.1935	-0.9587	-0.0654	0.4836	-0.4836	0.0284	0.6771	-3.5731	-1.4367	0.0768	-0.1451	0.586	-1.1692	0.6828	-0.8904
-2.6628	-2.3726	-2.1223	-1.0384	-1.3086	-1.0469	-0.1735	-0.9388	-0.0569	0.5092	-0.5121	0.0256	0.6657	-3.2005	-1.4025	0.1963	-0.1337	0.5974	-1.1436	0.6941	-0.8876
-2.5945	-2.3413	-2.1109	-1.0355	-1.2773	-1.0498	-0.1821	-0.9502	-0.0455	0.532	-0.5291	0.0199	0.6828	-2.6685	-1.3826	0.2788	-0.0996	0.5832	-1.0953	0.7311	-0.9047
-2.5632	-2.2873	-2.0739	-1.0213	-1.2574	-1.0355	-0.1821	-0.9445	-0.0597	0.5348	-0.5633	0	0.6742	-2.0711	-1.3627	0.3528	-0.0683	0.5974	-1.0498	0.7539	-0.9132
-2.4949	-2.2332	-2.0455	-1.0298	-1.2432	-1.0327	-0.1764	-0.9416	-0.0455	0.5348	-0.5804	-0.0171	0.6742	-1.394	-1.3456	0.4125	-0.0398	0.5832	-1.027	0.7397	-0.9132
-2.421	-2.1621	-1.9971	-1.0298	-1.1835	-1.0156	-0.1735	-0.9502	-0.0199	0.5348	-0.569	-0.0142	0.6771	-0.6771	-1.2859	0.4324	0.0114	0.5775	-0.9872	0.7084	-0.9047
-2.3442	-2.091	-1.9487	-0.9929	-1.1493	-0.9985	-0.1565	-0.9047	-0.0085	0.5377	-0.5832	-0.0199	0.6572	0.0768	-1.2489	0.4324	0.037	0.5747	-0.9246	0.7169	-0.9018
-2.2816	-2.0426	-1.9174	-0.9929	-1.1323	-0.9957	-0.1792	-0.9047	-0.0199	0.4922	-0.6003	-0.037	0.6145	0.788	-1.246	0.367	0.0967	0.5462	-0.8933	0.7027	-0.8876
-2.2417	-1.943	-1.8463	-0.9957	-1.0754	-0.9673	-0.1764	-0.8876	-0.0057	0.4922	-0.6173	-0.0427	0.6259	1.4082	-1.2546	0.256	0.1593	0.5491	-0.8335	0.6714	-0.8648
-2.1564	-1.8605	-1.7923	-0.9559	-1.0156	-0.9274	-0.1906	-0.8705	-0.0057	0.4922	-0.606	-0.0313	0.6088	1.8349	-1.2717	0.1166	0.2077	0.5348	-0.7909	0.6657	-0.8506
-2.091	-1.798	-1.7638	-0.9843	-0.9929	-0.9473	-0.1792	-0.8791	-0.0256	0.4694	-0.6316	-0.0484	0.5747	1.9829	-1.3314	-0.0512	0.2503	0.5235	-0.734	0.6372	-0.8421
-2.0483	-1.7268	-1.7041	-1.0042	-0.9416	-0.9132	-0.1991	-0.862	0.0114	0.4552	-0.6173	-0.0455	0.5377	1.7809	-1.3741	-0.2447	0.2987	0.5235	-0.6742	0.623	-0.8222
-1.9829	-1.6443	-1.6443	-0.9929	-0.9331	-0.899	-0.2077	-0.8591	-0.0085	0.4153	-0.6031	-0.0626	0.5149	1.246	-1.4623	-0.4381	0.3272	0.5035	-0.6372	0.5974	-0.7681
-1.9402	-1.5931	-1.6244	-1.0071	-0.8904	-0.8961	-0.2361	-0.8648	-0.0256	0.367	-0.6116	-0.0768	0.4893	0.4666	-1.5817	-0.6458	0.3784	0.4694	-0.5633	0.5462	-0.7539
-1.8918	-1.5163	-1.5561	-1.0185	-0.8307	-0.8677	-0.256	-0.8364	-0.0171	0.3528	-0.5974	-0.0853	0.4495	-0.3585	-1.6642	-0.8478	0.3897	0.4609	-0.4979	0.5263	-0.6913
-1.8605	-1.4822	-1.5248	-1.0213	-0.8193	-0.8705	-0.2788	-0.8478	-0.0825	0.3186	-0.6259	-0.1195	0.421	-1.1123	-1.8122	-1.0924	0.4239	0.4552	-0.4751	0.5007	-0.6771
-1.8036	-1.4025	-1.4765	-1.0071	-0.7766	-0.8535	-0.3186	-0.8279	-0.091	0.2902	-0.6116	-0.1422	0.3499	-1.6756	-1.9544	-1.3229	0.4466	0.4125	-0.421	0.4466	-0.6287
-1.7752	-1.3428	-1.4338	-1.0128	-0.7539	-0.8535	-0.3215	-0.8108	-0.1024	0.2589	-0.6173	-0.1508	0.3215	-2.0198	-2.0682	-1.5561	0.458	0.3755	-0.3755	0.3869	-0.586
-1.724	-1.2859	-1.3627	-0.9616	-0.7112	-0.8193	-0.3215	-0.7937	-0.1337	0.2048	-0.6116	-0.1792	0.2873	-2.2048	-2.1792	-1.761	0.4751	0.3471	-0.3357	0.3272	-0.5576
-1.6642	-1.2148	-1.3371	-0.9303	-0.6913	-0.8051	-0.3328	-0.7937	-0.1565	0.1565	-0.606	-0.2048	0.2447	-2.219	-2.2844	-1.9772	0.4922	0.3129	-0.3101	0.256	-0.5491
-1.5846	-1.1522	-1.2745	-0.8762	-0.6344	-0.7596	-0.3357	-0.7368	-0.1678	0.1223	-0.586	-0.1991	0.2105	-2.1166	-2.3499	-2.1507	0.5007	0.2475	-0.2987	0.1565	-0.5121
-1.522	-1.0867	-1.2204	-0.8279	-0.5718	-0.751	-0.3528	-0.7141	-0.165	0.0882	-0.5917	-0.2219	0.1593	-1.9658	-2.4523	-2.3186	0.5064	0.2105	-0.2674	0.0626	-0.4722
-1.4537	-1.0128	-1.1579	-0.7994	-0.5348	-0.7283	-0.3499	-0.697	-0.1792	0.0512	-0.586	-0.239	0.0825	-1.6529	-2.5092	-2.4693	0.5263	0.1309	-0.2589	-0.0256	-0.4609
-1.3456	-0.9616	-1.0953	-0.7425	-0.4779	-0.6799	-0.3186	-0.6828	-0.1906	0.0114	-0.569	-0.2418	0.074	-1.2916	-2.5319	-2.5661	0.5377	0.0711	-0.2447	-0.1366	-0.4097
-1.2688	-0.8762	-1.0156	-0.6828	-0.441	-0.6344	-0.3357	-0.6202	-0.1821	-0.0256	-0.5519	-0.276	0.0114	-0.7852	-2.4779	-2.6002	0.5348	0.0028	-0.2162	-0.2418	-0.3698
-1.1977	-0.8222	-0.9445	-0.6316	-0.3954	-0.6372	-0.3357	-0.569	-0.202	-0.0597	-0.5348	-0.2731	-0.0284	-0.3158	-2.4437	-2.5774	0.5547	-0.0797	-0.2162	-0.3499	-0.3499
-1.081	-0.7482	-0.9047	-0.5633	-0.3357	-0.5946	-0.3243	-0.5576	-0.2105	-0.0825	-0.5263	-0.2902	-0.0853	0.0484	-2.3584	-2.5149	0.5491	-0.1678	-0.1849	-0.4637	-0.3186
-1.0128	-0.7027	-0.8478	-0.5178	-0.3158	-0.5832	-0.3414	-0.5291	-0.2105	-0.1166	-0.5206	-0.2816	-0.1138	0.1764	-2.2218	-2.3641	0.5604	-0.256	-0.1878	-0.5377	-0.2873
-0.9246	-0.6629	-0.8023	-0.5035	-0.2845	-0.5747	-0.3585	-0.5149	-0.2418	-0.1735	-0.5149	-0.3385	-0.1735	0.0797	-2.0938	-2.1792	0.5604	-0.3101	-0.2134	-0.6259	-0.2703
-0.8449	-0.6145	-0.7596	-0.4666	-0.2617	-0.5576	-0.3698	-0.495	-0.276	-0.2247	-0.5377	-0.3641	-0.2333	-0.3044	-1.9544	-1.9487	0.5519	-0.367	-0.2162	-0.697	-0.2361
-0.7994	-0.5747	-0.7425	-0.4239	-0.2617	-0.5889	-0.4125	-0.5121	-0.3414	-0.2617	-0.5604	-0.4182	-0.2902	-0.771	-1.798	-1.6557	0.5576	-0.4466	-0.2447	-0.7795	-0.2674
-0.7681	-0.5661	-0.7482	-0.458	-0.2987	-0.6116	-0.4466	-0.5434	-0.3869	-0.3186	-0.6003	-0.5007	-0.3641	-1.283	-1.6415	-1.3883	0.5576	-0.495	-0.2816	-0.8449	-0.2788
-0.7197	-0.5519	-0.7254	-0.4751	-0.2703	-0.6202	-0.4893	-0.5718	-0.4751	-0.3755	-0.6316	-0.5804	-0.4353	-1.6102	-1.5078	-1.0754	0.5547	-0.5747	-0.3129	-0.899	-0.3044
-0.7112	-0.5547	-0.7539	-0.4979	-0.3044	-0.6856	-0.5291	-0.6287	-0.5434	-0.4609	-0.697	-0.6543	-0.532	-1.7098	-1.3826	-0.7653	0.5661	-0.6515	-0.3585	-0.9445	-0.3528
-0.7169	-0.5747	-0.788	-0.5235	-0.3556	-0.7226	-0.6145	-0.6941	-0.6486	-0.5633	-0.7766	-0.7795	-0.6372	-1.6017	-1.2802	-0.4495	0.5775	-0.7226	-0.4125	-1.0185	-0.4011
-0.7027	-0.5576	-0.8051	-0.586	-0.3585	-0.7852	-0.6742	-0.7226	-0.7027	-0.6202	-0.8392	-0.8591	-0.7027	-1.2546	-1.1579	-0.1223	0.5633	-0.7795	-0.441	-1.0355	-0.3983
-0.7368	-0.5889	-0.8506	-0.6429	-0.4011	-0.825	-0.7311	-0.7852	-0.8023	-0.7084	-0.9104	-0.9815	-0.7994	-0.8335	-1.0583	0.1764	0.5832	-0.8307	-0.4637	-1.0697	-0.4438
-0.751	-0.5832	-0.8848	-0.6856	-0.4153	-0.8904	-0.825	-0.8392	-0.8961	-0.8079	-0.9701	-1.0867	-0.9303	-0.3414	-0.9559	0.4722	0.6145	-0.916	-0.5035	-1.1237	-0.4979
-0.7539	-0.5718	-0.8876	-0.7567	-0.4324	-0.9559	-0.8961	-0.9047	-0.9758	-0.9047	-1.0298	-1.2062	-1.027	0.2048	-0.8648	0.7226	0.6316	-0.9872	-0.5291	-1.1863	-0.5121
-0.771	-0.5889	-0.9502	-0.7994	-0.4381	-1.0128	-0.9616	-0.953	-1.0867	-1.0412	-1.0981	-1.3371	-1.1664	0.8364	-0.771	0.9559	0.6657	-1.0469	-0.5889	-1.2176	-0.5178
-0.8136	-0.6372	-0.9957	-0.8819	-0.495	-1.1123	-1.0668	-1.0469	-1.2233	-1.1579	-1.2034	-1.5106	-1.3172	1.4964	-0.7226	1.1351	0.7197	-1.155	-0.6173	-1.2631	-0.5434
-0.8449	-0.6742	-1.0441	-0.99	-0.5263	-1.1749	-1.1493	-1.101	-1.3371	-1.2517	-1.2944	-1.6443	-1.4509	2.1422	-0.6629	1.2802	0.7397	-1.229	-0.6287	-1.3172	-0.5434
-0.9132	-0.7169	-1.101	-1.081	-0.5974	-1.2688	-1.2717	-1.1948	-1.4679	-1.4167	-1.4281	-1.8634	-1.6415	2.6799	-0.6316	1.3485	0.7937	-1.3086	-0.6998	-1.3598	-0.5889
-0.9616	-0.8051	-1.1579	-1.2005	-0.6685	-1.3798	-1.3826	-1.2944	-1.6244	-1.5419	-1.5504	-2.017	-1.7951	3.0298	-0.6173	1.3798	0.8307	-1.3854	-0.7197	-1.4167	-0.6287
-1.0384	-0.9018	-1.283	-1.3229	-0.7681	-1.5135	-1.5476	-1.4111	-1.8008	-1.7183	-1.7069	-2.2645	-2.0028	3.0326	-0.6458	1.3712	0.8876	-1.4992	-0.771	-1.4964	-0.6685
-1.1266	-1.0185	-1.3655	-1.4736	-0.8819	-1.6529	-1.6813	-1.5277	-1.9829	-1.9032	-1.8605	-2.4978	-2.219	2.7083	-0.6685	1.3229	0.9416	-1.5846	-0.8335	-1.559	-0.7482
-1.192	-1.1067	-1.4566	-1.5874	-1.0213	-1.8036	-1.8577	-1.6813	-2.182	-2.0796	-2.0198	-2.7424	-2.4352	2.1621	-0.751	1.2005	1.0042	-1.6842	-0.9246	-1.5846	-0.8279
-1.2603	-1.2261	-1.5647	-1.7496	-1.1408	-1.963	-1.9999	-1.8264	-2.3755	-2.293	-2.2019	-2.9928	-2.6372	1.448	-0.8051	1.064	1.0441	-1.7809	-1.0042	-1.6529	-0.9047
-1.3542	-1.3399	-1.6813	-1.9117	-1.283	-2.1223	-2.182	-1.9999	-2.6173	-2.5149	-2.4153	-3.2687	-2.8932	0.7596	-0.8705	0.8904	1.1095	-1.8776	-1.0697	-1.7268	-0.9872
-1.448	-1.4594	-1.8008	-2.0767	-1.4253	-2.2986	-2.3783	-2.1336	-2.8449	-2.7396	-2.586	-3.5589	-3.1379	0.2617	-0.9388	0.7311	1.1664	-2.0028	-1.1522	-1.8236	-1.0725
-1.5248	-1.5761	-1.8861	-2.2389	-1.5704	-2.4608	-2.5433	-2.2986	-3.0724	-2.9274	-2.7851	-3.8292	-3.3598	-0.0626	-0.9985	0.5035	1.2375	-2.1109	-1.2432	-1.889	-1.1806
-1.5931	-1.6756	-1.9914	-2.3669	-1.6898	-2.6002	-2.714	-2.4494	-3.2801	-3.1493	-2.97	-4.0881	-3.6187	-0.1536	-1.0441	0.3101	1.3058	-2.1905	-1.3143	-1.9743	-1.2773
-1.6586	-1.7325	-2.0739	-2.4949	-1.7866	-2.7282	-2.8591	-2.5718	-3.4736	-3.3456	-3.1037	-4.3157	-3.8064	-0.0797	-1.0697	0.0768	1.3684	-2.3129	-1.357	-2.0796	-1.3314
-1.7012	-1.7837	-2.1336	-2.5888	-1.889	-2.8107	-3.0042	-2.6884	-3.6215	-3.502	-3.2431	-4.5319	-3.9913	0.1451	-1.0924	-0.1223	1.4281	-2.3954	-1.4054	-2.1393	-1.3769
-1.7211	-1.8292	-2.1649	-2.6656	-1.943	-2.933	-3.1151	-2.751	-3.778	-3.6556	-3.3512	-4.6855	-4.1393	0.4523	-1.1095	-0.3357	1.4992	-2.4636	-1.4281	-2.1905	-1.4367
-1.7553	-1.8492	-2.1905	-2.751	-1.9971	-2.9843	-3.2147	-2.842	-3.8975	-3.7979	-3.4252	-4.8391	-4.2758	0.9274	-1.1493	-0.5035	1.5561	-2.5405	-1.4367	-2.256	-1.448
-1.7553	-1.852	-2.2161	-2.805	-2.0255	-3.0184	-3.2858	-2.8847	-3.98	-3.9174	-3.4537	-4.9159	-4.3469	1.4679	-1.1977	-0.734	1.6187	-2.5718	-1.431	-2.3157	-1.4537
-1.7695	-1.852	-2.2247	-2.8107	-2.0597	-3.0326	-3.3342	-2.9018	-4.0539	-3.9771	-3.465	-4.987	-4.401	2.0853	-1.2261	-0.9018	1.6642	-2.6059	-1.4367	-2.3555	-1.4082
-1.7667	-1.8122	-2.1905	-2.8505	-2.0654	-3.0468	-3.3598	-2.8932	-4.0568	-4.0226	-3.4366	-5.0013	-4.4323	2.6571	-1.266	-1.0697	1.7012	-2.6543	-1.431	-2.3925	-1.3854
-1.7638	-1.7923	-2.1678	-2.8676	-2.0511	-3.0497	-3.3854	-2.8932	-4.0681	-4.0625	-3.3968	-4.9586	-4.4465	3.1379	-1.3513	-1.229	1.7297	-2.6571	-1.4054	-2.4437	-1.3001
-1.7382	-1.7667	-2.1564	-2.8392	-2.0284	-3.0298	-3.4025	-2.8648	-4.0511	-4.0681	-3.3029	-4.896	-4.3839	3.3541	-1.4253	-1.3826	1.7496	-2.6713	-1.3627	-2.4978	-1.229
-1.7325	-1.724	-2.1308	-2.805	-1.9914	-3.007	-3.4025	-2.7965	-4.0198	-4.0738	-3.1749	-4.7879	-4.3413	3.2346	-1.5078	-1.5618	1.7638	-2.6628	-1.32	-2.5376	-1.0839
-1.7354	-1.6898	-2.0967	-2.7823	-1.9743	-2.9643	-3.3655	-2.7453	-3.9657	-4.0169	-3.0497	-4.6656	-4.236	2.8363	-1.6273	-1.7098	1.7638	-2.6457	-1.2631	-2.5661	-0.9673
-1.6728	-1.6472	-2.0711	-2.751	-1.9288	-2.9387	-3.3285	-2.6571	-3.8775	-3.9771	-2.8705	-4.4977	-4.0966	2.2446	-1.7809	-1.8947	1.761	-2.6144	-1.2034	-2.6201	-0.825
-1.6586	-1.6159	-2.0398	-2.7055	-1.8805	-2.9018	-3.3086	-2.5376	-3.7894	-3.9202	-2.6571	-4.2986	-3.9714	1.5903	-1.9573	-2.0483	1.7496	-2.5632	-1.1607	-2.6543	-0.6629
-1.6614	-1.5931	-2.0369	-2.6912	-1.8378	-2.8449	-3.2744	-2.4494	-3.6784	-3.8576	-2.4807	-4.0653	-3.7894	0.9843	-2.1763	-2.2503	1.7496	-2.4978	-1.1095	-2.6855	-0.495
-1.6614	-1.5789	-2.0369	-2.6742	-1.8008	-2.8278	-3.2374	-2.3669	-3.5845	-3.7894	-2.2304	-3.8263	-3.5561	0.5519	-2.4153	-2.4153	1.7211	-2.4267	-1.0526	-2.7112	-0.3328
-1.6415	-1.5476	-2.0369	-2.6372	-1.7467	-2.8079	-3.1862	-2.2531	-3.4423	-3.6812	-2.0198	-3.5646	-3.3313	0.3243	-2.6628	-2.5803	1.6785	-2.3214	-0.99	-2.7396	-0.1422
-1.6699	-1.5448	-2.0938	-2.6429	-1.7354	-2.7993	-3.1777	-2.1251	-3.3285	-3.5589	-1.7809	-3.2915	-3.0867	0.1991	-2.953	-2.768	1.6443	-2.1849	-0.9502	-2.7538	0.0341
-1.7126	-1.5675	-2.1336	-2.6571	-1.7126	-2.8193	-3.1635	-2.0654	-3.2289	-3.4793	-1.5817	-3.0298	-2.8477	0.1764	-3.2602	-2.9757	1.6073	-2.0341	-0.936	-2.7709	0.202
-1.7524	-1.5704	-2.1706	-2.6912	-1.7211	-2.8079	-3.1521	-1.9743	-3.1094	-3.3712	-1.3485	-2.7567	-2.549	0.1422	-3.576	-3.1549	1.5533	-1.8748	-0.9047	-2.7396	0.367
-1.8093	-1.6102	-2.256	-2.7254	-1.7496	-2.8477	-3.1237	-1.9231	-3.0127	-3.2517	-1.1721	-2.4836	-2.2844	0.2048	-3.8662	-3.337	1.4964	-1.6898	-0.9104	-2.7225	0.4779
-1.8833	-1.6614	-2.3555	-2.7794	-1.7439	-2.8875	-3.1265	-1.8605	-2.9074	-3.1322	-0.9815	-2.2474	-2.0198	0.2816	-4.145	-3.539	1.4452	-1.5049	-0.9303	-2.6799	0.5889
-1.9658	-1.7154	-2.4636	-2.8505	-1.7723	-2.916	-3.118	-1.8236	-2.7993	-3.0269	-0.8307	-2.0056	-1.7496	0.4381	-4.3811	-3.7154	1.3542	-1.3001	-0.9416	-2.6087	0.6771
-2.0511	-1.7752	-2.549	-2.916	-1.8093	-2.9672	-3.1293	-1.8008	-2.7254	-2.9131	-0.7226	-1.7809	-1.5078	0.6401	-4.603	-3.9117	1.2916	-1.0782	-0.9985	-2.5461	0.7539
-2.1621	-1.8492	-2.6656	-2.9757	-1.852	-3.0298	-3.135	-1.7723	-2.6571	-2.8164	-0.6003	-1.5647	-1.2404	0.7738	-4.7765	-4.0653	1.192	-0.8535	-1.0611	-2.4608	0.7852
-2.2702	-1.963	-2.8079	-3.0781	-1.9089	-3.0781	-3.1237	-1.7752	-2.5917	-2.6998	-0.5291	-1.357	-0.9872	0.7823	-4.8818	-4.1962	1.101	-0.6572	-1.1038	-2.3925	0.7937
-2.4011	-2.0398	-2.9131	-3.1834	-1.98	-3.1151	-3.1493	-1.7809	-2.5205	-2.6144	-0.4609	-1.1977	-0.7909	0.5718	-4.9501	-4.3185	0.9985	-0.4324	-1.1692	-2.2986	0.7937
-2.5319	-2.1564	-3.0497	-3.2858	-2.0284	-3.1891	-3.1436	-1.761	-2.4779	-2.5177	-0.421	-1.0611	-0.569	0.037	-5.0411	-4.401	0.8961	-0.2191	-1.2489	-2.1877	0.7681
-2.6656	-2.2816	-3.1919	-3.374	-2.0881	-3.2374	-3.1493	-1.7866	-2.4068	-2.4124	-0.3841	-0.899	-0.3556	-0.7397	-5.0496	-4.3982	0.7909	-0.0057	-1.283	-2.1052	0.7539
-2.7567	-2.3669	-3.2887	-3.4963	-2.1479	-3.2517	-3.1237	-1.7752	-2.3328	-2.3214	-0.3328	-0.771	-0.165	-1.6699	-5.061	-4.3583	0.6856	0.1593	-1.3598	-2.0085	0.7027
-2.8961	-2.4636	-3.3968	-3.5817	-2.1678	-3.2659	-3.1009	-1.7837	-2.2816	-2.2218	-0.3072	-0.66	0	-2.5405	-5.0098	-4.273	0.5889	0.3641	-1.4196	-1.8918	0.66
-3.0212	-2.5348	-3.465	-3.6784	-2.2304	-3.2744	-3.0838	-1.8036	-2.2048	-2.1336	-0.293	-0.5604	0.1565	-3.2801	-4.9472	-4.1165	0.5064	0.5206	-1.4765	-1.778	0.5718
-3.1037	-2.586	-3.4906	-3.7381	-2.2218	-3.2403	-3.0383	-1.7638	-2.1507	-2.0113	-0.2816	-0.4381	0.3129	-3.7837	-4.8875	-3.8832	0.4523	0.697	-1.5163	-1.6529	0.532
-3.1663	-2.6059	-3.4906	-3.7609	-2.1905	-3.1749	-2.9387	-1.7382	-2.0398	-1.8805	-0.2475	-0.3414	0.4552	-4.0056	-4.7594	-3.5902	0.4011	0.8392	-1.5248	-1.5448	0.4637
-3.2261	-2.6002	-3.485	-3.8007	-2.1365	-3.1123	-2.8676	-1.6756	-1.9402	-1.7638	-0.2077	-0.256	0.5946	-4.0596	-4.5859	-3.2887	0.3784	0.9644	-1.5248	-1.4338	0.4068
-3.2289	-2.5974	-3.3996	-3.7666	-2.0739	-2.9843	-2.7396	-1.6244	-1.7894	-1.6273	-0.1821	-0.1422	0.7397	-3.9401	-4.3811	-2.9217	0.3698	1.0924	-1.4964	-1.283	0.3556
-3.1493	-2.5035	-3.2744	-3.6841	-1.963	-2.8221	-2.5888	-1.4936	-1.6358	-1.4509	-0.1195	-0.0228	0.8933	-3.6784	-4.145	-2.5205	0.3784	1.1892	-1.4879	-1.1664	0.33
-3.0668	-2.3982	-3.0838	-3.5902	-1.815	-2.6144	-2.3897	-1.3399	-1.4082	-1.2176	-0.0341	0.1223	1.0526	-3.3313	-3.8747	-2.0938	0.3869	1.3029	-1.4111	-1.0554	0.293
-2.9416	-2.2417	-2.8818	-3.4309	-1.6586	-2.3783	-2.1905	-1.2091	-1.2261	-1.0384	0.0057	0.2532	1.1863	-2.8733	-3.5987	-1.6699	0.4296	1.3684	-1.32	-0.9303	0.2447
-2.768	-2.0796	-2.6514	-3.2261	-1.448	-2.1137	-1.9402	-1.0526	-0.99	-0.8079	0.0996	0.3812	1.3314	-2.3242	-3.3228	-1.2404	0.4722	1.4367	-1.229	-0.7852	0.2247
-2.549	-1.8435	-2.3328	-2.9899	-1.2347	-1.815	-1.6557	-0.8876	-0.7397	-0.5604	0.1707	0.495	1.4594	-1.7154	-2.9956	-0.8165	0.5178	1.4793	-1.1209	-0.623	0.2077
-2.2617	-1.5789	-1.98	-2.6827	-0.9644	-1.4651	-1.3456	-0.6685	-0.4666	-0.293	0.2703	0.6629	1.6329	-1.118	-2.6599	-0.3755	0.569	1.5334	-1.0014	-0.4609	0.1593
-1.926	-1.2773	-1.5761	-2.3499	-0.6629	-1.0839	-1.0071	-0.4523	-0.1849	-0.0171	0.3528	0.7823	1.7496	-0.6572	-2.3214	0.0284	0.6116	1.5334	-0.8591	-0.2902	0.1479
-1.5135	-0.9246	-1.1465	-1.9174	-0.3471	-0.6799	-0.6458	-0.202	0.128	0.2816	0.458	0.9132	1.9117	-0.404	-1.9345	0.4523	0.6486	1.559	-0.6856	-0.1081	0.1138
-1.0924	-0.5405	-0.6572	-1.5021	0.0512	-0.2589	-0.2191	0.0512	0.4438	0.5804	0.5405	1.0611	2.0455	-0.4296	-1.5049	0.8535	0.6828	1.5618	-0.5263	0.091	0.0768
-0.6088	-0.1309	-0.1593	-1.027	0.4267	0.1792	0.1935	0.3101	0.7624	0.9246	0.6344	1.1635	2.1792	-0.6287	-1.0867	1.2148	0.7254	1.5618	-0.3385	0.2873	0.0512
-0.091	0.3698	0.4438	-0.4893	0.8506	0.6714	0.6685	0.5804	1.1152	1.2944	0.7169	1.3229	2.3271	-0.8734	-0.6572	1.5846	0.7425	1.5476	-0.1536	0.5149	0.0114
0.4609	0.8563	1.0156	0.0228	1.2745	1.1493	1.1436	0.8933	1.4879	1.6386	0.8165	1.4167	2.4608	-1.0839	-0.2475	1.8805	0.7596	1.5561	0.0654	0.7197	-0.0199
1.027	1.3769	1.6244	0.606	1.7382	1.6671	1.6187	1.1835	1.8349	1.9942	0.9388	1.5561	2.5718	-1.0924	0.1821	2.1251	0.7681	1.5334	0.276	0.9104	-0.0484
1.6472	1.9231	2.2417	1.2119	2.2105	2.1706	2.1223	1.4679	2.2076	2.3669	1.0014	1.6671	2.6912	-0.9018	0.5889	2.3072	0.771	1.4936	0.4922	1.0924	-0.0569
2.2645	2.4921	2.8591	1.8207	2.6912	2.7083	2.6429	1.7809	2.5661	2.7595	1.101	1.8036	2.8193	-0.5007	0.9673	2.4807	0.771	1.485	0.7226	1.3115	-0.0825
2.879	3.0753	3.4963	2.4608	3.1862	3.2318	3.1692	2.0938	2.9359	3.1379	1.229	1.9146	2.9416	0.0882	1.3172	2.5831	0.7368	1.4566	0.936	1.4907	-0.091
3.5162	3.6784	4.1137	3.0781	3.6983	3.7694	3.6784	2.3925	3.3057	3.5305	1.3058	2.0568	3.0468	0.7909	1.6159	2.6941	0.7112	1.4111	1.1835	1.6699	-0.1223
4.1592	4.2588	4.7623	3.7125	4.2275	4.2758	4.2047	2.7083	3.6699	3.9174	1.4082	2.2019	3.1493	1.5618	1.943	2.8136	0.6685	1.4054	1.431	1.8406	-0.1223
4.7794	4.8676	5.3682	4.3384	4.7139	4.8107	4.694	3.0127	4.0539	4.2844	1.4793	2.3186	3.2687	2.4267	2.2275	2.9359	0.6202	1.3684	1.6557	2.0142	-0.1366
5.3739	5.4536	5.9486	4.9501	5.1919	5.3057	5.2146	3.2972	4.3896	4.657	1.5761	2.4494	3.3285	3.3228	2.5205	3.0611	0.5832	1.3542	1.8605	2.1962	-0.1622
5.9486	6.0368	6.5403	5.5731	5.647	5.7751	5.7068	3.5589	4.731	4.9899	1.687	2.6173	3.4366	4.2673	2.788	3.2147	0.5547	1.32	2.0654	2.3328	-0.1906
6.5346	6.5773	7.0922	6.1762	6.1051	6.2558	6.1648	3.8491	5.0838	5.3256	1.7496	2.7225	3.5248	5.1862	3.1151	3.3683	0.4979	1.283	2.2702	2.4636	-0.2105
7.0837	7.1207	7.6242	6.785	6.5204	6.6854	6.6427	4.0881	5.4166	5.6499	1.8378	2.8875	3.613	5.9941	3.4309	3.5646	0.4609	1.246	2.4523	2.6201	-0.256
7.6128	7.5929	8.1335	7.3227	6.9016	7.1264	7.0638	4.3213	5.7153	5.9429	1.9288	3.0212	3.6727	6.5546	3.7552	3.7751	0.421	1.1835	2.6258	2.7481	-0.2447
8.0794	8.0623	8.6029	7.8518	7.2515	7.5019	7.4621	4.5205	6.0027	6.2274	1.9942	3.1578	3.7353	6.8305	4.108	3.997	0.4097	1.0924	2.7823	2.842	-0.2816
8.5431	8.4748	9.0125	8.3326	7.5787	7.8603	7.8234	4.7168	6.2928	6.4863	2.0796	3.3114	3.8235	6.7992	4.4323	4.2417	0.3983	1.0583	2.933	2.9558	-0.2873
8.9841	8.8873	9.4421	8.7906	7.8859	8.2074	8.1875	4.9188	6.5858	6.7395	2.1849	3.485	3.9088	6.5915	4.7737	4.529	0.3954	0.9786	3.0867	3.0355	-0.3101
9.3454	9.2117	9.7948	9.1917	8.1306	8.5175	8.4919	5.0553	6.8163	6.9443	2.2617	3.6244	3.9259	6.2701	5.0638	4.7993	0.4068	0.9047	3.1919	3.1123	-0.33
9.6924	9.5473	10.1249	9.6042	8.3639	8.8162	8.7935	5.2118	7.0666	7.1491	2.3527	3.795	4.0056	6.0226	5.3882	5.0439	0.4153	0.8335	3.3086	3.1834	-0.3357
9.9826	9.8148	10.3837	9.9371	8.5659	9.0467	9.0438	5.3398	7.28	7.3227	2.4181	3.9316	4.0653	5.9116	5.6158	5.3199	0.4523	0.751	3.3854	3.2318	-0.3272
10.2443	10.0537	10.6455	10.2386	8.7309	9.2828	9.2629	5.4792	7.482	7.482	2.4949	4.0938	4.1108	5.9571	5.849	5.5674	0.4922	0.6742	3.4593	3.3029	-0.3328
10.4236	10.2386	10.8133	10.4776	8.8703	9.4592	9.4506	5.5446	7.6811	7.6043	2.6059	4.2218	4.162	6.088	6.014	5.7779	0.5462	0.5804	3.5106	3.3342	-0.3243
10.5544	10.3553	10.9356	10.7166	8.9869	9.5929	9.6014	5.6101	7.8319	7.7096	2.6742	4.3526	4.199	6.2587	6.1591	5.9913	0.5946	0.5235	3.5504	3.3854	-0.3186
10.6369	10.4207	11.0324	10.8674	9.0182	9.6953	9.7038	5.6556	7.9514	7.7693	2.7225	4.4664	4.2246	6.3981	6.2445	6.1648	0.6799	0.4523	3.5703	3.4025	-0.3044
10.6768	10.4492	11.0523	10.9812	9.0296	9.7692	9.7749	5.6812	8.0566	7.8291	2.7851	4.5888	4.2388	6.5403	6.3298	6.3298	0.751	0.367	3.5475	3.4167	-0.2902
10.6568	10.4122	11.0523	11.0409	9.0324	9.8205	9.8034	5.6983	8.1477	7.8575	2.8505	4.7082	4.2957	6.6143	6.3383	6.5147	0.8279	0.3158	3.539	3.448	-0.293
10.5829	10.3724	11.0352	11.0722	9.0125	9.8432	9.8261	5.684	8.2273	7.8575	2.9302	4.8306	4.3356	6.6883	6.327	6.6655	0.9132	0.2589	3.5162	3.4679	-0.2589
10.4861	10.25	10.9499	11.0153	8.9613	9.8148	9.8148	5.6641	8.2842	7.8603	3.0042	4.9472	4.3782	6.748	6.2985	6.822	0.9985	0.2134	3.4793	3.4622	-0.2304
10.3411	10.1505	10.8645	10.9783	8.8731	9.7948	9.7778	5.63	8.3127	7.8547	3.0724	5.0525	4.4095	6.6797	6.2473	6.9471	1.0867	0.1849	3.4138	3.4337	-0.1764
10.1618	9.994	10.7422	10.8645	8.8048	9.7493	9.7209	5.63	8.3497	7.7949	3.1834	5.1776	4.4607	6.455	6.1392	7.0467	1.1635	0.1593	3.3541	3.4138	-0.1053
9.9542	9.8005	10.5857	10.691	8.6996	9.6555	9.5957	5.5503	8.3212	7.7124	3.2431	5.2431	4.4636	5.8576	6.0083	7.1036	1.2688	0.0853	3.2801	3.3569	-0.0484
9.718	9.5786	10.3667	10.5061	8.526	9.5417	9.4677	5.5048	8.3098	7.6356	3.3143	5.3227	4.4863	4.97	5.8177	7.1349	1.3627	0.037	3.1976	3.3	0.0171
9.4506	9.334	10.159	10.2728	8.3753	9.4222	9.2998	5.4422	8.2729	7.5218	3.3825	5.4138	4.4977	3.7837	5.5816	7.1036	1.4509	-0.0057	3.0981	3.2147	0.0853
9.1519	9.0523	9.8887	9.9826	8.1989	9.2458	9.1149	5.3398	8.2074	7.3796	3.448	5.4621	4.4721	2.4267	5.3426	7.024	1.5533	-0.0597	3.0127	3.1094	0.1991
8.8333	8.7622	9.6498	9.6867	7.9997	9.0779	8.9243	5.2545	8.1164	7.243	3.4935	5.4877	4.4408	1.0725	5.0724	6.9415	1.6472	-0.1337	2.9188	2.9985	0.2589
8.5175	8.4549	9.3624	9.3596	7.8063	8.8788	8.7081	5.1606	7.9969	7.1093	3.5418	5.5247	4.4294	-0.074	4.8021	6.839	1.7354	-0.1764	2.8363	2.8705	0.3812
8.1761	8.1391	9.0808	9.0239	7.5872	8.6626	8.4805	5.0724	7.8916	6.9159	3.5675	5.5304	4.3925	-1.0014	4.5006	6.6683	1.8065	-0.2219	2.7282	2.7567	0.458
7.8091	7.8091	8.7479	8.6512	7.3369	8.4407	8.2046	4.933	7.7494	6.7196	3.5788	5.5105	4.3213	-1.596	4.2303	6.4891	1.9089	-0.2959	2.6116	2.6144	0.5519
7.4848	7.5047	8.4492	8.2814	7.1036	8.2017	7.9599	4.8135	7.6015	6.5119	3.6073	5.4934	4.2758	-2.0113	3.9458	6.2786	1.9829	-0.3243	2.5234	2.4466	0.6515
7.1235	7.1861	8.142	7.9116	6.8732	7.9599	7.684	4.6684	7.4251	6.3014	3.6073	5.4678	4.2275	-2.2019	3.6528	6.0453	2.0426	-0.3556	2.4011	2.2674	0.7425
6.7878	6.8419	7.8148	7.5303	6.6143	7.7124	7.4251	4.5404	7.2515	6.1051	3.576	5.4337	4.1506	-2.273	3.3456	5.7495	2.0967	-0.3784	2.273	2.108	0.8193
6.4521	6.5346	7.5104	7.1406	6.3753	7.4934	7.1321	4.4181	7.0865	5.9173	3.576	5.4024	4.1194	-2.1479	3.0468	5.4906	2.1194	-0.3698	2.1934	1.9601	0.9104
6.1136	6.2416	7.2203	6.785	6.1506	7.2459	6.8874	4.2844	6.9187	5.7267	3.5646	5.354	4.1194	-1.8947	2.7396	5.1663	2.1507	-0.3499	2.0739	1.7866	1.0099
5.7978	5.9173	6.9016	6.4408	5.8974	6.9984	6.6228	4.1592	6.7509	5.5503	3.539	5.3455	4.0824	-1.4907	2.4181	4.8732	2.1877	-0.3186	1.9658	1.6443	1.0725
5.5247	5.6385	6.6086	6.1022	5.6698	6.7878	6.3839	4.0653	6.6115	5.3682	3.5646	5.337	4.0881	-1.0071	2.1166	4.5205	2.1706	-0.2447	1.889	1.5163	1.1806
5.2175	5.3398	6.3497	5.7808	5.4251	6.5318	6.1335	3.9088	6.4521	5.2032	3.539	5.2943	4.0966	-0.5206	1.7894	4.1763	2.1877	-0.1963	1.7894	1.3826	1.2375
4.97	5.0468	6.0823	5.482	5.2089	6.3355	5.9202	3.7979	6.3156	5.0638	3.5618	5.317	4.1677	-0.1109	1.5192	3.8406	2.1592	-0.0797	1.7325	1.2717	1.3314
4.6969	4.7708	5.8234	5.1435	4.9586	6.1108	5.6783	3.6756	6.1591	4.9358	3.5618	5.2943	4.1962	0.0654	1.1948	3.502	2.1564	0.0057	1.613	1.1294	1.3968
4.4693	4.4835	5.5503	4.8676	4.7566	5.8832	5.4593	3.5618	6.0339	4.8163	3.5618	5.3057	4.2644	0.0569	0.9445	3.2175	2.1024	0.1536	1.5049	1.0526	1.4623
4.2246	4.199	5.2772	4.5802	4.5461	5.667	5.2601	3.4565	5.9059	4.6826	3.5817	5.3085	4.327	-0.1252	0.6913	2.8847	2.0625	0.2845	1.4224	0.9473	1.5448
3.9999	3.9145	5.0439	4.3384	4.3327	5.465	5.0582	3.3569	5.7864	4.5888	3.5902	5.3654	4.4124	-0.3727	0.4182	2.5718	2.0056	0.4239	1.3485	0.8876	1.6159
3.7865	3.667	4.7993	4.0795	4.1222	5.2573	4.8533	3.2346	5.6641	4.5034	3.5703	5.3654	4.5347	-0.5519	0.1735	2.2674	1.9573	0.5974	1.2603	0.8051	1.6955
3.5845	3.3939	4.5432	3.8178	3.9117	5.0468	4.6457	3.1322	5.556	4.3953	3.5987	5.3569	4.6058	-0.5291	-0.0768	2.0142	1.8861	0.7596	1.1635	0.7254	1.7581
3.3712	3.172	4.3185	3.613	3.7154	4.8818	4.4835	3.0525	5.4451	4.3441	3.6329	5.3939	4.7082	-0.2987	-0.276	1.7581	1.8093	0.953	1.0924	0.6941	1.8492
3.172	2.9416	4.0653	3.3712	3.5276	4.6627	4.29	2.9274	5.317	4.2474	3.6443	5.4024	4.7879	0.0939	-0.4893	1.4907	1.7752	1.118	1.0355	0.6259	1.926
2.9928	2.7424	3.8633	3.172	3.3598	4.492	4.1194	2.8705	5.226	4.1933	3.6784	5.4109	4.9216	0.6287	-0.6629	1.2574	1.7154	1.3229	0.9815	0.586	2.0113
2.8164	2.5205	3.6187	2.9416	3.1806	4.2986	3.9316	2.7851	5.1207	4.0938	3.6556	5.4024	5.0183	1.2802	-0.8279	1.0355	1.6699	1.522	0.9246	0.5263	2.0682
2.6144	2.3328	3.3939	2.7396	3.0127	4.0994	3.7353	2.6827	4.9813	4.0198	3.6727	5.3796	5.1293	1.9971	-0.9701	0.7994	1.65	1.7154	0.862	0.4893	2.1422
2.458	2.1678	3.1777	2.5291	2.879	3.9117	3.5788	2.6201	4.8676	3.96	3.6926	5.4195	5.2345	2.7709	-1.0981	0.6401	1.6187	1.9146	0.8478	0.5178	2.2389
2.256	1.9715	2.9274	2.31	2.6941	3.704	3.3712	2.5319	4.7395	3.8662	3.6898	5.3597	5.3341	3.5646	-1.2261	0.4324	1.6102	2.128	0.8051	0.4893	2.31
2.0455	1.778	2.6912	2.091	2.5262	3.4793	3.172	2.438	4.6001	3.7922	3.6983	5.3597	5.4308	4.3896	-1.3314	0.2361	1.6159	2.3072	0.7454	0.4523	2.3698
1.8179	1.5903	2.4523	1.8719	2.3612	3.283	2.9985	2.3641	4.475	3.7239	3.7069	5.3512	5.5589	5.1492	-1.4736	0.0256	1.6045	2.5063	0.7027	0.4808	2.438
1.596	1.3598	2.1536	1.6329	2.1991	3.0468	2.7766	2.2531	4.3441	3.6215	3.7097	5.317	5.6414	5.6812	-1.6329	-0.1991	1.6045	2.7055	0.6287	0.4609	2.4893
1.3229	1.1522	1.889	1.3968	2.0142	2.7908	2.5461	2.1536	4.1819	3.5362	3.7125	5.3085	5.7352	5.9258	-1.8093	-0.4552	1.6073	2.8875	0.5718	0.458	2.5405
1.0583	0.9217	1.5874	1.1379	1.8207	2.5604	2.3442	2.0597	4.0141	3.4025	3.6898	5.263	5.8348	5.7779	-1.9658	-0.7141	1.6045	3.0668	0.495	0.4495	2.5888
0.7567	0.6856	1.2688	0.8819	1.6216	2.3072	2.1109	1.9601	3.8889	3.3086	3.6841	5.2402	5.9173	5.2687	-2.182	-0.9701	1.6073	3.2374	0.4097	0.4324	2.623
0.4239	0.4353	0.9189	0.6031	1.4082	2.0312	1.8605	1.8236	3.6898	3.172	3.65	5.189	5.9514	4.5063	-2.3669	-1.2148	1.6045	3.3598	0.3186	0.4153	2.6315
0.1138	0.1735	0.5974	0.33	1.1863	1.7951	1.6415	1.6984	3.5077	3.0497	3.6215	5.1492	6.0226	3.6158	-2.5803	-1.4537	1.6159	3.5162	0.2105	0.3926	2.6941
-0.2304	-0.0711	0.2788	0.0341	0.9957	1.5476	1.4025	1.5817	3.3399	2.9188	3.6158	5.0781	6.0738	2.7851	-2.7851	-1.6927	1.6102	3.6556	0.1252	0.3556	2.6912
-0.5491	-0.33	-0.0569	-0.256	0.7823	1.2745	1.1635	1.4452	3.1834	2.7709	3.5874	5.0354	6.0994	2.1422	-3.0099	-1.9004	1.6073	3.7922	0.0541	0.3272	2.7311
-0.8734	-0.5661	-0.3755	-0.5235	0.586	1.0213	0.916	1.3513	3.0269	2.64	3.5646	4.9586	6.1079	1.7012	-3.2005	-2.0284	1.5903	3.9344	-0.037	0.2816	2.7368
-1.155	-0.7823	-0.6458	-0.7738	0.3698	0.7909	0.697	1.2347	2.8733	2.5063	3.5418	4.8875	6.1307	1.3854	-3.374	-2.1706	1.5761	4.0568	-0.1053	0.2703	2.7396
-1.4566	-1.0071	-0.9644	-1.0355	0.1991	0.5633	0.4865	1.118	2.7055	2.3499	3.4906	4.7879	6.1506	1.2148	-3.5219	-2.2645	1.5675	4.1506	-0.1678	0.2162	2.7624
-1.7439	-1.2233	-1.229	-1.3115	0.0199	0.3243	0.2703	0.9872	2.5376	2.1934	3.4138	4.6826	6.125	1.081	-3.6528	-2.3271	1.5647	4.2502	-0.2674	0.2077	2.7339
-1.9971	-1.4111	-1.5049	-1.5533	-0.1735	0.0825	0.0455	0.8449	2.3413	2.0682	3.3569	4.5546	6.1051	1.0099	-3.7581	-2.3783	1.5504	4.3583	-0.3414	0.1593	2.7282
-2.256	-1.596	-1.7695	-1.8349	-0.3613	-0.1337	-0.1707	0.7368	2.1934	1.9174	3.2744	4.4408	6.0425	0.9843	-3.8548	-2.3527	1.5248	4.4579	-0.4267	0.1451	2.6799
-2.5149	-1.798	-2.0227	-2.0967	-0.5206	-0.3471	-0.3641	0.5832	1.9999	1.7723	3.1578	4.2815	5.9884	1.0498	-3.9544	-2.4039	1.5192	4.5632	-0.5263	0.1593	2.6144
-2.7254	-1.9942	-2.2531	-2.3385	-0.6885	-0.5462	-0.5718	0.4267	1.8207	1.6301	3.0468	4.1222	5.9202	1.1493	-4.0625	-2.4068	1.4964	4.6513	-0.606	0.1394	2.5461
-2.9302	-2.1564	-2.4722	-2.5888	-0.8449	-0.751	-0.771	0.2902	1.6472	1.4936	2.9387	3.98	5.8547	1.2204	-4.1563	-2.3755	1.485	4.7538	-0.7141	0.1593	2.4636
-3.1379	-2.3499	-2.714	-2.8221	-1.0213	-0.9473	-0.9644	0.1252	1.4651	1.3058	2.8107	3.8235	5.7864	1.1692	-4.2673	-2.3811	1.4623	4.8533	-0.8222	0.1678	2.3726
-3.2887	-2.5035	-2.9103	-3.0412	-1.1806	-1.1152	-1.1152	-0.0142	1.2859	1.1806	2.6998	3.667	5.7125	0.916	-4.3669	-2.3726	1.4253	4.9444	-0.9274	0.1935	2.2674
-3.4707	-2.6855	-3.0753	-3.2631	-1.3257	-1.3058	-1.3029	-0.1593	1.0867	1.0355	2.5575	3.485	5.6328	0.4381	-4.4892	-2.3783	1.4082	5.0155	-1.0583	0.1935	2.1393
-3.6357	-2.8193	-3.2374	-3.4537	-1.4992	-1.4623	-1.4623	-0.293	0.936	0.8591	2.4124	3.3114	5.5247	-0.3016	-4.5831	-2.4181	1.3684	5.0638	-1.1607	0.1935	2.0341
-3.795	-3.0099	-3.4565	-3.6642	-1.6557	-1.6614	-1.6216	-0.4779	0.7539	0.7084	2.2417	3.1578	5.4394	-1.1379	-4.7054	-2.4466	1.3115	5.1606	-1.2717	0.1878	1.9004
-3.9259	-3.1322	-3.5902	-3.8462	-1.7923	-1.8236	-1.8122	-0.6116	0.5576	0.5547	2.1109	2.9643	5.3398	-1.9402	-4.8021	-2.4893	1.2688	5.2289	-1.3854	0.202	1.8008
-4.0596	-3.3143	-3.7581	-4.0425	-1.9402	-2.0085	-1.9942	-0.7454	0.3528	0.3897	1.9601	2.7737	5.1919	-2.5803	-4.9045	-2.5575	1.2233	5.2516	-1.4679	0.1479	1.6642
-4.2189	-3.4167	-3.9145	-4.2047	-2.0739	-2.182	-2.1735	-0.8933	0.1593	0.2219	1.8065	2.5661	5.0354	-2.9359	-5.0013	-2.6315	1.1692	5.3028	-1.5675	0.1166	1.5362
-4.3213	-3.5675	-4.0653	-4.3754	-2.2105	-2.3555	-2.347	-1.0441	-0.0199	0.0142	1.6472	2.3868	4.9074	-3.0582	-5.0838	-2.714	1.101	5.3512	-1.6642	0.0939	1.3854
-4.4465	-3.6756	-4.2047	-4.5489	-2.3669	-2.512	-2.5205	-1.192	-0.2361	-0.1536	1.4879	2.1763	4.731	-2.9757	-5.1577	-2.7965	1.0327	5.3796	-1.7154	0.0569	1.2802
-4.5632	-3.7865	-4.3327	-4.7196	-2.4893	-2.6656	-2.6998	-1.3257	-0.4182	-0.3613	1.32	1.9544	4.5888	-2.7652	-5.2374	-2.8762	0.9616	5.3939	-1.7752	0.0171	1.1664
-4.6684	-3.8804	-4.4522	-4.8818	-2.603	-2.8392	-2.8875	-1.4708	-0.6116	-0.5263	1.1579	1.7382	4.4067	-2.4267	-5.2744	-2.9359	0.8819	5.4337	-1.8577	-0.0256	1.0583
-4.7708	-3.943	-4.5888	-5.0411	-2.7168	-3.0042	-3.0468	-1.6159	-0.8079	-0.7283	0.9929	1.522	4.2559	-2.0483	-5.3085	-3.0042	0.8165	5.4792	-1.926	-0.0256	0.9416
-4.8647	-4.0539	-4.7253	-5.1976	-2.8648	-3.1663	-3.2318	-1.7467	-1.0213	-0.9246	0.8591	1.3115	4.0653	-1.613	-5.3398	-3.0497	0.7283	5.5076	-1.98	-0.0711	0.8648
-4.9671	-4.1279	-4.8448	-5.354	-2.9814	-3.3427	-3.3996	-1.8577	-1.2062	-1.1323	0.7084	1.1209	3.9088	-1.0697	-5.3654	-3.0668	0.6572	5.5133	-2.0369	-0.1337	0.7454
-5.061	-4.2189	-4.9842	-5.4849	-3.0952	-3.4935	-3.5817	-2.0056	-1.3769	-1.2859	0.5775	0.9189	3.7666	-0.5377	-5.3882	-3.1208	0.5718	5.5645	-2.0625	-0.1366	0.6799
-5.1606	-4.2957	-5.1037	-5.6527	-3.2204	-3.6556	-3.7296	-2.1393	-1.5761	-1.4822	0.458	0.7397	3.5817	-0.1195	-5.4251	-3.1806	0.4922	5.5788	-2.1194	-0.1565	0.5747
-5.2658	-4.3868	-5.2431	-5.7779	-3.3399	-3.8235	-3.8804	-2.2645	-1.7439	-1.6358	0.3471	0.586	3.4593	0.1678	-5.4138	-3.2374	0.4153	5.6129	-2.1507	-0.1593	0.5519
-5.3882	-4.4835	-5.3682	-5.9258	-3.4878	-4.0056	-4.0539	-2.3811	-1.926	-1.8036	0.2247	0.421	3.3342	0.1451	-5.4337	-3.2915	0.3272	5.6385	-2.1991	-0.202	0.4865
-5.4621	-4.5888	-5.5048	-6.051	-3.6016	-4.1563	-4.1848	-2.4893	-2.091	-1.9516	0.1479	0.3243	3.2204	-0.1508	-5.4479	-3.3825	0.2532	5.6755	-2.2503	-0.202	0.4495
-5.6271	-4.6997	-5.6385	-6.1819	-3.7552	-4.327	-4.3413	-2.6173	-2.256	-2.108	0.0797	0.2077	3.135	-0.6913	-5.465	-3.4821	0.1622	5.6926	-2.2844	-0.202	0.4239
-5.7324	-4.8476	-5.7921	-6.3383	-3.9316	-4.4949	-4.4807	-2.7339	-2.4011	-2.2417	0.0114	0.1138	3.0468	-1.3257	-5.4906	-3.6016	0.0825	5.7381	-2.3555	-0.2105	0.4267
-5.8547	-4.9813	-5.9486	-6.4436	-4.0881	-4.6713	-4.6428	-2.8505	-2.5604	-2.3584	-0.0512	0.0114	2.9757	-1.9317	-5.4849	-3.741	0	5.7665	-2.3954	-0.2077	0.4296
-5.9856	-5.1065	-6.1079	-6.5403	-4.2701	-4.8277	-4.7651	-2.9558	-2.7254	-2.4608	-0.1138	-0.0853	2.8989	-2.4466	-5.4849	-3.8861	-0.0654	5.7808	-2.4551	-0.2304	0.4353
-6.1335	-5.2801	-6.2814	-6.6399	-4.4494	-5.0269	-4.896	-3.0867	-2.8818	-2.603	-0.1451	-0.1678	2.8164	-2.7368	-5.4764	-4.034	-0.1422	5.8092	-2.512	-0.2361	0.4609
-6.2871	-5.4593	-6.4465	-6.7309	-4.6257	-5.2004	-5.0354	-3.2147	-3.0355	-2.6969	-0.2191	-0.256	2.7624	-2.8989	-5.4678	-4.1933	-0.2077	5.8348	-2.5718	-0.2646	0.4808
-6.4066	-5.6385	-6.6086	-6.8334	-4.7936	-5.3597	-5.172	-3.337	-3.2033	-2.8107	-0.2959	-0.3641	2.6685	-2.9672	-5.4195	-4.364	-0.2617	5.8462	-2.6059	-0.2503	0.5178
-6.5631	-5.8263	-6.8077	-6.9415	-4.9813	-5.5475	-5.3	-3.4451	-3.3427	-2.933	-0.3328	-0.4523	2.6116	-2.9359	-5.4138	-4.5063	-0.3129	5.8604	-2.64	-0.2703	0.5291
-6.6968	-6.0112	-6.9784	-7.041	-5.1492	-5.7267	-5.4678	-3.6016	-3.5362	-3.0525	-0.4153	-0.5633	2.5348	-2.8932	-5.4251	-4.6371	-0.3357	5.8604	-2.6912	-0.3101	0.5576
-6.8277	-6.1762	-7.1235	-7.1207	-5.337	-5.8689	-5.5702	-3.6955	-3.6841	-3.1379	-0.4722	-0.6515	2.4807	-2.7965	-5.4052	-4.7253	-0.3784	5.8377	-2.7225	-0.3385	0.5889
-6.9557	-6.3639	-7.2999	-7.2345	-5.5076	-6.051	-5.7068	-3.832	-3.8406	-3.2374	-0.5633	-0.751	2.3925	-2.6514	-5.428	-4.7651	-0.3869	5.7893	-2.7538	-0.3812	0.6316
-7.0752	-6.5403	-7.4478	-7.3056	-5.6755	-6.2046	-5.8348	-3.9572	-3.98	-3.3143	-0.6458	-0.8563	2.3072	-2.5433	-5.4223	-4.7538	-0.3897	5.7466	-2.8107	-0.4239	0.6429
-7.1833	-6.7366	-7.5872	-7.371	-5.8092	-6.3497	-5.9202	-4.0738	-4.1307	-3.3968	-0.7141	-0.9673	2.2417	-2.4551	-5.4479	-4.7168	-0.3897	5.7324	-2.8249	-0.4865	0.6771
-7.2743	-6.8931	-7.7266	-7.4422	-5.9486	-6.4721	-6.0396	-4.1791	-4.2502	-3.4508	-0.7937	-1.0498	2.1649	-2.5291	-5.502	-4.6627	-0.3869	5.6755	-2.8762	-0.5462	0.6913
-7.3426	-7.078	-7.8632	-7.5133	-6.1136	-6.62	-6.1307	-4.3071	-4.364	-3.5276	-0.8563	-1.1465	2.0938	-2.8676	-5.5418	-4.5518	-0.3641	5.6271	-2.9188	-0.6031	0.7197
-7.4393	-7.2715	-7.9941	-7.5872	-6.2473	-6.7309	-6.1819	-4.4124	-4.4863	-3.5817	-0.9075	-1.1806	2.0654	-3.485	-5.5702	-4.4238	-0.3499	5.5617	-2.9245	-0.6685	0.7226
-7.482	-7.4251	-8.0851	-7.61	-6.3554	-6.8504	-6.2786	-4.4949	-4.5888	-3.6244	-0.9473	-1.246	2.0085	-4.3782	-5.6101	-4.236	-0.3044	5.482	-2.9843	-0.7681	0.7567
-7.5446	-7.5559	-8.1847	-7.6413	-6.4664	-6.9358	-6.3383	-4.6058	-4.657	-3.6585	-0.9929	-1.283	1.9886	-5.4621	-5.6186	-4.0539	-0.276	5.4052	-2.9985	-0.8392	0.8023
-7.5815	-7.7466	-8.3127	-7.7067	-6.6171	-7.0439	-6.3952	-4.6912	-4.7367	-3.7154	-1.027	-1.32	1.9487	-6.5972	-5.6584	-3.869	-0.2219	5.3085	-3.0724	-0.9047	0.8079
-7.6128	-7.8518	-8.3866	-7.684	-6.6769	-7.1008	-6.4237	-4.7822	-4.7765	-3.7296	-1.0384	-1.3598	1.9146	-7.5673	-5.6357	-3.6556	-0.1792	5.226	-3.1094	-1.0298	0.8193
-7.647	-7.9599	-8.4407	-7.7209	-6.7651	-7.1662	-6.4208	-4.8533	-4.8163	-3.7467	-1.0469	-1.357	1.8975	-8.2928	-5.6243	-3.465	-0.1252	5.1492	-3.1322	-1.0839	0.8648
-7.6584	-8.0595	-8.5118	-7.7096	-6.8191	-7.2288	-6.4123	-4.8875	-4.8419	-3.7296	-1.0213	-1.3456	1.8861	-8.765	-5.6044	-3.2687	-0.0654	5.0439	-3.1237	-1.1522	0.9018
-7.6498	-8.1335	-8.5488	-7.6925	-6.876	-7.2828	-6.4265	-4.9301	-4.8448	-3.7381	-1.0327	-1.3285	1.8947	-9.021	-5.5048	-3.0952	-0.0028	4.9927	-3.1606	-1.1892	0.9217
-7.6271	-8.1875	-8.5801	-7.6726	-6.9159	-7.2971	-6.3924	-4.9671	-4.8533	-3.7325	-1.0156	-1.3001	1.8691	-9.1035	-5.4337	-2.9046	0.0768	4.9245	-3.1464	-1.266	0.9701
-7.5673	-8.2359	-8.6	-7.6413	-6.9443	-7.3056	-6.3668	-4.9984	-4.8533	-3.6869	-1.0042	-1.2773	1.8861	-9.041	-5.3682	-2.7538	0.1366	4.8562	-3.1635	-1.3428	0.9929
-7.5161	-8.2387	-8.5886	-7.5588	-6.9557	-7.3084	-6.3156	-5.007	-4.8334	-3.6443	-1.0014	-1.266	1.8918	-8.8788	-5.2687	-2.5547	0.2048	4.7936	-3.1436	-1.3883	1.0241
-7.4251	-8.2529	-8.5943	-7.5275	-6.9528	-7.3227	-6.2644	-5.0326	-4.8135	-3.613	-1.0042	-1.2688	1.889	-8.563	-5.2118	-2.458	0.2731	4.7367	-3.1436	-1.4253	1.0355
-7.3625	-8.2586	-8.5915	-7.4621	-6.9215	-7.3198	-6.1819	-5.0724	-4.768	-3.5333	-0.9843	-1.2404	1.8975	-8.142	-5.1805	-2.3527	0.3385	4.6969	-3.1265	-1.4537	1.064
-7.2771	-8.27	-8.5801	-7.3881	-6.9329	-7.3028	-6.1164	-5.0667	-4.731	-3.5049	-0.953	-1.2091	1.9117	-7.5986	-5.1463	-2.3015	0.4153	4.6115	-3.1293	-1.5248	1.0725
-7.1804	-8.2444	-8.5431	-7.2999	-6.9073	-7.28	-6.0368	-5.0809	-4.7139	-3.4593	-0.9587	-1.1977	1.9345	-7.0581	-5.1264	-2.2759	0.4893	4.5319	-3.1066	-1.522	1.0754
-7.1349	-8.2729	-8.5687	-7.2487	-6.9045	-7.2971	-5.9799	-5.0809	-4.6656	-3.4138	-0.9559	-1.1749	1.943	-6.657	-5.1236	-2.3129	0.5747	4.4949	-3.1208	-1.5533	1.0924
-7.0638	-8.2558	-8.546	-7.1577	-6.8959	-7.2601	-5.886	-5.0724	-4.6229	-3.3598	-0.9587	-1.1323	1.9658	-6.4977	-5.1293	-2.3868	0.6458	4.4038	-3.1094	-1.5789	1.1067
-7.024	-8.2586	-8.5545	-7.0951	-6.8817	-7.2658	-5.8263	-5.0695	-4.5916	-3.3143	-0.9274	-1.0896	1.9743	-6.5574	-5.135	-2.4949	0.7311	4.3327	-3.1094	-1.5732	1.0981
-6.9699	-8.2444	-8.5573	-6.9756	-6.8817	-7.2203	-5.7495	-5.0525	-4.5432	-3.2488	-0.9104	-1.0526	1.9914	-6.9187	-5.1549	-2.64	0.788	4.2531	-3.135	-1.5817	1.1294
-6.95	-8.2615	-8.5431	-6.8931	-6.8846	-7.1946	-5.6584	-5.0326	-4.4778	-3.1976	-0.8648	-1.0099	1.9971	-7.4308	-5.1634	-2.805	0.8535	4.1677	-3.135	-1.613	1.1266
-6.9244	-8.2359	-8.5204	-6.7509	-6.8163	-7.1321	-5.5674	-5.0098	-4.4152	-3.135	-0.8222	-0.9388	2.017	-7.9571	-5.1577	-2.9928	0.9075	4.0994	-3.1237	-1.5988	1.1465
-6.9016	-8.2046	-8.5346	-6.6456	-6.822	-7.0979	-5.4564	-4.9757	-4.3299	-3.0582	-0.7852	-0.8819	2.0455	-8.3639	-5.1833	-3.209	0.9502	4.0255	-3.1094	-1.5874	1.1692
-6.9045	-8.2245	-8.526	-6.5346	-6.8106	-7.0325	-5.3739	-4.933	-4.2388	-3.0042	-0.7226	-0.8108	2.0881	-8.5602	-5.2032	-3.4281	0.9729	3.9686	-3.1123	-1.5647	1.229
-6.8959	-8.1875	-8.5061	-6.3924	-6.7736	-6.9955	-5.2573	-4.8676	-4.1478	-2.916	-0.6799	-0.751	2.1109	-8.5346	-5.2089	-3.63	1.0185	3.8975	-3.0781	-1.559	1.2631
-6.913	-8.1676	-8.4606	-6.2729	-6.7537	-6.913	-5.1492	-4.8135	-4.0653	-2.8363	-0.6259	-0.6828	2.1336	-8.3411	-5.2317	-3.8633	1.0327	3.8206	-3.0668	-1.5106	1.3001
-6.8789	-8.1505	-8.4407	-6.1449	-6.7025	-6.8419	-5.024	-4.731	-3.9487	-2.7538	-0.5576	-0.6145	2.1649	-8.0168	-5.2658	-4.0653	1.064	3.7751	-3.0497	-1.5078	1.3598
-6.8874	-8.1078	-8.4009	-5.9998	-6.6342	-6.7594	-4.9216	-4.6656	-3.8406	-2.6514	-0.5007	-0.5377	2.219	-7.5872	-5.2573	-4.2559	1.0839	3.7182	-3.0042	-1.4423	1.3968
-6.8732	-8.0566	-8.344	-5.8661	-6.6029	-6.6911	-4.8306	-4.6115	-3.7637	-2.5604	-0.458	-0.4779	2.2446	-7.0951	-5.263	-4.4266	1.0953	3.6727	-2.9786	-1.4054	1.4367
-6.8447	-8.0083	-8.2899	-5.7551	-6.5546	-6.5858	-4.6656	-4.5432	-3.6642	-2.4665	-0.4011	-0.3983	2.2901	-6.4806	-5.2801	-4.5973	1.101	3.6272	-2.9558	-1.3655	1.4423
-6.8533	-7.9827	-8.2416	-5.6499	-6.4891	-6.5176	-4.5888	-4.4693	-3.5703	-2.3982	-0.3698	-0.3784	2.347	-5.8035	-5.3199	-4.7424	1.1209	3.5731	-2.9416	-1.3001	1.4822
-6.8021	-7.8945	-8.1505	-5.5276	-6.4322	-6.4095	-4.4522	-4.3896	-3.465	-2.273	-0.3044	-0.3101	2.4039	-5.0553	-5.2971	-4.822	1.1123	3.5618	-2.8904	-1.2404	1.5049
-6.7736	-7.8347	-8.0794	-5.4081	-6.3668	-6.3355	-4.3356	-4.3185	-3.3512	-2.1479	-0.3044	-0.2361	2.4295	-4.3725	-5.3	-4.8533	1.0981	3.5333	-2.842	-1.1579	1.5135
-6.7309	-7.7579	-8.0111	-5.3199	-6.2615	-6.2274	-4.2388	-4.2502	-3.2631	-2.0426	-0.256	-0.1935	2.5006	-3.8462	-5.3057	-4.8419	1.0953	3.4963	-2.8107	-1.0896	1.5135
-6.6968	-7.6982	-7.8973	-5.2203	-6.1904	-6.1193	-4.1393	-4.1819	-3.1521	-1.9373	-0.2276	-0.128	2.5575	-3.5931	-5.3057	-4.7737	1.0697	3.4764	-2.7709	-1.0327	1.5277
-6.6143	-7.6157	-7.7978	-5.1236	-6.0795	-6.0083	-4.0113	-4.0795	-3.0241	-1.8065	-0.1593	-0.0313	2.6286	-3.5845	-5.2744	-4.6201	1.0469	3.465	-2.7168	-0.9502	1.4992
-6.5858	-7.5332	-7.7067	-5.0382	-5.9913	-5.9116	-3.8804	-4.0141	-2.9018	-1.687	-0.1309	0.0484	2.7055	-3.8235	-5.3	-4.4181	1.0042	3.4537	-2.6884	-0.9075	1.5021
-6.4834	-7.4393	-7.5872	-4.9358	-5.8945	-5.7921	-3.7637	-3.9145	-2.7908	-1.5561	-0.0711	0.1622	2.8079	-4.1791	-5.2545	-4.1563	0.9701	3.4537	-2.6059	-0.8108	1.4822
-6.4038	-7.3483	-7.4848	-4.8505	-5.7694	-5.6755	-3.6471	-3.8093	-2.6713	-1.4111	0.0114	0.2589	2.9018	-4.475	-5.2289	-3.8918	0.9388	3.4423	-2.5746	-0.7397	1.4879
-6.3383	-7.2089	-7.3454	-4.7566	-5.6584	-5.5645	-3.5106	-3.7012	-2.5262	-1.2631	0.0882	0.3641	2.9899	-4.64	-5.189	-3.5987	0.8791	3.4508	-2.4921	-0.6486	1.5135
-6.2615	-7.078	-7.2032	-4.6513	-5.5219	-5.4308	-3.3854	-3.5959	-2.3811	-1.1266	0.1508	0.4694	3.1208	-4.6144	-5.1264	-3.2887	0.8421	3.4508	-2.4267	-0.5604	1.4907
-6.1733	-6.9756	-7.0524	-4.5831	-5.3882	-5.317	-3.2631	-3.4821	-2.2446	-1.0128	0.2276	0.5661	3.2033	-4.4494	-5.0439	-2.9757	0.7966	3.448	-2.3726	-0.4893	1.4936
-6.0965	-6.8533	-6.9358	-4.492	-5.2573	-5.1862	-3.1322	-3.3768	-2.1137	-0.8734	0.2788	0.6913	3.3029	-4.1592	-4.97	-2.7026	0.7624	3.4537	-2.31	-0.4097	1.4822
-5.977	-6.6996	-6.7594	-4.401	-5.1094	-5.007	-2.9814	-3.2289	-1.963	-0.7169	0.3641	0.7966	3.3797	-3.8093	-4.859	-2.4181	0.6799	3.4423	-2.2417	-0.3357	1.4594
-5.8917	-6.5659	-6.6257	-4.2986	-4.9842	-4.9216	-2.8875	-3.1521	-1.8321	-0.6116	0.4068	0.8819	3.465	-3.4337	-4.7794	-2.1393	0.6486	3.4423	-2.1763	-0.2532	1.4566
-5.7694	-6.4265	-6.4721	-4.1962	-4.8107	-4.7708	-2.714	-3.0156	-1.6984	-0.4666	0.4779	0.9929	3.5589	-2.9985	-4.6513	-1.889	0.5832	3.4622	-2.1109	-0.1906	1.4736
-5.684	-6.29	-6.3412	-4.1506	-4.6883	-4.6684	-2.6286	-2.9188	-1.5903	-0.3727	0.495	1.0412	3.5987	-2.5149	-4.5717	-1.6699	0.5462	3.4622	-2.0227	-0.1024	1.431
-5.5731	-6.1733	-6.1933	-4.0454	-4.5546	-4.5347	-2.4864	-2.8136	-1.4623	-0.256	0.5348	1.1038	3.6727	-2.0198	-4.4835	-1.4367	0.5064	3.485	-1.9658	-0.0484	1.3826
-5.4507	-6.0283	-6.0396	-3.9515	-4.3925	-4.3811	-2.3527	-2.7055	-1.32	-0.1422	0.5946	1.1806	3.7609	-1.5846	-4.3868	-1.2091	0.4722	3.5191	-1.9089	0.0398	1.3598
-5.3142	-5.8889	-5.886	-3.8064	-4.2531	-4.2644	-2.2218	-2.5974	-1.1863	-0.037	0.6116	1.266	3.832	-1.2973	-4.2673	-1.0071	0.4353	3.5532	-1.8349	0.1053	1.3456
-5.2004	-5.7608	-5.7381	-3.7211	-4.1108	-4.1364	-2.0796	-2.4807	-1.0697	0.0967	0.66	1.3598	3.906	-1.3029	-4.162	-0.8734	0.4182	3.5931	-1.7723	0.1707	1.32
-5.098	-5.6101	-5.593	-3.5845	-3.9714	-4.0169	-1.926	-2.347	-0.9303	0.2191	0.7254	1.4566	3.9743	-1.6443	-4.0596	-0.6941	0.3841	3.63	-1.7041	0.2418	1.3257
-4.9842	-5.4906	-5.465	-3.4508	-3.8178	-3.8775	-1.8065	-2.2503	-0.8108	0.3414	0.7738	1.5305	4.0454	-2.2759	-3.9572	-0.5917	0.3698	3.667	-1.6358	0.3016	1.3229
-4.8704	-5.391	-5.3256	-3.3114	-3.6869	-3.7381	-1.6728	-2.1223	-0.6657	0.458	0.825	1.6244	4.1307	-3.1777	-3.8491	-0.4922	0.3442	3.7182	-1.5305	0.33	1.3342
-4.7851	-5.2857	-5.2061	-3.1976	-3.5646	-3.63	-1.5277	-2.0113	-0.532	0.5832	0.9104	1.7297	4.2474	-4.1222	-3.7467	-0.4353	0.3272	3.7609	-1.4566	0.404	1.3627
-4.6969	-5.2032	-5.0923	-3.0753	-3.4195	-3.4878	-1.3826	-1.8691	-0.3954	0.7112	0.9929	1.8321	4.3441	-4.9785	-3.6329	-0.3869	0.293	3.8292	-1.3655	0.4722	1.4025
-4.6428	-5.1407	-4.9899	-2.9928	-3.32	-3.3882	-1.2887	-1.7809	-0.3016	0.7909	1.0839	1.926	4.4266	-5.6698	-3.5447	-0.3812	0.2902	3.8719	-1.2916	0.5092	1.4338
-4.5944	-5.0866	-4.9102	-2.879	-3.2289	-3.3228	-1.1948	-1.6728	-0.1707	0.8876	1.1493	2.0142	4.5176	-6.1847	-3.4707	-0.4011	0.2873	3.9458	-1.2091	0.5604	1.4793
-4.5575	-5.0695	-4.859	-2.8249	-3.1436	-3.2574	-1.1237	-1.6159	-0.0939	0.9416	1.1863	2.0767	4.5432	-6.5489	-3.3854	-0.4324	0.2873	3.9743	-1.155	0.5917	1.5078
-4.5034	-5.0297	-4.822	-2.7396	-3.0753	-3.1919	-1.0782	-1.5277	-0.0171	1.0185	1.2261	2.1365	4.6087	-6.7679	-3.3285	-0.5035	0.2646	4.0425	-1.0953	0.6344	1.5135
-4.4807	-5.0326	-4.7879	-2.714	-3.0611	-3.1549	-1.0156	-1.5021	0.0085	1.0526	1.2347	2.1706	4.6513	-6.9699	-3.2744	-0.5633	0.2703	4.0795	-1.0782	0.6572	1.4936
-4.5034	-5.0382	-4.7936	-2.6656	-3.0497	-3.1464	-0.9815	-1.4765	0.0171	1.0839	1.2148	2.1678	4.6513	-7.0666	-3.2488	-0.66	0.2674	4.1393	-1.0526	0.7254	1.4765
-4.5119	-5.0638	-4.8163	-2.6628	-3.0412	-3.1521	-0.9957	-1.4936	0.0199	1.0981	1.2062	2.1564	4.6627	-7.0951	-3.2289	-0.8051	0.256	4.1905	-1.0298	0.7653	1.4537
-4.5632	-5.0667	-4.859	-2.6144	-3.0582	-3.1606	-0.9985	-1.5106	0.0114	1.0924	1.1465	2.128	4.6769	-7.0296	-3.2005	-0.9189	0.2361	4.2758	-1.0526	0.8136	1.4111
-4.6229	-5.1179	-4.8988	-2.64	-3.0952	-3.1777	-1.0128	-1.5504	-0.0171	1.1095	1.0953	2.1024	4.6713	-6.9415	-3.2147	-1.0697	0.2077	4.364	-1.0554	0.8705	1.3741
-4.6997	-5.1577	-4.9671	-2.6372	-3.1379	-3.2232	-1.027	-1.5931	-0.0711	1.0725	1.0213	2.0568	4.657	-6.8077	-3.2062	-1.2375	0.1678	4.4294	-1.0924	0.9104	1.3229
-4.7623	-5.2032	-5.0439	-2.6713	-3.1948	-3.2574	-1.0185	-1.6472	-0.1166	1.0754	0.936	2.0284	4.6684	-6.8419	-3.2147	-1.4025	0.1337	4.5006	-1.1237	0.9872	1.2603
-4.8448	-5.2431	-5.1122	-2.714	-3.2887	-3.3029	-1.101	-1.7325	-0.2105	1.0241	0.8136	1.9715	4.6457	-7.0752	-3.283	-1.6073	0.1081	4.5745	-1.2005	1.0185	1.1635
-4.933	-5.2658	-5.189	-2.7339	-3.3569	-3.3569	-1.1379	-1.8036	-0.2674	1.0156	0.7368	1.9203	4.6257	-7.5047	-3.3114	-1.8207	0.0626	4.6257	-1.2546	1.0668	1.081
-5.0468	-5.3313	-5.2687	-2.788	-3.4366	-3.448	-1.1806	-1.8833	-0.3414	0.9758	0.6572	1.8691	4.6087	-8.1733	-3.3825	-1.9857	0.0171	4.6969	-1.3257	1.118	1.0014
-5.1122	-5.3796	-5.3597	-2.8335	-3.5162	-3.4963	-1.2176	-1.9573	-0.3954	0.9303	0.5519	1.8179	4.5944	-8.9186	-3.4565	-2.1991	-0.0199	4.7338	-1.4025	1.1692	0.916
-5.1833	-5.4337	-5.4365	-2.8847	-3.5731	-3.5646	-1.2574	-2.0284	-0.4552	0.9246	0.4836	1.8008	4.5944	-9.5815	-3.5618	-2.3612	-0.074	4.8107	-1.5049	1.2148	0.8392
-5.2715	-5.4792	-5.4906	-2.9131	-3.6613	-3.6272	-1.2859	-2.0796	-0.5405	0.8961	0.3869	1.7638	4.5831	-10.0509	-3.6869	-2.5518	-0.1024	4.8818	-1.5647	1.2859	0.7681
-5.3455	-5.5162	-5.5759	-2.9643	-3.7239	-3.6642	-1.3371	-2.1393	-0.5889	0.8819	0.3442	1.7667	4.6001	-10.2529	-3.795	-2.7168	-0.1593	4.97	-1.6614	1.3371	0.6941
-5.4052	-5.5361	-5.6101	-2.9757	-3.7609	-3.6898	-1.3371	-2.1792	-0.606	0.8705	0.2902	1.7667	4.6257	-10.1533	-3.9401	-2.879	-0.1878	5.0411	-1.7354	1.4167	0.6486
-5.4479	-5.5276	-5.6527	-2.9843	-3.815	-3.7182	-1.3485	-2.2019	-0.6714	0.8478	0.2105	1.724	4.5916	-9.8347	-4.0994	-3.0298	-0.2219	5.1008	-1.8179	1.4537	0.5917
-5.4479	-5.5276	-5.6556	-2.9985	-3.8292	-3.7239	-1.3513	-2.1962	-0.6572	0.8535	0.2134	1.7467	4.6257	-9.3454	-4.2701	-3.1862	-0.2589	5.1862	-1.8833	1.5248	0.5661
-5.465	-5.5219	-5.6584	-3.007	-3.8292	-3.7381	-1.357	-2.2218	-0.6913	0.8421	0.1451	1.7382	4.64	-8.7223	-4.4664	-3.3114	-0.293	5.2374	-1.9373	1.5874	0.5064
-5.4507	-5.4991	-5.6556	-3.0497	-3.8349	-3.7353	-1.3741	-2.2531	-0.7055	0.8222	0.0683	1.7183	4.6428	-7.9941	-4.7111	-3.4565	-0.3215	5.3313	-2.0227	1.65	0.4666
-5.4536	-5.4792	-5.6556	-3.0696	-3.8178	-3.7552	-1.394	-2.2531	-0.7397	0.8079	0.0341	1.6927	4.6229	-7.1292	-4.9472	-3.5475	-0.3215	5.3654	-2.0682	1.6728	0.4097
-5.4308	-5.4735	-5.6584	-3.1066	-3.8206	-3.7609	-1.4139	-2.273	-0.771	0.7766	-0.0171	1.6728	4.6257	-6.1677	-5.189	-3.6585	-0.3385	5.4223	-2.1109	1.7012	0.3414
-5.4223	-5.4394	-5.6442	-3.1549	-3.7837	-3.7808	-1.431	-2.3043	-0.8108	0.7397	-0.0853	1.6187	4.6001	-5.1862	-5.4308	-3.7723	-0.3471	5.4678	-2.1649	1.7382	0.2788
-5.3995	-5.4195	-5.6328	-3.2118	-3.7865	-3.778	-1.4822	-2.3157	-0.8762	0.7226	-0.1678	1.5561	4.5688	-4.2929	-5.6129	-3.8263	-0.3499	5.502	-2.2019	1.7467	0.2304
-5.354	-5.3597	-5.6044	-3.2403	-3.7154	-3.7581	-1.5021	-2.3186	-0.8876	0.6771	-0.2247	1.5078	4.5262	-3.5362	-5.7751	-3.8605	-0.3585	5.5418	-2.2161	1.7695	0.1821
-5.317	-5.2715	-5.5475	-3.2887	-3.6613	-3.7808	-1.522	-2.3328	-0.9388	0.6173	-0.3129	1.4651	4.4664	-3.0981	-5.8974	-3.8406	-0.3585	5.5389	-2.2304	1.7382	0.1479
-5.2658	-5.2203	-5.5276	-3.3313	-3.6187	-3.7581	-1.5504	-2.3413	-0.9843	0.5747	-0.367	1.4139	4.4181	-2.9757	-5.9628	-3.7581	-0.3414	5.5361	-2.2019	1.7297	0.1252
-5.2317	-5.1293	-5.4792	-3.3569	-3.5248	-3.7524	-1.5618	-2.3356	-1.0156	0.5377	-0.421	1.3399	4.3811	-3.1237	-5.977	-3.6073	-0.3385	5.5276	-2.1735	1.6955	0.0967
-5.1663	-5.0553	-5.4195	-3.3854	-3.448	-3.7012	-1.6017	-2.3271	-1.0156	0.4922	-0.4353	1.3143	4.3157	-3.4537	-5.9486	-3.4053	-0.3072	5.4678	-2.1308	1.6699	0.1053
-5.1008	-4.9415	-5.3597	-3.4224	-3.3598	-3.6784	-1.5931	-2.3015	-1.0213	0.4438	-0.4666	1.2802	4.2417	-3.7467	-5.8633	-3.1521	-0.2674	5.4422	-2.0739	1.5789	0.0939
-5.0354	-4.8163	-5.2829	-3.3996	-3.2488	-3.6101	-1.6045	-2.2332	-1.0327	0.4182	-0.4779	1.2517	4.1848	-3.9316	-5.7068	-2.8249	-0.2304	5.4138	-2.0085	1.5504	0.1053
-4.9444	-4.6855	-5.2032	-3.3768	-3.1464	-3.5504	-1.596	-2.2133	-1.0355	0.3926	-0.495	1.1977	4.1506	-3.9743	-5.5276	-2.5006	-0.1764	5.3654	-1.9288	1.5135	0.1252
-4.8761	-4.5632	-5.1151	-3.3456	-3.0412	-3.4963	-1.5789	-2.1621	-1.0071	0.3613	-0.5263	1.1493	4.0767	-3.795	-5.3426	-2.1251	-0.1366	5.3227	-1.8378	1.4765	0.1536
-4.7879	-4.4152	-5.0382	-3.3029	-2.9046	-3.4451	-1.5732	-2.128	-1.0241	0.3499	-0.5491	1.1038	4.0027	-3.5162	-5.1549	-1.815	-0.0597	5.2545	-1.7467	1.4167	0.1849
-4.6826	-4.236	-4.9188	-3.2289	-2.7965	-3.374	-1.5561	-2.054	-1.027	0.3556	-0.5604	1.0839	3.9544	-3.1237	-4.9557	-1.5078	-0.0228	5.2175	-1.65	1.3798	0.2191
-4.5632	-4.0625	-4.7907	-3.1635	-2.6457	-3.2716	-1.4992	-2.0056	-0.9872	0.3357	-0.569	1.0441	3.9031	-2.6343	-4.7481	-1.2062	0.0171	5.1976	-1.5675	1.357	0.2503
-4.4323	-3.9174	-4.6741	-3.0753	-2.5348	-3.2033	-1.485	-1.9345	-0.9673	0.3442	-0.5804	0.9843	3.8434	-2.0995	-4.5745	-1.0441	0.0654	5.1463	-1.4623	1.3143	0.2674
-4.2758	-3.7125	-4.5347	-2.9558	-2.4039	-3.1151	-1.4423	-1.8776	-0.9388	0.3471	-0.5889	0.953	3.7894	-1.4679	-4.3754	-0.8677	0.1053	5.1122	-1.3769	1.2916	0.2987
-4.1848	-3.5703	-4.4067	-2.8733	-2.2901	-3.0497	-1.4025	-1.8036	-0.9246	0.3897	-0.6173	0.9075	3.7438	-0.8392	-4.2616	-0.7823	0.1508	5.061	-1.3115	1.2631	0.3186
-4.034	-3.3996	-4.2531	-2.7254	-2.1536	-2.9473	-1.3542	-1.7439	-0.8677	0.404	-0.6003	0.8961	3.7154	-0.2105	-4.125	-0.7624	0.1878	5.0553	-1.2204	1.2574	0.3357
-3.869	-3.2204	-4.0795	-2.5917	-2.0113	-2.8221	-1.2773	-1.65	-0.8193	0.4466	-0.6088	0.8904	3.6841	0.276	-3.943	-0.8136	0.2048	5.0439	-1.155	1.2717	0.3869
-3.7069	-3.0468	-3.9088	-2.421	-1.8748	-2.7026	-1.2062	-1.5561	-0.7624	0.5035	-0.5718	0.8933	3.6955	0.4979	-3.8406	-0.953	0.2418	5.0382	-1.0896	1.2773	0.4097
-3.539	-2.8961	-3.7467	-2.2958	-1.7439	-2.5803	-1.1067	-1.4452	-0.6657	0.586	-0.5519	0.9502	3.7097	0.4751	-3.7552	-1.0754	0.2589	5.0354	-1.0014	1.3086	0.4694
-3.3598	-2.7197	-3.5561	-2.1194	-1.5988	-2.438	-1.0042	-1.3399	-0.5633	0.6941	-0.4979	0.9843	3.7524	0.1422	-3.7097	-1.2773	0.2816	5.0809	-0.916	1.3456	0.5291
-3.1322	-2.5547	-3.3569	-1.9402	-1.4452	-2.256	-0.899	-1.1948	-0.4267	0.7795	-0.4097	1.0554	3.815	-0.3414	-3.6699	-1.5362	0.2959	5.0866	-0.8307	1.3997	0.6088
-2.953	-2.3811	-3.1379	-1.7866	-1.2574	-2.0654	-0.7624	-1.0782	-0.2987	0.9217	-0.2816	1.1408	3.8832	-0.8591	-3.6329	-1.7496	0.293	5.1293	-0.7425	1.4367	0.6685
-2.7481	-2.2161	-2.9217	-1.6301	-1.1095	-1.9174	-0.6572	-0.9416	-0.1707	1.0469	-0.2048	1.2204	3.9544	-1.283	-3.63	-1.98	0.3215	5.1833	-0.6685	1.4879	0.751
-2.5461	-2.0341	-2.7026	-1.485	-0.9587	-1.7268	-0.5377	-0.7994	0.0085	1.1863	-0.0825	1.32	4.0681	-1.4992	-3.6357	-2.2105	0.3243	5.2146	-0.6031	1.5533	0.8535
-2.347	-1.8321	-2.4494	-1.3257	-0.7596	-1.4992	-0.3755	-0.6515	0.1764	1.3342	0.037	1.4395	4.162	-1.4594	-3.613	-2.3811	0.33	5.2573	-0.5235	1.6073	0.953
-2.1592	-1.6898	-2.2674	-1.1749	-0.606	-1.3485	-0.2503	-0.5405	0.3272	1.4594	0.1252	1.5106	4.2388	-1.2887	-3.6215	-2.5234	0.3499	5.2886	-0.4722	1.6386	1.0241
-1.9686	-1.4964	-2.0284	-1.0213	-0.4153	-1.1436	-0.0825	-0.3784	0.5092	1.6329	0.2532	1.6472	4.3725	-0.9957	-3.6158	-2.5803	0.3528	5.3398	-0.3698	1.6955	1.1152
-1.7809	-1.3285	-1.8008	-0.8705	-0.2418	-0.953	0.0341	-0.2447	0.6657	1.7866	0.3528	1.7411	4.4607	-0.6742	-3.6158	-2.6258	0.3755	5.3682	-0.2959	1.7126	1.229
-1.5846	-1.1323	-1.5903	-0.7084	-0.0427	-0.7482	0.2077	-0.1081	0.825	1.9402	0.4893	1.8577	4.5802	-0.2788	-3.5987	-2.5746	0.4068	5.4138	-0.1963	1.6984	1.3143
-1.4224	-0.9502	-1.3854	-0.5576	0.1508	-0.5405	0.3727	0.0569	0.99	2.0995	0.5946	1.9573	4.6769	0.165	-3.539	-2.4893	0.4381	5.4223	-0.1053	1.6813	1.4395
-1.2574	-0.7795	-1.1863	-0.4267	0.3328	-0.3528	0.532	0.1678	1.1692	2.2389	0.6941	2.0511	4.7794	0.6629	-3.4821	-2.3356	0.4694	5.4536	-0.0228	1.6671	1.5248
-1.0981	-0.5775	-0.9815	-0.2873	0.5348	-0.1508	0.7027	0.3328	1.3229	2.3954	0.8136	2.1479	4.9017	1.1835	-3.4565	-2.1792	0.5235	5.4963	0.091	1.6728	1.6329
-0.9843	-0.421	-0.8279	-0.2105	0.6913	-0.0114	0.8136	0.4552	1.448	2.5291	0.9047	2.2275	4.9643	1.5761	-3.4309	-2.0597	0.5804	5.5162	0.1764	1.6586	1.7012
-0.8734	-0.2447	-0.6543	-0.0654	0.8819	0.165	0.9758	0.5804	1.5846	2.6543	1.0156	2.3214	5.0638	1.8634	-3.4337	-1.8748	0.6259	5.5389	0.2674	1.6415	1.798
-0.7539	-0.0797	-0.4865	0.0341	1.0327	0.3129	1.1237	0.7283	1.7268	2.805	1.0981	2.4153	5.1321	1.7951	-3.4281	-1.7268	0.6771	5.5532	0.3812	1.6273	1.889
-0.6714	0.0484	-0.33	0.1024	1.2204	0.4637	1.2745	0.8392	1.8378	2.9245	1.1721	2.5063	5.2203	1.4253	-3.4423	-1.6244	0.7197	5.5589	0.4722	1.6017	1.9829
-0.5576	0.1764	-0.2134	0.202	1.3542	0.5946	1.3741	0.9416	1.9402	3.0298	1.246	2.5661	5.2601	0.7482	-3.4394	-1.5504	0.7681	5.5816	0.5491	1.6045	2.0483
-0.5178	0.2447	-0.1166	0.2674	1.4423	0.6913	1.4936	1.0042	1.9999	3.135	1.283	2.5945	5.317	-0.1053	-3.4992	-1.5448	0.8136	5.5702	0.6259	1.5988	2.0824
-0.4239	0.3471	-0.0028	0.3585	1.5305	0.8051	1.5732	1.0611	2.0426	3.1834	1.2916	2.6059	5.3114	-0.9559	-3.4906	-1.5391	0.862	5.556	0.6543	1.613	2.1194
-0.3812	0.4153	0.0882	0.4011	1.6216	0.8819	1.6472	1.101	2.1052	3.2687	1.3115	2.6116	5.2943	-1.6813	-3.5191	-1.5761	0.8933	5.5674	0.734	1.6443	2.1592
-0.3072	0.4979	0.1935	0.4722	1.6813	0.9843	1.7524	1.1664	2.1393	3.3399	1.3058	2.6201	5.3142	-2.1735	-3.5106	-1.613	0.9104	5.5759	0.8079	1.6614	2.1706
-0.2703	0.5576	0.2674	0.5377	1.7467	1.0355	1.8349	1.1892	2.1621	3.4053	1.2916	2.6059	5.3256	-2.4665	-3.5162	-1.7069	0.936	5.5731	0.8335	1.7183	2.2247
-0.2162	0.6202	0.3442	0.5917	1.8093	1.1067	1.9004	1.246	2.1991	3.4565	1.2887	2.5974	5.3057	-2.5689	-3.5333	-1.7695	0.9701	5.5873	0.8904	1.7667	2.2304
-0.1735	0.6714	0.4068	0.6543	1.8207	1.1721	1.9487	1.2375	2.2048	3.5049	1.2517	2.5917	5.3114	-2.5575	-3.5362	-1.8691	0.9985	5.5958	0.9274	1.815	2.2474
-0.1479	0.6913	0.4466	0.6828	1.8634	1.2517	2.0113	1.2574	2.2247	3.539	1.2261	2.5405	5.2914	-2.4437	-3.5504	-1.9658	1.0298	5.5987	0.9701	1.8662	2.2503
-0.1081	0.7482	0.5178	0.7197	1.8975	1.2887	2.0767	1.246	2.2474	3.5874	1.2176	2.5319	5.3085	-2.2844	-3.5731	-2.0511	1.0554	5.6271	0.9957	1.9487	2.256
-0.0939	0.8165	0.5889	0.7909	1.9174	1.3513	2.1422	1.266	2.2645	3.6073	1.1778	2.5149	5.3	-2.0511	-3.5987	-2.1223	1.0896	5.6414	1.0156	2.0028	2.2446
-0.0541	0.8421	0.6259	0.8307	1.9459	1.394	2.1735	1.2204	2.2645	3.6556	1.1237	2.4893	5.317	-1.7496	-3.6044	-2.1621	1.1095	5.6926	1.0298	2.0995	2.2332
-0.0085	0.8933	0.7027	0.8961	1.9715	1.4765	2.2304	1.2233	2.293	3.7125	1.1067	2.4693	5.3284	-1.3911	-3.6329	-2.1621	1.1237	5.7495	1.0355	2.1934	2.2531
0	0.9758	0.7653	0.9559	1.9914	1.5248	2.293	1.2318	2.31	3.7581	1.0754	2.4608	5.3398	-1.1266	-3.6699	-2.1649	1.1323	5.812	1.064	2.3015	2.2617
0.037	1.0099	0.825	1.0128	1.9886	1.5846	2.347	1.2148	2.3242	3.7894	1.0042	2.4551	5.3939	-1.0071	-3.7552	-2.1564	1.1379	5.8633	1.0526	2.3954	2.2417
0.0711	1.0725	0.899	1.0867	2.0312	1.6472	2.4096	1.2034	2.3527	3.8633	0.9729	2.4466	5.4365	-1.101	-3.8007	-2.1308	1.1095	5.9344	1.0526	2.4949	2.2275
0.1053	1.0953	0.9559	1.1294	2.0056	1.6671	2.4153	1.1721	2.3299	3.8519	0.9018	2.4011	5.4479	-1.4765	-3.8946	-2.1678	1.081	6.0027	1.0526	2.6059	2.2048
0.1479	1.1323	0.9758	1.1806	1.9942	1.6898	2.4636	1.118	2.3157	3.9003	0.8364	2.3868	5.4536	-1.9942	-3.997	-2.2133	1.0554	6.0595	1.0355	2.6827	2.1763
0.1678	1.1721	1.027	1.2347	1.9857	1.7069	2.4864	1.0867	2.3015	3.9174	0.7766	2.3442	5.5076	-2.5774	-4.0938	-2.2446	0.9815	6.1307	1.0156	2.751	2.1564
0.2191	1.2091	1.0782	1.2916	1.9999	1.7354	2.5063	1.0327	2.2873	3.9259	0.7055	2.3242	5.5247	-3.0838	-4.2218	-2.2986	0.9047	6.2246	1.0156	2.8505	2.1706
0.2532	1.2261	1.1038	1.3285	1.9914	1.7439	2.5348	0.9815	2.293	3.9544	0.6458	2.2844	5.5873	-3.3683	-4.3157	-2.3555	0.825	6.3554	1.0156	2.9473	2.1507
0.3158	1.2717	1.1635	1.3684	1.9886	1.761	2.5632	0.9587	2.2759	3.98	0.623	2.2588	5.6129	-3.3882	-4.4095	-2.4267	0.7368	6.4493	0.99	3.0611	2.1792
0.3897	1.3001	1.1977	1.4566	1.9971	1.778	2.5661	0.9388	2.2759	3.9771	0.5661	2.2304	5.6414	-3.135	-4.4892	-2.4807	0.6259	6.5688	1.0014	3.1493	2.1735
0.4353	1.3001	1.2176	1.4395	1.9601	1.7581	2.549	0.8563	2.2218	3.9771	0.5149	2.182	5.6726	-2.6855	-4.6201	-2.586	0.5405	6.6655	0.9758	3.2318	2.1763
0.5149	1.3513	1.2773	1.4566	1.9544	1.7496	2.5547	0.8563	2.1877	3.9913	0.4751	2.1308	5.684	-2.0426	-4.7168	-2.6486	0.3954	6.8163	0.9758	3.3057	2.1706
0.6031	1.3741	1.32	1.4793	1.9459	1.7439	2.5205	0.8108	2.1706	3.9828	0.4182	2.0881	5.721	-1.2631	-4.822	-2.7254	0.2503	6.9386	0.9673	3.4081	2.1991
0.6913	1.3883	1.3399	1.4594	1.9686	1.7297	2.512	0.7909	2.1251	3.96	0.3698	2.0284	5.7324	-0.4011	-4.9188	-2.788	0.1081	7.0837	0.9729	3.5134	2.1962
0.7823	1.4082	1.3684	1.4452	1.9772	1.7325	2.5177	0.7795	2.0853	3.9629	0.3385	1.9686	5.7466	0.5832	-4.9899	-2.8278	-0.0569	7.2117	0.9729	3.5987	2.2389
0.8364	1.3997	1.3911	1.3854	1.9402	1.6955	2.4551	0.734	2.0369	3.8975	0.2873	1.9004	5.721	1.5391	-5.0638	-2.8932	-0.1878	7.3255	0.9644	3.6585	2.2218
0.8961	1.4082	1.394	1.3598	1.9658	1.6927	2.4181	0.6941	2.0198	3.8548	0.2589	1.8321	5.7096	2.4181	-5.1037	-2.916	-0.3272	7.4279	0.9644	3.7438	2.2617
0.9274	1.3741	1.3968	1.2773	1.9658	1.6671	2.384	0.6799	1.98	3.8206	0.2674	1.778	5.6954	3.1208	-5.1492	-2.953	-0.441	7.5247	0.9701	3.8036	2.2844
0.9473	1.3371	1.3826	1.1948	1.9573	1.6244	2.3043	0.6629	1.9487	3.7438	0.2418	1.7467	5.6527	3.4764	-5.1549	-2.9786	-0.5576	7.5787	0.9843	3.8263	2.3299
0.953	1.3058	1.3769	1.0896	1.9658	1.6159	2.2645	0.7027	1.9373	3.7325	0.2902	1.7183	5.647	3.4906	-5.1407	-2.9757	-0.6685	7.6669	0.9957	3.8804	2.3868
0.9246	1.2603	1.3314	0.9729	1.963	1.6102	2.1877	0.697	1.9174	3.6699	0.3385	1.687	5.6243	3.1549	-5.1151	-2.9643	-0.7482	7.7067	1.0071	3.8633	2.4409
0.899	1.2119	1.3229	0.8677	2.0085	1.5846	2.128	0.751	1.9231	3.6187	0.4153	1.7012	5.6044	2.5433	-5.061	-2.9018	-0.8307	7.7295	1.0412	3.8832	2.5661
0.8165	1.1579	1.2603	0.7254	2.017	1.559	2.0511	0.788	1.9345	3.5418	0.4779	1.6813	5.5589	1.815	-5.0411	-2.879	-0.8677	7.7551	1.0725	3.8747	2.6543
0.7283	1.0924	1.2062	0.5832	2.0341	1.5419	1.9886	0.825	1.9146	3.4963	0.5462	1.7012	5.5389	1.1095	-5.0013	-2.8534	-0.8933	7.7551	1.1038	3.8349	2.7595
0.6088	1.0554	1.1067	0.441	2.0597	1.4964	1.9231	0.8904	1.9373	3.4423	0.6828	1.7268	5.5247	0.5718	-4.9614	-2.8363	-0.916	7.7864	1.1436	3.795	2.879
0.5035	0.9701	1.0298	0.2902	2.054	1.4509	1.8207	0.9132	1.9203	3.3768	0.7596	1.7411	5.4934	0.1735	-4.8932	-2.8221	-0.9018	7.7551	1.1294	3.7495	2.9672
0.3641	0.9331	0.9274	0.1252	2.091	1.4367	1.7695	0.9957	1.9459	3.337	0.8848	1.7837	5.4991	-0.0512	-4.822	-2.7908	-0.8933	7.7522	1.1778	3.6784	3.1094
0.1963	0.8933	0.8279	-0.0171	2.0938	1.3826	1.6728	1.064	1.9544	3.2744	0.9929	1.815	5.482	-0.1963	-4.7225	-2.7709	-0.8478	7.7266	1.2176	3.6158	3.2517
0.0398	0.7994	0.6885	-0.1508	2.0853	1.3342	1.5846	1.101	1.9402	3.2118	1.0896	1.8435	5.4451	-0.3016	-4.6172	-2.7197	-0.8079	7.7096	1.2091	3.5504	3.3541
-0.1252	0.7624	0.569	-0.276	2.0995	1.2887	1.5106	1.1749	1.9459	3.1834	1.2233	1.9061	5.4479	-0.3585	-4.4408	-2.6969	-0.7596	7.701	1.2347	3.502	3.4736
-0.2902	0.6941	0.458	-0.3983	2.1194	1.2318	1.4281	1.2432	1.9658	3.1578	1.3627	1.9658	5.4621	-0.3499	-4.3157	-2.6571	-0.6998	7.6783	1.3029	3.4309	3.5959
-0.4751	0.6429	0.3215	-0.5178	2.1166	1.1692	1.3485	1.2973	1.98	3.1293	1.4736	2.0455	5.482	-0.3016	-4.1677	-2.64	-0.6316	7.6584	1.3086	3.3854	3.7353
-0.6429	0.6145	0.2105	-0.6344	2.128	1.1266	1.2802	1.4196	2.0284	3.1379	1.6301	2.1564	5.5247	-0.2134	-4.034	-2.6343	-0.5519	7.6612	1.3712	3.3399	3.8633
-0.771	0.5775	0.1024	-0.7425	2.1621	1.0839	1.2375	1.4992	2.0284	3.135	1.7951	2.2588	5.5731	-0.128	-3.8576	-2.6116	-0.4751	7.647	1.394	3.3143	3.9743
-0.8876	0.5633	0.0171	-0.825	2.1678	1.0725	1.1835	1.6216	2.108	3.1322	1.9601	2.3811	5.6385	-0.1394	-3.7325	-2.6002	-0.3897	7.6384	1.4452	3.2801	4.1222
-0.9815	0.569	-0.0341	-0.8648	2.2304	1.0867	1.1721	1.7382	2.1877	3.1777	2.128	2.5319	5.7039	-0.3556	-3.65	-2.5974	-0.2987	7.6413	1.4907	3.2602	4.2701
-1.0441	0.5576	-0.1081	-0.9303	2.2531	1.0498	1.1209	1.8406	2.2531	3.2005	2.2816	2.6599	5.7751	-0.8392	-3.5731	-2.5831	-0.1991	7.6043	1.5391	3.2147	4.3697
-1.081	0.5832	-0.1366	-0.9729	2.31	1.081	1.1294	1.9829	2.3925	3.2602	2.5205	2.8733	5.8803	-1.4594	-3.5219	-2.5604	-0.1138	7.5901	1.5988	3.1862	4.5006
-1.0981	0.6116	-0.1707	-1.0042	2.3698	1.1294	1.1664	2.1223	2.4949	3.3484	2.6969	3.0298	5.9685	-2.145	-3.5248	-2.5718	-0.037	7.5787	1.65	3.1777	4.6229
-1.0526	0.6657	-0.1536	-1.0241	2.4978	1.1977	1.2091	2.293	2.6286	3.448	2.9473	3.2346	6.1051	-2.7851	-3.502	-2.5575	0.0228	7.5872	1.761	3.1749	4.7794
-1.0156	0.6941	-0.1508	-1.027	2.5632	1.2546	1.2404	2.4409	2.7652	3.5219	3.1322	3.4053	6.1819	-3.1635	-3.5475	-2.5433	0.1053	7.5446	1.8008	3.1293	4.9045
-0.9445	0.7937	-0.074	-1.0156	2.6969	1.3627	1.3314	2.6258	2.9302	3.6386	3.3712	3.6215	6.3127	-3.2545	-3.5731	-2.5348	0.1735	7.536	1.9004	3.118	5.0582
-0.8449	0.8904	-0.0199	-1.0042	2.7993	1.4537	1.4025	2.7766	3.0781	3.741	3.6158	3.8263	6.4294	-3.0924	-3.6158	-2.5831	0.2276	7.5076	1.9999	3.0952	5.2146
-0.7766	0.9616	0.0228	-0.9473	2.9387	1.5874	1.4765	2.9672	3.2517	3.8406	3.8349	4.0169	6.546	-2.6685	-3.6699	-2.6059	0.2845	7.4535	2.0938	3.081	5.3796
-0.6629	1.0469	0.091	-0.9189	3.0611	1.7325	1.5618	3.1237	3.4167	3.9458	4.0511	4.236	6.6541	-2.128	-3.7353	-2.6628	0.3385	7.408	2.1934	3.0554	5.5304
-0.5946	1.1237	0.1764	-0.8819	3.1834	1.8435	1.6586	3.2858	3.5959	4.0369	4.2417	4.4067	6.7423	-1.4907	-3.832	-2.7993	0.3954	7.3568	2.2702	3.0355	5.6584
-0.5121	1.2204	0.2845	-0.825	3.3114	1.9601	1.7211	3.4508	3.7438	4.1279	4.438	4.5802	6.8134	-0.8193	-3.9373	-2.9131	0.441	7.2914	2.384	3.0013	5.8064
-0.4637	1.2631	0.3328	-0.7852	3.3911	2.0568	1.7837	3.5703	3.8975	4.2019	4.6001	4.7367	6.8902	-0.0569	-4.0938	-3.1151	0.495	7.2288	2.4494	2.97	5.8974
-0.3841	1.3513	0.4267	-0.7254	3.5362	2.182	1.8805	3.7353	4.0397	4.3014	4.7623	4.9102	6.9671	0.7624	-4.2303	-3.3228	0.5405	7.1776	2.549	2.9615	6.0112
-0.33	1.4423	0.5291	-0.6401	3.6585	2.31	1.9601	3.8861	4.1848	4.3754	4.9358	5.0582	7.041	1.5675	-4.3441	-3.5532	0.586	7.1264	2.6628	2.9387	6.1421
-0.2788	1.4992	0.6031	-0.5519	3.7894	2.421	2.0426	4.0056	4.3071	4.4266	5.0866	5.2004	7.1121	2.2901	-4.5319	-3.8235	0.6401	7.0524	2.7481	2.9416	6.2416
-0.1906	1.6017	0.7311	-0.4552	3.906	2.5917	2.1621	4.1506	4.475	4.5148	5.2402	5.3739	7.1804	2.8022	-4.6826	-4.0568	0.6913	6.9756	2.8392	2.9359	6.3497
-0.1479	1.6642	0.8335	-0.3641	4.0283	2.6855	2.2019	4.2815	4.5888	4.5802	5.3597	5.4707	7.2231	3.0326	-4.859	-4.3469	0.7653	6.8988	2.933	2.9103	6.4379
-0.091	1.7638	0.9473	-0.2503	4.1506	2.7937	2.273	4.401	4.7111	4.6229	5.4906	5.5987	7.2572	2.9473	-5.0212	-4.5944	0.8392	6.8277	3.044	2.8961	6.5318
-0.0142	1.8748	1.1067	-0.1081	4.2844	2.9416	2.3669	4.5119	4.8391	4.6855	5.6129	5.7324	7.2857	2.6315	-5.135	-4.8334	0.916	6.7338	3.1293	2.879	6.6001
0.0939	2.0198	1.246	0.0028	4.4095	3.0781	2.438	4.6599	4.9557	4.7367	5.7381	5.8519	7.3141	2.1991	-5.2488	-5.0439	0.9673	6.6285	3.2232	2.8762	6.6683
0.1707	2.1536	1.3968	0.1166	4.5461	3.2033	2.4978	4.7424	5.0496	4.7424	5.8149	5.9657	7.3056	1.7667	-5.3199	-5.2203	1.0611	6.5318	3.3171	2.842	6.7252
0.2788	2.3157	1.5561	0.276	4.7054	3.3484	2.6002	4.8932	5.1691	4.8021	5.9088	6.0453	7.2999	1.5277	-5.3341	-5.3199	1.1209	6.4351	3.4394	2.8306	6.7964
0.4011	2.4693	1.7553	0.3926	4.859	3.4906	2.6912	4.9927	5.3	4.8704	5.9941	6.1563	7.3369	1.4936	-5.337	-5.4081	1.192	6.3583	3.5418	2.8221	6.8703
0.5178	2.6571	1.9288	0.5405	5.0212	3.6272	2.7766	5.1065	5.3939	4.9045	6.0624	6.2246	7.317	1.6073	-5.2772	-5.428	1.266	6.2672	3.6642	2.8079	6.9045
0.6344	2.8335	2.091	0.6515	5.1663	3.7637	2.8392	5.2089	5.4991	4.9245	6.1051	6.2843	7.2743	1.8691	-5.2459	-5.4365	1.3371	6.1534	3.7751	2.7766	6.913
0.7738	3.0525	2.2787	0.7653	5.317	3.8832	2.8989	5.2658	5.556	4.9501	6.1022	6.3213	7.2601	2.2389	-5.1435	-5.3682	1.4196	6.0567	3.8633	2.7567	6.8817
0.9274	3.2602	2.4466	0.8734	5.4735	3.997	2.9587	5.354	5.6271	4.9757	6.0994	6.344	7.2203	2.64	-5.0638	-5.3455	1.4936	5.9628	3.9316	2.7737	6.8476
1.0498	3.4309	2.6087	0.9786	5.5702	4.0938	3.0269	5.3739	5.6812	4.9984	6.0766	6.3782	7.2003	3.1208	-4.9415	-5.2857	1.5704	5.8604	3.9828	2.7652	6.8049
1.1436	3.6073	2.7595	1.0469	5.6783	4.199	3.0781	5.4109	5.7153	5.0212	6.0368	6.3668	7.1434	3.6244	-4.8562	-5.152	1.6586	5.7864	4.0539	2.7311	6.7252
1.2574	3.7637	2.879	1.118	5.7551	4.273	3.1379	5.4166	5.7551	5.0411	5.9628	6.3782	7.0979	4.1535	-4.7196	-5.0553	1.7411	5.6926	4.1108	2.7168	6.6058
1.3741	3.9316	3.007	1.2005	5.8604	4.3555	3.1692	5.4109	5.7978	5.0496	5.8775	6.381	7.0581	4.6229	-4.5774	-4.9159	1.8349	5.63	4.1165	2.6998	6.492
1.4936	4.0852	3.118	1.2404	5.9173	4.4209	3.2147	5.4223	5.8007	5.0439	5.8007	6.3497	7.0325	4.9501	-4.4607	-4.7879	1.9231	5.5475	4.1051	2.6855	6.3213
1.5618	4.2275	3.2204	1.2859	5.9856	4.4949	3.2574	5.3768	5.8604	5.0923	5.7267	6.3696	7.0012	5.0183	-4.3299	-4.6257	2.017	5.4479	4.1393	2.6713	6.2103
1.6699	4.3299	3.2943	1.3342	6.0453	4.5603	3.3086	5.3597	5.9059	5.1207	5.6186	6.3896	7.0097	4.7509	-4.2075	-4.4636	2.0824	5.3967	4.1336	2.6315	6.0624
1.7524	4.438	3.3541	1.3485	6.1022	4.6314	3.3541	5.3426	5.9486	5.1321	5.5418	6.3981	6.987	4.2189	-4.1051	-4.29	2.1507	5.2772	4.1137	2.603	5.9031
1.8378	4.5347	3.4167	1.3741	6.1421	4.7196	3.4053	5.337	6.0055	5.1634	5.4877	6.455	7.004	3.4707	-3.9913	-4.125	2.2247	5.2175	4.1051	2.5661	5.7779
1.9231	4.6115	3.4793	1.3854	6.1705	4.7822	3.4451	5.3114	6.0425	5.1833	5.4251	6.4834	7.0183	2.6713	-3.8918	-3.9458	2.3043	5.1094	4.0738	2.5319	5.6357
1.9971	4.6826	3.5219	1.4082	6.2246	4.8363	3.5333	5.317	6.1563	5.2402	5.3882	6.5517	7.041	2.0312	-3.7581	-3.7239	2.3925	5.0041	4.0653	2.4722	5.4991
2.0739	4.7338	3.5845	1.4452	6.2814	4.9586	3.5874	5.3256	6.2502	5.3057	5.3654	6.6427	7.0695	1.5931	-3.6272	-3.5191	2.475	4.9102	4.0454	2.4153	5.4024
2.1678	4.8163	3.6898	1.485	6.344	5.0667	3.6869	5.3853	6.3611	5.3711	5.3569	6.7338	7.1292	1.3798	-3.485	-3.3029	2.5689	4.8306	4.0312	2.3214	5.3199
2.2389	4.8732	3.7751	1.5277	6.4208	5.1634	3.7751	5.4251	6.4977	5.4621	5.3455	6.8334	7.1946	1.3513	-3.3399	-3.0895	2.6656	4.731	4.0113	2.2361	5.2345
2.347	4.9273	3.8662	1.5846	6.492	5.2744	3.8747	5.4507	6.6171	5.5589	5.3626	6.95	7.243	1.4879	-3.1635	-2.9416	2.7794	4.6257	4.0169	2.1308	5.1549
2.4523	4.987	3.9629	1.6472	6.583	5.4024	4.0198	5.5247	6.7452	5.6698	5.4109	7.0837	7.3198	1.7012	-2.9985	-2.7851	2.8705	4.5375	4.0226	2.0455	5.1094
2.5461	5.061	4.0767	1.7297	6.6826	5.5276	4.1307	5.5816	6.8902	5.812	5.4195	7.1975	7.4194	2.0398	-2.8306	-2.6713	2.9643	4.4664	4.0027	1.9658	5.0297
2.64	5.1094	4.1563	1.8093	6.7651	5.6726	4.273	5.6328	7.0296	5.9344	5.4166	7.3056	7.5047	2.4153	-2.6884	-2.6173	3.0611	4.3953	4.0027	1.8833	4.9842
2.7481	5.1435	4.2588	1.8833	6.8476	5.8064	4.4266	5.6869	7.1463	6.0738	5.428	7.4393	7.5958	2.8733	-2.5575	-2.5774	3.1436	4.3612	3.9572	1.8349	4.9159
2.8164	5.2061	4.3839	1.9658	6.9159	5.9458	4.5944	5.7409	7.3113	6.2302	5.4479	7.5645	7.7266	3.3768	-2.4494	-2.5974	3.2118	4.3327	3.9316	1.8065	4.859
2.8534	5.226	4.455	2.0625	6.9727	6.0652	4.7452	5.795	7.4194	6.3896	5.4365	7.6726	7.8347	3.8633	-2.3925	-2.6855	3.2943	4.3356	3.9117	1.7894	4.7765
2.8989	5.2516	4.5432	2.1877	7.004	6.1989	4.9102	5.812	7.5389	6.5546	5.4365	7.7778	7.9599	4.1933	-2.347	-2.7737	3.3541	4.3299	3.8832	1.798	4.7196
2.9473	5.2687	4.6371	2.2844	7.0723	6.3184	5.0638	5.8746	7.6726	6.7281	5.4451	7.8973	8.0851	4.2815	-2.347	-2.8961	3.4252	4.3384	3.8832	1.8378	4.6798
2.9871	5.3028	4.7253	2.4096	7.115	6.4095	5.2175	5.9202	7.8063	6.913	5.482	8.0168	8.2188	4.0681	-2.3527	-3.0013	3.4935	4.364	3.8519	1.8492	4.6542
3.0013	5.3426	4.7708	2.5063	7.1577	6.5346	5.3939	5.9657	7.9229	7.078	5.5133	8.1335	8.3525	3.6443	-2.3669	-3.0924	3.5703	4.4038	3.8434	1.889	4.6172
3.0184	5.3939	4.8448	2.6571	7.2032	6.6541	5.5475	6.0197	8.0282	7.2459	5.5418	8.2472	8.4834	3.0838	-2.4011	-3.1493	3.6215	4.4465	3.8406	1.9573	4.6428
3.0412	5.3995	4.9102	2.7538	7.243	6.7907	5.7068	6.1193	8.1676	7.4194	5.6015	8.3724	8.6256	2.5205	-2.4466	-3.1862	3.6926	4.4807	3.8861	2.0113	4.6741
3.0696	5.4849	5.0297	2.8904	7.3426	6.9215	5.886	6.2018	8.3241	7.5958	5.6983	8.5175	8.7821	2.1308	-2.4551	-3.1663	3.7268	4.5432	3.9515	2.1251	4.7509
3.118	5.5276	5.0923	3.0156	7.4393	7.0296	6.0482	6.2871	8.4464	7.7722	5.7864	8.6256	8.9385	1.9459	-2.4807	-3.1749	3.7865	4.6201	4.0084	2.2133	4.8363
3.1549	5.6328	5.1919	3.1521	7.5104	7.1491	6.2502	6.4095	8.5772	7.9628	5.9059	8.7792	9.1035	1.9971	-2.4636	-3.1265	3.8263	4.7111	4.1165	2.3413	4.9785
3.2204	5.7438	5.317	3.3285	7.6299	7.2942	6.4208	6.546	8.728	8.1534	6.0681	8.9243	9.26	2.2247	-2.438	-3.0696	3.8235	4.8163	4.2332	2.458	5.1407
3.2631	5.795	5.4251	3.4593	7.7409	7.4279	6.5574	6.6826	8.8617	8.3184	6.1876	9.0694	9.4079	2.5433	-2.3868	-3.0212	3.8462	4.9102	4.3384	2.5917	5.317
3.3285	5.8945	5.5076	3.5959	7.8234	7.5218	6.6996	6.7821	8.967	8.4435	6.2957	9.1576	9.5047	2.8847	-2.3698	-2.9757	3.8719	4.9956	4.4664	2.7112	5.4849
3.4252	6.0453	5.6726	3.7723	7.9571	7.6925	6.8789	6.9415	9.0979	8.6228	6.4834	9.3084	9.6981	3.3313	-2.2873	-2.9274	3.8491	5.1407	4.6201	2.8705	5.6926
3.5219	6.1648	5.795	3.9145	8.0737	7.8262	7.0524	7.0979	9.2259	8.7735	6.5972	9.4108	9.8091	3.7666	-2.2446	-2.879	3.8434	5.2801	4.7538	3.0042	5.9088
3.6187	6.2445	5.9401	4.0596	8.1818	7.9343	7.1861	7.2146	9.3368	8.9186	6.7281	9.4734	9.9229	4.2303	-2.1536	-2.8221	3.8434	5.4166	4.8903	3.135	6.1051
3.7211	6.3554	6.051	4.1905	8.307	8.0367	7.3113	7.3312	9.4307	9.0495	6.8817	9.5872	10.0452	4.694	-2.1052	-2.7709	3.8235	5.5333	5.061	3.2574	6.3298
3.8036	6.4635	6.1876	4.3242	8.4322	8.1619	7.4308	7.4649	9.5331	9.1548	6.9927	9.6498	10.1476	5.0838	-2.017	-2.6912	3.815	5.667	5.2089	3.3968	6.5403
3.8975	6.5574	6.3241	4.438	8.5488	8.2529	7.5588	7.6015	9.6327	9.2856	7.1292	9.7266	10.2529	5.2232	-1.9459	-2.6116	3.795	5.8064	5.3796	3.5049	6.7964
3.98	6.6513	6.4294	4.5489	8.6654	8.361	7.6413	7.7295	9.718	9.3909	7.2686	9.7977	10.3411	5.1065	-1.9032	-2.4949	3.7837	5.9173	5.5446	3.6016	6.9984
4.0482	6.711	6.5176	4.657	8.7593	8.435	7.7238	7.8433	9.8062	9.4734	7.3938	9.8432	10.415	4.6798	-1.9004	-2.384	3.7808	6.0112	5.6812	3.6898	7.2117
4.1393	6.8248	6.6285	4.7538	8.876	8.5488	7.8091	7.9315	9.9086	9.5587	7.5446	9.9086	10.4776	4.0169	-1.8861	-2.2702	3.7865	6.1136	5.8576	3.795	7.4706
4.199	6.9045	6.7509	4.8448	8.9755	8.6256	7.9144	8.0766	9.9712	9.6498	7.6868	9.9883	10.5544	3.2261	-1.9004	-2.1934	3.8036	6.2302	6.0169	3.8377	7.701
4.273	7.0012	6.8504	4.9131	9.0893	8.7138	7.9599	8.1761	10.0708	9.7266	7.8177	10.068	10.617	2.4779	-1.926	-2.1137	3.8064	6.3156	6.1847	3.9003	7.9343
4.3356	7.0979	6.9557	4.9956	9.2145	8.8162	8.0282	8.307	10.1846	9.7863	7.9855	10.1277	10.6853	1.9089	-1.9743	-2.0625	3.8064	6.418	6.3611	3.9743	8.2046
4.4124	7.1491	7.0211	5.0354	9.3055	8.8959	8.0851	8.4208	10.25	9.8546	8.1306	10.2187	10.7621	1.5789	-2.0198	-2.0398	3.8235	6.4664	6.5062	4.0454	8.4521
4.4579	7.1946	7.0922	5.0951	9.4136	8.9727	8.1477	8.5545	10.3411	9.9286	8.3098	10.3041	10.8474	1.448	-2.0881	-2.0625	3.815	6.5346	6.6655	4.1137	8.7053
4.4892	7.2715	7.1719	5.0951	9.499	9.0523	8.1761	8.6626	10.4122	9.9712	8.4521	10.361	10.8759	1.4708	-2.1678	-2.1479	3.8235	6.5858	6.8248	4.1677	8.9471
4.529	7.3141	7.2316	5.1151	9.5758	9.0979	8.1903	8.7508	10.4947	10.0139	8.6114	10.4349	10.9299	1.6216	-2.2531	-2.2503	3.8093	6.6541	6.9841	4.2616	9.1775
4.5717	7.3426	7.2487	5.1037	9.6526	9.1348	8.2273	8.8475	10.5658	10.0424	8.7508	10.4975	11.0011	1.8748	-2.3527	-2.3669	3.795	6.7252	7.1207	4.3128	9.3966
4.5347	7.3454	7.2629	5.0695	9.6896	9.169	8.2103	8.93	10.6113	10.0822	8.8617	10.5317	11.0437	2.219	-2.4324	-2.5405	3.7808	6.7736	7.2487	4.3811	9.6014
4.5461	7.3625	7.2487	5.007	9.7209	9.1747	8.1989	9.0097	10.6398	10.1078	8.9812	10.5857	11.0836	2.6713	-2.5177	-2.6912	3.7666	6.8419	7.3625	4.4664	9.7835
4.5091	7.3653	7.2487	4.9671	9.7323	9.1917	8.1932	9.0893	10.6824	10.1106	9.0893	10.6056	11.1433	3.1436	-2.603	-2.8534	3.7353	6.8874	7.4848	4.5006	9.9769
4.4807	7.3056	7.1804	4.8562	9.7465	9.1263	8.1391	9.132	10.6967	10.0964	9.1633	10.6426	11.1348	3.65	-2.6742	-3.0099	3.7154	6.9415	7.5531	4.5489	10.1476
4.3925	7.243	7.0894	4.7566	9.7095	9.0922	8.0737	9.1377	10.6426	10.0395	9.2316	10.6199	11.1291	3.9885	-2.7993	-3.1663	3.6812	6.9699	7.6043	4.5632	10.2699
4.3299	7.1975	7.0154	4.6485	9.6725	9.0154	8.0282	9.1747	10.6455	10.0253	9.3169	10.6455	11.1291	4.1307	-2.8648	-3.3541	3.6357	6.9984	7.6669	4.5888	10.4036
4.2531	7.1121	6.9016	4.5176	9.6298	8.9414	7.9372	9.1804	10.6227	9.9627	9.3909	10.6512	11.1462	3.9913	-2.9814	-3.4821	3.5987	6.9955	7.701	4.603	10.5118
4.125	6.9984	6.7565	4.3782	9.5217	8.8504	7.8433	9.1889	10.5573	9.8973	9.4535	10.6568	11.1234	3.576	-3.0867	-3.65	3.5675	6.9813	7.7096	4.6087	10.6227
4.0198	6.8732	6.6285	4.2104	9.4478	8.7508	7.7437	9.186	10.5146	9.8233	9.5331	10.6682	11.1234	2.9587	-3.2289	-3.8349	3.5362	6.9813	7.7352	4.5831	10.7564
3.8662	6.7338	6.4635	4.0369	9.3511	8.6029	7.61	9.169	10.4236	9.7266	9.59	10.6483	11.0693	2.2986	-3.3399	-3.9743	3.4963	6.9585	7.7096	4.5717	10.8019
3.7182	6.5688	6.3071	3.8861	9.2287	8.4891	7.5047	9.1377	10.3524	9.6242	9.6498	10.6255	11.0153	1.724	-3.4736	-4.1336	3.4764	6.8988	7.6527	4.5404	10.856
3.5788	6.4152	6.1164	3.6955	9.0893	8.344	7.3767	9.0779	10.2586	9.5189	9.6839	10.6142	10.9612	1.3428	-3.5902	-4.2502	3.448	6.8362	7.6271	4.4977	10.9271
3.4195	6.2388	5.9344	3.4963	8.9556	8.1903	7.2515	9.0438	10.1647	9.3937	9.7237	10.563	10.9015	1.1351	-3.7012	-4.3043	3.4167	6.7907	7.5417	4.4636	10.947
3.246	6.0368	5.7324	3.3086	8.8077	7.9969	7.0695	8.9698	10.0367	9.2629	9.7095	10.489	10.8048	1.064	-3.7751	-4.3754	3.4025	6.6797	7.445	4.401	10.9385
3.118	5.8718	5.5418	3.1493	8.6654	7.866	6.9244	8.9272	9.9342	9.1292	9.7294	10.452	10.7137	1.118	-3.8491	-4.364	3.374	6.6115	7.3625	4.364	10.9442
2.8904	5.6385	5.3142	2.9217	8.4777	7.6783	6.7765	8.8304	9.8034	8.9869	9.6896	10.3667	10.5971	1.1835	-3.906	-4.3839	3.3598	6.5176	7.2288	4.2844	10.8787
2.7311	5.4792	5.1207	2.7851	8.3241	7.5104	6.6513	8.7508	9.6867	8.8475	9.6782	10.3012	10.4975	1.283	-3.9686	-4.3185	3.3114	6.455	7.1065	4.2559	10.8418
2.5177	5.2601	4.9245	2.5831	8.1335	7.3369	6.4891	8.6455	9.5132	8.6939	9.5986	10.1931	10.3439	1.4594	-4.0027	-4.2787	3.2687	6.3469	6.9585	4.2047	10.7393
2.3186	5.0212	4.7196	2.3982	7.9428	7.1605	6.3327	8.509	9.3852	8.5204	9.5075	10.0736	10.2045	1.6898	-4.0824	-4.2132	3.2289	6.2928	6.8106	4.145	10.6369
2.108	4.7851	4.4721	2.2076	7.7522	6.9528	6.1648	8.3525	9.1804	8.3269	9.4051	9.9229	10.048	1.9288	-4.1535	-4.1677	3.172	6.2103	6.6228	4.0795	10.4861
1.9089	4.529	4.2588	2.0284	7.536	6.7793	5.9941	8.233	9.021	8.142	9.2998	9.7806	9.8347	2.091	-4.236	-4.1506	3.1094	6.0852	6.4379	4.0113	10.3496
1.7041	4.2929	4.0226	1.8406	7.3056	6.5745	5.8064	8.0538	8.8361	7.9599	9.1604	9.6156	9.6384	2.1052	-4.3071	-4.1137	3.044	5.9913	6.2274	3.9088	10.1732
1.4793	4.0226	3.7894	1.6244	7.0922	6.3839	5.6129	7.8717	8.6341	7.7181	8.9954	9.4336	9.4279	1.8577	-4.4067	-4.0738	2.9558	5.8433	6.0197	3.8349	9.9712
1.2773	3.7723	3.576	1.4623	6.8618	6.2018	5.4223	7.701	8.4407	7.536	8.8532	9.26	9.2031	1.3314	-4.4807	-4.0568	2.8562	5.7352	5.8007	3.7438	9.7721
1.0867	3.5276	3.3683	1.3001	6.6427	6.0197	5.2573	7.5133	8.2586	7.317	8.674	9.0836	8.9755	0.569	-4.5347	-4.0056	2.7567	5.5958	5.6072	3.65	9.5701
0.9075	3.2915	3.1436	1.1038	6.4208	5.8092	5.0525	7.3198	8.051	7.1008	8.4976	8.8731	8.7423	-0.3129	-4.5575	-3.9856	2.6543	5.4479	5.3796	3.5589	9.3368
0.7254	3.0525	2.9473	0.953	6.2217	5.6584	4.896	7.1406	7.8831	6.8732	8.3468	8.7024	8.5175	-1.1152	-4.6257	-3.9344	2.5433	5.2886	5.189	3.4281	9.1519
0.5519	2.8193	2.7766	0.7994	6.014	5.465	4.7253	6.9557	7.701	6.6427	8.2017	8.5204	8.2643	-1.7524	-4.6599	-3.9003	2.4551	5.152	4.987	3.3512	8.9329
0.4324	2.6116	2.6201	0.6771	5.812	5.3028	4.5603	6.7793	7.5303	6.4493	8.051	8.3582	8.0111	-2.1536	-4.694	-3.8491	2.3499	4.9813	4.7907	3.2517	8.7252
0.3072	2.4238	2.4864	0.5604	5.6584	5.1919	4.4294	6.6427	7.3682	6.2558	7.9087	8.2074	7.8177	-2.2816	-4.6997	-3.7894	2.2361	4.8448	4.6201	3.2147	8.5403
0.1764	2.273	2.3726	0.4694	5.5133	5.061	4.2929	6.5233	7.2515	6.0738	7.7693	8.068	7.6128	-2.2247	-4.7139	-3.7495	2.1422	4.7139	4.475	3.1407	8.3696
0.0512	2.1336	2.256	0.3841	5.354	4.9444	4.1791	6.344	7.1093	5.8775	7.6413	7.9116	7.3938	-2.0056	-4.7424	-3.741	2.0398	4.5745	4.3157	3.0838	8.2017
-0.0569	2.0028	2.1735	0.3129	5.2488	4.8476	4.071	6.2075	7.0012	5.7466	7.4877	7.7778	7.2032	-1.7126	-4.768	-3.7467	1.9459	4.4636	4.1478	3.0127	8.0282
-0.1337	1.9089	2.1052	0.2816	5.1264	4.7737	3.9885	6.0652	6.876	5.6072	7.3625	7.6669	7.0211	-1.3257	-4.7936	-3.7495	1.8406	4.3526	4.0056	2.9843	7.8433
-0.2532	1.8065	2.0028	0.2134	5.024	4.657	3.8975	5.9458	6.7622	5.4479	7.2174	7.519	6.8191	-0.8563	-4.8334	-3.8263	1.724	4.2303	3.8633	2.9615	7.6754
-0.3471	1.7297	1.9231	0.1991	4.8875	4.5717	3.8206	5.7978	6.6228	5.3199	7.0382	7.3653	6.6228	-0.3556	-4.8932	-3.8832	1.6472	4.1279	3.7239	2.9103	7.482
-0.4239	1.6614	1.8634	0.1622	4.7907	4.475	3.7381	5.6328	6.5147	5.1976	6.859	7.2032	6.4436	0.1422	-4.9444	-3.96	1.559	4.0226	3.5504	2.8562	7.2686
-0.5462	1.5704	1.7752	0.1053	4.6713	4.3697	3.63	5.4707	6.3753	5.0496	6.6854	7.0496	6.253	0.5491	-5.0553	-4.0795	1.4936	3.9316	3.4053	2.7937	7.0581
-0.5661	1.5192	1.7183	0.0939	4.5632	4.29	3.5618	5.3455	6.2473	4.9529	6.5346	6.9016	6.088	0.7567	-5.1407	-4.1706	1.4111	3.8519	3.2716	2.768	6.8561
-0.6543	1.448	1.6642	0.0541	4.4408	4.1933	3.4679	5.1606	6.1022	4.8363	6.327	6.7338	5.9088	0.6401	-5.263	-4.3071	1.3712	3.7325	3.1265	2.7112	6.6712
-0.6913	1.3826	1.5817	0.0484	4.3213	4.1051	3.411	5.0183	5.9742	4.7111	6.1421	6.5915	5.7523	0.2475	-5.4138	-4.4437	1.3143	3.6613	2.9786	2.6599	6.4578
-0.7368	1.3542	1.5647	0.0455	4.2445	4.0369	3.3285	4.8761	5.8633	4.6172	5.9571	6.4237	5.6158	-0.367	-5.5389	-4.5717	1.2717	3.6073	2.8591	2.6571	6.2814
-0.7738	1.3058	1.5106	0.0512	4.1535	3.96	3.2887	4.7424	5.7438	4.5603	5.8035	6.3099	5.4906	-1.081	-5.684	-4.6912	1.2176	3.5418	2.7652	2.6457	6.1364
-0.7738	1.2859	1.485	0.0455	4.0767	3.9202	3.2346	4.6144	5.6158	4.492	5.6527	6.1933	5.3626	-1.7354	-5.8348	-4.8277	1.1835	3.4992	2.6855	2.6429	5.96
-0.7681	1.2688	1.4679	0.0654	4.0255	3.8519	3.2318	4.492	5.5219	4.4522	5.5276	6.0852	5.2402	-2.2531	-5.9714	-4.9273	1.1465	3.4793	2.603	2.6457	5.8206
-0.7766	1.2517	1.4423	0.0711	3.96	3.8206	3.2289	4.4124	5.4593	4.401	5.4052	5.9714	5.1663	-2.5092	-6.1164	-5.0297	1.118	3.4736	2.5262	2.64	5.7125
-0.7653	1.2404	1.4196	0.0996	3.906	3.7922	3.2118	4.3157	5.3597	4.4152	5.2801	5.8917	5.1094	-2.5547	-6.2729	-5.0866	1.0668	3.4565	2.4523	2.6855	5.5788
-0.7368	1.2404	1.4338	0.1252	3.8889	3.7381	3.2204	4.2246	5.3114	4.4181	5.1549	5.832	5.0354	-2.4096	-6.4009	-5.135	1.0384	3.4764	2.421	2.7396	5.482
-0.7197	1.2802	1.4679	0.1565	3.8406	3.7524	3.2887	4.1478	5.2658	4.4437	5.0525	5.7495	5.0183	-2.1109	-6.5318	-5.152	0.9815	3.502	2.3612	2.7737	5.3569
-0.6742	1.2631	1.4395	0.1878	3.8064	3.7211	3.3029	4.0596	5.1919	4.4579	4.9102	5.6499	4.9671	-1.7667	-6.6627	-5.1776	0.9559	3.5134	2.3015	2.8022	5.2374
-0.6486	1.2546	1.4509	0.2361	3.7666	3.7353	3.3598	3.9771	5.1634	4.4977	4.7851	5.5845	4.9614	-1.3172	-6.8049	-5.2146	0.899	3.5475	2.2702	2.8392	5.1492
-0.6116	1.266	1.4651	0.2873	3.7154	3.7154	3.4252	3.9145	5.1179	4.5347	4.6599	5.5333	4.9643	-0.8307	-6.9358	-5.2061	0.8193	3.5987	2.2161	2.8961	5.0695
-0.6173	1.2204	1.4566	0.3158	3.6386	3.6812	3.465	3.8036	5.0411	4.566	4.529	5.4195	4.9501	-0.3044	-7.0382	-5.2545	0.771	3.6585	2.145	2.9643	4.97
-0.6629	1.1635	1.4111	0.3072	3.576	3.6471	3.4821	3.6812	4.9557	4.5916	4.3327	5.2914	4.9102	0.1252	-7.1861	-5.3085	0.697	3.6955	2.0739	3.0156	4.8277
-0.6885	1.1123	1.3883	0.3556	3.4906	3.5931	3.5504	3.5532	4.8789	4.6257	4.1763	5.1776	4.8846	0.367	-7.2459	-5.3796	0.6259	3.7723	2.0028	3.0668	4.7168
-0.7254	1.0213	1.3172	0.3727	3.3911	3.5418	3.5731	3.4394	4.7936	4.6542	3.9913	5.0439	4.8505	0.3869	-7.3312	-5.4877	0.5519	3.815	1.963	3.1151	4.5888
-0.8279	0.9189	1.229	0.3613	3.2574	3.448	3.5788	3.3	4.6713	4.6286	3.7694	4.8789	4.7737	0.0654	-7.3625	-5.6129	0.4808	3.8662	1.8548	3.1322	4.4579
-0.8933	0.788	1.1721	0.3698	3.1379	3.3712	3.5874	3.1237	4.5461	4.603	3.5845	4.7338	4.7054	-0.5291	-7.4422	-5.7352	0.3983	3.9031	1.7894	3.172	4.3327
-0.9872	0.6543	1.0697	0.3442	2.9843	3.2602	3.5931	2.97	4.4351	4.5802	3.3854	4.5774	4.6627	-1.2887	-7.4905	-5.8945	0.3129	3.9401	1.6898	3.2232	4.2161
-1.0697	0.5405	0.9729	0.33	2.8591	3.1692	3.613	2.842	4.2957	4.5859	3.1749	4.4124	4.5745	-2.0711	-7.5303	-5.9742	0.2304	3.9942	1.6187	3.246	4.108
-1.1778	0.4125	0.8591	0.3129	2.7112	3.0525	3.5817	2.7197	4.162	4.5489	2.9985	4.2502	4.5091	-2.7567	-7.5787	-6.0994	0.1707	4.0169	1.5362	3.2887	4.0056
-1.2773	0.2902	0.7795	0.293	2.5974	2.9757	3.5902	2.5803	4.0653	4.5432	2.8534	4.0938	4.455	-3.2232	-7.5702	-6.1563	0.0967	4.0397	1.4964	3.3512	3.96
-1.3911	0.1565	0.6572	0.2816	2.4665	2.8961	3.613	2.4608	3.9629	4.5205	2.6827	3.9572	4.3896	-3.485	-7.5872	-6.2302	0.0427	4.0767	1.431	3.3626	3.906
-1.485	0.0427	0.5462	0.2674	2.3299	2.788	3.5845	2.3385	3.832	4.4835	2.5575	3.8349	4.2957	-3.5731	-7.5474	-6.2473	-0.0228	4.125	1.4025	3.4252	3.8491
-1.5789	-0.0797	0.4381	0.2418	2.2247	2.6912	3.5675	2.2332	3.7524	4.4721	2.4039	3.6955	4.2417	-3.5248	-7.4934	-6.2502	-0.0683	4.1307	1.3655	3.4366	3.8064
-1.6984	-0.2134	0.33	0.1792	2.1223	2.586	3.5532	2.1422	3.6556	4.4238	2.2901	3.5589	4.1592	-3.4423	-7.4365	-6.2103	-0.1138	4.1677	1.3399	3.4764	3.8036
-1.8036	-0.3016	0.202	0.1508	2.0113	2.4836	3.539	2.0511	3.5561	4.3982	2.1792	3.4309	4.0625	-3.3114	-7.354	-6.1364	-0.1366	4.1563	1.3257	3.5191	3.7637
-1.9089	-0.4353	0.0825	0.074	1.9004	2.3868	3.4707	1.9573	3.4366	4.3384	2.017	3.2744	3.98	-3.0952	-7.2288	-6.0482	-0.1479	4.1734	1.2944	3.5162	3.7381
-2.0284	-0.5547	-0.0512	-0.0171	1.8008	2.273	3.4394	1.8719	3.3342	4.2616	1.9061	3.1123	3.8946	-2.768	-7.115	-5.9657	-0.1479	4.1706	1.2887	3.5276	3.7211
-2.0881	-0.7084	-0.1935	-0.1053	1.6785	2.1166	3.3569	1.7467	3.1749	4.2075	1.7638	2.9359	3.7922	-2.4238	-6.9671	-5.8377	-0.1422	4.1763	1.2631	3.5333	3.6613
-2.2332	-0.825	-0.3215	-0.1878	1.5732	1.9829	3.2887	1.6415	3.0611	4.1137	1.5988	2.7424	3.6898	-2.0739	-6.8362	-5.6869	-0.1053	4.2104	1.2546	3.5475	3.6158
-2.2958	-0.9644	-0.4637	-0.2959	1.4594	1.8492	3.2175	1.522	2.916	4.0113	1.4338	2.5547	3.5504	-1.8548	-6.6883	-5.5503	-0.074	4.2019	1.2603	3.576	3.5703
-2.4352	-1.1095	-0.606	-0.4011	1.3086	1.687	3.1066	1.3997	2.7851	3.9231	1.2688	2.384	3.4337	-1.8492	-6.5602	-5.4422	-0.0427	4.1933	1.2034	3.5703	3.5447
-2.5006	-1.2375	-0.7397	-0.5092	1.1863	1.5248	3.0042	1.2745	2.6201	3.7894	1.1038	2.1592	3.2602	-2.1507	-6.4379	-5.3028	0.0171	4.1393	1.1863	3.5589	3.4537
-2.6059	-1.4253	-0.9104	-0.6429	1.0384	1.3428	2.8562	1.101	2.438	3.6528	0.9246	1.9317	3.1037	-2.6429	-6.3696	-5.2289	0.0768	4.0994	1.1493	3.4963	3.4025
-2.6969	-1.5675	-1.027	-0.7653	0.9189	1.1892	2.751	0.9786	2.2816	3.5276	0.7795	1.7297	2.9387	-3.2773	-6.3184	-5.1748	0.1508	4.0625	1.1294	3.4593	3.3683
-2.805	-1.7012	-1.1778	-0.862	0.7852	1.0185	2.6486	0.8478	2.128	3.4053	0.6202	1.5305	2.8107	-3.8719	-6.2701	-5.1492	0.2304	4.0226	1.118	3.4081	3.3256
-2.879	-1.8463	-1.3229	-0.9985	0.66	0.8677	2.5063	0.7055	1.9573	3.2858	0.4893	1.3143	2.6429	-4.31	-6.2473	-5.1748	0.3186	3.9458	1.1152	3.337	3.2887
-2.9643	-1.963	-1.4423	-1.0754	0.5547	0.7197	2.4267	0.6116	1.8236	3.1549	0.3641	1.1664	2.4864	-4.5148	-6.2729	-5.2175	0.4125	3.8918	1.101	3.2488	3.3029
-3.0156	-2.0597	-1.559	-1.1436	0.4523	0.5747	2.3186	0.5121	1.6984	3.0497	0.2788	1.0071	2.3954	-4.4949	-6.2985	-5.2601	0.5092	3.8462	1.1123	3.1692	3.3484
-3.0468	-2.1507	-1.6614	-1.2375	0.3755	0.4722	2.2161	0.4609	1.5931	2.9444	0.2134	0.8762	2.2503	-4.2986	-6.3469	-5.3455	0.6031	3.7666	1.1152	3.0753	3.3456
-3.1094	-2.2275	-1.7382	-1.3001	0.3186	0.3528	2.1336	0.3727	1.4992	2.8534	0.1878	0.751	2.1365	-3.9856	-6.4351	-5.4707	0.697	3.704	1.1379	2.9956	3.4252
-3.1578	-2.2702	-1.8179	-1.3513	0.2845	0.2646	2.0711	0.3471	1.4281	2.7709	0.128	0.6657	2.0483	-3.6528	-6.5688	-5.5987	0.7994	3.6528	1.1692	2.8932	3.5134
-3.1891	-2.3157	-1.8776	-1.3854	0.2475	0.1991	1.9743	0.2788	1.3655	2.6969	0.1223	0.5547	1.9487	-3.2261	-6.7224	-5.7608	0.8791	3.5987	1.1806	2.8249	3.5475
-3.2346	-2.3328	-1.9203	-1.394	0.2361	0.1195	1.9516	0.2788	1.3143	2.6372	0.1109	0.5092	1.8947	-2.7595	-6.8618	-5.8889	0.9473	3.5931	1.246	2.7851	3.6556
-3.2517	-2.3271	-1.9573	-1.3997	0.2219	0.0825	1.8776	0.2418	1.246	2.6002	0.1081	0.421	1.8292	-2.2275	-7.0211	-6.0709	1.0185	3.5561	1.2802	2.7197	3.7069
-3.2858	-2.3499	-2.0056	-1.4025	0.2162	0.0341	1.8492	0.2333	1.1977	2.5518	0.1195	0.3727	1.778	-1.7012	-7.2686	-6.2502	1.0839	3.539	1.3115	2.6998	3.8007
-3.3285	-2.3698	-2.0824	-1.448	0.2077	-0.0398	1.7667	0.2162	1.1294	2.4893	0.0939	0.2902	1.6955	-1.229	-7.4507	-6.4379	1.1579	3.5049	1.3655	2.6543	3.8633
-3.3768	-2.3868	-2.1365	-1.4452	0.1735	-0.0967	1.7183	0.1678	1.0754	2.4409	0.0654	0.2475	1.6614	-0.953	-7.6584	-6.6513	1.2148	3.4821	1.3997	2.6087	3.9174
-3.4025	-2.3385	-2.1621	-1.4566	0.2048	-0.1195	1.6642	0.1536	1.0441	2.3755	0.0882	0.1935	1.6216	-0.9303	-7.866	-6.8533	1.2574	3.4281	1.4281	2.603	3.9771
-3.4451	-2.3413	-2.2019	-1.4594	0.2077	-0.1678	1.6073	0.1479	0.9985	2.3129	0.0996	0.165	1.5704	-1.1436	-8.0595	-7.0695	1.3001	3.4053	1.4708	2.5604	4.0596
-3.4764	-2.3328	-2.2332	-1.4822	0.2134	-0.1878	1.559	0.1252	0.9502	2.2674	0.1223	0.1081	1.5163	-1.5931	-8.2615	-7.2743	1.3428	3.3569	1.4992	2.5092	4.0824
-3.5077	-2.2674	-2.2674	-1.4679	0.2503	-0.2191	1.5049	0.1508	0.9473	2.219	0.165	0.1109	1.5078	-2.108	-8.4094	-7.4478	1.3598	3.3	1.559	2.4665	4.1791
-3.5333	-2.2105	-2.2816	-1.4992	0.2703	-0.2276	1.4708	0.1906	0.9217	2.1792	0.1991	0.1024	1.4765	-2.6087	-8.5289	-7.6043	1.3826	3.2289	1.6045	2.4068	4.2218
-3.5191	-2.1649	-2.2873	-1.4964	0.3272	-0.2418	1.4281	0.2219	0.9189	2.128	0.2617	0.1166	1.4395	-2.916	-8.6313	-7.7295	1.4224	3.1578	1.6699	2.3072	4.3014
-3.5333	-2.0938	-2.2958	-1.5078	0.3585	-0.2361	1.3968	0.2589	0.9331	2.0881	0.3812	0.1878	1.4054	-3.0525	-8.6683	-7.8319	1.4423	3.081	1.761	2.2247	4.3868
-3.5333	-2.0255	-2.273	-1.5049	0.4324	-0.2361	1.357	0.3414	0.9786	2.0455	0.495	0.2418	1.4025	-2.97	-8.7394	-7.9144	1.4566	3.0099	1.8292	2.1792	4.4863
-3.5134	-1.9317	-2.2417	-1.522	0.5007	-0.1935	1.3485	0.4097	1.0042	2.0255	0.6116	0.33	1.394	-2.7937	-8.7337	-7.9457	1.4765	2.9131	1.9089	2.0995	4.5916
-3.5106	-1.8605	-2.2218	-1.5248	0.5832	-0.1792	1.3314	0.4836	1.0355	2.0056	0.7311	0.4182	1.3997	-2.5149	-8.7423	-8.0054	1.4936	2.8249	1.943	2.0198	4.6713
-3.4764	-1.778	-2.1706	-1.4992	0.6828	-0.1622	1.3342	0.5804	1.081	1.9999	0.8478	0.5206	1.4253	-2.182	-8.7223	-8.0453	1.4879	2.7254	2.0142	1.9686	4.7822
-3.4394	-1.7012	-2.1422	-1.4822	0.751	-0.1223	1.3172	0.66	1.1493	1.9999	0.9786	0.6145	1.4452	-1.8378	-8.6797	-8.0424	1.4964	2.6599	2.1024	1.9146	4.8533
-3.4451	-1.6159	-2.1024	-1.4736	0.8051	-0.0967	1.2973	0.6998	1.1721	1.9772	1.0981	0.6657	1.448	-1.4338	-8.6512	-8.0595	1.4964	2.5547	2.1564	1.8691	4.9102
-3.4167	-1.5732	-2.0625	-1.4623	0.8563	-0.0711	1.3143	0.7596	1.2034	1.98	1.1778	0.7567	1.448	-1.064	-8.6029	-8.0538	1.4992	2.4836	2.1792	1.8349	4.9614
-3.3854	-1.5305	-2.054	-1.4224	0.8819	-0.0626	1.3257	0.788	1.2233	1.9829	1.2432	0.8108	1.4367	-0.7311	-8.4834	-8.0111	1.4708	2.4011	2.1678	1.7866	4.9557
-3.3882	-1.4736	-2.0198	-1.4338	0.8933	-0.0626	1.3143	0.8023	1.2318	1.98	1.2773	0.862	1.4395	-0.6088	-8.4066	-7.9571	1.4594	2.3129	2.1422	1.761	4.9273
-3.3996	-1.4623	-2.0284	-1.4167	0.8791	-0.0797	1.3143	0.7937	1.2062	1.963	1.2717	0.8734	1.3883	-0.7454	-8.2729	-7.9002	1.4395	2.219	2.1052	1.7183	4.8761
-3.4025	-1.4566	-2.0255	-1.3627	0.8762	-0.0853	1.3172	0.7766	1.2091	1.9402	1.2773	0.9018	1.3854	-1.1323	-8.1562	-7.7978	1.4082	2.1479	2.0796	1.6642	4.8306
-3.4138	-1.4423	-2.0284	-1.3371	0.8591	-0.0797	1.3371	0.7653	1.1778	1.9544	1.2887	0.916	1.3655	-1.8093	-8.0054	-7.6925	1.3854	2.0483	2.0483	1.6187	4.7737
-3.4224	-1.4594	-2.0369	-1.32	0.8193	-0.128	1.3314	0.7112	1.1522	1.9146	1.246	0.9047	1.3172	-2.6998	-7.8433	-7.5844	1.3712	1.9402	1.9601	1.5903	4.6826
-3.4309	-1.4679	-2.0369	-1.3001	0.8051	-0.1394	1.3428	0.6742	1.1237	1.9089	1.2204	0.9018	1.2517	-3.5703	-7.6697	-7.4507	1.3399	1.8207	1.9345	1.5476	4.6087
-3.4593	-1.5078	-2.0455	-1.2916	0.7738	-0.1764	1.3086	0.6202	1.0697	1.8492	1.1892	0.8876	1.192	-4.3441	-7.5275	-7.3369	1.3542	1.687	1.8662	1.4907	4.5233
-3.4366	-1.4879	-2.0398	-1.2404	0.7397	-0.1764	1.32	0.6031	1.0526	1.852	1.1522	0.8819	1.1465	-4.8932	-7.3597	-7.2259	1.3399	1.5931	1.8378	1.4765	4.4522
-3.4252	-1.5163	-2.0511	-1.2404	0.7311	-0.1849	1.3257	0.5832	1.0298	1.7894	1.1664	0.8591	1.0867	-5.226	-7.2032	-7.1036	1.3542	1.4651	1.7894	1.4139	4.3669
-3.4423	-1.4936	-2.0312	-1.2233	0.6799	-0.2191	1.283	0.5661	0.9929	1.7809	1.1579	0.8591	1.0099	-5.3455	-7.0695	-7.0012	1.3911	1.3285	1.761	1.3655	4.2787
-3.3882	-1.4936	-2.0142	-1.1863	0.6913	-0.1878	1.3143	0.5775	1.0071	1.7524	1.1408	0.8478	0.9701	-5.3256	-6.8789	-6.8846	1.4167	1.2148	1.761	1.3485	4.2388
-3.3598	-1.4765	-1.9886	-1.1806	0.6856	-0.1849	1.2944	0.5462	0.99	1.7183	1.1123	0.8762	0.9047	-5.2061	-6.7053	-6.7679	1.4651	1.0668	1.687	1.2944	4.1734
-3.2773	-1.4395	-1.9345	-1.1436	0.7084	-0.1479	1.3399	0.5547	0.9758	1.7211	1.1209	0.8819	0.8506	-5.0041	-6.5318	-6.6086	1.4822	0.9303	1.6842	1.2432	4.125
-3.2403	-1.4196	-1.8691	-1.1379	0.7112	-0.1252	1.3627	0.5718	0.9929	1.7183	1.1209	0.8705	0.8193	-4.7452	-6.3583	-6.4692	1.5049	0.8449	1.6785	1.246	4.0539
-3.1806	-1.3911	-1.8463	-1.1038	0.734	-0.1138	1.3655	0.5804	0.9957	1.724	1.0896	0.8591	0.7823	-4.3868	-6.1847	-6.29	1.5362	0.7567	1.6728	1.2148	3.9913
-3.1123	-1.3485	-1.7638	-1.0924	0.7454	-0.0654	1.3627	0.5889	0.9985	1.6955	1.0725	0.862	0.7311	-3.9856	-6.0027	-6.1193	1.5476	0.6685	1.6329	1.1892	3.906
-3.0355	-1.3285	-1.7183	-1.0896	0.7311	-0.0654	1.3997	0.5661	0.9786	1.6842	1.027	0.8563	0.7169	-3.5931	-5.8462	-5.9372	1.5761	0.5946	1.5988	1.1863	3.8007
-2.9473	-1.3172	-1.6443	-1.0953	0.734	-0.037	1.3997	0.5547	0.9843	1.6813	0.9416	0.8392	0.6742	-3.3256	-5.6983	-5.7694	1.5846	0.5007	1.5846	1.1778	3.704
-2.8591	-1.3143	-1.596	-1.1038	0.7197	-0.0085	1.394	0.5576	0.9872	1.6728	0.9132	0.8108	0.6572	-3.2943	-5.556	-5.6158	1.596	0.441	1.5533	1.1806	3.5987
-2.7595	-1.3086	-1.5391	-1.118	0.7084	-0.0114	1.4111	0.5007	0.9758	1.6898	0.8136	0.7539	0.6088	-3.5675	-5.4394	-5.4764	1.6159	0.3641	1.5078	1.1579	3.4707
-2.6713	-1.2859	-1.4651	-1.0981	0.7055	-0.0085	1.4224	0.4666	0.9473	1.6898	0.7368	0.7254	0.6088	-4.0596	-5.3199	-5.354	1.6045	0.3158	1.4594	1.1778	3.3854
-2.5945	-1.2916	-1.4111	-1.0924	0.6941	0.0085	1.431	0.441	0.9331	1.687	0.6458	0.6856	0.5576	-4.6997	-5.2374	-5.2601	1.6159	0.2532	1.4082	1.1522	3.2659
-2.4949	-1.2745	-1.3428	-1.0782	0.6998	0.0398	1.4253	0.4239	0.9303	1.6927	0.5889	0.6572	0.5661	-5.3199	-5.152	-5.1805	1.6045	0.2219	1.4111	1.1266	3.1578
-2.4124	-1.2489	-1.2745	-1.0668	0.6828	0.037	1.448	0.4068	0.9132	1.7098	0.5178	0.6202	0.5348	-5.8149	-5.1151	-5.135	1.6216	0.1792	1.3712	1.1408	3.0724
-2.3271	-1.2204	-1.2034	-1.0498	0.7027	0.0768	1.4822	0.367	0.953	1.7382	0.4751	0.6116	0.5405	-6.0482	-5.0638	-5.0582	1.6159	0.1223	1.3485	1.1038	2.9843
-2.2446	-1.1749	-1.118	-1.0412	0.7283	0.0939	1.4879	0.3841	0.9616	1.7723	0.4466	0.6116	0.5434	-6.1051	-5.0496	-4.9956	1.6273	0.074	1.3741	1.0441	2.9302
-2.1621	-1.1408	-1.0668	-1.0156	0.7311	0.1223	1.5049	0.3812	0.9872	1.8065	0.4381	0.6429	0.5434	-6.0055	-5.0354	-4.9472	1.65	0.0142	1.3883	1.0099	2.8847
-2.0938	-1.064	-1.0014	-0.9843	0.8023	0.1991	1.5618	0.3897	1.0384	1.8378	0.4324	0.6629	0.586	-5.7495	-5.0468	-4.8619	1.6472	-0.0085	1.4253	0.9673	2.8392
-2.0426	-0.9985	-0.8961	-0.9274	0.8705	0.2703	1.6244	0.4296	1.0867	1.9317	0.4324	0.6885	0.5974	-5.4422	-5.0695	-4.7993	1.6642	-0.0313	1.4765	0.9274	2.7993
-1.9772	-0.9416	-0.8421	-0.9047	0.9075	0.3186	1.6557	0.4722	1.1408	1.9772	0.4353	0.734	0.6458	-5.098	-5.1463	-4.7907	1.6756	-0.0512	1.5305	0.9274	2.7624
-1.9174	-0.8449	-0.7766	-0.8449	0.9616	0.367	1.7041	0.4922	1.1948	2.0511	0.4182	0.7397	0.6629	-4.6855	-5.2203	-4.8107	1.6898	-0.0825	1.5675	0.9018	2.7083
-1.8776	-0.7766	-0.734	-0.8478	1.0042	0.4097	1.7695	0.4979	1.2176	2.0938	0.404	0.7482	0.6828	-4.2388	-5.3398	-4.8988	1.7098	-0.0768	1.5988	0.8762	2.6628
-1.8748	-0.7055	-0.6913	-0.8079	1.0754	0.4495	1.8122	0.5206	1.266	2.1479	0.3983	0.7653	0.7055	-3.8406	-5.4394	-4.9842	1.7154	-0.0683	1.5988	0.8876	2.5945
-1.8378	-0.6515	-0.6828	-0.7795	1.1152	0.5007	1.8548	0.5604	1.2916	2.2218	0.3698	0.7766	0.7112	-3.502	-5.5645	-5.1264	1.7069	-0.0711	1.6472	0.9189	2.512
-1.8776	-0.6202	-0.6629	-0.7994	1.1465	0.5235	1.8776	0.5405	1.32	2.2531	0.2987	0.751	0.7397	-3.4081	-5.7125	-5.3142	1.7098	-0.037	1.6614	0.9331	2.4238
-1.9089	-0.5889	-0.6714	-0.8023	1.1408	0.5064	1.8776	0.5178	1.3001	2.2958	0.2219	0.7197	0.751	-3.5675	-5.8377	-5.5219	1.6955	-0.0142	1.6386	1.0099	2.3072
-1.9459	-0.5661	-0.6998	-0.8307	1.1465	0.5092	1.8776	0.4922	1.2887	2.3072	0.1394	0.6629	0.7311	-4.0027	-5.9401	-5.7096	1.6728	0.0142	1.6329	1.0441	2.1991
-2.0142	-0.5747	-0.7283	-0.8791	1.1379	0.5007	1.8605	0.4609	1.246	2.2986	0.0256	0.5832	0.6998	-4.6513	-6.0567	-5.9401	1.6415	0.0341	1.6159	1.0725	2.0796
-2.0739	-0.5946	-0.7994	-0.9075	1.0981	0.4637	1.8463	0.3926	1.1835	2.2986	-0.0797	0.5035	0.6458	-5.3825	-6.1933	-6.1961	1.6017	0.0484	1.6045	1.118	1.9288
-2.1763	-0.6572	-0.8478	-0.9673	1.0754	0.3926	1.7951	0.3272	1.1379	2.256	-0.1821	0.421	0.5804	-6.0311	-6.2871	-6.4351	1.5647	0.0313	1.5732	1.155	1.8008
-2.273	-0.6998	-0.9303	-1.0241	1.027	0.3414	1.7439	0.2873	1.0611	2.1991	-0.2959	0.3585	0.5206	-6.5005	-6.381	-6.6513	1.5419	0.037	1.5419	1.1635	1.7041
-2.3499	-0.7454	-1.0128	-1.1067	0.9985	0.3072	1.7012	0.2418	0.9985	2.182	-0.3641	0.276	0.4666	-6.7025	-6.4664	-6.8334	1.4879	0.0427	1.5504	1.2318	1.6073
-2.4437	-0.7766	-1.0611	-1.1579	0.9644	0.2503	1.6586	0.2134	0.9673	2.1052	-0.458	0.202	0.3784	-6.6883	-6.5176	-6.9813	1.448	0.0313	1.5647	1.266	1.5504
-2.5291	-0.8165	-1.1123	-1.2119	0.9559	0.239	1.6159	0.2048	0.8933	2.0682	-0.5064	0.1081	0.3186	-6.492	-6.5489	-7.1093	1.3854	0.0256	1.5391	1.3285	1.4765
-2.5974	-0.8677	-1.2034	-1.266	0.9502	0.1849	1.5533	0.1821	0.8648	2.0198	-0.5633	0.0569	0.2503	-6.1876	-6.5546	-7.2089	1.3598	-0.0028	1.5476	1.3684	1.431
-2.6429	-0.8762	-1.2347	-1.3058	0.9274	0.1849	1.522	0.1821	0.8478	1.9487	-0.6344	-0.0142	0.1707	-5.7295	-6.5233	-7.2089	1.2887	-0.0341	1.5874	1.4224	1.3769
-2.7225	-0.9132	-1.3029	-1.3712	0.9047	0.1451	1.4736	0.1792	0.8051	1.8833	-0.6771	-0.0541	0.1024	-5.2545	-6.4948	-7.2203	1.2517	-0.0541	1.6045	1.4452	1.3257
-2.788	-0.9303	-1.3172	-1.3968	0.9075	0.1252	1.4196	0.1678	0.771	1.8236	-0.7169	-0.1138	0.0114	-4.6855	-6.3924	-7.152	1.1977	-0.0654	1.6102	1.5049	1.283
-2.8534	-0.9587	-1.3883	-1.4623	0.899	0.0797	1.3485	0.1735	0.7112	1.7524	-0.7937	-0.1935	-0.0853	-4.0881	-6.3099	-7.078	1.1721	-0.1252	1.5988	1.5305	1.1948
-2.879	-0.9673	-1.4082	-1.5078	0.8876	0.0541	1.3001	0.128	0.6629	1.6898	-0.862	-0.2646	-0.1764	-3.5162	-6.2018	-6.9187	1.1152	-0.1622	1.6017	1.5647	1.1379
-2.9416	-1.0099	-1.4623	-1.5391	0.862	0.0114	1.2375	0.1138	0.6088	1.6073	-0.9786	-0.3414	-0.2987	-3.0696	-6.1051	-6.7708	1.0725	-0.2077	1.5789	1.5988	1.0412
-2.9871	-1.027	-1.5021	-1.6017	0.825	-0.0398	1.1806	0.0597	0.5092	1.5305	-1.0867	-0.4552	-0.4125	-2.9131	-5.9742	-6.5802	1.0327	-0.2617	1.5533	1.6244	0.953
-2.9899	-1.0441	-1.5931	-1.6273	0.7852	-0.1024	1.1123	-0.0114	0.4495	1.4082	-1.2091	-0.5832	-0.5633	-2.9928	-5.8433	-6.3896	0.9673	-0.3357	1.5078	1.6386	0.8449
-3.0554	-1.0896	-1.6415	-1.6842	0.7141	-0.1622	1.027	-0.0768	0.3328	1.2773	-1.3741	-0.734	-0.7226	-3.3882	-5.7495	-6.1961	0.916	-0.4324	1.4253	1.6472	0.7055
-3.0383	-1.0754	-1.6699	-1.6728	0.6714	-0.2304	0.9473	-0.1508	0.2532	1.2005	-1.4936	-0.8819	-0.8762	-3.9572	-5.6527	-6.0226	0.8591	-0.5178	1.3485	1.6244	0.5747
-3.0724	-1.118	-1.7154	-1.7211	0.6259	-0.3016	0.8848	-0.2475	0.165	1.0526	-1.6557	-1.0185	-1.0725	-4.6058	-5.5901	-5.8746	0.8108	-0.6486	1.2745	1.5846	0.4694
-3.0724	-1.1152	-1.7411	-1.6984	0.5633	-0.3556	0.8335	-0.3044	0.0569	0.9132	-1.798	-1.1778	-1.2233	-5.1264	-5.5219	-5.7096	0.7567	-0.7823	1.2347	1.5163	0.3585
-3.081	-1.1323	-1.798	-1.7098	0.5007	-0.4324	0.7681	-0.3926	-0.0341	0.7994	-1.9345	-1.3342	-1.4224	-5.4394	-5.4735	-5.6101	0.7397	-0.9217	1.1522	1.4537	0.2475
-3.0412	-1.1266	-1.8093	-1.7041	0.4779	-0.4779	0.7055	-0.4637	-0.1138	0.66	-2.0398	-1.4623	-1.596	-5.4934	-5.4365	-5.4678	0.697	-1.0754	1.0981	1.3712	0.1963
-2.9928	-1.1067	-1.798	-1.6671	0.4751	-0.5178	0.6828	-0.4751	-0.1622	0.586	-2.1422	-1.5704	-1.7297	-5.3739	-5.3768	-5.3085	0.6856	-1.2261	1.064	1.2802	0.1394
-2.9217	-1.0754	-1.7638	-1.6045	0.4751	-0.5235	0.6372	-0.5092	-0.1963	0.4779	-2.1905	-1.6586	-1.889	-5.1435	-5.3256	-5.1634	0.6856	-1.4054	1.0298	1.1692	0.0939
-2.8562	-1.0441	-1.7354	-1.5561	0.4637	-0.5348	0.6202	-0.5434	-0.2276	0.404	-2.2617	-1.7439	-2.0426	-4.822	-5.2402	-5.0183	0.7197	-1.5761	1.0241	1.0441	0.0967
-2.7538	-0.9929	-1.6557	-1.4879	0.5149	-0.5178	0.6259	-0.5633	-0.2418	0.3414	-2.2787	-1.8236	-2.1507	-4.4152	-5.1663	-4.822	0.7567	-1.6984	1.0185	0.936	0.0939
-2.6258	-0.936	-1.5789	-1.431	0.532	-0.5092	0.6287	-0.5348	-0.2589	0.2674	-2.2958	-1.8605	-2.2958	-3.9145	-5.0951	-4.6769	0.8023	-1.8634	1.0441	0.8335	0.1223
-2.4779	-0.8734	-1.4566	-1.3285	0.6031	-0.4666	0.6515	-0.4979	-0.2304	0.2333	-2.3299	-1.9117	-2.3811	-3.3342	-5.007	-4.529	0.8535	-2.017	1.0384	0.7283	0.1252
-2.3299	-0.8193	-1.3798	-1.2432	0.66	-0.4153	0.6828	-0.495	-0.2361	0.1792	-2.3356	-1.9487	-2.4551	-2.7083	-4.9757	-4.4238	0.9217	-2.1393	1.0668	0.6543	0.1394
-2.1991	-0.751	-1.2688	-1.155	0.6856	-0.3926	0.7226	-0.4808	-0.2247	0.1593	-2.3612	-2.0113	-2.5518	-2.1194	-4.9131	-4.3071	0.9957	-2.2958	1.0725	0.5576	0.128
-2.0284	-0.6885	-1.1522	-1.0412	0.7397	-0.3072	0.7311	-0.4722	-0.2162	0.1166	-2.4011	-2.0369	-2.6315	-1.6244	-4.8562	-4.2246	1.064	-2.4124	1.081	0.4609	0.1223
-1.8748	-0.6458	-1.0241	-0.9587	0.7994	-0.2532	0.7653	-0.458	-0.2219	0.0882	-2.4324	-2.1024	-2.714	-1.4025	-4.805	-4.1307	1.1294	-2.5461	1.0839	0.3841	0.0996
-1.7581	-0.586	-0.9473	-0.8762	0.8108	-0.2418	0.771	-0.4893	-0.2503	0.037	-2.4921	-2.1592	-2.7937	-1.4537	-4.7594	-4.1023	1.2062	-2.6571	1.0953	0.2873	0.074
-1.6273	-0.5547	-0.8279	-0.788	0.8478	-0.1707	0.7681	-0.4865	-0.2447	-0.0028	-2.5177	-2.2019	-2.8619	-1.7382	-4.7424	-4.1051	1.2717	-2.7851	1.0896	0.2105	0.0427
-1.5248	-0.5519	-0.7454	-0.7425	0.862	-0.1565	0.7681	-0.5235	-0.2845	-0.0541	-2.5604	-2.273	-2.9217	-2.1649	-4.7623	-4.1791	1.3371	-2.8875	1.0725	0.1053	0.0228
-1.4281	-0.5434	-0.6629	-0.7283	0.8506	-0.1166	0.7311	-0.5434	-0.3186	-0.1166	-2.5917	-2.3186	-3.0184	-2.5803	-4.8078	-4.2474	1.4111	-3.0127	1.0867	0.0341	0.0228
-1.3314	-0.5263	-0.5804	-0.66	0.8933	-0.0683	0.7311	-0.5348	-0.33	-0.1451	-2.6002	-2.3527	-3.0525	-2.8534	-4.8419	-4.3697	1.4708	-3.1436	1.0981	-0.0484	0.0256
-1.2603	-0.5178	-0.4751	-0.6401	0.9189	-0.0114	0.7084	-0.5007	-0.2816	-0.1906	-2.5518	-2.3385	-3.0753	-2.8847	-4.8647	-4.5176	1.5305	-3.2261	1.1323	-0.091	0.074
-1.1607	-0.4922	-0.4267	-0.6088	0.953	0.0228	0.7311	-0.458	-0.2361	-0.2048	-2.4921	-2.3186	-3.1237	-2.7538	-4.859	-4.6428	1.5817	-3.3285	1.1778	-0.1479	0.1138
-1.0668	-0.4466	-0.2987	-0.5974	1.0042	0.1081	0.697	-0.4239	-0.1991	-0.2219	-2.3897	-2.2787	-3.0924	-2.4466	-4.8562	-4.7907	1.6329	-3.3996	1.2375	-0.1906	0.2105
-1.027	-0.4324	-0.2048	-0.5747	1.0583	0.1735	0.6629	-0.3442	-0.1422	-0.2475	-2.3214	-2.2161	-3.0867	-2.0711	-4.8419	-4.9387	1.6984	-3.4707	1.2944	-0.2703	0.2816
-0.9047	-0.3869	-0.1024	-0.532	1.1379	0.2503	0.6828	-0.2589	-0.0541	-0.2475	-2.1706	-2.1507	-3.0412	-1.6073	-4.8163	-5.0326	1.724	-3.5162	1.3598	-0.3044	0.4153
-0.8478	-0.3414	-0.0284	-0.5263	1.1835	0.3385	0.6998	-0.1508	0.0228	-0.2361	-2.0483	-2.0398	-2.9843	-1.101	-4.7851	-5.1435	1.7667	-3.5561	1.4281	-0.3414	0.4979
-0.7823	-0.2731	0.0654	-0.4979	1.2773	0.4125	0.6856	-0.037	0.1109	-0.2048	-1.8918	-1.9459	-2.9046	-0.569	-4.7566	-5.2345	1.8036	-3.5931	1.5049	-0.421	0.623
-0.66	-0.2162	0.1878	-0.4637	1.3513	0.5348	0.7397	0.074	0.2162	-0.1565	-1.7553	-1.8349	-2.8107	0.0626	-4.7082	-5.3227	1.8036	-3.6016	1.5931	-0.458	0.7653
-0.5917	-0.1735	0.2674	-0.4438	1.431	0.6202	0.7482	0.1678	0.2987	-0.1252	-1.6216	-1.7211	-2.7225	0.6401	-4.7196	-5.3825	1.8264	-3.613	1.6586	-0.5149	0.8819
-0.5092	-0.091	0.3755	-0.367	1.5163	0.697	0.7653	0.2959	0.404	-0.0683	-1.4623	-1.5903	-2.6343	1.1465	-4.6826	-5.4138	1.8264	-3.5817	1.7354	-0.5377	1.0071
-0.4296	-0.0313	0.4438	-0.3385	1.5675	0.7823	0.7937	0.4097	0.4808	-0.0199	-1.3257	-1.485	-2.5234	1.4879	-4.6713	-5.4479	1.8207	-3.539	1.8236	-0.5974	1.1323
-0.3954	0	0.5149	-0.3243	1.6216	0.8335	0.8051	0.4694	0.5804	0.0398	-1.192	-1.3854	-2.4039	1.4765	-4.6741	-5.4707	1.8179	-3.4906	1.8634	-0.6287	1.2432
-0.3385	0.0484	0.5747	-0.2873	1.6273	0.9047	0.8392	0.5519	0.6316	0.074	-1.0839	-1.3172	-2.2844	1.1977	-4.6513	-5.4991	1.8122	-3.4679	1.9174	-0.6742	1.3342
-0.2987	0.0711	0.6116	-0.2902	1.6358	0.9559	0.8392	0.6372	0.7027	0.1081	-0.9786	-1.2148	-2.1905	0.6828	-4.6201	-5.502	1.8093	-3.4053	1.9544	-0.734	1.4338
-0.2845	0.0683	0.6543	-0.2674	1.6699	0.99	0.862	0.6742	0.7311	0.1622	-0.899	-1.1436	-2.0853	0.0626	-4.5916	-5.5133	1.8264	-3.3541	1.98	-0.8222	1.5078
-0.2361	0.0967	0.6771	-0.2731	1.6756	1.027	0.8762	0.7311	0.7795	0.1991	-0.7937	-1.0839	-2.0255	-0.5007	-4.5802	-5.5162	1.8207	-3.3143	2.0113	-0.8848	1.5874
-0.2219	0.1394	0.7197	-0.2475	1.6813	1.0583	0.8961	0.8108	0.8506	0.2674	-0.7112	-0.9673	-1.8918	-0.8677	-4.5034	-5.4906	1.7951	-3.2659	2.0682	-0.9445	1.7154
-0.1991	0.1451	0.7169	-0.2361	1.6898	1.0953	0.9388	0.8876	0.9018	0.3129	-0.5889	-0.8876	-1.8008	-1.0611	-4.4607	-5.465	1.7837	-3.1919	2.0853	-0.9701	1.8093
-0.1935	0.1508	0.7283	-0.2219	1.6842	1.1095	0.9388	0.9189	0.9303	0.367	-0.5064	-0.7909	-1.6898	-1.0469	-4.4152	-5.4223	1.7809	-3.1436	2.1194	-1.0156	1.9032
