"FZ"	"FC3"	"FCZ"	"FC4"	"C3"	"CZ"	"C4"	"CP3"	"CPZ"	"CP4"	"P3"	"PZ"	"P4"	"OZ"	"FP1"	"FP2"	"A2"	"P8"	"TP7"	"TP8"	"P7"
-2.0328	-2.067	-1.7904	-0.8579	-1.0444	-0.5471	0.2518	-0.1181	1.0164	1.262	0.2984	2.0763	1.837	0.5657	-2.3561	-0.373	1.2744	0.7367	-1.0599	0.8361	0.1461
-2.039	-2.0173	-1.7904	-0.8454	-1.0195	-0.5284	0.3046	-0.0559	1.0537	1.2837	0.3761	2.1074	1.8681	0.6434	-2.3778	-0.3948	1.1128	0.805	-1.0102	0.861	0.202
-2.0235	-2.0048	-1.7717	-0.8113	-0.9636	-0.5035	0.3202	-0.0062	1.0599	1.2775	0.4289	2.1043	1.9116	0.7336	-2.3903	-0.3761	0.9169	0.861	-0.9573	0.8765	0.2518
-2.0173	-1.9955	-1.7904	-0.774	-0.9294	-0.4818	0.3481	0.0653	1.0537	1.321	0.4787	2.1136	1.9023	0.8299	-2.3965	-0.3823	0.7273	0.9294	-0.9045	0.8983	0.2766
-2.0111	-1.9831	-1.7779	-0.7771	-0.9014	-0.4849	0.3668	0.0684	1.0475	1.2961	0.5035	2.1043	1.9333	0.9387	-2.3996	-0.373	0.5035	0.9822	-0.8952	0.9232	0.2673
-1.9831	-1.9085	-1.7686	-0.7304	-0.8921	-0.4569	0.3761	0.0777	1.0102	1.3024	0.5222	2.0732	1.8992	1.0444	-2.3903	-0.3481	0.2829	0.9946	-0.8952	0.9418	0.2642
-1.9271	-1.8743	-1.7095	-0.7056	-0.8579	-0.4476	0.3854	0.1026	1.0009	1.3086	0.5098	2.0328	1.9023	1.1687	-2.4058	-0.2891	0.0404	1.0257	-0.8859	0.9511	0.2456
-1.8587	-1.8152	-1.6785	-0.6465	-0.7926	-0.4165	0.432	0.1305	0.9915	1.3241	0.5564	2.0017	1.8929	1.2868	-2.4058	-0.2393	-0.202	1.063	-0.8734	0.9915	0.2487
-1.7717	-1.7717	-1.6318	-0.5906	-0.7833	-0.4134	0.4631	0.115	0.9356	1.3148	0.4942	1.924	1.8743	1.4112	-2.3965	-0.1554	-0.4352	1.0661	-0.8517	1.0195	0.2207
-1.7189	-1.694	-1.6101	-0.5626	-0.7646	-0.4196	0.4445	0.1368	0.9232	1.2837	0.4725	1.8712	1.8277	1.4982	-2.4027	-0.1337	-0.6248	1.0786	-0.8579	0.9884	0.1616
-1.666	-1.6381	-1.5635	-0.5035	-0.7211	-0.401	0.4756	0.1057	0.8672	1.2806	0.4445	1.7966	1.8028	1.6008	-2.3903	-0.0591	-0.8206	1.1034	-0.8237	1.0195	0.1243
-1.5666	-1.5541	-1.4733	-0.432	-0.69	-0.3854	0.4787	0.0964	0.8361	1.2806	0.4041	1.7095	1.7717	1.6847	-2.3903	0.0093	-0.9822	1.1159	-0.8082	1.0164	0.0901
-1.4702	-1.464	-1.4018	-0.3854	-0.6434	-0.3419	0.5129	0.0746	0.8019	1.2526	0.3854	1.6505	1.7251	1.7562	-2.3747	0.087	-1.1594	1.0848	-0.7895	1.0475	0.0746
-1.3552	-1.3707	-1.3397	-0.3108	-0.5812	-0.345	0.5129	0.0404	0.7336	1.2309	0.3295	1.5666	1.6754	1.8152	-2.3716	0.143	-1.2806	1.091	-0.7398	1.0692	0.0404
-1.234	-1.2526	-1.2309	-0.2393	-0.5377	-0.3108	0.5346	0.0435	0.7025	1.2402	0.3015	1.4982	1.6412	1.8712	-2.3467	0.2051	-1.3987	1.0661	-0.7336	1.0724	0.0186
-1.1376	-1.1874	-1.147	-0.1492	-0.5129	-0.2891	0.5533	-0.0031	0.6621	1.1936	0.2269	1.377	1.579	1.9178	-2.353	0.2922	-1.4609	1.0195	-0.7149	1.0444	-0.0497
-0.9978	-1.0444	-1.0195	-0.0622	-0.46	-0.2269	0.5595	-0.0249	0.6217	1.1656	0.1741	1.3024	1.5168	1.9738	-2.2877	0.3637	-1.5417	1.0102	-0.6465	1.0382	-0.0591
-0.8921	-0.9449	-0.9449	0.0311	-0.4414	-0.1834	0.5999	-0.0435	0.5999	1.1407	0.143	1.2029	1.4671	1.952	-2.2317	0.3575	-1.5572	0.9667	-0.6061	0.9946	-0.087
-0.7584	-0.8392	-0.8361	0.1181	-0.3823	-0.1492	0.6123	-0.0715	0.5657	1.1345	0.0901	1.1345	1.4236	1.9831	-2.1571	0.4134	-1.5945	0.9325	-0.5688	0.9605	-0.1057
-0.6434	-0.746	-0.718	0.1958	-0.3295	-0.0684	0.631	-0.1088	0.5253	1.1034	0.0653	1.0444	1.3645	2.0017	-2.0701	0.4725	-1.6132	0.9045	-0.488	0.8952	-0.1305
-0.5066	-0.6061	-0.5688	0.2704	-0.2953	-0.028	0.6621	-0.1274	0.5284	1.0941	0.0249	0.9791	1.3241	1.9893	-1.9706	0.5035	-1.6132	0.8392	-0.432	0.805	-0.1274
-0.3948	-0.4725	-0.4352	0.3761	-0.2456	0.0497	0.6869	-0.1181	0.5222	1.063	0.0031	0.8827	1.2495	1.9893	-1.8587	0.5595	-1.5977	0.7895	-0.3481	0.7553	-0.1337
-0.2673	-0.3481	-0.3326	0.46	-0.1927	0.1274	0.7149	-0.1368	0.5004	1.0382	-0.0311	0.8268	1.1905	1.9738	-1.7127	0.5502	-1.5635	0.7336	-0.2766	0.6714	-0.1057
-0.115	-0.2704	-0.1803	0.5439	-0.1368	0.202	0.774	-0.1305	0.5129	1.0319	-0.0404	0.7677	1.1345	1.952	-1.5697	0.575	-1.5199	0.6652	-0.1958	0.5844	-0.0901
0.0373	-0.1461	-0.0249	0.6403	-0.0653	0.2922	0.7895	-0.1305	0.5098	1.004	-0.028	0.6931	1.0848	1.9302	-1.4174	0.5999	-1.4609	0.5937	-0.0995	0.5098	-0.0497
0.1212	-0.0342	0.1119	0.7025	-0.0062	0.3668	0.805	-0.1088	0.5191	0.9698	-0.028	0.6248	0.9915	1.8929	-1.2122	0.5906	-1.3832	0.5439	0	0.432	-0.0155
0.2642	0.087	0.2611	0.7864	0.0653	0.4352	0.8268	-0.1088	0.5004	0.9418	-0.0373	0.5595	0.9387	1.8463	-1.0319	0.575	-1.2899	0.4352	0.0995	0.3015	0.0466
0.3979	0.1989	0.3948	0.8486	0.1026	0.5035	0.861	-0.0839	0.516	0.9263	-0.0186	0.5253	0.861	1.7966	-0.8423	0.5346	-1.1811	0.3543	0.171	0.23	0.1088
0.5098	0.286	0.5098	0.8765	0.1678	0.5626	0.8548	-0.0964	0.4942	0.8454	-0.0342	0.4383	0.7677	1.7251	-0.6776	0.5129	-1.0568	0.2424	0.2487	0.1523	0.1585
0.5875	0.3916	0.6558	0.9107	0.2207	0.6465	0.8672	-0.0777	0.5066	0.8113	-0.0062	0.3979	0.6776	1.6598	-0.4631	0.4383	-0.9387	0.1492	0.3637	0.0839	0.2269
0.6776	0.4942	0.7802	0.9605	0.2673	0.6994	0.8361	-0.0653	0.5004	0.7895	-0.0186	0.3139	0.5937	1.6039	-0.2797	0.4258	-0.805	0.0684	0.4165	-0.0031	0.2611
0.7833	0.5626	0.8734	1.0009	0.2922	0.7491	0.8392	-0.0777	0.4569	0.7242	-0.0435	0.2362	0.4973	1.5417	-0.0839	0.3419	-0.6807	-0.0186	0.4911	-0.0404	0.2984
0.8517	0.6527	1.0413	1.0351	0.3637	0.8113	0.833	-0.0466	0.4725	0.6869	-0.0218	0.1927	0.4414	1.4795	0.115	0.2984	-0.5719	-0.143	0.5564	-0.1119	0.3512
0.9542	0.7491	1.1097	1.0475	0.3948	0.8548	0.8019	-0.0497	0.4476	0.6154	-0.028	0.1181	0.345	1.4018	0.3046	0.2393	-0.4383	-0.2083	0.6185	-0.1803	0.373
1.0133	0.8299	1.1967	1.0568	0.4476	0.8796	0.7833	-0.0435	0.4227	0.575	-0.0559	0.0559	0.2456	1.3272	0.4756	0.2145	-0.3077	-0.3046	0.6496	-0.2393	0.3761
1.0568	0.8765	1.2837	1.0444	0.4476	0.8827	0.7553	-0.0777	0.3792	0.4911	-0.087	-0.0497	0.1647	1.2651	0.631	0.1865	-0.202	-0.3854	0.6776	-0.2953	0.3823
1.1128	0.8983	1.3397	1.063	0.4818	0.9014	0.7336	-0.0995	0.3512	0.4041	-0.1305	-0.1399	0.0746	1.2091	0.7802	0.1896	-0.0964	-0.4476	0.7087	-0.4041	0.3575
1.1874	0.9449	1.3925	1.0506	0.4849	0.8734	0.7025	-0.1088	0.3077	0.3108	-0.1647	-0.2393	-0.0342	1.1376	0.9014	0.1678	-0.0031	-0.5222	0.7025	-0.4973	0.317
1.2247	0.9884	1.4485	1.0599	0.4538	0.8548	0.6745	-0.1554	0.2456	0.2331	-0.2176	-0.3295	-0.1368	1.0879	0.9822	0.2051	0.0932	-0.5999	0.6807	-0.5812	0.2673
1.2526	0.9946	1.4764	1.063	0.4507	0.8206	0.6341	-0.1927	0.1554	0.1337	-0.2735	-0.4289	-0.2331	1.0506	1.0941	0.2051	0.171	-0.6776	0.6465	-0.6869	0.2362
1.262	0.9946	1.4951	1.0444	0.4134	0.7709	0.5999	-0.2456	0.0839	0.0466	-0.3543	-0.5408	-0.3295	1.0102	1.1501	0.2673	0.2673	-0.7491	0.5906	-0.7584	0.1772
1.3055	0.9853	1.4858	1.0382	0.3699	0.7367	0.5564	-0.3015	0.0218	-0.0373	-0.4289	-0.6496	-0.4289	0.9822	1.1936	0.345	0.3264	-0.8113	0.5315	-0.7957	0.1119
1.3024	0.9667	1.492	1.0257	0.3419	0.6931	0.4818	-0.3512	-0.0777	-0.1212	-0.4973	-0.7429	-0.5253	0.9418	1.2495	0.3823	0.4196	-0.8827	0.4756	-0.8641	0.0466
1.3241	0.948	1.464	0.9729	0.3046	0.6403	0.4352	-0.4352	-0.171	-0.2331	-0.5812	-0.861	-0.6185	0.8921	1.2589	0.4258	0.4849	-0.9325	0.3916	-0.8859	-0.0218
1.3241	0.9232	1.4453	0.9791	0.2362	0.5844	0.3792	-0.46	-0.2269	-0.2953	-0.6496	-0.9356	-0.6776	0.8548	1.3024	0.4507	0.5471	-0.9636	0.3668	-0.9076	-0.0559
1.2993	0.8734	1.3707	0.9076	0.1865	0.4849	0.3015	-0.5098	-0.3139	-0.3823	-0.746	-1.0102	-0.7553	0.8175	1.3303	0.4756	0.6248	-1.0195	0.3077	-0.9325	-0.0995
1.2589	0.8454	1.3521	0.8579	0.1119	0.432	0.2611	-0.5657	-0.3948	-0.46	-0.7895	-1.091	-0.8268	0.7833	1.3676	0.4756	0.6838	-1.0195	0.2735	-0.9138	-0.1119
1.2433	0.7895	1.2806	0.805	0.0715	0.3792	0.1958	-0.5812	-0.4476	-0.5346	-0.8423	-1.1563	-0.8796	0.7367	1.3707	0.4631	0.7615	-1.0661	0.2207	-0.9232	-0.1585
1.1563	0.7242	1.2309	0.7491	0.0093	0.3108	0.115	-0.6652	-0.5315	-0.6123	-0.8921	-1.2216	-0.9387	0.7211	1.4143	0.4569	0.8175	-1.0506	0.1927	-0.8952	-0.1772
1.1128	0.6714	1.1314	0.6683	-0.0342	0.2114	0.0466	-0.69	-0.6061	-0.6776	-0.9387	-1.2713	-0.9884	0.6807	1.4267	0.4041	0.8827	-1.0568	0.1554	-0.8952	-0.202
1.0661	0.631	1.0506	0.6123	-0.0777	0.1554	-0.0031	-0.6994	-0.6527	-0.7242	-0.9636	-1.2961	-1.0288	0.6652	1.4453	0.3388	0.9418	-1.0568	0.1616	-0.8517	-0.1803
0.9729	0.5626	0.9511	0.5346	-0.1554	0.0808	-0.0995	-0.7646	-0.7491	-0.805	-1.0319	-1.3583	-1.0941	0.631	1.4329	0.2735	1.0009	-1.0444	0.1181	-0.8486	-0.202
0.8983	0.5253	0.8796	0.4289	-0.1834	-0.0124	-0.1647	-0.7895	-0.7988	-0.8734	-1.0506	-1.408	-1.1159	0.6279	1.4422	0.2456	1.0319	-1.0413	0.1305	-0.8206	-0.2238
0.833	0.4818	0.8144	0.3761	-0.2145	-0.0528	-0.2331	-0.8144	-0.833	-0.9076	-1.0692	-1.4267	-1.1656	0.6185	1.4267	0.1896	1.0692	-1.0009	0.1088	-0.7553	-0.2207
0.7491	0.3885	0.6745	0.2518	-0.3077	-0.143	-0.3046	-0.833	-0.9076	-0.9915	-1.0786	-1.5075	-1.2184	0.5906	1.4143	0.0777	1.1221	-0.9636	0.1057	-0.718	-0.2145
0.6745	0.3512	0.603	0.1741	-0.3233	-0.2051	-0.3637	-0.8392	-0.9325	-1.0257	-1.0786	-1.5044	-1.2371	0.5875	1.4174	0.0155	1.1407	-0.9511	0.115	-0.6527	-0.23
0.6061	0.2984	0.4911	0.0622	-0.3699	-0.2487	-0.4383	-0.8392	-0.9946	-1.0755	-1.0879	-1.5106	-1.2371	0.575	1.3925	-0.0559	1.1687	-0.8921	0.1119	-0.5719	-0.23
0.5502	0.2766	0.4289	0	-0.3854	-0.2922	-0.4756	-0.8299	-1.0319	-1.1034	-1.0661	-1.5168	-1.2495	0.5719	1.377	-0.1337	1.1905	-0.8423	0.1119	-0.5004	-0.2207
0.4725	0.2207	0.3357	-0.0932	-0.3979	-0.3202	-0.5564	-0.7833	-1.0257	-1.1221	-1.0351	-1.5231	-1.2744	0.5408	1.3366	-0.1865	1.2091	-0.833	0.1647	-0.3948	-0.202
0.4196	0.1772	0.2642	-0.1554	-0.4134	-0.3699	-0.6123	-0.7864	-1.0444	-1.1563	-0.9978	-1.5106	-1.2589	0.5284	1.2899	-0.2487	1.2402	-0.7709	0.1647	-0.286	-0.1554
0.3761	0.1554	0.1865	-0.2673	-0.4258	-0.3948	-0.6496	-0.7646	-1.0817	-1.178	-0.9605	-1.5199	-1.2744	0.5377	1.2247	-0.3233	1.2651	-0.7304	0.1865	-0.2083	-0.1274
0.3233	0.1461	0.1305	-0.3357	-0.4227	-0.4258	-0.7118	-0.6931	-1.0755	-1.1656	-0.8952	-1.4858	-1.2464	0.5346	1.1532	-0.3575	1.2775	-0.6745	0.202	-0.1119	-0.1119
0.2797	0.1243	0.0653	-0.4196	-0.3792	-0.46	-0.7304	-0.6465	-1.0724	-1.1749	-0.8237	-1.4485	-1.2371	0.5191	1.0692	-0.3948	1.2868	-0.6154	0.2145	-0.0715	-0.0964
0.2487	0.1088	0.0031	-0.5129	-0.3916	-0.4445	-0.8144	-0.5875	-1.0568	-1.1749	-0.7709	-1.4422	-1.2371	0.4911	1.0009	-0.432	1.3055	-0.575	0.2238	-0.0155	-0.0715
0.2051	0.0746	-0.0653	-0.6123	-0.3668	-0.4693	-0.8641	-0.5346	-1.0755	-1.2122	-0.7211	-1.408	-1.2091	0.516	0.9107	-0.4725	1.3024	-0.5439	0.2362	0.0062	-0.0622
0.1523	0.0591	-0.1337	-0.7056	-0.3543	-0.5129	-0.9356	-0.5098	-1.0879	-1.2371	-0.6838	-1.3801	-1.2122	0.5066	0.8237	-0.5004	1.3179	-0.5035	0.2083	0.0186	-0.0528
0.1057	0.0311	-0.1927	-0.805	-0.3264	-0.5315	-1.0071	-0.4383	-1.063	-1.2371	-0.6061	-1.3303	-1.1967	0.5004	0.7522	-0.5253	1.3117	-0.4538	0.1834	0.0528	-0.0653
0.0559	0.0249	-0.2549	-0.9014	-0.3108	-0.5222	-1.063	-0.3823	-1.0724	-1.2682	-0.575	-1.3024	-1.1656	0.5066	0.659	-0.5191	1.293	-0.4289	0.1523	0.0435	-0.1026
0	0.0093	-0.3108	-0.9978	-0.2735	-0.5688	-1.1283	-0.345	-1.0786	-1.2868	-0.5439	-1.2775	-1.1563	0.5253	0.5906	-0.5315	1.2837	-0.3916	0.1181	0.0684	-0.1243
-0.0497	-0.0124	-0.3357	-1.0599	-0.2673	-0.5937	-1.178	-0.3139	-1.0692	-1.2806	-0.5035	-1.2526	-1.1843	0.5315	0.488	-0.4911	1.2433	-0.3543	0.0839	0.0528	-0.1989
-0.0404	0.0093	-0.3761	-1.1159	-0.2114	-0.5875	-1.1749	-0.2456	-1.0226	-1.2651	-0.46	-1.1967	-1.1532	0.5595	0.4352	-0.4662	1.178	-0.3202	0.0528	0.0466	-0.1896
-0.0808	0.0466	-0.3792	-1.1749	-0.2145	-0.5688	-1.206	-0.2083	-1.0226	-1.2651	-0.4134	-1.1438	-1.1283	0.6061	0.3668	-0.4289	1.0879	-0.286	0.0093	0.0839	-0.23
-0.0808	0.028	-0.3854	-1.1874	-0.143	-0.5439	-1.2247	-0.1585	-0.9915	-1.2122	-0.3792	-1.0661	-1.0972	0.6496	0.3295	-0.3575	0.9822	-0.2487	-0.0124	0.1026	-0.2393
-0.1119	0.0342	-0.3699	-1.1936	-0.0932	-0.5098	-1.2029	-0.0653	-0.9138	-1.1749	-0.3046	-1.0071	-1.0568	0.7118	0.2704	-0.3233	0.8672	-0.202	-0.0249	0.1337	-0.2424
-0.1088	0.0715	-0.3419	-1.1656	-0.0342	-0.4662	-1.1656	0.0093	-0.8672	-1.147	-0.258	-0.9356	-1.0257	0.7864	0.2487	-0.2176	0.7211	-0.1181	-0.0249	0.1834	-0.2735
-0.0746	0.1274	-0.3108	-1.1314	0.0404	-0.4352	-1.1376	0.0839	-0.7988	-1.0879	-0.1989	-0.8703	-0.9853	0.861	0.2393	-0.1834	0.5595	-0.0777	-0.0622	0.2207	-0.2331
-0.0559	0.1554	-0.2456	-1.0724	0.1337	-0.3606	-1.0817	0.1958	-0.7149	-1.0382	-0.1088	-0.7615	-0.948	0.9449	0.2735	-0.1274	0.3916	-0.0124	-0.0031	0.2673	-0.2269
-0.0031	0.2083	-0.2083	-1.0133	0.202	-0.3108	-1.0257	0.2766	-0.6248	-0.976	-0.0435	-0.7025	-0.9045	1.0257	0.3139	-0.0715	0.2114	0.0373	0.0093	0.2953	-0.1896
0.0031	0.2424	-0.1492	-0.9356	0.2704	-0.2424	-0.9573	0.3512	-0.5191	-0.8921	0.0497	-0.6092	-0.8454	1.1128	0.3575	-0.0155	0.0342	0.0746	0.0218	0.3202	-0.1803
0.0342	0.2984	-0.1088	-0.833	0.3512	-0.1616	-0.9076	0.4289	-0.4787	-0.8579	0.1368	-0.5284	-0.805	1.1967	0.4165	0.0062	-0.115	0.1181	0.0497	0.3077	-0.1554
0.0466	0.3388	-0.0622	-0.7615	0.4072	-0.1057	-0.7988	0.5098	-0.3761	-0.7802	0.2207	-0.4289	-0.7833	1.262	0.4787	0.0404	-0.2735	0.1461	0.0591	0.2642	-0.1399
0.0622	0.3885	0.0031	-0.6403	0.4756	-0.0622	-0.7273	0.5812	-0.317	-0.6807	0.2953	-0.3637	-0.7522	1.3366	0.5471	0.0684	-0.4165	0.1803	0.0591	0.2238	-0.1274
0.087	0.4352	0.0653	-0.5408	0.5471	0.0249	-0.6403	0.6403	-0.2114	-0.6279	0.345	-0.2704	-0.6994	1.4049	0.6621	0.0466	-0.5502	0.1896	0.1119	0.1678	-0.0995
0.087	0.46	0.0777	-0.4258	0.5906	0.0435	-0.5844	0.7056	-0.1523	-0.5719	0.4134	-0.23	-0.6838	1.4485	0.7118	0.0404	-0.6403	0.202	0.0839	0.0839	-0.1026
0.1057	0.5066	0.115	-0.317	0.6465	0.1057	-0.4849	0.7491	-0.0777	-0.4973	0.4818	-0.1492	-0.6372	1.492	0.7833	0.0497	-0.7398	0.23	0.1057	-0.0062	-0.1026
0.1181	0.5346	0.143	-0.2176	0.6558	0.1492	-0.4227	0.7988	-0.0218	-0.4383	0.5439	-0.0839	-0.6154	1.5417	0.8361	0.028	-0.7957	0.2051	0.0995	-0.087	-0.1243
0.0839	0.5595	0.1647	-0.1181	0.7025	0.1678	-0.3233	0.8299	0.0497	-0.373	0.6123	-0.0249	-0.5875	1.5666	0.8579	0.0124	-0.8299	0.1958	0.0964	-0.1896	-0.1212
0.1026	0.5781	0.1865	-0.0559	0.7211	0.1989	-0.258	0.861	0.0995	-0.3264	0.6558	0.0155	-0.5346	1.5697	0.8486	0	-0.8423	0.1896	0.0932	-0.2735	-0.1088
0.0653	0.5781	0.171	0.0528	0.7149	0.2051	-0.2051	0.8827	0.1461	-0.2456	0.7025	0.0746	-0.516	1.5448	0.861	-0.0528	-0.8175	0.1772	0.1057	-0.3575	-0.1274
0.0653	0.575	0.1834	0.1337	0.7336	0.2145	-0.1305	0.9107	0.2083	-0.202	0.7833	0.143	-0.46	1.5541	0.8517	-0.0528	-0.805	0.1865	0.0901	-0.4258	-0.1057
0.0404	0.5937	0.1772	0.202	0.7429	0.2487	-0.0839	0.9263	0.2611	-0.1492	0.8361	0.2176	-0.3979	1.5231	0.8486	-0.0964	-0.7584	0.1678	0.0901	-0.4911	-0.1026
0.0249	0.5906	0.1523	0.2393	0.7398	0.2393	-0.0342	0.9605	0.3264	-0.0622	0.9294	0.2922	-0.3388	1.492	0.8454	-0.171	-0.69	0.1554	0.1088	-0.5315	-0.0684
-0.0062	0.5719	0.1119	0.2735	0.746	0.2238	-0.0218	1.0071	0.3761	-0.0218	0.9946	0.373	-0.2797	1.464	0.7988	-0.1803	-0.6154	0.1337	0.1274	-0.5533	-0.0342
-0.0466	0.5408	0.0995	0.2984	0.7149	0.2051	0.0218	1.0226	0.4165	0.0311	1.0692	0.432	-0.2176	1.408	0.7367	-0.2393	-0.5129	0.1243	0.115	-0.6279	0
-0.1212	0.5098	0	0.3077	0.7118	0.1554	0.0218	1.0413	0.4569	0.0746	1.1438	0.5035	-0.1678	1.349	0.6963	-0.3015	-0.3979	0.1088	0.1274	-0.6745	0.0373
-0.1678	0.46	-0.0466	0.2766	0.7149	0.143	0.0218	1.0817	0.516	0.1243	1.234	0.5844	-0.0995	1.2961	0.6434	-0.3419	-0.2735	0.0839	0.1554	-0.7336	0.1057
-0.258	0.4165	-0.1616	0.2518	0.7149	0.0839	-0.0093	1.1034	0.5564	0.143	1.3117	0.6745	-0.0311	1.2309	0.6092	-0.401	-0.1616	0.0684	0.1803	-0.7584	0.143
-0.3077	0.3948	-0.2269	0.2269	0.7087	0.0249	-0.0155	1.1407	0.5999	0.1865	1.4049	0.7771	0.0404	1.1811	0.5719	-0.4538	-0.0528	0.0839	0.2456	-0.7864	0.2331
-0.401	0.3202	-0.345	0.1585	0.6838	-0.0311	-0.0466	1.1532	0.631	0.1896	1.4764	0.8268	0.0901	1.1065	0.5284	-0.5408	0.0746	0.0591	0.2735	-0.7957	0.2735
-0.4849	0.2611	-0.432	0.0932	0.659	-0.0777	-0.0964	1.1967	0.6714	0.2051	1.5479	0.8983	0.143	1.0692	0.5098	-0.631	0.1834	0.0528	0.3419	-0.7833	0.3668
-0.5906	0.2269	-0.5377	-0.0062	0.6496	-0.1647	-0.1523	1.2216	0.7087	0.2114	1.6381	0.9822	0.2051	0.9978	0.4787	-0.7242	0.3233	0.0404	0.4134	-0.8206	0.4352
-0.69	0.1399	-0.6683	-0.0964	0.6403	-0.2362	-0.2269	1.2464	0.746	0.23	1.7095	1.0413	0.2642	0.9325	0.4973	-0.8299	0.4445	0.0777	0.4631	-0.805	0.5191
-0.8206	0.0901	-0.8082	-0.2051	0.5688	-0.3357	-0.3139	1.2464	0.7273	0.23	1.7779	1.1003	0.2922	0.8579	0.4787	-0.9107	0.5875	0.0995	0.5222	-0.805	0.603
-0.9325	0.028	-0.9356	-0.3357	0.5657	-0.4352	-0.3792	1.2589	0.718	0.2331	1.837	1.1532	0.3543	0.8237	0.4849	-0.9822	0.7056	0.1057	0.6185	-0.7709	0.6931
-1.0226	-0.0311	-1.0351	-0.4383	0.5533	-0.4911	-0.432	1.2899	0.746	0.2456	1.9054	1.2216	0.4258	0.7584	0.5004	-1.0568	0.8144	0.1057	0.6838	-0.7149	0.7926
-1.1407	-0.0559	-1.1407	-0.5408	0.5346	-0.5844	-0.5284	1.3086	0.7615	0.258	1.9582	1.3179	0.4942	0.7025	0.5098	-1.0817	0.9232	0.1399	0.7522	-0.6465	0.8921
-1.2775	-0.1274	-1.2713	-0.69	0.4756	-0.6714	-0.5937	1.2899	0.7491	0.2145	1.9831	1.321	0.5129	0.6341	0.5222	-1.1376	1.0475	0.1492	0.8454	-0.5937	0.9729
-1.3552	-0.1865	-1.3832	-0.8206	0.4383	-0.746	-0.6745	1.321	0.7709	0.2393	2.0266	1.3863	0.5502	0.5719	0.5595	-1.1656	1.1407	0.1647	0.9356	-0.5098	1.0724
-1.4609	-0.2797	-1.4951	-0.9605	0.4134	-0.8299	-0.774	1.3117	0.7646	0.1989	2.0328	1.4143	0.5781	0.5129	0.5906	-1.2216	1.2526	0.1834	1.004	-0.4165	1.1501
-1.5759	-0.3202	-1.5852	-1.1065	0.345	-0.8952	-0.833	1.2993	0.7398	0.1896	2.0328	1.436	0.5937	0.4693	0.6248	-1.2589	1.3303	0.1865	1.0506	-0.3668	1.2278
-1.6785	-0.4072	-1.6691	-1.2122	0.2891	-0.9978	-0.9232	1.2744	0.7242	0.1678	2.0297	1.4516	0.6154	0.4289	0.6434	-1.262	1.4049	0.2083	1.0972	-0.2891	1.262
-1.8121	-0.5222	-1.8183	-1.3863	0.1989	-1.1128	-1.0413	1.2091	0.6776	0.1274	1.9644	1.4298	0.6154	0.3699	0.6465	-1.3366	1.4982	0.1989	1.1283	-0.23	1.2713
-1.9085	-0.6092	-1.9023	-1.5168	0.1119	-1.1656	-1.1252	1.1625	0.6279	0.0964	1.9178	1.3987	0.6248	0.3637	0.6496	-1.3645	1.5479	0.202	1.1501	-0.1865	1.2868
-2.0515	-0.7087	-2.0266	-1.6225	0.0155	-1.2371	-1.206	1.1065	0.603	0.087	1.8432	1.3832	0.603	0.3357	0.6434	-1.4018	1.5914	0.1927	1.1501	-0.1181	1.2775
-2.1385	-0.7895	-2.1198	-1.7406	-0.0839	-1.3272	-1.3117	1.0475	0.5439	0.0373	1.7873	1.3334	0.5875	0.317	0.6403	-1.4671	1.6287	0.1865	1.1625	-0.0777	1.2557
-2.2473	-0.9107	-2.238	-1.8494	-0.171	-1.3863	-1.4143	0.9636	0.4911	-0.0124	1.6909	1.2961	0.5626	0.3357	0.631	-1.4702	1.6287	0.1989	1.1345	-0.0342	1.2371
-2.3499	-1.0351	-2.3312	-1.9302	-0.2766	-1.4764	-1.4889	0.8796	0.4072	-0.0684	1.6008	1.2184	0.5284	0.3295	0.575	-1.5137	1.6412	0.1803	1.1314	-0.0031	1.2184
-2.4493	-1.1563	-2.468	-2.0452	-0.4289	-1.5604	-1.607	0.7988	0.3357	-0.1461	1.492	1.1438	0.4756	0.3295	0.5284	-1.5635	1.6443	0.1803	1.0972	-0.0093	1.1843
-2.5363	-1.2993	-2.5581	-2.1261	-0.5284	-1.6256	-1.6971	0.6994	0.2642	-0.1803	1.3676	1.0692	0.4352	0.3419	0.4538	-1.5821	1.6225	0.1461	1.0692	-0.0124	1.1501
-2.6389	-1.4112	-2.6918	-2.1882	-0.6714	-1.7282	-1.781	0.5937	0.1647	-0.2673	1.2557	0.976	0.3575	0.3543	0.3606	-1.5945	1.6008	0.1243	1.0444	-0.0497	1.1221
-2.7228	-1.5852	-2.813	-2.2411	-0.8299	-1.8121	-1.8619	0.4849	0.0808	-0.3575	1.119	0.8859	0.317	0.3668	0.2487	-1.6039	1.5635	0.0839	1.0009	-0.1088	1.0599
-2.8006	-1.7127	-2.9	-2.2908	-0.976	-1.8992	-1.9893	0.373	-0.0342	-0.432	0.9978	0.7895	0.2331	0.4072	0.1119	-1.6163	1.5231	0.0466	0.9636	-0.1772	1.0195
-2.8689	-1.8494	-3.0212	-2.3499	-1.1159	-2.0048	-2.0359	0.2393	-0.1274	-0.5129	0.8641	0.6745	0.1647	0.4258	-0.0404	-1.6194	1.4826	0.0031	0.9232	-0.2829	0.9636
-2.9839	-1.9862	-3.1642	-2.3778	-1.2526	-2.1012	-2.1167	0.1461	-0.2424	-0.6185	0.7677	0.5595	0.0622	0.4445	-0.2238	-1.6287	1.4422	-0.0311	0.8796	-0.3606	0.9107
-3.0399	-2.1416	-3.2575	-2.3996	-1.3863	-2.2007	-2.2038	0.0218	-0.345	-0.7398	0.6434	0.4414	-0.0124	0.46	-0.4041	-1.5977	1.4205	-0.0901	0.8423	-0.4569	0.8859
-3.1176	-2.2659	-3.3507	-2.412	-1.5106	-2.2721	-2.2348	-0.0777	-0.4507	-0.805	0.5346	0.3419	-0.0901	0.5004	-0.5937	-1.5541	1.3428	-0.1274	0.8486	-0.5253	0.8548
-3.1829	-2.3747	-3.444	-2.4182	-1.6039	-2.3592	-2.2846	-0.1616	-0.5471	-0.889	0.4476	0.2549	-0.1492	0.5315	-0.8019	-1.5106	1.2837	-0.1678	0.8206	-0.5719	0.8579
-3.2046	-2.4649	-3.5186	-2.3778	-1.6909	-2.4276	-2.3094	-0.2393	-0.6123	-0.9636	0.3699	0.1834	-0.1834	0.5844	-0.9636	-1.4298	1.1811	-0.1647	0.8827	-0.5906	0.8765
-3.273	-2.5861	-3.6056	-2.3778	-1.7904	-2.5115	-2.3405	-0.3015	-0.69	-1.0257	0.2953	0.1088	-0.2393	0.6248	-1.1594	-1.3552	1.1128	-0.2269	0.8765	-0.6061	0.9076
-3.3165	-2.7135	-3.6709	-2.3654	-1.8929	-2.5705	-2.3623	-0.3792	-0.774	-1.0599	0.2673	0.0839	-0.2487	0.6745	-1.349	-1.2806	1.0382	-0.2238	0.8517	-0.5439	0.9387
-3.3694	-2.785	-3.7424	-2.3094	-1.9769	-2.642	-2.353	-0.4476	-0.8517	-1.0972	0.2051	-0.0031	-0.2797	0.7025	-1.5075	-1.1967	0.9667	-0.2549	0.8734	-0.5253	0.948
-3.4471	-2.8938	-3.8418	-2.2877	-2.0763	-2.7322	-2.384	-0.5315	-0.9449	-1.1811	0.1399	-0.0622	-0.3108	0.7118	-1.666	-1.1003	0.9076	-0.2766	0.8952	-0.4725	0.9791
-3.4937	-2.987	-3.8916	-2.2877	-2.1261	-2.8037	-2.4058	-0.5781	-1.0102	-1.2153	0.1181	-0.1212	-0.3326	0.746	-1.7748	-1.004	0.833	-0.2984	0.9014	-0.3948	1.0475
-3.5745	-3.0927	-3.9817	-2.2908	-2.2255	-2.872	-2.3965	-0.6527	-1.1065	-1.2526	0.0653	-0.1647	-0.3388	0.7677	-1.9116	-0.9076	0.7833	-0.3233	0.9169	-0.3637	1.0786
-3.6615	-3.1984	-4.0376	-2.2659	-2.3063	-2.9529	-2.4276	-0.7211	-1.1843	-1.2775	0.0404	-0.2176	-0.3543	0.7988	-2.0173	-0.8082	0.7429	-0.3419	0.9232	-0.3108	1.091
-3.7299	-3.3165	-4.1402	-2.2753	-2.4027	-3.043	-2.4213	-0.7988	-1.293	-1.3272	0.0031	-0.2829	-0.3792	0.8082	-2.1167	-0.7087	0.7118	-0.3823	0.8921	-0.2984	1.1252
-3.8201	-3.4098	-4.2304	-2.3188	-2.5177	-3.1425	-2.4742	-0.92	-1.4236	-1.3894	-0.087	-0.3606	-0.3823	0.7988	-2.2193	-0.6403	0.7118	-0.4258	0.8859	-0.3606	1.1345
-3.8916	-3.5248	-4.3112	-2.3716	-2.6234	-3.2388	-2.5115	-1.0071	-1.5572	-1.4453	-0.1461	-0.4258	-0.4165	0.8082	-2.297	-0.5471	0.69	-0.4693	0.8703	-0.4103	1.1376
-3.9941	-3.646	-4.4231	-2.4307	-2.7477	-3.3694	-2.5581	-1.1252	-1.7002	-1.5386	-0.2331	-0.5315	-0.4818	0.7988	-2.3903	-0.46	0.7149	-0.5439	0.8175	-0.4756	1.1314
-4.0998	-3.7859	-4.5598	-2.5239	-2.8783	-3.5155	-2.642	-1.2557	-1.8619	-1.6287	-0.3108	-0.659	-0.5408	0.774	-2.4742	-0.4072	0.7709	-0.6092	0.7584	-0.5657	1.1003
-4.221	-3.9102	-4.6624	-2.5985	-2.9995	-3.6305	-2.6949	-1.3552	-1.9893	-1.7095	-0.4041	-0.7646	-0.6185	0.7553	-2.5612	-0.3512	0.8299	-0.7118	0.7429	-0.6838	1.0972
-4.2956	-4.0439	-4.7525	-2.6793	-3.1518	-3.7734	-2.7881	-1.4795	-2.1447	-1.7904	-0.4849	-0.8734	-0.69	0.7118	-2.6109	-0.3295	0.9045	-0.7802	0.6931	-0.7677	1.0972
-4.42	-4.1868	-4.8862	-2.8068	-3.273	-3.9133	-2.8752	-1.6505	-2.3126	-1.9147	-0.6092	-1.0009	-0.7895	0.659	-2.7353	-0.2704	1.0133	-0.8827	0.603	-0.8672	1.0382
-4.5008	-4.2987	-4.9795	-2.8814	-3.3849	-4.0439	-2.9777	-1.7562	-2.468	-2.0204	-0.6838	-1.1159	-0.8827	0.6123	-2.785	-0.2487	1.1159	-0.9729	0.5595	-0.9573	1.0319
-4.622	-4.4169	-5.0882	-2.9622	-3.503	-4.162	-3.0772	-1.8929	-2.6172	-2.1136	-0.7709	-1.2371	-0.9729	0.5533	-2.8627	-0.2487	1.2557	-1.0568	0.5066	-1.0599	1.0009
-4.7152	-4.5381	-5.1815	-3.0834	-3.6211	-4.2832	-3.186	-1.9893	-2.7446	-2.2473	-0.8517	-1.3303	-1.0568	0.4818	-2.9062	-0.258	1.3894	-1.1532	0.488	-1.1656	0.9946
-4.7992	-4.6313	-5.2716	-3.1953	-3.7175	-4.4075	-3.2948	-2.1043	-2.8907	-2.3343	-0.9076	-1.4205	-1.147	0.4227	-2.9466	-0.2829	1.5199	-1.2184	0.4476	-1.2495	0.9946
-4.8738	-4.7277	-5.3649	-3.2637	-3.789	-4.5225	-3.3942	-2.2007	-3.015	-2.4276	-0.9636	-1.5386	-1.2464	0.345	-2.9902	-0.3481	1.666	-1.3024	0.4258	-1.3707	1.0133
-4.9328	-4.7805	-5.4053	-3.3694	-3.8543	-4.6002	-3.4719	-2.2597	-3.1021	-2.5115	-1.0071	-1.5666	-1.3148	0.2891	-3.0212	-0.4103	1.7997	-1.3676	0.4289	-1.4547	1.0382
-4.9608	-4.8334	-5.4302	-3.4036	-3.9009	-4.6344	-3.5279	-2.3063	-3.1487	-2.5581	-1.0071	-1.6225	-1.3801	0.2362	-3.0368	-0.4631	1.9178	-1.3894	0.4352	-1.5355	1.0568
-5.0012	-4.852	-5.511	-3.4688	-3.9133	-4.7152	-3.5901	-2.3685	-3.2326	-2.6389	-1.0195	-1.6816	-1.4422	0.1523	-3.043	-0.5284	2.0421	-1.4422	0.4476	-1.6225	1.1128
-5.0168	-4.8396	-5.4923	-3.5061	-3.904	-4.7028	-3.6522	-2.3654	-3.2637	-2.6731	-1.0382	-1.7033	-1.5044	0.115	-3.0616	-0.6185	2.1571	-1.4671	0.516	-1.6816	1.1687
-5.0199	-4.8116	-5.455	-3.5248	-3.9009	-4.7121	-3.6895	-2.3685	-3.2854	-2.7104	-1.0319	-1.7158	-1.5417	0.0528	-3.0585	-0.6745	2.2721	-1.4826	0.5004	-1.7717	1.2122
-5.0323	-4.8147	-5.483	-3.5714	-3.8853	-4.7184	-3.7237	-2.384	-3.3072	-2.7508	-1.0071	-1.7313	-1.6008	0.0062	-3.0616	-0.7242	2.3592	-1.5075	0.5284	-1.8183	1.2495
-4.995	-4.7401	-5.4239	-3.5559	-3.8449	-4.6904	-3.7393	-2.353	-3.3041	-2.7726	-0.9884	-1.7437	-1.6318	-0.0249	-3.0616	-0.774	2.4369	-1.4982	0.5533	-1.8587	1.3086
-4.9701	-4.6966	-5.3773	-3.5528	-3.8045	-4.6469	-3.7517	-2.3467	-3.2854	-2.757	-0.9605	-1.75	-1.6225	-0.0435	-3.0212	-0.8237	2.4928	-1.492	0.5533	-1.8836	1.3614
-4.9266	-4.6406	-5.3089	-3.5248	-3.7424	-4.5971	-3.7517	-2.2877	-3.2699	-2.8006	-0.9263	-1.7406	-1.6723	-0.0591	-2.9995	-0.8268	2.527	-1.4858	0.5844	-1.9023	1.4174
-4.8893	-4.5754	-5.2841	-3.5123	-3.6988	-4.5536	-3.7641	-2.2846	-3.2575	-2.8285	-0.8952	-1.7344	-1.6971	-0.0901	-2.9435	-0.8827	2.555	-1.4764	0.5626	-1.9023	1.4329
-4.824	-4.4728	-5.2064	-3.4906	-3.6709	-4.4852	-3.7921	-2.2535	-3.2419	-2.8254	-0.8827	-1.7717	-1.7344	-0.0995	-2.8627	-0.9232	2.5674	-1.4858	0.575	-1.8929	1.436
-4.765	-4.4013	-5.1286	-3.4657	-3.5994	-4.42	-3.7486	-2.2224	-3.2326	-2.8534	-0.889	-1.781	-1.7468	-0.0995	-2.8006	-0.9294	2.5581	-1.4547	0.5471	-1.8743	1.436
-4.6811	-4.3018	-4.9981	-3.4098	-3.5279	-4.3547	-3.7051	-2.1758	-3.1953	-2.8347	-0.8486	-1.7655	-1.7344	-0.0466	-2.7042	-0.92	2.5146	-1.4143	0.5129	-1.8246	1.4174
-4.5971	-4.2055	-4.9142	-3.3663	-3.4595	-4.2925	-3.6895	-2.1447	-3.1735	-2.8441	-0.8423	-1.7593	-1.7437	-0.0031	-2.6016	-0.8952	2.4369	-1.3801	0.5066	-1.7748	1.4143
-4.4448	-4.0718	-4.7743	-3.2792	-3.3725	-4.1775	-3.6305	-2.095	-3.1238	-2.8254	-0.8268	-1.7593	-1.7531	0.0342	-2.5053	-0.8548	2.3654	-1.377	0.4693	-1.7375	1.3676
-4.3423	-3.9506	-4.6686	-3.1767	-3.3072	-4.0781	-3.5714	-2.0546	-3.0803	-2.7912	-0.7926	-1.7406	-1.7313	0.0684	-2.3934	-0.805	2.2721	-1.3397	0.4787	-1.7033	1.3303
-4.1837	-3.8325	-4.5132	-3.071	-3.2388	-3.963	-3.475	-1.9924	-3.0181	-2.7664	-0.7584	-1.7002	-1.694	0.1305	-2.3063	-0.7398	2.154	-1.2682	0.4476	-1.6132	1.293
-4.0532	-3.733	-4.3889	-3.0057	-3.1549	-3.8511	-3.4098	-1.9893	-2.9964	-2.7073	-0.7646	-1.6785	-1.6629	0.1772	-2.21	-0.7025	2.0421	-1.2495	0.3792	-1.6008	1.2153
-3.9071	-3.5901	-4.2272	-2.9	-3.0803	-3.7361	-3.3321	-1.9396	-2.9342	-2.6607	-0.7615	-1.6691	-1.6474	0.2393	-2.1571	-0.5968	1.9116	-1.2247	0.3481	-1.5697	1.1376
-3.7548	-3.4595	-4.0749	-2.7601	-3.0181	-3.5901	-3.214	-1.9023	-2.8658	-2.5861	-0.7646	-1.6381	-1.5914	0.3264	-2.0484	-0.516	1.75	-1.178	0.3015	-1.5199	1.0413
-3.5932	-3.3196	-3.9164	-2.6296	-2.9529	-3.4875	-3.1021	-1.8743	-2.8068	-2.5146	-0.7677	-1.5821	-1.5199	0.4414	-1.9738	-0.4134	1.5728	-1.1221	0.2829	-1.464	0.9791
-3.416	-3.2108	-3.7672	-2.5146	-2.9062	-3.3911	-3.0088	-1.865	-2.7757	-2.4586	-0.746	-1.5635	-1.4516	0.4973	-1.8805	-0.3512	1.4049	-1.0848	0.202	-1.4143	0.8859
-3.2761	-3.1456	-3.6398	-2.3965	-2.872	-3.2854	-2.9342	-1.8277	-2.7197	-2.4058	-0.7584	-1.5262	-1.4112	0.5657	-1.8152	-0.2829	1.2433	-1.0599	0.115	-1.3801	0.7802
-3.1331	-3.0492	-3.5092	-2.2815	-2.8783	-3.2077	-2.8316	-1.8712	-2.7197	-2.3778	-0.7895	-1.5262	-1.3832	0.6527	-1.722	-0.2083	1.0599	-1.0133	0.0311	-1.3334	0.6745
-2.9902	-2.9995	-3.3911	-2.2007	-2.8907	-3.1673	-2.7943	-1.9085	-2.7166	-2.353	-0.8486	-1.5479	-1.3521	0.7336	-1.6536	-0.143	0.9076	-1.004	-0.0777	-1.3055	0.5533
-2.8565	-2.9684	-3.2948	-2.1229	-2.9404	-3.1331	-2.7135	-1.9365	-2.7384	-2.3436	-0.8859	-1.5666	-1.3272	0.8392	-1.5697	-0.115	0.7398	-0.9915	-0.1741	-1.2433	0.4507
-2.7291	-2.9187	-3.2015	-2.0204	-2.9684	-3.1052	-2.6762	-2.0048	-2.7788	-2.3405	-0.976	-1.6039	-1.3241	0.9045	-1.4858	-0.0653	0.5719	-0.9667	-0.3015	-1.2247	0.3233
-2.5892	-2.9497	-3.1487	-1.9862	-3.0492	-3.1052	-2.6296	-2.0732	-2.8254	-2.325	-1.0444	-1.6318	-1.321	0.9915	-1.4329	-0.0186	0.432	-0.9853	-0.4227	-1.1967	0.1741
-2.468	-2.9311	-3.0275	-1.8992	-3.0896	-3.1176	-2.5954	-2.1602	-2.8752	-2.3281	-1.1314	-1.6723	-1.3334	1.0817	-1.3303	0.0062	0.2735	-0.976	-0.5222	-1.1532	0.0559
-2.353	-2.9497	-2.9839	-1.837	-3.1704	-3.1207	-2.5612	-2.2597	-2.928	-2.325	-1.2091	-1.7064	-1.3552	1.1283	-1.2589	0.0559	0.1399	-0.9449	-0.6341	-1.1376	-0.0591
-2.2597	-2.987	-2.956	-1.7935	-3.2823	-3.1611	-2.5457	-2.3872	-3.0337	-2.3405	-1.3303	-1.7406	-1.3428	1.2091	-1.1905	0.0684	0.0062	-0.9729	-0.7677	-1.0692	-0.1772
-2.1665	-3.0554	-2.9218	-1.7437	-3.3973	-3.2015	-2.5208	-2.4991	-3.0989	-2.3467	-1.4422	-1.7935	-1.3552	1.2744	-1.1097	0.0746	-0.0995	-0.9418	-0.8952	-1.063	-0.2891
-2.1012	-3.0989	-2.9	-1.7033	-3.5123	-3.2357	-2.5084	-2.6234	-3.1922	-2.353	-1.5541	-1.8277	-1.3583	1.3179	-1.0692	0.0964	-0.1927	-0.948	-1.0102	-1.0413	-0.4041
-2.0266	-3.1829	-2.8627	-1.6691	-3.6491	-3.2979	-2.5022	-2.7446	-3.2637	-2.3561	-1.6505	-1.8712	-1.3459	1.3583	-1.0133	0.0964	-0.2797	-0.9387	-1.1594	-1.0071	-0.5004
-1.9613	-3.2388	-2.8565	-1.6287	-3.7579	-3.3352	-2.468	-2.8534	-3.3414	-2.3467	-1.7375	-1.896	-1.3428	1.4112	-0.9729	0.1585	-0.3761	-0.9418	-1.2464	-1.0133	-0.5626
-1.924	-3.3476	-2.872	-1.607	-3.8791	-3.3818	-2.4773	-2.9808	-3.4284	-2.3592	-1.8525	-1.9551	-1.3583	1.4298	-0.976	0.1989	-0.4289	-0.9356	-1.3583	-1.0413	-0.6279
-1.8898	-3.4191	-2.8472	-1.6008	-3.9786	-3.4129	-2.4586	-3.0616	-3.4595	-2.3592	-1.8992	-1.952	-1.3552	1.4485	-0.9884	0.2207	-0.4942	-0.92	-1.436	-1.0537	-0.6558
-1.8587	-3.5061	-2.8503	-1.5635	-4.0843	-3.4471	-2.4369	-3.1611	-3.5279	-2.3499	-1.9706	-1.9644	-1.3366	1.4733	-1.0226	0.2704	-0.5315	-0.9076	-1.5044	-1.0941	-0.6434
-1.8556	-3.5869	-2.8565	-1.5355	-4.1682	-3.4657	-2.412	-3.2388	-3.5465	-2.3312	-2.0111	-1.9613	-1.2993	1.4733	-1.063	0.3326	-0.5439	-0.9076	-1.5821	-1.1656	-0.6403
-1.8587	-3.6647	-2.9093	-1.5666	-4.2614	-3.4844	-2.412	-3.3165	-3.6056	-2.297	-2.039	-1.9302	-1.262	1.492	-1.1003	0.3699	-0.5439	-0.9076	-1.6505	-1.2402	-0.631
-1.8339	-3.733	-2.9249	-1.5697	-4.2801	-3.4968	-2.3872	-3.3507	-3.5932	-2.2348	-2.0359	-1.865	-1.1905	1.4982	-1.178	0.4383	-0.5284	-0.9045	-1.7002	-1.2993	-0.575
-1.8463	-3.7859	-2.9311	-1.5821	-4.3267	-3.4782	-2.3872	-3.3818	-3.5683	-2.2007	-2.0235	-1.837	-1.1376	1.4547	-1.262	0.5098	-0.4942	-0.8765	-1.722	-1.3707	-0.4911
-1.8743	-3.8636	-2.9902	-1.6443	-4.3578	-3.5061	-2.3778	-3.3942	-3.5683	-2.1696	-2.0204	-1.7717	-1.0537	1.4205	-1.3676	0.5564	-0.4476	-0.8672	-1.7562	-1.408	-0.4072
-1.9365	-3.9133	-3.043	-1.7313	-4.392	-3.4844	-2.3934	-3.3942	-3.5434	-2.1261	-1.9706	-1.7158	-0.9946	1.3801	-1.4858	0.5844	-0.3761	-0.8579	-1.7717	-1.492	-0.3326
-1.952	-3.9724	-3.0803	-1.7686	-4.3889	-3.475	-2.384	-3.388	-3.5279	-2.067	-1.9458	-1.6474	-0.9169	1.3428	-1.5914	0.6279	-0.3108	-0.8237	-1.7873	-1.5386	-0.2549
-2.0142	-4.019	-3.1425	-1.8432	-4.3889	-3.4533	-2.3872	-3.3756	-3.4719	-2.0173	-1.8774	-1.5572	-0.861	1.3117	-1.7127	0.6807	-0.2331	-0.7864	-1.8121	-1.5852	-0.1585
-2.067	-4.0656	-3.2171	-1.924	-4.4013	-3.4377	-2.4182	-3.3538	-3.444	-1.9582	-1.7997	-1.4733	-0.7646	1.2744	-1.8339	0.6776	-0.143	-0.7273	-1.8059	-1.5914	-0.0559
-2.1602	-4.0936	-3.2792	-2.0452	-4.364	-3.4377	-2.4649	-3.3259	-3.3973	-1.9178	-1.7375	-1.3925	-0.6963	1.206	-1.98	0.6931	-0.0435	-0.7056	-1.7966	-1.6505	0.0746
-2.2566	-4.1713	-3.3756	-2.1509	-4.364	-3.4471	-2.5115	-3.2823	-3.3756	-1.8898	-1.6723	-1.3241	-0.603	1.147	-2.1105	0.6869	0.0684	-0.6776	-1.8121	-1.6785	0.1989
-2.3219	-4.1775	-3.4409	-2.2597	-4.3423	-3.4315	-2.555	-3.2544	-3.3321	-1.837	-1.5759	-1.2464	-0.5253	1.091	-2.2473	0.6714	0.171	-0.5875	-1.7935	-1.722	0.3357
-2.4213	-4.2272	-3.5403	-2.384	-4.3547	-3.475	-2.6109	-3.2388	-3.3259	-1.8339	-1.5168	-1.206	-0.4787	0.9978	-2.3872	0.6248	0.3015	-0.5595	-1.7904	-1.7562	0.4507
-2.5363	-4.2894	-3.6491	-2.5115	-4.3329	-3.503	-2.6762	-3.186	-3.3134	-1.8339	-1.4298	-1.1656	-0.4258	0.948	-2.5426	0.575	0.4476	-0.5004	-1.7748	-1.7997	0.5812
-2.6451	-4.3485	-3.7579	-2.6358	-4.3485	-3.5776	-2.7508	-3.1704	-3.329	-1.8339	-1.3645	-1.147	-0.4103	0.8983	-2.6731	0.4942	0.5906	-0.4538	-1.7468	-1.8619	0.7367
-2.7601	-4.3982	-3.8853	-2.7819	-4.3702	-3.6367	-2.8658	-3.1767	-3.4098	-1.8836	-1.3117	-1.1376	-0.3854	0.8082	-2.8379	0.3916	0.7336	-0.4289	-1.7562	-1.9147	0.8703
-2.8752	-4.4635	-4.019	-2.9218	-4.3982	-3.7579	-2.9777	-3.1673	-3.4253	-1.9085	-1.2278	-1.147	-0.373	0.7273	-2.9746	0.286	0.8827	-0.3916	-1.7251	-1.98	1.0444
-3.0088	-4.507	-4.1216	-3.0368	-4.4044	-3.8387	-3.0741	-3.1611	-3.4688	-1.9675	-1.1656	-1.1594	-0.3637	0.6558	-3.1021	0.1678	1.0195	-0.3543	-1.6909	-2.0608	1.2122
-3.1269	-4.6002	-4.2428	-3.158	-4.4542	-3.9413	-3.1922	-3.1238	-3.5559	-2.0297	-1.0972	-1.1811	-0.3761	0.5688	-3.2544	-0.0062	1.1563	-0.317	-1.6443	-2.1385	1.4143
-3.2077	-4.6438	-4.3391	-3.2699	-4.4479	-4.0408	-3.2761	-3.1021	-3.6056	-2.0981	-1.004	-1.1998	-0.3761	0.5191	-3.3632	-0.1181	1.2682	-0.3046	-1.579	-2.2193	1.635
-3.2761	-4.6873	-4.451	-3.3663	-4.4852	-4.1527	-3.3787	-3.0865	-3.6709	-2.1354	-0.9232	-1.2184	-0.3916	0.46	-3.4626	-0.2393	1.3739	-0.2487	-1.5417	-2.2815	1.8277
-3.3663	-4.7557	-4.5288	-3.4191	-4.5101	-4.277	-3.4626	-3.071	-3.761	-2.2038	-0.8392	-1.262	-0.4072	0.4258	-3.5869	-0.3388	1.4671	-0.2331	-1.4702	-2.353	2.0235
-3.4409	-4.8209	-4.6189	-3.475	-4.5039	-4.3733	-3.5341	-3.0523	-3.8294	-2.3001	-0.7709	-1.3272	-0.4414	0.3575	-3.6367	-0.4693	1.5386	-0.1865	-1.4143	-2.4369	2.2442
-3.4875	-4.8458	-4.6717	-3.5155	-4.5163	-4.4479	-3.5683	-3.0119	-3.8884	-2.3374	-0.6869	-1.3521	-0.4507	0.3357	-3.7455	-0.5408	1.5852	-0.1523	-1.3583	-2.4804	2.4524
-3.4968	-4.8582	-4.6811	-3.5061	-4.4977	-4.5567	-3.6025	-2.9777	-3.9475	-2.384	-0.5844	-1.3707	-0.4445	0.3326	-3.8138	-0.575	1.579	-0.0964	-1.2713	-2.5239	2.6918
-3.5217	-4.8707	-4.7121	-3.4906	-4.4573	-4.6002	-3.6118	-2.9342	-4.0035	-2.3965	-0.4631	-1.377	-0.4383	0.3637	-3.8574	-0.6185	1.5604	-0.0373	-1.1874	-2.5395	2.8876
-3.5341	-4.8738	-4.7121	-3.4595	-4.4448	-4.6438	-3.6118	-2.8565	-4.0314	-2.4027	-0.373	-1.3801	-0.4103	0.3916	-3.904	-0.6527	1.5199	0.0155	-1.091	-2.5861	3.0896
-3.5341	-4.8769	-4.7339	-3.4191	-4.3951	-4.709	-3.5963	-2.8037	-4.0563	-2.4182	-0.2922	-1.3925	-0.4258	0.4165	-3.9475	-0.6621	1.4733	0.0622	-1.0226	-2.6265	3.2544
-3.4937	-4.8458	-4.709	-3.3383	-4.3267	-4.7152	-3.5621	-2.7135	-4.0594	-2.4151	-0.1834	-1.3645	-0.3979	0.4569	-3.9724	-0.6248	1.4018	0.1243	-0.9232	-2.6296	3.4284
-3.4409	-4.8334	-4.6438	-3.2792	-4.2677	-4.7059	-3.531	-2.6203	-4.0563	-2.3903	-0.0684	-1.3645	-0.3761	0.5035	-3.9848	-0.5937	1.3241	0.1958	-0.8548	-2.6358	3.6211
-3.3973	-4.7588	-4.5661	-3.1673	-4.134	-4.6655	-3.4222	-2.4897	-3.9786	-2.325	0.0746	-1.3117	-0.2891	0.5595	-3.9662	-0.5315	1.2184	0.2611	-0.7304	-2.6172	3.7797
-3.3196	-4.6779	-4.4821	-3.0492	-4.0003	-4.594	-3.3227	-2.3747	-3.9257	-2.2286	0.2207	-1.1967	-0.1927	0.6185	-3.9351	-0.4662	1.1065	0.373	-0.631	-2.5457	3.932
-3.2419	-4.5878	-4.364	-2.8969	-3.8387	-4.4883	-3.1984	-2.2348	-3.8294	-2.1229	0.3699	-1.0879	-0.1181	0.6652	-3.8822	-0.3792	0.9915	0.46	-0.4849	-2.5022	4.0874
-3.1269	-4.4697	-4.2241	-2.7539	-3.6678	-4.3796	-3.0461	-2.0328	-3.6864	-1.9955	0.5284	-0.9511	0.0404	0.7367	-3.8232	-0.2735	0.8827	0.5502	-0.3979	-2.4151	4.2366
-2.9933	-4.2956	-4.0501	-2.5674	-3.4564	-4.2086	-2.8752	-1.8463	-3.5155	-1.8183	0.7615	-0.7771	0.1803	0.7864	-3.7579	-0.1741	0.7895	0.6372	-0.2456	-2.3157	4.3764
-2.8379	-4.1154	-3.8418	-2.3809	-3.1984	-3.9817	-2.6545	-1.5977	-3.2979	-1.6039	0.9605	-0.575	0.3419	0.8454	-3.6149	-0.0653	0.6931	0.7211	-0.0684	-2.1665	4.5225
-2.698	-3.9195	-3.6305	-2.182	-2.9404	-3.7424	-2.4493	-1.3676	-3.0772	-1.4143	1.1936	-0.3512	0.5129	0.8859	-3.4688	0.0155	0.603	0.8144	0.0746	-2.0079	4.6438
-2.4991	-3.6522	-3.3787	-1.9333	-2.6265	-3.4533	-2.182	-1.063	-2.7726	-1.1221	1.4298	-0.0746	0.718	0.9356	-3.3227	0.1119	0.516	0.92	0.2518	-1.8121	4.7588
-2.2939	-3.3663	-3.0741	-1.6723	-2.2846	-3.1207	-1.896	-0.774	-2.4462	-0.8641	1.6629	0.1803	0.92	0.976	-3.1145	0.1958	0.4631	1.0071	0.4414	-1.6412	4.8769
-2.0701	-3.0989	-2.7695	-1.4049	-1.9333	-2.7664	-1.5821	-0.4693	-2.0981	-0.5439	1.924	0.4849	1.1625	1.0009	-2.9125	0.286	0.401	1.0848	0.631	-1.4422	4.9732
-1.8214	-2.7601	-2.4462	-1.1283	-1.5914	-2.384	-1.2744	-0.1492	-1.7189	-0.23	2.182	0.805	1.408	1.0288	-2.6793	0.3761	0.3637	1.1438	0.8392	-1.2309	5.0261
-1.5604	-2.412	-2.0919	-0.861	-1.1874	-1.9582	-0.9698	0.2145	-1.2961	0.1274	2.4493	1.1532	1.666	1.0351	-2.4058	0.4352	0.3357	1.2247	1.0413	-1.0195	5.0945
-1.321	-2.0794	-1.7313	-0.5812	-0.7833	-1.5417	-0.6558	0.5439	-0.8548	0.46	2.7384	1.5075	1.9333	1.0599	-2.0701	0.4476	0.317	1.2744	1.2402	-0.7926	5.138
-1.0133	-1.6816	-1.3303	-0.2673	-0.3606	-1.0786	-0.3015	0.92	-0.401	0.8454	3.0243	1.8867	2.1913	1.063	-1.7437	0.5129	0.2984	1.3241	1.4671	-0.5377	5.1784
-0.7304	-1.321	-0.9511	0.0093	0.0155	-0.631	0.0311	1.2651	0.0715	1.206	3.2761	2.2504	2.4524	1.0382	-1.4018	0.5719	0.3264	1.3366	1.6971	-0.3139	5.1535
-0.488	-0.9294	-0.5346	0.2984	0.4725	-0.1274	0.3637	1.6225	0.5533	1.5666	3.5217	2.6389	2.7508	1.0288	-1.0226	0.5502	0.3606	1.3801	1.8929	-0.0901	5.1504
-0.2238	-0.5346	-0.1492	0.5937	0.8796	0.3388	0.6994	1.9769	1.0319	1.9396	3.7797	3.015	3.0088	0.9853	-0.6341	0.5377	0.4103	1.3707	2.1105	0.1274	5.0789
0.0808	-0.1212	0.3046	0.9014	1.321	0.8579	1.063	2.325	1.5262	2.3436	4.0439	3.4315	3.2948	0.9605	-0.1989	0.5191	0.4631	1.408	2.3032	0.3512	5.0385
0.3326	0.2922	0.7118	1.1811	1.7437	1.349	1.4174	2.6918	2.0297	2.7135	4.2956	3.7921	3.5652	0.92	0.2704	0.4756	0.5315	1.3987	2.5301	0.5533	4.9763
0.6279	0.6714	1.1159	1.4951	2.1229	1.8246	1.7344	3.0212	2.5146	3.071	4.4883	4.1713	3.8356	0.889	0.7056	0.4445	0.6092	1.4049	2.7073	0.7709	4.88
0.889	1.0413	1.5324	1.7873	2.5363	2.3157	2.0763	3.3507	2.9933	3.4129	4.6811	4.535	4.0594	0.8361	1.178	0.4289	0.7118	1.3583	2.8907	0.9387	4.7463
1.1407	1.3832	1.9023	2.0608	2.8907	2.7695	2.3903	3.6149	3.4346	3.7579	4.8862	4.8365	4.2832	0.7833	1.6412	0.4196	0.7988	1.3334	3.0492	1.1501	4.5692
1.436	1.7748	2.3094	2.3685	3.2854	3.2513	2.7384	3.9444	3.904	4.0998	5.0447	5.1939	4.5319	0.7336	2.1167	0.3948	0.8796	1.3086	3.2046	1.2744	4.4106
1.7002	2.1292	2.698	2.6514	3.6429	3.6864	3.0585	4.2148	4.3454	4.4169	5.2064	5.4985	4.7339	0.6745	2.5643	0.401	0.9636	1.262	3.3321	1.436	4.2272
1.952	2.4524	3.0679	2.9435	3.963	4.1185	3.3569	4.4728	4.7805	4.6966	5.3307	5.7658	4.9235	0.6248	3.0243	0.3885	1.063	1.2122	3.4595	1.5386	3.9724
2.2286	2.7633	3.4098	3.1891	4.2832	4.5381	3.6647	4.7028	5.1846	4.9888	5.4177	6.0363	5.1193	0.5906	3.4533	0.4041	1.1407	1.1594	3.531	1.6598	3.7299
2.4711	3.0772	3.7517	3.475	4.5847	4.908	3.9724	4.9204	5.5762	5.2685	5.5296	6.2787	5.2654	0.5595	3.9195	0.3948	1.1967	1.1097	3.6367	1.7655	3.475
2.7228	3.3569	4.0812	3.7299	4.8707	5.3027	4.2739	5.1193	5.915	5.542	5.6198	6.5087	5.4395	0.5284	4.3391	0.432	1.2495	1.0413	3.6895	1.8898	3.2077
2.9684	3.5994	4.3951	4.0003	5.1318	5.6353	4.5412	5.2934	6.257	5.769	5.6415	6.6921	5.5389	0.5004	4.7588	0.4072	1.293	0.9729	3.7237	1.9706	2.9466
3.1829	3.848	4.6842	4.2521	5.3742	5.9306	4.8023	5.4426	6.5398	5.9648	5.6539	6.8537	5.6384	0.4849	5.1691	0.4507	1.3148	0.9076	3.7734	2.0732	2.6576
3.3787	4.0532	4.9266	4.4852	5.598	6.2072	5.054	5.5638	6.8133	6.1668	5.6571	6.9812	5.7006	0.4725	5.542	0.46	1.3459	0.8237	3.789	2.1602	2.3654
3.5621	4.2335	5.1504	4.6873	5.741	6.4434	5.2716	5.6477	7.0371	6.3036	5.626	7.0589	5.7441	0.4569	5.8933	0.4818	1.3739	0.7304	3.848	2.2411	2.0794
3.6895	4.3858	5.3214	4.8738	5.8777	6.6299	5.4706	5.7285	7.2205	6.4217	5.5669	7.1179	5.7783	0.4352	6.1855	0.5035	1.3925	0.6621	3.817	2.2877	1.7997
3.817	4.4977	5.4643	5.0105	6.0176	6.7885	5.6353	5.7534	7.3759	6.5212	5.4923	7.1552	5.7658	0.4258	6.4528	0.5315	1.4298	0.5564	3.8294	2.3281	1.5168
3.9195	4.5754	5.5887	5.1628	6.0829	6.9314	5.769	5.7565	7.4878	6.5895	5.4115	7.1335	5.7099	0.4041	6.6828	0.5937	1.4485	0.46	3.8294	2.3467	1.2775
4.0066	4.6593	5.6664	5.2841	6.1451	7.0185	5.8995	5.7254	7.5624	6.6144	5.2623	7.1148	5.6539	0.3823	6.8848	0.5875	1.4982	0.3388	3.7828	2.3467	0.9853
4.0501	4.6717	5.741	5.3556	6.1668	7.0869	5.9772	5.6912	7.6028	6.6082	5.1411	7.0371	5.57	0.3543	7.0433	0.5906	1.5448	0.23	3.7766	2.2784	0.746
4.0439	4.6375	5.7348	5.4084	6.1295	7.0838	6.0269	5.6135	7.609	6.5895	5.0105	6.9439	5.4643	0.3077	7.1956	0.5999	1.5945	0.1026	3.7175	2.2069	0.5066
4.0159	4.5878	5.713	5.4488	6.0953	7.0651	6.0238	5.4892	7.5718	6.546	4.8085	6.8102	5.3214	0.2797	7.2702	0.5844	1.6691	-0.0218	3.6429	2.1354	0.2611
3.9506	4.5039	5.6539	5.4395	6.03	7.0029	6.0114	5.3618	7.5096	6.4497	4.6002	6.6393	5.1318	0.2518	7.3293	0.5129	1.7344	-0.1678	3.5714	2.0048	0.0186
3.8884	4.3889	5.57	5.3773	5.9119	6.9408	5.9834	5.197	7.3853	6.3347	4.392	6.4652	4.9639	0.2238	7.3573	0.4662	1.809	-0.3139	3.4782	1.8681	-0.2114
3.7672	4.2304	5.4581	5.3151	5.7845	6.8102	5.9213	5.023	7.2516	6.2165	4.1527	6.2663	4.7432	0.1803	7.3169	0.4196	1.8898	-0.4818	3.3756	1.7686	-0.4227
3.6802	4.1278	5.3338	5.2716	5.6664	6.6859	5.828	4.852	7.1428	6.086	3.9413	6.0829	4.5381	0.1368	7.2671	0.3481	1.952	-0.6248	3.3041	1.6381	-0.5626
3.5434	3.9662	5.1784	5.1722	5.5047	6.5709	5.7503	4.6469	6.9625	5.9026	3.7206	5.8498	4.3298	0.1026	7.1863	0.2735	2.0484	-0.7771	3.1984	1.5448	-0.7211
3.3756	3.789	4.9919	5.0634	5.3338	6.3906	5.6135	4.4479	6.7698	5.7317	3.4813	5.626	4.0998	0.0591	7.0682	0.1865	2.1447	-0.9294	3.0803	1.4329	-0.8734
3.2668	3.6367	4.8178	4.9608	5.1504	6.2072	5.511	4.249	6.5864	5.5607	3.2823	5.3991	3.8791	0.0155	6.8941	0.1212	2.2411	-1.063	2.9933	1.3303	-0.9946
3.071	3.444	4.6375	4.8147	4.967	6.0083	5.368	4.0408	6.3844	5.3524	3.0616	5.1908	3.6802	-0.0373	6.7014	0.0622	2.3343	-1.1687	2.8907	1.1998	-1.0972
2.9031	3.2606	4.4386	4.6593	4.7774	5.8125	5.2343	3.8294	6.1637	5.1597	2.841	4.9639	3.4999	-0.0932	6.4745	0.028	2.4307	-1.2744	2.8006	1.1097	-1.1811
2.7228	3.0834	4.2179	4.4759	4.5816	5.6322	5.0789	3.5994	5.9244	4.9701	2.6141	4.7152	3.2761	-0.143	6.2787	-0.0528	2.5146	-1.3739	2.7073	1.0351	-1.2278
2.5363	2.8752	4.0252	4.3174	4.3764	5.4146	4.9359	3.4067	5.7192	4.7961	2.4182	4.4946	3.0896	-0.1554	6.058	-0.1119	2.5736	-1.4267	2.6141	0.9978	-1.2402
2.3499	2.7011	3.8045	4.1278	4.1744	5.2064	4.7836	3.2108	5.4892	4.6096	2.2348	4.3298	2.9249	-0.1896	5.8311	-0.1523	2.6451	-1.4982	2.5395	0.9449	-1.234
2.1851	2.5705	3.6398	3.9941	4.019	5.0292	4.6811	3.0741	5.3027	4.4417	2.1043	4.1527	2.785	-0.1865	5.598	-0.1803	2.6389	-1.5137	2.4866	0.9449	-1.1843
1.9831	2.3872	3.4098	3.7952	3.8263	4.8178	4.4946	2.8938	5.0509	4.2832	1.9644	3.9662	2.6327	-0.1896	5.3462	-0.1865	2.67	-1.5417	2.4213	0.8952	-1.1407
1.8028	2.2193	3.2513	3.6087	3.6678	4.6313	4.3485	2.7446	4.8644	4.1309	1.865	3.8107	2.5146	-0.1647	5.1286	-0.1585	2.6358	-1.5417	2.3716	0.9014	-1.0475
1.666	2.095	3.0741	3.4253	3.5248	4.4728	4.2304	2.6141	4.6904	3.9879	1.7841	3.6833	2.4213	-0.1243	4.9297	-0.1274	2.5705	-1.492	2.3343	0.9356	-0.9387
1.5106	1.9458	2.9311	3.245	3.3663	4.2987	4.0936	2.527	4.5008	3.8325	1.7375	3.5869	2.3467	-0.0995	4.7339	-0.1305	2.4897	-1.4578	2.3001	0.9915	-0.7864
1.3707	1.8121	2.785	3.1114	3.2699	4.1558	3.9289	2.4182	4.3547	3.7175	1.7064	3.5092	2.3219	-0.0404	4.5536	-0.0995	2.3654	-1.436	2.2784	1.0319	-0.631
1.2278	1.7033	2.642	2.928	3.1673	4.019	3.8201	2.3623	4.1806	3.6056	1.7033	3.4346	2.2721	0.0342	4.3827	-0.0591	2.2442	-1.3459	2.2628	1.091	-0.4289
1.0786	1.6039	2.5239	2.7695	3.0679	3.8605	3.6864	2.3001	4.0439	3.4937	1.7033	3.3787	2.2442	0.1181	4.2397	-0.0218	2.0825	-1.2589	2.2411	1.1252	-0.2331
0.976	1.4858	2.3872	2.6203	2.9964	3.7424	3.5528	2.2815	3.9226	3.4036	1.7593	3.3445	2.2504	0.2051	4.0874	0.0404	1.9271	-1.1656	2.2473	1.1625	0.0062
0.8423	1.377	2.2659	2.4338	2.8876	3.5869	3.4315	2.2255	3.7859	3.2948	1.7779	3.3165	2.2317	0.2797	3.9351	0.0591	1.7655	-1.1128	2.2628	1.1656	0.2331
0.7242	1.2868	2.1323	2.2877	2.8099	3.4626	3.2854	2.2038	3.6491	3.1829	1.8494	3.2699	2.2224	0.3637	3.7983	0.1212	1.5852	-1.0413	2.2784	1.1283	0.488
0.6061	1.1998	2.0266	2.1571	2.7757	3.3663	3.1767	2.2255	3.5528	3.1114	1.9365	3.2886	2.2348	0.4693	3.6615	0.1678	1.4112	-0.9542	2.3312	1.091	0.7957
0.4942	1.0848	1.9116	1.9831	2.698	3.2171	3.0337	2.2348	3.4315	3.0275	2.0204	3.2202	2.2193	0.5253	3.5061	0.2083	1.2744	-0.8765	2.353	0.9884	1.0848
0.3761	0.976	1.781	1.8277	2.6327	3.0741	2.8752	2.2535	3.301	2.9125	2.1198	3.2046	2.2131	0.5844	3.3445	0.2362	1.1407	-0.8206	2.3903	0.9107	1.3863
0.2393	0.8486	1.6381	1.6536	2.5457	2.9031	2.7104	2.2411	3.1611	2.7601	2.1882	3.1487	2.182	0.6279	3.1798	0.2083	1.0506	-0.7771	2.4058	0.7677	1.666
0.115	0.7398	1.5075	1.5137	2.4586	2.7695	2.5301	2.2442	3.043	2.6607	2.2877	3.0989	2.1634	0.6869	3.0212	0.258	0.9698	-0.7677	2.4524	0.603	1.9551
-0.0031	0.6279	1.377	1.3583	2.3716	2.5923	2.3996	2.2597	2.9156	2.5519	2.3778	3.0679	2.1136	0.7242	2.8565	0.2331	0.8921	-0.7429	2.4773	0.4476	2.2535
-0.1368	0.4693	1.2091	1.206	2.2846	2.412	2.1913	2.238	2.7726	2.4089	2.4586	2.9902	2.0732	0.7304	2.7073	0.1741	0.8548	-0.746	2.4928	0.2518	2.5053
-0.3015	0.3077	1.0475	1.0475	2.1975	2.2411	2.0359	2.2162	2.6047	2.2628	2.5395	2.9373	2.0266	0.7304	2.5177	0.1461	0.8517	-0.7429	2.4804	0.0311	2.7881
-0.4445	0.1896	0.8734	0.8796	2.0608	2.0515	1.8556	2.2286	2.468	2.1323	2.6109	2.9	1.9644	0.7242	2.3623	0.0932	0.8641	-0.7709	2.4804	-0.1865	3.0492
-0.5688	0.0124	0.718	0.718	1.9738	1.8587	1.6598	2.2348	2.3126	2.0048	2.6949	2.8223	1.9396	0.7273	2.1913	0.028	0.8734	-0.8175	2.4804	-0.401	3.3383
-0.6994	-0.1181	0.5595	0.5688	1.8432	1.7064	1.4982	2.2131	2.1665	1.896	2.7943	2.7695	1.8587	0.7149	2.0017	0.0062	0.9045	-0.8237	2.4804	-0.6279	3.6056
-0.8392	-0.2735	0.373	0.4165	1.7375	1.5231	1.3303	2.2224	2.0452	1.7873	2.8876	2.7322	1.837	0.6714	1.8152	-0.0684	0.9542	-0.8454	2.4897	-0.8423	3.8729
-0.9294	-0.4196	0.2549	0.286	1.6318	1.3614	1.1998	2.2317	1.9271	1.6754	3.0243	2.7135	1.8308	0.6434	1.6381	-0.1305	1.0164	-0.8765	2.5146	-1.0941	4.134
-1.0537	-0.5222	0.1243	0.1865	1.5821	1.2433	1.0879	2.2597	1.8556	1.6318	3.1518	2.726	1.8463	0.6154	1.4547	-0.1865	1.0661	-0.861	2.5395	-1.2526	4.4262
-1.1034	-0.631	-0.0062	0.0995	1.492	1.091	0.9729	2.3126	1.7717	1.5635	3.3072	2.7415	1.8681	0.5781	1.2775	-0.2083	1.1252	-0.8765	2.5954	-1.4329	4.7152
-1.1718	-0.7491	-0.115	0.0218	1.4267	0.9605	0.8672	2.325	1.7158	1.5168	3.4502	2.7695	1.8898	0.5439	1.0972	-0.1958	1.1718	-0.8765	2.6109	-1.5883	4.9919
-1.2557	-0.8517	-0.2238	-0.0684	1.3583	0.8392	0.7646	2.3592	1.6754	1.4764	3.5994	2.8037	1.9178	0.5098	0.889	-0.1803	1.2402	-0.861	2.6855	-1.7251	5.2685
-1.3397	-0.9511	-0.3512	-0.1461	1.2899	0.7273	0.6931	2.4089	1.607	1.4485	3.7486	2.8441	1.952	0.5035	0.7242	-0.1958	1.2961	-0.8206	2.698	-1.8494	5.5172
-1.408	-1.0382	-0.46	-0.2176	1.2402	0.6403	0.6248	2.4711	1.5914	1.4609	3.8978	2.9404	2.0328	0.4631	0.5471	-0.1772	1.349	-0.7615	2.7291	-1.9333	5.7876
-1.4329	-1.119	-0.5035	-0.2083	1.2402	0.5844	0.5968	2.555	1.6008	1.4982	4.0812	3.0523	2.1354	0.4476	0.3854	-0.1243	1.3801	-0.6558	2.7912	-1.9582	6.0363
-1.5044	-1.1905	-0.5937	-0.286	1.2029	0.488	0.5719	2.6078	1.6008	1.5293	4.2459	3.1394	2.238	0.4258	0.2393	-0.1088	1.4018	-0.6061	2.8347	-1.9738	6.2911
-1.5572	-1.2433	-0.6838	-0.2922	1.2029	0.4476	0.5533	2.6949	1.6381	1.5852	4.4137	3.2637	2.3685	0.4383	0.0995	-0.0373	1.3956	-0.4693	2.8845	-1.9427	6.5367
-1.5883	-1.293	-0.7553	-0.3481	1.1532	0.3637	0.5564	2.7539	1.666	1.6474	4.5754	3.4067	2.4991	0.4258	-0.0373	-0.0155	1.4049	-0.3357	2.9125	-1.8898	6.7698
-1.6163	-1.3366	-0.8392	-0.3606	1.1563	0.2891	0.516	2.8037	1.6754	1.7189	4.7246	3.5652	2.6358	0.4383	-0.1678	0.0932	1.3832	-0.2051	2.9373	-1.837	6.9781
-1.6598	-1.3956	-0.8952	-0.3823	1.1687	0.2487	0.5595	2.9249	1.7686	1.8246	4.9204	3.7455	2.8379	0.4756	-0.2518	0.1554	1.3272	-0.0249	2.9933	-1.7655	7.1677
-1.7095	-1.4329	-0.9605	-0.373	1.1563	0.1896	0.5719	2.9995	1.809	1.9054	5.0789	3.9164	3.0057	0.4911	-0.3419	0.2083	1.2433	0.1274	2.9746	-1.7033	7.3759
-1.7437	-1.4733	-1.0475	-0.4134	1.1625	0.1772	0.6123	3.0741	1.8836	2.0173	5.2281	4.0905	3.1798	0.5346	-0.3885	0.2922	1.1501	0.3015	2.9653	-1.6381	7.5282
-1.7748	-1.4982	-1.091	-0.4196	1.1594	0.1337	0.6465	3.1767	1.9769	2.1323	5.3897	4.3112	3.3756	0.5999	-0.4165	0.3699	1.0195	0.4693	2.9902	-1.5479	7.7272
-1.8152	-1.5479	-1.1625	-0.4041	1.1501	0.115	0.7025	3.2388	2.0515	2.2348	5.5358	4.4915	3.5465	0.659	-0.4352	0.4507	0.8983	0.6558	2.956	-1.4671	7.867
-1.8339	-1.5604	-1.2371	-0.432	1.1687	0.0808	0.7553	3.3352	2.1571	2.3592	5.6912	4.6624	3.733	0.7398	-0.4383	0.516	0.7398	0.8113	2.9466	-1.3801	8.0224
-1.8556	-1.5759	-1.2899	-0.4103	1.1811	0.0622	0.7957	3.3973	2.238	2.4742	5.7938	4.8458	3.9164	0.8113	-0.4227	0.5626	0.5875	0.9822	2.9311	-1.2557	8.181
-1.865	-1.6008	-1.3428	-0.4569	1.1687	0.0311	0.8237	3.4782	2.3157	2.5799	5.9586	5.0199	4.0905	0.8859	-0.401	0.6061	0.4196	1.1407	2.9093	-1.1656	8.2929
-1.8867	-1.6225	-1.4018	-0.4911	1.1625	0.0466	0.8641	3.5123	2.3903	2.6918	6.0425	5.1877	4.2552	0.9573	-0.3637	0.6527	0.2829	1.2589	2.8627	-1.0475	8.4141
-1.9116	-1.6474	-1.4764	-0.5129	1.1438	0.0218	0.8548	3.5869	2.4649	2.7664	6.1606	5.3524	4.3982	1.0226	-0.3108	0.6994	0.1337	1.3832	2.8379	-0.9263	8.5136
-1.9365	-1.6878	-1.5199	-0.5408	1.1625	0.0186	0.8921	3.6429	2.5488	2.841	6.2787	5.4892	4.5225	1.0972	-0.2518	0.718	-0.0093	1.5044	2.8006	-0.833	8.6068
-1.9365	-1.7127	-1.6008	-0.5999	1.1501	-0.0218	0.9076	3.6709	2.5923	2.9187	6.3782	5.6166	4.6811	1.1656	-0.1958	0.7336	-0.1274	1.6101	2.7633	-0.6838	8.7001
-1.9738	-1.7313	-1.6754	-0.6279	1.1594	-0.0622	0.9138	3.7268	2.642	2.9902	6.4683	5.7223	4.7525	1.2153	-0.1616	0.7273	-0.2424	1.7127	2.7291	-0.5781	8.7809
-1.9862	-1.7344	-1.7095	-0.6838	1.1749	-0.0808	0.9076	3.7983	2.726	3.071	6.5958	5.8404	4.9017	1.2899	-0.1026	0.7584	-0.3575	1.7904	2.7353	-0.4445	8.8865
-1.9955	-1.7624	-1.8152	-0.7242	1.1656	-0.115	0.9232	3.8387	2.7601	3.1269	6.6921	5.9368	4.9826	1.3272	-0.0622	0.7677	-0.4258	1.8681	2.7104	-0.3108	8.9425
-2.0328	-1.7997	-1.8743	-0.8082	1.1563	-0.1368	0.9107	3.8916	2.8099	3.1735	6.7885	6.0207	5.054	1.3552	0.0031	0.7211	-0.4942	1.9333	2.698	-0.1989	9.0326
-2.0577	-1.7935	-1.9396	-0.8641	1.178	-0.171	0.9014	3.9693	2.8876	3.2388	6.9439	6.1513	5.1753	1.3956	0.0404	0.7087	-0.5595	2.0017	2.7166	-0.0746	9.1072
-2.1136	-1.8183	-2.039	-0.9605	1.2153	-0.1803	0.8921	4.0563	2.9373	3.2637	7.0744	6.2694	5.2592	1.4236	0.115	0.6963	-0.6092	2.067	2.7353	0.0622	9.1943
-2.1851	-1.8898	-2.1198	-1.0568	1.1843	-0.2487	0.8486	4.0905	2.9466	3.301	7.1708	6.3751	5.3338	1.4205	0.1212	0.6621	-0.603	2.1198	2.7228	0.1896	9.2471
-2.2162	-1.896	-2.2193	-1.1345	1.2216	-0.2829	0.8361	4.1527	2.9902	3.3445	7.3169	6.4745	5.4146	1.4453	0.1616	0.631	-0.631	2.1758	2.7384	0.2953	9.3279
-2.2628	-1.9489	-2.3063	-1.2309	1.2433	-0.3108	0.8206	4.2614	3.0616	3.4067	7.4692	6.5833	5.511	1.4547	0.1896	0.6217	-0.6403	2.2473	2.7695	0.4289	9.3777
-2.3188	-1.9396	-2.384	-1.3086	1.2589	-0.3357	0.7895	4.3423	3.1083	3.4595	7.5966	6.7139	5.6042	1.4329	0.1927	0.6185	-0.6154	2.3312	2.7819	0.5688	9.415
-2.3965	-1.9924	-2.4897	-1.377	1.2868	-0.3699	0.7926	4.4386	3.186	3.531	7.7582	6.8164	5.6788	1.436	0.23	0.5906	-0.6092	2.3934	2.8161	0.6683	9.4523
-2.4338	-2.0079	-2.5488	-1.4547	1.3334	-0.3885	0.774	4.5567	3.2606	3.5528	7.8981	6.9346	5.7441	1.3956	0.202	0.5781	-0.5657	2.4307	2.8689	0.7615	9.502
-2.4928	-2.0173	-2.6172	-1.5044	1.3614	-0.4134	0.7802	4.6562	3.3227	3.6242	8.0411	7.0806	5.8467	1.3645	0.1958	0.5471	-0.516	2.5053	2.9031	0.8641	9.5237
-2.5581	-2.0888	-2.7291	-1.5635	1.3801	-0.4476	0.774	4.7774	3.388	3.674	8.1872	7.2081	5.9244	1.321	0.1772	0.4911	-0.432	2.5426	2.9249	0.9263	9.5455
-2.6172	-2.1074	-2.7819	-1.5914	1.4267	-0.4507	0.7553	4.8955	3.4688	3.7175	8.355	7.3107	5.9959	1.2713	0.1647	0.4973	-0.3637	2.5954	3.0026	1.0288	9.6077
-2.7135	-2.1385	-2.8534	-1.6381	1.464	-0.4693	0.7553	5.0012	3.5279	3.7766	8.5167	7.4226	6.0611	1.2247	0.1492	0.4227	-0.2642	2.6389	3.0772	1.0786	9.6605
-2.7819	-2.1478	-2.928	-1.6629	1.5168	-0.4849	0.7242	5.1131	3.6056	3.8138	8.6596	7.5469	6.1233	1.1656	0.1399	0.3543	-0.1647	2.6949	3.1238	1.1345	9.6916
-2.8845	-2.1851	-3.015	-1.7002	1.5137	-0.516	0.69	5.2157	3.6584	3.848	8.7778	7.665	6.1575	1.0817	0.0715	0.2766	-0.028	2.7135	3.1735	1.1345	9.6916
-2.9777	-2.2348	-3.1083	-1.7437	1.5448	-0.5439	0.6683	5.3276	3.7144	3.8916	8.9083	7.752	6.2228	1.0164	0.0342	0.1896	0.0901	2.757	3.2823	1.1936	9.7444
-3.0585	-2.2348	-3.1642	-1.7624	1.6163	-0.5626	0.6279	5.4333	3.7797	3.9164	9.0389	7.8453	6.2352	0.9573	-0.0062	0.1212	0.2207	2.7757	3.3445	1.1967	9.7631
-3.158	-2.269	-3.2575	-1.7717	1.635	-0.6092	0.5937	5.5203	3.7952	3.9195	9.1508	7.9354	6.2725	0.889	-0.0559	0.0404	0.3575	2.7912	3.4284	1.2247	9.8128
-3.2326	-2.3126	-3.3321	-1.8028	1.6847	-0.6434	0.5812	5.626	3.8511	3.9475	9.2782	8.0069	6.3036	0.805	-0.1554	-0.0404	0.516	2.8161	3.5092	1.1967	9.8408
-3.3259	-2.3126	-3.4191	-1.8121	1.722	-0.6621	0.5533	5.7503	3.9164	3.9817	9.4056	8.0908	6.3315	0.7367	-0.2393	-0.1026	0.6465	2.8347	3.618	1.2091	9.9061
-3.4067	-2.325	-3.4626	-1.8214	1.7624	-0.6869	0.5439	5.8684	3.991	4.0003	9.5206	8.1934	6.3595	0.6745	-0.3295	-0.1212	0.7957	2.8596	3.7237	1.2029	9.9744
-3.4595	-2.3374	-3.4968	-1.8059	1.8463	-0.6652	0.5408	5.9554	4.0221	4.0563	9.6388	8.2867	6.3937	0.6185	-0.3979	-0.171	0.9325	2.8814	3.8107	1.1843	10.0211
-3.5403	-2.3094	-3.559	-1.7935	1.8929	-0.6807	0.5408	6.0767	4.0905	4.0718	9.7724	8.3923	6.431	0.5533	-0.5004	-0.1989	1.0599	2.8876	3.932	1.1314	10.077
-3.6149	-2.3094	-3.5869	-1.7717	1.98	-0.6807	0.5408	6.1761	4.1495	4.0936	9.8936	8.4731	6.4776	0.488	-0.5875	-0.2176	1.1905	2.9062	4.0345	1.0879	10.1019
-3.6274	-2.2877	-3.6274	-1.7406	2.0297	-0.6683	0.5657	6.2974	4.2397	4.1682	10.0117	8.585	6.574	0.4196	-0.6434	-0.2611	1.3055	2.9435	4.1527	1.0786	10.1578
-3.674	-2.2597	-3.6615	-1.722	2.1012	-0.6341	0.5688	6.3968	4.3267	4.2117	10.1236	8.669	6.5958	0.3606	-0.7056	-0.2424	1.4329	2.9497	4.2335	1.0319	10.1703
-3.733	-2.2535	-3.6678	-1.7095	2.21	-0.603	0.6092	6.5056	4.4044	4.2863	10.2231	8.7778	6.6517	0.3202	-0.718	-0.3015	1.5448	2.9591	4.3547	0.9915	10.2138
-3.7548	-2.2255	-3.7082	-1.6723	2.2784	-0.5719	0.6496	6.6331	4.4883	4.336	10.335	8.9176	6.7232	0.2642	-0.7304	-0.3388	1.6723	2.9653	4.4386	0.9232	10.2573
-3.7921	-2.1975	-3.6957	-1.6567	2.3685	-0.5284	0.6558	6.7325	4.5785	4.3796	10.4407	8.9829	6.7947	0.2114	-0.7118	-0.4258	1.781	2.9466	4.5536	0.8734	10.2977
-3.8076	-2.1478	-3.6802	-1.6225	2.4773	-0.4818	0.7367	6.8475	4.6779	4.4417	10.5588	9.0948	6.8475	0.1647	-0.7242	-0.4631	1.8805	2.928	4.65	0.805	10.3381
-3.8263	-2.0888	-3.6615	-1.5728	2.5736	-0.4103	0.7864	6.9532	4.7961	4.5225	10.6614	9.1943	6.9128	0.1243	-0.6776	-0.5471	1.9831	2.9435	4.7215	0.7771	10.391
-3.8356	-2.067	-3.6771	-1.5635	2.6638	-0.3823	0.8082	7.0527	4.8831	4.5909	10.7484	9.2875	6.9843	0.0715	-0.6496	-0.5906	2.0763	2.928	4.8023	0.7429	10.4003
-3.8449	-1.9986	-3.646	-1.5386	2.7633	-0.3015	0.889	7.1832	5.0074	4.6748	10.8572	9.4212	7.0806	0.0311	-0.575	-0.6807	2.1416	2.9404	4.8831	0.7367	10.4438
-3.8418	-1.9458	-3.6118	-1.5075	2.8752	-0.23	0.9573	7.2329	5.0851	4.7557	10.9722	9.5331	7.1552	0.0093	-0.516	-0.746	2.2162	2.956	4.9484	0.7273	10.4531
-3.789	-1.8494	-3.5403	-1.4422	3.0057	-0.1212	1.0444	7.3635	5.2219	4.8831	11.0779	9.6729	7.2765	0.0124	-0.401	-0.8144	2.2255	2.9902	5.0261	0.7553	10.4749
-3.7548	-1.7841	-3.4875	-1.3832	3.1238	-0.0186	1.1501	7.494	5.3711	5.0105	11.2084	9.7973	7.4163	0.0031	-0.3139	-0.8423	2.238	3.0275	5.0851	0.7802	10.4966
-3.7051	-1.6816	-3.3911	-1.3148	3.2668	0.115	1.2464	7.637	5.5079	5.1504	11.3297	9.9744	7.55	0.0062	-0.1865	-0.8454	2.2007	3.0927	5.1597	0.8454	10.4966
-3.6087	-1.5479	-3.2854	-1.2091	3.4191	0.2797	1.408	7.7614	5.7006	5.3214	11.4757	10.1361	7.7085	0.0591	-0.0653	-0.805	2.1167	3.1767	5.2343	0.9449	10.4935
-3.4968	-1.436	-3.1549	-1.0848	3.5496	0.4538	1.5479	7.9168	5.8715	5.483	11.569	10.2884	7.8701	0.115	0.0684	-0.7336	2.0048	3.2513	5.2934	1.0506	10.4749
-3.3632	-1.3117	-3.0243	-0.9605	3.6926	0.5844	1.7344	8.0473	6.0705	5.6788	11.712	10.4749	8.0473	0.1647	0.2207	-0.6931	1.865	3.3569	5.3245	1.1749	10.4718
-3.2015	-1.1438	-2.8627	-0.8144	3.8387	0.7864	1.8929	8.1903	6.3036	5.9057	11.8612	10.708	8.268	0.2704	0.3761	-0.5719	1.6691	3.444	5.3929	1.3179	10.4656
-3.0896	-1.0195	-2.6918	-0.6869	3.9693	0.9449	2.0359	8.3395	6.5056	6.0891	11.9793	10.8727	8.439	0.3575	0.5222	-0.4849	1.5075	3.5465	5.4208	1.4205	10.4251
-2.8876	-0.8734	-2.5363	-0.4942	4.106	1.1438	2.2504	8.4638	6.7139	6.3129	12.1129	11.0561	8.6099	0.4662	0.6403	-0.345	1.293	3.6709	5.4923	1.5759	10.4096
-2.6887	-0.7118	-2.3405	-0.3046	4.2677	1.3241	2.4151	8.6223	6.9408	6.5243	12.231	11.2364	8.8057	0.5688	0.7771	-0.1834	1.0817	3.7579	5.5203	1.6971	10.3568
-2.5115	-0.5719	-2.1509	-0.1554	4.4262	1.5106	2.6016	8.7684	7.1366	6.7139	12.3585	11.4384	8.986	0.6838	0.8952	-0.0653	0.8579	3.8636	5.5856	1.809	10.3537
-2.3063	-0.4134	-1.9458	0.0622	4.5536	1.7033	2.8037	8.9207	7.3666	6.9314	12.4921	11.6094	9.157	0.7957	1.0102	0.1026	0.631	3.9444	5.6819	1.9427	10.3568
-2.1261	-0.2456	-1.7686	0.2424	4.709	1.8867	2.956	9.0513	7.5531	7.1179	12.6258	11.7897	9.3124	0.8859	1.0941	0.2518	0.4134	4.0283	5.7721	2.0359	10.3537
-1.9738	-0.115	-1.6101	0.4289	4.8147	2.0515	3.1207	9.1818	7.7303	7.2827	12.7159	11.9389	9.4523	0.9853	1.1874	0.3575	0.2207	4.0905	5.828	2.1198	10.3568
-1.7935	0.0124	-1.4547	0.6154	4.9546	2.2007	3.2792	9.3155	7.9168	7.4661	12.8309	12.1005	9.5766	1.091	1.234	0.5222	0.0497	4.1589	5.9399	2.1665	10.391
-1.6443	0.143	-1.3055	0.7802	5.0572	2.3405	3.3911	9.4181	8.0566	7.5686	12.9024	12.1938	9.6605	1.1563	1.2744	0.6092	-0.0964	4.1931	6.0145	2.1975	10.4189
-1.5324	0.2611	-1.1532	0.9449	5.1753	2.5053	3.5341	9.5082	8.1934	7.6712	12.977	12.3025	9.7165	1.2153	1.2993	0.7242	-0.23	4.1993	6.0922	2.1913	10.4376
-1.4018	0.3357	-1.0382	1.0879	5.2499	2.5768	3.618	9.6015	8.3053	7.752	13.0734	12.3989	9.7506	1.2557	1.2899	0.7957	-0.3326	4.1993	6.173	2.1665	10.478
-1.293	0.4383	-0.9263	1.2402	5.3618	2.7197	3.7082	9.6885	8.4141	7.8577	13.1262	12.4953	9.7724	1.3148	1.3148	0.8859	-0.4507	4.2148	6.2632	2.1447	10.506
-1.2216	0.4818	-0.8454	1.3676	5.4239	2.785	3.7734	9.7569	8.5042	7.8919	13.1791	12.5512	9.7973	1.3645	1.2682	0.976	-0.5346	4.1868	6.3502	2.0608	10.5215
-1.1656	0.5315	-0.7709	1.5106	5.4923	2.8658	3.8418	9.8128	8.5913	7.9572	13.2133	12.604	9.7786	1.4112	1.2651	1.0475	-0.6154	4.1962	6.4466	2.0142	10.537
-1.0848	0.5812	-0.7211	1.607	5.5452	2.9342	3.8947	9.8936	8.6628	7.9852	13.2692	12.66	9.7662	1.436	1.2091	1.0848	-0.6838	4.1527	6.518	1.9613	10.5743
-1.0724	0.6092	-0.6838	1.694	5.5887	2.9622	3.9257	9.934	8.7032	7.9914	13.2754	12.6693	9.7071	1.4733	1.1749	1.1252	-0.7336	4.1029	6.5864	1.8836	10.5681
-1.0537	0.603	-0.6527	1.8028	5.6353	3.0212	3.9879	9.9838	8.7529	8.0007	13.2816	12.6942	9.6419	1.5044	1.1438	1.1501	-0.7646	4.0656	6.6517	1.8214	10.5743
-1.0195	0.6123	-0.6217	1.896	5.7068	3.0275	4.0345	10.0117	8.7933	8.01	13.3065	12.7004	9.589	1.5231	1.0972	1.178	-0.7957	4.0159	6.7139	1.7966	10.593
-1.0102	0.631	-0.6092	1.98	5.769	3.0803	4.0625	10.0708	8.8492	8.01	13.3314	12.7532	9.5486	1.5355	1.063	1.2122	-0.8144	3.9662	6.7978	1.7593	10.6334
-1.0195	0.631	-0.6061	2.0732	5.8156	3.1145	4.1154	10.0832	8.8803	8.01	13.3469	12.7408	9.4616	1.5262	1.0195	1.2309	-0.8175	3.9164	6.8786	1.7468	10.6489
-1.0226	0.6248	-0.6123	2.1354	5.8715	3.1394	4.1402	10.1423	8.9176	7.9976	13.3562	12.7626	9.387	1.5231	0.9542	1.2433	-0.805	3.8511	6.9656	1.7624	10.6956
-1.0475	0.6341	-0.6154	2.2131	5.9461	3.1767	4.1868	10.192	8.9643	8.0007	13.3811	12.7812	9.3062	1.5106	0.9076	1.2651	-0.7895	3.8107	7.0589	1.7779	10.7111
-1.0755	0.631	-0.6465	2.2535	5.999	3.186	4.2241	10.2231	8.9829	7.982	13.406	12.7781	9.2129	1.4889	0.8517	1.2589	-0.7553	3.7424	7.1304	1.837	10.7795
-1.1065	0.6185	-0.6714	2.297	6.0332	3.214	4.2708	10.2511	9.0078	7.951	13.3998	12.7657	9.1352	1.4547	0.7709	1.2495	-0.7056	3.702	7.2143	1.924	10.8106
-1.1532	0.6061	-0.7087	2.3343	6.114	3.214	4.2863	10.2635	9.0202	7.9541	13.4091	12.7719	9.0575	1.4422	0.718	1.2309	-0.6527	3.6398	7.2982	2.0204	10.8541
-1.2464	0.5564	-0.7646	2.3157	6.1015	3.2015	4.305	10.2728	9.0295	7.8981	13.4184	12.7439	8.9363	1.3925	0.6621	1.1687	-0.5595	3.6025	7.3697	2.0857	10.8665
-1.2993	0.5657	-0.8082	2.3126	6.1668	3.2015	4.3423	10.2728	9.0202	7.8795	13.3811	12.7222	8.8648	1.3459	0.5937	1.147	-0.4756	3.5496	7.4226	2.1975	10.8603
-1.3863	0.5564	-0.8299	2.3281	6.1761	3.1953	4.3578	10.2853	9.0357	7.8639	13.3687	12.6973	8.7964	1.3024	0.5688	1.0786	-0.401	3.5155	7.4816	2.3157	10.8883
-1.4795	0.5191	-0.9107	2.2939	6.2197	3.1953	4.3547	10.2697	9.0295	7.8204	13.3283	12.6569	8.6876	1.2651	0.5315	1.0164	-0.2922	3.4719	7.5189	2.4245	10.879
-1.6008	0.488	-0.9636	2.2317	6.2197	3.1673	4.3578	10.2293	8.9953	7.7862	13.2941	12.6351	8.6286	1.1936	0.5035	0.9636	-0.1958	3.4315	7.5376	2.5395	10.8665
-1.6971	0.4414	-1.0382	2.1975	6.201	3.1642	4.3702	10.2169	8.9922	7.7707	13.235	12.5885	8.5726	1.1563	0.4538	0.9076	-0.087	3.3818	7.5842	2.6638	10.8323
-1.7779	0.3979	-1.1034	2.1882	6.201	3.1549	4.3609	10.1796	8.9767	7.7396	13.1822	12.5388	8.5104	1.0879	0.4041	0.8579	0.0249	3.3414	7.5686	2.7757	10.7981
-1.8774	0.3761	-1.1625	2.1292	6.1886	3.1487	4.3733	10.1299	8.958	7.7178	13.1293	12.4953	8.4545	1.0319	0.3357	0.8113	0.1461	3.3041	7.5904	2.9	10.7671
-1.9955	0.3326	-1.2526	2.0919	6.1357	3.0989	4.3764	10.0366	8.9238	7.6774	13.033	12.4051	8.3799	0.9667	0.2362	0.7802	0.2953	3.2544	7.5686	2.9902	10.6552
-2.1136	0.2922	-1.3086	2.0608	6.1046	3.0896	4.364	9.9713	8.899	7.665	12.9428	12.3461	8.3115	0.9014	0.1461	0.7709	0.4352	3.2077	7.5376	3.0958	10.6054
-2.1944	0.2642	-1.3366	2.0048	6.0798	3.0834	4.3889	9.9434	8.8928	7.6681	12.8869	12.2963	8.2773	0.8206	0.0528	0.7149	0.5626	3.1704	7.5376	3.1891	10.5308
-2.2877	0.23	-1.3987	1.9582	6.0487	3.0461	4.3702	9.8625	8.843	7.6308	12.7626	12.2031	8.2183	0.7646	-0.0559	0.69	0.7025	3.1269	7.4816	3.2668	10.4407
-2.4213	0.1958	-1.4764	1.9302	6.0145	3.0399	4.3547	9.7911	8.8182	7.6246	12.6693	12.1502	8.1685	0.6776	-0.1834	0.6558	0.8454	3.0834	7.4599	3.2979	10.3878
-2.5177	0.1523	-1.5293	1.8556	5.971	2.9933	4.3329	9.6885	8.7591	7.5935	12.5792	12.0632	8.125	0.6061	-0.3233	0.6434	0.9946	3.015	7.4319	3.2854	10.2791
-2.6016	0.1274	-1.5604	1.8214	5.9523	2.9715	4.3267	9.6356	8.7591	7.5873	12.4548	11.9979	8.097	0.5408	-0.4538	0.659	1.119	2.9902	7.3728	3.2761	10.2045
-2.6918	0.1088	-1.6039	1.7779	5.8871	2.9839	4.3081	9.561	8.7436	7.5966	12.3181	11.9171	8.066	0.4787	-0.5937	0.6434	1.2495	2.9342	7.3355	3.2388	10.105
-2.7943	0.0311	-1.6598	1.7344	5.8031	2.9373	4.2894	9.4554	8.6814	7.578	12.1813	11.8208	8.0162	0.4165	-0.7553	0.6372	1.3645	2.8658	7.2267	3.1487	10.018
-2.9125	-0.0062	-1.7344	1.7064	5.7752	2.9125	4.2832	9.3559	8.6348	7.5282	12.057	11.7275	8.0038	0.3575	-0.9076	0.6279	1.4764	2.8254	7.2019	3.0492	9.9247
-2.9746	-0.028	-1.7531	1.6598	5.6975	2.8814	4.2739	9.2502	8.5633	7.5313	11.914	11.6374	7.9603	0.3108	-1.063	0.6465	1.5604	2.7695	7.1117	2.9684	9.8128
-3.0275	-0.0684	-1.7655	1.6505	5.626	2.8814	4.2708	9.157	8.5384	7.55	11.7772	11.5659	7.9447	0.2797	-1.2153	0.6465	1.6318	2.7384	7.0465	2.8783	9.7258
-3.0803	-0.1181	-1.7935	1.6256	5.5576	2.8783	4.277	9.0544	8.5042	7.5282	11.6249	11.482	7.9137	0.2424	-1.349	0.6621	1.7033	2.6824	6.9439	2.7664	9.6077
-3.1331	-0.1212	-1.7655	1.6412	5.5327	2.9	4.3112	8.986	8.4794	7.5345	11.513	11.4291	7.8981	0.23	-1.4982	0.6465	1.75	2.6669	6.9035	2.6887	9.5455
-3.1331	-0.1337	-1.75	1.6629	5.483	2.9342	4.3454	8.8959	8.4576	7.578	11.3732	11.3483	7.923	0.2145	-1.6443	0.6931	1.781	2.6638	6.8164	2.6389	9.446
-3.1611	-0.1461	-1.7375	1.6816	5.4395	2.9622	4.3827	8.8275	8.47	7.6028	11.2644	11.2861	7.9137	0.1958	-1.7997	0.6963	1.8277	2.6327	6.7232	2.5892	9.3435
-3.158	-0.1243	-1.6878	1.7313	5.4457	3.0212	4.4386	8.7622	8.4856	7.6339	11.1742	11.2519	7.9447	0.202	-1.9427	0.746	1.8401	2.6296	6.6486	2.555	9.2502
-3.13	-0.1119	-1.6381	1.7779	5.4208	3.071	4.5319	8.6752	8.47	7.6836	11.0779	11.2084	7.9852	0.1896	-2.067	0.7336	1.8463	2.6234	6.5647	2.5301	9.1787
-3.158	-0.0901	-1.5852	1.8059	5.4146	3.1456	4.5785	8.6286	8.4731	7.7582	10.9877	11.1836	8.0473	0.1554	-2.2007	0.7149	1.8867	2.6141	6.4745	2.4804	9.0886
-3.1114	-0.0528	-1.5199	1.9209	5.4146	3.2295	4.6717	8.5975	8.5011	7.8297	10.9131	11.1742	8.1002	0.1585	-2.2753	0.7087	1.9023	2.6514	6.3813	2.4866	9.014
-3.0896	-0.0249	-1.4485	1.9675	5.4177	3.3041	4.7432	8.5571	8.5229	7.9043	10.8354	11.1432	8.1623	0.1181	-2.3965	0.6496	1.9489	2.6576	6.3222	2.4524	8.9643
-3.0554	0.0311	-1.3645	2.0297	5.4519	3.3942	4.8365	8.5446	8.5944	8.0193	10.795	11.1556	8.2462	0.1368	-2.4897	0.631	1.9582	2.7042	6.2321	2.4742	8.9363
-3.0243	0.0528	-1.2868	2.0701	5.4861	3.4999	4.939	8.5415	8.6472	8.0691	10.7702	11.1711	8.3177	0.1119	-2.5581	0.5595	2.0048	2.7384	6.1637	2.4742	8.8928
-3.0026	0.1181	-1.1843	2.1571	5.5265	3.5932	5.0292	8.5509	8.7063	8.1903	10.7484	11.2115	8.3799	0.0808	-2.642	0.4849	2.0359	2.7539	6.114	2.4773	8.8897
-2.9653	0.1803	-1.0848	2.2504	5.5887	3.7051	5.1162	8.5819	8.7964	8.2835	10.7235	11.2302	8.4856	0.0715	-2.7291	0.4258	2.0732	2.813	6.0798	2.4866	8.9207
-2.956	0.2362	-1.0568	2.2815	5.626	3.7797	5.1908	8.5882	8.8275	8.3675	10.7422	11.2799	8.5819	0.0342	-2.7881	0.3388	2.1198	2.8689	6.0487	2.4991	8.9332
-2.9031	0.317	-0.9325	2.3903	5.7223	3.9413	5.3058	8.6317	8.9394	8.5011	10.7671	11.3576	8.6721	0.0311	-2.8472	0.3015	2.1292	2.9311	6.0269	2.5177	8.9798
-2.8658	0.3668	-0.8517	2.44	5.769	4.0532	5.4395	8.6876	9.0202	8.6037	10.8012	11.4198	8.7995	0.0031	-2.9156	0.2207	2.1634	2.9933	6.0021	2.5363	9.0202
-2.8658	0.432	-0.7553	2.4866	5.8436	4.1837	5.4923	8.7218	9.0824	8.6969	10.8261	11.4757	8.8803	-0.0155	-3.0119	0.1554	2.1944	3.0679	5.9959	2.5395	9.0326
-2.8192	0.4849	-0.6745	2.5674	5.9554	4.3267	5.6166	8.7809	9.216	8.7995	10.8758	11.5814	9.0078	-0.0124	-3.0492	0.0777	2.1975	3.1425	5.9803	2.5736	9.0793
-2.7726	0.5968	-0.5657	2.6389	6.0425	4.4604	5.7472	8.8928	9.3466	8.9456	10.9349	11.6747	9.1383	-0.0031	-3.1269	0.0746	2.1975	3.2357	5.9896	2.6172	9.1352
-2.7228	0.6869	-0.4693	2.698	6.1637	4.5971	5.8342	8.9674	9.474	9.0699	11.0064	11.7897	9.272	0.0124	-3.158	0.0622	2.1789	3.3041	5.9523	2.6545	9.1725
-2.6451	0.7833	-0.3326	2.7477	6.2943	4.793	5.9586	9.0793	9.6232	9.2005	11.0903	11.9109	9.3994	0.0031	-3.2295	0.0653	2.1323	3.3849	5.9679	2.7073	9.2222
-2.5768	0.8734	-0.2114	2.8316	6.4341	4.9795	6.0767	9.2347	9.7942	9.3528	11.1867	12.0601	9.5393	0.028	-3.2917	0.0684	2.0888	3.4844	5.9865	2.7664	9.2595
-2.5177	0.9978	-0.0808	2.8938	6.5926	5.1566	6.2041	9.3435	9.9309	9.502	11.2986	12.2093	9.6916	0.0591	-3.3352	0.1057	2.0173	3.6056	5.9554	2.8689	9.3062
-2.4555	1.1283	0.0342	2.956	6.7543	5.3431	6.3067	9.4864	10.0988	9.6325	11.4074	12.3585	9.8315	0.1057	-3.4098	0.1523	1.9365	3.702	6.0021	2.9373	9.3621
-2.3312	1.2651	0.1927	3.0523	6.9346	5.5483	6.4124	9.6636	10.3101	9.7817	11.5503	12.5326	9.9807	0.1678	-3.4813	0.2176	1.8277	3.8076	6.0083	3.0212	9.4212
-2.269	1.4018	0.3419	3.0834	7.1211	5.769	6.5118	9.819	10.506	9.9216	11.6653	12.6786	10.1143	0.23	-3.5683	0.2953	1.7095	3.9195	6.0363	3.0865	9.4523
-2.1602	1.5635	0.4973	3.1642	7.2982	5.9772	6.6299	9.9962	10.6925	10.0522	11.8176	12.8589	10.2697	0.2735	-3.702	0.4227	1.5914	4.0408	6.0642	3.1269	9.5082
-2.1074	1.6878	0.5999	3.1829	7.4505	6.1761	6.6952	10.1454	10.8665	10.164	11.9171	12.9926	10.3599	0.3512	-3.8263	0.4911	1.4671	4.1091	6.0829	3.1798	9.5455
-2.0173	1.8556	0.7429	3.2419	7.6463	6.4124	6.7947	10.3443	11.0779	10.2884	12.0539	13.176	10.4966	0.401	-3.9599	0.5937	1.3272	4.2148	6.1233	3.2108	9.5983
-1.9582	1.9862	0.8921	3.2948	7.7924	6.5989	6.8693	10.5029	11.2675	10.3878	12.1782	13.3003	10.5899	0.4693	-4.1278	0.6963	1.2153	4.3174	6.1295	3.2357	9.6232
-1.9147	2.1261	0.9915	3.3259	7.9634	6.7854	6.9221	10.6925	11.426	10.478	12.3056	13.4371	10.6831	0.5253	-4.2397	0.774	1.0817	4.4137	6.1451	3.2575	9.645
-1.8432	2.2659	1.1159	3.3725	8.1312	6.9812	6.9936	10.8603	11.6529	10.6147	12.4175	13.6049	10.7888	0.5906	-4.4169	0.8641	0.9605	4.5101	6.1761	3.245	9.6947
-1.7997	2.3903	1.2091	3.3942	8.2618	7.149	7.0558	11.0157	11.8145	10.6862	12.517	13.7541	10.879	0.659	-4.5598	0.9076	0.8423	4.5909	6.1917	3.2513	9.7382
-1.7437	2.5239	1.3459	3.4564	8.4234	7.3542	7.1211	11.1991	12.0104	10.7671	12.6569	13.8878	10.9567	0.7273	-4.6935	0.9729	0.7242	4.6717	6.1979	3.2481	9.7506
-1.694	2.6545	1.4516	3.4999	8.5757	7.5251	7.1988	11.3607	12.2	10.8541	12.7812	14.0494	11.0499	0.7895	-4.8271	1.0226	0.603	4.7961	6.2259	3.2699	9.7911
-1.6536	2.7974	1.5945	3.5434	8.7218	7.7303	7.2454	11.5037	12.3802	10.9691	12.8838	14.1799	11.14	0.861	-4.9639	1.1065	0.4787	4.8924	6.2352	3.2823	9.8159
-1.6132	2.9342	1.6754	3.5776	8.8524	7.8701	7.3075	11.6498	12.5263	11.025	12.9739	14.3012	11.2209	0.9138	-5.1162	1.1656	0.3761	4.9639	6.2787	3.2854	9.8501
-1.6039	3.0461	1.781	3.6274	8.9674	8.038	7.3417	11.7959	12.6911	11.1276	13.0983	14.4504	11.2799	0.9667	-5.2405	1.2464	0.2642	5.0447	6.2725	3.273	9.8688
-1.5324	3.1798	1.924	3.6771	9.1228	8.2214	7.407	11.9606	12.8993	11.1711	13.2164	14.5685	11.4105	1.0288	-5.3773	1.2868	0.1803	5.1224	6.3098	3.2761	9.9247
-1.4982	3.3134	2.0328	3.733	9.2689	8.383	7.463	12.0881	13.0578	11.2488	13.3221	14.7115	11.4509	1.0724	-5.5514	1.377	0.1026	5.2157	6.3471	3.3165	9.9838
-1.4205	3.4688	2.1385	3.7672	9.3901	8.5664	7.5438	12.231	13.2288	11.3203	13.4277	14.8544	11.5441	1.1128	-5.6881	1.4547	0.0062	5.2872	6.3782	3.3259	10.0149
-1.3801	3.5807	2.2815	3.8107	9.5144	8.7249	7.5749	12.3492	13.378	11.3918	13.5676	14.9881	11.6156	1.1407	-5.8529	1.5106	-0.0497	5.3618	6.3999	3.3694	10.0801
-1.3117	3.6988	2.3903	3.8418	9.6729	8.8803	7.609	12.4704	13.549	11.4602	13.6484	15.0844	11.6716	1.1718	-6.0145	1.5635	-0.115	5.4146	6.4528	3.3849	10.0988
-1.2122	3.8636	2.5519	3.9071	9.8128	9.073	7.7085	12.6258	13.7572	11.5348	13.7852	15.2554	11.7617	1.2184	-6.1979	1.6287	-0.1865	5.4985	6.5087	3.416	10.1734
-1.1625	3.9724	2.698	3.932	9.9278	9.2098	7.7396	12.7128	13.9002	11.6218	13.8784	15.3859	11.8301	1.2495	-6.3315	1.6816	-0.2456	5.5483	6.546	3.4502	10.2045
-1.0661	4.1558	2.8752	4.0066	10.0801	9.4274	7.8111	12.8465	14.1147	11.7275	14.0059	15.5445	11.9109	1.2713	-6.5149	1.7095	-0.2984	5.6166	6.6113	3.5061	10.2791
-0.976	4.3423	3.0399	4.0905	10.2635	9.6325	7.895	12.977	14.3167	11.8208	14.0991	15.703	12.0135	1.3086	-6.6672	1.7717	-0.3512	5.7068	6.6672	3.5683	10.3319
-0.889	4.4821	3.2202	4.1558	10.4003	9.8252	7.9696	13.1076	14.5001	11.9358	14.2048	15.8677	12.1223	1.3241	-6.804	1.8059	-0.3854	5.7907	6.7045	3.6118	10.3878
-0.7646	4.65	3.4098	4.2304	10.5557	10.0242	8.0442	13.2319	14.7083	12.057	14.3354	16.0356	12.2186	1.3334	-6.9314	1.8214	-0.4227	5.8995	6.7543	3.6895	10.4469
-0.69	4.8178	3.5932	4.3205	10.7111	10.2728	8.1499	13.3749	14.9197	12.1844	14.4877	16.2345	12.3492	1.3334	-7.0371	1.8183	-0.46	5.9959	6.832	3.733	10.5277
-0.603	4.9515	3.7641	4.3982	10.8448	10.4562	8.268	13.4806	15.1342	12.2839	14.584	16.4117	12.4642	1.3552	-7.1335	1.8059	-0.4631	6.0891	6.9066	3.8045	10.5806
-0.4569	5.1504	3.9755	4.4977	10.9971	10.6987	8.383	13.6018	15.3424	12.4828	14.7177	16.6106	12.5978	1.3614	-7.2205	1.8152	-0.5035	6.229	6.9656	3.9071	10.68
-0.373	5.2965	4.1589	4.5971	11.1307	10.9007	8.5011	13.7137	15.5569	12.6476	14.8296	16.7971	12.747	1.3739	-7.2609	1.8214	-0.5346	6.344	7.0154	3.9879	10.7546
-0.2611	5.4643	4.3609	4.7184	11.2768	11.1556	8.6503	13.8349	15.7714	12.7968	14.9446	17.0085	12.89	1.4049	-7.3293	1.8339	-0.5657	6.4683	7.0402	4.0532	10.8075
-0.1523	5.6229	4.5661	4.8489	11.4229	11.3763	8.812	13.9655	15.989	12.9833	15.0938	17.1981	13.061	1.4174	-7.3293	1.7997	-0.6092	6.6082	7.1086	4.1433	10.9194
-0.0497	5.8031	4.7743	4.9826	11.5752	11.6032	8.9674	14.0991	16.1941	13.1666	15.2212	17.3939	13.235	1.4298	-7.348	1.8028	-0.659	6.7605	7.1459	4.2241	10.9815
0.0559	5.9337	4.9701	5.1069	11.7089	11.8301	9.1135	14.2079	16.421	13.35	15.3424	17.599	13.4153	1.4609	-7.3542	1.7966	-0.7118	6.9283	7.1894	4.3547	11.0313
0.1647	6.0518	5.1691	5.2188	11.8176	12.0321	9.2844	14.3167	16.6137	13.5117	15.4295	17.798	13.5863	1.4826	-7.32	1.7624	-0.7615	7.062	7.1894	4.4324	11.0841
0.2922	6.2041	5.3804	5.3649	11.9482	12.2404	9.4398	14.4037	16.8002	13.7292	15.5414	17.9845	13.7696	1.5137	-7.2858	1.7437	-0.833	7.2019	7.2174	4.535	11.1338
0.3916	6.3471	5.5452	5.4892	12.0725	12.4331	9.6015	14.5094	16.9836	13.8909	15.6346	18.1647	13.9437	1.5262	-7.2671	1.7251	-0.8796	7.3635	7.2423	4.6469	11.1805
0.5222	6.4932	5.7379	5.6104	12.1969	12.6165	9.7693	14.5933	17.1608	14.0836	15.731	18.3512	14.1178	1.5883	-7.2236	1.7468	-0.9667	7.5096	7.2392	4.7463	11.2209
0.6341	6.602	5.9337	5.7814	12.3243	12.8216	9.9403	14.699	17.3442	14.2483	15.8149	18.5222	14.2794	1.6008	-7.1863	1.7158	-1.0226	7.6495	7.2578	4.8644	11.2488
0.7553	6.717	6.1171	5.8591	12.4393	12.9864	10.0832	14.7798	17.5244	14.4099	15.8802	18.6776	14.4535	1.6412	-7.1521	1.7064	-1.0692	7.7924	7.2516	4.9732	11.2644
0.8703	6.8848	6.3191	5.9679	12.5419	13.1604	10.2324	14.842	17.6612	14.5778	15.933	18.8299	14.6213	1.6598	-7.1397	1.6878	-1.1221	7.9168	7.2516	5.082	11.2799
0.9978	7.034	6.4901	6.0798	12.6507	13.3438	10.3599	14.9352	17.8384	14.7115	16.0138	18.9822	14.7581	1.6754	-7.1615	1.722	-1.1563	8.0442	7.264	5.1535	11.3017
1.0848	7.1273	6.6548	6.1513	12.7688	13.4806	10.4811	14.9788	17.9472	14.8451	16.0511	19.091	14.8917	1.6629	-7.1552	1.6909	-1.1749	8.1561	7.2609	5.2281	11.2986
1.206	7.2578	6.8133	6.2414	12.8776	13.6329	10.5992	15.0503	18.0777	14.9539	16.1164	19.2433	15.0378	1.6878	-7.1646	1.6909	-1.2122	8.2649	7.2267	5.2716	11.3017
1.3117	7.4008	6.9781	6.3036	12.9739	13.7728	10.7018	15.1093	18.202	15.0876	16.1599	19.377	15.1808	1.6878	-7.1894	1.694	-1.2122	8.355	7.2236	5.312	11.3048
1.3739	7.5096	7.0838	6.3222	13.0485	13.8971	10.7515	15.1466	18.3139	15.1684	16.1941	19.4671	15.2772	1.6567	-7.2112	1.6723	-1.1905	8.4172	7.2236	5.3151	11.3048
1.4702	7.6184	7.2174	6.3378	13.1573	13.9872	10.8106	15.215	18.4227	15.2523	16.2438	19.5883	15.3735	1.635	-7.2205	1.6225	-1.1656	8.47	7.2112	5.3151	11.3172
1.5262	7.7272	7.32	6.3471	13.2226	14.0898	10.8665	15.2492	18.5067	15.302	16.2873	19.6723	15.4668	1.6194	-7.2454	1.5697	-1.1314	8.5011	7.1832	5.2654	11.3421
1.6194	7.8328	7.4536	6.3595	13.3158	14.183	10.9038	15.2896	18.6279	15.3766	16.3309	19.7873	15.5507	1.5914	-7.2454	1.4982	-1.0848	8.526	7.1863	5.2157	11.3607
1.6505	7.9012	7.522	6.3347	13.3345	14.2359	10.8758	15.3082	18.69	15.3953	16.3899	19.8587	15.6253	1.5666	-7.2454	1.4267	-1.0288	8.526	7.1925	5.138	11.3856
1.6847	8.0162	7.5904	6.3036	13.4371	14.3291	10.8727	15.3673	18.7833	15.4232	16.449	19.9613	15.6999	1.5075	-7.2827	1.3428	-0.9605	8.554	7.205	5.1007	11.454
1.7406	8.0784	7.6401	6.2725	13.4495	14.3602	10.8323	15.3859	18.8144	15.4139	16.4707	19.9955	15.7216	1.4609	-7.3107	1.2402	-0.8579	8.5291	7.205	4.995	11.4664
1.7562	8.1343	7.6868	6.229	13.4619	14.3851	10.7919	15.4108	18.8765	15.4139	16.508	20.0825	15.7683	1.4236	-7.3262	1.1656	-0.8019	8.5322	7.1925	4.9049	11.5379
1.7841	8.1779	7.7582	6.1979	13.4806	14.4162	10.7329	15.4357	18.9138	15.3891	16.5578	20.1074	15.7993	1.3739	-7.3604	1.0755	-0.7056	8.5353	7.1988	4.8085	11.6218
1.8214	8.2121	7.7614	6.1482	13.5148	14.3975	10.6956	15.4481	18.9387	15.3486	16.6168	20.1727	15.818	1.3086	-7.4132	0.9605	-0.6061	8.5291	7.2112	4.7308	11.712
1.8401	8.2525	7.8297	6.1202	13.5054	14.3975	10.6458	15.4605	18.9418	15.3207	16.6666	20.2286	15.8491	1.2868	-7.4692	0.9107	-0.5377	8.526	7.2578	4.6531	11.8456
1.8805	8.3053	7.8266	6.0829	13.5179	14.3944	10.5837	15.4699	18.9449	15.2927	16.7287	20.2535	15.8677	1.2433	-7.5438	0.8392	-0.4507	8.5291	7.292	4.5754	11.9917
1.9271	8.3519	7.8919	6.0829	13.549	14.382	10.5246	15.4947	18.9605	15.2616	16.8002	20.3188	15.8957	1.1998	-7.6059	0.7677	-0.3854	8.5571	7.3697	4.5598	12.1751
1.9738	8.3675	7.8888	6.0269	13.5179	14.382	10.4687	15.5103	18.9667	15.2119	16.8655	20.3157	15.8957	1.1563	-7.6836	0.7056	-0.3015	8.5384	7.4381	4.5163	12.3709
1.9955	8.3892	7.9168	6.0176	13.5303	14.3291	10.3816	15.532	18.9387	15.1715	16.9587	20.3219	15.8895	1.1345	-7.7987	0.7304	-0.2362	8.5415	7.5313	4.4666	12.5388
2.0639	8.4265	7.9354	6.0207	13.5272	14.3105	10.3599	15.5538	18.9294	15.1031	17.0302	20.3312	15.8739	1.0972	-7.8888	0.6776	-0.1741	8.5571	7.6215	4.4231	12.7439
2.1447	8.4514	7.951	6.0114	13.521	14.2981	10.2884	15.5724	18.9107	15.0689	17.1048	20.3343	15.9112	1.0941	-7.9852	0.6714	-0.1243	8.5695	7.7178	4.3982	12.9646
2.1354	8.4483	7.9852	6.0114	13.5023	14.2608	10.2386	15.5756	18.8765	15.0223	17.1919	20.3281	15.8739	1.0755	-8.0753	0.6683	-0.0901	8.5788	7.8266	4.3485	13.1635
2.2348	8.47	7.9976	6.0176	13.4775	14.2452	10.2076	15.616	18.8423	14.9601	17.2665	20.3312	15.9081	1.063	-8.1437	0.659	-0.0777	8.6161	7.9199	4.2863	13.3345
2.2908	8.4669	8.0256	6.0425	13.4744	14.2141	10.1485	15.6128	18.7988	14.9166	17.3006	20.297	15.8926	1.0568	-8.2338	0.6652	-0.0622	8.6192	7.9976	4.2179	13.5023
2.3592	8.4731	8.0535	6.0518	13.4402	14.1768	10.1205	15.5942	18.7273	14.8513	17.3131	20.2286	15.8771	1.0568	-8.3208	0.6869	-0.0684	8.641	8.0815	4.1806	13.6391
2.4307	8.4856	8.0722	6.0456	13.3935	14.1364	10.0801	15.5631	18.659	14.7798	17.3473	20.182	15.846	1.0568	-8.4141	0.7149	-0.0746	8.6534	8.153	4.1713	13.751
2.4991	8.4887	8.1033	6.03	13.3625	14.1271	10.0149	15.5631	18.6061	14.7301	17.3442	20.123	15.8149	1.0568	-8.5198	0.7273	-0.0964	8.6628	8.2214	4.1029	13.866
2.5457	8.4949	8.1312	6.0487	13.3345	14.0898	9.9838	15.5227	18.5222	14.6835	17.3597	20.0142	15.7558	1.0817	-8.585	0.7646	-0.1399	8.6907	8.2556	4.1029	13.9344
2.5861	8.4887	8.1685	6.0425	13.2785	14.0525	9.9278	15.5041	18.4507	14.6151	17.3193	19.9178	15.7123	1.1003	-8.6317	0.7926	-0.1834	8.6907	8.3271	4.0967	13.9748
2.6762	8.4825	8.1965	6.0394	13.2319	14.009	9.8936	15.4605	18.3481	14.5747	17.3069	19.8308	15.6377	1.1221	-8.7094	0.8423	-0.2269	8.6969	8.3923	4.1154	14.0463
2.7446	8.47	8.2245	6.0207	13.1511	13.981	9.8221	15.3953	18.2393	14.4877	17.2478	19.6816	15.5538	1.1407	-8.7436	0.8796	-0.2642	8.7001	8.4265	4.106	14.068
2.7912	8.4607	8.2587	6.0114	13.1076	13.9002	9.7569	15.3424	18.1274	14.4193	17.167	19.5417	15.4978	1.1501	-8.7498	0.8548	-0.2891	8.6938	8.4638	4.1185	14.0494
2.8627	8.4265	8.2773	5.9741	13.0299	13.8567	9.6854	15.2461	17.9907	14.3012	17.08	19.3987	15.3859	1.1594	-8.7405	0.8827	-0.3108	8.6441	8.5011	4.1247	14.0463
2.8938	8.4421	8.2835	5.9275	12.9491	13.7821	9.6294	15.1715	17.8601	14.2297	16.9774	19.2402	15.2927	1.1656	-8.7032	0.8579	-0.3202	8.6223	8.5229	4.1247	14.0401
2.9373	8.4234	8.268	5.9088	12.89	13.695	9.5828	15.0658	17.7327	14.1644	16.8872	19.0879	15.1994	1.1687	-8.669	0.8734	-0.3295	8.6037	8.5415	4.134	13.9903
2.956	8.383	8.2773	5.8249	12.7688	13.6236	9.5113	14.9819	17.5742	14.0898	16.7816	18.9138	15.072	1.1718	-8.5571	0.8361	-0.3481	8.5664	8.554	4.1495	13.9344
2.9995	8.3644	8.2462	5.7783	12.6724	13.5241	9.4554	14.8389	17.397	13.9934	16.6293	18.7367	14.9384	1.1718	-8.47	0.8361	-0.345	8.5198	8.5446	4.1837	13.838
3.0243	8.3177	8.2462	5.7192	12.5885	13.4277	9.3714	14.699	17.2198	13.9002	16.4832	18.5408	14.814	1.1811	-8.3457	0.8734	-0.3637	8.4576	8.5353	4.221	13.7075
3.0399	8.2742	8.24	5.6291	12.4828	13.2661	9.2937	14.5654	17.0613	13.7696	16.2967	18.3326	14.6617	1.1656	-8.2121	0.8765	-0.3575	8.3986	8.4794	4.2272	13.5676
3.0585	8.24	8.1872	5.5669	12.3865	13.1822	9.2502	14.4162	16.8841	13.7013	16.1195	18.1368	14.5498	1.1874	-8.0784	0.9169	-0.3606	8.3333	8.4607	4.2708	13.4029
3.071	8.2307	8.1685	5.4768	12.259	13.0392	9.1539	14.267	16.7194	13.6173	15.9175	17.9534	14.4162	1.206	-7.9416	0.9573	-0.3761	8.268	8.3954	4.3205	13.2288
3.0585	8.1375	8.0908	5.368	12.1378	12.9118	9.042	14.0805	16.5236	13.4992	15.6999	17.7203	14.2545	1.1843	-7.8111	0.9573	-0.3606	8.1903	8.3271	4.3578	13.0174
3.0741	8.0908	8.066	5.3027	12.001	12.7781	8.9518	13.8971	16.3433	13.4246	15.5103	17.5275	14.1178	1.1936	-7.6526	1.0226	-0.373	8.1468	8.2276	4.4044	12.7936
3.0741	8.066	8.0193	5.2064	11.914	12.66	8.8897	13.7261	16.1661	13.3376	15.2585	17.3255	13.9965	1.2184	-7.5189	1.0413	-0.3792	8.0908	8.1685	4.4604	12.5512
3.1207	8.0069	7.9572	5.1286	11.7928	12.5481	8.7995	13.5334	15.9921	13.2506	15.0347	17.1235	13.8536	1.2309	-7.3262	1.0692	-0.3916	8.0256	8.0753	4.5412	12.2963
3.1145	7.9727	7.9323	5.0199	11.6871	12.4331	8.728	13.3469	15.8366	13.1697	14.8265	16.9245	13.7199	1.2557	-7.1615	1.0444	-0.401	7.9789	7.9541	4.5878	12.0601
3.1052	7.9447	7.8981	4.939	11.5939	12.3367	8.6534	13.176	15.6874	13.1045	14.5964	16.7505	13.6329	1.2713	-6.9781	1.0475	-0.4072	7.9323	7.8546	4.6438	11.8114
3.1331	7.8826	7.8297	4.8582	11.4602	12.231	8.5788	12.9833	15.532	13.0143	14.3416	16.5795	13.4899	1.2837	-6.7854	1.0226	-0.4227	7.8919	7.7645	4.7059	11.541
3.1394	7.8453	7.8111	4.7805	11.3732	12.144	8.526	12.8216	15.4077	12.9864	14.1271	16.3899	13.406	1.3086	-6.6144	1.0009	-0.4414	7.8453	7.637	4.7557	11.311
3.1456	7.8235	7.78	4.7215	11.2924	12.0446	8.47	12.6445	15.2772	12.9149	13.9126	16.2283	13.2661	1.3334	-6.4248	0.9636	-0.4725	7.8049	7.5313	4.7961	11.0903
3.1487	7.7862	7.7303	4.6469	11.1742	11.97	8.4017	12.4673	15.1684	12.8589	13.7044	16.076	13.1791	1.3366	-6.2632	0.9387	-0.4787	7.7738	7.407	4.8209	10.8665
3.1518	7.7303	7.6836	4.5785	11.0779	11.8985	8.3613	12.3056	15.0347	12.7843	13.5148	15.9237	13.0889	1.3397	-6.0984	0.8765	-0.4849	7.7365	7.2951	4.8147	10.6583
3.1704	7.6899	7.6526	4.5381	10.9846	11.8114	8.2929	12.1596	14.9508	12.7159	13.3065	15.8118	13.0206	1.3428	-5.9275	0.8113	-0.5004	7.693	7.1832	4.8271	10.478
3.1922	7.6495	7.6028	4.5194	10.91	11.7493	8.2431	12.0383	14.8575	12.6786	13.12	15.6937	12.9304	1.3614	-5.7876	0.7771	-0.5035	7.6526	7.062	4.8085	10.2946
3.214	7.5904	7.578	4.4852	10.8323	11.6902	8.2369	11.9202	14.7674	12.6165	12.9646	15.5911	12.8527	1.3645	-5.6664	0.7646	-0.5098	7.609	6.9563	4.7898	10.1143
3.2326	7.5686	7.5686	4.4977	10.7733	11.6716	8.2058	11.771	14.7083	12.5978	12.8061	15.4978	12.7874	1.377	-5.5793	0.7242	-0.5129	7.5842	6.8475	4.7619	9.9496
3.3165	7.5189	7.5624	4.5039	10.6987	11.6343	8.1779	11.6591	14.6617	12.5263	12.6476	15.3891	12.6973	1.3801	-5.4799	0.7429	-0.5439	7.5313	6.7356	4.7432	9.8159
3.3383	7.4785	7.5345	4.5319	10.6241	11.597	8.1375	11.5441	14.5871	12.4797	12.5015	15.2865	12.5947	1.3925	-5.4177	0.746	-0.5626	7.4536	6.6486	4.6811	9.6792
3.4067	7.4381	7.5313	4.5723	10.565	11.5814	8.1343	11.4478	14.5343	12.4548	12.3647	15.2243	12.5605	1.4174	-5.3618	0.8454	-0.6154	7.435	6.5336	4.6717	9.53
3.4502	7.3635	7.5376	4.5847	10.4966	11.5472	8.0908	11.3297	14.4814	12.402	12.2031	15.1249	12.4611	1.436	-5.34	0.9076	-0.6527	7.3697	6.3875	4.6189	9.3652
3.4999	7.2858	7.5158	4.6251	10.422	11.5161	8.0349	11.2022	14.3882	12.3243	12.0539	15.0347	12.3802	1.464	-5.3369	0.9884	-0.7149	7.3044	6.2663	4.5443	9.2098
3.5652	7.2329	7.5127	4.6469	10.3599	11.4664	8.0131	11.081	14.3074	12.2435	11.8891	14.9321	12.2808	1.5075	-5.3462	1.1221	-0.8019	7.2298	6.1046	4.5008	9.0513
3.5869	7.1397	7.4972	4.6904	10.2635	11.4198	7.9758	10.9598	14.2452	12.1813	11.7399	14.8389	12.1813	1.5355	-5.3649	1.2589	-0.8672	7.1459	5.9586	4.4417	8.8865
3.6087	7.0371	7.463	4.709	10.1609	11.3452	7.8919	10.7919	14.1271	12.085	11.5317	14.6866	12.0228	1.5479	-5.396	1.3894	-0.9325	7.0651	5.8063	4.3609	8.6845
3.6522	6.9314	7.4288	4.7463	10.0646	11.3048	7.8577	10.6458	14.0121	12.0041	11.3514	14.5591	11.8985	1.5977	-5.4488	1.551	-1.0226	6.9967	5.6229	4.3205	8.4949
3.646	6.7854	7.379	4.765	9.9247	11.224	7.7955	10.4624	13.8878	11.8954	11.1618	14.3913	11.7337	1.6256	-5.4861	1.6598	-1.0972	6.9035	5.4395	4.2645	8.2587
3.6709	6.6921	7.348	4.7743	9.7973	11.1494	7.7645	10.3101	13.7696	11.8021	10.9287	14.2483	11.6094	1.6754	-5.5203	1.8121	-1.1905	6.8289	5.281	4.2335	8.0566
3.6802	6.5553	7.3075	4.8116	9.6823	11.0654	7.6899	10.1205	13.6329	11.6933	10.736	14.0836	11.4478	1.694	-5.5327	1.9365	-1.262	6.7201	5.1038	4.2086	7.8577
3.7268	6.4559	7.2951	4.824	9.5859	11.0033	7.6836	9.9869	13.5272	11.5814	10.5433	13.9375	11.3297	1.7158	-5.5576	2.0484	-1.3366	6.6486	4.9515	4.2024	7.6619
3.7361	6.344	7.2765	4.8676	9.4367	10.9504	7.6401	9.7973	13.3967	11.4851	10.335	13.7852	11.1525	1.7655	-5.5545	2.154	-1.4174	6.5585	4.7557	4.2397	7.4567
3.7486	6.2103	7.2547	4.8831	9.3155	10.8665	7.6184	9.617	13.2506	11.4042	10.1299	13.6018	10.9971	1.7873	-5.5483	2.2286	-1.4702	6.4745	4.6002	4.2459	7.2298
3.7828	6.1295	7.2361	4.9266	9.2036	10.8261	7.6246	9.474	13.1418	11.3359	9.9682	13.4806	10.8479	1.8308	-5.5203	2.3343	-1.5604	6.3844	4.4355	4.3018	7.0402
3.8232	6.0363	7.2454	4.9981	9.1041	10.7671	7.6432	9.3279	13.0392	11.2613	9.7911	13.3252	10.736	1.8619	-5.4706	2.384	-1.6256	6.3098	4.2894	4.3702	6.8848
3.8605	5.9337	7.2454	5.0509	8.9922	10.7235	7.6588	9.1912	12.9584	11.2053	9.5983	13.1884	10.6334	1.896	-5.4333	2.4618	-1.6909	6.2694	4.1371	4.4231	6.6548
3.9257	5.8622	7.2734	5.11	8.9083	10.7142	7.7054	9.0482	12.8714	11.1494	9.4212	13.0672	10.5122	1.9365	-5.3866	2.5457	-1.7468	6.229	3.9972	4.4946	6.4528
3.9599	5.7596	7.3355	5.2126	8.8151	10.6769	7.7551	8.9238	12.7999	11.1183	9.244	12.9118	10.4096	1.9644	-5.34	2.6358	-1.8121	6.1699	3.8667	4.5319	6.2507
4.0376	5.7192	7.3604	5.3151	8.7342	10.6676	7.8142	8.812	12.7222	11.109	9.073	12.803	10.3288	1.9644	-5.3151	2.7291	-1.8525	6.1171	3.7144	4.5412	6.0363
4.0843	5.6664	7.4008	5.3587	8.6503	10.6738	7.8857	8.6814	12.6476	11.081	8.9083	12.688	10.2013	1.9986	-5.2778	2.785	-1.8929	6.0518	3.5869	4.5505	5.8404
4.1744	5.5762	7.4599	5.4488	8.5819	10.6987	7.9416	8.5757	12.6103	11.0654	8.7436	12.5388	10.1174	2.0173	-5.2468	2.9125	-1.9427	5.9896	3.4533	4.5723	5.6229
4.2397	5.5265	7.5251	5.5483	8.5229	10.7173	8.0224	8.4794	12.573	11.0965	8.6068	12.4393	10.0428	2.0452	-5.2126	2.987	-1.9738	5.9368	3.3445	4.6065	5.4488
4.3205	5.4954	7.5811	5.6415	8.4825	10.7329	8.1375	8.3954	12.5481	11.0654	8.4731	12.3305	9.9651	2.0732	-5.1877	3.1207	-2.0048	5.8809	3.2513	4.622	5.2778
4.3951	5.4643	7.6588	5.7348	8.4296	10.7888	8.1841	8.3208	12.5419	11.0686	8.3302	12.2279	9.8812	2.0919	-5.1753	3.1767	-2.0297	5.8	3.1331	4.6344	5.0945
4.4386	5.4302	7.7116	5.8094	8.383	10.8137	8.2773	8.2152	12.5326	11.0779	8.1965	12.0912	9.7848	2.0981	-5.1473	3.2575	-2.0266	5.7472	3.043	4.6562	4.9111
4.5536	5.396	7.7862	5.8902	8.3426	10.8727	8.3613	8.1716	12.5232	11.0934	8.0349	12.0197	9.7258	2.0825	-5.1318	3.3227	-2.0297	5.6819	2.9373	4.6811	4.7308
4.6002	5.3804	7.8484	6.0021	8.3333	10.9225	8.4483	8.0908	12.517	11.1059	7.895	11.8922	9.6605	2.0794	-5.1007	3.388	-2.0235	5.626	2.841	4.7432	4.5785
4.6375	5.3587	7.8795	6.0673	8.3022	10.966	8.526	7.9883	12.5201	11.1121	7.7551	11.771	9.5704	2.0794	-5.0758	3.4377	-2.0079	5.5607	2.7384	4.7525	4.4324
4.6779	5.3587	7.951	6.1326	8.2991	11.0157	8.5695	7.9261	12.5108	11.1276	7.6215	11.6933	9.5113	2.0763	-5.0416	3.4813	-1.9831	5.4985	2.6451	4.8054	4.2863
4.7308	5.3711	7.9945	6.1855	8.2618	11.0561	8.6379	7.8795	12.5388	11.1027	7.5251	11.5721	9.4398	2.0484	-4.9732	3.5061	-1.9427	5.4395	2.555	4.8707	4.1495
4.7525	5.3493	7.9976	6.1979	8.268	11.1152	8.6721	7.8235	12.5512	11.1152	7.4101	11.4757	9.3652	2.0173	-4.9173	3.5248	-1.9054	5.396	2.4897	4.9173	4.0376
4.7432	5.3431	8.038	6.2321	8.2618	11.1711	8.7436	7.7769	12.5636	11.1152	7.3013	11.3918	9.3124	2.0173	-4.8365	3.5528	-1.8525	5.3462	2.412	4.967	3.9413
4.7743	5.3804	8.0815	6.2632	8.2804	11.2644	8.8057	7.7551	12.6103	11.1463	7.2267	11.2892	9.2875	1.9924	-4.7494	3.5683	-1.8121	5.3214	2.3281	5.0323	3.8698
4.7588	5.3711	8.1033	6.2943	8.3115	11.3017	8.8399	7.7272	12.6351	11.1587	7.1366	11.2178	9.2378	1.9613	-4.6562	3.5807	-1.7779	5.2996	2.2784	5.082	3.8107
4.7277	5.3866	8.0815	6.2974	8.3115	11.3514	8.8834	7.7116	12.6755	11.1618	7.0744	11.1463	9.2222	1.9489	-4.5505	3.5807	-1.7375	5.2747	2.2255	5.1255	3.7548
4.6935	5.4146	8.0846	6.2663	8.3519	11.3918	8.9176	7.6868	12.7066	11.1742	7.0278	11.081	9.1694	1.9302	-4.4604	3.5838	-1.6816	5.2437	2.1447	5.1349	3.7206
4.6531	5.4302	8.0846	6.2414	8.3923	11.4322	8.9456	7.6836	12.747	11.1711	7.0029	11.0375	9.1445	1.8992	-4.3391	3.559	-1.6567	5.2219	2.1012	5.1784	3.6895
4.5816	5.4146	8.0349	6.1917	8.3954	11.4664	8.9332	7.6681	12.7874	11.1805	6.947	10.9815	9.1259	1.8867	-4.249	3.5434	-1.6163	5.2032	2.0794	5.1939	3.702
4.5194	5.4457	8.01	6.1357	8.4452	11.5006	8.9736	7.6836	12.8216	11.1898	6.9159	10.9442	9.1166	1.8743	-4.106	3.5186	-1.5977	5.197	2.0515	5.2095	3.702
4.4324	5.4519	7.9727	6.0767	8.4856	11.5379	8.9891	7.6805	12.8869	11.196	6.8973	10.9131	9.0948	1.8681	-4.0035	3.503	-1.5883	5.197	2.0266	5.225	3.7206
4.3423	5.4923	7.9385	6.0363	8.5229	11.5752	8.9922	7.7085	12.9397	11.2022	6.9128	10.8572	9.101	1.8712	-3.8791	3.4377	-1.579	5.1877	2.0204	5.2747	3.733
4.2521	5.5079	7.9106	5.9523	8.5509	11.6063	9.014	7.7116	12.9926	11.224	6.9097	10.8354	9.1135	1.8836	-3.7766	3.4253	-1.5914	5.2219	2.0142	5.3089	3.761
4.1558	5.5047	7.8608	5.8809	8.5788	11.6467	9.0202	7.7272	13.0485	11.2395	6.9314	10.8261	9.1197	1.8805	-3.6553	3.3352	-1.6039	5.2157	2.0142	5.34	3.7983
4.0874	5.5514	7.8142	5.8218	8.6441	11.6964	9.0482	7.7707	13.12	11.2675	6.9563	10.8448	9.1632	1.8992	-3.5248	3.2979	-1.6225	5.2374	2.0421	5.4208	3.8325
3.9817	5.5793	7.7893	5.769	8.7001	11.7182	9.0637	7.7987	13.1666	11.2892	6.9812	10.8448	9.1756	1.8836	-3.4471	3.2481	-1.6505	5.2778	2.0359	5.4675	3.8605
3.8978	5.6073	7.7551	5.7037	8.7374	11.7586	9.0668	7.8546	13.235	11.311	7.0309	10.8696	9.1943	1.9054	-3.3725	3.1362	-1.6785	5.2716	2.0732	5.5389	3.8853
3.8138	5.6415	7.7178	5.6384	8.7933	11.8239	9.0793	7.8981	13.3127	11.3265	7.0651	10.879	9.2347	1.9427	-3.2792	3.0958	-1.7189	5.2934	2.1074	5.598	3.8978
3.733	5.6975	7.6961	5.6198	8.8803	11.8643	9.101	7.9572	13.3749	11.3576	7.1086	10.91	9.2906	1.9613	-3.245	3.0772	-1.7624	5.3338	2.1478	5.6571	3.8884
3.6833	5.7254	7.6961	5.5576	8.9332	11.9047	9.1103	8.01	13.4371	11.3825	7.1366	10.938	9.3217	1.9738	-3.2077	3.0399	-1.7935	5.3462	2.182	5.7534	3.9009
3.646	5.8	7.7241	5.5607	9.0233	11.97	9.1383	8.1002	13.5396	11.4291	7.2392	11.0064	9.3994	1.9924	-3.1953	2.9964	-1.8494	5.3649	2.2659	5.8653	3.9226
3.5776	5.8373	7.7116	5.5265	9.1103	12.0477	9.1508	8.1903	13.6267	11.4664	7.3044	11.0623	9.4087	2.0111	-3.1922	2.9902	-1.8774	5.3929	2.3032	5.9648	3.8916
3.5963	5.9368	7.7116	5.5358	9.2285	12.1347	9.1943	8.2835	13.7199	11.5348	7.3635	11.1618	9.5113	2.0359	-3.1767	2.9622	-1.924	5.4519	2.4151	6.0984	3.9257
3.5248	5.9648	7.7334	5.5389	9.3124	12.1751	9.2316	8.3799	13.7821	11.5597	7.4567	11.2209	9.5704	2.0515	-3.2077	2.9808	-1.9302	5.483	2.4835	6.1824	3.9289
3.4906	6.03	7.78	5.5669	9.4491	12.2715	9.2782	8.5011	13.9157	11.6405	7.5686	11.3359	9.6636	2.039	-3.2233	2.9964	-1.9551	5.5141	2.5954	6.3036	3.9724
3.4844	6.1233	7.7987	5.6322	9.5859	12.3616	9.331	8.641	13.9903	11.6747	7.6899	11.4384	9.7351	2.0452	-3.2481	2.9933	-1.9489	5.5514	2.698	6.3906	4.0376
3.4471	6.1855	7.8235	5.6819	9.6885	12.4269	9.3714	8.7529	14.0805	11.7368	7.7862	11.5193	9.7973	2.0359	-3.2606	3.0026	-1.924	5.5762	2.7819	6.459	4.0563
3.4036	6.2041	7.836	5.7254	9.7786	12.4642	9.4274	8.8741	14.1613	11.7493	7.9168	11.6125	9.8594	2.0079	-3.2761	2.9964	-1.896	5.6011	2.8969	6.5056	4.0998
3.3414	6.2663	7.8142	5.7441	9.8843	12.5232	9.446	9.0233	14.2452	11.7555	8.0193	11.6653	9.8843	1.9831	-3.2979	2.9808	-1.8401	5.6198	2.9653	6.5087	4.1371
3.3259	6.3378	7.8764	5.7876	9.9993	12.6103	9.5082	9.1601	14.3291	11.8083	8.1343	11.7741	9.9558	1.9706	-3.3227	2.987	-1.8028	5.6322	3.0585	6.5367	4.1713
3.2544	6.3595	7.9137	5.8373	10.077	12.6351	9.5362	9.2378	14.354	11.7835	8.2245	11.827	9.9931	1.9458	-3.3227	3.0119	-1.7468	5.6415	3.1425	6.5243	4.1993
3.2046	6.3906	7.9106	5.8777	10.1485	12.6755	9.5455	9.331	14.4224	11.8083	8.2991	11.886	10.0117	1.9178	-3.36	3.0275	-1.6816	5.6229	3.1891	6.4963	4.2366
3.1611	6.4279	7.9385	5.9181	10.2355	12.7408	9.5828	9.4118	14.4566	11.8114	8.3923	11.9358	10.0242	1.8898	-3.3973	3.0492	-1.6381	5.6415	3.2513	6.4372	4.2241
3.1362	6.4901	7.9634	5.9896	10.3226	12.7688	9.6232	9.5393	14.5063	11.8208	8.5042	11.9917	10.0584	1.8774	-3.4004	3.0648	-1.6008	5.6384	3.2823	6.4093	4.2645
3.0927	6.4963	7.9665	6.0269	10.3972	12.8092	9.645	9.6015	14.5343	11.8052	8.5384	12.029	10.0615	1.8587	-3.4253	3.0741	-1.5728	5.6166	3.3414	6.3502	4.2645
3.0523	6.5429	8.0224	6.0767	10.4593	12.8372	9.7102	9.6636	14.5654	11.7866	8.6255	12.0632	10.077	1.8308	-3.4067	3.0679	-1.5666	5.6415	3.3818	6.3005	4.2832
3.0306	6.5771	8.0411	6.1482	10.4935	12.8838	9.7444	9.7506	14.5871	11.7959	8.6783	12.0881	10.0677	1.8525	-3.416	3.1021	-1.5635	5.6104	3.4315	6.2476	4.2987
3.015	6.6051	8.066	6.2103	10.5712	12.9055	9.7755	9.8097	14.5996	11.771	8.7622	12.1036	10.0335	1.8619	-3.3911	3.1207	-1.5852	5.6073	3.4626	6.201	4.3391
2.9715	6.602	8.0442	6.2228	10.5868	12.9304	9.7786	9.8377	14.5996	11.7555	8.7715	12.0881	10.0024	1.865	-3.3725	3.1269	-1.5914	5.5918	3.4782	6.1451	4.364
2.9529	6.5989	8.0566	6.2601	10.5899	12.9242	9.7848	9.8688	14.5654	11.7089	8.7871	12.057	9.9651	1.8712	-3.3507	3.1487	-1.6039	5.5856	3.4999	6.0673	4.3702
2.9435	6.6175	8.0691	6.2787	10.5868	12.918	9.7911	9.8812	14.525	11.6529	8.8182	12.0135	9.8874	1.8743	-3.2979	3.1114	-1.6287	5.5669	3.5186	5.999	4.4137
2.9125	6.5958	8.0473	6.3005	10.5806	12.8962	9.76	9.8408	14.4441	11.6032	8.8088	11.9606	9.8221	1.8898	-3.2419	3.1269	-1.6629	5.5483	3.5061	5.9306	4.4324
2.872	6.5305	8.0193	6.2476	10.5153	12.8341	9.7196	9.8159	14.3789	11.5068	8.7591	11.8829	9.7165	1.9116	-3.1767	3.0989	-1.7033	5.483	3.5248	5.8218	4.4573
2.8037	6.4839	7.9603	6.2072	10.4469	12.7626	9.617	9.7382	14.2639	11.3732	8.7063	11.7648	9.5983	1.9085	-3.1704	3.1052	-1.7127	5.4146	3.4999	5.6944	4.4604
2.7477	6.3968	7.9074	6.1824	10.363	12.688	9.5548	9.6667	14.1364	11.2582	8.6472	11.6343	9.446	1.9333	-3.0958	3.071	-1.7437	5.3649	3.4968	5.57	4.4946
2.6793	6.3036	7.8173	6.0922	10.2573	12.5854	9.446	9.561	13.9717	11.1183	8.5509	11.4695	9.2813	1.9365	-3.043	3.0523	-1.7686	5.281	3.4688	5.4022	4.507
2.5705	6.1761	7.7116	5.9959	10.1299	12.458	9.3248	9.4336	13.7914	10.9691	8.4576	11.2986	9.101	1.9333	-2.9902	2.9746	-1.7655	5.1846	3.4813	5.2561	4.5101
2.4991	6.0487	7.6184	5.884	9.9744	12.3305	9.1881	9.2751	13.5863	10.8044	8.3333	11.1121	8.9145	1.9333	-2.928	2.9031	-1.7624	5.0945	3.444	5.0851	4.5319
2.3467	5.9088	7.4692	5.7441	9.7786	12.1347	9.014	9.0979	13.3687	10.5899	8.1779	10.8821	8.7094	1.9116	-2.8752	2.8192	-1.7437	4.9826	3.4004	4.9111	4.5443
2.2255	5.7503	7.3417	5.6104	9.6015	11.9793	8.8586	8.9332	13.1635	10.4034	8.0224	10.6769	8.5042	1.8992	-2.8379	2.7197	-1.7158	4.8769	3.3663	4.7619	4.5412
2.0732	5.598	7.1863	5.4457	9.4212	11.7959	8.6783	8.7311	12.918	10.192	7.8235	10.4376	8.2773	1.8929	-2.7943	2.6234	-1.666	4.7805	3.3259	4.6096	4.5412
1.896	5.3991	6.9905	5.2685	9.1818	11.5907	8.4887	8.5073	12.6476	9.9869	7.637	10.1796	8.0318	1.8619	-2.7695	2.5022	-1.6008	4.6624	3.2761	4.4417	4.507
1.7251	5.2219	6.8227	5.1069	8.9611	11.3949	8.2991	8.2742	12.3865	9.7911	7.4194	9.9123	7.8204	1.8214	-2.7197	2.3747	-1.5231	4.5661	3.245	4.3267	4.4821
1.5604	5.0354	6.6331	4.9049	8.7094	11.1618	8.1002	8.0162	12.1129	9.5859	7.1925	9.6543	7.6028	1.7904	-2.6824	2.2535	-1.4547	4.4542	3.1922	4.1744	4.4573
1.3987	4.8427	6.4279	4.7184	8.4887	10.9411	7.9106	7.7676	11.8239	9.3745	6.9656	9.387	7.3821	1.7468	-2.67	2.1198	-1.3583	4.3454	3.1176	4.0812	4.4137
1.2029	4.6717	6.2352	4.5505	8.2525	10.708	7.7241	7.522	11.5939	9.1756	6.7325	9.1072	7.1459	1.7095	-2.6545	2.0017	-1.2837	4.249	3.1114	3.9289	4.3578
1.0102	4.4728	6.0611	4.3423	8.038	10.506	7.5189	7.2951	11.3265	8.9705	6.4776	8.8555	6.9625	1.6723	-2.6265	1.865	-1.2153	4.1527	3.0585	3.8294	4.2925
0.8641	4.3018	5.8622	4.1806	7.8297	10.2853	7.3417	7.0465	11.053	8.7871	6.229	8.6037	6.7636	1.6412	-2.6016	1.7251	-1.1563	4.0718	3.0368	3.6988	4.2272
0.6807	4.1433	5.6446	3.9786	7.5997	10.0739	7.1646	6.7822	10.7919	8.5882	5.9586	8.3271	6.5553	1.6008	-2.5861	1.5604	-1.0941	3.9848	2.987	3.6056	4.1744
0.516	3.9972	5.4675	3.7952	7.4163	9.8408	7.0029	6.5585	10.5557	8.4265	5.7348	8.0566	6.3688	1.5759	-2.6047	1.4858	-1.0413	3.9071	2.9684	3.4906	4.0905
0.3388	3.8263	5.2685	3.6211	7.2423	9.5983	6.8289	6.3036	10.2759	8.2338	5.4519	7.8142	6.1544	1.5635	-2.5954	1.3459	-0.9915	3.8511	2.9187	3.3849	4.0035
0.1647	3.6988	5.0447	3.3787	7.0247	9.3963	6.6641	6.0705	10.0335	8.0535	5.1784	7.5655	5.9492	1.5386	-2.6296	1.2153	-0.9263	3.7548	2.8596	3.2481	3.8916
-0.0155	3.5465	4.8427	3.2108	6.8133	9.1756	6.4932	5.8156	9.8004	7.867	4.9111	7.2827	5.769	1.5199	-2.6327	1.0755	-0.8703	3.6864	2.8285	3.1114	3.789
-0.2145	3.3756	4.6158	2.9902	6.6424	8.9176	6.2943	5.5731	9.5175	7.6619	4.6127	7.0185	5.5669	1.4858	-2.6545	0.9573	-0.805	3.5807	2.7539	2.9435	3.6864
-0.3854	3.2544	4.4137	2.8161	6.4776	8.7249	6.1482	5.3804	9.3093	7.5345	4.3516	6.7636	5.3866	1.4858	-2.6482	0.8517	-0.774	3.5279	2.7228	2.8161	3.5838
-0.5502	3.1269	4.19	2.6265	6.3036	8.5042	5.9959	5.1224	9.0389	7.3666	4.0936	6.4994	5.2064	1.4764	-2.6327	0.7833	-0.7304	3.444	2.6918	2.6762	3.475
-0.7242	3.0088	3.9972	2.468	6.1482	8.268	5.8529	4.9111	8.8275	7.1832	3.8449	6.2632	5.0199	1.4298	-2.6514	0.7025	-0.6745	3.3507	2.6638	2.5177	3.3507
-0.8703	2.8876	3.8045	2.3188	5.9959	8.0753	5.6944	4.709	8.585	7.0589	3.5963	6.0363	4.8582	1.4329	-2.5985	0.6745	-0.6465	3.2854	2.6234	2.412	3.2606
-1.0382	2.7757	3.6025	2.1323	5.8498	7.8888	5.5825	4.5163	8.3861	6.891	3.3507	5.8094	4.6966	1.436	-2.5519	0.5937	-0.6217	3.2015	2.5892	2.3312	3.1984
-1.1718	2.6669	3.4191	2.0079	5.7285	7.7085	5.4706	4.3329	8.1748	6.7636	3.1331	5.5731	4.5256	1.4049	-2.4928	0.5657	-0.5875	3.13	2.5581	2.2628	3.1021
-1.3241	2.5736	3.2575	1.8836	5.6198	7.5345	5.3462	4.1651	8.0069	6.6548	2.9218	5.3649	4.3889	1.408	-2.3872	0.4849	-0.5719	3.071	2.555	2.2193	3.0243
-1.4267	2.4711	3.1083	1.7531	5.4737	7.407	5.2592	3.9941	7.8235	6.5398	2.7228	5.1597	4.2645	1.4236	-2.2908	0.4818	-0.5564	3.0212	2.5363	2.2348	2.956
-1.5075	2.3996	2.9746	1.635	5.4022	7.2734	5.197	3.876	7.6805	6.459	2.5457	4.995	4.1651	1.4018	-2.182	0.4383	-0.5066	2.9684	2.5115	2.2566	2.9
-1.6132	2.3063	2.8534	1.5479	5.3151	7.1211	5.0945	3.7455	7.5531	6.372	2.3872	4.8023	4.047	1.3801	-2.0359	0.3854	-0.4818	2.9156	2.4991	2.2815	2.8596
-1.6847	2.238	2.7415	1.4733	5.2219	7.006	5.0416	3.6087	7.4226	6.3222	2.2286	4.65	3.9724	1.3676	-1.8743	0.373	-0.4352	2.8969	2.5053	2.3747	2.8006
-1.7593	2.1509	2.6669	1.4174	5.1628	6.9035	4.9732	3.5186	7.2951	6.2383	2.1012	4.4977	3.8791	1.3521	-1.6847	0.3792	-0.401	2.8689	2.5053	2.4586	2.785
-1.7841	2.1105	2.5674	1.3894	5.1007	6.8195	4.9515	3.416	7.1708	6.2134	1.9769	4.3609	3.8107	1.3241	-1.4858	0.3606	-0.3388	2.8503	2.5115	2.5519	2.7539
-1.8339	2.0204	2.5084	1.3366	5.0509	6.7108	4.9328	3.301	7.0775	6.1575	1.8432	4.2024	3.7393	1.2775	-1.2899	0.373	-0.2704	2.8285	2.4928	2.6482	2.7135
-1.8277	1.9862	2.5053	1.3552	4.9857	6.6455	4.9266	3.245	6.9967	6.1451	1.7406	4.0718	3.6957	1.2713	-1.0755	0.4414	-0.2207	2.8192	2.5177	2.7539	2.6855
-1.8401	1.952	2.4773	1.3614	4.9235	6.5926	4.9204	3.1611	6.8941	6.1078	1.6287	3.9102	3.6367	1.2216	-0.8517	0.4756	-0.1305	2.7757	2.4928	2.8347	2.6514
-1.7904	1.8867	2.4835	1.3801	4.9017	6.518	4.9577	3.0834	6.8102	6.0984	1.5324	3.8107	3.6242	1.1811	-0.6123	0.5346	-0.0528	2.7974	2.4866	2.9093	2.6234
-1.7406	1.8681	2.4742	1.4453	4.8582	6.4932	4.9639	3.0181	6.7201	6.058	1.4205	3.6709	3.5714	1.1376	-0.3575	0.6092	0.0311	2.7912	2.468	2.9839	2.5954
-1.6909	1.8152	2.4897	1.4858	4.8209	6.4403	4.9732	2.956	6.6362	6.0363	1.3241	3.531	3.5341	1.0724	-0.1119	0.7304	0.1181	2.7664	2.4524	3.043	2.583
-1.6101	1.7748	2.5208	1.551	4.7836	6.3782	5.023	2.8783	6.5522	6.0332	1.2464	3.3942	3.5092	1.063	0.1554	0.7926	0.1958	2.7819	2.4462	3.1176	2.555
-1.5199	1.7904	2.5643	1.6412	4.7432	6.3564	5.0696	2.841	6.487	6.0021	1.1811	3.2948	3.4844	1.0195	0.4538	0.9107	0.2549	2.7664	2.412	3.1642	2.5612
-1.4609	1.7375	2.5985	1.7127	4.6811	6.2974	5.0945	2.7664	6.3906	5.9617	1.0724	3.1362	3.4471	0.9698	0.7149	1.0475	0.345	2.7477	2.3623	3.1642	2.5053
-1.3552	1.6971	2.6203	1.7655	4.6531	6.2352	5.0945	2.698	6.3129	5.9088	0.976	2.9902	3.4129	0.9387	1.0102	1.1501	0.4134	2.7601	2.3188	3.1953	2.4928
-1.2806	1.6567	2.6576	1.8401	4.594	6.1824	5.1255	2.5985	6.2041	5.8809	0.889	2.8379	3.3569	0.9045	1.321	1.2402	0.46	2.7664	2.2846	3.1922	2.4524
-1.1594	1.6256	2.7135	1.9147	4.5381	6.1357	5.1473	2.5519	6.1109	5.8436	0.8206	2.6918	3.3196	0.8579	1.6318	1.3645	0.516	2.7539	2.2566	3.2077	2.4245
-1.0848	1.579	2.7384	1.9644	4.4479	6.0394	5.1224	2.4618	5.9896	5.7876	0.7056	2.5426	3.273	0.8392	1.952	1.4391	0.5688	2.7353	2.1944	3.186	2.4027
-1.0164	1.4795	2.7539	2.0079	4.3827	5.971	5.1286	2.3716	5.884	5.7254	0.6154	2.3778	3.2326	0.7988	2.2815	1.4889	0.6279	2.7508	2.1478	3.1642	2.353
-0.9356	1.4112	2.7539	2.0484	4.2739	5.8715	5.1131	2.2597	5.7534	5.6166	0.4849	2.1913	3.158	0.774	2.6141	1.5541	0.6869	2.7353	2.0577	3.1487	2.3157
-0.8672	1.3428	2.7508	2.1229	4.19	5.7658	5.0882	2.1478	5.5856	5.5669	0.3885	2.0328	3.1176	0.7584	2.9466	1.5883	0.7367	2.7197	1.9893	3.1176	2.269
-0.8486	1.2309	2.7104	2.1229	4.0345	5.6539	5.0447	2.0328	5.4053	5.455	0.2362	1.8183	3.0337	0.7118	3.273	1.579	0.7988	2.7166	1.8867	3.071	2.2038
-0.805	1.1283	2.6793	2.1509	3.9257	5.5296	4.9981	1.9054	5.2468	5.3897	0.1026	1.6443	2.9653	0.6931	3.6025	1.6163	0.8361	2.698	1.8246	3.0243	2.1447
-0.8268	1.004	2.6047	2.1354	3.7517	5.3742	4.8862	1.7531	5.023	5.2188	-0.0622	1.377	2.8347	0.6745	3.9351	1.5479	0.9076	2.6451	1.7344	2.9373	2.0639
-0.8113	0.8579	2.5799	2.154	3.5776	5.1939	4.8396	1.5914	4.8116	5.1162	-0.2176	1.1625	2.7508	0.6621	4.2614	1.5106	0.9356	2.6545	1.6474	2.9031	2.0235
-0.8237	0.7273	2.4804	2.1323	3.4191	5.0199	4.7494	1.4329	4.6096	5.0043	-0.3854	0.9169	2.6203	0.6527	4.5816	1.4143	0.9822	2.6078	1.5386	2.8192	1.9551
-0.8641	0.5719	2.4151	2.0888	3.245	4.8427	4.6282	1.2744	4.3982	4.8676	-0.5377	0.6869	2.5115	0.6341	4.8738	1.3366	0.9978	2.583	1.4516	2.7539	1.8836
-0.9138	0.3948	2.2784	2.0484	3.0523	4.6469	4.4946	1.1065	4.1402	4.7246	-0.7149	0.4476	2.3778	0.6279	5.1815	1.2433	1.0071	2.5177	1.377	2.6731	1.8028
-0.9791	0.2456	2.1789	2.0048	2.872	4.4542	4.3858	0.9387	3.9164	4.5847	-0.8641	0.1958	2.2442	0.631	5.4799	1.1159	0.9946	2.5053	1.2899	2.6172	1.7468
-1.0102	0.087	2.0794	1.9333	2.67	4.2801	4.2739	0.7771	3.674	4.4604	-1.0351	-0.0653	2.1136	0.6341	5.7907	0.9946	0.9791	2.4897	1.2029	2.5581	1.7064
-1.0817	-0.0528	1.9644	1.865	2.4959	4.0812	4.1464	0.6123	3.4533	4.3236	-1.178	-0.2735	2.0173	0.6527	6.0332	0.9138	0.9511	2.4618	1.1283	2.5457	1.6225
-1.1128	-0.1865	1.8556	1.7904	2.3405	3.8978	4.0376	0.4662	3.2264	4.2086	-1.321	-0.4911	1.9147	0.7118	6.3036	0.8548	0.8641	2.468	1.0506	2.555	1.5821
-1.1625	-0.3108	1.7624	1.7095	2.1758	3.7237	3.9071	0.3046	2.9964	4.1091	-1.4609	-0.7273	1.8308	0.7429	6.5491	0.7833	0.7864	2.4618	0.9853	2.5581	1.5355
-1.2122	-0.4631	1.6132	1.6194	1.9862	3.5123	3.7455	0.1461	2.7633	3.9599	-1.6132	-0.9387	1.7095	0.7522	6.7605	0.7429	0.718	2.4586	0.9294	2.5736	1.4858
-1.2371	-0.6061	1.5293	1.5479	1.8463	3.3476	3.6149	0.0093	2.5581	3.8543	-1.7158	-1.1407	1.6443	0.8299	6.9812	0.7367	0.5999	2.468	0.8517	2.6234	1.4453
-1.3179	-0.7491	1.4236	1.4422	1.6629	3.1704	3.4906	-0.1368	2.3343	3.7486	-1.8556	-1.3148	1.5386	0.8921	7.1552	0.7429	0.4849	2.4928	0.7771	2.642	1.3832
-1.3801	-0.8765	1.3117	1.3397	1.4858	2.9839	3.3352	-0.2766	2.1509	3.6274	-1.98	-1.5324	1.4826	0.9511	7.3355	0.7677	0.373	2.5488	0.7304	2.6731	1.293
-1.4547	-1.0568	1.1594	1.2091	1.3272	2.8192	3.186	-0.4445	1.9271	3.5061	-2.1229	-1.7064	1.408	1.0009	7.4816	0.7584	0.2642	2.5519	0.6372	2.7104	1.2371
-1.5448	-1.1811	1.0195	1.0972	1.1376	2.6047	3.0523	-0.5844	1.6878	3.3725	-2.2721	-1.9085	1.3055	1.0755	7.6122	0.7957	0.143	2.6078	0.5595	2.6918	1.1594
-1.5883	-1.3366	0.8859	0.9822	0.9791	2.4555	2.9	-0.7242	1.5013	3.2544	-2.3872	-2.0857	1.2557	1.1376	7.7303	0.8392	0.0093	2.6265	0.4973	2.7446	1.0724
-1.6785	-1.464	0.7646	0.861	0.8268	2.2721	2.785	-0.8734	1.293	3.1673	-2.4928	-2.2473	1.1967	1.1905	7.8515	0.8734	-0.1088	2.6638	0.4196	2.785	1.004
-1.7406	-1.6287	0.6061	0.7522	0.6745	2.0701	2.6078	-1.0351	1.0786	3.0399	-2.6172	-2.4338	1.1097	1.2557	7.923	0.948	-0.2051	2.6824	0.3388	2.785	0.9263
-1.8152	-1.7562	0.488	0.6279	0.5066	1.8992	2.4928	-1.1656	0.9107	2.9311	-2.7073	-2.583	1.0413	1.293	7.9914	0.9884	-0.3015	2.7322	0.3015	2.7974	0.8641
-1.8805	-1.924	0.3357	0.516	0.3388	1.7064	2.3592	-1.321	0.7118	2.8254	-2.8379	-2.7477	0.9667	1.3397	8.0349	1.0879	-0.3761	2.7477	0.2145	2.8161	0.7988
-1.9955	-2.0763	0.1989	0.3668	0.1927	1.5324	2.21	-1.4422	0.5066	2.7011	-2.9373	-2.8938	0.8921	1.3801	8.0442	1.1998	-0.4352	2.7477	0.1554	2.7757	0.7273
-2.0701	-2.2131	0.0622	0.2362	0.0093	1.3614	2.067	-1.607	0.317	2.5892	-3.0368	-3.0368	0.8268	1.3987	8.0691	1.3117	-0.4849	2.7695	0.0932	2.757	0.6869
-2.1634	-2.3685	-0.087	0.1243	-0.1554	1.1656	1.9582	-1.7437	0.1088	2.4835	-3.1425	-3.1984	0.7211	1.4205	8.0753	1.4018	-0.516	2.7539	0.0186	2.7135	0.6341
-2.2286	-2.4804	-0.2145	0.0124	-0.2766	1.0226	1.8308	-1.8432	-0.0249	2.3996	-3.2357	-3.3414	0.6621	1.4391	8.0722	1.5199	-0.5439	2.757	0	2.698	0.5937
-2.3063	-2.6203	-0.3668	-0.0932	-0.4227	0.8734	1.722	-1.9675	-0.1989	2.2784	-3.2948	-3.4657	0.5844	1.4453	8.0908	1.607	-0.575	2.7539	-0.0591	2.6451	0.5812
-2.3685	-2.7322	-0.4538	-0.1989	-0.5564	0.746	1.6132	-2.0763	-0.3326	2.2069	-3.3538	-3.5838	0.5035	1.464	8.1188	1.7033	-0.6092	2.7415	-0.087	2.6234	0.575
-2.4618	-2.8565	-0.603	-0.3015	-0.7118	0.5937	1.5106	-2.1975	-0.4818	2.1229	-3.4253	-3.6678	0.4134	1.4702	8.1468	1.8028	-0.6185	2.6949	-0.1492	2.5674	0.5626
-2.5053	-2.9715	-0.7118	-0.3916	-0.805	0.4787	1.436	-2.2908	-0.6123	2.0328	-3.4782	-3.761	0.3388	1.4671	8.1965	1.8805	-0.6185	2.67	-0.1492	2.5146	0.5688
-2.5985	-3.0741	-0.8113	-0.4725	-0.9014	0.373	1.349	-2.3374	-0.718	1.9675	-3.5341	-3.8387	0.286	1.4516	8.2369	1.9924	-0.6248	2.6234	-0.1927	2.5053	0.5595
-2.6731	-3.2077	-0.9107	-0.5781	-1.0382	0.2642	1.2868	-2.4462	-0.8486	1.8836	-3.5776	-3.9413	0.1803	1.4609	8.296	2.0266	-0.6092	2.6078	-0.2207	2.4493	0.5688
-2.7291	-3.3072	-1.0009	-0.6403	-1.1159	0.1989	1.1811	-2.5146	-0.9107	1.7997	-3.6087	-4.0066	0.1057	1.4609	8.3768	2.0732	-0.5906	2.5643	-0.2145	2.3996	0.5937
-2.7974	-3.3973	-1.1097	-0.7429	-1.2216	0.0839	1.1252	-2.5799	-1.0133	1.7406	-3.6429	-4.0905	0.0342	1.436	8.411	2.1167	-0.5502	2.5022	-0.2673	2.3188	0.5906
-2.8814	-3.4813	-1.1687	-0.805	-1.2993	0.0124	1.0537	-2.6576	-1.1003	1.6878	-3.6895	-4.1371	-0.0342	1.4112	8.4887	2.1634	-0.4942	2.4555	-0.2766	2.2815	0.5688
-2.9311	-3.559	-1.2495	-0.8423	-1.3801	-0.0342	1.0133	-2.7228	-1.1936	1.635	-3.7206	-4.19	-0.087	1.408	8.5882	2.2038	-0.4662	2.412	-0.3108	2.1913	0.5719
-2.9902	-3.6491	-1.3148	-0.9107	-1.4702	-0.0777	0.9325	-2.7539	-1.2278	1.5666	-3.7703	-4.2304	-0.1647	1.3521	8.6534	2.1913	-0.3854	2.3623	-0.3512	2.095	0.5595
-3.0337	-3.7393	-1.3521	-0.9449	-1.5168	-0.1554	0.8796	-2.8379	-1.2993	1.5075	-3.7983	-4.2677	-0.2487	1.3334	8.7436	2.2131	-0.317	2.2939	-0.3761	2.0328	0.5844
-3.0772	-3.817	-1.4174	-0.9853	-1.5977	-0.1834	0.8113	-2.9031	-1.3614	1.4391	-3.8325	-4.2925	-0.3295	1.2806	8.7995	2.2286	-0.2424	2.2007	-0.401	1.9489	0.5595
-3.1207	-3.8853	-1.4826	-1.0444	-1.6847	-0.2051	0.7646	-2.9497	-1.3925	1.4112	-3.8729	-4.3516	-0.4072	1.234	8.871	2.2255	-0.1523	2.1447	-0.4631	1.8401	0.5502
-3.1798	-3.9382	-1.5262	-1.0817	-1.7313	-0.2176	0.7273	-2.9933	-1.4143	1.3334	-3.9133	-4.3609	-0.4693	1.1843	8.9549	2.2038	-0.0373	2.0639	-0.4818	1.7717	0.5346
-3.2202	-4.019	-1.5541	-1.1003	-1.7873	-0.258	0.659	-3.0492	-1.4609	1.2744	-3.9848	-4.3827	-0.5595	1.119	9.0606	2.1509	0.0777	1.9489	-0.5066	1.7033	0.516
-3.2668	-4.0812	-1.607	-1.147	-1.8339	-0.2673	0.6185	-3.1021	-1.5168	1.2309	-4.0003	-4.3889	-0.6279	1.0661	9.1818	2.0515	0.1865	1.865	-0.5377	1.6629	0.488
-3.2854	-4.1154	-1.6412	-1.1811	-1.8929	-0.258	0.6061	-3.1269	-1.5106	1.1749	-4.0376	-4.3796	-0.7056	1.0102	9.331	1.9427	0.2891	1.7562	-0.5812	1.6194	0.4662
-3.329	-4.1558	-1.635	-1.1967	-1.9054	-0.2456	0.5657	-3.1642	-1.5168	1.1532	-4.0501	-4.3733	-0.7677	0.9698	9.5082	1.8121	0.3854	1.6816	-0.5999	1.5697	0.4476
-3.3663	-4.2024	-1.6598	-1.2464	-1.9178	-0.23	0.5471	-3.1829	-1.5324	1.0972	-4.0594	-4.3423	-0.8268	0.9232	9.6916	1.6723	0.4818	1.5945	-0.6341	1.5199	0.4258
-3.3818	-4.2241	-1.666	-1.2402	-1.9147	-0.2176	0.5129	-3.186	-1.5075	1.0319	-4.0905	-4.3236	-0.889	0.8765	9.8936	1.5168	0.5719	1.5137	-0.631	1.5106	0.4227
-3.3911	-4.2583	-1.6816	-1.2775	-1.9458	-0.2145	0.4756	-3.2108	-1.5106	0.9636	-4.1185	-4.3143	-1.0009	0.8454	10.1236	1.3272	0.6527	1.408	-0.6869	1.4671	0.3823
-3.4191	-4.277	-1.6909	-1.3024	-1.9458	-0.1896	0.4352	-3.245	-1.5231	0.9138	-4.1495	-4.3143	-1.1003	0.805	10.3537	1.1407	0.746	1.3086	-0.7398	1.3987	0.3357
-3.4564	-4.2925	-1.6971	-1.3397	-1.952	-0.1989	0.3854	-3.2823	-1.5541	0.8082	-4.1806	-4.3143	-1.1936	0.7709	10.593	0.9449	0.8082	1.2184	-0.7895	1.3397	0.2829
-3.4688	-4.3018	-1.6816	-1.3397	-1.9675	-0.143	0.3481	-3.2854	-1.5386	0.7242	-4.2148	-4.2894	-1.2837	0.7336	10.8323	0.7677	0.8672	1.1283	-0.805	1.3024	0.2611
-3.4657	-4.2925	-1.6723	-1.3459	-1.9427	-0.1399	0.3233	-3.2917	-1.5386	0.6403	-4.2241	-4.3143	-1.3894	0.7211	11.0965	0.6279	0.8859	1.0226	-0.8361	1.2184	0.2238
-3.475	-4.2987	-1.6536	-1.3552	-1.9551	-0.1057	0.2456	-3.301	-1.5293	0.5564	-4.2677	-4.3174	-1.4951	0.718	11.3234	0.488	0.8952	0.9045	-0.8983	1.1843	0.171
-3.4564	-4.2708	-1.6256	-1.3521	-1.9489	-0.1026	0.1803	-3.3072	-1.5479	0.4507	-4.3267	-4.3423	-1.6132	0.7211	11.5379	0.4165	0.9014	0.8268	-0.9387	1.1283	0.1212
-3.4191	-4.2677	-1.5914	-1.3303	-1.9333	-0.0466	0.143	-3.3507	-1.5604	0.3575	-4.3329	-4.3547	-1.7344	0.746	11.7493	0.3979	0.8486	0.7336	-1.0102	1.1221	0.087
-3.4067	-4.2272	-1.5324	-1.3148	-1.9333	-0.0435	0.1088	-3.3414	-1.5728	0.2766	-4.3796	-4.3764	-1.8743	0.7895	11.9637	0.3606	0.7802	0.6248	-1.0661	1.0848	0.0559
-3.36	-4.2117	-1.4982	-1.3272	-1.9458	0.0124	0.0622	-3.3632	-1.579	0.1741	-4.42	-4.42	-1.9986	0.8206	12.1502	0.3948	0.7025	0.5688	-1.1314	1.0413	-0.0031
-3.2481	-4.134	-1.3987	-1.2713	-1.9209	0.0591	0.0218	-3.3632	-1.579	0.0964	-4.4697	-4.4386	-2.0888	0.8765	12.3056	0.4725	0.5999	0.4973	-1.1718	1.0071	-0.0497
-3.1642	-4.0687	-1.3055	-1.2526	-1.9085	0.0964	0.0031	-3.3787	-1.579	0.0404	-4.4821	-4.4479	-2.1913	0.9356	12.4921	0.5657	0.4662	0.4538	-1.2216	0.9946	-0.0901
-3.0616	-4.0314	-1.2371	-1.2278	-1.8805	0.143	-0.0031	-3.388	-1.5666	-0.0342	-4.5194	-4.4728	-2.297	1.004	12.6413	0.69	0.3481	0.3823	-1.2775	0.9853	-0.143
-2.956	-3.9786	-1.1283	-1.2184	-1.8712	0.1865	-0.0404	-3.3663	-1.5479	-0.0839	-4.5381	-4.4728	-2.3872	1.063	12.7812	0.8082	0.2051	0.3295	-1.321	0.9573	-0.1958
-2.8192	-3.8978	-1.004	-1.1532	-1.8401	0.2269	-0.0435	-3.3818	-1.5355	-0.1243	-4.5381	-4.4946	-2.4462	1.1563	12.8993	0.976	0.0653	0.3264	-1.349	0.9573	-0.2487
-2.6824	-3.7828	-0.8765	-1.1221	-1.7904	0.3326	-0.0404	-3.3569	-1.5324	-0.1523	-4.5598	-4.4759	-2.5426	1.2184	12.9615	1.1532	-0.0684	0.2922	-1.3801	0.9169	-0.286
-2.5488	-3.6802	-0.746	-1.0848	-1.7686	0.3606	-0.0497	-3.3476	-1.5075	-0.1772	-4.5692	-4.5039	-2.6109	1.293	13.0516	1.3366	-0.2114	0.2829	-1.3956	0.9263	-0.3108
-2.4276	-3.6118	-0.6714	-1.0692	-1.7562	0.3916	-0.0653	-3.3445	-1.5137	-0.2207	-4.5692	-4.5194	-2.6545	1.3614	13.1076	1.4733	-0.3202	0.258	-1.4112	0.8921	-0.3388
-2.2877	-3.4999	-0.5346	-1.0102	-1.694	0.4849	-0.0435	-3.2979	-1.4733	-0.2424	-4.5598	-4.5039	-2.7135	1.4453	13.1822	1.6381	-0.46	0.2766	-1.4422	0.889	-0.3761
-2.2007	-3.388	-0.4445	-0.9978	-1.6971	0.5098	-0.0622	-3.3165	-1.4795	-0.2891	-4.5754	-4.5381	-2.7726	1.5013	13.1884	1.7966	-0.5626	0.2829	-1.4795	0.8734	-0.4134
-2.0577	-3.3165	-0.3388	-0.9605	-1.6474	0.5439	-0.0591	-3.3103	-1.492	-0.3139	-4.6002	-4.5661	-2.8223	1.5448	13.1946	1.9458	-0.6714	0.2766	-1.5231	0.8454	-0.432
-1.9582	-3.2233	-0.2704	-0.9418	-1.666	0.5595	-0.0684	-3.3321	-1.5262	-0.3699	-4.6375	-4.5816	-2.8689	1.5977	13.2102	2.0919	-0.7584	0.2735	-1.5417	0.8579	-0.5346
-1.8774	-3.1456	-0.1678	-0.9418	-1.6567	0.5626	-0.0995	-3.3663	-1.5417	-0.4289	-4.65	-4.6375	-2.9093	1.6225	13.2039	2.1882	-0.8392	0.2549	-1.5604	0.8579	-0.5875
-1.7997	-3.0648	-0.1026	-0.9138	-1.6754	0.5844	-0.1119	-3.3818	-1.6039	-0.4818	-4.7215	-4.7215	-2.9902	1.694	13.2102	2.269	-0.9294	0.2642	-1.6318	0.8734	-0.6527
-1.7282	-3.0057	-0.0653	-0.9045	-1.7002	0.5471	-0.1461	-3.4284	-1.6598	-0.5439	-4.7836	-4.8147	-3.0461	1.7127	13.2008	2.3561	-0.9978	0.2424	-1.6847	0.8921	-0.7584
-1.6598	-2.9404	-0.0218	-0.8641	-1.6878	0.5471	-0.1399	-3.4564	-1.7189	-0.5968	-4.824	-4.88	-3.1052	1.7748	13.2257	2.4307	-1.0941	0.258	-1.7189	0.9356	-0.8113
-1.6194	-2.8534	0.0062	-0.8423	-1.7406	0.5315	-0.1834	-3.5217	-1.7717	-0.6714	-4.9235	-4.9981	-3.1673	1.8152	13.2226	2.5115	-1.1687	0.2424	-1.7748	0.9667	-0.92
-1.551	-2.7912	0.0715	-0.8082	-1.7655	0.5066	-0.1834	-3.5932	-1.8774	-0.7087	-5.0136	-5.0696	-3.2264	1.8401	13.2723	2.5519	-1.2589	0.2487	-1.8339	1.0164	-1.004
-1.5013	-2.7477	0.1057	-0.774	-1.7873	0.4818	-0.202	-3.6429	-1.952	-0.7615	-5.1007	-5.2032	-3.2699	1.8898	13.3376	2.6016	-1.3428	0.2611	-1.865	1.0599	-1.1003
-1.4485	-2.6793	0.1772	-0.718	-1.8183	0.4507	-0.1772	-3.7144	-2.0235	-0.8175	-5.1815	-5.3369	-3.3134	1.9489	13.4029	2.6607	-1.4422	0.286	-1.8712	1.1283	-1.1625
-1.377	-2.6047	0.2051	-0.6652	-1.8463	0.4258	-0.1772	-3.7734	-2.0919	-0.8641	-5.2996	-5.4302	-3.3352	1.9924	13.5023	2.6762	-1.5448	0.286	-1.9271	1.1687	-1.2526
-1.3055	-2.5363	0.258	-0.603	-1.837	0.4227	-0.1678	-3.8232	-2.1571	-0.8983	-5.3742	-5.511	-3.3414	2.0577	13.6204	2.7384	-1.6785	0.3015	-1.9333	1.2371	-1.321
-1.2495	-2.4773	0.2891	-0.5564	-1.8743	0.3916	-0.1523	-3.8884	-2.238	-0.9232	-5.4519	-5.6726	-3.3694	2.1012	13.7634	2.7788	-1.7717	0.3077	-1.9458	1.2557	-1.3707
-1.2091	-2.3996	0.3388	-0.4787	-1.8463	0.3512	-0.1057	-3.9506	-2.3094	-0.9356	-5.5669	-5.769	-3.4098	2.1634	13.9344	2.8285	-1.8774	0.3512	-1.9582	1.3086	-1.4453
-1.1563	-2.3467	0.3543	-0.46	-1.8929	0.3108	-0.1212	-4.0283	-2.4027	-1.0009	-5.6912	-5.9181	-3.4471	2.1851	14.0836	2.8596	-1.9396	0.3357	-1.9675	1.3241	-1.5293
-1.1034	-2.2753	0.401	-0.3948	-1.8805	0.2891	-0.1243	-4.0812	-2.4804	-1.0071	-5.7721	-6.0487	-3.4719	2.2286	14.2639	2.8907	-2.0328	0.3637	-1.9427	1.3739	-1.5883
-1.0506	-2.1851	0.4383	-0.3108	-1.8805	0.2704	-0.0901	-4.1278	-2.5488	-1.0133	-5.856	-6.1792	-3.4875	2.2659	14.4721	2.9435	-2.1136	0.3823	-1.9271	1.4267	-1.6474
-1.004	-2.1727	0.4383	-0.2487	-1.8805	0.2207	-0.0808	-4.2117	-2.6762	-1.0382	-5.9741	-6.3347	-3.5155	2.2815	14.6928	2.9435	-2.1758	0.3916	-1.9085	1.464	-1.694
-0.9636	-2.1012	0.4911	-0.1927	-1.9054	0.1461	-0.0746	-4.2863	-2.7881	-1.0817	-6.0891	-6.5243	-3.5901	2.297	14.8886	2.9964	-2.2193	0.3699	-1.8805	1.4951	-1.7748
-0.9387	-2.067	0.4445	-0.1399	-1.9302	0.0932	-0.0995	-4.3547	-2.8938	-1.119	-6.2134	-6.689	-3.6491	2.3126	15.1031	3.0181	-2.2504	0.3512	-1.8525	1.5137	-1.8152
-0.8983	-2.0359	0.4756	-0.0995	-1.9706	0.0186	-0.0964	-4.4417	-3.0275	-1.1625	-6.3315	-6.8351	-3.6957	2.3312	15.358	3.0368	-2.2846	0.3637	-1.8246	1.5635	-1.8556
-0.8703	-2.0017	0.46	-0.0777	-2.0111	-0.0591	-0.1057	-4.5225	-3.1673	-1.2216	-6.4776	-7.0496	-3.7921	2.3499	15.6004	3.0275	-2.2846	0.3233	-1.7904	1.6039	-1.9085
-0.8486	-1.9924	0.4383	-0.0342	-2.0484	-0.1554	-0.1461	-4.6096	-3.3476	-1.2899	-6.5989	-7.2578	-3.8511	2.3374	15.8522	3.015	-2.2846	0.2891	-1.75	1.6008	-1.9489
-0.8454	-1.9924	0.4165	0.0249	-2.1229	-0.2518	-0.171	-4.709	-3.4906	-1.3428	-6.7108	-7.4661	-3.9755	2.3312	16.1008	2.9715	-2.2473	0.2704	-1.7064	1.6287	-1.9831
-0.8144	-2.039	0.3606	0.0435	-2.2038	-0.4041	-0.2145	-4.8147	-3.6647	-1.4516	-6.8475	-7.6774	-4.0656	2.3219	16.3433	2.9529	-2.2007	0.2114	-1.6971	1.6785	-2.0266
-0.8206	-2.0546	0.2984	0.0559	-2.269	-0.5253	-0.2797	-4.9049	-3.8636	-1.5293	-6.9563	-7.9012	-4.1433	2.2846	16.6044	2.8845	-2.1447	0.1678	-1.6847	1.7095	-2.0639
-0.8517	-2.1105	0.2518	0.0591	-2.3809	-0.6683	-0.3419	-5.0136	-4.0501	-1.6381	-7.1024	-8.1188	-4.249	2.2504	16.8499	2.8037	-2.067	0.0964	-1.6536	1.7158	-2.1167
-0.8517	-2.182	0.1678	0.0653	-2.5022	-0.8113	-0.4445	-5.1286	-4.2677	-1.722	-7.2454	-8.355	-4.3889	2.2193	17.1235	2.7104	-1.9738	0.0311	-1.6381	1.7251	-2.1354
-0.8703	-2.2566	0.0653	0.0435	-2.5923	-1.0009	-0.5191	-5.2374	-4.4573	-1.8277	-7.3697	-8.585	-4.5132	2.1727	17.3752	2.6234	-1.8898	-0.0249	-1.6318	1.7033	-2.1696
-0.9076	-2.325	-0.0186	0.0031	-2.7228	-1.1811	-0.5968	-5.3587	-4.7152	-1.9427	-7.4785	-8.8151	-4.6313	2.1074	17.6146	2.5457	-1.7779	-0.1181	-1.607	1.6629	-2.2162
-0.9014	-2.4462	-0.1492	-0.0218	-2.8534	-1.3894	-0.7056	-5.4954	-4.9235	-2.0763	-7.6122	-9.042	-4.765	2.0577	17.8601	2.4555	-1.6723	-0.1865	-1.6132	1.6287	-2.2442
-0.9667	-2.5581	-0.2704	-0.0839	-3.0088	-1.5977	-0.833	-5.6011	-5.1318	-2.2131	-7.7241	-9.2564	-4.8769	1.9769	18.1119	2.3623	-1.5417	-0.2953	-1.5977	1.5541	-2.2597
-0.9884	-2.6669	-0.3854	-0.1368	-3.1487	-1.8028	-0.9387	-5.7348	-5.3773	-2.3436	-7.8546	-9.4678	-4.9795	1.9116	18.3202	2.3032	-1.4049	-0.3854	-1.5759	1.4702	-2.2784
-1.0568	-2.7974	-0.5439	-0.2393	-3.3227	-2.0484	-1.0972	-5.8809	-5.6353	-2.5053	-7.951	-9.7133	-5.11	1.8494	18.5191	2.2473	-1.2557	-0.4787	-1.5945	1.3707	-2.3063
-1.1252	-2.987	-0.7273	-0.3357	-3.4906	-2.3001	-1.262	-6.0207	-5.8653	-2.6607	-8.0877	-9.9247	-5.2654	1.7406	18.7273	2.154	-1.0817	-0.5937	-1.5697	1.1998	-2.3126
-1.1843	-3.1052	-0.8765	-0.4383	-3.6584	-2.5488	-1.436	-6.1419	-6.1233	-2.8068	-8.1779	-10.1236	-5.3835	1.6629	18.9107	2.0919	-0.9294	-0.7025	-1.551	1.0879	-2.2939
-1.2806	-3.2823	-1.091	-0.5626	-3.848	-2.8068	-1.6039	-6.3129	-6.3968	-3.0057	-8.2929	-10.3537	-5.5265	1.5666	19.0568	2.0142	-0.7367	-0.805	-1.551	0.9542	-2.3001
-1.3552	-3.4346	-1.262	-0.6963	-4.0345	-3.0896	-1.7997	-6.431	-6.6362	-3.1891	-8.3675	-10.5619	-5.6695	1.4858	19.2247	2.0017	-0.5626	-0.9449	-1.5386	0.8423	-2.3094
-1.4205	-3.6274	-1.4485	-0.8548	-4.2272	-3.3445	-2.0017	-6.5709	-6.86	-3.3694	-8.4638	-10.7702	-5.7969	1.3925	19.349	1.9116	-0.373	-1.0413	-1.5293	0.7304	-2.2753
-1.5324	-3.7672	-1.6318	-1.0164	-4.4448	-3.5932	-2.1975	-6.7232	-7.1242	-3.5559	-8.5571	-10.9722	-5.9026	1.2899	19.4609	1.8339	-0.1865	-1.1625	-1.5386	0.6061	-2.2753
-1.6256	-3.9693	-1.8494	-1.1905	-4.6469	-3.8729	-2.44	-6.9035	-7.3821	-3.7579	-8.6441	-11.1836	-6.0456	1.1874	19.5635	1.7686	0.0124	-1.2775	-1.551	0.4973	-2.2628
-1.7251	-4.1433	-2.039	-1.3739	-4.8271	-4.106	-2.6327	-7.034	-7.578	-3.9257	-8.7001	-11.3359	-6.1575	1.1097	19.6878	1.6536	0.1989	-1.3801	-1.5541	0.3792	-2.2193
-1.8183	-4.336	-2.2348	-1.5852	-5.0168	-4.3547	-2.8379	-7.1832	-7.808	-4.1122	-8.7809	-11.5317	-6.2632	1.0102	19.781	1.5759	0.3979	-1.4858	-1.5759	0.2829	-2.2007
-1.9054	-4.4977	-2.4089	-1.7655	-5.1784	-4.5629	-3.0212	-7.2827	-7.9976	-4.2645	-8.8244	-11.6312	-6.344	0.92	19.9085	1.5013	0.5626	-1.5604	-1.5697	0.1896	-2.1478
-2.0421	-4.709	-2.6047	-1.9396	-5.4177	-4.8023	-3.245	-7.4319	-8.1841	-4.4386	-8.8741	-11.7804	-6.4403	0.8268	20.0546	1.3925	0.7398	-1.6505	-1.5945	0.0715	-2.1198
-2.1136	-4.8427	-2.757	-2.1043	-5.5483	-4.9608	-3.4036	-7.5345	-8.3457	-4.5505	-8.8679	-11.8674	-6.4807	0.7709	20.154	1.3241	0.8579	-1.7002	-1.5914	-0.0311	-2.0515
-2.2162	-4.995	-2.9093	-2.3001	-5.7037	-5.1473	-3.5528	-7.6277	-8.4763	-4.6748	-8.8834	-11.9451	-6.5398	0.7056	20.2939	1.2247	0.9978	-1.7748	-1.5945	-0.1523	-2.0017
-2.2908	-5.1566	-3.0523	-2.4338	-5.8467	-5.2841	-3.7175	-7.6743	-8.5664	-4.7867	-8.8803	-12.0073	-6.5864	0.6248	20.4369	1.1407	1.119	-1.837	-1.5821	-0.2456	-1.9209
-2.3592	-5.281	-3.1518	-2.6016	-5.9679	-5.4426	-3.8605	-7.7303	-8.6596	-4.8862	-8.8586	-12.0601	-6.6206	0.5812	20.5426	1.1065	1.2371	-1.896	-1.5635	-0.3543	-1.8183
-2.4431	-5.4302	-3.2917	-2.7353	-6.0767	-5.5731	-3.9972	-7.8173	-8.7684	-5.0012	-8.8399	-12.1067	-6.6517	0.5191	20.67	1.0071	1.3428	-1.9489	-1.5697	-0.4258	-1.7158
-2.5395	-5.5638	-3.416	-2.9031	-6.2072	-5.7161	-4.1122	-7.8515	-8.8275	-5.0851	-8.8337	-12.144	-6.6735	0.4693	20.7881	0.9667	1.436	-1.9582	-1.5355	-0.5222	-1.6412
-2.6047	-5.6881	-3.5155	-3.0337	-6.2911	-5.7814	-4.2148	-7.8608	-8.8803	-5.138	-8.784	-12.1378	-6.7045	0.4258	20.8907	0.9107	1.5137	-2.0266	-1.5386	-0.6123	-1.5604
-2.6762	-5.8094	-3.6242	-3.1549	-6.3937	-5.8964	-4.3764	-7.9106	-8.9394	-5.2157	-8.7529	-12.144	-6.6952	0.401	20.9964	0.8641	1.5914	-2.0608	-1.5324	-0.6869	-1.4516
-2.7819	-5.915	-3.7175	-3.301	-6.4994	-5.999	-4.479	-7.9541	-8.9984	-5.2685	-8.7187	-12.1285	-6.7232	0.3512	21.0772	0.8019	1.6878	-2.1012	-1.5355	-0.7988	-1.3614
-2.841	-6.0363	-3.8107	-3.4377	-6.5926	-6.086	-4.5598	-7.9727	-9.0171	-5.3431	-8.6721	-12.1254	-6.7201	0.3202	21.1549	0.7677	1.7624	-2.1509	-1.5448	-0.9107	-1.262
-2.9249	-6.1668	-3.9071	-3.5559	-6.6983	-6.173	-4.6811	-7.9945	-9.042	-5.4239	-8.6317	-12.1254	-6.7263	0.2829	21.2388	0.7398	1.8339	-2.1758	-1.5448	-1.0195	-1.1998
-2.9995	-6.3005	-4.0221	-3.6895	-6.7791	-6.2601	-4.7681	-8.0193	-9.101	-5.483	-8.6192	-12.1254	-6.7449	0.258	21.3352	0.6745	1.9023	-2.2162	-1.5541	-1.147	-1.1097
-3.0834	-6.3937	-4.1247	-3.817	-6.8693	-6.3315	-4.8613	-8.0504	-9.1197	-5.5483	-8.5788	-12.0943	-6.7636	0.2331	21.3756	0.6652	1.9365	-2.2566	-1.551	-1.2961	-1.0195
-3.1642	-6.5056	-4.1993	-3.9568	-6.975	-6.4434	-4.9577	-8.0939	-9.1663	-5.6291	-8.554	-12.0787	-6.7698	0.2145	21.444	0.6527	1.9862	-2.3188	-1.5635	-1.436	-0.9263
-3.2388	-6.6268	-4.305	-4.1091	-7.062	-6.5149	-5.0665	-8.1033	-9.1818	-5.6819	-8.5167	-12.057	-6.7791	0.2114	21.5248	0.6496	2.0079	-2.3716	-1.5635	-1.5572	-0.8641
-3.3041	-6.7201	-4.392	-4.2397	-7.1521	-6.5709	-5.1722	-8.1033	-9.1974	-5.7596	-8.4731	-12.0321	-6.8289	0.1989	21.5621	0.6527	2.0142	-2.4058	-1.5759	-1.6847	-0.7491
-3.3973	-6.8195	-4.479	-4.3764	-7.2081	-6.6548	-5.2841	-8.1375	-9.2471	-5.8342	-8.4421	-11.9979	-6.8382	0.202	21.6398	0.6714	2.0204	-2.4462	-1.5759	-1.8183	-0.6714
