"FZ"	"FC3"	"FCZ"	"FC4"	"C3"	"CZ"	"C4"	"CP3"	"CPZ"	"CP4"	"P3"	"PZ"	"P4"	"OZ"	"FP1"	"FP2"	"A2"	"P8"	"TP7"	"TP8"	"P7"	"VEOG"	"HEOG"
-0.2951	-0.0081	-0.3005	-0.314	0.268	0.1516	-0.4548	0.8095	0.5766	-0.1787	1.0504	0.7959	-0.1597	2.0277	-0.1056	-0.4467	0.444	-0.3574	0.4711	-0.203	0.7282	1.0964	-0.5631
-0.1895	0.0948	-0.1327	-0.1651	0.3953	0.3276	-0.3059	0.9204	0.7445	-0.0027	1.1451	0.9259	-0.0108	2.6179	-0.0325	-0.3682	0.4115	-0.1976	0.5604	-0.1408	0.7986	1.1208	-0.4629
-0.0569	0.1895	0.0325	-0.0108	0.5117	0.49	-0.1597	1.0179	0.9204	0.176	1.2345	1.0531	0.1516	2.2199	0.0406	-0.287	0.3763	-0.1002	0.6308	-0.019	0.8338	1.1722	-0.3411
0.0812	0.3167	0.1922	0.1327	0.6281	0.6227	-0.019	1.1316	1.0802	0.3059	1.3049	1.1587	0.2788	0.8474	0.1029	-0.1733	0.333	0.0162	0.7066	0.1272	0.8555	1.202	-0.2166
0.2003	0.4386	0.3601	0.2734	0.7309	0.7959	0.1245	1.2318	1.2182	0.4548	1.4077	1.2697	0.4332	-1.2995	0.203	-0.0975	0.2599	0.1137	0.7228	0.2734	0.8771	1.2291	-0.0839
0.3411	0.5604	0.5144	0.4196	0.8528	0.9611	0.2572	1.3401	1.3888	0.5929	1.4727	1.3915	0.5496	-3.8551	0.2843	0.0271	0.1624	0.1922	0.7634	0.4413	0.888	1.2426	0.0569
0.4711	0.6308	0.6524	0.5225	0.9286	1.0802	0.3736	1.4375	1.5079	0.6985	1.5242	1.4592	0.6551	-6.4459	0.3709	0.1029	0.0731	0.2545	0.8013	0.5956	0.9123	1.2697	0.2057
0.5658	0.7255	0.7797	0.6362	1.0044	1.1993	0.4765	1.4863	1.6162	0.8013	1.5783	1.5756	0.7661	-8.6197	0.4223	0.2085	-0.0217	0.2843	0.804	0.7472	0.9069	1.2697	0.333
0.6524	0.7851	0.9042	0.7743	1.0721	1.294	0.5929	1.5431	1.7055	0.9123	1.627	1.6406	0.8907	-10.0627	0.4846	0.3276	-0.1164	0.3546	0.804	0.8771	0.8798	1.2507	0.4494
0.7282	0.8609	0.9963	0.8636	1.1451	1.3807	0.7228	1.6027	1.7949	1.0152	1.6514	1.7001	0.9719	-10.504	0.5252	0.398	-0.2057	0.4007	0.804	1.0179	0.8582	1.2264	0.5469
0.7986	0.9177	1.0666	0.9394	1.1993	1.4565	0.823	1.6216	1.8788	1.1072	1.6649	1.7678	1.0693	-9.9002	0.555	0.49	-0.2815	0.4467	0.7986	1.0639	0.8365	1.1993	0.6145
0.869	0.9827	1.1587	1.0612	1.2697	1.5323	0.9313	1.6622	1.9411	1.2345	1.6893	1.8219	1.1885	-8.3274	0.5956	0.5766	-0.3438	0.49	0.7797	1.1506	0.8176	1.1506	0.6741
0.8988	1.0504	1.2426	1.1587	1.3265	1.6189	1.0342	1.6974	2.0223	1.3428	1.711	1.9005	1.3238	-5.9667	0.6172	0.6199	-0.398	0.5658	0.7932	1.1668	0.823	1.0991	0.7282
0.9286	1.1154	1.2859	1.2264	1.3807	1.6649	1.1641	1.7137	2.0385	1.4511	1.7164	1.9519	1.4348	-3.1918	0.6254	0.6795	-0.4169	0.6633	0.8176	1.1668	0.7986	1.0558	0.7499
0.9854	1.183	1.3509	1.3022	1.4429	1.7191	1.2778	1.7543	2.1035	1.5702	1.7434	2.0142	1.535	-0.3032	0.6254	0.7309	-0.4359	0.7499	0.8338	1.1641	0.777	1.0098	0.7661
0.9963	1.2182	1.3915	1.3509	1.4673	1.7434	1.3455	1.7543	2.1252	1.6649	1.7326	2.0439	1.6189	2.3011	0.6091	0.7337	-0.4277	0.8257	0.8311	1.11	0.7716	0.9719	0.7824
1.0396	1.2724	1.4348	1.405	1.516	1.7922	1.4348	1.784	2.1576	1.7597	1.7407	2.0927	1.7137	4.3099	0.6064	0.7499	-0.4169	0.915	0.8122	1.0721	0.7716	0.9259	0.7661
1.0369	1.2913	1.4456	1.4267	1.5566	1.8219	1.4971	1.7786	2.1793	1.803	1.7299	2.1252	1.7732	5.4631	0.5712	0.7418	-0.3953	0.9854	0.7986	1.0071	0.758	0.8961	0.7553
1.0314	1.3076	1.4538	1.4402	1.5593	1.8138	1.535	1.7543	2.1685	1.8436	1.7245	2.136	1.8003	5.6012	0.5198	0.6958	-0.3492	1.026	0.7661	0.934	0.7309	0.8798	0.7282
1.026	1.3265	1.4511	1.4456	1.5837	1.7949	1.5864	1.7543	2.1685	1.8761	1.7164	2.1387	1.8707	4.7024	0.4629	0.647	-0.3249	1.1072	0.7364	0.8717	0.6985	0.8446	0.6849
0.9719	1.3076	1.3969	1.4132	1.5702	1.7786	1.6162	1.7137	2.1306	1.868	1.6839	2.1387	1.8896	2.8399	0.3817	0.5929	-0.3086	1.1451	0.7066	0.8013	0.7012	0.8311	0.647
0.9367	1.2534	1.3644	1.3617	1.5485	1.7434	1.6054	1.7055	2.0981	1.8707	1.6568	2.117	1.8788	0.287	0.3249	0.5062	-0.2924	1.1939	0.6741	0.7688	0.6768	0.7986	0.6091
0.8934	1.1749	1.2913	1.2995	1.5106	1.6839	1.5621	1.646	2.025	1.784	1.5918	2.0629	1.8544	-2.5989	0.2409	0.4088	-0.287	1.202	0.6524	0.7499	0.6308	0.7716	0.5685
0.804	1.1018	1.2155	1.202	1.4348	1.5945	1.489	1.5783	1.9411	1.7028	1.516	1.9817	1.8165	-5.3603	0.1678	0.3032	-0.3005	1.1966	0.6037	0.7418	0.5956	0.7282	0.5252
0.7445	1.0369	1.1587	1.0937	1.3644	1.5377	1.3996	1.5079	1.8571	1.6027	1.4348	1.9113	1.7434	-7.61	0.0758	0.2057	-0.3195	1.1641	0.582	0.7499	0.5577	0.6876	0.4927
0.6416	0.9529	1.0531	0.98	1.2805	1.4565	1.2886	1.4294	1.7543	1.4781	1.3644	1.8165	1.6541	-9.0475	0.0298	0.1218	-0.3465	1.1127	0.582	0.7364	0.5387	0.6308	0.4413
0.5793	0.888	0.9611	0.8528	1.2155	1.3671	1.156	1.3563	1.6379	1.3319	1.2751	1.7055	1.5323	-9.4346	-0.0271	0.0081	-0.3953	1.045	0.582	0.7201	0.5144	0.5739	0.3871
0.4792	0.7986	0.8798	0.7228	1.1397	1.2832	1.0098	1.2643	1.5025	1.1722	1.1722	1.6027	1.4105	-8.812	-0.0839	-0.0839	-0.4304	0.9719	0.5793	0.6822	0.4765	0.5144	0.3303
0.3655	0.758	0.7824	0.5929	1.0721	1.1939	0.869	1.1966	1.3915	1.0071	1.1045	1.489	1.2886	-7.2526	-0.1137	-0.1733	-0.4656	0.8555	0.5983	0.6335	0.4521	0.4819	0.2707
0.314	0.7228	0.6768	0.4467	0.999	1.1045	0.6768	1.1018	1.2534	0.8257	1.0044	1.3753	1.1424	-5.0489	-0.1489	-0.2328	-0.5008	0.7526	0.6254	0.5739	0.4359	0.4332	0.1841
0.2274	0.6876	0.5983	0.314	0.9421	1.0071	0.5198	1.0179	1.1397	0.6741	0.9421	1.2589	1.0098	-2.4581	-0.1949	-0.3249	-0.5387	0.6524	0.6551	0.536	0.4629	0.4034	0.1435
0.1516	0.6254	0.5333	0.2057	0.8771	0.9313	0.3844	0.9204	1.0206	0.4927	0.8555	1.156	0.8934	0.1624	-0.2328	-0.4142	-0.5658	0.5523	0.6687	0.4738	0.444	0.3763	0.0839
0.1029	0.5631	0.4494	0.065	0.8067	0.8365	0.2057	0.8446	0.8853	0.3167	0.7661	1.0017	0.7309	2.4419	-0.2734	-0.4683	-0.601	0.4223	0.6606	0.4142	0.425	0.3682	0.0244
0.046	0.5062	0.4007	-0.0541	0.7364	0.7607	0.046	0.7445	0.7797	0.157	0.6768	0.8798	0.6037	4.0662	-0.3005	-0.5414	-0.6362	0.3222	0.647	0.379	0.4196	0.3655	-0.0298
0.0027	0.444	0.3276	-0.157	0.6687	0.6849	-0.0623	0.6795	0.6633	-0.0081	0.582	0.7445	0.4629	4.808	-0.3384	-0.5766	-0.666	0.2301	0.6172	0.333	0.3898	0.3682	-0.1029
-0.0487	0.3655	0.2788	-0.2707	0.6091	0.601	-0.2193	0.5902	0.5414	-0.1408	0.49	0.6064	0.287	4.5346	-0.3871	-0.6524	-0.7228	0.1489	0.5685	0.2924	0.3817	0.3953	-0.1678
-0.0677	0.3167	0.2247	-0.3519	0.5252	0.5198	-0.3411	0.5035	0.4386	-0.2951	0.4142	0.4738	0.1381	3.2026	-0.4359	-0.7093	-0.7824	0.0569	0.4873	0.2328	0.3411	0.4277	-0.2274
-0.157	0.2274	0.1489	-0.4656	0.4467	0.4196	-0.4467	0.3925	0.2924	-0.4332	0.3086	0.3195	0.0054	0.9854	-0.5117	-0.7932	-0.8284	-0.0108	0.3763	0.1922	0.2788	0.4765	-0.2788
-0.1868	0.1624	0.0948	-0.5144	0.3763	0.3519	-0.5496	0.3195	0.1733	-0.5766	0.2085	0.1624	-0.1218	-1.8192	-0.5496	-0.8338	-0.9069	-0.046	0.2707	0.1624	0.2464	0.5171	-0.3113
-0.2139	0.0948	0.0298	-0.5631	0.3113	0.2815	-0.6199	0.2491	0.0541	-0.6551	0.1164	0.0325	-0.2382	-4.808	-0.6172	-0.888	-0.98	-0.0785	0.1706	0.1056	0.2112	0.5685	-0.3519
-0.2518	0.0135	0.0081	-0.6199	0.2436	0.1787	-0.7012	0.1408	-0.0677	-0.7472	0.0162	-0.1056	-0.3492	-7.5477	-0.6524	-0.8988	-1.0233	-0.1056	0.0244	0.0569	0.1489	0.5983	-0.3574
-0.268	-0.0406	-0.0433	-0.6389	0.1787	0.1002	-0.7661	0.0704	-0.176	-0.8528	-0.0975	-0.2409	-0.4521	-9.6295	-0.6876	-0.9286	-1.0693	-0.1299	-0.1083	-0.0135	0.1164	0.6118	-0.3682
-0.3005	-0.0893	-0.0758	-0.6389	0.1137	0.0325	-0.7959	-0.0217	-0.2951	-0.8988	-0.1922	-0.3682	-0.5306	-10.8153	-0.7147	-0.9232	-1.0748	-0.1489	-0.2382	-0.0948	0.0487	0.6118	-0.3871
-0.3303	-0.1462	-0.1002	-0.666	0.046	-0.0379	-0.8095	-0.0975	-0.398	-0.9611	-0.2924	-0.49	-0.6281	-10.9371	-0.7282	-0.8961	-1.0639	-0.1949	-0.333	-0.2328	-0.0027	0.5956	-0.3709
-0.3384	-0.1868	-0.1651	-0.6741	-0.0379	-0.1191	-0.823	-0.1787	-0.4927	-1.0044	-0.3438	-0.5766	-0.7093	-10.0437	-0.7228	-0.8609	-1.0287	-0.2464	-0.4196	-0.3655	-0.0514	0.5712	-0.3898
-0.333	-0.1706	-0.1543	-0.6579	-0.0569	-0.1733	-0.8176	-0.2491	-0.5848	-1.026	-0.4034	-0.6768	-0.7716	-8.2732	-0.7066	-0.8122	-0.9638	-0.2734	-0.4738	-0.5035	-0.0677	0.5414	-0.3953
-0.333	-0.176	-0.1516	-0.6416	-0.0948	-0.2085	-0.8149	-0.287	-0.666	-1.0071	-0.4359	-0.7418	-0.7851	-5.9477	-0.6714	-0.7499	-0.8988	-0.3195	-0.49	-0.6199	-0.0812	0.4846	-0.4115
-0.3303	-0.1787	-0.1733	-0.601	-0.1083	-0.2274	-0.7905	-0.3005	-0.7093	-0.98	-0.4602	-0.7688	-0.8203	-3.3759	-0.6281	-0.6551	-0.7986	-0.3628	-0.4711	-0.7174	-0.0596	0.4277	-0.4223
-0.3005	-0.1733	-0.1706	-0.5631	-0.111	-0.2734	-0.7499	-0.3546	-0.7688	-0.9746	-0.4765	-0.8311	-0.8284	-0.8825	-0.5577	-0.5333	-0.6768	-0.4034	-0.4521	-0.8311	-0.0271	0.3628	-0.4467
-0.268	-0.157	-0.1706	-0.536	-0.1272	-0.2924	-0.7201	-0.3601	-0.7986	-0.9421	-0.4792	-0.8365	-0.8419	1.183	-0.4981	-0.4413	-0.5225	-0.444	-0.4169	-0.9015	0.0217	0.3113	-0.4575
-0.203	-0.111	-0.1381	-0.4792	-0.1002	-0.2978	-0.6606	-0.3465	-0.8284	-0.8744	-0.4629	-0.8798	-0.8419	2.5583	-0.3871	-0.3113	-0.4007	-0.4548	-0.3628	-0.9232	0.0812	0.2436	-0.4765
-0.1543	-0.0948	-0.1083	-0.4413	-0.111	-0.3249	-0.6145	-0.3411	-0.8528	-0.823	-0.4467	-0.8771	-0.7986	3.0537	-0.314	-0.203	-0.2491	-0.4954	-0.3005	-0.9448	0.1164	0.2003	-0.5008
-0.0948	-0.0623	-0.111	-0.3871	-0.1002	-0.3276	-0.555	-0.3357	-0.8582	-0.758	-0.4332	-0.888	-0.7797	2.5448	-0.2166	-0.1002	-0.1002	-0.4792	-0.2626	-0.9394	0.1651	0.1651	-0.49
-0.0406	-0.0704	-0.0758	-0.3222	-0.111	-0.333	-0.4683	-0.333	-0.8744	-0.6795	-0.4034	-0.8663	-0.7201	1.1018	-0.1245	-0.0325	0.046	-0.4927	-0.203	-0.8825	0.2057	0.1218	-0.49
0.0325	-0.0271	-0.0514	-0.2193	-0.1029	-0.3519	-0.3871	-0.3357	-0.8825	-0.6118	-0.3844	-0.8609	-0.6687	-1.1262	-0.0514	0.0704	0.1976	-0.4548	-0.1543	-0.8609	0.2193	0.0866	-0.4602
0.1029	0.019	-0.0162	-0.1245	-0.0839	-0.3249	-0.287	-0.3167	-0.869	-0.5062	-0.3276	-0.8311	-0.601	-3.7982	0.0569	0.1597	0.2978	-0.379	-0.1299	-0.8149	0.2491	0.0433	-0.4683
0.1218	0.0217	-0.0298	-0.0569	-0.1191	-0.3519	-0.2247	-0.3276	-0.8663	-0.4277	-0.3465	-0.8176	-0.536	-6.5352	0.1083	0.2112	0.4196	-0.3519	-0.1164	-0.8365	0.2734	0.0217	-0.4602
0.157	0.0433	-0.019	-0.0054	-0.1164	-0.3628	-0.1435	-0.3222	-0.8528	-0.3303	-0.3276	-0.7959	-0.4629	-8.8553	0.1841	0.2653	0.5333	-0.2599	-0.0839	-0.8609	0.2788	-0.0162	-0.4413
0.1706	0.0379	-0.0379	0.0298	-0.1489	-0.3817	-0.0677	-0.3384	-0.869	-0.2626	-0.3195	-0.777	-0.398	-10.4579	0.2274	0.287	0.6389	-0.1706	-0.0677	-0.8853	0.2897	-0.0731	-0.4196
0.1651	0.0135	-0.0758	0.0758	-0.1678	-0.4034	-0.0217	-0.3953	-0.8825	-0.1922	-0.3086	-0.7661	-0.3195	-11.1158	0.2843	0.3086	0.758	-0.1029	-0.046	-0.9313	0.2761	-0.1381	-0.4115
0.1543	0	-0.0975	0.0866	-0.1976	-0.4359	0.0298	-0.398	-0.8934	-0.1299	-0.314	-0.7472	-0.2545	-10.6908	0.3222	0.3384	0.8609	-0.0108	-0.0108	-0.9692	0.2653	-0.2166	-0.425
0.1137	-0.0406	-0.1651	0.0596	-0.2626	-0.4819	0.0487	-0.4683	-0.9096	-0.1056	-0.333	-0.7634	-0.2436	-9.3047	0.3844	0.333	0.9854	0.0433	0.019	-0.9556	0.2464	-0.3059	-0.4223
0.0839	-0.092	-0.1976	0.0379	-0.314	-0.5279	0.046	-0.5144	-0.9475	-0.065	-0.3763	-0.7716	-0.1976	-7.1741	0.4332	0.3844	1.0693	0.0839	0.0596	-0.9069	0.2139	-0.4115	-0.4277
0.019	-0.1651	-0.2761	0.0054	-0.398	-0.5848	0.0217	-0.5712	-0.9773	-0.0948	-0.4332	-0.8122	-0.2166	-4.5995	0.4575	0.3574	1.1803	0.1083	0.0623	-0.8798	0.1814	-0.5171	-0.4467
-0.0352	-0.2464	-0.3438	-0.0677	-0.4792	-0.6606	-0.0379	-0.6335	-0.9963	-0.1056	-0.4656	-0.8365	-0.2355	-1.8869	0.4792	0.3628	1.2561	0.0812	0.1056	-0.8067	0.1408	-0.6064	-0.4548
-0.111	-0.3438	-0.4629	-0.1651	-0.5712	-0.7499	-0.1381	-0.7093	-1.0558	-0.176	-0.5387	-0.8907	-0.2761	0.5387	0.4656	0.3113	1.3374	0.0406	0.1272	-0.7364	0.092	-0.6903	-0.4061
-0.1733	-0.444	-0.5252	-0.2572	-0.6551	-0.8338	-0.2003	-0.7634	-1.1045	-0.2139	-0.5902	-0.9204	-0.2951	2.4581	0.4548	0.287	1.3861	0.019	0.1381	-0.6118	0.0162	-0.7634	-0.3628
-0.2328	-0.5198	-0.6308	-0.3465	-0.7364	-0.915	-0.3059	-0.8311	-1.1397	-0.2707	-0.6227	-0.9529	-0.3438	3.5843	0.4169	0.2193	1.4105	-0.0433	0.1245	-0.5225	-0.0298	-0.804	-0.3059
-0.2897	-0.5685	-0.6958	-0.4494	-0.7905	-0.9584	-0.3871	-0.8663	-1.1641	-0.3465	-0.6876	-1.0017	-0.398	3.7089	0.398	0.2085	1.3915	-0.1056	0.1272	-0.4602	-0.092	-0.8365	-0.2518
-0.3492	-0.647	-0.7743	-0.5333	-0.823	-1.0423	-0.4954	-0.9367	-1.2155	-0.4061	-0.7418	-1.0531	-0.4711	2.8128	0.3628	0.1272	1.3969	-0.1597	0.0758	-0.4061	-0.1787	-0.888	-0.1976
-0.4061	-0.693	-0.8338	-0.6064	-0.8825	-1.1181	-0.5766	-0.9773	-1.248	-0.4711	-0.7986	-1.0883	-0.4981	0.9935	0.3032	0.1056	1.3482	-0.2409	0.0569	-0.3871	-0.2545	-0.9123	-0.1489
-0.4277	-0.7418	-0.8744	-0.6579	-0.9232	-1.1695	-0.6145	-1.0287	-1.2589	-0.4981	-0.8663	-1.1181	-0.5604	-1.5187	0.268	0.0812	1.248	-0.3113	0.0379	-0.3519	-0.3195	-0.9286	-0.0731
-0.5008	-0.7905	-0.9556	-0.7282	-0.9746	-1.1993	-0.6633	-1.0748	-1.294	-0.5523	-0.9313	-1.1587	-0.6145	-4.3559	0.1976	0.0244	1.1803	-0.398	-0.0081	-0.3167	-0.4115	-0.9286	-0.0271
-0.5279	-0.8365	-1.0044	-0.7634	-1.0098	-1.2507	-0.7391	-1.1181	-1.3238	-0.5848	-1.0071	-1.2182	-0.6551	-7.0848	0.1516	0.0054	1.0721	-0.4656	-0.065	-0.3276	-0.4792	-0.9448	0.0325
-0.5685	-0.8798	-1.0612	-0.8257	-1.0883	-1.3022	-0.8013	-1.1966	-1.3509	-0.6362	-1.0856	-1.2724	-0.7174	-9.3371	0.0677	-0.0569	0.9773	-0.5604	-0.1543	-0.2978	-0.5875	-0.9421	0.0812
-0.6145	-0.9259	-1.0964	-0.8907	-1.1127	-1.359	-0.8501	-1.2318	-1.3834	-0.6714	-1.1424	-1.3076	-0.7851	-10.7422	0.019	-0.0758	0.8609	-0.6497	-0.2193	-0.2761	-0.6903	-0.9529	0.111
-0.6795	-0.9746	-1.1506	-0.9529	-1.183	-1.3996	-0.8988	-1.3022	-1.4321	-0.7391	-1.2426	-1.3888	-0.8338	-11.1564	-0.0731	-0.1056	0.7553	-0.7201	-0.3086	-0.2409	-0.7905	-0.9719	0.1327
-0.7228	-0.999	-1.1668	-0.9854	-1.2101	-1.4186	-0.9286	-1.3428	-1.4321	-0.7959	-1.3049	-1.4348	-0.8798	-10.531	-0.1083	-0.111	0.6443	-0.7634	-0.379	-0.1814	-0.869	-1.0017	0.1543
-0.7445	-1.0071	-1.1722	-0.9963	-1.2426	-1.4321	-0.9367	-1.3888	-1.4565	-0.8338	-1.3753	-1.4646	-0.915	-9.0448	-0.1543	-0.1056	0.5306	-0.8013	-0.4548	-0.1002	-0.9584	-1.026	0.1543
-0.7553	-1.0233	-1.1993	-1.0369	-1.2724	-1.4727	-0.9638	-1.4538	-1.4673	-0.8419	-1.4294	-1.4808	-0.9584	-6.898	-0.2355	-0.1191	0.4088	-0.8149	-0.5279	-0.046	-1.0504	-1.0287	0.1462
-0.7878	-1.0342	-1.183	-1.045	-1.3076	-1.4592	-0.9638	-1.4673	-1.4727	-0.8717	-1.489	-1.489	-1.0044	-4.3965	-0.268	-0.1056	0.3005	-0.8149	-0.5793	0.0244	-1.1045	-1.0504	0.1137
-0.7905	-1.0423	-1.1912	-1.0721	-1.3265	-1.4781	-0.98	-1.5133	-1.4808	-0.888	-1.5485	-1.5079	-1.0504	-1.8734	-0.333	-0.1191	0.1787	-0.8013	-0.6606	0.0839	-1.1749	-1.0423	0.1137
-0.8203	-1.0287	-1.183	-1.0748	-1.3401	-1.4727	-0.9935	-1.5431	-1.4835	-0.9096	-1.5539	-1.5214	-1.0748	0.2815	-0.3844	-0.1624	0.0839	-0.7851	-0.7147	0.1489	-1.2155	-1.026	0.0975
-0.8365	-1.0477	-1.1641	-1.0883	-1.3671	-1.4565	-0.9827	-1.5431	-1.4808	-0.9448	-1.5973	-1.5377	-1.091	1.8111	-0.4386	-0.1543	-0.0406	-0.758	-0.7445	0.1733	-1.2534	-0.98	0.0758
-0.823	-1.045	-1.1316	-1.0314	-1.3861	-1.4456	-0.9529	-1.5702	-1.4456	-0.9475	-1.6108	-1.5106	-1.1154	2.4825	-0.4467	-0.1381	-0.1516	-0.7499	-0.7797	0.1922	-1.2805	-0.9584	0.0677
-0.7851	-1.0342	-1.0991	-0.98	-1.3834	-1.4186	-0.9204	-1.5593	-1.4213	-0.9394	-1.6324	-1.5079	-1.1424	2.1495	-0.5008	-0.1354	-0.2301	-0.7228	-0.8392	0.2085	-1.2995	-0.9096	0.0596
-0.7716	-1.0423	-1.0531	-0.9096	-1.4105	-1.3698	-0.8798	-1.5729	-1.4077	-0.9502	-1.6352	-1.4944	-1.156	0.7824	-0.4981	-0.157	-0.3059	-0.7201	-0.8825	0.1327	-1.3022	-0.8717	0.046
-0.7066	-1.0504	-1.0179	-0.8013	-1.3996	-1.3157	-0.7878	-1.5431	-1.3428	-0.9177	-1.6081	-1.4538	-1.1289	-1.4159	-0.4873	-0.1272	-0.3546	-0.7174	-0.9232	0.1002	-1.294	-0.8555	0.0352
-0.6524	-1.0206	-0.9394	-0.7039	-1.3915	-1.2778	-0.6822	-1.5377	-1.3076	-0.8663	-1.5675	-1.3888	-1.11	-4.1908	-0.4575	-0.092	-0.3763	-0.6903	-0.9421	0.0244	-1.2724	-0.8203	0.0162
-0.5469	-0.98	-0.8257	-0.5333	-1.3319	-1.1803	-0.5117	-1.489	-1.2074	-0.7878	-1.5079	-1.3265	-1.0342	-7.0469	-0.4007	-0.0541	-0.3871	-0.6443	-0.9584	-0.0271	-1.2155	-0.8284	0.0054
-0.4629	-0.9529	-0.7688	-0.3709	-1.2913	-1.1018	-0.3492	-1.4077	-1.1289	-0.6822	-1.4538	-1.2291	-0.9529	-9.6458	-0.3682	0.0108	-0.3492	-0.5983	-0.98	-0.1245	-1.1749	-0.8365	0.0027
-0.3601	-0.8771	-0.6524	-0.1841	-1.2128	-1.0233	-0.1868	-1.3374	-1.0206	-0.5766	-1.3563	-1.1262	-0.8663	-11.6247	-0.2626	0.0866	-0.3086	-0.5469	-0.9854	-0.1651	-1.1262	-0.8825	-0.0135
-0.2815	-0.8067	-0.5739	-0.0271	-1.1397	-0.9232	-0.0244	-1.2751	-0.9286	-0.4819	-1.2724	-1.0071	-0.7851	-12.6156	-0.1868	0.1597	-0.2545	-0.4954	-0.9827	-0.1868	-1.0287	-0.9367	-0.0298
-0.2112	-0.7553	-0.5035	0.092	-1.1045	-0.869	0.0866	-1.2101	-0.8419	-0.3709	-1.1858	-0.8988	-0.7066	-12.5668	-0.1137	0.1976	-0.1706	-0.4521	-1.0152	-0.2734	-0.9881	-0.9963	-0.0487
-0.1218	-0.6822	-0.4223	0.2382	-1.0125	-0.7824	0.2085	-1.1208	-0.7337	-0.2951	-1.091	-0.7878	-0.6172	-11.4596	-0.0162	0.2951	-0.0866	-0.3871	-1.0342	-0.2734	-0.9313	-1.0775	-0.0569
-0.0244	-0.5848	-0.3492	0.3601	-0.9475	-0.7093	0.3276	-1.0287	-0.6362	-0.1814	-0.9773	-0.6903	-0.5117	-9.5158	0.046	0.3411	-0.0162	-0.3195	-1.0423	-0.2653	-0.8501	-1.1641	-0.0487
0.0244	-0.5414	-0.2815	0.4765	-0.8555	-0.6389	0.4413	-0.9421	-0.5225	-0.1002	-0.8853	-0.5631	-0.4115	-7.0252	0.1381	0.4034	0.0623	-0.2328	-1.0693	-0.2572	-0.7905	-1.2399	-0.0569
0.0758	-0.4521	-0.2003	0.5766	-0.7472	-0.5739	0.509	-0.8555	-0.425	0.0162	-0.7797	-0.4277	-0.3195	-4.2774	0.2085	0.4792	0.1408	-0.1327	-1.0829	-0.2653	-0.7174	-1.3211	-0.0514
0.1651	-0.3953	-0.1543	0.6606	-0.6822	-0.5062	0.5848	-0.7851	-0.3249	0.092	-0.6768	-0.3167	-0.2301	-1.6676	0.2572	0.5306	0.2003	-0.0406	-1.1181	-0.2707	-0.6443	-1.3942	-0.0541
0.1922	-0.3519	-0.0893	0.7093	-0.5685	-0.4548	0.6227	-0.6849	-0.2057	0.1868	-0.5441	-0.176	-0.1272	0.4981	0.3195	0.5848	0.2464	0.0948	-1.1045	-0.2788	-0.5848	-1.4781	-0.0325
0.2518	-0.314	-0.0325	0.7553	-0.5198	-0.4007	0.6579	-0.6118	-0.1164	0.2788	-0.4521	-0.046	-0.0433	1.9573	0.3601	0.5956	0.2843	0.1814	-1.1343	-0.314	-0.536	-1.5539	-0.0325
0.3113	-0.2599	0.0325	0.7797	-0.4602	-0.3438	0.6795	-0.5441	-0.0406	0.3546	-0.3411	0.0596	0.065	2.5015	0.3898	0.6281	0.2734	0.3222	-1.1451	-0.3682	-0.4711	-1.6108	-0.0135
0.3492	-0.2572	0.0379	0.7364	-0.4061	-0.3113	0.6849	-0.4683	0.0352	0.4034	-0.2518	0.1651	0.1137	2.0548	0.3655	0.6091	0.2518	0.444	-1.1451	-0.4521	-0.4548	-1.6649	0
0.3682	-0.2599	0.065	0.7472	-0.3898	-0.2734	0.6687	-0.4359	0.1002	0.4548	-0.1787	0.2734	0.2085	0.6145	0.3844	0.6145	0.2139	0.5387	-1.1316	-0.5441	-0.4007	-1.7218	0.0298
0.4007	-0.2788	0.1002	0.7012	-0.3736	-0.2599	0.6443	-0.3871	0.1651	0.49	-0.1245	0.3601	0.2572	-1.6189	0.3519	0.5929	0.1706	0.6281	-1.1235	-0.6281	-0.398	-1.7624	0.0514
0.4115	-0.3032	0.1354	0.6687	-0.3763	-0.222	0.6308	-0.3601	0.2139	0.5523	-0.0812	0.4413	0.3113	-4.318	0.3601	0.5739	0.1164	0.712	-1.0991	-0.6876	-0.3871	-1.8084	0.0866
0.4304	-0.3167	0.157	0.6172	-0.3655	-0.1949	0.5956	-0.333	0.2788	0.5902	-0.019	0.5008	0.3411	-7.0929	0.3546	0.5198	0.0866	0.7634	-1.0342	-0.7716	-0.379	-1.8382	0.1191
0.4819	-0.3222	0.203	0.6064	-0.3492	-0.1489	0.6118	-0.2843	0.3546	0.6551	0.0379	0.5956	0.398	-9.459	0.3709	0.5171	0.0487	0.8203	-0.9963	-0.804	-0.3709	-1.8815	0.1245
0.5117	-0.2897	0.2815	0.5983	-0.287	-0.092	0.6443	-0.2274	0.4359	0.7066	0.1056	0.6985	0.4846	-11.0806	0.3844	0.5117	0.019	0.8446	-0.9042	-0.8176	-0.3357	-1.9032	0.1354
0.5387	-0.2924	0.333	0.601	-0.2843	-0.0135	0.666	-0.1624	0.5252	0.7634	0.1597	0.7905	0.5225	-11.7493	0.3871	0.509	0.0325	0.8555	-0.8013	-0.8311	-0.2951	-1.9302	0.111
0.5604	-0.2788	0.3763	0.5685	-0.2409	0.0406	0.7039	-0.1191	0.6281	0.8257	0.1949	0.8636	0.5685	-11.3513	0.3709	0.4792	0.0406	0.8636	-0.712	-0.7959	-0.2572	-1.9411	0.1083
0.5739	-0.2491	0.4332	0.5875	-0.1841	0.1191	0.7364	-0.0623	0.712	0.9069	0.2599	0.9529	0.6172	-9.949	0.4034	0.4738	0.0379	0.8176	-0.5929	-0.7228	-0.2409	-1.9627	0.0948
0.601	-0.2085	0.4873	0.5685	-0.1299	0.1949	0.7607	-0.0325	0.7688	0.8988	0.3005	1.0206	0.6389	-7.7778	0.4169	0.4711	0.0596	0.7553	-0.5008	-0.6227	-0.2274	-1.9708	0.0487
0.6091	-0.1868	0.5306	0.5469	-0.111	0.2545	0.7418	-0.0027	0.8122	0.8934	0.3357	1.0693	0.6227	-5.1491	0.3925	0.4196	0.0812	0.6416	-0.4034	-0.4873	-0.2166	-1.979	0.0433
0.6254	-0.1489	0.5848	0.5008	-0.0704	0.3005	0.7012	0.0569	0.869	0.8582	0.3709	1.1154	0.6145	-2.3715	0.4088	0.4061	0.1191	0.4981	-0.2924	-0.3465	-0.1949	-1.9925	0.0108
0.6768	-0.0975	0.6335	0.5035	-0.0298	0.3953	0.7039	0.1056	0.934	0.8446	0.4088	1.1912	0.5983	0.203	0.444	0.3925	0.1435	0.379	-0.1868	-0.176	-0.1678	-2.0277	-0.0244
0.6958	-0.0379	0.6822	0.4927	0.0352	0.4467	0.6958	0.1408	0.9773	0.7851	0.4169	1.2074	0.5441	2.2145	0.4846	0.379	0.1922	0.2085	-0.0948	-0.0271	-0.157	-2.0602	-0.0596
0.7418	0.0433	0.7472	0.49	0.0975	0.5577	0.693	0.2166	1.0558	0.7716	0.4575	1.2778	0.536	3.4436	0.5496	0.398	0.2247	0.0866	0.0108	0.0975	-0.1137	-2.0873	-0.0623
0.8176	0.1327	0.8338	0.509	0.1814	0.6389	0.6985	0.3005	1.137	0.7499	0.5198	1.3319	0.49	3.7143	0.582	0.425	0.2545	-0.0379	0.1408	0.2193	-0.0758	-2.1062	-0.0731
0.8717	0.2247	0.8907	0.5062	0.2707	0.6903	0.7066	0.379	1.202	0.7174	0.5577	1.3617	0.4494	2.9509	0.6172	0.4467	0.3086	-0.1868	0.2464	0.2843	-0.0433	-2.1143	-0.0541
0.9556	0.3249	0.98	0.5441	0.3492	0.8013	0.7174	0.4602	1.294	0.7255	0.6118	1.4186	0.4359	1.2561	0.7093	0.4819	0.3384	-0.2897	0.3682	0.3628	0.0135	-2.136	-0.0379
1.0396	0.4304	1.0423	0.5712	0.4548	0.8744	0.7418	0.5387	1.3644	0.7147	0.6714	1.4511	0.4169	-1.1451	0.7526	0.5658	0.379	-0.4061	0.4738	0.4061	0.065	-2.1603	-0.019
1.1235	0.5306	1.1235	0.5956	0.5441	0.9556	0.7337	0.5983	1.424	0.6822	0.6849	1.4592	0.3844	-3.8253	0.8311	0.6064	0.4223	-0.5117	0.5523	0.4602	0.1164	-2.201	0.0244
1.202	0.6199	1.1749	0.6091	0.6064	1.0098	0.7499	0.647	1.4592	0.6254	0.6985	1.4565	0.3167	-6.4459	0.9096	0.6903	0.4521	-0.6118	0.6227	0.509	0.1543	-2.2118	0.0569
1.294	0.7337	1.2697	0.6579	0.6849	1.0748	0.777	0.693	1.4863	0.6037	0.7337	1.4673	0.287	-8.5412	1.0044	0.7851	0.4683	-0.6985	0.7093	0.5793	0.1814	-2.2686	0.111
1.3238	0.7959	1.2859	0.666	0.7553	1.1235	0.7661	0.6958	1.4835	0.536	0.7337	1.4321	0.2247	-9.8299	1.0558	0.8663	0.4873	-0.7553	0.7147	0.6335	0.2139	-2.3255	0.1651
1.3509	0.8501	1.2859	0.6768	0.777	1.0991	0.7526	0.6958	1.4538	0.4927	0.6822	1.3834	0.1516	-10.1601	1.0964	0.9232	0.5008	-0.8122	0.7093	0.712	0.2057	-2.358	0.1949
1.3644	0.8961	1.3022	0.6849	0.7716	1.11	0.7255	0.6903	1.4294	0.4359	0.6714	1.3157	0.0812	-9.4157	1.1506	0.9692	0.5062	-0.8582	0.6741	0.7634	0.2166	-2.4202	0.2572
1.3726	0.9448	1.2751	0.6579	0.7607	1.0639	0.6714	0.6497	1.3536	0.333	0.5848	1.2264	-0.0433	-7.8211	1.1776	0.9881	0.4927	-0.8934	0.6362	0.7851	0.1868	-2.4446	0.3113
1.3536	0.9773	1.2616	0.6416	0.7282	1.0233	0.6199	0.5875	1.2778	0.2545	0.536	1.1181	-0.1489	-5.5687	1.1939	1.0125	0.4819	-0.9177	0.5469	0.7851	0.1651	-2.4825	0.3655
1.3509	0.9584	1.2155	0.6254	0.6876	0.9665	0.5577	0.5306	1.1858	0.1651	0.4494	1.0071	-0.2166	-2.9671	1.156	0.9963	0.4629	-0.9502	0.4304	0.7472	0.1354	-2.4879	0.4061
1.3265	0.9421	1.156	0.6145	0.6443	0.8961	0.5008	0.4629	1.0802	0.0839	0.3546	0.8825	-0.333	-0.3303	1.1316	0.9854	0.4359	-0.9584	0.3222	0.6633	0.111	-2.5042	0.4494
1.294	0.8961	1.0964	0.5875	0.6064	0.8122	0.444	0.379	0.9665	-0.0108	0.268	0.7607	-0.4332	1.9546	1.0883	0.9719	0.4223	-0.9556	0.1787	0.5848	0.0731	-2.5069	0.49
1.2155	0.8419	1.0342	0.5523	0.5117	0.7093	0.3628	0.3113	0.8176	-0.0839	0.1678	0.6335	-0.536	3.5627	1.0531	0.9259	0.3953	-0.9259	0.0541	0.5035	0.0298	-2.5177	0.49
1.1695	0.7743	0.9638	0.5062	0.4413	0.6199	0.3113	0.2112	0.6958	-0.1733	0.065	0.4927	-0.6308	4.2882	0.9963	0.8907	0.3682	-0.9177	-0.0623	0.4196	0.0054	-2.4879	0.5198
1.1451	0.7228	0.8934	0.4711	0.3682	0.5441	0.2572	0.1218	0.5577	-0.2707	-0.019	0.3601	-0.7201	3.9796	0.9177	0.8284	0.3357	-0.9015	-0.2085	0.3357	-0.0244	-2.4798	0.5577
1.0721	0.6199	0.8122	0.3817	0.2491	0.4413	0.1516	0.0541	0.4061	-0.3492	-0.1327	0.1976	-0.8122	2.6097	0.8257	0.7824	0.3167	-0.888	-0.3195	0.2382	-0.0812	-2.4473	0.5793
0.9935	0.5441	0.7147	0.3086	0.1651	0.3357	0.0893	-0.046	0.2707	-0.444	-0.2247	0.0704	-0.8988	0.3953	0.7634	0.6849	0.2734	-0.8528	-0.4196	0.1245	-0.1002	-2.4094	0.601
0.934	0.4873	0.6524	0.287	0.0948	0.2464	0.046	-0.1327	0.1272	-0.5306	-0.2897	-0.0541	-0.9556	-2.4446	0.6822	0.6362	0.2436	-0.8392	-0.5008	0.0352	-0.1218	-2.3553	0.6064
0.8907	0.4548	0.6091	0.2301	0.0541	0.176	-0.0108	-0.1787	0.0108	-0.5875	-0.3519	-0.1516	-1.0152	-5.4307	0.6172	0.5848	0.1949	-0.804	-0.5766	-0.0541	-0.1002	-2.3038	0.6416
0.8284	0.4061	0.5144	0.176	-0.0325	0.0839	-0.0866	-0.2328	-0.1191	-0.6606	-0.4277	-0.2734	-1.0829	-8.1839	0.5496	0.5279	0.1597	-0.804	-0.6172	-0.1651	-0.1029	-2.247	0.6687
0.7607	0.3628	0.4494	0.1408	-0.0785	0.0054	-0.1462	-0.3059	-0.2301	-0.7228	-0.4873	-0.4169	-1.1506	-10.2711	0.4954	0.5035	0.1381	-0.7661	-0.647	-0.2815	-0.1056	-2.182	0.6714
0.6958	0.3655	0.3736	0.092	-0.1002	-0.0704	-0.1841	-0.3519	-0.3655	-0.7878	-0.5306	-0.5252	-1.2128	-11.4325	0.4602	0.4494	0.1327	-0.7607	-0.6606	-0.379	-0.0893	-2.1468	0.6795
0.6416	0.3628	0.3222	0.0785	-0.157	-0.1435	-0.2193	-0.4115	-0.4819	-0.8446	-0.5875	-0.6281	-1.2589	-11.5029	0.4169	0.4088	0.1272	-0.7282	-0.647	-0.444	-0.0839	-2.1008	0.6579
0.6172	0.3411	0.2626	0.0244	-0.1949	-0.2112	-0.2572	-0.4629	-0.601	-0.8825	-0.6281	-0.7445	-1.2859	-10.5554	0.4115	0.4115	0.1354	-0.7039	-0.6037	-0.5062	-0.0623	-2.0575	0.6389
0.5631	0.3465	0.2247	0.0027	-0.2274	-0.3032	-0.2924	-0.5171	-0.6985	-0.9123	-0.6579	-0.8338	-1.3022	-8.7659	0.3709	0.3817	0.1245	-0.6768	-0.536	-0.5577	-0.0541	-2.0196	0.6172
0.4683	0.3086	0.1462	-0.065	-0.2843	-0.3844	-0.3574	-0.5848	-0.8284	-0.9773	-0.7039	-0.9232	-1.3563	-6.4188	0.3303	0.3601	0.1489	-0.6985	-0.49	-0.582	-0.0704	-1.9736	0.5766
0.4196	0.3005	0.0785	-0.0785	-0.3222	-0.4602	-0.3817	-0.6389	-0.9502	-1.0125	-0.7526	-1.0179	-1.3888	-3.828	0.3059	0.3059	0.1299	-0.6822	-0.4169	-0.582	-0.0623	-1.9275	0.5333
0.3492	0.2978	0.0162	-0.1299	-0.3574	-0.536	-0.4575	-0.6876	-1.0558	-1.0856	-0.7824	-1.1181	-1.4511	-1.2913	0.2707	0.2707	0.1164	-0.7391	-0.3465	-0.6064	-0.0758	-1.8896	0.5144
0.314	0.287	-0.0433	-0.1895	-0.4034	-0.6254	-0.5171	-0.7309	-1.1668	-1.137	-0.8257	-1.2264	-1.5133	0.8095	0.2951	0.2436	0.0812	-0.7986	-0.2788	-0.5956	-0.0758	-1.8707	0.4629
0.2626	0.2247	-0.1272	-0.2436	-0.4332	-0.6958	-0.6091	-0.7797	-1.2913	-1.2182	-0.8609	-1.3292	-1.5593	2.2416	0.2951	0.2166	0.0406	-0.8528	-0.2247	-0.5902	-0.0785	-1.8544	0.4332
0.1868	0.1895	-0.1976	-0.2978	-0.49	-0.804	-0.6579	-0.8474	-1.3942	-1.2589	-0.8988	-1.4429	-1.6081	2.7397	0.3222	0.1922	0.0054	-0.8771	-0.1841	-0.5685	-0.1191	-1.8571	0.3898
0.1706	0.157	-0.268	-0.3357	-0.4954	-0.8825	-0.7039	-0.8825	-1.4944	-1.3184	-0.934	-1.5431	-1.6352	2.2416	0.3546	0.1895	-0.0487	-0.9204	-0.1462	-0.5387	-0.1299	-1.8842	0.3357
0.1408	0.1543	-0.3465	-0.3601	-0.5144	-0.9421	-0.7445	-0.9096	-1.6	-1.3482	-0.9746	-1.6216	-1.6703	0.7932	0.3844	0.2085	-0.0893	-0.934	-0.111	-0.5144	-0.1381	-1.9113	0.2707
0.111	0.1218	-0.4115	-0.3736	-0.5658	-1.0396	-0.7905	-0.9475	-1.7028	-1.3753	-0.999	-1.7299	-1.6866	-1.4484	0.4115	0.1976	-0.1272	-0.9177	-0.1299	-0.4954	-0.1651	-1.9411	0.2328
0.065	0.0758	-0.4873	-0.4332	-0.5739	-1.1208	-0.8203	-0.9854	-1.8219	-1.4348	-1.0612	-1.8274	-1.692	-4.1529	0.4494	0.2274	-0.1462	-0.9123	-0.1489	-0.4629	-0.2085	-1.9817	0.1678
0.019	0.0244	-0.5685	-0.4494	-0.6335	-1.2047	-0.8446	-1.0342	-1.9032	-1.4565	-1.1181	-1.9167	-1.711	-6.8925	0.4711	0.2057	-0.1733	-0.8825	-0.1651	-0.425	-0.2599	-2.0006	0.1218
-0.0081	0.0108	-0.6335	-0.4548	-0.6524	-1.267	-0.8555	-1.0612	-1.9925	-1.4565	-1.1641	-1.9898	-1.6866	-9.218	0.4927	0.2193	-0.1895	-0.8013	-0.1733	-0.3736	-0.3059	-2.0548	0.0406
-0.0541	-0.0406	-0.7039	-0.4738	-0.6822	-1.3428	-0.8636	-1.1181	-2.0764	-1.4863	-1.2101	-2.1035	-1.7001	-10.8532	0.5414	0.2193	-0.1922	-0.7445	-0.1895	-0.314	-0.3655	-2.0845	0
-0.1191	-0.0866	-0.7932	-0.5225	-0.7282	-1.4348	-0.8853	-1.183	-2.2064	-1.5079	-1.2805	-2.182	-1.7082	-11.5002	0.5441	0.2193	-0.1787	-0.6849	-0.1895	-0.2843	-0.4142	-2.1333	-0.0677
-0.1435	-0.1245	-0.8501	-0.536	-0.7364	-1.489	-0.8907	-1.2128	-2.2822	-1.516	-1.3211	-2.2605	-1.6731	-11.086	0.5604	0.1841	-0.1597	-0.5956	-0.1787	-0.2274	-0.4819	-2.1739	-0.111
-0.2003	-0.1949	-0.9286	-0.5469	-0.7851	-1.5539	-0.8907	-1.2859	-2.3661	-1.535	-1.3915	-2.3444	-1.6703	-9.6999	0.5766	0.2003	-0.1489	-0.4981	-0.1624	-0.1706	-0.5496	-2.2172	-0.1597
-0.2599	-0.2166	-0.9746	-0.5414	-0.7932	-1.6243	-0.8961	-1.2995	-2.4202	-1.5052	-1.4186	-2.4175	-1.6297	-7.5856	0.6037	0.1733	-0.1137	-0.3898	-0.1164	-0.1191	-0.5739	-2.2713	-0.1976
-0.2897	-0.2761	-1.0125	-0.5523	-0.8419	-1.6839	-0.8825	-1.3617	-2.4987	-1.4944	-1.47	-2.4798	-1.6216	-4.9867	0.6145	0.1651	-0.0731	-0.3086	-0.0731	-0.0487	-0.6145	-2.3228	-0.2572
-0.3519	-0.3519	-1.0721	-0.5712	-0.8744	-1.7489	-0.8771	-1.3888	-2.561	-1.5052	-1.5323	-2.561	-1.6108	-2.2768	0.6443	0.157	-0.0244	-0.2599	-0.0271	-0.0081	-0.6362	-2.3363	-0.3032
-0.3817	-0.4115	-1.11	-0.5658	-0.9015	-1.784	-0.9096	-1.4159	-2.6233	-1.516	-1.5566	-2.6179	-1.6054	0.176	0.6335	0.1381	0.019	-0.1949	0.0514	0.0135	-0.6633	-2.3742	-0.3438
-0.4169	-0.4846	-1.1587	-0.5983	-0.9448	-1.8517	-0.9313	-1.4944	-2.6774	-1.5377	-1.6162	-2.6883	-1.6216	2.0954	0.6524	0.1354	0.0569	-0.1651	0.0487	0.0081	-0.6633	-2.3905	-0.3519
-0.4386	-0.5198	-1.1993	-0.6091	-0.9746	-1.8923	-0.9827	-1.5214	-2.7532	-1.5783	-1.6622	-2.7532	-1.627	3.2053	0.666	0.111	0.0975	-0.1299	0.0893	-0.019	-0.6985	-2.4202	-0.3492
-0.4792	-0.6037	-1.2643	-0.6497	-1.026	-1.9736	-1.0369	-1.5512	-2.8263	-1.627	-1.7055	-2.8074	-1.6379	3.3407	0.6714	0.0785	0.1299	-0.157	0.1029	-0.0731	-0.7093	-2.4229	-0.3574
-0.5171	-0.6849	-1.313	-0.6795	-1.1181	-2.0602	-1.1235	-1.6324	-2.9211	-1.6974	-1.7813	-2.894	-1.6676	2.4311	0.6497	0.065	0.1678	-0.203	0.0677	-0.1678	-0.7499	-2.4311	-0.314
-0.5577	-0.7634	-1.3563	-0.7472	-1.1668	-2.1549	-1.202	-1.6731	-2.9806	-1.7218	-1.8219	-2.9536	-1.6812	0.5983	0.6606	0.0379	0.1922	-0.2328	0.046	-0.2464	-0.7499	-2.4392	-0.2788
-0.5875	-0.8257	-1.4321	-0.7959	-1.2399	-2.2172	-1.2805	-1.7191	-3.0375	-1.7786	-1.8761	-3.0212	-1.7055	-1.9573	0.6227	0.0108	0.2355	-0.2788	0.0081	-0.3898	-0.7526	-2.4229	-0.2247
-0.6308	-0.9096	-1.47	-0.8934	-1.3157	-2.3174	-1.3834	-1.803	-3.1106	-1.8463	-1.9492	-3.0997	-1.7299	-4.8324	0.5902	-0.0217	0.2897	-0.3574	-0.0569	-0.5171	-0.7932	-2.4311	-0.1678
-0.6822	-0.9881	-1.5485	-0.999	-1.4023	-2.4257	-1.489	-1.849	-3.2053	-1.9059	-1.9925	-3.1485	-1.7651	-7.5991	0.5441	-0.065	0.3492	-0.4196	-0.1029	-0.6741	-0.804	-2.4392	-0.1327
-0.7851	-1.0748	-1.6595	-1.0991	-1.5052	-2.5583	-1.6379	-1.9302	-3.3001	-1.9681	-2.0439	-3.227	-1.7976	-9.9057	0.4873	-0.092	0.4223	-0.5198	-0.1543	-0.8392	-0.7986	-2.4446	-0.0731
-0.8798	-1.1695	-1.7705	-1.2128	-1.6189	-2.672	-1.7624	-2.0196	-3.3975	-2.0548	-2.0927	-3.2974	-1.7922	-11.3811	0.4386	-0.1137	0.4927	-0.5766	-0.2166	-1.0558	-0.8149	-2.4744	-0.0352
-0.9854	-1.2751	-1.868	-1.3644	-1.6947	-2.802	-1.8842	-2.0818	-3.4896	-2.1252	-2.1549	-3.3596	-1.8138	-11.844	0.3736	-0.1868	0.5631	-0.6579	-0.3113	-1.2399	-0.8555	-2.4987	-0.0162
-1.0856	-1.3401	-2.0087	-1.5242	-1.8111	-2.94	-2.0358	-2.1685	-3.5952	-2.1983	-2.2172	-3.4354	-1.8192	-11.2809	0.3032	-0.2382	0.6064	-0.7012	-0.3871	-1.4511	-0.8744	-2.5123	0.0298
-1.2264	-1.4484	-2.1387	-1.6649	-1.9194	-3.0862	-2.1603	-2.247	-3.6764	-2.2578	-2.2713	-3.4788	-1.8003	-9.8001	0.1841	-0.2978	0.6389	-0.7661	-0.4494	-1.6487	-0.888	-2.515	0.0569
-1.3807	-1.6027	-2.3065	-1.8571	-2.0412	-3.2189	-2.3363	-2.3309	-3.7847	-2.3065	-2.3417	-3.5654	-1.7922	-7.6722	0.0812	-0.3844	0.6633	-0.8149	-0.5333	-1.8382	-0.9448	-2.5096	0.0569
-1.5458	-1.7407	-2.4771	-2.0223	-2.1712	-3.3678	-2.4771	-2.4148	-3.8903	-2.3715	-2.3932	-3.6087	-1.7759	-5.1383	-0.0433	-0.49	0.6416	-0.8446	-0.601	-1.9763	-0.9719	-2.4933	0.0839
-1.7461	-1.8896	-2.6531	-2.2145	-2.3201	-3.5437	-2.6639	-2.5069	-3.9931	-2.4527	-2.4284	-3.6628	-1.757	-2.6206	-0.2193	-0.647	0.6064	-0.8744	-0.6958	-2.1062	-1.0098	-2.4717	0.1137
-1.9519	-2.006	-2.8399	-2.4202	-2.4473	-3.7143	-2.829	-2.5989	-4.0852	-2.5421	-2.4798	-3.7062	-1.757	-0.3628	-0.3844	-0.7986	0.5306	-0.9177	-0.7499	-2.1874	-1.0369	-2.4419	0.1272
-2.1631	-2.2145	-3.0456	-2.626	-2.6206	-3.893	-3.0212	-2.6991	-4.1826	-2.626	-2.5339	-3.7441	-1.757	1.2237	-0.6118	-0.9854	0.4304	-0.9448	-0.8067	-2.228	-1.0721	-2.3688	0.1543
-2.3796	-2.3932	-3.2405	-2.8399	-2.7478	-4.0391	-3.1783	-2.7532	-4.2747	-2.7262	-2.5529	-3.7576	-1.7272	1.9654	-0.8446	-1.1885	0.3167	-0.9692	-0.8474	-2.2443	-1.0775	-2.3255	0.1787
-2.6233	-2.5718	-3.4598	-3.0564	-2.8886	-4.207	-3.3596	-2.829	-4.3748	-2.8372	-2.5475	-3.7522	-1.7028	1.6785	-1.091	-1.4132	0.1868	-0.9908	-0.8853	-2.2334	-1.0693	-2.2605	0.1922
-2.8805	-2.7641	-3.6683	-3.2811	-3.0537	-4.3559	-3.5302	-2.8967	-4.4561	-2.9021	-2.5475	-3.7386	-1.6649	0.3628	-1.3617	-1.6649	0.0541	-1.0071	-0.9042	-2.2172	-1.0531	-2.1901	0.2193
-3.1187	-2.94	-3.8767	-3.4733	-3.1999	-4.4885	-3.6737	-2.9373	-4.4913	-2.9509	-2.5069	-3.6845	-1.5756	-1.8328	-1.6487	-1.9248	-0.092	-0.999	-0.9286	-2.1983	-0.999	-2.1414	0.2166
-3.3813	-3.1485	-4.0743	-3.671	-3.319	-4.6104	-3.7928	-2.9481	-4.5021	-3.0104	-2.4202	-3.6006	-1.4646	-4.6239	-1.9329	-2.1658	-0.2599	-0.9719	-0.9096	-2.1414	-0.9313	-2.0845	0.2166
-3.6304	-3.3163	-4.2638	-3.8524	-3.4517	-4.7214	-3.9173	-2.9698	-4.5102	-3.0239	-2.3174	-3.4977	-1.3184	-7.6235	-2.1928	-2.4202	-0.398	-0.9069	-0.9394	-2.0981	-0.8663	-2.0656	0.2085
-3.8605	-3.5167	-4.4371	-4.0419	-3.5356	-4.8161	-4.0067	-2.9481	-4.4967	-3.0104	-2.2064	-3.3272	-1.1424	-10.3875	-2.5069	-2.672	-0.5306	-0.8122	-0.9448	-2.0466	-0.7526	-2.0385	0.1868
-4.0825	-3.6791	-4.605	-4.2043	-3.6168	-4.8946	-4.0798	-2.9021	-4.4317	-2.9617	-2.0466	-3.1539	-0.9177	-12.5398	-2.7532	-2.94	-0.6524	-0.6958	-0.9611	-1.9871	-0.6227	-2.0548	0.1408
-4.3369	-3.8226	-4.7701	-4.3748	-3.6845	-4.9731	-4.115	-2.8372	-4.3478	-2.8913	-1.8436	-2.94	-0.6633	-13.7715	-3.0267	-3.1837	-0.7309	-0.5306	-0.9611	-1.9546	-0.4792	-2.0764	0.1083
-4.5427	-3.9525	-4.9217	-4.5021	-3.7522	-5.0354	-4.1366	-2.7451	-4.253	-2.7776	-1.6216	-2.7153	-0.3709	-13.9448	-3.2486	-3.3948	-0.7986	-0.3167	-0.9827	-1.96	-0.3032	-2.1143	0.0677
-4.7647	-4.0771	-5.0435	-4.6347	-3.7766	-5.0354	-4.1393	-2.6314	-4.0987	-2.6152	-1.359	-2.4284	-0.0406	-13.0596	-3.5194	-3.6249	-0.8474	-0.046	-0.9556	-1.9221	-0.1002	-2.1685	0
-4.9406	-4.1962	-5.1599	-4.7539	-3.7657	-5.0354	-4.0987	-2.4663	-3.939	-2.4473	-1.0639	-2.1089	0.3303	-11.3161	-3.7359	-3.8361	-0.869	0.2545	-0.9719	-1.9275	0.1408	-2.2226	-0.0541
-5.1383	-4.2936	-5.2763	-4.8513	-3.7089	-5.0192	-4.0364	-2.2903	-3.7224	-2.2199	-0.7201	-1.7651	0.7743	-8.9771	-3.939	-4.0256	-0.8528	0.6199	-0.9665	-1.9194	0.3953	-2.2822	-0.111
-5.2655	-4.3288	-5.3576	-4.9163	-3.6764	-4.9785	-3.9579	-2.1008	-3.5112	-1.9844	-0.3736	-1.3996	1.1993	-6.3376	-4.1258	-4.2259	-0.8284	1.0017	-0.9313	-1.9086	0.647	-2.3417	-0.1597
-5.4036	-4.3884	-5.4307	-4.9461	-3.606	-4.9082	-3.8469	-1.8653	-3.2595	-1.6785	0.0352	-0.9881	1.7001	-3.7359	-4.3045	-4.3992	-0.7905	1.405	-0.8907	-1.8896	0.9502	-2.4094	-0.2301
-5.52	-4.3857	-5.4631	-4.9569	-3.4923	-4.8215	-3.6818	-1.6216	-2.9806	-1.3428	0.4413	-0.555	2.2551	-1.5431	-4.4452	-4.5589	-0.7526	1.8734	-0.7986	-1.8355	1.2561	-2.4636	-0.2815
-5.5633	-4.3748	-5.4686	-4.9434	-3.3651	-4.6916	-3.5085	-1.3455	-2.6531	-0.999	0.9015	-0.0948	2.7992	-0.0596	-4.5941	-4.7214	-0.7039	2.3363	-0.7174	-1.7976	1.5918	-2.5312	-0.2978
-5.6229	-4.3694	-5.4821	-4.9109	-3.2243	-4.5752	-3.338	-1.0666	-2.3444	-0.647	1.3455	0.3628	3.3569	0.5171	-4.7078	-4.8459	-0.6497	2.7857	-0.6227	-1.7461	1.9086	-2.58	-0.3574
-5.6933	-4.3288	-5.4983	-4.8784	-3.0646	-4.4723	-3.1404	-0.7824	-2.0277	-0.268	1.7868	0.8365	3.9336	0.0352	-4.854	-5.0327	-0.601	3.2676	-0.5062	-1.6839	2.2632	-2.5962	-0.3736
-5.7176	-4.2963	-5.4821	-4.8324	-2.8805	-4.3369	-2.9157	-0.4683	-1.7055	0.1056	2.2605	1.2913	4.5102	-1.3942	-4.965	-5.1545	-0.5604	3.7332	-0.3898	-1.6081	2.5962	-2.6179	-0.398
-5.7772	-4.2747	-5.5037	-4.8242	-2.6991	-4.2016	-2.7343	-0.1678	-1.3807	0.4873	2.7289	1.7705	5.0841	-3.6953	-5.095	-5.2818	-0.5306	4.2043	-0.2518	-1.4998	2.94	-2.6287	-0.3953
-5.8042	-4.2368	-5.4767	-4.808	-2.5285	-4.115	-2.58	0.1218	-1.0721	0.8392	3.1701	2.1928	5.6039	-6.5271	-5.206	-5.4388	-0.5008	4.6212	-0.1245	-1.3915	3.2676	-2.6287	-0.379
-5.8557	-4.1772	-5.4821	-4.8107	-2.3688	-4.0094	-2.4121	0.3736	-0.7878	1.1587	3.5952	2.6097	6.1237	-9.4454	-5.344	-5.5633	-0.5008	5.0273	0.0596	-1.2182	3.587	-2.6206	-0.3655
-5.8936	-4.1529	-5.5362	-4.8405	-2.2334	-3.9146	-2.3011	0.6281	-0.5279	1.4375	4.0094	2.986	6.5812	-12.0065	-5.4767	-5.7041	-0.49	5.4117	0.1814	-0.9854	3.9092	-2.6233	-0.3303
-5.9856	-4.1474	-5.5768	-4.8973	-2.1197	-3.8605	-2.2497	0.869	-0.314	1.6785	4.3965	3.3326	7.0117	-13.9096	-5.6093	-5.8449	-0.4981	5.7663	0.314	-0.7878	4.2016	-2.6043	-0.287
-6.0452	-4.1529	-5.5931	-4.9623	-2.006	-3.7982	-2.1983	1.0612	-0.0785	1.8761	4.7457	3.6439	7.3717	-14.8219	-5.723	-5.9748	-0.5117	6.0614	0.4277	-0.5496	4.4425	-2.5827	-0.2409
-6.1047	-4.1799	-5.6472	-5.0273	-1.9329	-3.7359	-2.1441	1.2453	0.1272	2.0575	5.0571	3.9471	7.702	-14.6758	-5.8449	-6.0831	-0.5387	6.3673	0.5333	-0.2951	4.6645	-2.5718	-0.1922
-6.2184	-4.1935	-5.7068	-5.1085	-1.8761	-3.6845	-2.1306	1.4159	0.3005	2.2091	5.363	4.2232	8.016	-13.5441	-5.9667	-6.1887	-0.5631	6.6218	0.6606	-0.0162	4.8946	-2.5664	-0.1462
-6.2834	-4.1989	-5.7339	-5.1599	-1.8165	-3.6412	-2.1224	1.5458	0.4738	2.3309	5.5958	4.4506	8.2434	-11.622	-6.0452	-6.2943	-0.582	6.8573	0.7282	0.2436	5.0706	-2.5367	-0.0948
-6.3538	-4.2584	-5.7663	-5.2032	-1.7651	-3.5816	-2.117	1.7082	0.6389	2.4446	5.834	4.6835	8.4329	-9.1693	-6.1345	-6.3836	-0.6091	7.0441	0.7932	0.5117	5.2384	-2.5096	-0.0487
-6.3755	-4.2693	-5.7745	-5.2466	-1.7299	-3.541	-2.1143	1.7895	0.7851	2.5421	6.0587	4.8784	8.5954	-6.5541	-6.1833	-6.435	-0.6606	7.2147	0.8528	0.7824	5.3873	-2.469	-0.0244
-6.4215	-4.2936	-5.7691	-5.2736	-1.692	-3.4869	-2.1035	1.9059	0.9259	2.5962	6.2401	5.0462	8.7172	-4.1177	-6.1995	-6.4946	-0.693	7.3528	0.8934	1.026	5.5065	-2.4257	0.0298
-6.4134	-4.2936	-5.7312	-5.2736	-1.6541	-3.4219	-2.0954	2.0006	1.0639	2.6233	6.3971	5.2087	8.8092	-2.1955	-6.2374	-6.5217	-0.7418	7.4448	0.9556	1.2778	5.6066	-2.3634	0.0569
-6.3944	-4.2801	-5.7014	-5.2818	-1.6514	-3.3461	-2.0737	2.071	1.1722	2.6612	6.5433	5.3359	8.8499	-1.0612	-6.2076	-6.5244	-0.7851	7.4962	0.9827	1.5214	5.6824	-2.3201	0.1002
-6.3376	-4.2503	-5.6256	-5.2384	-1.5756	-3.2378	-2.0331	2.1306	1.3103	2.6747	6.6543	5.4713	8.8201	-0.8555	-6.1616	-6.5027	-0.8392	7.5342	1.0396	1.7516	5.7257	-2.2416	0.1462
-6.2347	-4.1745	-5.4902	-5.1302	-1.4917	-3.116	-1.9681	2.2145	1.4538	2.7018	6.7626	5.5606	8.7795	-1.627	-6.0831	-6.4215	-0.9232	7.5369	1.0802	1.9546	5.788	-2.1766	0.1949
-6.0966	-4.1095	-5.3576	-5.0273	-1.4213	-2.9779	-1.8869	2.3065	1.5891	2.7126	6.8492	5.6418	8.7172	-3.3732	-5.9856	-6.3267	-0.9719	7.5314	1.1181	2.1279	5.8097	-2.1008	0.222
-5.9315	-3.9877	-5.2195	-4.8648	-1.3265	-2.8101	-1.7813	2.3444	1.692	2.7072	6.9088	5.6905	8.617	-5.8015	-5.8584	-6.2212	-1.0098	7.5044	1.1424	2.2578	5.8124	-2.0358	0.268
-5.7691	-3.8442	-5.0381	-4.6997	-1.2534	-2.6422	-1.6893	2.4202	1.8138	2.7099	6.9467	5.7474	8.5169	-8.5385	-5.7312	-6.0885	-1.0314	7.4827	1.1912	2.3634	5.8259	-1.9357	0.3059
-5.5606	-3.7062	-4.8486	-4.5102	-1.1479	-2.4717	-1.5485	2.4527	1.9275	2.7234	6.9738	5.7609	8.368	-11.1699	-5.5741	-5.9396	-0.999	7.4448	1.1749	2.4257	5.807	-1.849	0.333
-5.3278	-3.514	-4.5941	-4.2774	-1.0044	-2.2497	-1.3888	2.5367	2.0521	2.7478	6.9765	5.7718	8.2055	-13.2951	-5.4252	-5.7826	-0.9421	7.4096	1.1803	2.4365	5.7745	-1.7516	0.3519
-5.0814	-3.3244	-4.3315	-4.0256	-0.8582	-2.0006	-1.1803	2.6125	2.2362	2.8101	6.9846	5.7718	8.0593	-14.6081	-5.2032	-5.5579	-0.8582	7.415	1.2101	2.4527	5.7718	-1.6487	0.3601
-4.7836	-3.07	-4.0148	-3.6737	-0.6849	-1.7516	-0.9313	2.7018	2.3634	2.8642	6.9819	5.7636	7.8807	-14.8707	-5.0354	-5.3684	-0.7472	7.3825	1.202	2.4229	5.7339	-1.5323	0.3465
-4.494	-2.8209	-3.6845	-3.3651	-0.5008	-1.4727	-0.6985	2.7722	2.4906	2.9536	6.9602	5.7366	7.6858	-14.0585	-4.8188	-5.1302	-0.601	7.3176	1.2074	2.3417	5.7122	-1.4294	0.3249
-4.1583	-2.5367	-3.338	-2.9969	-0.314	-1.1749	-0.4575	2.8669	2.6476	3.0321	6.9196	5.7068	7.48	-12.3421	-4.605	-4.9055	-0.4575	7.258	1.2128	2.2307	5.677	-1.313	0.287
-3.8496	-2.2713	-2.9725	-2.6531	-0.1327	-0.9042	-0.203	2.9373	2.783	3.0997	6.8709	5.6743	7.2526	-9.9165	-4.3803	-4.6401	-0.3113	7.1281	1.2345	2.1062	5.6174	-1.183	0.2653
-3.4788	-2.0006	-2.607	-2.3011	0.0623	-0.5902	0.0514	3.0185	2.9075	3.1566	6.8303	5.612	7.0008	-7.1199	-4.1583	-4.3613	-0.1733	6.9846	1.267	1.9329	5.5768	-1.0558	0.2464
-3.1187	-1.7055	-2.2199	-1.9167	0.2409	-0.2951	0.3167	3.0862	3.051	3.2324	6.7626	5.5471	6.7409	-4.2232	-3.9119	-4.1014	-0.0217	6.7545	1.3157	1.7489	5.5119	-0.915	0.2382
-2.7207	-1.3915	-1.8274	-1.5106	0.4575	0.0108	0.6037	3.181	3.162	3.292	6.7085	5.4577	6.4648	-1.6379	-3.671	-3.8009	0.1029	6.5352	1.3996	1.5458	5.4767	-0.7553	0.2355
-2.3417	-1.0937	-1.4186	-1.1072	0.6849	0.3465	0.8853	3.3001	3.3136	3.3867	6.6408	5.4144	6.1995	0.3276	-3.3921	-3.5004	0.2085	6.2509	1.5133	1.3807	5.4361	-0.582	0.2409
-1.9221	-0.7634	-0.999	-0.6822	0.9204	0.6633	1.1749	3.3921	3.4706	3.4788	6.5704	5.3657	5.9315	1.4863	-3.1052	-3.1972	0.2924	5.9396	1.6514	1.2074	5.3955	-0.3898	0.2843
-1.489	-0.425	-0.5577	-0.2274	1.1614	1.0206	1.489	3.5167	3.6141	3.5491	6.546	5.3169	5.6987	1.6406	-2.8317	-2.848	0.3709	5.6174	1.8084	1.045	5.3467	-0.1922	0.3303
-1.0423	-0.0487	-0.0758	0.2518	1.4456	1.3753	1.8057	3.6412	3.809	3.671	6.5271	5.279	5.4875	0.7986	-2.5015	-2.4933	0.398	5.3169	1.9817	0.9638	5.298	0.0162	0.3763
-0.5631	0.2815	0.3601	0.6714	1.7028	1.7191	2.1468	3.7955	3.9796	3.7793	6.5081	5.2411	5.2493	-0.9286	-2.2253	-2.1387	0.4413	4.9704	2.1603	0.8798	5.2953	0.2436	0.425
-0.1056	0.6416	0.8311	1.1045	2.006	2.0791	2.4663	3.9471	4.1529	3.9092	6.4459	5.206	5.0137	-3.2784	-1.8761	-1.7651	0.4711	4.6104	2.358	0.8636	5.252	0.4873	0.4981
0.3492	1.0314	1.2859	1.5864	2.2822	2.4419	2.7749	4.0798	4.3207	4.0121	6.4269	5.1924	4.8161	-5.788	-1.5431	-1.4023	0.4738	4.2666	2.5502	0.8961	5.1978	0.7255	0.5658
0.8257	1.4186	1.7705	2.0142	2.6152	2.7965	3.1025	4.2557	4.5292	4.1339	6.4242	5.1735	4.6401	-8.0593	-1.1993	-1.0017	0.4494	3.9282	2.7613	0.999	5.1708	0.9502	0.6118
1.2751	1.7949	2.1983	2.4202	2.8994	3.1458	3.3732	4.3857	4.6916	4.2232	6.3944	5.1653	4.4398	-9.727	-0.8203	-0.6064	0.4494	3.6141	2.9292	1.0856	5.095	1.1424	0.6768
1.7543	2.1685	2.6449	2.829	3.1972	3.4761	3.6791	4.5589	4.8513	4.3396	6.3728	5.1437	4.2638	-10.4904	-0.4386	-0.1976	0.4169	3.3109	3.1079	1.2047	5.0462	1.3238	0.7201
2.1414	2.5312	3.0591	3.2107	3.4652	3.7874	3.9606	4.6889	5.0327	4.4344	6.343	5.1383	4.1258	-10.198	-0.0677	0.1814	0.3844	3.051	3.2351	1.3238	4.9569	1.4917	0.7499
2.561	2.8751	3.4625	3.5681	3.7414	4.0933	4.2259	4.8134	5.1464	4.5454	6.2997	5.1247	3.9931	-8.9013	0.2761	0.5523	0.3492	2.7749	3.3623	1.4213	4.8351	1.6541	0.8067
2.9292	3.1972	3.8442	3.8767	3.9904	4.3694	4.4777	4.9379	5.3061	4.6537	6.2347	5.0923	3.8686	-6.7788	0.6389	0.9313	0.3032	2.5367	3.4436	1.5133	4.7295	1.7895	0.8392
3.2676	3.4977	4.207	4.1935	4.2178	4.6293	4.697	5.0598	5.4442	4.789	6.186	5.0787	3.7766	-4.0906	0.999	1.3076	0.2599	2.358	3.5248	1.6433	4.586	1.9086	0.8257
3.6493	3.8334	4.5535	4.5102	4.4669	4.9082	4.9515	5.1762	5.5633	4.9027	6.1562	5.0814	3.7143	-1.0991	1.359	1.6216	0.1895	2.201	3.6114	1.7624	4.4642	2.0277	0.8176
3.9877	4.1041	4.8648	4.7755	4.6808	5.1383	5.1518	5.2574	5.6743	5.011	6.0804	5.0652	3.6466	1.784	1.6785	1.96	0.1354	2.0602	3.7089	1.895	4.3261	2.1387	0.8095
4.2828	4.3478	5.1329	5.0137	4.854	5.3413	5.3413	5.3197	5.7555	5.0977	6.0073	5.0381	3.5898	4.2395	1.9952	2.2443	0.0839	1.9086	3.7793	2.0115	4.1745	2.2605	0.8067
4.5589	4.5887	5.4252	5.2601	5.0164	5.5173	5.5308	5.3819	5.834	5.1897	5.9315	5.0192	3.5519	6.0127	2.293	2.5177	0.0162	1.7949	3.8469	2.0981	4.004	2.3742	0.8013
4.8215	4.7945	5.6418	5.4523	5.1383	5.6689	5.6662	5.4036	5.8963	5.2493	5.8394	4.9758	3.5167	6.8492	2.5637	2.7722	-0.0514	1.6812	3.893	2.1685	3.8199	2.4933	0.7824
5.0462	4.9596	5.8476	5.6526	5.2628	5.8124	5.7961	5.4252	5.9152	5.3169	5.7257	4.9136	3.4815	6.6949	2.8534	3.0185	-0.1299	1.5756	3.9254	2.2145	3.6304	2.58	0.7851
5.2655	5.1031	6.0262	5.7934	5.3413	5.8963	5.8882	5.4144	5.9207	5.344	5.6174	4.8486	3.449	5.5254	3.0754	3.2107	-0.1787	1.4835	3.9038	2.2334	3.4463	2.6964	0.7959
5.4225	5.2384	6.186	5.9152	5.4198	6.0046	5.9586	5.3928	5.9125	5.3738	5.4875	4.762	3.4192	3.514	3.3055	3.4138	-0.2382	1.3807	3.9011	2.2632	3.2649	2.8209	0.823
5.6012	5.363	6.3322	6.0371	5.4658	6.0777	6.0262	5.3657	5.899	5.4063	5.3711	4.7051	3.4192	0.9908	3.5085	3.587	-0.2924	1.3211	3.8605	2.3417	3.0727	2.913	0.8095
5.7501	5.4658	6.4161	6.102	5.5065	6.1102	6.0398	5.3169	5.853	5.4036	5.2195	4.6077	3.3975	-1.6	3.6764	3.7143	-0.3438	1.2534	3.8036	2.4365	2.8696	2.9942	0.8067
5.8638	5.5606	6.5244	6.1833	5.5308	6.1102	6.0668	5.2926	5.7988	5.4036	5.095	4.5264	3.3948	-3.893	3.8524	3.874	-0.4034	1.1803	3.7386	2.5962	2.6855	3.0727	0.8176
5.9586	5.6229	6.5948	6.2103	5.5362	6.1318	6.0452	5.2087	5.6933	5.3657	4.9217	4.4073	3.3651	-5.5281	4.0121	3.9931	-0.4386	1.11	3.6304	2.7641	2.4636	3.1295	0.8365
6.0235	5.696	6.6462	6.2428	5.5498	6.075	6.0046	5.1247	5.5823	5.2953	4.7674	4.2882	3.3299	-6.2618	4.1339	4.1095	-0.4602	1.0179	3.5112	2.9319	2.2768	3.1837	0.8392
6.0939	5.7663	6.703	6.2943	5.5714	6.0696	5.9992	5.0381	5.4821	5.2547	4.6212	4.1664	3.3299	-5.9207	4.2747	4.2178	-0.509	0.9665	3.3894	3.1322	2.1116	3.2243	0.8365
6.1075	5.8124	6.7328	6.2834	5.5416	6.01	5.945	4.9542	5.3684	5.206	4.4642	4.05	3.3244	-4.6699	4.3803	4.2828	-0.5279	0.8934	3.2405	3.3136	1.9194	3.2378	0.8122
6.1264	5.8476	6.722	6.3132	5.5065	5.945	5.8936	4.8567	5.252	5.1518	4.3451	3.9336	3.3244	-2.6612	4.4967	4.3451	-0.5685	0.8474	3.1187	3.4679	1.7732	3.2459	0.777
6.1345	5.8503	6.7112	6.2618	5.4686	5.853	5.8313	4.7457	5.1274	5.0706	4.1772	3.7982	3.3055	-0.222	4.5535	4.4046	-0.5658	0.7743	2.9698	3.6385	1.5891	3.2432	0.7526
6.1183	5.8476	6.6787	6.2428	5.4009	5.7799	5.7772	4.6429	4.9975	5.0408	4.0391	3.6872	3.3461	2.385	4.605	4.4236	-0.5739	0.7364	2.8317	3.8361	1.4484	3.2378	0.712
6.0939	5.8421	6.6624	6.2401	5.3521	5.7095	5.7203	4.5427	4.8811	4.9758	3.9471	3.587	3.4002	4.7376	4.6753	4.4696	-0.582	0.7147	2.7153	4.0175	1.3103	3.2189	0.6903
6.0885	5.8151	6.6272	6.2212	5.3305	5.6283	5.6526	4.4561	4.762	4.9488	3.8388	3.514	3.4679	6.5677	4.6862	4.4885	-0.5956	0.7201	2.6287	4.2232	1.2101	3.1999	0.6795
6.0262	5.7907	6.5731	6.1426	5.2628	5.5308	5.585	4.3586	4.6564	4.8838	3.7603	3.43	3.5356	7.5883	4.678	4.4696	-0.601	0.7364	2.5258	4.4073	1.0964	3.1945	0.6795
6.0073	5.7636	6.5325	6.1481	5.2222	5.4658	5.5362	4.2882	4.5698	4.8594	3.7062	3.3894	3.6466	7.6749	4.6808	4.4452	-0.6091	0.7932	2.4392	4.632	1.0396	3.1756	0.6903
5.9883	5.7501	6.5	6.1454	5.1978	5.4063	5.5281	4.2584	4.521	4.8621	3.6926	3.3921	3.8117	6.7382	4.6266	4.4209	-0.6199	0.8961	2.3823	4.8405	1.0044	3.1647	0.7066
5.9477	5.723	6.4486	6.1291	5.1843	5.344	5.52	4.2205	4.4588	4.8784	3.7007	3.3975	4.0094	4.8676	4.5887	4.3748	-0.6254	1.0477	2.293	5.0462	0.9935	3.1566	0.7255
5.899	5.7095	6.3944	6.121	5.1681	5.3034	5.5037	4.2016	4.4236	4.9163	3.7441	3.4381	4.2151	2.2659	4.5021	4.2557	-0.6199	1.2426	2.2307	5.2168	1.0098	3.1593	0.7472
5.8367	5.6635	6.343	6.1237	5.1464	5.2168	5.52	4.1962	4.41	5.0002	3.7928	3.4815	4.4777	-0.6362	4.4236	4.1799	-0.6145	1.4727	2.1658	5.3278	1.0612	3.1458	0.7716
5.7826	5.6229	6.2753	6.1264	5.1356	5.1789	5.5525	4.2205	4.3884	5.0977	3.8713	3.5681	4.762	-3.4733	4.3342	4.0798	-0.5956	1.7597	2.0845	5.3684	1.1262	3.1268	0.7716
5.6824	5.5389	6.1941	6.1075	5.1302	5.1464	5.585	4.2178	4.4127	5.2032	3.9796	3.6547	5.0625	-5.8313	4.188	3.9471	-0.5658	2.0873	2.006	5.3359	1.2074	3.1349	0.7797
5.585	5.4658	6.1183	6.1075	5.0895	5.0652	5.6337	4.2232	4.4209	5.3576	4.0825	3.763	5.39	-7.3474	4.05	3.8009	-0.5631	2.4825	1.9302	5.3007	1.2859	3.1214	0.777
5.4523	5.3684	6.0127	6.0885	5.0381	5.0219	5.677	4.2287	4.4263	5.5037	4.188	3.8605	5.7095	-7.8698	3.9119	3.6358	-0.5387	2.8561	1.8544	5.1978	1.3617	3.0889	0.7445
5.3061	5.2818	5.899	6.0668	4.9813	4.9542	5.7339	4.2395	4.4182	5.6608	4.2774	3.9606	6.0344	-7.3203	3.7143	3.4733	-0.5144	3.2405	1.7732	5.0544	1.4348	3.0889	0.7201
5.1599	5.1518	5.7663	5.9965	4.9271	4.873	5.7934	4.2449	4.4398	5.8394	4.3965	4.0825	6.3755	-5.8259	3.5194	3.2486	-0.5225	3.6385	1.7082	4.9271	1.5404	3.0889	0.6768
4.9542	5.0219	5.6283	5.9477	4.808	4.7674	5.8015	4.2205	4.4534	5.9992	4.4777	4.1583	6.7085	-3.6791	3.3244	3.0402	-0.5333	4.0202	1.6297	4.7701	1.6108	3.0943	0.6335
4.7484	4.8486	5.4631	5.8394	4.6943	4.678	5.8151	4.1962	4.4425	6.1616	4.5671	4.2611	6.9981	-1.0856	3.1025	2.7938	-0.5739	4.3775	1.5675	4.6158	1.6676	3.097	0.5631
4.5373	4.6835	5.2763	5.7095	4.5671	4.5373	5.7772	4.161	4.4209	6.3078	4.6537	4.3369	7.3013	1.5431	2.8399	2.5691	-0.647	4.7241	1.4781	4.4534	1.7678	3.1241	0.5198
4.2963	4.475	5.0814	5.5714	4.4182	4.3857	5.7663	4.0933	4.3803	6.3836	4.6997	4.383	7.5558	3.8794	2.5908	2.3038	-0.7174	5.011	1.4294	4.3017	1.8111	3.1322	0.4792
4.0446	4.2611	4.8621	5.39	4.2638	4.2557	5.696	4.0473	4.3126	6.5054	4.7539	4.4344	7.8238	5.5714	2.3336	2.0548	-0.8257	5.3007	1.3834	4.1772	1.895	3.1593	0.4332
3.7874	4.0283	4.6185	5.206	4.0825	4.0798	5.6256	4.0012	4.2747	6.5948	4.8269	4.4831	8.0675	6.408	2.0439	1.7678	-0.9177	5.5823	1.3238	4.0391	1.9546	3.1728	0.4061
3.5167	3.8063	4.3505	4.9785	3.9633	3.9336	5.5335	3.9552	4.2205	6.6895	4.873	4.5373	8.2949	6.2536	1.7597	1.5025	-1.0071	5.853	1.2968	3.9282	2.0439	3.1999	0.379
3.2811	3.587	4.1447	4.7863	3.8226	3.7684	5.4686	3.9065	4.1772	6.7734	4.9325	4.5698	8.5142	5.0706	1.5187	1.2697	-1.1072	6.1075	1.2724	3.7793	2.1468	3.208	0.379
3.0267	3.3623	3.9336	4.5725	3.6791	3.6249	5.3928	3.8794	4.1393	6.8519	4.9813	4.6239	8.747	2.9644	1.2751	1.0342	-1.1587	6.3755	1.2507	3.6222	2.2443	3.2162	0.3763
2.7641	3.1322	3.6953	4.3478	3.5329	3.4598	5.2655	3.8442	4.1014	6.9359	5.0219	4.6401	8.9527	0.2626	1.0314	0.8067	-1.1912	6.6218	1.2534	3.5112	2.3526	3.2107	0.3546
2.5015	2.9211	3.4598	4.1204	3.3975	3.3109	5.1924	3.8226	4.0635	7.0252	5.1085	4.7132	9.1558	-2.6476	0.7986	0.5902	-1.2209	6.8952	1.267	3.4165	2.4771	3.1945	0.3655
2.2307	2.7234	3.2189	3.8903	3.2568	3.1268	5.0706	3.7901	4.0175	7.0739	5.1356	4.7132	9.348	-5.3928	0.5712	0.3357	-1.2182	7.1389	1.2913	3.3353	2.5962	3.1539	0.3492
1.9708	2.5096	3.0023	3.7116	3.116	2.9698	4.984	3.7657	3.9796	7.1416	5.2005	4.762	9.5727	-7.5179	0.3411	0.1381	-1.2074	7.3934	1.3374	3.3082	2.7234	3.1106	0.333
1.7055	2.293	2.783	3.4842	2.9996	2.8344	4.919	3.7468	3.939	7.193	5.2872	4.8026	9.7514	-8.7389	0.1516	-0.0569	-1.2101	7.6289	1.378	3.3163	2.8453	3.0537	0.314
1.4511	2.09	2.5529	3.3217	2.8615	2.6855	4.8513	3.7116	3.9011	7.2418	5.3332	4.8134	9.9219	-8.9744	-0.0677	-0.287	-1.2101	7.8482	1.4429	3.3813	2.9969	2.986	0.2761
1.1939	1.9357	2.3201	3.1458	2.7641	2.5881	4.7863	3.698	3.8794	7.3284	5.3738	4.8459	10.0898	-8.1731	-0.2707	-0.4846	-1.2101	8.0945	1.4944	3.4896	3.1431	2.9157	0.2274
0.8825	1.7516	2.0656	2.9698	2.6287	2.4094	4.716	3.6493	3.7955	7.3582	5.4036	4.8269	10.2062	-6.5866	-0.5117	-0.7472	-1.183	8.2624	1.5187	3.6033	3.2568	2.8507	0.1733
0.6416	1.581	1.8842	2.802	2.5258	2.2768	4.6483	3.6331	3.7657	7.3961	5.4577	4.8215	10.309	-4.3559	-0.712	-0.9286	-1.2101	8.4627	1.5918	3.7847	3.3975	2.7911	0.1245
0.3628	1.3834	1.6406	2.6206	2.4121	2.1333	4.5508	3.587	3.6953	7.3825	5.4631	4.7972	10.3767	-1.9275	-0.9556	-1.2047	-1.2291	8.5927	1.6379	3.9525	3.4977	2.7532	0.0812
0.1272	1.2345	1.4294	2.4338	2.3174	2.0169	4.4561	3.5681	3.6331	7.3988	5.52	4.789	10.4525	0.4629	-1.1668	-1.4023	-1.2426	8.7253	1.6947	4.1339	3.6574	2.691	0.0406
-0.1381	1.0883	1.2264	2.2497	2.2091	1.868	4.3721	3.5329	3.5898	7.3555	5.5444	4.7376	10.4823	2.4257	-1.3536	-1.6433	-1.2643	8.8147	1.7597	4.3288	3.7738	2.6449	0.0135
-0.3438	0.9556	1.0071	2.0954	2.1116	1.7516	4.2801	3.5085	3.5356	7.3284	5.5552	4.7132	10.5283	3.7089	-1.5593	-1.8436	-1.2995	8.885	1.8219	4.4858	3.9065	2.5881	-0.0487
-0.5848	0.8203	0.8149	1.9086	2.0223	1.6487	4.1853	3.4788	3.4788	7.2959	5.5768	4.6537	10.5229	4.0716	-1.7489	-2.0575	-1.3184	8.9311	1.8978	4.5671	4.0283	2.5529	-0.0839
-0.8013	0.7012	0.5902	1.7245	1.9546	1.516	4.0554	3.4463	3.4165	7.2201	5.5877	4.6212	10.5283	3.4057	-1.9275	-2.2524	-1.3347	9.0204	1.9708	4.6537	4.1474	2.515	-0.1218
-0.9935	0.5658	0.4169	1.5323	1.868	1.4132	3.939	3.3948	3.3434	7.1416	5.5931	4.5698	10.5067	1.784	-2.1089	-2.4663	-1.3536	9.0745	1.9871	4.678	4.2584	2.4663	-0.1624
-1.2155	0.4277	0.2003	1.3184	1.7678	1.2913	3.8063	3.3326	3.2703	7.0793	5.612	4.5237	10.5121	-0.647	-2.247	-2.6504	-1.378	9.1449	2.0466	4.7024	4.3775	2.4148	-0.1976
-1.4077	0.2815	0.0406	1.1289	1.6595	1.1858	3.6601	3.3028	3.1918	7.009	5.6147	4.4804	10.4985	-3.5979	-2.3959	-2.8344	-1.3753	9.1937	2.0683	4.7024	4.4804	2.3742	-0.2545
-1.5729	0.1949	-0.1435	0.9584	1.5756	1.091	3.541	3.2649	3.1214	6.9359	5.6364	4.4209	10.4823	-6.6164	-2.5448	-3.005	-1.3834	9.2586	2.0818	4.7078	4.5941	2.3174	-0.3032
-1.7813	0.0352	-0.3384	0.7499	1.4781	0.9881	3.403	3.1945	3.0618	6.8763	5.6202	4.3721	10.4633	-9.3074	-2.6964	-3.1891	-1.3455	9.3588	2.0845	4.6862	4.7187	2.2659	-0.3628
-1.9627	-0.0677	-0.4981	0.5848	1.3915	0.8798	3.273	3.1512	2.9888	6.768	5.6174	4.3072	10.4417	-11.2511	-2.8047	-3.3515	-1.3347	9.4346	2.0873	4.6537	4.8161	2.1983	-0.4359
-2.136	-0.1787	-0.6849	0.4142	1.3022	0.7634	3.1539	3.1025	2.8994	6.676	5.6012	4.2449	10.3875	-12.2257	-2.913	-3.4815	-1.2805	9.4725	2.0466	4.6022	4.8892	2.1224	-0.4927
-2.2795	-0.2491	-0.8338	0.2707	1.267	0.6741	3.0294	3.0754	2.8344	6.5839	5.6093	4.1962	10.3469	-12.1337	-2.9996	-3.5762	-1.2507	9.5564	2.006	4.5643	4.9813	2.0277	-0.5685
-2.4392	-0.3303	-1.0098	0.1002	1.1695	0.5685	2.8913	3.0158	2.7316	6.4729	5.5768	4.1231	10.2793	-11.0021	-3.0673	-3.6412	-1.2291	9.5754	1.9384	4.4858	5.0354	1.9248	-0.6362
-2.5691	-0.3953	-1.1424	-0.046	1.1235	0.4711	2.7776	2.9671	2.6476	6.3511	5.5552	4.0256	10.1764	-9.0583	-3.1133	-3.7062	-1.202	9.5997	1.8274	4.4182	5.0814	1.8111	-0.6876
-2.6964	-0.4196	-1.2778	-0.1651	1.0693	0.3736	2.6639	2.9184	2.5664	6.2455	5.5416	3.9769	10.0925	-6.5839	-3.1458	-3.7414	-1.2047	9.616	1.7326	4.3153	5.1545	1.7028	-0.758
-2.8074	-0.4927	-1.4213	-0.3086	1.0342	0.2734	2.5367	2.8805	2.4906	6.1047	5.5119	3.893	9.9733	-3.9146	-3.1891	-3.7982	-1.1912	9.5943	1.6054	4.1799	5.2005	1.5864	-0.8203
-2.9075	-0.5198	-1.5404	-0.4413	0.98	0.1678	2.4148	2.8236	2.3905	5.9775	5.4983	3.8253	9.8515	-1.3834	-3.1999	-3.8226	-1.1858	9.5943	1.4646	4.0012	5.2466	1.4944	-0.8771
-2.9942	-0.6172	-1.6785	-0.5577	0.9042	0.0866	2.2849	2.7722	2.2957	5.8557	5.4713	3.7441	9.7378	0.6227	-3.1972	-3.8415	-1.1776	9.5808	1.3103	3.7928	5.2845	1.3834	-0.9502
-3.0835	-0.6524	-1.7895	-0.6551	0.8636	-0.0108	2.1658	2.7586	2.2713	5.7474	5.4658	3.7089	9.6349	1.9032	-3.2053	-3.8145	-1.1776	9.5862	1.2074	3.5383	5.3251	1.2805	-0.9881
-3.1431	-0.7255	-1.914	-0.7445	0.823	-0.1137	2.0629	2.7559	2.1847	5.631	5.4604	3.6304	9.5212	2.228	-3.2135	-3.8334	-1.1722	9.5727	1.0775	3.2838	5.3684	1.1912	-1.0423
-3.2189	-0.758	-2.0115	-0.8257	0.7688	-0.1733	1.9519	2.6883	2.1143	5.5444	5.4415	3.5573	9.4157	1.5675	-3.1647	-3.7684	-1.1749	9.57	1.0044	3.0158	5.4198	1.0991	-1.0964
-3.2514	-0.7986	-2.0954	-0.8663	0.7282	-0.2572	1.868	2.6531	2.0656	5.4442	5.4252	3.4977	9.3263	-0.0352	-3.1647	-3.763	-1.183	9.57	0.9204	2.7749	5.4767	1.0125	-1.1506
-3.2893	-0.8528	-2.1955	-0.915	0.6741	-0.3276	1.8219	2.6422	2.0169	5.3521	5.4225	3.4652	9.2641	-2.312	-3.1377	-3.717	-1.2155	9.5916	0.8961	2.5258	5.5281	0.9204	-1.1912
-3.3082	-0.8934	-2.2659	-0.9827	0.6362	-0.4169	1.7353	2.6341	1.9736	5.2655	5.4225	3.4057	9.191	-4.9758	-3.1214	-3.6872	-1.2453	9.5727	0.9015	2.2659	5.5904	0.8555	-1.2264
-3.3488	-0.9475	-2.3444	-0.9963	0.5658	-0.4629	1.7001	2.6097	1.9248	5.2005	5.4388	3.384	9.107	-7.5531	-3.0943	-3.6439	-1.2805	9.5673	0.9773	2.0358	5.6526	0.7526	-1.2561
-3.3705	-0.9746	-2.4013	-1.0125	0.5469	-0.5387	1.6379	2.5908	1.9005	5.1356	5.4496	3.3623	9.0285	-9.6593	-3.0618	-3.6141	-1.3157	9.5239	1.0477	1.8219	5.7203	0.6822	-1.313
-3.3975	-1.0125	-2.4744	-1.0666	0.5144	-0.5604	1.6081	2.5827	1.8788	5.1004	5.4794	3.3326	8.9608	-10.9913	-3.0591	-3.56	-1.3292	9.4888	1.1587	1.581	5.7961	0.5956	-1.378
-3.3975	-1.0369	-2.5069	-1.091	0.4819	-0.5983	1.5729	2.5908	1.8707	5.0516	5.4821	3.3136	8.8607	-11.3026	-3.0131	-3.514	-1.3455	9.4184	1.3076	1.4077	5.8557	0.5171	-1.4511
-3.43	-1.0693	-2.5177	-1.1181	0.4602	-0.6172	1.5133	2.6043	1.8734	4.9894	5.5146	3.3028	8.7768	-10.6041	-2.9752	-3.4571	-1.3347	9.3561	1.4619	1.2589	5.9207	0.4304	-1.5296
-3.4192	-1.0666	-2.5421	-1.1451	0.4413	-0.6335	1.4565	2.6097	1.868	4.9379	5.5173	3.2784	8.6712	-8.9933	-2.94	-3.4084	-1.3401	9.2695	1.6379	1.1587	6.0235	0.3682	-1.5973
-3.4381	-1.0639	-2.5827	-1.202	0.4304	-0.6606	1.4023	2.6233	1.868	4.8703	5.5362	3.2757	8.571	-6.6787	-2.9021	-3.3705	-1.3292	9.1774	1.803	1.0423	6.0912	0.3167	-1.6622
-3.4192	-1.0802	-2.5881	-1.2426	0.4223	-0.666	1.3509	2.6395	1.8896	4.8188	5.5416	3.2541	8.4735	-3.9444	-2.8669	-3.3326	-1.3374	9.0827	1.9844	0.9204	6.1643	0.2788	-1.7164
-3.4273	-1.0802	-2.5854	-1.3076	0.425	-0.6822	1.2778	2.6585	1.9005	4.7566	5.5525	3.2405	8.3274	-1.183	-2.8561	-3.2676	-1.3319	8.9608	2.1603	0.8771	6.2239	0.2382	-1.7786
-3.4192	-1.0558	-2.5962	-1.3428	0.4223	-0.6633	1.1885	2.6639	1.9086	4.6537	5.5444	3.227	8.1893	1.3103	-2.8155	-3.2243	-1.3563	8.7822	2.2903	0.8501	6.2726	0.2085	-1.8355
-3.4057	-1.0287	-2.5773	-1.3888	0.4359	-0.6795	1.1018	2.6774	1.895	4.5643	5.5498	3.2053	8.0729	3.1756	-2.7749	-3.1728	-1.3753	8.6306	2.4338	0.8419	6.3213	0.1895	-1.8788
-3.4165	-0.9963	-2.5746	-1.4511	0.4467	-0.6876	1.0098	2.6883	1.9032	4.4398	5.5389	3.2026	7.8969	4.1664	-2.7478	-3.1404	-1.405	8.4356	2.5339	0.8771	6.3565	0.2003	-1.9275
-3.3948	-0.9719	-2.5529	-1.4808	0.4548	-0.6795	0.9394	2.7153	1.9221	4.3396	5.5471	3.181	7.7507	4.1826	-2.7451	-3.1106	-1.4294	8.2516	2.6206	0.9015	6.3917	0.203	-1.9736
-3.3705	-0.9502	-2.5394	-1.5512	0.4873	-0.6524	0.8555	2.7451	1.9411	4.2395	5.5389	3.1647	7.6018	3.1837	-2.691	-3.0564	-1.4673	8.0404	2.6964	0.9584	6.408	0.2139	-1.9763
-3.3407	-0.9286	-2.4987	-1.5756	0.5062	-0.6416	0.7743	2.737	1.9492	4.1447	5.5173	3.1404	7.4529	1.2345	-2.6666	-3.0267	-1.5052	7.8617	2.7343	1.0504	6.4296	0.2355	-1.9844
-3.3082	-0.9367	-2.5069	-1.5891	0.5144	-0.6199	0.7201	2.7505	1.9654	4.0635	5.5173	3.162	7.3284	-1.3103	-2.6612	-3.005	-1.5323	7.6587	2.7668	1.1235	6.435	0.268	-1.9763
-3.2703	-0.9204	-2.4771	-1.6189	0.5144	-0.601	0.6524	2.7586	2.006	3.9904	5.5146	3.1593	7.2147	-4.1095	-2.6368	-2.9617	-1.5512	7.4908	2.7478	1.202	6.408	0.3086	-1.9925
-3.2297	-0.8825	-2.4284	-1.6189	0.5225	-0.5577	0.6362	2.7668	2.0548	3.9444	5.5092	3.181	7.1199	-6.703	-2.5718	-2.8967	-1.5539	7.3067	2.7478	1.3157	6.389	0.3222	-1.9546
-3.1972	-0.8717	-2.404	-1.6162	0.5441	-0.5225	0.6064	2.7884	2.0791	3.92	5.501	3.1945	7.0333	-8.7524	-2.5394	-2.848	-1.5431	7.1497	2.6937	1.4077	6.3673	0.3546	-1.9302
-3.1891	-0.8257	-2.3796	-1.6379	0.5252	-0.4873	0.5956	2.7965	2.1576	3.8957	5.4848	3.2378	6.9521	-9.9246	-2.5285	-2.8074	-1.4944	7.0171	2.6368	1.5431	6.3294	0.3844	-1.8978
-3.116	-0.777	-2.2903	-1.6	0.601	-0.4115	0.6172	2.8372	2.2362	3.8875	5.5037	3.2811	6.9088	-10.0085	-2.4608	-2.7126	-1.4592	6.8871	2.6016	1.6731	6.3294	0.398	-1.8653
-3.07	-0.7039	-2.2389	-1.5648	0.6199	-0.3574	0.6389	2.8669	2.3038	3.9011	5.4956	3.3515	6.8573	-9.1612	-2.3796	-2.6585	-1.3753	6.7545	2.5448	1.7949	6.2726	0.4304	-1.849
-3.0104	-0.6362	-2.201	-1.4917	0.6551	-0.2843	0.6822	2.8805	2.358	3.9227	5.4767	3.3759	6.7897	-7.415	-2.3282	-2.5583	-1.2805	6.6381	2.5123	1.8923	6.2401	0.4575	-1.8301
-2.9265	-0.5414	-2.0791	-1.4132	0.7309	-0.1706	0.7824	2.9346	2.4554	3.9931	5.4983	3.4625	6.7815	-5.0679	-2.2253	-2.4392	-1.1993	6.5704	2.5231	2.025	6.2184	0.4738	-1.7976
-2.8263	-0.4656	-1.9871	-1.2995	0.7688	-0.0704	0.8798	2.9536	2.5231	4.0419	5.5092	3.5356	6.7545	-2.4284	-2.1333	-2.3661	-1.091	6.4621	2.4717	2.1116	6.1778	0.4981	-1.7759
-2.7424	-0.3898	-1.8815	-1.2047	0.8392	0.0298	0.9935	2.986	2.6341	4.1393	5.5092	3.5898	6.7464	0.176	-2.0602	-2.2632	-0.9773	6.4242	2.4663	2.1793	6.1372	0.5414	-1.7651
-2.6504	-0.2843	-1.7759	-1.0775	0.8907	0.1408	1.1343	3.0212	2.7126	4.2422	5.5065	3.652	6.7572	2.3959	-1.9546	-2.1522	-0.8853	6.3863	2.4663	2.2362	6.1129	0.582	-1.7489
-2.5556	-0.1922	-1.6812	-0.9529	0.9394	0.2193	1.2128	3.0429	2.802	4.3153	5.5119	3.7278	6.768	3.9011	-1.9005	-2.0629	-0.7824	6.3701	2.4906	2.2578	6.0804	0.6389	-1.7326
-2.4852	-0.1137	-1.5837	-0.8338	0.9935	0.3113	1.3076	3.0456	2.8751	4.383	5.4983	3.7766	6.7491	4.5237	-1.8192	-2.006	-0.6849	6.3619	2.4717	2.2524	6.0154	0.693	-1.7137
-2.4067	-0.046	-1.5025	-0.7201	1.0369	0.3898	1.4105	3.0754	2.9238	4.4425	5.4929	3.828	6.7436	4.161	-1.7434	-1.9086	-0.5956	6.3294	2.4825	2.2253	5.9775	0.7472	-1.6812
-2.2957	0.0271	-1.4456	-0.6281	1.091	0.4575	1.5025	3.0727	2.986	4.5292	5.4983	3.8821	6.7436	2.7695	-1.692	-1.8626	-0.5035	6.343	2.5123	2.2172	5.9315	0.8311	-1.6541
-2.2362	0.092	-1.3834	-0.5577	1.11	0.5279	1.5756	3.0754	3.0321	4.5833	5.4929	3.9119	6.7545	0.5523	-1.6352	-1.8219	-0.4277	6.3511	2.496	2.247	5.8855	0.9096	-1.6162
-2.1522	0.157	-1.294	-0.4656	1.1722	0.5631	1.6487	3.0727	3.0781	4.6185	5.474	3.9471	6.7545	-2.2199	-1.5756	-1.7895	-0.3519	6.3403	2.4933	2.2605	5.8394	0.9746	-1.5783
-2.0683	0.2328	-1.2264	-0.4088	1.2318	0.6145	1.7028	3.0646	3.1187	4.6672	5.4794	3.9796	6.7328	-5.0408	-1.5485	-1.7461	-0.3005	6.3538	2.4933	2.3092	5.7826	1.0693	-1.5323
-2.0331	0.2897	-1.2047	-0.3628	1.267	0.647	1.7516	3.0673	3.1349	4.6699	5.4496	3.9931	6.7112	-7.5802	-1.5242	-1.7137	-0.2382	6.3294	2.4852	2.3715	5.7203	1.1424	-1.4808
-1.9979	0.3384	-1.1397	-0.3303	1.3265	0.6849	1.7597	3.051	3.1485	4.6591	5.409	3.9661	6.6706	-9.4184	-1.5133	-1.7434	-0.1841	6.2943	2.469	2.45	5.6283	1.2182	-1.4294
-1.96	0.4034	-1.1235	-0.3384	1.3374	0.7012	1.7461	3.0212	3.162	4.6347	5.3711	3.9715	6.6191	-10.2711	-1.4754	-1.7001	-0.1624	6.2645	2.4825	2.5204	5.5471	1.2561	-1.3753
-1.9113	0.4521	-1.0721	-0.3276	1.3915	0.7201	1.7353	3.0131	3.162	4.6077	5.3603	3.9633	6.5596	-10.0925	-1.4565	-1.6866	-0.1489	6.2482	2.5204	2.6125	5.4767	1.3076	-1.3103
-1.868	0.4792	-1.0585	-0.3357	1.4213	0.7255	1.7001	2.9617	3.1458	4.5481	5.2926	3.9227	6.481	-8.9473	-1.4267	-1.6595	-0.1381	6.1643	2.5177	2.6233	5.3819	1.3644	-1.2589
-1.8192	0.5469	-1.0098	-0.3601	1.4619	0.7445	1.6514	2.9725	3.1566	4.5021	5.2384	3.8686	6.408	-6.9359	-1.3996	-1.6514	-0.1462	6.1156	2.5502	2.6639	5.2682	1.3942	-1.2209
-1.7489	0.6172	-0.9502	-0.3492	1.4944	0.8122	1.627	2.9427	3.1728	4.4479	5.1978	3.8415	6.3105	-4.4344	-1.3644	-1.6243	-0.1895	6.075	2.5746	2.6558	5.187	1.4321	-1.1722
-1.6947	0.7093	-0.8744	-0.3438	1.5621	0.8609	1.5945	2.9373	3.1891	4.3857	5.1437	3.8117	6.232	-1.7516	-1.2968	-1.5593	-0.222	5.9748	2.5989	2.6341	5.0814	1.4538	-1.1343
-1.6081	0.7634	-0.8095	-0.3465	1.6135	0.8988	1.5566	2.9319	3.2189	4.3478	5.095	3.7847	6.1508	0.7851	-1.2399	-1.5133	-0.268	5.9044	2.6341	2.5989	5.0002	1.4863	-1.1154
-1.5025	0.8636	-0.6876	-0.314	1.711	0.999	1.5593	2.9671	3.2757	4.3505	5.076	3.7847	6.0831	2.848	-1.156	-1.4213	-0.3167	5.8232	2.7045	2.5583	4.8973	1.5052	-1.1018
-1.3969	0.9611	-0.5793	-0.2626	1.7895	1.0856	1.5702	2.9888	3.3542	4.3424	5.0706	3.7738	6.0181	4.142	-1.0748	-1.3319	-0.3492	5.7555	2.7316	2.5042	4.8134	1.5187	-1.1127
-1.2128	1.0829	-0.4277	-0.1895	1.9113	1.2291	1.6379	3.0646	3.4517	4.3667	5.0841	3.828	5.9829	4.5075	-0.9611	-1.2453	-0.3871	5.696	2.8155	2.4798	4.7376	1.5621	-1.1208
-1.0531	1.2128	-0.2599	-0.0514	2.0358	1.3698	1.7218	3.1431	3.5654	4.4127	5.1274	3.9092	5.9829	3.9119	-0.8771	-1.1289	-0.425	5.6472	2.9048	2.4663	4.7024	1.5945	-1.137
-0.8528	1.3455	-0.0948	0.0785	2.1766	1.5377	1.8328	3.2297	3.7035	4.4777	5.1518	3.9688	5.9775	2.3932	-0.7553	-0.9908	-0.4656	5.5931	3.0158	2.4446	4.6483	1.6324	-1.1614
-0.6579	1.516	0.1164	0.2355	2.312	1.7245	1.9654	3.3407	3.8632	4.5643	5.2195	4.0527	5.9883	0.1787	-0.6145	-0.8501	-0.4981	5.5416	3.116	2.3769	4.6239	1.6731	-1.2101
-0.4494	1.6622	0.3411	0.3953	2.4636	1.914	2.0818	3.4517	3.9985	4.6347	5.2953	4.1366	6.01	-2.3932	-0.5035	-0.7039	-0.536	5.4983	3.2351	2.3282	4.6077	1.7407	-1.2453
-0.2518	1.8247	0.5631	0.5658	2.6476	2.1387	2.2632	3.5979	4.1908	4.762	5.3873	4.2584	6.0425	-4.9298	-0.3736	-0.5333	-0.5658	5.4686	3.3651	2.2524	4.6104	1.7976	-1.2832
-0.0866	1.9844	0.7526	0.7282	2.8101	2.3201	2.3688	3.7251	4.3451	4.8459	5.4469	4.3613	6.0479	-6.9981	-0.2897	-0.3898	-0.5875	5.4063	3.514	2.1766	4.586	1.8896	-1.2995
0.1299	2.1901	0.9827	0.9313	2.9698	2.5475	2.5448	3.8794	4.5346	4.9704	5.5633	4.5021	6.102	-8.2543	-0.1245	-0.2166	-0.6172	5.3549	3.6466	2.1008	4.5914	1.9519	-1.3347
0.314	2.3417	1.1776	1.1235	3.1322	2.7641	2.7316	4.0202	4.7214	5.0923	5.6418	4.6131	6.1508	-8.5521	-0.0162	-0.0893	-0.6281	5.3034	3.7522	1.9952	4.5887	2.0385	-1.3753
0.5035	2.5285	1.405	1.3157	3.3082	2.9779	2.8913	4.1718	4.8919	5.206	5.7393	4.7376	6.1887	-7.7778	0.0839	0.065	-0.6362	5.2628	3.8903	1.9194	4.5779	2.1333	-1.4267
0.6903	2.6937	1.6162	1.5296	3.495	3.1999	3.0862	4.3315	5.0841	5.3278	5.8476	4.8567	6.2428	-6.0858	0.2274	0.2518	-0.6579	5.206	3.9877	1.8165	4.5941	2.2226	-1.47
0.8853	2.8615	1.8138	1.7353	3.6439	3.4057	3.2541	4.4642	5.2574	5.4388	5.9342	4.9758	6.2726	-3.698	0.3357	0.398	-0.6795	5.1383	4.0879	1.7407	4.5914	2.3092	-1.5052
1.0639	3.0212	2.0169	1.914	3.7928	3.6114	3.43	4.6077	5.4279	5.5606	6.0127	5.0895	6.278	-0.915	0.4332	0.5658	-0.693	5.0516	4.1339	1.6731	4.5887	2.4067	-1.5512
1.2237	3.1377	2.2037	2.0845	3.9254	3.7847	3.587	4.6943	5.5471	5.6445	6.0641	5.1708	6.2834	1.9194	0.5144	0.6876	-0.712	4.9515	4.1799	1.6189	4.5589	2.5096	-1.5918
1.378	3.2784	2.3688	2.2416	4.0608	3.9661	3.7062	4.8134	5.6987	5.7203	6.1291	5.2628	6.2861	4.4561	0.5875	0.8392	-0.7255	4.8351	4.2151	1.6054	4.5562	2.6043	-1.6135
1.4944	3.3678	2.4852	2.358	4.1799	4.1068	3.8036	4.9271	5.8313	5.7853	6.2049	5.3359	6.2482	6.3673	0.6741	0.9232	-0.7418	4.7051	4.2476	1.6297	4.5237	2.7045	-1.6135
1.627	3.4896	2.6585	2.4825	4.3017	4.3072	3.8984	5.0354	5.964	5.8476	6.2753	5.4198	6.2212	7.4015	0.7228	1.0612	-0.7634	4.5806	4.2476	1.6893	4.5319	2.7938	-1.6162
1.7191	3.56	2.737	2.4933	4.4019	4.3857	3.9173	5.1274	6.0452	5.8449	6.2943	5.4604	6.1616	7.3907	0.7391	1.0964	-0.7634	4.429	4.2259	1.738	4.4885	2.8859	-1.6108
1.8165	3.6574	2.8453	2.5529	4.4994	4.494	3.92	5.206	6.1291	5.8313	6.3349	5.5065	6.0939	6.3511	0.7688	1.1776	-0.7661	4.2774	4.2368	1.8355	4.4804	2.9752	-1.5621
1.9005	3.7468	2.9346	2.5962	4.5995	4.6158	3.9471	5.2682	6.2076	5.8259	6.3701	5.5795	6.0614	4.3775	0.7986	1.2345	-0.7661	4.1745	4.2503	1.9654	4.475	3.0239	-1.5133
1.979	3.8199	3.0158	2.626	4.6835	4.6997	3.9525	5.3467	6.2645	5.8232	6.4052	5.6039	6.0371	1.7624	0.8392	1.3184	-0.7418	4.05	4.2259	2.09	4.4696	3.07	-1.4565
2.0439	3.8524	3.0618	2.607	4.7593	4.7809	3.9498	5.4063	6.3403	5.7988	6.4269	5.6635	5.9802	-1.11	0.8555	1.3265	-0.693	3.9552	4.2097	2.2172	4.4615	3.1079	-1.405
2.0927	3.8984	3.0889	2.6043	4.8324	4.8486	3.92	5.4794	6.4134	5.7772	6.4621	5.696	5.9288	-3.8063	0.8798	1.3617	-0.6227	3.8415	4.2151	2.3309	4.4561	3.1458	-1.3374
2.1089	3.9552	3.1214	2.5935	4.9082	4.8838	3.9227	5.5416	6.4783	5.7799	6.4892	5.742	5.88	-5.9071	0.9204	1.3861	-0.5685	3.7847	4.2287	2.4825	4.4642	3.162	-1.2859
2.1549	3.985	3.1539	2.5746	4.984	4.9488	3.9309	5.5931	6.5514	5.7826	6.5217	5.7961	5.8476	-7.147	0.8934	1.3888	-0.4846	3.7143	4.2476	2.5962	4.4804	3.1701	-1.2534
2.1441	3.9985	3.1837	2.5637	5.0408	4.9975	3.9309	5.6418	6.6029	5.788	6.5406	5.8232	5.807	-7.3474	0.9232	1.4023	-0.3898	3.6439	4.2476	2.691	4.4831	3.1837	-1.2074
2.1631	4.0364	3.1647	2.5637	5.1004	5.0489	3.92	5.6824	6.6408	5.7961	6.565	5.8611	5.7636	-6.5217	0.9259	1.3915	-0.2951	3.6033	4.2828	2.7695	4.4885	3.162	-1.183
2.136	4.0554	3.1918	2.5421	5.1572	5.0814	3.9282	5.7447	6.7247	5.8232	6.5839	5.9288	5.7366	-4.8242	0.9367	1.3698	-0.2193	3.5789	4.3342	2.8344	4.5183	3.1539	-1.1533
2.1143	4.031	3.1566	2.5096	5.1843	5.0598	3.9146	5.7474	6.722	5.7826	6.5758	5.899	5.6851	-2.5394	0.9367	1.3563	-0.0893	3.5248	4.3424	2.8101	4.475	3.1295	-1.1262
2.1306	4.0771	3.1972	2.5204	5.2357	5.1274	3.9444	5.7988	6.7951	5.8259	6.6056	5.9531	5.6905	0.0866	0.9692	1.3509	-0.0352	3.5437	4.4127	2.783	4.4696	3.1322	-1.1154
2.1062	4.0527	3.162	2.5096	5.2736	5.1518	3.9498	5.8042	6.8113	5.8476	6.5948	5.9938	5.6418	2.6828	0.9692	1.3347	0.0271	3.5356	4.4831	2.7424	4.4858	3.1079	-1.091
2.071	4.0689	3.162	2.469	5.2899	5.1708	3.9606	5.807	6.8303	5.8584	6.5975	5.9938	5.6202	4.8378	0.9719	1.3049	0.0812	3.5383	4.5264	2.6666	4.4777	3.1106	-1.0477
2.0548	4.0933	3.1458	2.4636	5.3088	5.1491	3.9688	5.7907	6.8384	5.8746	6.592	5.991	5.5823	6.3484	0.9773	1.2643	0.111	3.5167	4.5589	2.5827	4.4777	3.1079	-1.026
2.0331	4.0743	3.1458	2.4636	5.3278	5.187	3.9688	5.7691	6.8655	5.8746	6.5677	6.0019	5.5525	6.9765	0.9827	1.248	0.1218	3.5112	4.6185	2.4636	4.4669	3.1214	-0.9935
1.9871	4.0391	3.1079	2.4311	5.3034	5.1545	3.9823	5.7663	6.8736	5.8476	6.5704	5.9992	5.5037	6.6435	0.9773	1.2209	0.1137	3.495	4.6293	2.3499	4.4479	3.1295	-0.9692
1.9438	4.0202	3.0673	2.4013	5.279	5.1491	3.9363	5.7339	6.833	5.8124	6.5244	5.9694	5.4225	5.2168	0.9421	1.1695	0.1327	3.449	4.6185	2.228	4.3911	3.1349	-0.9286
1.9275	4.0012	3.051	2.4094	5.2655	5.1545	3.9525	5.7149	6.8519	5.7934	6.5054	5.9396	5.3738	3.0158	0.9204	1.1154	0.1164	3.3786	4.6185	2.1495	4.383	3.1837	-0.8798
1.9059	3.9985	3.0185	2.4094	5.2493	5.1356	3.9552	5.696	6.8384	5.7501	6.5054	5.9396	5.3169	0.2978	0.9232	1.1072	0.111	3.3244	4.5914	2.0873	4.3803	3.2216	-0.8446
1.8355	3.9498	2.9698	2.3607	5.2087	5.1058	3.9417	5.6716	6.833	5.7068	6.4756	5.8963	5.252	-2.5583	0.8663	1.0396	0.111	3.2514	4.5481	2.025	4.3505	3.2541	-0.8122
1.8111	3.939	2.9509	2.3444	5.206	5.095	3.9173	5.6662	6.8086	5.6526	6.4513	5.8746	5.1599	-5.0354	0.8474	1.0017	0.1191	3.1783	4.4913	1.9844	4.3315	3.273	-0.7824
1.7651	3.9173	2.9265	2.2984	5.1735	5.0625	3.8821	5.631	6.787	5.5714	6.4215	5.8124	5.0706	-6.8952	0.8149	0.9692	0.1435	3.1025	4.4155	1.9329	4.3288	3.2947	-0.7851
1.7218	3.9309	2.8994	2.2849	5.187	5.0544	3.8415	5.6256	6.7653	5.4983	6.4377	5.8042	4.9921	-7.7778	0.7905	0.934	0.1543	3.0429	4.3424	1.9573	4.318	3.3001	-0.7607
1.6649	3.9227	2.8561	2.2443	5.1789	5.0354	3.782	5.6147	6.7247	5.4361	6.4188	5.7501	4.9109	-7.6451	0.7499	0.9042	0.1678	2.9996	4.272	1.9627	4.3153	3.3001	-0.7607
1.5945	3.92	2.8236	2.1847	5.1735	5.0083	3.6872	5.5768	6.6868	5.3088	6.3944	5.7014	4.7972	-6.5568	0.7472	0.8501	0.1868	2.913	4.2016	1.9952	4.2747	3.2838	-0.7851
1.5593	3.9336	2.8047	2.1333	5.2032	4.9975	3.6195	5.5768	6.6489	5.2249	6.3971	5.6445	4.7105	-4.6699	0.7472	0.8392	0.2166	2.8507	4.1393	2.0331	4.2909	3.2459	-0.7959
1.4971	3.9173	2.7776	2.0818	5.1924	4.965	3.5546	5.5877	6.6327	5.1085	6.3755	5.585	4.605	-2.3147	0.7364	0.8284	0.2328	2.7613	4.0852	2.1035	4.3017	3.2243	-0.8284
1.4619	3.9282	2.7695	2.0385	5.2005	4.9434	3.4733	5.5931	6.6056	4.9894	6.3701	5.5444	4.5021	0.2274	0.7174	0.7932	0.2734	2.6774	4.05	2.1414	4.3072	3.1756	-0.869
1.4159	3.9363	2.7641	1.979	5.1951	4.919	3.3813	5.5795	6.5433	4.8676	6.3403	5.4821	4.3857	2.5935	0.7228	0.7797	0.314	2.5746	4.0473	2.1576	4.3126	3.1485	-0.8907
1.3698	3.92	2.7424	1.9167	5.2249	4.919	3.3136	5.585	6.481	4.7566	6.3159	5.4469	4.2855	4.4615	0.7391	0.7824	0.3682	2.4852	4.0608	2.1685	4.3451	3.0889	-0.9394
1.3184	3.9363	2.7316	1.8707	5.2222	4.9	3.2216	5.5904	6.4431	4.6591	6.3267	5.3819	4.1989	5.5714	0.7039	0.7418	0.4169	2.4121	4.0987	2.1603	4.3775	3.0564	-0.9908
1.3049	3.9254	2.7343	1.8328	5.2195	4.8567	3.1349	5.5931	6.3836	4.5535	6.3294	5.344	4.1177	5.7447	0.7364	0.7797	0.4711	2.339	4.1258	2.0981	4.4317	2.9969	-1.0612
1.2805	3.939	2.7262	1.784	5.233	4.8513	3.0997	5.6012	6.3484	4.4696	6.3186	5.3034	4.0391	4.9352	0.7364	0.7499	0.5279	2.2822	4.1962	2.0277	4.4669	2.9698	-1.1208
1.2859	3.9038	2.6937	1.7624	5.2276	4.8026	3.005	5.5985	6.324	4.3748	6.3159	5.2628	3.9471	3.2053	0.7364	0.7499	0.5848	2.2199	4.2855	1.9221	4.5156	2.9211	-1.1803
1.2264	3.8605	2.6883	1.6758	5.2195	4.7511	2.9157	5.5877	6.2455	4.2638	6.2915	5.2087	3.8794	0.7553	0.7255	0.7039	0.6416	2.1522	4.364	1.7949	4.5752	2.8994	-1.2507
1.183	3.828	2.6774	1.6216	5.2114	4.716	2.8426	5.6012	6.2239	4.207	6.3024	5.1816	3.8388	-2.0737	0.6903	0.7039	0.6903	2.1035	4.4479	1.7245	4.6293	2.8696	-1.313
1.1506	3.7847	2.6531	1.5675	5.2087	4.6726	2.7722	5.5904	6.1778	4.1041	6.2915	5.1383	3.763	-4.854	0.6551	0.666	0.7364	2.0602	4.5319	1.6135	4.6645	2.8588	-1.378
1.1127	3.7684	2.5989	1.4971	5.2032	4.632	2.691	5.5985	6.1237	4.0121	6.3132	5.0923	3.717	-7.193	0.5983	0.5848	0.7932	2.0439	4.6158	1.5214	4.7322	2.8453	-1.4456
1.0396	3.7035	2.5773	1.4159	5.1951	4.5806	2.6206	5.6066	6.0993	3.9579	6.3159	5.0571	3.6899	-8.7605	0.5604	0.5496	0.8257	2.0683	4.7105	1.4294	4.7972	2.8182	-1.5242
0.9556	3.6737	2.5394	1.3698	5.1653	4.5156	2.5475	5.5633	6.0181	3.8848	6.2915	5.0137	3.6656	-9.3615	0.49	0.4548	0.8609	2.0845	4.7647	1.3211	4.8026	2.8155	-1.6027
0.8961	3.6439	2.4825	1.3157	5.1626	4.4831	2.4879	5.5606	5.9667	3.8334	6.2618	4.984	3.6331	-8.9148	0.4223	0.3925	0.8744	2.1197	4.8486	1.2101	4.8405	2.7992	-1.692
0.8176	3.6249	2.4365	1.2453	5.141	4.4479	2.4284	5.5444	5.9179	3.763	6.2482	4.9434	3.6168	-7.5206	0.3303	0.3032	0.8744	2.1712	4.8838	1.1018	4.8459	2.7803	-1.7813
0.7472	3.5925	2.3932	1.1695	5.1356	4.3911	2.3553	5.5065	5.8746	3.6953	6.2076	4.8946	3.5816	-5.4848	0.2491	0.1976	0.8744	2.1928	4.9271	0.9908	4.8242	2.7668	-1.8436
0.6606	3.5491	2.3444	1.1154	5.0841	4.3369	2.312	5.4848	5.8313	3.6628	6.167	4.8648	3.5654	-3.0158	0.1895	0.1191	0.8338	2.228	4.9406	0.888	4.8107	2.7289	-1.9194
0.582	3.5248	2.293	1.0342	5.0516	4.3072	2.228	5.4442	5.7691	3.6168	6.1102	4.8324	3.514	-0.4548	0.0839	-0.0027	0.8067	2.2578	4.9406	0.804	4.7647	2.6991	-1.9763
0.5252	3.5112	2.2334	0.9556	5.0408	4.2828	2.1739	5.3928	5.7095	3.541	6.0506	4.7809	3.4896	1.7976	0.0027	-0.111	0.7553	2.2984	4.9325	0.7661	4.7214	2.6504	-2.025
0.4467	3.4815	2.2064	0.8798	4.9948	4.2205	2.1143	5.3521	5.6608	3.5004	5.9775	4.7295	3.4598	3.4273	-0.0623	-0.2518	0.6849	2.3147	4.8892	0.7309	4.6456	2.626	-2.0602
0.3844	3.4463	2.1793	0.8203	4.9352	4.188	2.0466	5.279	5.612	3.4354	5.9098	4.6943	3.4111	4.2449	-0.1489	-0.3492	0.5983	2.3011	4.8324	0.7228	4.5671	2.6125	-2.0737
0.333	3.4165	2.1306	0.7526	4.8594	4.1583	1.9979	5.2249	5.5877	3.3732	5.8259	4.6537	3.3678	4.0419	-0.2653	-0.4765	0.509	2.2849	4.7701	0.7472	4.494	2.6097	-2.0791
0.268	3.3948	2.0737	0.6579	4.7836	4.1258	1.9248	5.141	5.5335	3.292	5.7312	4.6022	3.3001	2.8534	-0.3384	-0.6064	0.4061	2.2497	4.6591	0.7932	4.3857	2.5962	-2.0818
0.2166	3.3623	2.1008	0.5929	4.7403	4.1204	1.8653	5.0814	5.5037	3.2135	5.6499	4.5643	3.2486	0.7282	-0.4386	-0.7012	0.2897	2.2226	4.5833	0.8717	4.2909	2.6125	-2.025
0.176	3.3244	2.0575	0.5225	4.6835	4.096	1.8084	4.9948	5.4523	3.1539	5.5389	4.5075	3.2162	-1.9871	-0.5225	-0.823	0.1841	2.1631	4.4615	0.9475	4.1501	2.6504	-1.9573
0.157	3.3136	2.0954	0.4629	4.6456	4.0987	1.7434	4.9406	5.4442	3.0781	5.4794	4.494	3.1728	-4.9136	-0.5929	-0.8961	0.065	2.117	4.3207	1.0585	4.0635	2.6828	-1.8978
0.1462	3.2757	2.1089	0.3953	4.6131	4.1177	1.6785	4.8973	5.4252	3.0104	5.4117	4.4804	3.1214	-7.6316	-0.6633	-0.9638	-0.0217	2.0764	4.2016	1.1343	3.9796	2.718	-1.849
0.1218	3.2784	2.117	0.3628	4.5508	4.161	1.6135	4.8351	5.4279	2.9617	5.3603	4.4831	3.1377	-9.7297	-0.7255	-1.0423	-0.1083	2.0656	4.0906	1.1912	3.8848	2.7586	-1.7976
0.111	3.2649	2.136	0.3249	4.5075	4.1853	1.5675	4.7836	5.4009	2.9157	5.2899	4.4858	3.1133	-10.9371	-0.7905	-1.1181	-0.157	2.071	3.9688	1.1885	3.8036	2.802	-1.7461
0.1408	3.2811	2.2091	0.3032	4.4913	4.2341	1.5566	4.7782	5.4442	2.9102	5.2899	4.5129	3.1431	-11.0833	-0.7986	-1.1343	-0.1868	2.1035	3.8415	1.1966	3.7603	2.8263	-1.7082
0.1543	3.3109	2.293	0.3249	4.5075	4.3153	1.5945	4.7836	5.4902	2.94	5.279	4.5481	3.1864	-10.1683	-0.8013	-1.1397	-0.203	2.1576	3.7711	1.1993	3.7062	2.8588	-1.6839
0.2193	3.3759	2.3823	0.3736	4.5292	4.3803	1.6297	4.7918	5.5389	2.9833	5.2899	4.605	3.2541	-8.3707	-0.8257	-1.1614	-0.1895	2.2307	3.6818	1.156	3.6899	2.9021	-1.6731
0.3167	3.4598	2.5096	0.4223	4.6104	4.4723	1.692	4.8513	5.6093	3.07	5.3034	4.6591	3.3244	-5.8855	-0.8067	-1.1316	-0.1678	2.3444	3.6331	1.1479	3.6791	2.9292	-1.6595
0.4034	3.5546	2.6504	0.5144	4.6618	4.5914	1.7407	4.8811	5.677	3.1404	5.3278	4.7241	3.3975	-3.0916	-0.7743	-1.1235	-0.1272	2.3905	3.5789	1.0991	3.671	2.9617	-1.6487
0.4765	3.652	2.7586	0.5929	4.7376	4.6726	1.803	4.9352	5.7555	3.1918	5.3521	4.8053	3.4625	-0.3059	-0.7607	-1.1045	-0.0893	2.4663	3.5221	1.0531	3.6899	3.0131	-1.6514
0.5739	3.7495	2.9157	0.647	4.8215	4.7782	1.8734	5.0137	5.8205	3.2893	5.4334	4.8784	3.5248	2.1035	-0.7066	-1.0585	-0.046	2.5285	3.5004	0.999	3.7062	3.0564	-1.6595
0.6903	3.8578	3.0564	0.7337	4.9163	4.8703	1.9438	5.076	5.8963	3.3515	5.4631	4.9434	3.5898	3.8334	-0.6985	-1.0531	0.0108	2.5691	3.4544	0.9448	3.7549	3.1052	-1.6568
0.804	3.9769	3.1918	0.8122	5.0192	4.9542	2.0115	5.1437	5.9667	3.4246	5.5227	5.0354	3.6412	4.6699	-0.6254	-1.0179	0.0758	2.5773	3.4409	0.8771	3.7901	3.1783	-1.6541
0.9556	4.1041	3.3515	0.9204	5.1112	5.0462	2.0981	5.2276	6.0344	3.5085	5.5795	5.1139	3.7143	4.4479	-0.5956	-1.0071	0.1462	2.607	3.4138	0.8013	3.8496	3.2486	-1.6379
1.0314	4.2314	3.495	1.0152	5.2276	5.141	2.1847	5.3061	6.102	3.5789	5.6608	5.1816	3.7766	3.2351	-0.5631	-0.9638	0.2003	2.6152	3.4219	0.7228	3.9146	3.3488	-1.6406
1.1722	4.3532	3.6493	1.1208	5.3278	5.2249	2.2416	5.3792	6.167	3.6547	5.7014	5.2195	3.8334	1.1424	-0.5387	-0.934	0.2599	2.6206	3.4138	0.6903	3.9661	3.4517	-1.6054
1.2832	4.4615	3.7847	1.1749	5.4279	5.3088	2.3011	5.4604	6.213	3.7089	5.7447	5.2818	3.8875	-1.4646	-0.5008	-0.9096	0.3384	2.5962	3.4544	0.6362	4.0256	3.5464	-1.5945
1.3969	4.6158	3.92	1.2534	5.5173	5.3711	2.339	5.5335	6.2645	3.7414	5.8015	5.3034	3.939	-4.2043	-0.4819	-0.9204	0.4277	2.5718	3.5112	0.6064	4.0771	3.6439	-1.5512
1.5187	4.7349	4.0581	1.3265	5.6229	5.4388	2.3823	5.585	6.297	3.7928	5.8367	5.3359	3.9742	-6.6408	-0.4954	-0.9015	0.5035	2.5664	3.5573	0.6037	4.1312	3.7414	-1.5242
1.6216	4.8513	4.1853	1.4132	5.7095	5.4875	2.4229	5.6581	6.3186	3.8226	5.8855	5.3494	4.0094	-8.4329	-0.49	-0.9123	0.582	2.5746	3.6195	0.5766	4.1799	3.8307	-1.5052
1.757	4.9785	4.2963	1.4754	5.8232	5.5281	2.4987	5.7122	6.3376	3.8659	5.8909	5.3576	4.05	-9.2559	-0.509	-0.8798	0.6524	2.6043	3.7035	0.5712	4.2449	3.9119	-1.4808
1.8355	5.1031	4.4073	1.5729	5.899	5.5768	2.5367	5.7582	6.3538	3.9254	5.9342	5.3846	4.1204	-9.0583	-0.5252	-0.9015	0.7174	2.6206	3.7766	0.582	4.2801	4.004	-1.4646
1.9384	5.2249	4.5454	1.6758	5.9856	5.6391	2.626	5.8151	6.3809	3.9985	5.9694	5.4117	4.1799	-7.8671	-0.5577	-0.8744	0.7472	2.6855	3.8821	0.6145	4.3396	4.0689	-1.4484
2.0196	5.3278	4.6266	1.7597	6.0235	5.6689	2.6747	5.8421	6.3836	4.0419	5.9721	5.4117	4.207	-5.9044	-0.5956	-0.8771	0.777	2.7018	3.939	0.6497	4.3369	4.142	-1.4159
2.1089	5.4279	4.7268	1.8517	6.0696	5.7203	2.7695	5.8611	6.3944	4.1014	5.9856	5.4171	4.2584	-3.4598	-0.666	-0.8798	0.777	2.7532	4.004	0.6606	4.3613	4.2232	-1.3726
2.1874	5.5065	4.8459	1.9492	6.1183	5.7636	2.829	5.8828	6.4134	4.1556	5.9829	5.4307	4.318	-0.8392	-0.7337	-0.8961	0.7797	2.7695	4.0554	0.7174	4.3667	4.2855	-1.3401
2.2551	5.5823	4.9109	2.0521	6.1778	5.7934	2.9157	5.9071	6.4296	4.2259	5.9694	5.4415	4.3992	1.646	-0.7634	-0.8907	0.7472	2.8236	4.0987	0.7797	4.3532	4.3451	-1.3022
2.3255	5.6689	5.0192	2.1549	6.2076	5.8584	3.005	5.9396	6.4567	4.3261	5.9992	5.4713	4.5075	3.6385	-0.8392	-0.8825	0.6768	2.9048	4.1501	0.8744	4.3803	4.4046	-1.2616
2.4365	5.7474	5.141	2.2876	6.2834	5.9342	3.1133	5.9721	6.4973	4.4046	6.0262	5.5254	4.5887	4.8621	-0.9204	-0.9069	0.601	3.005	4.2016	1.0017	4.3748	4.4696	-1.2047
2.5529	5.8692	5.2736	2.4392	6.3538	6.0046	3.1945	6.0073	6.5406	4.5183	6.0452	5.5687	4.7295	5.2384	-0.9475	-0.8501	0.4927	3.1187	4.2557	1.1533	4.3775	4.5292	-1.1154
2.6476	5.9207	5.3792	2.561	6.4161	6.0696	3.3217	6.0317	6.5948	4.6104	6.0533	5.6202	4.8269	4.5968	-0.9773	-0.8555	0.3844	3.2243	4.2855	1.3103	4.3478	4.5806	-1.0504
2.7397	5.9938	5.501	2.718	6.4729	6.1481	3.4246	6.0614	6.6164	4.6997	6.0858	5.6743	4.9515	2.9996	-1.0233	-0.8528	0.2653	3.338	4.3234	1.4917	4.3369	4.6266	-0.9529
2.8426	6.0452	5.5904	2.8561	6.5271	6.186	3.5437	6.0912	6.6678	4.8053	6.102	5.742	5.076	0.7039	-1.0748	-0.8338	0.1408	3.4679	4.3478	1.6839	4.3261	4.6618	-0.8717
2.9346	6.1047	5.7122	2.9888	6.5487	6.2888	3.671	6.121	6.7464	4.9055	6.1318	5.8232	5.2141	-1.9438	-1.137	-0.8474	-0.0054	3.5735	4.3803	1.8463	4.318	4.697	-0.7959
3.0429	6.1372	5.8367	3.1404	6.592	6.3782	3.7793	6.1616	6.8249	5.0137	6.1616	5.88	5.3386	-4.5535	-1.183	-0.8663	-0.1354	3.6872	4.3884	1.9817	4.3017	4.716	-0.7337
3.1268	6.1887	5.9613	3.3136	6.6354	6.4621	3.9173	6.2076	6.8952	5.1329	6.2212	5.9694	5.4902	-6.6787	-1.2209	-0.8419	-0.2788	3.8172	4.3884	2.117	4.3099	4.7376	-0.6795
3.208	6.2347	6.0641	3.4409	6.6597	6.5487	4.0554	6.2212	6.9738	5.2493	6.2618	6.0452	5.6256	-8.081	-1.2507	-0.8257	-0.3817	3.9336	4.4019	2.2416	4.3099	4.7647	-0.6281
3.3055	6.2834	6.186	3.5816	6.7003	6.6381	4.1908	6.2645	7.0577	5.3873	6.3213	6.1454	5.7772	-8.4708	-1.267	-0.8338	-0.4711	4.0743	4.4371	2.3174	4.3315	4.7782	-0.5902
3.3759	6.3267	6.2753	3.6953	6.7355	6.7085	4.3099	6.3078	7.1335	5.5254	6.3565	6.2455	5.9234	-7.8509	-1.2968	-0.8338	-0.5279	4.1853	4.4452	2.3905	4.3424	4.7918	-0.5793
3.4327	6.3728	6.3782	3.7901	6.7788	6.7815	4.4263	6.3376	7.2147	5.6526	6.4215	6.3457	6.0777	-6.2509	-1.3265	-0.8311	-0.5658	4.3126	4.4534	2.4581	4.3532	4.8242	-0.5496
3.4896	6.3755	6.4594	3.8903	6.7897	6.8601	4.5454	6.3511	7.2743	5.7528	6.4513	6.4134	6.2076	-3.9958	-1.3238	-0.8176	-0.5712	4.4073	4.5021	2.5015	4.3559	4.8459	-0.5631
3.514	6.3809	6.5162	3.9444	6.7924	6.8682	4.6401	6.3619	7.3013	5.8638	6.4702	6.4756	6.3511	-1.3238	-1.3401	-0.8067	-0.5739	4.4994	4.5508	2.5718	4.3721	4.8594	-0.5739
3.5519	6.3863	6.5379	3.9661	6.7815	6.9034	4.7051	6.3592	7.3392	5.9748	6.5027	6.5541	6.4756	1.3996	-1.3482	-0.8203	-0.5658	4.5941	4.5995	2.626	4.3803	4.8892	-0.5766
3.5898	6.3673	6.5866	4.004	6.7572	6.9034	4.762	6.3619	7.3555	6.0614	6.5217	6.5948	6.6083	3.8442	-1.3319	-0.823	-0.555	4.6997	4.6564	2.672	4.4046	4.8919	-0.6145
3.6006	6.3376	6.5541	3.9769	6.722	6.8763	4.8053	6.3457	7.3528	6.1372	6.5406	6.6299	6.7328	5.6716	-1.3401	-0.8338	-0.5225	4.8324	4.6889	2.7451	4.4398	4.9163	-0.6416
3.5816	6.3186	6.5189	3.9525	6.6787	6.8276	4.8188	6.3105	7.3176	6.1995	6.546	6.6624	6.8276	6.6218	-1.3347	-0.8717	-0.4873	4.9379	4.7539	2.8209	4.4452	4.9406	-0.6876
3.5519	6.278	6.4702	3.8984	6.6354	6.7626	4.8053	6.2807	7.3013	6.2509	6.5623	6.6922	6.9521	6.5514	-1.3807	-0.9015	-0.4494	5.0462	4.7863	2.8967	4.4913	4.9596	-0.7012
3.5329	6.2157	6.4134	3.8388	6.6002	6.7003	4.7836	6.2482	7.2688	6.2943	6.5812	6.722	7.0848	5.4631	-1.3563	-0.9448	-0.4142	5.1924	4.8242	2.9915	4.5156	4.9731	-0.712
3.5004	6.1833	6.3457	3.7062	6.5731	6.6299	4.7268	6.2428	7.2228	6.3294	6.5948	6.7464	7.2012	3.4409	-1.3915	-1.026	-0.3655	5.3305	4.8703	3.0727	4.5589	5.0029	-0.7228
3.4381	6.1562	6.2591	3.5843	6.5352	6.5352	4.6645	6.2401	7.1633	6.3457	6.657	6.7599	7.3311	0.7959	-1.4186	-1.1072	-0.3249	5.4713	4.8946	3.2026	4.586	5.0327	-0.7391
3.3894	6.1291	6.1426	3.43	6.5054	6.4296	4.5995	6.2482	7.1254	6.3646	6.6814	6.7788	7.4611	-2.0981	-1.4456	-1.2128	-0.2843	5.6174	4.9217	3.3326	4.6456	5.0435	-0.7499
3.3163	6.0939	6.0289	3.2622	6.4892	6.3051	4.5021	6.2212	7.0577	6.3646	6.7057	6.7897	7.5802	-4.8351	-1.5296	-1.3265	-0.2464	5.742	4.9325	3.4463	4.678	5.0598	-0.7716
3.2216	6.0668	5.9179	3.1133	6.454	6.1968	4.4263	6.2212	7.0279	6.3592	6.7193	6.7897	7.6858	-7.0333	-1.5891	-1.4592	-0.2193	5.8449	4.9406	3.5546	4.7457	5.0787	-0.7824
3.1268	6.0371	5.7988	2.9373	6.4215	6.0696	4.3424	6.1968	6.9413	6.3457	6.7518	6.7924	7.8103	-8.3734	-1.6839	-1.6379	-0.203	5.945	4.9406	3.6412	4.7647	5.0895	-0.7824
3.0158	6.0235	5.6905	2.783	6.4269	5.9775	4.2476	6.2103	6.8898	6.3376	6.8086	6.8113	7.9159	-8.7091	-1.7624	-1.7461	-0.2057	6.0641	4.9894	3.7332	4.8269	5.0814	-0.804
2.9075	6.01	5.5687	2.5908	6.3809	5.8476	4.1637	6.1914	6.8303	6.3078	6.8303	6.8222	8.0242	-8.0404	-1.849	-1.8842	-0.1949	6.1508	4.9867	3.7766	4.8676	5.0787	-0.823
2.7965	5.9694	5.4442	2.4527	6.3673	5.7718	4.0906	6.1941	6.7788	6.324	6.8844	6.8384	8.1297	-6.4783	-1.9248	-2.0006	-0.1949	6.2455	4.984	3.8063	4.9217	5.0462	-0.8365
2.7207	5.9423	5.363	2.312	6.3294	5.7095	4.0256	6.2022	6.7436	6.3349	6.9304	6.8465	8.257	-4.2963	-2.0277	-2.117	-0.203	6.3863	4.9921	3.8334	4.9515	5.0435	-0.8771
2.6476	5.9477	5.298	2.2253	6.3376	5.6743	3.9877	6.2618	6.7247	6.3619	7.0035	6.8898	8.3977	-1.7434	-2.0845	-2.1955	-0.2193	6.5325	5.0273	3.8388	5.011	5.0273	-0.9232
2.5962	5.9477	5.2141	2.1549	6.3592	5.631	3.985	6.3051	6.7328	6.4323	7.0793	6.9548	8.5548	0.7661	-2.1549	-2.2741	-0.2436	6.6949	5.0516	3.828	5.0895	5.0219	-0.9638
2.5258	5.9531	5.1735	2.0737	6.3701	5.6283	3.9931	6.3592	6.7626	6.4756	7.1497	7.0198	8.7118	2.959	-2.1928	-2.312	-0.2382	6.8357	5.0787	3.7766	5.1653	5.03	-1.0044
2.5015	5.9721	5.1816	2.0412	6.4161	5.6202	4.0202	6.4404	6.7978	6.5677	7.2688	7.1254	8.8715	4.4994	-2.2199	-2.3147	-0.2409	7.0008	5.122	3.7278	5.2682	5.0273	-1.045
2.5015	5.9802	5.1437	2.0087	6.4459	5.612	4.0716	6.5244	6.8655	6.6543	7.3717	7.2147	9.0204	5.2087	-2.2443	-2.339	-0.2274	7.1497	5.1437	3.6493	5.344	5.0327	-1.091
2.4717	5.991	5.1437	1.9979	6.5	5.6337	4.1312	6.6164	6.925	6.7436	7.4827	7.3122	9.1612	4.9163	-2.2605	-2.3228	-0.2139	7.2851	5.1816	3.5925	5.4388	5.0706	-1.156
2.4852	6.056	5.1302	1.96	6.5812	5.6824	4.2016	6.7193	7.0062	6.8519	7.6181	7.4421	9.329	3.6764	-2.2605	-2.3092	-0.1868	7.4177	5.2547	3.5302	5.5362	5.0977	-1.2128
2.4879	6.0858	5.1031	1.9681	6.6245	5.6716	4.2314	6.8222	7.0766	6.925	7.7345	7.526	9.4671	1.581	-2.2524	-2.2632	-0.1733	7.5017	5.2953	3.4571	5.6418	5.141	-1.2534
2.4717	6.1589	5.095	1.9438	6.7085	5.6824	4.2666	6.9169	7.1281	7.0117	7.8671	7.6614	9.6079	-1.0585	-2.2605	-2.2713	-0.1245	7.591	5.363	3.3867	5.7284	5.187	-1.2859
2.4852	6.1751	5.0706	1.9357	6.7734	5.7312	4.3126	7.0008	7.2066	7.0685	7.9808	7.7751	9.6999	-3.7955	-2.2578	-2.2226	-0.092	7.6397	5.4334	3.3109	5.807	5.2303	-1.294
2.4798	6.2266	5.03	1.8707	6.8438	5.7122	4.3207	7.0983	7.2607	7.1308	8.0837	7.8617	9.8001	-6.2563	-2.2551	-2.228	-0.0541	7.6722	5.4523	3.227	5.8909	5.2763	-1.3319
2.4257	6.213	4.965	1.8057	6.8763	5.6905	4.3207	7.1578	7.3067	7.1362	8.1731	7.9186	9.8488	-8.0621	-2.2578	-2.1928	-0.0271	7.6912	5.4713	3.1052	5.945	5.3251	-1.3428
2.3878	6.2293	4.8919	1.7678	6.9007	5.677	4.2909	7.212	7.3365	7.1606	8.257	7.9863	9.8894	-8.9554	-2.2416	-2.1847	0	7.6533	5.501	2.9942	5.9802	5.3684	-1.3536
2.2768	6.1887	4.7566	1.6622	6.8736	5.6256	4.1962	7.2201	7.323	7.1227	8.2786	8.0214	9.8678	-8.8905	-2.2741	-2.2037	0.0217	7.5775	5.4875	2.8344	5.9992	5.4144	-1.3536
2.2172	6.1589	4.6618	1.5675	6.8601	5.5687	4.1474	7.2147	7.323	7.0956	8.3355	8.0106	9.8299	-7.813	-2.293	-2.2037	0.0244	7.48	5.4631	2.6801	6.01	5.4334	-1.3726
2.1441	6.0723	4.5454	1.4835	6.8276	5.5065	4.0879	7.2391	7.3067	7.0441	8.3409	8.0323	9.773	-5.9992	-2.3174	-2.2307	0.0298	7.369	5.4198	2.5123	5.991	5.4469	-1.3671
2.0385	6.0154	4.4046	1.3915	6.768	5.4415	3.9958	7.2093	7.2797	6.9873	8.3355	8.0377	9.6999	-3.6872	-2.3038	-2.2389	0.019	7.2228	5.344	2.3336	5.9342	5.4496	-1.3834
1.9411	5.9369	4.2774	1.2832	6.7003	5.3467	3.9525	7.1849	7.2472	6.9304	8.3301	8.0242	9.6106	-1.1803	-2.3336	-2.2362	0.019	7.0793	5.298	2.1468	5.9017	5.4388	-1.3915
1.868	5.853	4.1583	1.2101	6.6733	5.2899	3.8632	7.1524	7.2282	6.8682	8.2868	7.989	9.505	1.1533	-2.3417	-2.2307	0.0054	6.9548	5.2439	1.9817	5.853	5.4225	-1.424
1.757	5.7582	4.0337	1.1289	6.5948	5.206	3.7793	7.1118	7.1849	6.8059	8.257	7.9565	9.3913	3.0239	-2.3309	-2.2334	0	6.7815	5.1843	1.8301	5.788	5.3955	-1.4484
1.6703	5.6445	3.9254	1.0396	6.4946	5.1329	3.7143	7.036	7.1524	6.7193	8.2001	7.924	9.2559	4.161	-2.3065	-2.2443	0.0027	6.6056	5.1193	1.6839	5.696	5.3603	-1.4727
1.5891	5.5471	3.7793	0.9502	6.4052	5.0435	3.6249	6.9548	7.0793	6.5975	8.1162	7.8455	9.0989	4.3559	-2.3147	-2.2713	0.0162	6.4188	5.0625	1.5539	5.6039	5.3332	-1.5052
1.4917	5.4334	3.6547	0.8636	6.2915	4.9461	3.5275	6.8546	7.0279	6.4865	8.0485	7.7832	8.9473	3.5708	-2.3553	-2.312	0.0217	6.2266	4.9948	1.4456	5.5065	5.3197	-1.5242
1.4267	5.298	3.5194	0.7797	6.2184	4.873	3.4571	6.7761	6.9548	6.3809	7.9511	7.7074	8.7822	1.8842	-2.3553	-2.2984	0.0162	6.0533	4.9461	1.3374	5.3928	5.2926	-1.5485
1.3319	5.1626	3.3732	0.693	6.1102	4.7782	3.3569	6.6733	6.8871	6.2401	7.8671	7.6451	8.5981	-0.5848	-2.3823	-2.3417	0.0379	5.853	4.8892	1.2561	5.3034	5.279	-1.5702
1.2155	5.03	3.2595	0.5848	5.9829	4.6808	3.2568	6.5704	6.8222	6.1102	7.767	7.5829	8.4221	-3.4327	-2.4257	-2.4013	0.046	5.6635	4.8405	1.1885	5.1816	5.2953	-1.581
1.1072	4.9082	3.1295	0.5035	5.8746	4.5968	3.1512	6.4648	6.7464	5.9856	7.6749	7.5098	8.2434	-6.2509	-2.4527	-2.45	0.0514	5.4713	4.7809	1.137	5.0923	5.298	-1.5837
1.0044	4.762	3.005	0.3871	5.7447	4.5021	3.0321	6.3592	6.6516	5.8042	7.5693	7.4204	8.0756	-8.636	-2.515	-2.4987	0.0785	5.2763	4.7187	1.0748	4.965	5.298	-1.5702
0.915	4.6212	2.894	0.2897	5.6391	4.3884	2.9292	6.2618	6.5758	5.6445	7.4665	7.3717	7.8834	-10.2522	-2.5556	-2.5664	0.092	5.0868	4.6564	1.0179	4.8297	5.3142	-1.5702
0.8013	4.4913	2.7641	0.1841	5.5092	4.2801	2.7965	6.1183	6.4621	5.4388	7.3365	7.2553	7.7128	-10.8721	-2.6558	-2.6314	0.111	4.8892	4.5481	1.0125	4.6943	5.3359	-1.5566
0.693	4.383	2.6341	0.0433	5.3603	4.1664	2.6476	5.991	6.3592	5.2601	7.1957	7.1416	7.5152	-10.4146	-2.6964	-2.6937	0.1327	4.6862	4.4506	0.9773	4.5535	5.3359	-1.5431
0.5929	4.2638	2.515	-0.0433	5.2493	4.0743	2.515	5.8773	6.2672	5.0923	7.0604	7.0306	7.3446	-8.9987	-2.7668	-2.7478	0.1381	4.5319	4.3288	0.9584	4.3775	5.3576	-1.5269
0.444	4.1529	2.404	-0.203	5.1274	3.9309	2.339	5.723	6.1454	4.8757	6.8898	6.9169	7.1633	-6.8465	-2.8209	-2.7911	0.1299	4.3586	4.2043	0.9259	4.1826	5.3576	-1.5187
0.3465	4.0662	2.2903	-0.3249	5.011	3.8632	2.247	5.5931	6.0262	4.716	6.7518	6.8032	6.9792	-4.253	-2.8723	-2.8805	0.1191	4.2395	4.0581	0.9015	4.0121	5.3711	-1.4944
0.2491	3.9579	2.1901	-0.4521	4.8811	3.7495	2.09	5.4144	5.8936	4.5183	6.5406	6.6462	6.787	-1.5458	-2.94	-2.9157	0.111	4.0933	3.8903	0.9096	3.7901	5.3955	-1.4592
0.1408	3.8686	2.0927	-0.5875	4.7511	3.6168	1.9519	5.2601	5.7609	4.3153	6.3565	6.5244	6.6056	0.8798	-2.986	-2.9725	0.0839	3.9931	3.7062	0.9015	3.5816	5.4198	-1.4375
0.0379	3.7143	1.9627	-0.7472	4.5968	3.5085	1.7895	5.095	5.6147	4.1122	6.1616	6.3809	6.4188	2.7424	-3.0673	-3.0402	0.0623	3.8848	3.514	0.888	3.3623	5.4604	-1.4159
-0.046	3.6385	1.8788	-0.8582	4.475	3.4192	1.6595	4.919	5.4956	3.9444	5.9721	6.2428	6.2482	3.782	-3.097	-3.097	0.0271	3.7711	3.2811	0.8934	3.1404	5.4956	-1.3861
-0.1056	3.5519	1.8057	-0.9638	4.364	3.3407	1.5296	4.7566	5.3549	3.7522	5.7474	6.1129	6.0777	3.8415	-3.116	-3.1404	-0.0162	3.6764	3.07	0.8825	2.9157	5.5335	-1.3536
-0.157	3.4571	1.7082	-1.0666	4.2503	3.2541	1.4105	4.6077	5.2547	3.6006	5.566	5.9721	5.899	2.8561	-3.1241	-3.1349	-0.0731	3.5681	2.8372	0.8636	2.7045	5.5958	-1.313
-0.2193	3.4111	1.6487	-1.1641	4.1529	3.1972	1.2724	4.4479	5.1247	3.4436	5.39	5.8476	5.742	0.9529	-3.1512	-3.1972	-0.1191	3.4517	2.6125	0.8582	2.4852	5.6608	-1.2697
-0.2409	3.3678	1.6	-1.2345	4.1014	3.1485	1.1776	4.3396	5.0706	3.3353	5.233	5.7718	5.6174	-1.5864	-3.1268	-3.2026	-0.1949	3.3461	2.4013	0.8582	2.2795	5.7284	-1.2264
-0.2707	3.2893	1.5242	-1.3509	4.0175	3.0646	1.0585	4.2124	4.9758	3.1972	5.0408	5.6256	5.4307	-4.429	-3.1349	-3.208	-0.2545	3.2107	2.1631	0.8555	2.0521	5.7988	-1.1776
-0.3005	3.2378	1.4727	-1.4321	3.9525	3.0348	0.9638	4.0608	4.9	3.07	4.8811	5.5335	5.2926	-7.1118	-3.1512	-3.2216	-0.3032	3.097	1.9384	0.8555	1.8598	5.88	-1.1262
-0.3032	3.2162	1.4402	-1.4835	3.8605	2.986	0.8717	3.9417	4.8053	2.959	4.7268	5.4415	5.1653	-9.237	-3.1133	-3.2026	-0.3655	2.9779	1.738	0.8771	1.6839	5.9207	-1.091
-0.3276	3.1647	1.3996	-1.5404	3.809	2.9671	0.7851	3.8307	4.7268	2.8399	4.5995	5.3413	5.03	-10.5256	-3.0997	-3.1999	-0.3953	2.8615	1.5214	0.8988	1.4944	5.964	-1.0477
-0.3303	3.1593	1.3671	-1.5864	3.7495	2.9319	0.7039	3.7062	4.6429	2.7532	4.4236	5.2357	4.8757	-10.7747	-3.0673	-3.1674	-0.425	2.7262	1.3292	0.9042	1.313	5.9802	-1.0017
-0.3113	3.1539	1.3536	-1.6216	3.717	2.9238	0.6687	3.6493	4.6022	2.7045	4.3099	5.1518	4.7376	-10.0085	-3.0321	-3.116	-0.4602	2.6206	1.1641	0.9502	1.1235	5.9938	-0.9611
-0.2978	3.1377	1.3563	-1.6135	3.7007	2.8967	0.6389	3.5464	4.5454	2.6368	4.1637	5.0733	4.6374	-8.3707	-2.9292	-3.0077	-0.4792	2.5123	1.0017	0.9935	0.9286	5.9829	-0.9204
-0.2464	3.1783	1.359	-1.5973	3.6791	2.8913	0.6443	3.4869	4.5075	2.58	4.0608	4.9813	4.5237	-6.0641	-2.848	-2.8723	-0.5008	2.3823	0.8609	1.045	0.7499	5.945	-0.8744
-0.1895	3.1837	1.3969	-1.5648	3.6791	2.8805	0.6308	3.4192	4.4534	2.5475	3.9471	4.9	4.4155	-3.4896	-2.7343	-2.7559	-0.5306	2.3038	0.7282	1.0802	0.601	5.9261	-0.8636
-0.1408	3.2324	1.4294	-1.535	3.6764	2.9102	0.6199	3.3488	4.41	2.5069	3.828	4.7945	4.3017	-0.9394	-2.6531	-2.6097	-0.5414	2.1793	0.6145	1.1181	0.425	5.9342	-0.8419
-0.0433	3.2947	1.4863	-1.4484	3.6872	2.9265	0.6551	3.3163	4.3857	2.5042	3.7116	4.7376	4.2232	1.2751	-2.5204	-2.4798	-0.555	2.09	0.5414	1.1045	0.287	5.9234	-0.8392
0.0677	3.3163	1.5539	-1.3726	3.7062	2.9698	0.6822	3.2676	4.3803	2.5069	3.6141	4.6753	4.1204	2.8507	-2.3823	-2.3011	-0.5631	2.0087	0.4792	1.0991	0.1597	5.9342	-0.8365
0.1868	3.3894	1.6622	-1.267	3.717	3.0158	0.7607	3.2459	4.3721	2.5285	3.5437	4.5995	4.0446	3.5356	-2.2334	-2.117	-0.555	1.9059	0.4142	1.1208	0.0298	5.9613	-0.8203
0.333	3.4544	1.7516	-1.1154	3.763	3.07	0.8609	3.2243	4.3884	2.5718	3.4625	4.5427	4.0067	3.2757	-2.1008	-1.9654	-0.5523	1.8598	0.4115	1.1587	-0.0704	6.0235	-0.8122
0.4629	3.4896	1.8544	-0.9611	3.8307	3.1377	0.9502	3.2297	4.3992	2.626	3.4002	4.5021	3.9498	1.9952	-1.9167	-1.7597	-0.5414	1.8111	0.4521	1.1695	-0.157	6.075	-0.7878
0.6416	3.5573	2.0006	-0.7797	3.874	3.2324	1.0666	3.2378	4.4317	2.6937	3.3569	4.4831	3.939	-0.0623	-1.7516	-1.5675	-0.5577	1.7868	0.4873	1.2426	-0.2193	6.1454	-0.7932
0.7959	3.652	2.1279	-0.601	3.9417	3.3217	1.2209	3.2432	4.4615	2.7532	3.3136	4.4588	3.9309	-2.6612	-1.5837	-1.4023	-0.5387	1.7678	0.5252	1.2995	-0.2599	6.2428	-0.777
0.9367	3.7359	2.2659	-0.4223	4.0012	3.3651	1.3401	3.2784	4.475	2.8155	3.2757	4.429	3.9336	-5.39	-1.4375	-1.2345	-0.5008	1.7813	0.5983	1.359	-0.2761	6.3349	-0.7634
1.0802	3.7982	2.3959	-0.2382	4.0473	3.4625	1.4592	3.3055	4.5129	2.894	3.2432	4.4182	3.9282	-7.7426	-1.2778	-1.0558	-0.4738	1.7895	0.7066	1.4592	-0.2815	6.4513	-0.7445
1.2209	3.8388	2.5204	-0.0677	4.0933	3.5491	1.5756	3.319	4.5508	2.959	3.2216	4.4019	3.9363	-9.4833	-1.1343	-0.8825	-0.4359	1.8111	0.8257	1.5269	-0.2924	6.5352	-0.712
1.3617	3.8957	2.6314	0.1381	4.1529	3.6195	1.738	3.3461	4.5887	3.0348	3.1972	4.4073	3.9715	-10.2414	-0.9881	-0.7364	-0.425	1.8707	0.9556	1.6189	-0.2626	6.6327	-0.7012
1.5133	3.9661	2.737	0.3167	4.1826	3.6899	1.8896	3.3759	4.6293	3.1431	3.1891	4.3992	4.0364	-9.9409	-0.869	-0.5902	-0.3844	1.9627	1.0748	1.6974	-0.2518	6.7112	-0.7012
1.6297	3.9931	2.8561	0.4954	4.2232	3.7603	2.025	3.384	4.6483	3.2026	3.1674	4.383	4.0825	-8.6766	-0.7634	-0.4711	-0.3465	2.0304	1.2209	1.757	-0.2301	6.7897	-0.6958
1.7434	4.0419	2.9454	0.6633	4.2476	3.8253	2.2064	3.4138	4.6537	3.3109	3.1322	4.3884	4.1529	-6.592	-0.6145	-0.3601	-0.3195	2.1333	1.3347	1.8247	-0.2085	6.8573	-0.7012
1.8598	4.1231	3.0537	0.8528	4.2801	3.8903	2.3742	3.4165	4.6835	3.4192	3.1241	4.3857	4.2259	-3.9958	-0.4954	-0.2355	-0.2978	2.2578	1.489	1.8923	-0.1787	6.925	-0.7174
1.9708	4.1935	3.1728	1.045	4.3207	3.9769	2.5258	3.4436	4.7241	3.5221	3.1377	4.3775	4.318	-1.1749	-0.379	-0.1218	-0.2734	2.3796	1.6162	1.9925	-0.1516	6.9765	-0.7337
2.0927	4.2476	3.2893	1.2155	4.3667	4.0283	2.6883	3.4788	4.7484	3.6141	3.1295	4.3938	4.3803	1.5025	-0.2274	0.0325	-0.2464	2.4825	1.7461	2.0818	-0.1191	7.0117	-0.7661
2.2091	4.3126	3.3894	1.3617	4.4073	4.0743	2.8236	3.5058	4.7701	3.7062	3.1079	4.3857	4.4723	3.7143	-0.1191	0.1272	-0.2328	2.58	1.8842	2.201	-0.1029	7.0685	-0.7905
2.312	4.3342	3.4842	1.4944	4.4425	4.115	2.9373	3.4977	4.7972	3.8009	3.0808	4.3667	4.5264	5.1708	-0.0298	0.2166	-0.2301	2.6422	2.0087	2.3228	-0.0731	7.1281	-0.8122
2.3986	4.3911	3.5519	1.6081	4.475	4.1556	3.0402	3.5248	4.7945	3.8496	3.0889	4.3315	4.5806	5.7149	0.092	0.3249	-0.2166	2.718	2.1143	2.4581	-0.0352	7.1578	-0.8338
2.496	4.4182	3.6114	1.7055	4.4913	4.1772	3.1133	3.5167	4.7647	3.8659	3.0835	4.3126	4.586	5.2195	0.157	0.4142	-0.1976	2.7451	2.2091	2.5664	-0.0162	7.212	-0.8446
2.5827	4.4534	3.6899	1.8084	4.54	4.2287	3.1945	3.5275	4.7674	3.8984	3.0889	4.2882	4.605	3.7603	0.2761	0.5062	-0.2003	2.7478	2.339	2.7126	0.0325	7.2661	-0.8582
2.6422	4.4858	3.7603	1.9032	4.5616	4.272	3.2676	3.5383	4.7728	3.9254	3.0997	4.2584	4.6266	1.5377	0.3465	0.5983	-0.2057	2.7803	2.4581	2.8372	0.0893	7.3284	-0.8582
2.7262	4.4506	3.7901	1.9384	4.5616	4.2855	3.2865	3.5708	4.7647	3.9254	3.1106	4.207	4.6374	-1.1262	0.3925	0.6768	-0.1922	2.7505	2.58	2.9454	0.1408	7.3825	-0.8419
2.7803	4.4588	3.8415	2.0142	4.5833	4.2936	3.3082	3.5708	4.7376	3.9254	3.1214	4.1772	4.6293	-3.782	0.4575	0.7716	-0.157	2.7451	2.6991	3.0131	0.1651	7.4367	-0.8067
2.8344	4.4371	3.9011	2.0439	4.5995	4.318	3.3353	3.5735	4.7457	3.9282	3.1214	4.1393	4.6374	-6.0262	0.4846	0.8501	-0.1272	2.7289	2.8317	3.0537	0.2193	7.4746	-0.7743
2.8723	4.4317	3.9498	2.1116	4.5887	4.3478	3.3434	3.5708	4.7051	3.9011	3.1322	4.0825	4.6374	-7.545	0.5523	0.9421	-0.1056	2.718	2.9536	3.0781	0.2436	7.5071	-0.7445
2.913	4.4046	3.9796	2.1441	4.5752	4.3396	3.3515	3.5952	4.6889	3.8767	3.1404	4.0446	4.6266	-8.0864	0.5956	1.0179	-0.065	2.6422	3.0375	3.0646	0.3113	7.5206	-0.6958
2.9211	4.3857	4.0094	2.1766	4.5779	4.3505	3.3623	3.5843	4.6726	3.8957	3.1647	3.9931	4.6266	-7.5937	0.647	1.1127	-0.0541	2.6043	3.1349	3.0483	0.3086	7.5287	-0.6579
2.9481	4.364	4.0446	2.2226	4.5616	4.3613	3.3678	3.5681	4.6483	3.8686	3.162	3.9498	4.5968	-6.1751	0.6389	1.183	-0.0379	2.5637	3.1864	3.005	0.3276	7.5233	-0.6254
2.9806	4.3396	4.0933	2.2605	4.5508	4.3532	3.3921	3.5681	4.6212	3.8551	3.1647	3.893	4.5887	-4.031	0.693	1.2589	-0.0406	2.5231	3.1918	2.9752	0.3222	7.526	-0.5712
2.9888	4.3261	4.1393	2.2741	4.5264	4.383	3.3894	3.5383	4.5914	3.8307	3.1485	3.8469	4.5373	-1.4429	0.7337	1.3536	-0.0298	2.4338	3.1485	2.8967	0.287	7.499	-0.5441
3.0483	4.3153	4.1853	2.3363	4.5346	4.4073	3.403	3.5519	4.5914	3.8388	3.1593	3.7955	4.5562	1.2345	0.7634	1.4456	-0.046	2.404	3.1349	2.8534	0.2843	7.4854	-0.5144
3.0618	4.3017	4.2422	2.3796	4.494	4.4263	3.403	3.5302	4.5616	3.828	3.1593	3.7332	4.5237	3.6926	0.7797	1.5214	-0.0352	2.3417	3.0727	2.7857	0.2166	7.4638	-0.5008
3.1079	4.3207	4.3099	2.4338	4.4994	4.4534	3.4436	3.5356	4.5562	3.8009	3.1566	3.6872	4.4804	5.5795	0.8582	1.5973	-0.0433	2.293	3.005	2.6991	0.1949	7.4502	-0.4792
3.1566	4.3126	4.3721	2.5096	4.5129	4.5156	3.4706	3.5437	4.5481	3.8036	3.1837	3.6547	4.4723	6.6462	0.8853	1.6947	-0.0569	2.2524	2.9346	2.5746	0.1462	7.4421	-0.4792
3.2135	4.318	4.4723	2.5637	4.5481	4.5616	3.495	3.5681	4.586	3.828	3.1999	3.6358	4.4642	6.7707	0.9475	1.7759	-0.0677	2.2307	2.8588	2.4527	0.1083	7.4313	-0.4819
3.2838	4.3234	4.5806	2.6341	4.5779	4.6266	3.5627	3.587	4.6022	3.8632	3.2107	3.6168	4.475	5.8611	0.9584	1.8463	-0.0812	2.2118	2.8182	2.3363	0.0623	7.4502	-0.4738
3.3461	4.364	4.6808	2.7424	4.6077	4.6997	3.6358	3.6033	4.6266	3.874	3.2405	3.5979	4.4777	4.0337	1.0044	1.9113	-0.0866	2.2145	2.7668	2.1685	0.0298	7.4719	-0.49
3.403	4.383	4.7782	2.8155	4.6347	4.7701	3.6953	3.6195	4.6645	3.8903	3.2757	3.606	4.4967	1.6162	1.0612	1.9708	-0.092	2.2118	2.7478	2.0358	0	7.4827	-0.5144
3.4625	4.3938	4.8865	2.9184	4.6564	4.8432	3.7657	3.6547	4.6645	3.9254	3.2893	3.5843	4.4777	-1.1208	1.0829	1.9736	-0.0758	2.1874	2.691	1.8734	-0.0541	7.5017	-0.5441
3.5329	4.4344	5.0056	3.0077	4.7024	4.9461	3.8469	3.6791	4.7268	3.9606	3.3244	3.5762	4.4967	-3.717	1.1424	2.0331	-0.0514	2.1739	2.6395	1.7407	-0.0596	7.526	-0.5902
3.6114	4.4642	5.122	3.1025	4.7241	5.0137	3.9038	3.698	4.7593	3.9661	3.3515	3.5654	4.4831	-5.7339	1.1641	2.0412	-0.0217	2.1522	2.6016	1.6189	-0.0704	7.5477	-0.647
3.6439	4.5237	5.1897	3.1674	4.7457	5.0516	3.9471	3.7278	4.7647	3.9661	3.3407	3.5221	4.4479	-6.9792	1.1939	2.0494	0.0569	2.1143	2.5394	1.4863	-0.1218	7.5585	-0.7039
3.6493	4.5508	5.2953	3.2432	4.7863	5.1247	4.0067	3.7441	4.7755	3.9715	3.3678	3.5221	4.4371	-7.2012	1.2074	2.0575	0.1299	2.0791	2.5042	1.4023	-0.1381	7.5748	-0.7797
3.7143	4.6158	5.3819	3.3082	4.8378	5.1653	4.0473	3.7738	4.7863	3.9688	3.3678	3.495	4.3992	-6.3863	1.2291	2.0439	0.2057	2.0304	2.4446	1.3265	-0.1489	7.5775	-0.869
3.7305	4.6591	5.4604	3.3786	4.8757	5.233	4.1014	3.7901	4.7999	3.9796	3.3813	3.4788	4.3857	-4.7836	1.2264	2.0358	0.2897	2.006	2.3986	1.2453	-0.1787	7.5883	-0.9259
3.7305	4.7241	5.5471	3.4327	4.9082	5.2763	4.1258	3.8145	4.8134	3.9579	3.3705	3.4571	4.3396	-2.515	1.2345	2.0331	0.3628	1.9736	2.3823	1.1912	-0.1949	7.5991	-0.9963
3.7305	4.8026	5.612	3.4571	4.9352	5.3169	4.1177	3.8009	4.7972	3.939	3.3434	3.4138	4.2936	0.0244	1.1885	1.9817	0.444	1.9465	2.3526	1.1289	-0.2382	7.6208	-1.0802
3.7305	4.8188	5.6716	3.4517	4.9434	5.3467	4.1204	3.809	4.8026	3.9065	3.3217	3.3759	4.2395	2.5069	1.1533	1.9059	0.5225	1.9194	2.3363	1.0856	-0.2599	7.6072	-1.1533
3.7197	4.8567	5.7068	3.4788	4.9867	5.3657	4.115	3.7874	4.7863	3.8875	3.2595	3.3299	4.1853	4.6131	1.137	1.8571	0.5496	1.9059	2.3363	1.0748	-0.2761	7.6289	-1.2426
3.7035	4.8946	5.7447	3.4761	4.9813	5.3711	4.0798	3.7657	4.7593	3.8415	3.2459	3.292	4.115	6.0587	1.0721	1.7705	0.5739	1.8653	2.3661	1.0937	-0.3005	7.6316	-1.3184
3.6872	4.8757	5.7826	3.449	4.9515	5.3819	4.0256	3.7549	4.7187	3.7738	3.1701	3.2297	4.0283	6.5677	1.0125	1.6866	0.5983	1.8003	2.3661	1.1181	-0.3167	7.6397	-1.3753
3.6385	4.8946	5.7934	3.4219	4.9298	5.3819	3.9471	3.6926	4.6862	3.6926	3.1106	3.1674	3.9417	6.1183	0.9448	1.5729	0.5956	1.7272	2.3607	1.1451	-0.3411	7.6533	-1.4159
3.5762	4.8513	5.7988	3.3326	4.8892	5.3413	3.8388	3.6304	4.605	3.5816	3.0267	3.0781	3.8009	4.6022	0.8474	1.4944	0.5848	1.6162	2.3309	1.1587	-0.3925	7.6533	-1.4456
3.5248	4.7863	5.7555	3.2351	4.8594	5.3088	3.7305	3.587	4.5698	3.4463	2.9509	3.0131	3.6737	2.247	0.7364	1.3509	0.5469	1.4835	2.3201	1.2128	-0.4088	7.6506	-1.4402
3.449	4.7295	5.7312	3.1431	4.7972	5.252	3.6087	3.5221	4.5102	3.3001	2.8913	2.94	3.5275	-0.6741	0.6281	1.2372	0.5062	1.3455	2.2605	1.2372	-0.4386	7.6424	-1.4213
3.3461	4.6266	5.7095	2.9942	4.7349	5.187	3.449	3.4436	4.429	3.1295	2.802	2.8669	3.3759	-3.7359	0.5035	1.1208	0.4765	1.1722	2.182	1.2724	-0.4548	7.6181	-1.3861
3.2703	4.5129	5.6337	2.8994	4.6293	5.1247	3.2974	3.3515	4.3396	2.9509	2.7234	2.7776	3.208	-6.4973	0.3817	0.9908	0.4521	1.0044	2.1116	1.3049	-0.4683	7.5829	-1.3509
3.1864	4.4182	5.6039	2.7992	4.5508	5.0841	3.1593	3.292	4.2855	2.8101	2.6693	2.7153	3.0835	-8.5575	0.2734	0.888	0.4277	0.8582	2.0358	1.3617	-0.4683	7.5342	-1.3184
3.0808	4.2774	5.5471	2.6801	4.4642	5.0571	3.0185	3.2053	4.2097	2.6693	2.5989	2.6504	2.9238	-9.6864	0.1543	0.7878	0.425	0.7174	1.9546	1.3996	-0.4765	7.4611	-1.2751
2.9915	4.1637	5.4929	2.5691	4.3748	4.984	2.894	3.1377	4.1664	2.515	2.5394	2.5908	2.7965	-9.7026	0.0596	0.6822	0.4304	0.6037	1.9005	1.4294	-0.4846	7.3988	-1.2561
2.9265	4.0608	5.4415	2.4744	4.299	4.9515	2.7668	3.0997	4.115	2.3932	2.5015	2.5394	2.6801	-8.728	-0.046	0.5956	0.4575	0.5117	1.8247	1.4375	-0.49	7.3257	-1.2345
2.829	3.9498	5.4225	2.3607	4.2097	4.9	2.6395	3.0429	4.0743	2.3092	2.4852	2.5231	2.5908	-6.9196	-0.1191	0.5144	0.4927	0.425	1.7949	1.3915	-0.4575	7.2445	-1.2209
2.7857	3.8226	5.3684	2.2795	4.1393	4.8784	2.5502	2.9996	4.0419	2.1928	2.4473	2.5042	2.5258	-4.5427	-0.222	0.4277	0.5279	0.3817	1.7624	1.3455	-0.4386	7.1687	-1.2101
2.7316	3.7441	5.3846	2.201	4.0771	4.8567	2.45	2.9509	4.0229	2.1576	2.4257	2.4663	2.4798	-1.9384	-0.2734	0.3384	0.5739	0.3844	1.7489	1.2616	-0.4115	7.0929	-1.2155
2.7099	3.6683	5.39	2.1576	4.0337	4.8784	2.3878	2.9454	4.0364	2.1252	2.4284	2.4744	2.4717	0.5712	-0.3411	0.3113	0.601	0.3763	1.7326	1.1424	-0.3709	7.0008	-1.2209
2.6855	3.6114	5.3765	2.1089	4.0067	4.8567	2.3471	2.9102	4.0256	2.0927	2.4311	2.4608	2.4419	2.5935	-0.379	0.2518	0.6362	0.3682	1.7191	1.0206	-0.3438	6.9413	-1.2155
2.6991	3.5952	5.4036	2.0791	3.9985	4.8973	2.3282	2.9021	4.0283	2.1008	2.4473	2.4798	2.4446	3.9471	-0.4034	0.222	0.6335	0.4061	1.7272	0.8961	-0.2924	6.8736	-1.2074
2.7234	3.5491	5.4415	2.0494	3.9633	4.9082	2.3011	2.8994	4.0473	2.1062	2.469	2.4825	2.4554	4.3613	-0.4494	0.2057	0.6281	0.4548	1.7082	0.7499	-0.2734	6.814	-1.1803
2.7532	3.541	5.4983	2.0494	3.9877	4.9352	2.3444	2.9211	4.1068	2.1631	2.5123	2.5367	2.5015	3.8036	-0.4738	0.176	0.6064	0.5035	1.711	0.6199	-0.2193	6.7599	-1.1695
2.8074	3.5573	5.585	2.0873	3.9985	5.0029	2.3661	2.9427	4.1583	2.2226	2.5367	2.5908	2.5529	2.3174	-0.4954	0.157	0.5658	0.5658	1.7164	0.5387	-0.157	6.7166	-1.1424
2.8344	3.5573	5.6472	2.1495	4.0364	5.0706	2.4473	2.9915	4.2124	2.2984	2.5881	2.6314	2.6179	0.0975	-0.5171	0.1381	0.5252	0.6606	1.7516	0.4656	-0.1164	6.703	-1.1018
2.8642	3.5627	5.7014	2.1658	4.0419	5.1193	2.4906	2.9888	4.2503	2.358	2.6097	2.6883	2.6504	-2.5881	-0.5523	0.1299	0.4819	0.6985	1.7543	0.3953	-0.0541	6.6841	-1.0721
2.9265	3.5925	5.7799	2.247	4.0879	5.1978	2.5718	3.0483	4.3153	2.4229	2.691	2.7532	2.7262	-5.2141	-0.5387	0.0975	0.425	0.7472	1.8003	0.3492	0	6.6462	-1.045
3.0023	3.6141	5.8394	2.3011	4.0906	5.2466	2.6531	3.0943	4.364	2.4987	2.7586	2.802	2.802	-7.4881	-0.582	0.111	0.3682	0.8067	1.8328	0.2978	0.0433	6.6218	-1.0098
3.0131	3.6195	5.8746	2.3309	4.1122	5.2845	2.7234	3.1106	4.3992	2.5583	2.7911	2.8507	2.8507	-9.0096	-0.6118	0.0893	0.3113	0.8419	1.8517	0.2897	0.1083	6.5839	-0.9692
3.0375	3.6331	5.9369	2.404	4.1231	5.3521	2.7992	3.1566	4.4642	2.6612	2.8372	2.8967	2.9346	-9.5537	-0.6254	0.1408	0.2409	0.8907	1.8653	0.3276	0.1597	6.5406	-0.9232
3.0808	3.6628	5.9802	2.4473	4.1285	5.4009	2.8886	3.1999	4.5183	2.7099	2.8723	2.9563	2.986	-9.0664	-0.6443	0.1435	0.1651	0.8825	1.8707	0.3682	0.2085	6.4892	-0.8744
3.0781	3.671	6.01	2.469	4.1664	5.4279	2.9563	3.2351	4.5346	2.7803	2.8994	2.986	3.0321	-7.656	-0.6579	0.157	0.0893	0.9204	1.8544	0.4007	0.2382	6.4377	-0.8392
3.0916	3.6872	6.01	2.5258	4.1718	5.4442	3.0239	3.227	4.5562	2.8615	2.9211	3.0077	3.07	-5.5525	-0.6741	0.2139	0.0135	0.9232	1.8057	0.4548	0.2599	6.3728	-0.8067
3.1079	3.6845	6.0289	2.5258	4.1772	5.4875	3.0808	3.273	4.6022	2.9021	2.9373	3.0348	3.1133	-2.9806	-0.6633	0.2734	-0.0677	0.9448	1.7353	0.5225	0.2572	6.3132	-0.7337
3.0943	3.6601	6.0425	2.5421	4.1637	5.4767	3.1349	3.2811	4.6131	2.9157	2.9481	3.0239	3.1241	-0.3249	-0.7066	0.3113	-0.1408	0.9502	1.6324	0.5902	0.2761	6.2563	-0.6741
3.0943	3.6412	6.0317	2.5367	4.142	5.4983	3.162	3.2703	4.6158	2.9509	2.9427	3.0131	3.1268	2.0737	-0.7066	0.3709	-0.2057	0.9529	1.5377	0.6633	0.2247	6.2184	-0.6091
3.0808	3.6412	6.0154	2.5448	4.1501	5.5092	3.1891	3.2865	4.6239	2.9942	2.9427	3.0294	3.1566	3.8903	-0.7147	0.4386	-0.2734	0.9611	1.4511	0.7878	0.2491	6.1805	-0.5333
3.0835	3.5843	5.9938	2.561	4.1339	5.501	3.208	3.3001	4.6239	2.9806	2.9265	3.0158	3.1458	4.8946	-0.712	0.5035	-0.3113	0.9746	1.3455	0.8609	0.2328	6.1481	-0.4494
3.0429	3.5519	5.9667	2.5312	4.1014	5.4821	3.1999	3.2757	4.6212	2.9779	2.8994	2.9969	3.1025	4.9055	-0.7228	0.5523	-0.3465	1.0017	1.2534	0.9665	0.2274	6.1643	-0.3736
3.0564	3.4869	5.9342	2.515	4.0743	5.4713	3.2135	3.2649	4.6077	2.9779	2.8805	2.9698	3.0862	3.8957	-0.7039	0.6335	-0.3574	1.0396	1.1912	1.1181	0.2247	6.1508	-0.2761
3.0456	3.4084	5.88	2.4744	4.031	5.4658	3.1864	3.2568	4.6104	2.959	2.8805	2.9373	3.0537	1.9817	-0.712	0.6876	-0.3519	1.0504	1.1316	1.2859	0.2301	6.1697	-0.1651
3.0158	3.3217	5.8259	2.4392	3.9579	5.4415	3.1485	3.2297	4.5806	2.9211	2.8507	2.9075	3.0429	-0.582	-0.7282	0.7012	-0.3411	1.0964	1.0937	1.4619	0.2409	6.2022	-0.065
2.9915	3.2514	5.788	2.4284	3.92	5.4117	3.1268	3.2135	4.5779	2.8886	2.8344	2.8805	2.9969	-3.4111	-0.7147	0.7472	-0.3384	1.137	1.0883	1.6785	0.2626	6.2509	0.0298
2.94	3.1431	5.696	2.3661	3.8578	5.3603	3.0916	3.1539	4.5454	2.8317	2.7911	2.8372	2.94	-6.0966	-0.7337	0.7716	-0.2815	1.1695	1.0585	1.8463	0.2436	6.2834	0.157
2.8886	3.0943	5.631	2.3065	3.7955	5.3142	3.0212	3.1025	4.4994	2.7965	2.7668	2.7992	2.894	-8.238	-0.7282	0.7932	-0.2518	1.1858	1.0748	2.0033	0.2545	6.3159	0.2626
2.8588	3.005	5.5416	2.2605	3.7305	5.2655	2.9752	3.0646	4.4452	2.7316	2.7262	2.7559	2.848	-9.5348	-0.7255	0.8338	-0.1976	1.2534	1.0937	2.1847	0.2545	6.343	0.3465
2.7884	2.9102	5.4361	2.2334	3.6304	5.1789	2.9319	2.9996	4.3992	2.6666	2.6666	2.7099	2.802	-9.8136	-0.7309	0.8176	-0.1489	1.2751	1.0802	2.3336	0.2572	6.3619	0.4575
2.7045	2.8182	5.3467	2.1658	3.5654	5.1329	2.8507	2.9509	4.3478	2.5935	2.626	2.6585	2.7478	-9.0637	-0.7337	0.8338	-0.1002	1.3184	1.1181	2.4365	0.2518	6.3673	0.5496
2.6206	2.7532	5.2439	2.1008	3.4842	5.0544	2.8128	2.9048	4.3099	2.5637	2.5908	2.6125	2.6801	-7.4367	-0.712	0.8446	-0.0866	1.3753	1.1343	2.5448	0.2436	6.3755	0.6281
2.5367	2.6585	5.1166	2.0548	3.3651	4.9731	2.7424	2.802	4.2314	2.4852	2.5015	2.5448	2.6179	-5.2249	-0.712	0.8176	-0.0541	1.4348	1.1424	2.6233	0.2166	6.3782	0.6985
2.4311	2.5556	4.9785	1.9844	3.2757	4.8919	2.6883	2.7207	4.1691	2.4365	2.4365	2.4527	2.5529	-2.6206	-0.7472	0.7634	-0.0487	1.4538	1.1533	2.6504	0.1868	6.3917	0.7634
2.3336	2.469	4.8567	1.9275	3.1891	4.7999	2.6152	2.6449	4.0933	2.3823	2.3634	2.385	2.4852	-0.0162	-0.7228	0.7526	-0.0785	1.5269	1.1614	2.6639	0.1245	6.3971	0.823
2.2389	2.3878	4.7457	1.8517	3.0646	4.6943	2.5637	2.5421	4.0094	2.312	2.2795	2.3011	2.4148	2.2253	-0.7228	0.6958	-0.1056	1.5756	1.1885	2.6206	0.0839	6.3998	0.8771
2.117	2.2768	4.5725	1.7543	2.9698	4.5671	2.5015	2.4527	3.8957	2.2741	2.1766	2.1983	2.3255	3.7793	-0.7364	0.6389	-0.1489	1.6216	1.1722	2.5042	0.0108	6.4134	0.9286
2.0006	2.1847	4.4317	1.6676	2.8344	4.4588	2.4067	2.3336	3.7874	2.1793	2.0521	2.0791	2.2334	4.4696	-0.7337	0.5875	-0.2085	1.6487	1.1479	2.3769	-0.0758	6.408	0.9773
1.8923	2.0764	4.2666	1.5783	2.7262	4.3261	2.3553	2.2037	3.671	2.0954	1.914	1.9573	2.1333	4.1258	-0.7634	0.5171	-0.2626	1.6893	1.1072	2.1576	-0.176	6.4323	1.026
1.7353	1.9519	4.1014	1.4619	2.5881	4.2043	2.2849	2.0927	3.5275	2.0087	1.7976	1.8355	2.0196	2.7505	-0.7634	0.444	-0.314	1.6893	1.0585	1.9357	-0.2734	6.4377	1.0558
1.6379	1.849	3.9336	1.359	2.4825	4.0554	2.2118	1.979	3.4246	1.9329	1.6758	1.738	1.9113	0.5035	-0.7716	0.3763	-0.3546	1.6703	1.0044	1.7353	-0.3601	6.4242	1.0991
1.5242	1.7353	3.7711	1.2697	2.3742	3.9146	2.1333	1.868	3.3001	1.8382	1.5593	1.6108	1.7976	-2.3553	-0.7607	0.3195	-0.3925	1.6189	0.9556	1.5269	-0.4467	6.4134	1.1072
1.3861	1.6352	3.6168	1.1641	2.2416	3.7603	2.0412	1.7543	3.1728	1.7353	1.4402	1.47	1.6785	-5.2845	-0.7634	0.2572	-0.4169	1.5485	0.9015	1.3265	-0.5279	6.4025	1.1235
1.248	1.5296	3.4381	1.0775	2.1143	3.6195	1.9519	1.6162	3.0104	1.5918	1.2968	1.294	1.516	-8.0079	-0.7743	0.1895	-0.4386	1.4402	0.823	1.1858	-0.6064	6.3673	1.1072
1.0937	1.4375	3.2459	0.9204	1.9898	3.4463	1.8382	1.4944	2.8372	1.4348	1.156	1.1181	1.3698	-10.1006	-0.7905	0.1137	-0.4413	1.3103	0.7688	1.045	-0.6876	6.3267	1.11
0.9123	1.313	3.0212	0.7797	1.8544	3.2595	1.6947	1.3617	2.6801	1.267	1.026	0.9584	1.1695	-11.2105	-0.7986	0.0569	-0.4494	1.1614	0.7066	0.9638	-0.7661	6.278	1.0829
0.7445	1.1424	2.8101	0.6254	1.6893	3.0673	1.5377	1.2101	2.469	1.0666	0.8311	0.7391	0.9665	-11.3242	-0.8419	-0.0406	-0.4277	1.0314	0.6145	0.9232	-0.888	6.2212	1.0585
0.5496	0.9881	2.5881	0.4738	1.5296	2.8615	1.3753	1.0504	2.2741	0.8798	0.6551	0.5469	0.7688	-10.4471	-0.869	-0.1029	-0.4007	0.8717	0.509	0.9475	-0.9908	6.1562	1.0179
0.3925	0.8907	2.3932	0.3357	1.3726	2.6585	1.2074	0.8907	2.0521	0.6443	0.4954	0.3249	0.5496	-8.7632	-0.9123	-0.1706	-0.3817	0.7066	0.4629	0.9719	-1.091	6.1156	0.9611
0.2166	0.7526	2.1739	0.1976	1.2237	2.4636	1.0639	0.7391	1.8382	0.4223	0.3195	0.1002	0.3303	-6.5108	-0.9475	-0.2112	-0.3628	0.5685	0.4007	1.0558	-1.2101	6.0533	0.9259
0.0487	0.6118	1.9519	0.0839	1.0504	2.2334	0.9096	0.5685	1.6027	0.2382	0.1164	-0.1218	0.111	-4.031	-0.9665	-0.2545	-0.3384	0.4332	0.3303	1.1614	-1.3049	5.9856	0.8636
-0.1354	0.444	1.738	-0.0596	0.8609	2.0412	0.7607	0.3871	1.3644	0.0244	-0.0975	-0.3736	-0.111	-1.692	-1.0125	-0.3167	-0.3249	0.3167	0.2572	1.2561	-1.4511	5.9694	0.8013
-0.2951	0.287	1.5377	-0.1841	0.6795	1.8436	0.6064	0.203	1.1235	-0.1949	-0.3032	-0.6254	-0.333	0.2599	-1.0314	-0.3411	-0.3167	0.1976	0.1706	1.3807	-1.5945	5.9315	0.7499
-0.4413	0.1191	1.3157	-0.3249	0.4819	1.5973	0.4629	0.0135	0.8501	-0.3953	-0.5577	-0.9015	-0.5739	1.5133	-1.0775	-0.3628	-0.3032	0.0948	0.1056	1.4808	-1.7245	5.9207	0.7012
-0.582	0	1.1208	-0.4332	0.333	1.3996	0.3059	-0.1841	0.6145	-0.5929	-0.7716	-1.1587	-0.7986	1.8978	-1.0964	-0.3736	-0.3113	-0.0162	0.0541	1.581	-1.8517	5.9207	0.6714
-0.693	-0.1435	0.9529	-0.5496	0.1895	1.2047	0.1678	-0.3492	0.3628	-0.7851	-0.9881	-1.4456	-1.0152	1.3401	-1.0883	-0.4142	-0.3249	-0.1164	0.0217	1.6676	-1.9654	5.9369	0.6145
-0.7797	-0.2599	0.8013	-0.6281	0.0298	0.9963	0.0406	-0.5062	0.1381	-0.9719	-1.2047	-1.6785	-1.2047	-0.1543	-1.1235	-0.425	-0.3167	-0.2193	-0.0352	1.6866	-2.0818	5.9586	0.5875
-0.8825	-0.3492	0.647	-0.6958	-0.1137	0.8311	-0.0785	-0.6795	-0.0812	-1.1127	-1.3942	-1.9302	-1.4186	-2.3553	-1.11	-0.4088	-0.3357	-0.3032	-0.0677	1.692	-2.182	5.9992	0.5685
-0.934	-0.4386	0.5171	-0.7553	-0.2491	0.6795	-0.1787	-0.8365	-0.2951	-1.248	-1.5945	-2.1603	-1.5918	-4.9488	-1.0991	-0.4115	-0.3438	-0.398	-0.0839	1.6541	-2.2497	6.0425	0.5414
-1.0017	-0.4873	0.4061	-0.8122	-0.3465	0.5441	-0.2436	-0.9638	-0.49	-1.3861	-1.7705	-2.3796	-1.7434	-7.5179	-1.0612	-0.3736	-0.3465	-0.4738	-0.1056	1.6	-2.3174	6.0885	0.4981
-1.0423	-0.5414	0.3113	-0.8419	-0.4359	0.4169	-0.314	-1.1235	-0.7039	-1.4944	-1.9357	-2.6179	-1.8869	-9.6783	-1.0802	-0.3763	-0.3384	-0.5441	-0.1381	1.5512	-2.4148	6.1426	0.4711
-1.0748	-0.6037	0.2139	-0.9069	-0.5306	0.2815	-0.3898	-1.248	-0.8771	-1.6054	-2.1197	-2.802	-2.0466	-11.0725	-1.0693	-0.3817	-0.3086	-0.6362	-0.1814	1.4808	-2.469	6.1833	0.4467
-1.11	-0.6037	0.1597	-0.915	-0.5902	0.1949	-0.4115	-1.3265	-1.0206	-1.6866	-2.2307	-2.9996	-2.1468	-11.4894	-1.0125	-0.3438	-0.2815	-0.7012	-0.2003	1.4646	-2.5367	6.1995	0.4223
-1.1316	-0.6308	0.1516	-0.934	-0.6551	0.0975	-0.4819	-1.4294	-1.1722	-1.7543	-2.3634	-3.1891	-2.2551	-10.8369	-0.9746	-0.2897	-0.2518	-0.7391	-0.2464	1.4429	-2.5773	6.2212	0.4007
-1.1262	-0.6199	0.0785	-0.9475	-0.7174	0.0379	-0.5008	-1.5296	-1.294	-1.8138	-2.4554	-3.3407	-2.3526	-9.2424	-0.9123	-0.2545	-0.2085	-0.7905	-0.2545	1.4186	-2.6152	6.2347	0.3519
-1.1018	-0.6145	0.0623	-0.9367	-0.7553	-0.0325	-0.5225	-1.5837	-1.4077	-1.8761	-2.5421	-3.4815	-2.4229	-6.925	-0.8474	-0.2139	-0.1814	-0.823	-0.2815	1.4402	-2.6395	6.2428	0.2951
-1.0693	-0.582	0.065	-0.8907	-0.7661	-0.0704	-0.5306	-1.6406	-1.5025	-1.9086	-2.5962	-3.5952	-2.496	-4.1935	-0.777	-0.1489	-0.1678	-0.8501	-0.2734	1.4348	-2.6395	6.232	0.2491
-1.0369	-0.5198	0.0704	-0.8419	-0.7797	-0.0812	-0.5062	-1.6731	-1.5702	-1.9384	-2.6558	-3.7143	-2.5475	-1.3671	-0.6958	-0.0893	-0.1435	-0.869	-0.287	1.4105	-2.6449	6.2347	0.1922
-0.9611	-0.4683	0.1245	-0.7797	-0.7607	-0.0975	-0.4656	-1.711	-1.6216	-1.9654	-2.7045	-3.8172	-2.6179	1.2047	-0.6199	-0.0325	-0.1408	-0.9096	-0.2761	1.3509	-2.6422	6.2455	0.1381
-0.9042	-0.4359	0.1706	-0.7391	-0.7364	-0.1002	-0.444	-1.7137	-1.6866	-1.9708	-2.7289	-3.9092	-2.6558	3.1837	-0.5496	0.0054	-0.1489	-0.9177	-0.2653	1.3157	-2.6476	6.2645	0.111
-0.8365	-0.3465	0.1922	-0.6687	-0.7201	-0.0866	-0.3898	-1.7082	-1.7082	-1.9736	-2.7424	-3.9661	-2.6747	4.3072	-0.4873	0.0541	-0.1733	-0.9123	-0.2166	1.2372	-2.6233	6.3051	0.0569
-0.7445	-0.2897	0.2653	-0.6091	-0.6741	-0.0487	-0.3519	-1.7082	-1.7191	-1.9411	-2.7343	-4.0175	-2.6883	4.4804	-0.4359	0.0866	-0.2085	-0.915	-0.2003	1.137	-2.6043	6.3511	0.046
-0.6443	-0.203	0.3195	-0.555	-0.6335	-0.0352	-0.2924	-1.6649	-1.7245	-1.9221	-2.718	-4.0364	-2.6855	3.606	-0.3655	0.1083	-0.2436	-0.934	-0.1733	1.0044	-2.5583	6.4134	0.0271
-0.5793	-0.1381	0.398	-0.5008	-0.5712	-0.0054	-0.2436	-1.6595	-1.7299	-1.9059	-2.672	-4.0581	-2.6883	1.7949	-0.2951	0.1137	-0.2897	-0.9448	-0.1381	0.8474	-2.5448	6.4865	0.0271
-0.509	-0.0839	0.4656	-0.4359	-0.536	0.0514	-0.1787	-1.6189	-1.7191	-1.868	-2.6449	-4.0419	-2.6531	-0.6741	-0.2788	0.1191	-0.3059	-0.9394	-0.1272	0.7228	-2.5069	6.5596	0.0271
-0.4034	-0.0054	0.5198	-0.3925	-0.4575	0.092	-0.1381	-1.535	-1.6622	-1.8192	-2.5827	-4.0121	-2.6179	-3.4788	-0.2274	0.1354	-0.3357	-0.9502	-0.0758	0.5712	-2.4473	6.6299	0.0352
-0.3195	0.0596	0.5983	-0.3303	-0.3953	0.1651	-0.0948	-1.489	-1.627	-1.7949	-2.4987	-4.0012	-2.5556	-6.1237	-0.1814	0.1489	-0.3519	-0.9692	-0.0677	0.4521	-2.3796	6.7247	0.0406
-0.2518	0.1381	0.6633	-0.2626	-0.3384	0.2193	-0.0352	-1.4294	-1.5837	-1.7651	-2.4121	-3.9471	-2.5096	-8.2353	-0.1381	0.1489	-0.3817	-0.9881	-0.0217	0.3628	-2.3038	6.833	0.0271
-0.1624	0.2518	0.7418	-0.2355	-0.2545	0.268	0.0135	-1.3428	-1.5242	-1.7137	-2.3038	-3.8496	-2.4636	-9.5375	-0.0893	0.1787	-0.3844	-1.026	0.0487	0.3195	-2.2362	6.9115	0.0271
-0.092	0.3249	0.804	-0.2085	-0.1976	0.3384	0.0352	-1.2616	-1.4646	-1.6866	-2.228	-3.7738	-2.4311	-9.8244	-0.046	0.176	-0.3844	-1.1018	0.1002	0.2382	-2.1983	6.9927	0.0271
-0.0217	0.4061	0.8961	-0.1733	-0.0975	0.3898	0.0541	-1.1533	-1.3753	-1.6676	-2.0873	-3.6656	-2.3553	-9.0854	-0.0108	0.203	-0.3953	-1.1127	0.2085	0.222	-2.1306	7.0793	0.0244
0.0514	0.5008	0.9827	-0.157	-0.019	0.4738	0.0596	-1.0829	-1.2724	-1.6595	-1.979	-3.5627	-2.3201	-7.4935	0	0.1895	-0.4034	-1.202	0.2815	0.2085	-2.0737	7.1389	0.019
0.1056	0.6145	1.0504	-0.1435	0.0514	0.5496	0.0623	-0.9827	-1.1966	-1.6189	-1.8544	-3.4598	-2.2659	-5.2384	0.0731	0.2382	-0.4142	-1.2318	0.3736	0.2139	-2.0169	7.2039	-0.0054
0.1814	0.6795	1.0883	-0.1408	0.1083	0.601	0.0433	-0.9123	-1.1127	-1.6216	-1.757	-3.3596	-2.2416	-2.6449	0.0812	0.2247	-0.4196	-1.3265	0.4521	0.2247	-1.9627	7.277	-0.0569
0.2382	0.7851	1.1614	-0.1381	0.1895	0.6795	0.0298	-0.8067	-0.999	-1.6243	-1.6487	-3.2162	-2.1955	0	0.1164	0.2355	-0.4521	-1.3563	0.5523	0.2843	-1.9221	7.3311	-0.111
0.3249	0.8528	1.248	-0.1543	0.2599	0.7445	0.0244	-0.7174	-0.8853	-1.6108	-1.5296	-3.0835	-2.1549	2.293	0.1381	0.2599	-0.4602	-1.4132	0.6362	0.3167	-1.8626	7.3988	-0.1651
0.4386	0.98	1.3509	-0.1137	0.3601	0.8419	0.0433	-0.5793	-0.7526	-1.5973	-1.3942	-2.9211	-2.0791	3.9823	0.2085	0.2761	-0.4927	-1.4565	0.6985	0.3492	-1.8247	7.4638	-0.1976
0.5035	1.0504	1.4321	-0.1029	0.4494	0.9394	0.0217	-0.4954	-0.6389	-1.581	-1.2616	-2.737	-2.0602	4.7999	0.2193	0.314	-0.509	-1.535	0.7282	0.3519	-1.8165	7.5369	-0.2193
0.6199	1.202	1.5512	-0.046	0.5685	1.0504	0.0487	-0.3574	-0.4683	-1.5458	-1.091	-2.5367	-1.9871	4.6483	0.268	0.3519	-0.5279	-1.5729	0.7661	0.3519	-1.738	7.6397	-0.2545
0.7093	1.2724	1.6595	-0.019	0.666	1.1695	0.0596	-0.2382	-0.3113	-1.5269	-0.9448	-2.358	-1.9329	3.4571	0.314	0.379	-0.5062	-1.6135	0.7634	0.3059	-1.7055	7.7345	-0.2897
0.8311	1.3969	1.7949	0.0704	0.7797	1.313	0.092	-0.1029	-0.1462	-1.4727	-0.7878	-2.136	-1.8328	1.4402	0.3763	0.4304	-0.4954	-1.6216	0.7445	0.2491	-1.6676	7.8319	-0.3276
0.9611	1.4917	1.9221	0.1435	0.8907	1.4646	0.1137	0.0487	0.0569	-1.4321	-0.6199	-1.914	-1.7407	-1.1533	0.4142	0.4683	-0.4873	-1.646	0.7309	0.1435	-1.5864	7.9673	-0.3601
1.0639	1.581	2.0439	0.2382	0.9963	1.5783	0.1651	0.1868	0.2464	-1.359	-0.4142	-1.6866	-1.6487	-3.8848	0.4656	0.4954	-0.4575	-1.6324	0.6903	0.0271	-1.5269	8.0891	-0.3898
1.1668	1.6758	2.182	0.3276	1.091	1.7164	0.222	0.3167	0.4332	-1.3022	-0.2436	-1.4565	-1.5214	-6.3592	0.5062	0.5469	-0.4142	-1.5973	0.6227	-0.0541	-1.4592	8.2164	-0.4142
1.313	1.8057	2.3147	0.4359	1.2291	1.8896	0.2843	0.4819	0.6551	-1.2291	-0.0379	-1.1858	-1.3996	-8.1866	0.582	0.6091	-0.3871	-1.5756	0.5956	-0.1597	-1.3753	8.3355	-0.4386
1.4267	1.9059	2.4527	0.5198	1.3563	2.0412	0.3519	0.6606	0.8717	-1.137	0.1651	-0.9367	-1.2724	-9.126	0.6281	0.6497	-0.3222	-1.5377	0.536	-0.2707	-1.2968	8.4492	-0.4873
1.5566	2.0169	2.5989	0.6308	1.47	2.1901	0.4142	0.8095	1.1127	-1.0531	0.3628	-0.6687	-1.1506	-9.0096	0.6849	0.6849	-0.2599	-1.4781	0.5279	-0.3871	-1.2182	8.5764	-0.5144
1.6676	2.1306	2.7559	0.7851	1.6	2.3282	0.49	0.9719	1.2995	-0.9502	0.5604	-0.4196	-1.0342	-7.8996	0.7337	0.7391	-0.1895	-1.4159	0.4765	-0.4494	-1.1614	8.6793	-0.5523
1.8003	2.2795	2.8913	0.9123	1.7218	2.4933	0.6281	1.1343	1.5242	-0.8176	0.7743	-0.1462	-0.869	-5.9938	0.7959	0.804	-0.1218	-1.3184	0.4467	-0.5279	-1.0964	8.7849	-0.6037
1.9113	2.3796	3.0564	1.0477	1.8409	2.6476	0.7309	1.2968	1.7299	-0.7066	0.9665	0.1218	-0.7228	-3.5681	0.8717	0.8798	-0.0487	-1.2101	0.4169	-0.6091	-1.0071	8.885	-0.6606
2.0277	2.4852	3.1674	1.156	1.9492	2.7722	0.8149	1.4294	1.914	-0.6064	1.1397	0.3384	-0.5929	-0.8907	0.9259	0.934	0.0379	-1.1289	0.4386	-0.7012	-0.9448	8.9879	-0.7093
2.1576	2.5989	3.3136	1.2778	2.0602	2.913	0.9232	1.5621	2.1224	-0.4792	1.3076	0.5685	-0.4359	1.6785	0.9881	1.0152	0.0975	-1.0504	0.4467	-0.7851	-0.8717	9.08	-0.7851
2.2686	2.6801	3.43	1.4077	2.182	3.0267	1.0098	1.6839	2.2876	-0.3898	1.4565	0.7932	-0.3546	3.8253	1.0693	1.091	0.1624	-0.9746	0.4738	-0.8798	-0.8067	9.1585	-0.8203
2.3499	2.7559	3.541	1.489	2.2389	3.1052	1.0612	1.784	2.4338	-0.3059	1.5675	0.9746	-0.2409	5.2222	1.1424	1.1695	0.2328	-0.9421	0.4981	-0.9665	-0.7661	9.2262	-0.8907
2.4717	2.8642	3.6493	1.5783	2.3417	3.1837	1.1262	1.895	2.5854	-0.222	1.692	1.156	-0.1516	5.742	1.2237	1.267	0.2815	-0.9313	0.5739	-1.026	-0.7066	9.3074	-0.934
2.5691	2.9184	3.7089	1.6108	2.3932	3.2514	1.137	1.9817	2.6883	-0.1814	1.7678	1.2995	-0.1164	5.2547	1.2805	1.3401	0.3411	-0.9475	0.6199	-1.091	-0.6849	9.3913	-0.9611
