"FZ"	"FC3"	"FCZ"	"FC4"	"C3"	"CZ"	"C4"	"CP3"	"CPZ"	"CP4"	"P3"	"PZ"	"P4"	"OZ"	"FP1"	"FP2"	"A2"	"P8"	"TP7"	"TP8"	"P7"	"VEOG"	"HEOG"
0.8772	0.5257	0.5605	0.9184	-0.2565	-0.2914	0.2375	-0.8234	-0.5004	-0.133	-1.0261	-0.7759	-0.361	0.1077	0.2534	-0.1457	-0.2185	0.3705	0.1868	0.6112	-0.5067	-0.8931	2.8344
0.7917	0.4624	0.4782	0.8519	-0.2407	-0.3072	0.1647	-0.8107	-0.5257	-0.171	-0.9817	-0.7727	-0.3674	0.1362	0.1995	-0.2312	-0.2534	0.3547	0.1583	0.5827	-0.5067	-0.9564	2.7932
0.6746	0.3642	0.3674	0.7221	-0.2755	-0.4022	0.0728	-0.8266	-0.6017	-0.2154	-0.9881	-0.7822	-0.418	0.1488	0.1235	-0.3072	-0.2755	0.323	0.1203	0.5384	-0.5225	-1.0197	2.7331
0.5542	0.2977	0.2375	0.5605	-0.3009	-0.5035	-0.0285	-0.8709	-0.6524	-0.2882	-0.9912	-0.8171	-0.4624	0.1488	0.1172	-0.3135	-0.2914	0.2692	0.0855	0.494	-0.5384	-1.0546	2.6539
0.4497	0.2122	0.1488	0.4085	-0.3389	-0.5574	-0.1362	-0.8804	-0.7062	-0.3547	-0.9754	-0.8424	-0.5194	0.1552	0.0823	-0.3104	-0.323	0.2534	0.0697	0.456	-0.5257	-1.0799	2.6127
0.3167	0.1235	0.0253	0.2977	-0.3294	-0.6334	-0.2122	-0.8804	-0.7664	-0.3895	-0.9691	-0.8614	-0.5605	0.19	0.0792	-0.2407	-0.361	0.2375	0.0317	0.4402	-0.5194	-1.0609	2.5525
0.1963	0.0633	-0.0855	0.171	-0.3737	-0.6904	-0.3167	-0.9026	-0.8171	-0.437	-0.9786	-0.9057	-0.5922	0.1963	0.1077	-0.171	-0.3927	0.1963	0	0.4022	-0.5479	-1.0514	2.5019
0.0887	-0.0032	-0.19	0.057	-0.3737	-0.7696	-0.38	-0.8741	-0.8551	-0.4719	-0.9279	-0.8741	-0.5922	0.228	0.133	-0.0887	-0.4529	0.1868	-0.0285	0.38	-0.5352	-0.9912	2.4005
0.0032	-0.0317	-0.2565	-0.076	-0.3737	-0.7981	-0.4465	-0.8519	-0.9121	-0.532	-0.9057	-0.8899	-0.6397	0.2597	0.1837	0.0158	-0.532	0.1615	-0.038	0.3705	-0.5162	-0.9501	2.3372
-0.0982	-0.0697	-0.3515	-0.2122	-0.3769	-0.8614	-0.513	-0.8614	-0.9564	-0.5795	-0.8836	-0.9437	-0.6841	0.2882	0.1932	0.1298	-0.5859	0.1393	-0.0823	0.3579	-0.513	-0.8867	2.277
-0.1963	-0.1203	-0.4244	-0.3009	-0.3769	-0.8931	-0.5542	-0.8297	-1.0134	-0.6049	-0.8646	-0.9152	-0.7157	0.3325	0.2375	0.228	-0.6714	0.1172	-0.0697	0.3515	-0.5225	-0.8012	2.1883
-0.3167	-0.1615	-0.5257	-0.4022	-0.4117	-0.9659	-0.627	-0.8646	-1.0704	-0.6936	-0.8899	-0.9786	-0.7886	0.3705	0.2439	0.3294	-0.7189	0.057	-0.1203	0.304	-0.5479	-0.7411	2.1472
-0.3832	-0.1932	-0.6239	-0.5004	-0.4117	-1.0197	-0.6777	-0.8487	-1.1116	-0.7284	-0.8677	-1.0356	-0.8392	0.4022	0.2629	0.4402	-0.8107	0.0443	-0.1235	0.2787	-0.5447	-0.6714	2.0965
-0.4845	-0.2344	-0.7062	-0.6175	-0.4529	-1.0768	-0.7474	-0.8646	-1.1781	-0.7822	-0.8804	-1.0641	-0.9057	0.4402	0.3009	0.5542	-0.8867	-0.0443	-0.1773	0.2534	-0.5732	-0.6049	2.0237
-0.5574	-0.2724	-0.7886	-0.7316	-0.4719	-1.1496	-0.8076	-0.8709	-1.2573	-0.8772	-0.8962	-1.1401	-0.9817	0.475	0.2724	0.6049	-0.9437	-0.1108	-0.2154	0.19	-0.5922	-0.532	1.9508
-0.6302	-0.3009	-0.8709	-0.8202	-0.4877	-1.1939	-0.8899	-0.8931	-1.3111	-0.9311	-0.9152	-1.1749	-1.0229	0.5035	0.266	0.6492	-0.9912	-0.1773	-0.2185	0.152	-0.5954	-0.4909	1.897
-0.7094	-0.3262	-0.9374	-0.9089	-0.5225	-1.2573	-0.9501	-0.8962	-1.3713	-0.9944	-0.9437	-1.2573	-1.1211	0.5004	0.2692	0.7157	-1.0039	-0.2565	-0.2692	0.0507	-0.627	-0.456	1.8431
-0.7474	-0.3832	-0.9691	-0.9881	-0.532	-1.3174	-0.9912	-0.9216	-1.4504	-1.0641	-0.9786	-1.3206	-1.1939	0.5035	0.2502	0.7537	-0.9849	-0.3325	-0.304	0.0158	-0.6587	-0.4212	1.7703
-0.7791	-0.38	-1.0071	-1.0673	-0.5384	-1.3428	-1.0673	-0.9152	-1.498	-1.1464	-0.9881	-1.3776	-1.2921	0.4814	0.2344	0.7759	-0.9406	-0.4117	-0.3072	-0.0412	-0.6746	-0.4022	1.7165
-0.7981	-0.418	-1.0451	-1.1338	-0.5447	-1.3903	-1.1306	-0.9216	-1.5455	-1.1781	-0.9912	-1.4219	-1.3364	0.4244	0.2217	0.8012	-0.8582	-0.4782	-0.3325	-0.1298	-0.6714	-0.4149	1.6436
-0.8107	-0.3769	-1.0641	-1.1559	-0.5225	-1.3903	-1.1433	-0.9057	-1.555	-1.2161	-1.0007	-1.4504	-1.3871	0.3769	0.1932	0.7949	-0.7632	-0.5479	-0.3135	-0.171	-0.6429	-0.4307	1.5771
-0.8202	-0.38	-1.0546	-1.1971	-0.5542	-1.4124	-1.2003	-0.9184	-1.6088	-1.2573	-1.0134	-1.4853	-1.4188	0.3135	0.171	0.7822	-0.6144	-0.6207	-0.3135	-0.2407	-0.6619	-0.4592	1.5201
-0.7822	-0.361	-1.0197	-1.2161	-0.5542	-1.3966	-1.2319	-0.8709	-1.5961	-1.2984	-0.9786	-1.4821	-1.4504	0.247	0.171	0.7854	-0.4719	-0.6651	-0.2914	-0.2787	-0.6334	-0.5035	1.4599
-0.7442	-0.3547	-1.0166	-1.2668	-0.5352	-1.4124	-1.2699	-0.8519	-1.5835	-1.3491	-0.9691	-1.5233	-1.4758	0.1457	0.1552	0.7252	-0.3104	-0.7126	-0.2597	-0.342	-0.6049	-0.5479	1.3839
-0.7157	-0.323	-1.0071	-1.2383	-0.5162	-1.3808	-1.2953	-0.8297	-1.5898	-1.3618	-0.9501	-1.479	-1.4726	0.057	0.1267	0.6746	-0.1235	-0.7411	-0.2534	-0.3959	-0.5954	-0.608	1.2953
-0.6809	-0.2914	-0.9374	-1.2573	-0.4814	-1.3523	-1.2889	-0.7886	-1.574	-1.3586	-0.8867	-1.4536	-1.4536	-0.0317	0.1457	0.627	0.0475	-0.7886	-0.2154	-0.4529	-0.5225	-0.6746	1.2414
-0.6334	-0.2375	-0.8836	-1.2478	-0.4655	-1.2794	-1.2889	-0.7284	-1.517	-1.3554	-0.8266	-1.4188	-1.4409	-0.1108	0.1172	0.5859	0.1995	-0.8044	-0.171	-0.456	-0.4624	-0.7157	1.1623
-0.5827	-0.2249	-0.8677	-1.2636	-0.437	-1.2604	-1.2921	-0.6967	-1.4853	-1.3586	-0.7886	-1.4061	-1.4219	-0.1805	0.0887	0.456	0.3294	-0.8392	-0.1393	-0.5194	-0.4275	-0.7506	1.1053
-0.5384	-0.209	-0.8107	-1.2414	-0.4497	-1.2098	-1.2858	-0.6682	-1.4536	-1.3491	-0.7822	-1.3586	-1.4061	-0.2249	0.038	0.3642	0.4307	-0.8487	-0.1013	-0.5352	-0.418	-0.7791	1.0356
-0.5099	-0.2122	-0.7791	-1.2414	-0.4212	-1.1654	-1.2699	-0.6429	-1.3934	-1.3206	-0.7316	-1.3048	-1.3681	-0.2755	-0.0348	0.2249	0.5225	-0.8772	-0.1013	-0.5605	-0.3642	-0.7886	0.9786
-0.5004	-0.2185	-0.7442	-1.2541	-0.4275	-1.1369	-1.2573	-0.608	-1.3618	-1.3143	-0.7031	-1.2636	-1.3269	-0.2977	-0.0918	0.1203	0.5732	-0.8899	-0.1013	-0.5827	-0.3769	-0.7822	0.9247
-0.4845	-0.19	-0.7189	-1.2319	-0.3927	-1.0863	-1.2351	-0.5764	-1.3364	-1.2826	-0.6936	-1.2288	-1.3048	-0.3135	-0.152	0.0095	0.6049	-0.8931	-0.0918	-0.589	-0.3262	-0.7791	0.8867
-0.4845	-0.2058	-0.7031	-1.2256	-0.4054	-1.0641	-1.2288	-0.5574	-1.2699	-1.2414	-0.6492	-1.1718	-1.2446	-0.3167	-0.2439	-0.0982	0.5985	-0.8519	-0.0697	-0.589	-0.3135	-0.7601	0.8456
-0.4877	-0.2439	-0.6777	-1.1971	-0.4022	-1.0071	-1.1939	-0.5447	-1.2383	-1.2224	-0.6366	-1.1243	-1.2066	-0.3104	-0.3262	-0.228	0.6175	-0.8487	-0.0918	-0.5985	-0.3135	-0.7442	0.8202
-0.5067	-0.2534	-0.6714	-1.1813	-0.4212	-0.9786	-1.1464	-0.532	-1.2003	-1.1654	-0.627	-1.0673	-1.1243	-0.3009	-0.4085	-0.3357	0.6049	-0.8329	-0.1108	-0.5922	-0.3135	-0.7347	0.8139
-0.5225	-0.2882	-0.6682	-1.1654	-0.418	-0.9532	-1.1053	-0.5289	-1.1401	-1.1306	-0.5827	-0.9976	-1.0831	-0.3009	-0.4845	-0.4402	0.5827	-0.8012	-0.114	-0.5764	-0.3135	-0.7157	0.7981
-0.5225	-0.3262	-0.6397	-1.0926	-0.4339	-0.9374	-1.0387	-0.513	-1.1116	-1.0736	-0.5922	-0.9627	-1.0039	-0.2724	-0.5162	-0.4782	0.5352	-0.7506	-0.1425	-0.5447	-0.3262	-0.7157	0.7727
-0.5447	-0.3674	-0.6524	-1.0673	-0.456	-0.9089	-0.9881	-0.5162	-1.0419	-1.0229	-0.5637	-0.9342	-0.9374	-0.2375	-0.5795	-0.5289	0.4782	-0.7126	-0.19	-0.4909	-0.323	-0.6967	0.7601
-0.5637	-0.4054	-0.6651	-1.0007	-0.437	-0.8772	-0.9152	-0.5352	-1.0007	-0.9501	-0.5574	-0.8867	-0.8741	-0.209	-0.5954	-0.551	0.4149	-0.6492	-0.2122	-0.4624	-0.3389	-0.7157	0.7632
-0.5352	-0.4497	-0.6777	-0.9184	-0.4624	-0.8361	-0.8456	-0.551	-0.9659	-0.8709	-0.5479	-0.8424	-0.8107	-0.1837	-0.6397	-0.608	0.3705	-0.6049	-0.228	-0.4085	-0.3674	-0.7126	0.7759
-0.57	-0.4687	-0.6809	-0.8551	-0.475	-0.8424	-0.7949	-0.5352	-0.9374	-0.8361	-0.5479	-0.8171	-0.7727	-0.1552	-0.627	-0.6175	0.2977	-0.5574	-0.2755	-0.3832	-0.3737	-0.7316	0.7854
-0.551	-0.4719	-0.6619	-0.7886	-0.4909	-0.7886	-0.7062	-0.5447	-0.8741	-0.7664	-0.5415	-0.7791	-0.6967	-0.114	-0.6175	-0.5764	0.2058	-0.4909	-0.3167	-0.3167	-0.4022	-0.7537	0.8202
-0.589	-0.5194	-0.6619	-0.7094	-0.5194	-0.7727	-0.6175	-0.5605	-0.8424	-0.6936	-0.5447	-0.7411	-0.6334	-0.0633	-0.6112	-0.5289	0.1393	-0.4497	-0.3357	-0.2787	-0.4402	-0.7601	0.8582
-0.5859	-0.513	-0.6492	-0.6682	-0.532	-0.7537	-0.5415	-0.551	-0.8076	-0.6366	-0.5384	-0.6872	-0.5732	-0.0253	-0.5795	-0.4624	0.0317	-0.4054	-0.3357	-0.2407	-0.4275	-0.7632	0.8804
-0.5827	-0.5637	-0.6429	-0.5827	-0.5225	-0.7221	-0.475	-0.57	-0.7822	-0.5827	-0.5289	-0.6651	-0.494	0.019	-0.5035	-0.4054	-0.0412	-0.3547	-0.3832	-0.2058	-0.4592	-0.7854	0.9057
-0.589	-0.5732	-0.6841	-0.5257	-0.5225	-0.7189	-0.418	-0.57	-0.7347	-0.5289	-0.5384	-0.6239	-0.4624	0.0633	-0.456	-0.3199	-0.1108	-0.3389	-0.399	-0.2122	-0.4719	-0.7727	0.9152
-0.5415	-0.551	-0.6366	-0.475	-0.513	-0.6682	-0.3737	-0.5257	-0.6746	-0.456	-0.513	-0.5669	-0.4022	0.1077	-0.3389	-0.1995	-0.2058	-0.2977	-0.4212	-0.152	-0.4655	-0.7759	0.9311
-0.5669	-0.608	-0.6397	-0.418	-0.5352	-0.6619	-0.3262	-0.5479	-0.6461	-0.4212	-0.4655	-0.5415	-0.3737	0.1045	-0.2692	-0.1362	-0.2344	-0.285	-0.4529	-0.1362	-0.475	-0.7632	0.9437
-0.5479	-0.6144	-0.6302	-0.3579	-0.4909	-0.627	-0.2439	-0.5067	-0.5827	-0.3452	-0.4687	-0.4782	-0.304	0.1457	-0.1457	-0.0063	-0.304	-0.2534	-0.4339	-0.1172	-0.4339	-0.7379	0.9184
-0.5384	-0.6144	-0.6239	-0.2882	-0.4972	-0.5859	-0.1868	-0.4877	-0.5289	-0.2787	-0.4497	-0.456	-0.2534	0.1615	-0.0538	0.0317	-0.3167	-0.247	-0.4719	-0.095	-0.4275	-0.6936	0.9089
-0.5352	-0.6366	-0.6112	-0.2217	-0.4845	-0.57	-0.1108	-0.4655	-0.5067	-0.2185	-0.4085	-0.3927	-0.1932	0.1647	0.0063	0.0982	-0.3294	-0.2249	-0.4624	-0.1045	-0.4149	-0.6587	0.8614
-0.5067	-0.608	-0.5669	-0.1805	-0.4719	-0.5194	-0.0665	-0.4022	-0.4339	-0.1647	-0.3674	-0.3104	-0.133	0.1647	0.114	0.1203	-0.3389	-0.2185	-0.4212	-0.0602	-0.3579	-0.6175	0.8487
-0.4592	-0.608	-0.5289	-0.114	-0.4244	-0.456	-0.019	-0.3674	-0.38	-0.0792	-0.3135	-0.247	-0.057	0.171	0.2122	0.1552	-0.3515	-0.1837	-0.4117	-0.0412	-0.2977	-0.5922	0.7854
-0.4465	-0.5985	-0.5099	-0.0633	-0.4022	-0.4307	0.0253	-0.3135	-0.2977	-0.0285	-0.2787	-0.1805	-0.0158	0.1868	0.3199	0.171	-0.3705	-0.1457	-0.3832	-0.0158	-0.2565	-0.57	0.7506
-0.4022	-0.5827	-0.4497	0.038	-0.3705	-0.3357	0.1013	-0.2724	-0.228	0.0602	-0.1995	-0.0823	0.0728	0.209	0.3832	0.152	-0.4085	-0.114	-0.3515	0.0032	-0.1932	-0.5605	0.6809
-0.3294	-0.5162	-0.3515	0.114	-0.3072	-0.2534	0.1837	-0.1678	-0.1457	0.1615	-0.0855	0.0032	0.152	0.2502	0.475	0.1615	-0.4782	-0.057	-0.2945	0.0412	-0.1013	-0.5384	0.6112
-0.2407	-0.4529	-0.2787	0.2058	-0.2692	-0.1647	0.2724	-0.095	-0.0507	0.2534	-0.019	0.0855	0.2407	0.2629	0.5605	0.1995	-0.5225	0.0032	-0.228	0.0918	0	-0.5479	0.5257
-0.1837	-0.4307	-0.1837	0.2787	-0.2154	-0.0855	0.3484	-0.0285	0.0348	0.3199	0.0633	0.1742	0.323	0.285	0.6144	0.1583	-0.5669	0.0348	-0.1488	0.1108	0.076	-0.5479	0.4402
-0.1077	-0.3642	-0.1203	0.3737	-0.152	-0.0063	0.4244	0.0697	0.1425	0.4275	0.1742	0.2882	0.3927	0.3072	0.6682	0.1647	-0.6144	0.095	-0.1235	0.1457	0.1647	-0.5415	0.3705
-0.0507	-0.3009	-0.038	0.4244	-0.1077	0.0823	0.4624	0.1393	0.2375	0.4972	0.2534	0.3674	0.4624	0.323	0.6746	0.1773	-0.6524	0.1298	-0.0412	0.1552	0.266	-0.5225	0.2344
0.0095	-0.2407	0.0443	0.475	-0.038	0.1805	0.5162	0.247	0.3072	0.5764	0.3357	0.4719	0.5637	0.3389	0.6841	0.1488	-0.6841	0.1773	0.0127	0.1773	0.3642	-0.5004	0.1203
0.095	-0.1298	0.1457	0.5194	0.038	0.2914	0.6017	0.3325	0.4054	0.6714	0.4402	0.5922	0.627	0.3737	0.7252	0.2058	-0.7379	0.2534	0.1013	0.2439	0.4909	-0.4624	0.019
0.1425	-0.0887	0.1963	0.5289	0.095	0.38	0.6207	0.4054	0.4972	0.6967	0.5225	0.6524	0.6904	0.3737	0.7189	0.1678	-0.7252	0.285	0.1615	0.247	0.5352	-0.4085	-0.1108
0.1773	-0.0032	0.2629	0.5542	0.1773	0.4687	0.6492	0.4845	0.5922	0.7506	0.627	0.7442	0.7316	0.3452	0.7094	0.1647	-0.7031	0.2977	0.1995	0.2312	0.6302	-0.3674	-0.2502
0.1932	0.0253	0.304	0.513	0.2027	0.5289	0.6587	0.5352	0.6524	0.7822	0.6746	0.8012	0.7727	0.3452	0.6524	0.1583	-0.6809	0.3452	0.2724	0.2249	0.6714	-0.3009	-0.3927
0.2154	0.0253	0.3325	0.5035	0.2249	0.5859	0.6366	0.5669	0.6967	0.7759	0.6936	0.8424	0.8044	0.3199	0.5669	0.1362	-0.627	0.361	0.2977	0.19	0.7062	-0.2344	-0.5669
0.1963	0.0823	0.3452	0.4529	0.2629	0.6334	0.6017	0.6175	0.7601	0.7822	0.7189	0.9057	0.7917	0.2945	0.5194	0.1108	-0.5764	0.3484	0.3167	0.1393	0.7189	-0.1773	-0.7284
0.2027	0.0918	0.3642	0.4212	0.285	0.6461	0.5479	0.6239	0.7822	0.7284	0.7347	0.9152	0.8171	0.2534	0.418	0.0697	-0.4972	0.3452	0.323	0.114	0.7252	-0.1077	-0.8804
0.1647	0.1108	0.3452	0.3579	0.2882	0.6809	0.5194	0.6714	0.8202	0.7442	0.7664	0.9564	0.8234	0.1995	0.2914	-0.0095	-0.3832	0.3452	0.3262	0.0792	0.7189	-0.0158	-1.0482
0.1583	0.1108	0.3515	0.3199	0.2945	0.7189	0.4719	0.6841	0.8487	0.6999	0.7759	0.9754	0.8266	0.1362	0.1552	-0.0697	-0.2565	0.3167	0.323	0.0095	0.7189	0.0792	-1.2351
0.1108	0.1045	0.3484	0.2597	0.3135	0.7189	0.437	0.7126	0.8867	0.6587	0.7949	0.9944	0.8076	0.038	0.0475	-0.0982	-0.095	0.2882	0.3262	-0.0348	0.7347	0.1678	-1.3934
0.0982	0.1267	0.3642	0.247	0.3294	0.7506	0.418	0.7284	0.9279	0.6872	0.8044	1.0292	0.8202	-0.0127	-0.0792	-0.1647	0.0412	0.2914	0.3199	-0.0665	0.7189	0.266	-1.5486
0.1108	0.1837	0.4022	0.2502	0.361	0.8234	0.4212	0.7664	0.9786	0.7031	0.8234	1.0736	0.8519	-0.0918	-0.1615	-0.2344	0.1837	0.3135	0.3294	-0.1013	0.7062	0.3674	-1.6753
0.1235	0.209	0.4212	0.2534	0.3895	0.8677	0.4402	0.7917	1.0134	0.7062	0.8361	1.1116	0.8519	-0.1647	-0.2534	-0.2724	0.3294	0.3072	0.2945	-0.1235	0.7062	0.475	-1.7988
0.1235	0.1995	0.4307	0.2724	0.3959	0.8962	0.4655	0.8107	1.0704	0.7062	0.8551	1.1528	0.8899	-0.247	-0.3579	-0.323	0.4814	0.304	0.304	-0.1552	0.7031	0.5732	-1.9445
0.1583	0.2344	0.4307	0.2914	0.4434	0.9342	0.475	0.8456	1.1306	0.7316	0.8677	1.1908	0.9057	-0.3167	-0.4149	-0.3674	0.6112	0.3009	0.2914	-0.1742	0.6746	0.6841	-2.0553
0.1773	0.2629	0.4877	0.3294	0.4845	1.0071	0.5257	0.8646	1.1559	0.7379	0.8962	1.2414	0.9532	-0.3579	-0.4434	-0.3959	0.7094	0.3104	0.3072	-0.1932	0.6904	0.8044	-2.1725
0.2502	0.3262	0.5542	0.4085	0.5352	1.0926	0.5827	0.8994	1.2288	0.7632	0.9152	1.2668	0.9659	-0.418	-0.4592	-0.4244	0.8171	0.3167	0.2692	-0.1742	0.7031	0.9184	-2.2643
0.3135	0.399	0.608	0.4592	0.5795	1.1654	0.6524	0.9406	1.3079	0.8171	0.9659	1.3333	1.0197	-0.437	-0.4497	-0.3927	0.8772	0.3262	0.266	-0.1742	0.6936	1.0451	-2.3942
0.3547	0.4434	0.6556	0.5289	0.6239	1.2414	0.7031	0.9849	1.3713	0.8899	1.0261	1.3903	1.0863	-0.4655	-0.4624	-0.4149	0.9342	0.3357	0.2597	-0.1615	0.7062	1.1591	-2.4829
0.4687	0.5035	0.7727	0.6049	0.6841	1.3079	0.7822	1.0387	1.4283	0.9184	1.0292	1.4346	1.1053	-0.494	-0.4022	-0.3864	0.9817	0.3547	0.2787	-0.1235	0.7062	1.2509	-2.5525
0.532	0.551	0.8519	0.7062	0.7442	1.4061	0.8646	1.1021	1.5201	0.9881	1.1021	1.4916	1.1813	-0.513	-0.3769	-0.3864	0.9912	0.3737	0.2977	-0.0918	0.7157	1.3396	-2.6412
0.6302	0.5827	0.9057	0.8044	0.8044	1.498	0.9596	1.1496	1.5961	1.0704	1.1559	1.5518	1.2573	-0.5067	-0.3642	-0.3959	1.0007	0.4022	0.2977	-0.0665	0.7094	1.4314	-2.6982
0.6999	0.6492	0.9944	0.8677	0.8614	1.5518	1.0292	1.1908	1.6658	1.1306	1.1844	1.593	1.2826	-0.5035	-0.2945	-0.3864	1.0039	0.4212	0.2945	-0.0222	0.7094	1.4885	-2.7584
0.8234	0.6999	1.1148	0.9786	0.9406	1.6785	1.1401	1.2414	1.7481	1.2034	1.2509	1.669	1.3808	-0.475	-0.266	-0.3674	0.9406	0.5004	0.3389	0.038	0.7316	1.5518	-2.7932
0.8931	0.7696	1.1749	1.0482	0.9881	1.7355	1.2224	1.2826	1.8146	1.2731	1.2889	1.7101	1.3998	-0.4465	-0.2502	-0.361	0.8994	0.5447	0.3389	0.0918	0.7569	1.5961	-2.8154
0.9754	0.7759	1.2414	1.0958	0.9817	1.7766	1.2604	1.3174	1.8716	1.3111	1.2984	1.6943	1.4124	-0.4339	-0.2375	-0.3674	0.8582	0.5732	0.3325	0.1267	0.7411	1.6563	-2.8249
1.0229	0.7917	1.2984	1.1844	1.0324	1.8431	1.3269	1.3428	1.9128	1.3523	1.3301	1.7386	1.4599	-0.399	-0.2185	-0.3674	0.7949	0.6175	0.3484	0.1647	0.7537	1.726	-2.8439
1.0736	0.7917	1.3586	1.2478	1.0419	1.8811	1.3839	1.3459	1.9413	1.4029	1.3301	1.7386	1.4885	-0.3737	-0.2027	-0.3389	0.7316	0.6366	0.3484	0.2122	0.7189	1.7481	-2.8439
1.1274	0.7791	1.3998	1.2636	1.0324	1.897	1.4061	1.3649	1.9603	1.4188	1.3174	1.7576	1.5011	-0.3547	-0.1742	-0.323	0.6967	0.6556	0.323	0.228	0.7094	1.7861	-2.7996
1.1401	0.8012	1.4061	1.2921	1.0641	1.9223	1.4314	1.3396	1.9825	1.4346	1.3111	1.7576	1.4853	-0.3357	-0.1805	-0.2724	0.6556	0.6936	0.3262	0.2724	0.6841	1.84	-2.7711
1.1464	0.7664	1.4156	1.3079	1.0546	1.9065	1.4251	1.3301	1.9382	1.4251	1.2604	1.7386	1.4916	-0.3262	-0.1647	-0.2344	0.6397	0.6746	0.2977	0.2755	0.6429	1.8748	-2.7584
1.1274	0.7442	1.4314	1.3206	1.0261	1.9065	1.4314	1.2889	1.954	1.3998	1.2193	1.6911	1.4504	-0.304	-0.1552	-0.1932	0.6017	0.7062	0.266	0.3262	0.5985	1.9223	-2.7331
1.1116	0.7094	1.3808	1.2953	0.9754	1.8463	1.3903	1.2193	1.9033	1.3744	1.1591	1.6436	1.4156	-0.2977	-0.1742	-0.1393	0.5827	0.7094	0.2439	0.3294	0.5415	1.9698	-2.6729
1.1116	0.6587	1.3713	1.3111	0.9564	1.8305	1.3744	1.2003	1.8938	1.3523	1.1274	1.6056	1.3966	-0.2755	-0.1393	-0.1013	0.532	0.7189	0.2344	0.3642	0.4814	2.0142	-2.6285
1.0958	0.6556	1.3744	1.2858	0.9057	1.7766	1.3681	1.1464	1.8241	1.3143	1.0578	1.536	1.3491	-0.2597	-0.1393	-0.0348	0.5067	0.7506	0.228	0.38	0.4244	2.0427	-2.5937
1.0863	0.6144	1.3459	1.2731	0.8677	1.7386	1.3174	1.0673	1.8083	1.2446	0.9976	1.4726	1.2921	-0.2407	-0.114	0.0728	0.4529	0.7284	0.1805	0.3674	0.3484	2.0775	-2.5652
1.1179	0.5954	1.3459	1.2953	0.8171	1.707	1.3143	1.0071	1.7576	1.2351	0.9247	1.3998	1.2668	-0.19	-0.076	0.1583	0.3737	0.7506	0.1647	0.4149	0.2945	2.1092	-2.4955
1.0704	0.532	1.3048	1.2636	0.7664	1.6563	1.2984	0.9501	1.7133	1.2034	0.8424	1.3143	1.2129	-0.1678	-0.0253	0.2217	0.3167	0.7569	0.133	0.4117	0.2344	2.125	-2.467
1.0831	0.5415	1.3111	1.2858	0.7347	1.6183	1.2731	0.8899	1.6595	1.1718	0.7696	1.2604	1.1591	-0.1267	0.0348	0.3389	0.2439	0.7981	0.1393	0.4624	0.1932	2.1218	-2.41
1.0736	0.5194	1.2826	1.2826	0.6556	1.5423	1.2763	0.8234	1.6183	1.1211	0.6682	1.1908	1.1211	-0.1013	0.1267	0.4054	0.1837	0.8012	0.1077	0.4909	0.1045	2.1187	-2.372
1.0578	0.494	1.2921	1.2731	0.6144	1.5201	1.2541	0.7569	1.5423	1.0768	0.5732	1.0958	1.0799	-0.076	0.1837	0.4465	0.133	0.8076	0.0728	0.494	0.0412	2.125	-2.3435
1.0261	0.4592	1.2636	1.2763	0.5479	1.4473	1.2446	0.6587	1.4916	1.0546	0.4909	1.0387	1.0356	-0.0507	0.285	0.4877	0.0887	0.8139	0.0285	0.5162	-0.0285	2.106	-2.315
1.0546	0.4402	1.2193	1.2889	0.475	1.3998	1.2003	0.5859	1.4251	0.9849	0.3769	0.9121	0.9596	-0.0222	0.3769	0.5162	0.0222	0.8012	-0.0158	0.5194	-0.1267	2.0965	-2.3119
1.0578	0.4085	1.2288	1.3333	0.418	1.3839	1.2066	0.5162	1.3744	0.9754	0.2755	0.8361	0.9437	0.0127	0.4592	0.5384	-0.038	0.7949	-0.0507	0.5289	-0.1963	2.068	-2.3023
1.0514	0.3864	1.2193	1.3428	0.3547	1.3491	1.1749	0.4275	1.2921	0.9501	0.1773	0.7506	0.9026	0.0443	0.5225	0.5352	-0.1108	0.7886	-0.114	0.5289	-0.2787	2.0648	-2.3245
1.0609	0.3832	1.2288	1.3459	0.3009	1.3143	1.1781	0.3009	1.2351	0.9121	0.0665	0.6587	0.8456	0.0792	0.5764	0.5004	-0.1647	0.7822	-0.171	0.5574	-0.3484	2.0807	-2.3404
1.0387	0.3579	1.2098	1.3364	0.2312	1.2573	1.1464	0.2217	1.1496	0.8614	-0.0443	0.5384	0.7854	0.0918	0.6334	0.4719	-0.1868	0.7537	-0.2375	0.5352	-0.4434	2.0712	-2.3625
1.0229	0.3515	1.2161	1.3681	0.1647	1.2098	1.1084	0.1393	1.0894	0.8266	-0.1457	0.4814	0.7316	0.1013	0.6841	0.4402	-0.209	0.7252	-0.2945	0.5194	-0.5067	2.0807	-2.3879
1.0546	0.3705	1.2319	1.3649	0.1298	1.2003	1.1084	0.0602	1.0292	0.7854	-0.2407	0.3959	0.7221	0.1172	0.7221	0.4465	-0.2407	0.7062	-0.361	0.513	-0.5574	2.0902	-2.4259
1.0514	0.3515	1.1939	1.3713	0.0792	1.2003	1.0958	0.0095	0.9691	0.7537	-0.3104	0.3262	0.6746	0.1298	0.7506	0.4117	-0.2597	0.6936	-0.3927	0.4972	-0.608	2.1313	-2.4924
1.1116	0.4054	1.2351	1.3934	0.076	1.2098	1.1021	-0.0222	0.9501	0.7537	-0.3547	0.2882	0.6746	0.1393	0.8202	0.4085	-0.285	0.6999	-0.399	0.4782	-0.6112	2.1377	-2.5589
1.1179	0.4307	1.2478	1.4124	0.0665	1.2129	1.0926	-0.0602	0.9089	0.7221	-0.3864	0.2344	0.627	0.1393	0.8234	0.3864	-0.2787	0.6777	-0.4275	0.4719	-0.6302	2.1535	-2.5937
1.1781	0.4845	1.2794	1.4283	0.0792	1.2193	1.0736	-0.0633	0.8836	0.6904	-0.3864	0.1932	0.608	0.1425	0.8392	0.418	-0.2819	0.6587	-0.4434	0.4465	-0.6239	2.1788	-2.676
1.2288	0.5415	1.3111	1.4536	0.095	1.2193	1.0958	-0.076	0.8614	0.7062	-0.4149	0.1488	0.5922	0.1457	0.8867	0.4434	-0.2787	0.6524	-0.4497	0.437	-0.6302	2.1915	-2.7489
1.2478	0.589	1.3238	1.4314	0.1045	1.2034	1.0894	-0.0792	0.8139	0.6714	-0.4402	0.095	0.5542	0.1298	0.8931	0.4022	-0.2439	0.6334	-0.4624	0.3927	-0.6144	2.201	-2.8217
1.3111	0.6492	1.3681	1.4409	0.1362	1.1971	1.0419	-0.0665	0.8234	0.6461	-0.4244	0.0697	0.5415	0.1203	0.9026	0.4212	-0.2375	0.6112	-0.4402	0.3832	-0.589	2.2232	-2.8946
1.3238	0.7062	1.3523	1.4346	0.1647	1.2034	1.0229	-0.076	0.7696	0.5985	-0.4117	0.057	0.5352	0.114	0.9311	0.4085	-0.2185	0.6049	-0.4434	0.361	-0.5954	2.2232	-2.9737
1.3554	0.7791	1.3713	1.4251	0.2058	1.2003	0.9912	-0.0475	0.7347	0.589	-0.3927	0.0285	0.4877	0.0918	0.9501	0.4307	-0.1963	0.6017	-0.3895	0.3452	-0.5732	2.2358	-3.0592
1.3776	0.8392	1.3618	1.4188	0.247	1.1971	0.9627	-0.0158	0.7347	0.5764	-0.3927	0.0317	0.475	0.0823	0.9532	0.4845	-0.1742	0.6049	-0.3452	0.323	-0.5194	2.239	-3.1416
1.4251	0.8709	1.3618	1.3998	0.2945	1.1781	0.9532	0.0063	0.7221	0.5542	-0.3579	0.0063	0.4814	0.0697	0.9722	0.5289	-0.1552	0.6112	-0.2945	0.323	-0.4909	2.2548	-3.2176
1.4663	0.9501	1.3744	1.4156	0.3642	1.1686	0.9216	0.0697	0.7284	0.5447	-0.3167	0.0348	0.5035	0.0728	1.0229	0.608	-0.152	0.6556	-0.2407	0.3357	-0.4624	2.2548	-3.2841
1.4504	1.0292	1.3903	1.3839	0.4339	1.1591	0.8962	0.1108	0.7126	0.5162	-0.2724	0.0222	0.4719	0.0792	1.0926	0.6936	-0.171	0.6746	-0.1773	0.3452	-0.4212	2.2675	-3.3918
1.4885	1.1021	1.3713	1.3839	0.4782	1.1528	0.8741	0.133	0.6967	0.5162	-0.247	0.019	0.4814	0.095	1.1369	0.7854	-0.1837	0.6904	-0.1172	0.3515	-0.3895	2.2992	-3.4488
1.4885	1.1718	1.3491	1.3333	0.5289	1.1053	0.8709	0.2027	0.7126	0.4877	-0.209	0.0348	0.4877	0.114	1.1654	0.8392	-0.209	0.7252	-0.0538	0.3864	-0.3452	2.3404	-3.5216
1.5106	1.2034	1.3396	1.3174	0.5605	1.0894	0.8487	0.2502	0.6999	0.4719	-0.1583	0.0412	0.494	0.1425	1.2826	0.9817	-0.2597	0.7506	0.019	0.38	-0.3009	2.3594	-3.5818
1.4631	1.2193	1.2858	1.2541	0.5669	1.0292	0.7886	0.2502	0.6397	0.4054	-0.152	-0.0127	0.4497	0.1488	1.2858	1.0482	-0.2724	0.7569	0.057	0.3579	-0.2945	2.4227	-3.6705
1.4473	1.2288	1.2636	1.2034	0.6049	0.9786	0.7284	0.2692	0.5985	0.3737	-0.1362	-0.038	0.4402	0.1615	1.3523	1.1496	-0.304	0.7537	0.0887	0.342	-0.2755	2.4607	-3.7496
1.4536	1.2699	1.2351	1.1749	0.6207	0.9437	0.7031	0.2914	0.57	0.323	-0.1203	-0.0412	0.4212	0.1583	1.4156	1.2319	-0.3104	0.7822	0.152	0.323	-0.2375	2.505	-3.8035
1.4441	1.2794	1.2003	1.1148	0.6587	0.8899	0.6366	0.3294	0.5384	0.2755	-0.0918	-0.076	0.3769	0.1488	1.4568	1.3238	-0.2977	0.7981	0.2122	0.3199	-0.2154	2.5589	-3.8795
1.4093	1.2826	1.1654	1.0831	0.6619	0.8107	0.5922	0.3547	0.4877	0.2249	-0.0792	-0.1013	0.3579	0.1425	1.4758	1.3998	-0.2597	0.7854	0.2439	0.2945	-0.2154	2.6032	-3.9491
1.3903	1.2604	1.1243	1.0229	0.6619	0.7601	0.5384	0.3769	0.437	0.1837	-0.0665	-0.1425	0.3389	0.0982	1.479	1.4599	-0.1995	0.7917	0.2945	0.2692	-0.1805	2.6412	-4.0188
1.3934	1.2858	1.1021	1.0356	0.6872	0.7189	0.5352	0.38	0.4339	0.1583	-0.0317	-0.1457	0.323	0.0855	1.479	1.536	-0.1552	0.7759	0.3452	0.2819	-0.1647	2.6824	-4.0727
1.3776	1.2731	1.0768	0.9912	0.6809	0.6556	0.494	0.3895	0.3452	0.1077	-0.0507	-0.2027	0.2945	0.0602	1.5106	1.5866	-0.114	0.7411	0.3674	0.2407	-0.1488	2.714	-4.1265
1.3808	1.2414	1.0641	0.9564	0.6714	0.6049	0.456	0.3705	0.3135	0.0697	-0.0475	-0.2249	0.2692	0.0348	1.5043	1.6405	-0.0633	0.7347	0.3959	0.2217	-0.1203	2.7616	-4.2025
1.3523	1.2478	1.0261	0.9279	0.6651	0.57	0.4085	0.4117	0.266	0.0253	-0.0443	-0.266	0.2534	0.0222	1.5106	1.669	-0.0443	0.7252	0.418	0.209	-0.1235	2.8091	-4.2785
1.3586	1.2129	1.0419	0.9311	0.6524	0.5067	0.3832	0.3895	0.2154	0	-0.0443	-0.3167	0.2185	0	1.5106	1.6911	0.0063	0.6967	0.4497	0.171	-0.133	2.8471	-4.3545
1.3713	1.2098	1.0261	0.9057	0.6397	0.4592	0.361	0.3705	0.1805	-0.0222	-0.0475	-0.3452	0.2058	-0.0285	1.4948	1.7323	0.0348	0.6809	0.4655	0.1298	-0.1203	2.8597	-4.4179
1.3428	1.1908	1.0071	0.8772	0.6239	0.4212	0.3452	0.3579	0.1298	-0.0697	-0.0633	-0.3895	0.1647	-0.0412	1.5265	1.7291	0.0887	0.6492	0.4655	0.114	-0.1203	2.8946	-4.4812
1.3396	1.1686	1.0071	0.8646	0.608	0.3895	0.2914	0.3737	0.0823	-0.0887	-0.0665	-0.437	0.1108	-0.0728	1.5233	1.7513	0.1457	0.5985	0.456	0.076	-0.1362	2.9104	-4.5762
1.3238	1.1496	0.9881	0.8456	0.5985	0.342	0.2597	0.3389	0.038	-0.1425	-0.0855	-0.4845	0.057	-0.0982	1.5328	1.7576	0.2122	0.57	0.4624	0.0158	-0.1425	2.9041	-4.6332
1.3586	1.1464	1.0007	0.8741	0.5764	0.304	0.2597	0.3547	0.0063	-0.1868	-0.0887	-0.5099	0.057	-0.1488	1.5075	1.7386	0.2819	0.5067	0.4719	-0.0285	-0.1583	2.9294	-4.706
1.3744	1.1591	1.0229	0.8646	0.5384	0.2882	0.2375	0.3072	-0.0285	-0.228	-0.1045	-0.5637	-0.0095	-0.19	1.5011	1.7355	0.361	0.4529	0.4624	-0.0792	-0.1583	2.9421	-4.7694
1.3966	1.1401	1.0166	0.8297	0.4909	0.2597	0.1995	0.2882	-0.0728	-0.285	-0.1235	-0.5764	-0.0538	-0.228	1.5075	1.7196	0.4529	0.3864	0.4465	-0.133	-0.1647	2.9611	-4.8454
1.4156	1.1496	1.0134	0.8519	0.4719	0.2375	0.1678	0.266	-0.1077	-0.304	-0.152	-0.6334	-0.0855	-0.2724	1.4663	1.6721	0.5542	0.3072	0.4402	-0.19	-0.1932	3.0149	-4.8897
1.4441	1.1654	1.0451	0.8361	0.456	0.2407	0.1615	0.2439	-0.1267	-0.3705	-0.1837	-0.6619	-0.1393	-0.3357	1.4631	1.6341	0.6461	0.247	0.4212	-0.2629	-0.1963	3.0719	-4.9847
1.4821	1.1306	1.0641	0.8107	0.3832	0.2217	0.114	0.1742	-0.152	-0.437	-0.2502	-0.7221	-0.1963	-0.3832	1.4599	1.612	0.7601	0.1742	0.3927	-0.3135	-0.2185	3.1479	-5.0196
1.5043	1.1179	1.0736	0.8202	0.3357	0.2217	0.0982	0.1457	-0.1868	-0.4592	-0.2787	-0.7537	-0.2882	-0.4339	1.4251	1.5486	0.8614	0.0855	0.3832	-0.3769	-0.2407	3.2524	-5.0924
1.5391	1.1464	1.1306	0.8266	0.3294	0.2185	0.1077	0.1108	-0.2217	-0.4814	-0.3135	-0.7949	-0.3135	-0.4909	1.3871	1.5075	0.9691	0.0285	0.38	-0.4465	-0.2439	3.3633	-5.1779
1.6246	1.1528	1.1813	0.8392	0.2945	0.2565	0.1235	0.1108	-0.2058	-0.4719	-0.3294	-0.7822	-0.304	-0.5162	1.3776	1.4853	1.0261	0.0095	0.38	-0.4339	-0.2439	3.4931	-5.2222
1.6626	1.1433	1.2414	0.8994	0.2882	0.285	0.1362	0.1013	-0.1805	-0.4814	-0.3294	-0.8107	-0.3357	-0.5415	1.3808	1.4758	1.0989	-0.019	0.3452	-0.4529	-0.2597	3.6103	-5.2793
1.7291	1.2066	1.3048	0.9437	0.2787	0.323	0.1647	0.095	-0.1488	-0.4814	-0.3452	-0.7727	-0.3167	-0.6017	1.3459	1.4346	1.1813	-0.0285	0.3547	-0.4782	-0.2565	3.7623	-5.3616
1.7988	1.2351	1.3808	0.9912	0.2945	0.38	0.2185	0.1013	-0.133	-0.4465	-0.3357	-0.7601	-0.2882	-0.6175	1.4029	1.4568	1.2446	-0.0127	0.3452	-0.4212	-0.2755	3.8731	-5.4091
1.8907	1.2636	1.4536	1.0641	0.2945	0.437	0.2755	0.1108	-0.0665	-0.3895	-0.323	-0.7347	-0.2312	-0.6777	1.4219	1.479	1.3333	0.0095	0.3642	-0.3864	-0.2249	3.9998	-5.4693
1.9698	1.3364	1.5613	1.1211	0.3357	0.5479	0.3769	0.1393	0	-0.3262	-0.285	-0.6872	-0.1932	-0.7031	1.498	1.5486	1.3966	0.0665	0.3705	-0.3547	-0.1773	4.1202	-5.5358
2.0775	1.3966	1.6721	1.2098	0.3959	0.6556	0.475	0.2027	0.1045	-0.2534	-0.2439	-0.6239	-0.1298	-0.7379	1.5835	1.612	1.4504	0.1267	0.399	-0.2692	-0.1172	4.2183	-5.5674
2.1947	1.5075	1.8368	1.3269	0.475	0.7822	0.57	0.2692	0.1678	-0.1393	-0.19	-0.532	-0.0443	-0.7411	1.6975	1.7006	1.4663	0.2154	0.4465	-0.1995	-0.0507	4.288	-5.6244
2.296	1.5676	1.9508	1.4378	0.5257	0.8899	0.6714	0.3167	0.266	-0.0665	-0.1647	-0.4719	0.0317	-0.7474	1.7481	1.7481	1.4821	0.2945	0.4687	-0.1267	-0.0095	4.3798	-5.6688
2.4005	1.6468	2.0585	1.555	0.6112	1.0356	0.7886	0.3769	0.3515	0.0063	-0.1077	-0.4117	0.1077	-0.7474	1.8685	1.8241	1.4821	0.3325	0.4972	-0.0538	0.038	4.4242	-5.7163
2.5114	1.7418	2.201	1.6341	0.6429	1.1306	0.8772	0.4149	0.4339	0.095	-0.0665	-0.3452	0.1963	-0.7506	1.9477	1.8336	1.479	0.4149	0.5194	0.0412	0.0633	4.4907	-5.7195
2.6254	1.8558	2.3657	1.7608	0.7411	1.2921	1.0134	0.475	0.5795	0.2058	0.0222	-0.2344	0.2724	-0.7347	2.0363	1.8907	1.4504	0.5035	0.5795	0.1425	0.1647	4.516	-5.7543
2.7077	1.897	2.4734	1.8495	0.8171	1.4093	1.1179	0.5447	0.6619	0.3072	0.0665	-0.1615	0.3547	-0.7379	2.1218	1.8685	1.4504	0.5795	0.5954	0.228	0.2185	4.5414	-5.767
2.8186	1.992	2.619	1.954	0.8931	1.5613	1.2414	0.5922	0.7981	0.3895	0.114	-0.1077	0.4149	-0.7221	2.1915	1.916	1.4219	0.6872	0.5985	0.323	0.2755	4.5635	-5.7955
2.9104	2.0553	2.7394	2.0585	0.9564	1.6911	1.3396	0.6492	0.8931	0.4909	0.1583	-0.0412	0.5099	-0.7221	2.2105	1.8907	1.4093	0.7664	0.6429	0.4149	0.3325	4.5635	-5.7796
3.0022	2.1218	2.8566	2.163	0.9944	1.8083	1.4599	0.7126	0.9532	0.5922	0.1932	0.019	0.5795	-0.7031	2.2422	1.8621	1.3586	0.8582	0.6461	0.4909	0.3769	4.573	-5.7828
3.0561	2.1598	2.9484	2.2295	1.0387	1.8811	1.555	0.7126	1.0229	0.6366	0.1932	0.0475	0.6144	-0.6777	2.2137	1.8368	1.3143	0.9406	0.6619	0.589	0.4117	4.5382	-5.7606
3.1099	2.1408	3.0149	2.2833	1.0641	1.9382	1.6278	0.7062	1.0387	0.6714	0.1773	0.0697	0.6429	-0.6239	2.1725	1.7608	1.2224	0.9849	0.6492	0.6524	0.4244	4.535	-5.729
3.1257	2.1377	3.0466	2.3245	1.0514	1.9508	1.669	0.6714	1.0482	0.7126	0.171	0.0317	0.6714	-0.5764	2.144	1.6911	1.1243	1.0419	0.608	0.7031	0.3927	4.5224	-5.7005
3.1131	2.0933	3.0529	2.3435	1.0134	1.954	1.6721	0.6239	0.9944	0.7221	0.1108	-0.0222	0.6207	-0.513	2.0522	1.6405	0.9912	1.0768	0.589	0.7727	0.3769	4.5002	-5.6561
3.0656	2.0332	3.0181	2.3245	0.9342	1.935	1.6721	0.5225	0.9406	0.6872	0.0348	-0.1013	0.5827	-0.4339	1.9318	1.555	0.8456	1.1116	0.5384	0.7917	0.3579	4.5097	-5.5959
3.0149	1.935	2.9611	2.296	0.8329	1.8558	1.6595	0.418	0.8171	0.627	-0.0665	-0.2249	0.5162	-0.38	1.7956	1.4853	0.7284	1.1148	0.4877	0.8139	0.2819	4.5034	-5.5579
2.9547	1.8241	2.8882	2.2548	0.7316	1.7545	1.5961	0.304	0.6904	0.5415	-0.19	-0.3579	0.4465	-0.2882	1.726	1.4124	0.5574	1.1401	0.3769	0.8171	0.2217	4.5034	-5.4883
2.8154	1.6785	2.7362	2.1218	0.5605	1.5961	1.4853	0.1077	0.494	0.4244	-0.3357	-0.5447	0.3104	-0.2122	1.5993	1.3143	0.3959	1.1021	0.2755	0.7822	0.1077	4.5509	-5.4503
2.6665	1.5201	2.5969	1.9952	0.38	1.3998	1.3839	-0.0792	0.2755	0.2819	-0.532	-0.7917	0.1457	-0.1267	1.4283	1.2003	0.2375	1.0768	0.1552	0.7379	-0.0127	4.5794	-5.4028
2.524	1.3396	2.4037	1.8463	0.1837	1.1813	1.2414	-0.3104	0.0665	0.1457	-0.7252	-0.9944	0.0032	-0.0412	1.2984	1.1116	0.0792	1.0514	0.0253	0.7126	-0.1425	4.611	-5.3553
2.3404	1.1211	2.1915	1.6816	-0.0317	0.9342	1.0673	-0.5352	-0.209	-0.0127	-0.9311	-1.2541	-0.1678	0.0348	1.1559	0.9881	-0.0665	0.9849	-0.095	0.6429	-0.285	4.6712	-5.3299
2.1282	0.8804	1.9445	1.479	-0.2819	0.6746	0.8677	-0.7727	-0.5067	-0.19	-1.1654	-1.5328	-0.3357	0.1013	0.9691	0.8044	-0.1963	0.9152	-0.2597	0.551	-0.4592	4.7314	-5.3204
1.9287	0.6651	1.6785	1.2478	-0.5352	0.3737	0.6524	-1.0451	-0.8012	-0.4054	-1.4188	-1.8178	-0.5479	0.1583	0.8012	0.6239	-0.2882	0.8646	-0.4022	0.4655	-0.6144	4.8105	-5.3014
1.6848	0.4275	1.3839	0.9691	-0.8076	0.0412	0.4275	-1.3206	-1.1116	-0.6302	-1.6595	-2.1313	-0.7506	0.1837	0.5859	0.4434	-0.3705	0.7822	-0.5384	0.3705	-0.7537	4.8866	-5.3109
1.3998	0.1298	1.0799	0.7126	-1.0863	-0.2882	0.1963	-1.5866	-1.4473	-0.8392	-1.916	-2.4164	-0.9279	0.1932	0.4149	0.2217	-0.3959	0.7062	-0.6999	0.247	-0.9026	4.9531	-5.3299
1.1528	-0.1045	0.7981	0.4529	-1.3459	-0.608	-0.0317	-1.8463	-1.7798	-1.0387	-2.1662	-2.7299	-1.1084	0.2027	0.1868	0.0095	-0.4117	0.6492	-0.8551	0.152	-1.0451	5.0386	-5.3426
0.8867	-0.3927	0.4592	0.1678	-1.6405	-0.9469	-0.2724	-2.1028	-2.1408	-1.2541	-2.3974	-3.0149	-1.3333	0.1995	-0.0095	-0.2185	-0.4054	0.5859	-0.9881	0.019	-1.1749	5.0861	-5.3774
0.57	-0.6651	0.1108	-0.1393	-1.9192	-1.2984	-0.5257	-2.3752	-2.4607	-1.4885	-2.6349	-3.3031	-1.5328	0.1995	-0.2375	-0.4529	-0.3927	0.494	-1.1559	-0.1013	-1.3333	5.1557	-5.3838
0.266	-0.9437	-0.2249	-0.4244	-2.1978	-1.6405	-0.7949	-2.619	-2.7742	-1.688	-2.8882	-3.5913	-1.7038	0.1837	-0.4307	-0.6429	-0.3674	0.4434	-1.3174	-0.2312	-1.4758	5.2064	-5.4218
-0.0158	-1.2351	-0.5384	-0.7062	-2.4829	-1.954	-1.0261	-2.9167	-3.0846	-1.8716	-3.1036	-3.8668	-1.8811	0.1805	-0.6366	-0.8139	-0.3642	0.4085	-1.4758	-0.3325	-1.6151	5.2127	-5.4313
-0.3674	-1.5645	-0.9184	-1.0197	-2.7869	-2.2928	-1.2858	-3.1543	-3.3918	-2.087	-3.3348	-4.1107	-2.0268	0.1805	-0.8804	-1.0039	-0.3515	0.3515	-1.6246	-0.4212	-1.7798	5.2413	-5.4439
-0.6682	-1.8811	-1.2604	-1.2889	-3.0941	-2.581	-1.4948	-3.3981	-3.718	-2.258	-3.585	-4.3608	-2.1947	0.1805	-1.0673	-1.1654	-0.3642	0.3104	-1.7766	-0.532	-1.9223	5.2222	-5.4218
-0.9596	-2.163	-1.5835	-1.574	-3.3886	-2.9009	-1.7291	-3.6356	-3.9935	-2.4195	-3.7876	-4.5952	-2.334	0.1963	-1.2763	-1.3206	-0.3864	0.3167	-1.9382	-0.627	-2.087	5.1937	-5.4028
-1.2826	-2.4544	-1.935	-1.821	-3.6515	-3.1954	-1.9382	-3.8985	-4.25	-2.5937	-3.984	-4.782	-2.429	0.209	-1.4853	-1.4758	-0.4054	0.3104	-2.0838	-0.7157	-2.22	5.1304	-5.3838
-1.5961	-2.7331	-2.2612	-2.0775	-3.9238	-3.4551	-2.1472	-4.1043	-4.4907	-2.7362	-4.1803	-4.9784	-2.5304	0.2154	-1.7038	-1.593	-0.4117	0.3072	-2.2517	-0.7822	-2.3784	5.0607	-5.3584
-1.8907	-3.0149	-2.5557	-2.3214	-4.1835	-3.6926	-2.3214	-4.307	-4.6997	-2.8471	-4.3418	-5.1494	-2.5905	0.2122	-1.916	-1.726	-0.4212	0.3357	-2.3625	-0.8519	-2.4607	4.9911	-5.3299
-2.1598	-3.2746	-2.8281	-2.5304	-4.3957	-3.9238	-2.5177	-4.4812	-4.9151	-2.9421	-4.478	-5.2888	-2.6539	0.2154	-2.1282	-1.8653	-0.4339	0.3642	-2.4955	-0.9121	-2.5589	4.8866	-5.2729
-2.4195	-3.4994	-3.1131	-2.7299	-4.5984	-4.1265	-2.6634	-4.6237	-5.0797	-3.0371	-4.5984	-5.3933	-2.7172	0.2185	-2.3435	-2.0142	-0.4434	0.4307	-2.5969	-0.9532	-2.6222	4.7915	-5.2603
-2.676	-3.7211	-3.3791	-2.9452	-4.7725	-4.3292	-2.8407	-4.7662	-5.2444	-3.1606	-4.7092	-5.5231	-2.7742	0.2027	-2.5494	-2.1567	-0.4244	0.4465	-2.6887	-1.0419	-2.6792	4.6522	-5.2476
-2.9231	-3.9238	-3.5913	-3.1131	-4.9404	-4.5097	-2.9737	-4.8739	-5.3838	-3.2303	-4.7662	-5.5738	-2.7521	0.2154	-2.7489	-2.3214	-0.4212	0.4814	-2.7806	-1.0926	-2.714	4.5445	-5.2254
-3.1416	-4.0885	-3.8098	-3.2809	-5.1051	-4.6585	-3.1194	-4.9879	-5.5104	-3.3031	-4.8105	-5.6181	-2.7647	0.2122	-2.9231	-2.4354	-0.4085	0.5605	-2.8376	-1.1084	-2.7235	4.402	-5.2317
-3.3728	-4.3007	-4.0315	-3.4931	-5.2317	-4.8169	-3.2556	-5.0797	-5.6213	-3.3981	-4.8422	-5.6656	-2.7806	0.1963	-3.1162	-2.6159	-0.38	0.6461	-2.9104	-1.1559	-2.7172	4.2943	-5.2571
-3.5818	-4.4274	-4.2278	-3.6325	-5.3458	-4.9467	-3.3854	-5.1082	-5.6973	-3.4519	-4.8581	-5.6751	-2.7869	0.1868	-3.3189	-2.7679	-0.3737	0.7062	-2.9484	-1.1813	-2.6792	4.1835	-5.2508
-3.7686	-4.5572	-4.402	-3.7876	-5.4186	-5.0544	-3.4868	-5.1367	-5.767	-3.5026	-4.8391	-5.6625	-2.7331	0.1837	-3.4551	-2.9389	-0.3642	0.7981	-3.0022	-1.2193	-2.5842	4.0632	-5.2824
-3.9776	-4.7029	-4.5857	-3.9523	-5.4914	-5.1652	-3.6166	-5.1874	-5.8493	-3.5533	-4.8074	-5.6276	-2.7331	0.1805	-3.6388	-3.1289	-0.3579	0.9057	-2.9896	-1.2573	-2.5209	3.9745	-5.3236
-4.1898	-4.8264	-4.7535	-4.0822	-5.5769	-5.2729	-3.7338	-5.2349	-5.8936	-3.5881	-4.7567	-5.6181	-2.695	0.1678	-3.8003	-3.3601	-0.3199	0.9944	-2.9832	-1.2889	-2.3974	3.8985	-5.3711
-4.4115	-4.9341	-4.9341	-4.25	-5.6529	-5.3743	-3.8573	-5.2286	-5.957	-3.6451	-4.6934	-5.5864	-2.6697	0.1488	-3.984	-3.5533	-0.2977	1.0958	-2.9801	-1.3174	-2.296	3.8351	-5.4186
-4.5889	-5.0512	-5.1019	-4.3862	-5.7036	-5.4756	-3.984	-5.2317	-6.0045	-3.7243	-4.6332	-5.5516	-2.657	0.1267	-4.1328	-3.7718	-0.2502	1.1749	-2.9516	-1.3459	-2.1503	3.8035	-5.4756
-4.7599	-5.1399	-5.2508	-4.5477	-5.7638	-5.5833	-4.0853	-5.1969	-6.0456	-3.7591	-4.5509	-5.5041	-2.6475	0.1108	-4.3228	-4.0347	-0.2154	1.2731	-2.9041	-1.3554	-1.9762	3.7813	-5.5643
-4.9531	-5.2286	-5.3869	-4.7029	-5.7701	-5.6434	-4.2025	-5.1589	-6.0741	-3.8066	-4.44	-5.4534	-2.6127	0.0918	-4.4432	-4.2342	-0.1773	1.3839	-2.8407	-1.3776	-1.7956	3.7876	-5.6339
-5.1557	-5.2888	-5.5326	-4.8549	-5.7955	-5.7195	-4.3228	-5.1177	-6.0995	-3.8573	-4.326	-5.4059	-2.5684	0.0633	-4.592	-4.4939	-0.1267	1.4821	-2.7869	-1.4061	-1.6215	3.8066	-5.7131
-5.3109	-5.3901	-5.672	-5.0006	-5.8018	-5.8018	-4.4464	-5.0797	-6.1343	-3.8921	-4.193	-5.3363	-2.5304	0.0507	-4.7282	-4.7187	-0.0918	1.5771	-2.695	-1.4188	-1.4093	3.8573	-5.8176
-5.5041	-5.4598	-5.8271	-5.1621	-5.8366	-5.8936	-4.554	-5.0322	-6.1945	-3.9935	-4.0885	-5.2919	-2.505	0.0127	-4.8992	-4.9594	-0.0222	1.631	-2.6159	-1.4599	-1.2351	3.9048	-5.9316
-5.6529	-5.5136	-5.9475	-5.3426	-5.8461	-5.9696	-4.6775	-4.9879	-6.2103	-4.0568	-3.9713	-5.2444	-2.505	-0.0032	-5.0386	-5.2064	0.0158	1.6975	-2.5335	-1.5043	-1.0324	3.9745	-6.0361
-5.824	-5.5864	-6.1058	-5.4851	-5.8778	-6.0425	-4.82	-4.9467	-6.242	-4.1012	-3.851	-5.2254	-2.486	-0.0253	-5.1842	-5.4186	0.0633	1.745	-2.448	-1.5423	-0.8551	4.0442	-6.1692
-5.9823	-5.6783	-6.2072	-5.6403	-5.9	-6.1153	-4.9087	-4.8929	-6.28	-4.1835	-3.7306	-5.1779	-2.4987	-0.0443	-5.3458	-5.672	0.095	1.7798	-2.3752	-1.5835	-0.6777	4.1202	-6.28
-6.1502	-5.7638	-6.3623	-5.8081	-5.9158	-6.2135	-5.0481	-4.8739	-6.3275	-4.2722	-3.623	-5.1494	-2.4829	-0.0602	-5.4946	-5.8746	0.133	1.8083	-2.296	-1.6436	-0.5004	4.1993	-6.4003
-6.2832	-5.8145	-6.4573	-5.9253	-5.919	-6.2705	-5.1557	-4.8169	-6.3592	-4.3387	-3.5153	-5.1399	-2.4892	-0.0823	-5.6371	-6.0583	0.1615	1.821	-2.201	-1.688	-0.342	4.2722	-6.508
-6.4257	-5.9031	-6.5555	-6.052	-5.9696	-6.318	-5.2571	-4.7884	-6.375	-4.383	-3.4076	-5.1209	-2.4829	-0.1108	-5.7543	-6.2357	0.2249	1.8178	-2.1345	-1.7513	-0.2154	4.345	-6.6474
-6.527	-5.9316	-6.6252	-6.1217	-5.9538	-6.3497	-5.3046	-4.7092	-6.3908	-4.3862	-3.3031	-5.0829	-2.4797	-0.1362	-5.8746	-6.3813	0.2755	1.8241	-2.0363	-1.7956	-0.0412	4.4242	-6.774
-6.5999	-5.9506	-6.6822	-6.223	-5.9633	-6.3687	-5.3679	-4.6395	-6.3592	-4.4337	-3.1891	-5.0386	-2.486	-0.19	-5.9601	-6.4795	0.3769	1.7861	-1.9667	-1.8621	0.0633	4.5034	-6.907
-6.6695	-5.9886	-6.7075	-6.2768	-5.9348	-6.3782	-5.4218	-4.5509	-6.3402	-4.4464	-3.0782	-4.9974	-2.4734	-0.2344	-6.0393	-6.5619	0.4624	1.7545	-1.8716	-1.9382	0.1932	4.5762	-7.0084
-6.7044	-5.9886	-6.7044	-6.318	-5.9063	-6.3243	-5.4281	-4.4875	-6.3022	-4.4432	-2.9611	-4.9341	-2.467	-0.3009	-6.1248	-6.5967	0.5985	1.6943	-1.8051	-2.0142	0.304	4.6712	-7.1256
-6.717	-5.9475	-6.6759	-6.3148	-5.8556	-6.2515	-5.3901	-4.3988	-6.2198	-4.4179	-2.8027	-4.8359	-2.4164	-0.3579	-6.1343	-6.6094	0.7252	1.6563	-1.707	-2.0553	0.4275	4.7599	-7.2237
-6.6949	-5.8651	-6.5999	-6.2768	-5.7416	-6.1787	-5.3458	-4.2595	-6.0963	-4.345	-2.676	-4.7124	-2.3625	-0.4307	-6.147	-6.6189	0.8741	1.5645	-1.5993	-2.1187	0.5479	4.8707	-7.3187
-6.5935	-5.7258	-6.4415	-6.1755	-5.5864	-5.995	-5.2476	-4.0853	-5.9221	-4.2532	-2.4702	-4.5477	-2.2675	-0.5067	-6.109	-6.5239	1.0166	1.5043	-1.4631	-2.1567	0.7062	4.9942	-7.4106
-6.413	-5.5358	-6.2167	-6.0266	-5.3774	-5.7321	-5.0702	-3.8541	-5.7131	-4.0885	-2.2358	-4.3323	-2.1662	-0.589	-6.0235	-6.3845	1.1749	1.4663	-1.2636	-2.1313	0.8899	5.1304	-7.4803
-6.204	-5.3014	-5.9538	-5.8461	-5.1082	-5.4629	-4.8897	-3.604	-5.4154	-3.889	-1.9635	-4.06	-1.9983	-0.6746	-5.9348	-6.2737	1.3491	1.4188	-1.0609	-2.0965	1.1084	5.2983	-7.5689
-5.9095	-4.9974	-5.6213	-5.5833	-4.7979	-5.0639	-4.6047	-3.2429	-5.0291	-3.604	-1.631	-3.737	-1.802	-0.7822	-5.7701	-6.071	1.5423	1.3808	-0.8202	-2.0553	1.3491	5.4503	-7.6196
-5.5801	-4.6649	-5.2476	-5.3046	-4.4274	-4.6934	-4.3323	-2.8914	-4.6427	-3.3348	-1.2826	-3.3791	-1.593	-0.8962	-5.6244	-5.862	1.7703	1.3428	-0.551	-1.9983	1.6088	5.6308	-7.6798
-5.1747	-4.2468	-4.763	-4.9087	-3.9998	-4.2088	-3.9365	-2.4385	-4.1487	-2.9737	-0.8487	-2.9421	-1.2699	-1.0166	-5.4059	-5.6149	1.992	1.3459	-0.247	-1.8907	1.897	5.824	-7.7178
-4.744	-3.7528	-4.2595	-4.5192	-3.5058	-3.6705	-3.585	-2.0047	-3.6388	-2.5905	-0.38	-2.4639	-0.9754	-1.1369	-5.1684	-5.3711	2.2675	1.3396	0.076	-1.7893	2.22	6.0203	-7.7685
-4.1803	-3.2303	-3.6673	-4.0663	-2.9231	-3.0529	-3.1131	-1.4473	-2.9959	-2.1377	0.1425	-1.9065	-0.5954	-1.2763	-4.8802	-5.0734	2.5399	1.3459	0.4592	-1.6341	2.6032	6.223	-7.8065
-3.6103	-2.6475	-3.0307	-3.5343	-2.3023	-2.4069	-2.6317	-0.8424	-2.3562	-1.631	0.7094	-1.2921	-0.1868	-1.4378	-4.5699	-4.782	2.8376	1.3839	0.8646	-1.4504	3.0086	6.4162	-7.8476
-2.9864	-2.0237	-2.3182	-2.9484	-1.6531	-1.6943	-2.0965	-0.1932	-1.6341	-1.0989	1.3333	-0.6429	0.2502	-1.5771	-4.2405	-4.4559	3.1289	1.4061	1.3048	-1.2794	3.4614	6.6284	-7.8635
-2.296	-1.3364	-1.5645	-2.3435	-0.9152	-0.9279	-1.4821	0.4972	-0.8361	-0.5352	1.9952	0.0507	0.7474	-1.7133	-3.8636	-4.117	3.4266	1.4631	1.7861	-1.0482	3.946	6.8469	-7.9015
-1.5106	-0.5637	-0.7411	-1.6753	-0.1203	-0.1108	-0.8392	1.2351	-0.019	0.1108	2.7172	0.8139	1.2858	-1.8653	-3.4393	-3.7243	3.6863	1.555	2.3214	-0.7822	4.4749	7.0432	-7.8951
-0.7411	0.2027	0.1013	-0.9817	0.6841	0.7442	-0.1678	2.0142	0.8551	0.7822	3.4456	1.612	1.8463	-1.9857	-3.0022	-3.3284	3.9713	1.6563	2.8439	-0.4877	4.9911	7.2491	-7.968
0.0602	1.0292	0.9691	-0.2629	1.517	1.6056	0.513	2.8154	1.7671	1.4346	4.2025	2.4512	2.4164	-2.1313	-2.5177	-2.8977	4.231	1.7513	3.4234	-0.2217	5.5674	7.4676	-7.9616
0.8899	1.8716	1.8907	0.5035	2.4005	2.543	1.2319	3.6483	2.6887	2.144	4.9847	3.2841	3.0149	-2.277	-2.03	-2.429	4.5034	1.878	3.9967	0.1045	6.1375	7.6861	-8.0281
1.7386	2.6982	2.7806	1.2826	3.2651	3.4424	1.9413	4.4464	3.6293	2.8407	5.7796	4.1613	3.6198	-2.3974	-1.5265	-1.9445	4.763	1.9952	4.554	0.3864	6.7044	7.8825	-8.0535
2.6127	3.5723	3.7306	2.0807	4.1582	4.3925	2.714	5.2983	4.5794	3.5628	6.584	5.0449	4.2373	-2.5304	-0.9817	-1.4029	5.0037	2.1028	5.1557	0.6967	7.3156	8.082	-8.0788
3.4804	4.421	4.6807	2.8882	5.0481	5.3236	3.4488	6.1153	5.4946	4.2722	7.3568	5.8905	4.8549	-2.6475	-0.418	-0.8234	5.2444	2.22	5.7448	1.0007	7.8445	8.2593	-8.1073
4.3387	5.2666	5.5801	3.6926	5.9158	6.2167	4.1803	6.9134	6.4478	4.9499	8.1168	6.736	5.4756	-2.7457	0.1552	-0.209	5.4408	2.3467	6.299	1.3301	8.3923	8.443	-8.1073
5.2001	6.071	6.4953	4.4812	6.7265	7.1161	4.9024	7.6861	7.3346	5.6403	8.8325	7.5626	6.0425	-2.8502	0.6999	0.3864	5.6529	2.4639	6.8405	1.6025	8.9149	8.614	-8.0978
6.0108	6.8817	7.3663	5.2413	7.5151	7.9743	5.5959	8.4398	8.1992	6.2895	9.5229	8.3638	6.6189	-2.9516	1.2573	1.0229	5.843	2.5557	7.3377	1.8938	9.3962	8.7692	-8.101
6.8247	7.6766	8.2277	6.0235	8.3322	8.8294	6.299	9.1524	9.0479	6.9324	10.2165	9.1176	7.1509	-3.0371	1.84	1.6816	6.0045	2.6412	7.8286	2.1693	9.8776	8.9212	-8.1136
7.5626	8.3892	9.0226	6.7424	9.0289	9.6338	6.9419	9.7826	9.8238	7.5246	10.8119	9.8333	7.6513	-3.1004	2.334	2.3119	6.1565	2.7426	8.2593	2.429	10.2513	9.0637	-8.101
8.2973	9.0669	9.8016	7.4359	9.7256	10.4128	7.5753	10.4033	10.5997	8.0978	11.3851	10.5047	8.1358	-3.1669	2.8344	2.9231	6.2768	2.8407	8.671	2.6855	10.6535	9.1999	-8.1231
8.9845	9.7161	10.5332	8.0788	10.3463	11.1127	8.1485	10.9544	11.3122	8.6045	11.8759	11.1191	8.5602	-3.2081	3.3221	3.5153	6.3782	2.9262	9.0289	2.9136	10.967	9.3361	-8.1358
9.6084	10.2735	11.1381	8.69	10.8974	11.7366	8.6584	11.4262	11.8918	9.0574	12.294	11.6574	8.9529	-3.2651	3.7465	4.0885	6.4953	2.9896	9.3202	3.1162	11.2141	9.4501	-8.1453
10.1721	10.8024	11.7619	9.2442	11.4009	12.3541	9.1302	11.8633	12.4935	9.4849	12.6898	12.1578	9.3076	-3.2999	4.155	4.5825	6.5619	3.0497	9.6084	3.3063	11.4642	9.5768	-8.1738
10.7232	11.3027	12.2971	9.7478	11.8506	12.9084	9.5831	12.2148	12.9622	9.8523	12.9939	12.5695	9.6021	-3.3379	4.554	5.0797	6.622	3.1099	9.8491	3.4519	11.6258	9.6623	-8.1738
11.1571	11.7144	12.7532	10.2006	12.1958	13.3644	9.9473	12.5252	13.4056	10.1658	13.2631	12.9495	9.8745	-3.3696	4.8929	5.4851	6.6727	3.1416	9.998	3.585	11.7524	9.7794	-8.196
11.5561	12.0501	13.1902	10.568	12.5062	13.7666	10.2957	12.75	13.7919	10.4477	13.4467	13.2599	10.1025	-3.3728	5.2001	5.8778	6.6949	3.1954	10.1341	3.7243	11.8348	9.8998	-8.2372
11.8759	12.3193	13.5006	10.8815	12.7373	14.0991	10.5427	12.9147	14.0896	10.644	13.5544	13.4816	10.2608	-3.3759	5.4503	6.1755	6.7139	3.2144	10.2386	3.8161	11.8601	10.0011	-8.234
12.1293	12.5378	13.7539	11.1507	12.921	14.3746	10.7644	13.0414	14.2986	10.8214	13.6494	13.6589	10.3907	-3.3728	5.71	6.4225	6.6949	3.2524	10.2925	3.9016	11.8538	10.1183	-8.2657
12.3383	12.712	13.9471	11.3471	13.0604	14.5773	10.9259	13.0889	14.4538	10.9512	13.6558	13.7698	10.4667	-3.3569	5.8905	6.6569	6.6632	3.2841	10.2893	3.9745	11.8063	10.226	-8.272
12.4365	12.7785	14.0548	11.4706	13.0889	14.6723	11.0145	13.0857	14.5457	10.9955	13.5987	13.8078	10.492	-3.3569	6.0203	6.7772	6.6315	3.2619	10.2576	3.9998	11.7049	10.359	-8.2942
12.484	12.826	14.0865	11.5244	13.0699	14.7262	11.0715	13.0192	14.552	10.9955	13.4847	13.7539	10.4762	-3.3316	6.1217	6.8722	6.5935	3.2683	10.1816	4.0062	11.5466	10.4667	-8.329
12.4967	12.7912	14.0675	11.4927	12.9875	14.704	11.0272	12.8799	14.4823	10.8942	13.3074	13.6336	10.4033	-3.2999	6.1787	6.9166	6.5492	3.2271	10.0423	3.9618	11.3661	10.587	-8.3132
12.446	12.7057	14.0199	11.4421	12.8925	14.6153	10.967	12.7278	14.3715	10.8214	13.0889	13.5006	10.2767	-3.2714	6.2293	6.9197	6.4795	3.2081	9.9125	3.9016	11.1444	10.72	-8.3417
12.3193	12.6012	13.8679	11.3281	12.7088	14.4855	10.872	12.503	14.1751	10.6757	12.8134	13.2789	10.1088	-3.2588	6.2135	6.8469	6.4383	3.1448	9.7383	3.8256	10.9005	10.8435	-8.3417
12.142	12.3795	13.6621	11.1476	12.465	14.2765	10.682	12.2085	13.9218	10.4762	12.4745	12.9749	9.903	-3.2239	6.1913	6.7899	6.3813	3.0656	9.4944	3.7465	10.6092	10.9639	-8.3575
11.9171	12.1768	13.4151	10.9227	12.1831	13.9946	10.454	11.8791	13.6146	10.1975	12.1166	12.6423	9.6179	-3.2018	6.1153	6.6632	6.3402	2.9642	9.2601	3.5913	10.2925	11.0937	-8.3733
11.6859	11.9298	13.1617	10.6883	11.8886	13.7064	10.2323	11.5751	13.2789	9.9695	11.7429	12.3003	9.3551	-3.1701	6.0361	6.546	6.2705	2.9009	9.0131	3.4899	9.9916	11.2046	-8.4367
11.4294	11.6448	12.8672	10.4413	11.5529	13.3866	9.96	11.1856	12.9084	9.6654	11.3122	11.9013	9.0606	-3.1194	5.9601	6.3528	6.1913	2.8312	8.7692	3.3348	9.6528	11.3154	-8.4588
11.1381	11.3407	12.5347	10.1405	11.1919	13.0224	9.6813	10.7929	12.503	9.3741	10.8562	11.5054	8.7597	-3.1099	5.862	6.2135	6.1438	2.7426	8.5063	3.1954	9.3139	11.3977	-8.481
10.8182	10.9987	12.1958	9.8459	10.8087	12.6423	9.3646	10.3812	12.0723	9.0257	10.4255	11.0494	8.4177	-3.0592	5.7226	6.014	6.0615	2.695	8.2055	3.0592	8.9624	11.4864	-8.538
10.5237	10.6979	11.8696	9.5293	10.4192	12.2623	9.0606	9.9663	11.6353	8.7027	9.9695	10.6123	8.0978	-3.0086	5.6023	5.8366	5.9601	2.6349	7.9173	2.9326	8.6204	11.5561	-8.5823
10.2133	10.359	11.4769	9.2062	10.0296	11.8411	8.7375	9.5229	11.1666	8.367	9.5039	10.1088	7.7526	-2.9642	5.4629	5.6751	5.8651	2.5969	7.6164	2.8027	8.2752	11.6131	-8.6425
9.884	9.9916	11.1	8.8515	9.6084	11.4136	8.4018	9.0922	10.6979	7.9965	9.0162	9.5958	7.3979	-2.9167	5.3204	5.4819	5.7796	2.5462	7.3029	2.6475	7.9173	11.6353	-8.7344
9.5166	9.6338	10.6915	8.4842	9.1714	10.948	8.0566	8.633	10.1785	7.6544	8.5127	9.0859	7.0242	-2.8597	5.1589	5.2951	5.6751	2.4892	6.9894	2.5209	7.5499	11.6733	-8.8135
9.1841	9.2474	10.3273	8.1358	8.7407	10.4857	7.6924	8.1675	9.6781	7.2744	8.0186	8.5697	6.6727	-2.8217	4.9879	5.1241	5.5706	2.4322	6.6854	2.3847	7.2016	11.6733	-8.8579
8.8104	8.8579	9.8776	7.7748	8.31	10.0265	7.3314	7.7209	9.1619	6.907	7.5119	8.044	6.299	-2.7584	4.8264	4.9372	5.4503	2.3879	6.3813	2.239	6.8627	11.6384	-8.9275
8.4652	8.4652	9.4628	7.4011	7.8698	9.5483	6.9641	7.2459	8.6489	6.5112	6.9957	7.4739	5.9221	-2.6792	4.6427	4.7662	5.3173	2.334	6.0425	2.1028	6.4637	11.6131	-9.0067
8.12	8.0725	9.0226	7.0211	7.4138	9.0669	6.6189	6.7487	8.1041	6.1502	6.4953	6.9356	5.5484	-2.6	4.4812	4.6142	5.1621	2.2928	5.7385	1.973	6.0837	11.5656	-9.0447
7.7653	7.6576	8.6014	6.66	6.9292	8.5887	6.2515	6.2705	7.5911	5.7733	5.9601	6.394	5.1716	-2.5145	4.326	4.4527	5.0006	2.2422	5.4344	1.8526	5.7226	11.4801	-9.0954
7.3821	7.2586	8.1833	6.2958	6.4922	8.1295	5.862	5.7955	7.0781	5.4091	5.4693	5.8461	4.8137	-2.4227	4.1297	4.2975	4.8137	2.2073	5.1304	1.7165	5.3774	11.3882	-9.1239
7.0242	6.85	7.7621	5.938	6.0393	7.6164	5.5263	5.3141	6.5207	5.0227	4.9404	5.2983	4.459	-2.3435	3.9903	4.1677	4.6427	2.163	4.8169	1.593	5.0006	11.2647	-9.1524
6.6759	6.4605	7.3187	5.6023	5.6118	7.1351	5.2001	4.82	5.9855	4.6522	4.421	4.7504	4.0885	-2.2675	3.8035	4.0157	4.4654	2.0997	4.4875	1.4726	4.63	11.1317	-9.1524
6.299	6.0425	6.8722	5.2286	5.1272	6.622	4.8454	4.326	5.4439	4.3007	3.8858	4.1645	3.7148	-2.1662	3.6008	3.8573	4.2817	2.0648	4.1645	1.3618	4.231	10.9702	-9.1872
5.938	5.6181	6.4447	4.8897	4.6807	6.1628	4.516	3.8478	4.9214	3.9428	3.3791	3.6356	3.3823	-2.0617	3.4171	3.7401	4.0948	2.0395	3.87	1.2478	3.8795	10.777	-9.1556
5.6023	5.2159	6.033	4.5572	4.2405	5.6625	4.1898	3.3474	4.3893	3.5881	2.8914	3.1004	3.0624	-1.9698	3.2239	3.5881	3.9301	1.9952	3.5438	1.1338	3.5026	10.5838	-9.1271
5.2413	4.801	5.5991	4.2247	3.7718	5.1937	3.8795	2.8724	3.8763	3.2556	2.41	2.5684	2.714	-1.8938	3.0339	3.4329	3.7496	1.973	3.2461	1.0451	3.1321	10.3685	-9.1144
4.9436	4.4337	5.2286	3.9713	3.3538	4.7694	3.6261	2.4449	3.3949	2.9674	1.9572	2.0965	2.4607	-1.7956	2.8566	3.3094	3.5533	2.0015	2.9516	1.0102	2.7806	10.1531	-9.1144
4.6015	4.0663	4.8486	3.6641	2.9421	4.3038	3.3348	1.9793	2.9294	2.6697	1.4853	1.5961	2.1662	-1.7133	2.6539	3.1448	3.3981	1.9983	2.6444	0.9279	2.4417	9.9251	-9.0922
4.3133	3.718	4.4622	3.3886	2.5145	3.8573	3.0877	1.536	2.4449	2.41	1.0387	1.1496	1.9318	-1.6183	2.4544	2.9832	3.2113	2.0617	2.3499	0.8931	2.0933	9.7066	-9.0732
3.9967	3.3664	4.0505	3.1194	2.1313	3.4551	2.8502	1.1179	1.9983	2.144	0.608	0.6999	1.6943	-1.536	2.2453	2.7901	3.0466	2.0997	2.0553	0.8867	1.7355	9.4754	-9.0542
3.6515	3.0181	3.6705	2.8502	1.7386	3.0086	2.5747	0.6872	1.5518	1.9033	0.1742	0.266	1.4568	-1.4473	2.0648	2.619	2.8661	2.1503	1.7766	0.8551	1.3998	9.2537	-9.0384
3.3759	2.7172	3.3094	2.6254	1.3776	2.6	2.3689	0.2819	1.0989	1.688	-0.1963	-0.171	1.2604	-1.3554	1.8938	2.448	2.6824	2.22	1.5106	0.8614	1.0894	9.0479	-9.0384
3.0624	2.3879	2.9326	2.3277	0.9817	2.1915	2.1218	-0.095	0.6651	1.4219	-0.6049	-0.5827	1.0451	-1.2889	1.7418	2.3087	2.5367	2.2865	1.2288	0.8614	0.7601	8.8642	-9.0257
2.7521	2.0743	2.5367	2.0553	0.6207	1.7513	1.9002	-0.475	0.2249	1.2098	-1.0007	-0.9944	0.8551	-1.2098	1.5423	2.1187	2.3974	2.3625	0.9659	0.8899	0.4434	8.7122	-9.0067
2.4069	1.7766	2.1313	1.7671	0.2217	1.3048	1.6278	-0.8899	-0.2217	0.9627	-1.3903	-1.3998	0.6524	-1.1464	1.3998	1.973	2.2643	2.4195	0.6999	0.8487	0.1203	8.6014	-8.9909
2.0743	1.4346	1.7386	1.4504	-0.1583	0.8931	1.3839	-1.2288	-0.6334	0.7347	-1.7576	-1.8115	0.4687	-1.0609	1.2731	1.8336	2.1187	2.5145	0.399	0.8614	-0.1742	8.5158	-8.9845
1.7386	1.1116	1.3206	1.1369	-0.5162	0.4085	1.1084	-1.6531	-1.0926	0.475	-2.1313	-2.2105	0.2565	-0.9976	1.1116	1.6626	1.9952	2.5494	0.1267	0.8107	-0.494	8.462	-8.9877
1.3934	0.8139	0.9026	0.8139	-0.8519	0	0.8392	-1.992	-1.5043	0.2724	-2.4607	-2.5842	0.0665	-0.9469	0.9881	1.5265	1.8685	2.5905	-0.1267	0.8297	-0.7727	8.4557	-8.9719
1.0324	0.5289	0.456	0.4845	-1.2066	-0.437	0.551	-2.3372	-1.9508	0.0222	-2.7679	-2.9611	-0.095	-0.8709	0.8741	1.3998	1.745	2.6634	-0.3737	0.8297	-1.0387	8.462	-8.9465
0.7031	0.2502	0.057	0.1773	-1.5265	-0.8677	0.285	-2.6507	-2.3784	-0.1963	-3.0751	-3.3031	-0.2629	-0.8234	0.7727	1.2636	1.6405	2.7267	-0.6017	0.8202	-1.2984	8.5063	-8.9814
0.3547	-0.019	-0.3262	-0.133	-1.8273	-1.2984	0.0475	-2.9832	-2.7742	-0.4022	-3.3443	-3.6673	-0.4434	-0.7886	0.6302	1.0768	1.5708	2.7901	-0.8044	0.7917	-1.5296	8.5919	-8.9909
0	-0.2724	-0.7189	-0.4465	-2.1345	-1.6911	-0.2027	-3.2398	-3.1669	-0.5827	-3.6198	-3.965	-0.57	-0.7442	0.5289	0.9152	1.4726	2.8566	-1.0292	0.7759	-1.7291	8.6742	-9.0004
-0.3294	-0.5194	-1.1053	-0.7537	-2.3879	-2.0553	-0.4624	-3.4899	-3.5343	-0.7791	-3.8351	-4.2722	-0.7252	-0.6936	0.3832	0.7379	1.3713	2.9231	-1.2129	0.7854	-1.9192	8.785	-9.0384
-0.6366	-0.7316	-1.4726	-1.0324	-2.6412	-2.4164	-0.6967	-3.7211	-3.851	-0.9501	-4.0347	-4.5382	-0.8107	-0.6461	0.2692	0.5415	1.2763	3.0086	-1.3966	0.7822	-2.068	8.9212	-9.0606
-0.9374	-0.9722	-1.8051	-1.3016	-2.8566	-2.7742	-0.8899	-3.908	-4.1772	-1.0863	-4.174	-4.7599	-0.9152	-0.5859	0.1362	0.361	1.1781	3.1099	-1.5518	0.7949	-2.1915	9.0447	-9.0954
-1.2414	-1.1274	-2.1218	-1.5645	-3.0307	-3.0624	-1.0863	-4.06	-4.4685	-1.1971	-4.3355	-4.9721	-0.9722	-0.5447	0	0.19	1.0768	3.2081	-1.6816	0.8076	-2.3119	9.1682	-9.1207
-1.5233	-1.3174	-2.4449	-1.7988	-3.2271	-3.3696	-1.2731	-4.2405	-4.7155	-1.3206	-4.4305	-5.1684	-1.0387	-0.5225	-0.1647	-0.0127	1.0007	3.3221	-1.7861	0.7981	-2.3594	9.3012	-9.1682
-1.7925	-1.4916	-2.7489	-2.0268	-3.3728	-3.6198	-1.4346	-4.3577	-4.9531	-1.3839	-4.5192	-5.2983	-1.0926	-0.4655	-0.3009	-0.1678	0.9216	3.4519	-1.9033	0.8582	-2.4164	9.4089	-9.2474
-2.1092	-1.6658	-3.0181	-2.2517	-3.5058	-3.8415	-1.6056	-4.497	-5.1272	-1.4695	-4.5794	-5.4408	-1.0989	-0.4244	-0.4212	-0.3104	0.8519	3.5564	-1.9888	0.8646	-2.4322	9.4976	-9.2696
-2.3499	-1.8051	-3.2588	-2.4512	-3.6388	-4.0695	-1.7545	-4.5857	-5.3363	-1.5201	-4.6142	-5.5579	-1.1084	-0.4117	-0.5289	-0.4465	0.8076	3.699	-2.0553	0.8931	-2.4227	9.5831	-9.3297
-2.6095	-1.9667	-3.5248	-2.6602	-3.7686	-4.288	-1.8843	-4.6744	-5.5073	-1.593	-4.6522	-5.6593	-1.1306	-0.3895	-0.6556	-0.5574	0.7727	3.8098	-2.1123	0.9216	-2.391	9.6306	-9.4089
-2.8502	-2.1377	-3.7623	-2.8534	-3.889	-4.4749	-2.011	-4.7472	-5.6878	-1.6658	-4.6617	-5.7701	-1.1464	-0.3769	-0.7664	-0.6397	0.7442	3.9143	-2.1852	0.9406	-2.372	9.6623	-9.4628
-3.1004	-2.2738	-3.9903	-3.0212	-4.0157	-4.668	-2.1472	-4.8169	-5.8176	-1.7165	-4.6839	-5.8398	-1.1623	-0.342	-0.8646	-0.7379	0.6904	3.9903	-2.2232	0.9564	-2.3562	9.6781	-9.5546
-3.3253	-2.4227	-4.2088	-3.2144	-4.117	-4.8454	-2.2643	-4.8834	-5.9538	-1.7703	-4.6712	-5.9	-1.1496	-0.3104	-0.9754	-0.8297	0.6366	4.0853	-2.2453	0.9596	-2.296	9.6844	-9.6338
-3.5533	-2.6159	-4.4115	-3.3759	-4.2215	-5.0196	-2.3974	-4.9499	-6.0837	-1.8305	-4.6712	-5.9475	-1.1496	-0.3104	-1.0609	-0.9311	0.608	4.1708	-2.3182	0.9754	-2.2548	9.6559	-9.7288
-3.7465	-2.7394	-4.6237	-3.5279	-4.3228	-5.1684	-2.5082	-5.0069	-6.1913	-1.878	-4.6364	-6.0013	-1.1496	-0.2787	-1.1306	-1.0039	0.5447	4.2817	-2.3277	1.0039	-2.144	9.6274	-9.8111
-3.9618	-2.8977	-4.8327	-3.6831	-4.4717	-5.3648	-2.6602	-5.0512	-6.3465	-1.9382	-4.63	-6.0773	-1.1591	-0.2565	-1.1939	-1.0863	0.4909	4.3862	-2.3467	1.0197	-2.1123	9.5546	-9.8713
-4.136	-3.0339	-5.0227	-3.8288	-4.554	-5.5104	-2.7457	-5.1146	-6.451	-2.0015	-4.6079	-6.1153	-1.1686	-0.2185	-1.2668	-1.1654	0.4212	4.4369	-2.391	1.0451	-2.0047	9.5071	-9.9726
-4.3165	-3.1828	-5.1906	-3.9808	-4.6712	-5.6846	-2.8661	-5.1589	-6.5587	-2.0585	-4.5762	-6.185	-1.1939	-0.171	-1.3428	-1.2573	0.3389	4.5002	-2.4069	1.0514	-1.9192	9.4406	-10.055
-4.5034	-3.2968	-5.3584	-4.1107	-4.7694	-5.824	-2.9642	-5.2001	-6.6537	-2.0997	-4.535	-6.2262	-1.1844	-0.1298	-1.3903	-1.3174	0.247	4.5952	-2.4005	1.0673	-1.8146	9.3741	-10.1215
-4.6427	-3.4393	-5.5073	-4.212	-4.8707	-5.957	-3.0719	-5.2222	-6.736	-2.1313	-4.478	-6.2452	-1.1813	-0.095	-1.4378	-1.4346	0.1552	4.649	-2.391	1.1021	-1.6943	9.3076	-10.1816
-4.7694	-3.5755	-5.6656	-4.3102	-4.9784	-6.0963	-3.1416	-5.2603	-6.8437	-2.201	-4.421	-6.2705	-1.1749	-0.0317	-1.4663	-1.4821	0.0633	4.7219	-2.372	1.1401	-1.5993	9.2411	-10.2323
-4.8992	-3.7116	-5.824	-4.4115	-5.0607	-6.2388	-3.2271	-5.2919	-6.9356	-2.2612	-4.3735	-6.28	-1.1749	0.0063	-1.5676	-1.5866	-0.0222	4.7662	-2.3847	1.1781	-1.4663	9.1967	-10.2988
-5.0227	-3.8351	-5.9475	-4.5002	-5.1621	-6.3528	-3.3094	-5.3078	-7.0021	-2.2802	-4.3102	-6.2927	-1.1496	0.0602	-1.5866	-1.6531	-0.133	4.8581	-2.3625	1.2288	-1.3364	9.1429	-10.3748
-5.1462	-3.9523	-6.0741	-4.5794	-5.2381	-6.4763	-3.3759	-5.3458	-7.1002	-2.315	-4.2373	-6.3338	-1.1306	0.1267	-1.6183	-1.7608	-0.2249	4.9436	-2.3404	1.2826	-1.2129	9.0922	-10.416
-5.2349	-4.0695	-6.2167	-4.6395	-5.3363	-6.5935	-3.4488	-5.3679	-7.1952	-2.3752	-4.1898	-6.3307	-1.1243	0.1742	-1.6721	-1.8558	-0.3135	5.0132	-2.334	1.3333	-1.0736	9.0352	-10.4825
-5.3933	-4.2152	-6.3655	-4.7504	-5.4503	-6.7329	-3.5564	-5.4091	-7.3156	-2.4354	-4.1328	-6.394	-1.1338	0.1805	-1.7481	-1.9477	-0.3579	5.0481	-2.3023	1.3618	-0.9501	8.9782	-10.5332
-5.4946	-4.3228	-6.4795	-4.8105	-5.5611	-6.8785	-3.5945	-5.4629	-7.3948	-2.4797	-4.1012	-6.4035	-1.1464	0.2249	-1.7798	-2.0268	-0.4434	5.1177	-2.2897	1.4219	-0.8392	8.9339	-10.5617
-5.6054	-4.459	-6.6379	-4.9056	-5.6688	-7.0052	-3.6736	-5.5041	-7.4993	-2.562	-4.0537	-6.4257	-1.1464	0.247	-1.8241	-2.1187	-0.5035	5.1462	-2.2485	1.4473	-0.7126	8.8927	-10.6313
-5.7036	-4.5889	-6.7772	-4.9942	-5.7955	-7.1446	-3.756	-5.5453	-7.6038	-2.6095	-4.0188	-6.4732	-1.1908	0.2914	-1.878	-2.1598	-0.5764	5.1874	-2.2263	1.4885	-0.6366	8.8547	-10.6662
-5.8366	-4.725	-6.9356	-5.0481	-5.8968	-7.2871	-3.8541	-5.5991	-7.7083	-2.676	-3.9967	-6.4953	-1.2066	0.342	-1.9508	-2.2295	-0.6524	5.2222	-2.2073	1.5296	-0.5099	8.8452	-10.7264
-5.9538	-4.8644	-7.1066	-5.1462	-6.0646	-7.4169	-3.9586	-5.6878	-7.8255	-2.7806	-3.9903	-6.5302	-1.2541	0.3737	-2.0015	-2.3087	-0.7062	5.2539	-2.2137	1.5296	-0.4149	8.8452	-10.7612
-6.0678	-4.9499	-7.2427	-5.2476	-6.1628	-7.5404	-4.0473	-5.7068	-7.9268	-2.8629	-3.9365	-6.5777	-1.3174	0.3895	-2.0648	-2.3499	-0.7696	5.2381	-2.1788	1.5138	-0.285	8.8737	-10.8087
-6.223	-5.0766	-7.4201	-5.3743	-6.28	-7.6861	-4.1708	-5.7733	-8.0566	-2.9864	-3.9365	-6.6189	-1.3934	0.4022	-2.1345	-2.4924	-0.8012	5.2127	-2.1693	1.4885	-0.1837	8.956	-10.8879
-6.3655	-5.1842	-7.5974	-5.4629	-6.394	-7.8445	-4.2785	-5.8335	-8.1928	-3.1004	-3.9238	-6.6569	-1.4695	0.4307	-2.1535	-2.5304	-0.8456	5.1684	-2.144	1.4948	-0.0855	9.0257	-10.9385
-6.47	-5.3078	-7.7304	-5.5643	-6.489	-7.9711	-4.3862	-5.843	-8.2783	-3.2208	-3.9016	-6.66	-1.5201	0.4307	-2.182	-2.6064	-0.8677	5.1462	-2.0965	1.4441	0.0443	9.1081	-11.0082
-6.5809	-5.3933	-7.8698	-5.6625	-6.5809	-8.0788	-4.5034	-5.8778	-8.3448	-3.3348	-3.87	-6.6632	-1.6025	0.4434	-2.22	-2.6729	-0.8867	5.0987	-2.0427	1.4219	0.1425	9.2062	-11.0779
-6.6822	-5.4503	-8.006	-5.767	-6.641	-8.1865	-4.6269	-5.8715	-8.4177	-3.4519	-3.8351	-6.66	-1.6626	0.4434	-2.201	-2.7235	-0.8867	5.0576	-2.0015	1.3903	0.2565	9.3076	-11.1412
-6.7867	-5.5168	-8.1073	-5.8398	-6.7044	-8.2657	-4.7092	-5.881	-8.4557	-3.5343	-3.775	-6.6442	-1.7355	0.4592	-2.1788	-2.7521	-0.9057	5.0132	-1.9255	1.3396	0.399	9.4026	-11.1856
-6.85	-5.5579	-8.2245	-5.9126	-6.7265	-8.3227	-4.7947	-5.8525	-8.4937	-3.6166	-3.7275	-6.603	-1.8115	0.4624	-2.163	-2.7584	-0.9184	4.9752	-1.8273	1.2794	0.532	9.5039	-11.2869
-6.8944	-5.5769	-8.2562	-5.9791	-6.7424	-8.3607	-4.8961	-5.8113	-8.5158	-3.7275	-3.6483	-6.5397	-1.8685	0.4434	-2.1092	-2.7679	-0.9026	4.9056	-1.726	1.2351	0.6777	9.5958	-11.3566
-6.9419	-5.5643	-8.3353	-6.0361	-6.736	-8.3765	-4.9436	-5.7701	-8.4842	-3.7813	-3.566	-6.4637	-1.9192	0.4434	-2.0237	-2.7077	-0.8709	4.8391	-1.6436	1.1844	0.8234	9.6939	-11.4452
-6.9672	-5.5706	-8.3512	-6.0868	-6.736	-8.3987	-5.0164	-5.7036	-8.4715	-3.8763	-3.4488	-6.3813	-1.9762	0.4022	-1.9477	-2.6634	-0.8107	4.782	-1.5391	1.1559	0.9944	9.7668	-11.5339
-6.9862	-5.5421	-8.3512	-6.1217	-6.6632	-8.4113	-5.0797	-5.6181	-8.4208	-3.9681	-3.3791	-6.2863	-2.0173	0.3832	-1.8875	-2.5779	-0.7537	4.706	-1.4156	1.0926	1.1401	9.8618	-11.6384
-6.9641	-5.5104	-8.3575	-6.1597	-6.622	-8.3955	-5.1494	-5.5516	-8.3638	-4.0442	-3.2714	-6.204	-2.0648	0.3325	-1.7735	-2.5335	-0.6461	4.6205	-1.3079	1.0166	1.2826	9.9315	-11.7239
-6.9609	-5.4534	-8.3607	-6.2135	-6.5619	-8.3417	-5.2191	-5.4819	-8.31	-4.1107	-3.1669	-6.0963	-2.1377	0.2724	-1.6816	-2.4575	-0.5384	4.554	-1.1813	0.9564	1.4029	9.9885	-11.8094
-6.9292	-5.3901	-8.3322	-6.2198	-6.4763	-8.3258	-5.2793	-5.3964	-8.2308	-4.2025	-3.0751	-6.0045	-2.1978	0.2058	-1.5866	-2.3879	-0.4244	4.4464	-1.0926	0.8867	1.5455	10.0455	-11.9044
-6.8722	-5.3078	-8.2942	-6.2768	-6.4067	-8.291	-5.3394	-5.2983	-8.1421	-4.2658	-2.9642	-5.8366	-2.2295	0.152	-1.4885	-2.3055	-0.3104	4.3862	-0.9722	0.8234	1.6753	10.093	-12.0185
-6.8374	-5.2539	-8.2562	-6.3022	-6.3243	-8.2372	-5.4281	-5.2191	-8.0756	-4.3608	-2.8724	-5.729	-2.3055	0.0792	-1.3713	-2.2168	-0.1647	4.2943	-0.8836	0.7537	1.7893	10.1373	-12.1071
-6.7804	-5.1526	-8.2118	-6.3433	-6.242	-8.1992	-5.4693	-5.1146	-8.0155	-4.4432	-2.7869	-5.6023	-2.3499	0.0063	-1.2794	-2.1218	-0.0158	4.1898	-0.7886	0.6619	1.9065	10.1753	-12.2211
-6.7075	-5.0069	-8.1358	-6.3465	-6.109	-8.1295	-5.5073	-5.0101	-7.8888	-4.497	-2.6824	-5.4851	-2.3784	-0.0665	-1.2034	-2.0363	0.1298	4.1043	-0.6682	0.57	2.0015	10.2165	-12.3256
-6.6474	-4.9372	-8.101	-6.3718	-6.0203	-8.0756	-5.5833	-4.9119	-7.797	-4.573	-2.5747	-5.3553	-2.4765	-0.1362	-1.0863	-1.9287	0.2787	3.9776	-0.6017	0.5004	2.0712	10.2418	-12.4555
-6.5587	-4.8042	-8.0091	-6.3972	-5.9	-7.9933	-5.5991	-4.8105	-7.6924	-4.6269	-2.4702	-5.2159	-2.4987	-0.2122	-0.9881	-1.8146	0.4212	3.8636	-0.513	0.4244	2.1535	10.2767	-12.5758
-6.4953	-4.6997	-7.9331	-6.3972	-5.7828	-7.9173	-5.6403	-4.6965	-7.5626	-4.6649	-2.3562	-5.0734	-2.5462	-0.2819	-0.8519	-1.7101	0.57	3.7908	-0.4275	0.3484	2.2517	10.2957	-12.6962
-6.3782	-4.592	-7.8286	-6.4003	-5.6656	-7.8033	-5.6498	-4.5889	-7.4233	-4.6775	-2.2358	-4.8771	-2.5304	-0.342	-0.7411	-1.5961	0.7094	3.7306	-0.3579	0.2755	2.3467	10.3273	-12.826
-6.2705	-4.4369	-7.7178	-6.3845	-5.5041	-7.7083	-5.6688	-4.4369	-7.2681	-4.6997	-2.0997	-4.7187	-2.5272	-0.4212	-0.5954	-1.4948	0.8456	3.6388	-0.2629	0.2185	2.4544	10.3432	-12.9559
-6.1755	-4.3038	-7.6196	-6.3497	-5.3743	-7.5911	-5.6561	-4.2912	-7.1192	-4.6997	-1.9698	-4.5287	-2.5209	-0.4877	-0.4497	-1.3839	0.9786	3.5818	-0.209	0.171	2.5525	10.3527	-13.0952
-6.0583	-4.1582	-7.5024	-6.3275	-5.2476	-7.4803	-5.6434	-4.1613	-6.9356	-4.6997	-1.8178	-4.3482	-2.4955	-0.5637	-0.3135	-1.2921	1.1338	3.5121	-0.1108	0.1203	2.6475	10.3748	-13.2251
-5.9126	-4.0093	-7.3599	-6.2642	-5.0702	-7.3282	-5.6244	-4.0093	-6.7487	-4.6459	-1.6658	-4.136	-2.4639	-0.6366	-0.1362	-1.1686	1.2604	3.4519	-0.0095	0.0792	2.7394	10.3748	-13.3739
-5.7765	-3.8478	-7.1889	-6.1818	-4.9151	-7.1731	-5.5548	-3.8288	-6.565	-4.6142	-1.5265	-3.9301	-2.3942	-0.6872	0.0158	-1.0514	1.3649	3.4139	0.076	0.0475	2.8439	10.378	-13.5037
-5.6434	-3.6895	-7.0432	-6.09	-4.7725	-6.9926	-5.5041	-3.6863	-6.3528	-4.5604	-1.3459	-3.7053	-2.3245	-0.7442	0.2249	-0.9311	1.4726	3.3696	0.1647	0.0253	2.9516	10.3685	-13.6494
-5.4724	-3.5438	-6.8722	-5.9886	-4.6079	-6.8342	-5.4281	-3.5089	-6.1533	-4.497	-1.1813	-3.4773	-2.2707	-0.8044	0.3769	-0.8234	1.5866	3.3379	0.2787	0.0222	3.0529	10.3653	-13.7761
-5.2824	-3.3379	-6.679	-5.843	-4.4147	-6.6474	-5.3173	-3.3474	-5.919	-4.3735	-0.9849	-3.2334	-2.1598	-0.8297	0.5289	-0.7252	1.6785	3.3158	0.3674	0.038	3.1701	10.3463	-13.9376
-5.1367	-3.1606	-6.4858	-5.7068	-4.2405	-6.4478	-5.2349	-3.1828	-5.6815	-4.2975	-0.8202	-3.0181	-2.0775	-0.8994	0.7411	-0.6175	1.7798	3.2873	0.4719	0.0348	3.2778	10.321	-14.0516
-4.9119	-2.9611	-6.2578	-5.5263	-4.041	-6.2325	-5.0861	-2.9769	-5.4186	-4.1582	-0.627	-2.7457	-1.9572	-0.9247	0.9057	-0.5099	1.8463	3.2936	0.5669	0.0538	3.4266	10.302	-14.1878
-4.7155	-2.7426	-6.0266	-5.4028	-3.8668	-6.0266	-4.9531	-2.7964	-5.1842	-4.041	-0.4434	-2.4797	-1.8305	-0.9849	1.0546	-0.399	1.9413	3.2651	0.6904	0.0728	3.5438	10.3052	-14.3303
-4.5065	-2.5272	-5.7955	-5.2159	-3.661	-5.8018	-4.8232	-2.5747	-4.9119	-3.8953	-0.209	-2.201	-1.7101	-1.0197	1.2478	-0.2977	2.0173	3.2683	0.7949	0.095	3.699	10.3115	-14.457
-4.288	-2.3245	-5.5611	-5.0227	-3.4646	-5.5801	-4.6712	-2.3625	-4.6395	-3.7686	-0.0475	-1.9762	-1.5803	-1.0482	1.4093	-0.2154	2.0965	3.2619	0.8994	0.1425	3.832	10.3368	-14.5678
-4.0537	-2.0933	-5.2951	-4.8137	-3.2334	-5.3299	-4.5002	-2.1472	-4.3798	-3.5913	0.1583	-1.6911	-1.4473	-1.0958	1.6215	-0.1077	2.1567	3.2493	1.0324	0.1552	3.9491	10.3622	-14.685
-3.8035	-1.8526	-5.0354	-4.6174	-3.0181	-5.0734	-4.3228	-1.9508	-4.1107	-3.4329	0.38	-1.4378	-1.3143	-1.1338	1.7861	-0.0095	2.2453	3.2778	1.1623	0.2122	4.0727	10.4192	-14.8053
-3.566	-1.6183	-4.7757	-4.402	-2.8122	-4.8042	-4.1518	-1.7418	-3.8256	-3.2619	0.589	-1.1591	-1.1433	-1.1654	1.973	0.1362	2.3245	3.3031	1.3048	0.2724	4.2342	10.492	-14.9035
-3.3221	-1.3681	-4.4875	-4.193	-2.5779	-4.5414	-3.9618	-1.4885	-3.5343	-3.0497	0.8012	-0.8582	-0.9627	-1.2193	2.144	0.228	2.4259	3.3253	1.4314	0.3199	4.3513	10.5712	-15.0429
-3.0846	-1.1369	-4.2057	-4.0125	-2.353	-4.2753	-3.7591	-1.2668	-3.2429	-2.8724	1.0451	-0.5827	-0.7981	-1.2794	2.296	0.3357	2.5304	3.3633	1.5708	0.38	4.516	10.6725	-15.1632
-2.8154	-0.9089	-3.9016	-3.7686	-2.1377	-4.0125	-3.5596	-1.0292	-2.9516	-2.6507	1.2604	-0.3104	-0.627	-1.3301	2.4544	0.4465	2.6444	3.3664	1.7038	0.437	4.6427	10.7802	-15.255
-2.5399	-0.6714	-3.6071	-3.5406	-1.9255	-3.7275	-3.3443	-0.7886	-2.6665	-2.4449	1.4853	-0.0222	-0.4212	-1.3871	2.6349	0.5384	2.7457	3.3791	1.8431	0.5035	4.782	10.8974	-15.3596
-2.2928	-0.4624	-3.3253	-3.3063	-1.707	-3.4646	-3.1669	-0.5795	-2.3879	-2.2327	1.6816	0.2724	-0.266	-1.4473	2.7869	0.6556	2.8502	3.3981	1.9762	0.5384	4.8866	11.0209	-15.4482
-2.068	-0.2945	-3.0972	-3.1352	-1.5486	-3.2144	-2.9642	-0.3895	-2.1155	-2.0237	1.859	0.5099	-0.095	-1.4821	2.9231	0.7316	2.9452	3.3981	2.049	0.57	4.9721	11.1824	-15.5211
-1.8051	-0.0918	-2.7964	-2.9104	-1.3649	-2.9801	-2.7774	-0.2185	-1.8526	-1.8336	2.03	0.7442	0.076	-1.5296	3.0212	0.8392	3.0276	3.3918	2.1598	0.6112	5.0512	11.3471	-15.5907
-1.5645	0.0538	-2.5367	-2.7014	-1.1654	-2.7172	-2.5589	0	-1.5771	-1.6468	2.201	0.9912	0.2439	-1.5581	3.1448	0.9596	3.0782	3.3759	2.2548	0.6334	5.1209	11.5308	-15.6477
-1.3396	0.2217	-2.2928	-2.543	-1.0134	-2.4544	-2.4005	0.1583	-1.3364	-1.4631	2.3435	1.1971	0.399	-1.5803	3.2271	1.0863	3.1289	3.3569	2.3372	0.6714	5.1652	11.7334	-15.7079
-1.1179	0.3579	-2.0617	-2.3435	-0.8424	-2.2643	-2.2168	0.3357	-1.1179	-1.2604	2.5114	1.4219	0.551	-1.5866	3.3664	1.2446	3.1511	3.3253	2.4259	0.6999	5.2254	11.9234	-15.7491
-0.8772	0.4687	-1.8083	-2.163	-0.6746	-2.0047	-2.049	0.4624	-0.8772	-1.0736	2.6222	1.6088	0.6904	-1.593	3.4551	1.3903	3.1669	3.2873	2.5019	0.7157	5.2729	12.1356	-15.7839
-0.6746	0.627	-1.5898	-1.9888	-0.5605	-1.8083	-1.8716	0.6144	-0.6777	-0.9121	2.7552	1.7703	0.8234	-1.6056	3.566	1.5581	3.2081	3.2968	2.5715	0.7632	5.3109	12.3383	-15.7966
-0.418	0.7411	-1.3586	-1.8083	-0.4212	-1.6056	-1.6943	0.7442	-0.4402	-0.7442	2.8787	1.9603	0.9722	-1.6341	3.6578	1.7576	3.2429	3.2556	2.6602	0.7727	5.3489	12.5283	-15.8219
-0.2122	0.8804	-1.1464	-1.6373	-0.2724	-1.3776	-1.5328	0.9121	-0.247	-0.5257	3.0054	2.1535	1.1274	-1.6341	3.7781	1.9888	3.2588	3.2683	2.7394	0.8392	5.3964	12.7088	-15.8473
0.0285	0.9881	-0.9247	-1.4346	-0.1425	-1.1559	-1.3301	1.0356	-0.0412	-0.3547	3.1226	2.3277	1.2794	-1.6531	3.8668	2.1915	3.2841	3.2683	2.8281	0.8646	5.4313	12.8989	-15.8884
0.2344	1.1053	-0.7379	-1.2731	-0.0222	-0.9564	-1.1813	1.1749	0.1425	-0.1837	3.2366	2.4829	1.4504	-1.6848	3.946	2.4164	3.3443	3.2398	2.9041	0.8899	5.4756	13.0762	-15.9328
0.4339	1.2003	-0.513	-1.0989	0.1235	-0.7569	-0.9912	1.3206	0.323	0.019	3.3474	2.638	1.6056	-1.707	4.0442	2.6254	3.3981	3.2303	2.9864	0.9627	5.5231	13.2346	-15.9201
0.6714	1.3428	-0.3072	-0.9089	0.2439	-0.5605	-0.7886	1.4536	0.5447	0.2217	3.4804	2.8059	1.7545	-1.7291	4.1803	2.9009	3.4234	3.2556	3.1004	1.0134	5.5801	13.3486	-15.9201
0.8297	1.4378	-0.1235	-0.7411	0.3484	-0.399	-0.6144	1.5391	0.6904	0.3705	3.5564	2.9452	1.8938	-1.764	4.269	3.0719	3.5026	3.2429	3.1859	1.0482	5.6086	13.4974	-15.9644
1.0229	1.5423	0.0697	-0.5637	0.4655	-0.2217	-0.437	1.631	0.8772	0.5542	3.6578	3.0656	2.0142	-1.7925	4.3703	3.3094	3.5628	3.2524	3.2904	1.1148	5.6625	13.6082	-15.9803
1.2098	1.6626	0.2217	-0.3832	0.6017	-0.0412	-0.2724	1.7323	1.0229	0.7506	3.756	3.1828	2.1567	-1.8463	4.5034	3.5121	3.6546	3.2746	3.3696	1.1813	5.7226	13.7254	-15.9929
1.3681	1.7766	0.4022	-0.1995	0.7126	0.1235	-0.0823	1.8685	1.1718	0.9279	3.8541	3.3126	2.3023	-1.8875	4.63	3.6958	3.7401	3.2714	3.4646	1.2478	5.7606	13.8236	-16.0088
1.5423	1.8748	0.5605	-0.0285	0.8012	0.2502	0.0982	1.954	1.3174	1.0958	3.9175	3.4298	2.4512	-1.9413	4.7504	3.8826	3.8731	3.2936	3.566	1.2953	5.8176	13.9249	-16.0309
1.688	2.0078	0.7252	0.133	0.9279	0.4022	0.2819	2.0743	1.4599	1.2889	4.0188	3.5279	2.5842	-2.011	4.8929	4.079	3.9745	3.3126	3.6831	1.3808	5.8873	14.0199	-16.0658
1.8621	2.1472	0.8836	0.323	1.0451	0.5447	0.4497	2.163	1.612	1.4568	4.0917	3.6356	2.7267	-2.0648	5.0386	4.2437	4.0948	3.3379	3.7813	1.4473	5.919	14.1181	-16.0943
1.9825	2.277	1.0482	0.494	1.1338	0.6682	0.608	2.2453	1.726	1.631	4.1772	3.7718	2.8756	-2.1345	5.1526	4.3608	4.2183	3.3569	3.8795	1.5423	5.9886	14.2163	-16.1164
2.1345	2.4005	1.2098	0.6619	1.2509	0.8076	0.7917	2.3245	1.8748	1.821	4.269	3.8795	3.0117	-2.1852	5.2729	4.4812	4.3323	3.3759	3.9745	1.6246	5.9981	14.3366	-16.1703
2.2517	2.543	1.3554	0.8297	1.3586	0.9469	0.9501	2.4385	1.9857	1.9888	4.3482	3.9681	3.1226	-2.2358	5.3964	4.5319	4.44	3.3918	4.06	1.707	6.0488	14.4348	-16.2051
2.3815	2.6507	1.4441	0.9691	1.4504	1.0514	1.0926	2.5177	2.1155	2.1345	4.4274	4.0695	3.2683	-2.2802	5.5009	4.5794	4.5287	3.4456	4.1392	1.783	6.0456	14.5362	-16.2431
2.4734	2.7806	1.5708	1.1148	1.5328	1.1591	1.2668	2.6032	2.2327	2.296	4.4685	4.1803	3.4076	-2.3245	5.5643	4.5762	4.6174	3.4646	4.2088	1.8938	6.0646	14.6533	-16.2811
2.6	2.8819	1.6911	1.2763	1.6373	1.2604	1.4061	2.7172	2.3562	2.4765	4.554	4.2817	3.5374	-2.3689	5.6244	4.554	4.6934	3.4804	4.288	1.9603	6.0583	14.742	-16.3223
2.7077	3.0434	1.8083	1.4124	1.745	1.3934	1.5518	2.7806	2.467	2.6159	4.6174	4.383	3.661	-2.4069	5.6498	4.5034	4.7535	3.5216	4.3513	2.0363	6.0773	14.8433	-16.3888
2.8281	3.1954	1.9382	1.5898	1.8463	1.5106	1.7165	2.8977	2.5874	2.7647	4.6934	4.4907	3.7813	-2.4227	5.7226	4.4179	4.8137	3.5723	4.3798	2.1377	6.0773	14.9289	-16.4078
2.9484	3.3221	2.0743	1.7608	1.9477	1.6436	1.878	3.0022	2.7172	2.9484	4.7662	4.6079	3.9206	-2.4512	5.7321	4.3387	4.8454	3.6135	4.4495	2.2327	6.071	15.0207	-16.4521
3.0782	3.4614	2.2168	1.9287	2.0775	1.7766	2.0522	3.0972	2.8882	3.1131	4.8296	4.725	4.0695	-2.4385	5.7765	4.2437	4.8454	3.6736	4.5065	2.3435	6.1027	15.1062	-16.4775
3.2239	3.6451	2.3625	2.1123	2.1883	1.9445	2.2517	3.2398	3.0687	3.3126	4.9499	4.8739	4.2437	-2.4385	5.7765	4.1265	4.8422	3.7496	4.5572	2.4639	6.1058	15.1949	-16.4996
3.3791	3.7845	2.5399	2.3182	2.3467	2.1187	2.4417	3.3854	3.2461	3.5058	5.0734	5.0512	4.4369	-2.41	5.8081	4.0315	4.8042	3.8668	4.649	2.5937	6.1438	15.274	-16.5281
3.5279	3.965	2.7109	2.5145	2.5114	2.3055	2.638	3.5089	3.4266	3.7053	5.1969	5.2444	4.6079	-2.4037	5.862	3.9491	4.7599	3.9523	4.725	2.7235	6.1755	15.3564	-16.544
3.6578	4.1233	2.8946	2.7014	2.676	2.486	2.8249	3.6578	3.6198	3.8763	5.3363	5.4059	4.7884	-2.3625	5.8398	3.9016	4.6934	4.0758	4.7757	2.8471	6.2072	15.4482	-16.5725
3.8035	4.2753	3.0751	2.9009	2.7996	2.6792	3.0307	3.8351	3.8161	4.0917	5.4661	5.5769	4.9721	-2.3245	5.862	3.794	4.5984	4.1677	4.8359	2.9959	6.2293	15.5496	-16.582
3.9808	4.4622	3.2841	3.1289	2.9737	2.8629	3.2334	3.9681	4.0093	4.2975	5.5928	5.7638	5.1684	-2.2707	5.8936	3.775	4.4939	4.3038	4.8866	3.1321	6.28	15.5939	-16.5788
4.1297	4.6174	3.4551	3.3063	3.1321	3.0466	3.4171	4.1297	4.2152	4.4717	5.7448	5.9538	5.3489	-2.2168	5.9031	3.756	4.4084	4.4369	4.9151	3.2746	6.3117	15.6731	-16.5947
4.2627	4.7535	3.623	3.5026	3.2746	3.2208	3.5976	4.2785	4.3988	4.668	5.8905	6.147	5.5294	-2.1662	5.9221	3.7306	4.2975	4.5382	4.9626	3.3918	6.3782	15.7142	-16.5978
4.421	4.9056	3.794	3.6831	3.4108	3.4203	3.7718	4.44	4.5952	4.8612	6.0646	6.3053	5.6973	-2.0997	5.957	3.7211	4.1645	4.6617	5.0037	3.5279	6.4257	15.7523	-16.62
4.554	5.0227	3.9428	3.8415	3.5564	3.5755	3.946	4.5572	4.7662	5.0354	6.1723	6.4573	5.8461	-2.0458	5.957	3.7306	4.0473	4.8042	5.0259	3.642	6.4827	15.7903	-16.62
4.6712	5.1399	4.0727	3.9681	3.6736	3.7116	4.0948	4.6839	4.9246	5.1779	6.2927	6.6189	5.976	-1.9698	5.9443	3.7085	3.9175	4.9119	5.0227	3.7591	6.5112	15.8378	-16.6327
4.782	5.2286	4.2215	4.0885	3.7845	3.8288	4.2183	4.8074	5.0386	5.2888	6.4035	6.7519	6.09	-1.9287	5.9728	3.7845	3.8225	5.0101	5.0512	3.832	6.5587	15.8536	-16.6073
4.8802	5.3046	4.3577	4.1867	3.908	3.9808	4.3387	4.9372	5.1842	5.4408	6.5334	6.8975	6.1945	-1.8653	5.9696	3.8383	3.718	5.1209	5.0386	3.9586	6.622	15.8948	-16.6137
4.9879	5.3933	4.4527	4.2943	4.0315	4.0885	4.4685	5.0861	5.3204	5.5643	6.6695	7.0242	6.3148	-1.8463	5.9633	3.9238	3.6578	5.2096	5.0576	4.041	6.698	15.8916	-16.582
5.1051	5.4629	4.5667	4.3798	4.1328	4.174	4.5509	5.1811	5.4123	5.6625	6.7804	7.1192	6.3877	-1.8051	6.0171	4.0093	3.5786	5.2951	5.0671	4.1012	6.7455	15.9264	-16.5788
5.2096	5.5579	4.668	4.4559	4.2405	4.2817	4.6332	5.2666	5.5231	5.7638	6.9007	7.2332	6.4795	-1.7861	6.0488	4.174	3.5311	5.3679	5.0987	4.1835	6.8437	15.9328	-16.5313
5.2856	5.6244	4.7884	4.5002	4.3418	4.3672	4.706	5.4059	5.6086	5.8556	7.0084	7.3599	6.5682	-1.7671	6.0646	4.3007	3.5121	5.4566	5.1209	4.2753	6.9292	15.9549	-16.5408
5.3743	5.71	4.8739	4.5382	4.4369	4.4685	4.8105	5.5073	5.7385	5.938	7.1414	7.4581	6.6252	-1.7576	6.0741	4.4812	3.5026	5.5199	5.1716	4.3355	7.0274	15.9739	-16.5155
5.4408	5.7796	4.9531	4.554	4.5509	4.5635	4.8739	5.6213	5.7986	6.0108	7.2491	7.5531	6.6854	-1.7608	6.0773	4.6395	3.5089	5.5769	5.2159	4.3988	7.1256	16.0056	-16.506
5.5263	5.843	5.0164	4.5952	4.649	4.6174	4.9372	5.7068	5.9063	6.1027	7.3758	7.6449	6.736	-1.764	6.0932	4.8074	3.5089	5.6276	5.2698	4.4559	7.2459	16.0499	-16.487
5.5674	5.9285	5.0892	4.63	4.744	4.6997	5.0006	5.8271	5.9791	6.185	7.4866	7.7653	6.812	-1.7671	6.0963	4.9436	3.5026	5.672	5.3331	4.4844	7.3504	16.1006	-16.4775
5.6403	5.9665	5.1431	4.6585	4.8327	4.7694	5.0544	5.9316	6.0646	6.2642	7.5943	7.8255	6.85	-1.7576	6.0583	5.0766	3.4899	5.7385	5.4028	4.5414	7.4581	16.1703	-16.4458
5.6625	6.0235	5.1937	4.611	4.9119	4.8232	5.0956	6.014	6.1533	6.3212	7.6893	7.911	6.9356	-1.7671	6.0615	5.1842	3.5089	5.786	5.4534	4.5762	7.5594	16.2653	-16.411
5.6973	6.0837	5.2508	4.6079	5.0037	4.9087	5.1241	6.1027	6.242	6.3908	7.7906	7.9743	6.9672	-1.783	6.0393	5.2666	3.5343	5.843	5.5484	4.6395	7.6829	16.3603	-16.4015
5.691	6.1153	5.2698	4.573	5.0766	4.9657	5.1431	6.1945	6.3117	6.4288	7.8666	8.0503	7.0274	-1.802	5.9696	5.3014	3.566	5.8746	5.6118	4.6649	7.7906	16.4996	-16.3825
5.7131	6.1597	5.2856	4.5635	5.1621	5.0576	5.1652	6.2832	6.3972	6.4858	7.9616	8.1263	7.0654	-1.8368	5.9221	5.3078	3.6261	5.9126	5.672	4.706	7.8793	16.6548	-16.3635
5.7258	6.1818	5.3141	4.5382	5.2413	5.1019	5.1937	6.3338	6.4763	6.5365	8.0376	8.1928	7.1034	-1.859	5.8588	5.2856	3.6863	5.9443	5.7353	4.7472	7.9711	16.81	-16.3603
5.7321	6.2135	5.3584	4.5192	5.3331	5.1842	5.2254	6.4288	6.584	6.5967	8.1263	8.2562	7.1477	-1.8875	5.8176	5.2666	3.7401	6.0045	5.824	4.7915	8.0566	16.962	-16.354
5.7448	6.2388	5.4059	4.5129	5.4028	5.2824	5.2444	6.5175	6.6632	6.6505	8.2118	8.3227	7.1762	-1.9192	5.7606	5.2286	3.7813	6.0425	5.8936	4.8612	8.177	17.1109	-16.3635
5.7891	6.3022	5.4788	4.5667	5.5263	5.3838	5.3078	6.6252	6.7614	6.717	8.2815	8.4082	7.2617	-1.9223	5.7511	5.2096	3.813	6.0837	5.9665	4.9087	8.2815	17.247	-16.3476
5.8113	6.3402	5.5484	4.5825	5.6308	5.4756	5.3584	6.7075	6.8912	6.793	8.3828	8.4873	7.3156	-1.9318	5.691	5.1716	3.832	6.128	6.0583	4.9594	8.3987	17.3674	-16.3508
5.862	6.4003	5.6371	4.6174	5.729	5.6023	5.4154	6.793	6.9989	6.869	8.4652	8.5855	7.3916	-1.9413	5.6783	5.1431	3.8478	6.204	6.1343	5.0132	8.5063	17.4529	-16.3698
5.9253	6.4953	5.729	4.6744	5.8556	5.7638	5.5041	6.9261	7.1224	6.9862	8.5665	8.6869	7.4834	-1.9762	5.6466	5.1051	3.87	6.2642	6.2293	5.0987	8.6425	17.5067	-16.3888
5.9791	6.5714	5.8588	4.7504	5.976	5.8905	5.5611	7.0306	7.2649	7.0686	8.69	8.785	7.5753	-1.9382	5.6498	5.0829	3.8573	6.3465	6.3307	5.1747	8.7597	17.5447	-16.4173
6.0932	6.6822	5.9886	4.8866	6.1312	6.0615	5.672	7.1541	7.4296	7.2079	8.8104	8.9022	7.6829	-1.935	5.6878	5.0702	3.8415	6.4067	6.4383	5.2508	8.8864	17.5384	-16.4616
6.1945	6.831	6.1407	5.0164	6.3022	6.2452	5.8081	7.3092	7.5911	7.3504	8.9592	9.0479	7.7875	-1.935	5.7131	5.0481	3.832	6.5017	6.584	5.3426	9.0226	17.5194	-16.4838
6.2895	6.9451	6.2895	5.1526	6.4447	6.4162	5.938	7.4359	7.7431	7.4518	9.0289	9.1302	7.8666	-1.935	5.7385	5.0037	3.8415	6.5714	6.6695	5.3996	9.1334	17.5067	-16.5345
6.3972	7.0876	6.4288	5.2824	6.5809	6.5777	6.0678	7.5721	7.8856	7.5848	9.1587	9.2664	7.9775	-1.9413	5.767	4.9562	3.8478	6.6569	6.8057	5.4756	9.2886	17.4909	-16.5978
6.5112	7.2079	6.5872	5.4471	6.7297	6.7677	6.1787	7.7019	8.0281	7.6798	9.2664	9.3582	8.0756	-1.9635	5.7606	4.9182	3.87	6.7012	6.9356	5.5674	9.4121	17.4529	-16.6485
6.622	7.3251	6.698	5.5579	6.8659	6.8912	6.2737	7.8001	8.1516	7.7811	9.3392	9.4438	8.1516	-1.9667	5.748	4.8422	3.9143	6.7519	7.0401	5.6086	9.5324	17.4466	-16.7245
6.7329	7.4423	6.85	5.7226	7.0401	7.0622	6.4257	7.9458	8.2815	7.9141	9.4501	9.5451	8.2435	-1.9983	5.7575	4.7694	3.9491	6.8057	7.1446	5.6656	9.6654	17.4402	-16.8068
6.8215	7.5658	6.9831	5.8493	7.1636	7.1857	6.5334	8.0598	8.3955	7.9838	9.5356	9.6306	8.291	-2.0268	5.7068	4.668	3.9998	6.85	7.2522	5.7385	9.7699	17.4592	-16.8765
6.9197	7.6829	7.1034	5.9918	7.2997	7.3409	6.6442	8.1643	8.5222	8.1105	9.6369	9.7129	8.3797	-2.0363	5.7036	4.611	4.041	6.9039	7.3758	5.786	9.8935	17.4624	-16.962
7.0211	7.759	7.2237	6.1343	7.4106	7.4834	6.7519	8.2973	8.6299	8.196	9.7193	9.7858	8.4303	-2.068	5.6466	4.5255	4.0948	6.9546	7.4803	5.8398	10.0106	17.5067	-17.0475
7.0876	7.8825	7.3504	6.28	7.5246	7.6418	6.8469	8.3987	8.747	8.291	9.8016	9.865	8.5032	-2.087	5.6023	4.4622	4.1487	6.9799	7.5721	5.881	10.1183	17.5479	-17.095
7.1541	7.9585	7.4454	6.3845	7.6259	7.7526	6.9229	8.4937	8.8199	8.3765	9.8713	9.9188	8.5412	-2.1123	5.5358	4.3672	4.1898	7.0052	7.6354	5.9126	10.1975	17.6239	-17.1837
7.2427	8.0661	7.5911	6.5207	7.7463	7.9046	7.0527	8.6109	8.9592	8.4652	9.9726	10.0233	8.6014	-2.125	5.4693	4.2817	4.212	7.0622	7.7431	5.976	10.2862	17.7284	-17.2629
7.2839	8.1168	7.6766	6.6189	7.8286	8.006	7.1382	8.6869	9.0542	8.5475	10.0296	10.0993	8.6457	-2.1345	5.3774	4.1835	4.2405	7.0749	7.797	6.0076	10.3463	17.8551	-17.342
7.3219	8.158	7.7653	6.6949	7.9205	8.1295	7.2142	8.766	9.1524	8.5982	10.0898	10.1595	8.6932	-2.1503	5.2888	4.0853	4.2785	7.0971	7.8191	6.0488	10.3812	18.0008	-17.4149
7.3219	8.1802	7.835	6.7614	7.9711	8.2118	7.2617	8.8262	9.2284	8.6489	10.1468	10.2323	8.7312	-2.1662	5.2032	3.9872	4.2912	7.1382	7.835	6.0805	10.4255	18.1813	-17.4972
7.3219	8.2087	7.8951	6.8342	8.0376	8.3353	7.3314	8.8832	9.3456	8.6932	10.1943	10.302	8.728	-2.1598	5.0956	3.9333	4.2848	7.1762	7.8318	6.1153	10.4508	18.3681	-17.5986
7.2934	8.1992	7.9585	6.869	8.0693	8.405	7.3599	8.9149	9.4089	8.747	10.2101	10.3495	8.7439	-2.163	4.9816	3.8256	4.288	7.2016	7.816	6.1628	10.454	18.5771	-17.6651
7.3219	8.1928	8.0028	6.9197	8.1421	8.5253	7.3821	8.9972	9.5071	8.8199	10.2735	10.4065	8.8009	-2.1535	4.8802	3.756	4.2785	7.2744	7.7875	6.1977	10.4603	18.7893	-17.7347
7.2776	8.1675	8.0376	6.9387	8.1611	8.6014	7.4201	9.0257	9.5863	8.8294	10.2893	10.4287	8.8009	-2.1408	4.7789	3.68	4.2627	7.3092	7.7558	6.242	10.4033	18.9857	-17.8456
7.2522	8.1675	8.082	6.9577	8.196	8.6995	7.4803	9.0732	9.6813	8.8959	10.2988	10.5047	8.8357	-2.1377	4.6839	3.5976	4.2373	7.3726	7.7241	6.2958	10.4033	19.201	-17.8868
7.2047	8.139	8.0725	6.9451	8.1928	8.7629	7.4771	9.0796	9.7699	8.937	10.321	10.5522	8.8547	-2.1187	4.5604	3.5406	4.2152	7.4423	7.6798	6.3307	10.34	19.3974	-17.9406
7.2016	8.1263	8.1041	6.9767	8.2403	8.8642	7.5119	9.1207	9.8618	9.0035	10.3368	10.6282	8.9054	-2.1123	4.4717	3.4836	4.1772	7.5278	7.6513	6.4003	10.3368	19.5684	-17.9881
7.1636	8.0725	8.1136	6.9831	8.2213	8.9117	7.5278	9.1334	9.9378	9.0352	10.3527	10.6788	8.9054	-2.0743	4.3957	3.3981	4.1328	7.5689	7.5943	6.4447	10.2893	19.7426	-17.9976
7.1097	8.0155	8.1263	7.0116	8.253	8.9624	7.5594	9.1524	10.0201	9.0922	10.359	10.7295	8.9529	-2.0458	4.2817	3.3253	4.079	7.6608	7.5468	6.5175	10.245	19.8629	-17.9913
7.0939	7.9901	8.1453	7.0464	8.2625	9.0669	7.6354	9.1682	10.1246	9.1366	10.378	10.8087	9.0067	-2.0332	4.1772	3.2271	4.041	7.7431	7.5056	6.5967	10.2228	19.9896	-17.9596
7.0496	7.9363	8.1295	7.0686	8.2593	9.1334	7.6608	9.1777	10.2101	9.2157	10.4033	10.8562	9.0637	-2.011	4.0758	3.1226	3.9808	7.835	7.4423	6.6442	10.188	20.0973	-17.9279
7.0179	7.9015	8.1326	7.0496	8.2657	9.2031	7.7019	9.1809	10.3083	9.2696	10.4097	10.929	9.1239	-1.9888	3.9365	2.9579	3.9396	7.8951	7.3789	6.6949	10.1246	20.1891	-17.8931
6.9799	7.8603	8.1421	7.1034	8.2815	9.2917	7.7463	9.2221	10.3907	9.3329	10.4603	11.0304	9.2094	-1.9572	3.8256	2.8281	3.8858	7.9775	7.3346	6.7582	10.1183	20.2556	-17.8551
6.9419	7.8476	8.1548	7.1446	8.2878	9.3709	7.7875	9.2537	10.4793	9.4089	10.511	11.0779	9.2601	-1.9382	3.6863	2.6602	3.851	8.0471	7.2712	6.8089	10.0771	20.3316	-17.8266
6.8849	7.8191	8.1643	7.1889	8.2942	9.4564	7.8508	9.2917	10.5838	9.4913	10.5617	11.1982	9.3709	-1.9192	3.5406	2.5019	3.794	8.1675	7.2491	6.9134	10.093	20.3918	-17.7759
6.869	7.7685	8.2023	7.2206	8.31	9.5483	7.9015	9.3329	10.6883	9.5609	10.6092	11.3122	9.4691	-1.878	3.4298	2.3752	3.7528	8.2403	7.2016	6.9546	10.0803	20.4266	-17.7316
6.8944	7.8001	8.2277	7.2934	8.3923	9.6591	7.9996	9.3899	10.7992	9.6528	10.7074	11.4262	9.5831	-1.8463	3.3253	2.2675	3.68	8.3258	7.1984	7.0464	10.131	20.4425	-17.6967
6.8627	7.7875	8.2467	7.3282	8.424	9.7414	8.0693	9.4469	10.891	9.7383	10.777	11.5434	9.6908	-1.821	3.2239	2.1662	3.6293	8.4082	7.1762	7.1034	10.1531	20.452	-17.6492
6.8215	7.816	8.3132	7.3694	8.4778	9.8396	8.1453	9.5388	11.0209	9.8364	10.91	11.6701	9.8143	-1.8178	3.1289	2.1218	3.5881	8.5222	7.1921	7.1762	10.226	20.4393	-17.6017
6.8247	7.8255	8.3448	7.4264	8.5475	9.9473	8.2308	9.6211	11.1476	9.9346	11.0114	11.8158	9.9473	-1.7893	3.0656	2.106	3.5469	8.6109	7.2174	7.2522	10.283	20.4171	-17.5574
6.7962	7.8255	8.3923	7.4359	8.6014	10.055	8.2847	9.7066	11.2584	10.0201	11.1222	11.9583	10.0803	-1.783	2.9611	2.0838	3.5406	8.671	7.2047	7.3092	10.3242	20.3791	-17.5637
6.7867	7.8381	8.4113	7.4708	8.6584	10.1658	8.3227	9.7858	11.3851	10.1151	11.2521	12.1071	10.2006	-1.7766	2.8724	2.0933	3.5153	8.747	7.2586	7.3473	10.4223	20.3443	-17.5511
6.7962	7.8983	8.4652	7.4961	8.7502	10.2703	8.4145	9.903	11.5529	10.207	11.4104	12.2686	10.3717	-1.7671	2.8312	2.1377	3.5026	8.8547	7.3314	7.4169	10.5268	20.2873	-17.5479
6.7899	7.9141	8.5222	7.4834	8.8135	10.3653	8.4493	10.017	11.6606	10.321	11.5434	12.4175	10.5142	-1.7861	2.7742	2.1757	3.5533	8.9592	7.3726	7.4708	10.6187	20.2429	-17.5637
6.7962	7.9711	8.5855	7.5309	8.8864	10.5142	8.5475	10.1341	11.7999	10.4097	11.7144	12.598	10.682	-1.8178	2.7331	2.239	3.5945	9.0479	7.4518	7.5214	10.7485	20.1891	-17.5574
6.7994	7.9996	8.633	7.5151	8.9845	10.587	8.6045	10.2355	11.9361	10.5078	11.8728	12.7849	10.8435	-1.8463	2.7014	2.2897	3.6451	9.1492	7.5183	7.5594	10.8657	20.1321	-17.5732
6.8057	8.0281	8.6964	7.5056	9.0574	10.6979	8.652	10.34	12.0786	10.606	12.0375	12.9559	11.0335	-1.8716	2.6634	2.3214	3.7116	9.2601	7.6196	7.5911	10.9892	20.0941	-17.6334
6.8089	8.0313	8.7217	7.4613	9.0859	10.7454	8.6742	10.4192	12.1483	10.663	12.1705	13.073	11.1349	-1.9033	2.6349	2.3182	3.7686	9.3487	7.6766	7.6133	11.0937	20.0751	-17.6651
6.7994	8.0408	8.7629	7.4423	9.1366	10.834	8.69	10.53	12.2528	10.7517	12.3098	13.2187	11.2837	-1.9255	2.5652	2.2992	3.8193	9.4406	7.7748	7.6291	11.2014	20.0498	-17.7157
6.7392	8.0028	8.7312	7.3536	9.1524	10.8594	8.6615	10.5743	12.3098	10.7802	12.427	13.3264	11.4041	-1.9508	2.4702	2.239	3.8763	9.5039	7.8065	7.5974	11.3091	20.0181	-17.7696
6.7265	7.9901	8.7375	7.3187	9.1746	10.9132	8.6742	10.6535	12.4048	10.8309	12.5473	13.4499	11.5086	-1.9667	2.4322	2.1757	3.9238	9.5799	7.8983	7.6164	11.4262	20.0181	-17.8266
6.6917	7.9553	8.7534	7.2649	9.1841	10.9417	8.652	10.7327	12.427	10.8625	12.6582	13.5196	11.6226	-2.0047	2.3245	2.0648	3.9808	9.6686	7.968	7.6196	11.5276	20.0371	-17.9184
6.6252	7.9236	8.7344	7.1857	9.1556	10.9259	8.6394	10.7802	12.4365	10.8689	12.7437	13.6209	11.7018	-2.0395	2.2168	1.9382	4.0632	9.7161	8.006	7.5943	11.6004	20.0276	-17.9881
6.5935	7.8508	8.6995	7.1256	9.1872	10.9164	8.6172	10.8245	12.4713	10.8879	12.8324	13.6811	11.8094	-2.0902	2.0775	1.7735	4.1392	9.7731	8.0725	7.5468	11.7271	20.0498	-18.0451
6.5017	7.7811	8.69	7.0369	9.1746	10.9417	8.576	10.8594	12.4903	10.8942	12.9369	13.7571	11.8981	-2.1187	1.935	1.612	4.2057	9.8301	8.1358	7.5373	11.8221	20.0751	-18.1559
6.451	7.7304	8.6425	6.9641	9.1302	10.9385	8.5538	10.8942	12.4935	10.9069	12.9875	13.7793	11.9805	-2.1598	1.7798	1.4251	4.2532	9.8396	8.1833	7.4739	11.9044	20.1004	-18.2383
6.3813	7.6481	8.6109	6.8975	9.1144	10.9227	8.5127	10.9322	12.4935	10.8942	13.0382	13.8268	12.0216	-2.1598	1.6436	1.2288	4.2848	9.8871	8.2087	7.4043	11.9773	20.1289	-18.3301
6.3402	7.5721	8.5475	6.8279	9.0511	10.9037	8.462	10.948	12.446	10.8657	13.0699	13.8236	12.0406	-2.1788	1.4885	1.0229	4.3133	9.8808	8.2308	7.3187	12.0121	20.1701	-18.441
6.2483	7.5214	8.481	6.7519	9.0384	10.8815	8.4082	10.9575	12.4333	10.8467	13.0794	13.8331	12.0596	-2.1883	1.3523	0.7791	4.3292	9.8966	8.2245	7.2522	12.0628	20.2271	-18.5486
6.1787	7.4549	8.4367	6.6569	8.9687	10.8277	8.3353	10.9512	12.389	10.7992	13.0889	13.8331	12.0913	-2.1852	1.2098	0.5479	4.3418	9.8935	8.2277	7.1541	12.0818	20.2999	-18.6658
6.1153	7.3884	8.4082	6.5999	8.956	10.8182	8.3037	10.9607	12.3922	10.777	13.1205	13.8363	12.104	-2.1852	1.0831	0.3547	4.3418	9.903	8.2435	7.0781	12.1103	20.3696	-18.821
6.0456	7.3473	8.3385	6.565	8.9655	10.8119	8.2688	10.967	12.3732	10.7485	13.1522	13.8521	12.1135	-2.1915	0.9754	0.1552	4.3513	9.865	8.2372	7.0052	12.1356	20.471	-18.9255
5.9791	7.3219	8.2942	6.4795	8.9149	10.7929	8.2245	10.9829	12.3668	10.7232	13.13	13.8141	12.1166	-2.2042	0.8646	-0.0222	4.3735	9.8396	8.2277	6.9134	12.142	20.5533	-19.049
5.9443	7.2902	8.2878	6.413	8.9307	10.8055	8.177	11.005	12.3763	10.7042	13.149	13.8458	12.1293	-2.22	0.7854	-0.2122	4.4052	9.8459	8.253	6.8405	12.1673	20.6641	-19.201
5.8651	7.2396	8.2403	6.3528	8.9244	10.7897	8.1073	11.0367	12.3605	10.6693	13.1427	13.8204	12.1135	-2.2422	0.6841	-0.3959	4.4432	9.8111	8.2403	6.7455	12.1641	20.7655	-19.3372
5.8271	7.2269	8.2087	6.2863	8.9275	10.7992	8.0661	11.0494	12.3668	10.644	13.1395	13.8109	12.104	-2.2612	0.6175	-0.5004	4.478	9.8206	8.2435	6.6759	12.1515	20.8763	-19.4544
5.7765	7.2111	8.1865	6.242	8.9212	10.8245	8.0313	11.0589	12.3573	10.5965	13.1459	13.8046	12.0755	-2.2707	0.5669	-0.6334	4.516	9.7889	8.2245	6.6062	12.1641	20.9682	-19.5842
5.7385	7.1984	8.1295	6.1565	8.9022	10.834	8.0028	11.0874	12.3573	10.5553	13.13	13.7634	12.0691	-2.3023	0.5004	-0.7601	4.5509	9.7826	8.2245	6.5334	12.1673	21.0822	-19.6761
5.6941	7.1572	8.12	6.1407	8.9275	10.8277	7.9395	11.0937	12.3446	10.5237	13.1205	13.7761	12.0628	-2.296	0.4592	-0.8424	4.573	9.7414	8.1928	6.4763	12.1261	21.1582	-19.7774
5.6498	7.1572	8.0725	6.071	8.9117	10.8245	7.8698	11.0715	12.3193	10.4888	13.0984	13.7349	12.0153	-2.3119	0.3705	-0.9659	4.592	9.7003	8.1516	6.3908	12.0565	21.2374	-19.8661
5.5991	7.1002	8.044	5.9791	8.8959	10.7739	7.7875	11.0525	12.275	10.3907	13.054	13.6938	11.9108	-2.3214	0.3104	-1.0736	4.6047	9.6338	8.1295	6.2958	11.99	21.307	-19.9611
5.5643	7.0717	7.9933	5.9126	8.88	10.7549	7.7304	11.0335	12.2496	10.3083	13.016	13.6051	11.8538	-2.3309	0.2439	-1.1623	4.6205	9.5894	8.0915	6.2008	11.9234	21.3324	-20.0593
5.5168	7.0432	7.9395	5.8398	8.8389	10.7264	7.6481	11.024	12.2053	10.207	12.9717	13.5544	11.7429	-2.3467	0.1932	-1.2478	4.6585	9.5039	8.0535	6.1027	11.8538	21.3735	-20.1479
5.4629	6.9989	7.8698	5.7606	8.8072	10.6567	7.5563	10.9924	12.1325	10.112	12.8894	13.4689	11.6289	-2.3689	0.133	-1.2889	4.7092	9.3867	7.987	5.995	11.7746	21.3862	-20.2398
5.4123	6.9546	7.8001	5.672	8.7819	10.5902	7.4391	10.9702	12.0565	10.0106	12.826	13.3739	11.5022	-2.429	0.114	-1.2953	4.7915	9.2601	7.9648	5.8588	11.7018	21.383	-20.3189
5.3521	6.8975	7.7399	5.5991	8.7407	10.5427	7.3282	10.9005	11.9868	9.8808	12.7532	13.2821	11.3629	-2.4797	0.0253	-1.2984	4.8992	9.1207	7.9141	5.7068	11.6163	21.3735	-20.433
5.3046	6.8247	7.6861	5.5009	8.6774	10.454	7.2174	10.9037	11.9013	9.7699	12.7057	13.1934	11.2299	-2.5367	0.0158	-1.3016	5.0259	8.9687	7.8825	5.5738	11.5593	21.3355	-20.5058
5.2919	6.8279	7.6576	5.4376	8.6742	10.4128	7.1382	10.8974	11.8474	9.6433	12.674	13.1047	11.0969	-2.6064	-0.0253	-1.2731	5.1557	8.8199	7.873	5.4408	11.5212	21.3007	-20.6135
5.2349	6.7835	7.6006	5.3806	8.6457	10.3432	7.0116	10.8625	11.7904	9.5166	12.6297	13.0129	10.9385	-2.6729	-0.0665	-1.2604	5.2951	8.6457	7.8508	5.2698	11.4896	21.2627	-20.6831
5.1874	6.7582	7.5404	5.2824	8.6204	10.3083	6.9166	10.8625	11.7429	9.4089	12.6043	12.9527	10.7897	-2.7584	-0.1077	-1.2668	5.4693	8.4367	7.8698	5.0956	11.4579	21.2342	-20.7782
5.1937	6.7487	7.5119	5.2508	8.6267	10.283	6.8279	10.8752	11.7018	9.2917	12.6297	12.9084	10.6472	-2.8407	-0.1235	-1.2288	5.6244	8.2372	7.8635	4.9626	11.4452	21.2089	-20.889
5.2032	6.7614	7.5309	5.2413	8.6552	10.2862	6.793	10.9195	11.7049	9.2252	12.6423	12.8925	10.5522	-2.9104	-0.1393	-1.2034	5.7796	8.0725	7.9015	4.8296	11.4579	21.1804	-20.9682
5.2222	6.7804	7.5309	5.2349	8.6774	10.3052	6.7455	10.9734	11.7493	9.1904	12.6772	12.8767	10.435	-2.9864	-0.1235	-1.1433	5.9253	7.8603	7.9585	4.6839	11.4674	21.1518	-21.0442
5.2603	6.85	7.5563	5.2191	8.7344	10.3527	6.7075	11.043	11.7493	9.1366	12.7342	12.883	10.3242	-3.0497	-0.0887	-1.1053	6.052	7.6766	7.9965	4.5509	11.4896	21.1614	-21.117
5.2983	6.8849	7.5911	5.2254	8.7724	10.3748	6.6854	11.1096	11.7968	9.0986	12.7658	12.9084	10.2386	-3.0972	-0.076	-1.0799	6.1565	7.5119	8.0566	4.4337	11.4896	21.1804	-21.212
5.3426	6.9419	7.6038	5.2666	8.88	10.4413	6.6885	11.2172	11.8696	9.0701	12.8482	12.9432	10.1753	-3.1511	-0.0032	-0.9722	6.2262	7.3314	8.0851	4.3197	11.5212	21.2279	-21.307
5.3743	6.9799	7.6639	5.2603	8.9307	10.4983	6.679	11.2837	11.9203	9.0226	12.883	12.9654	10.0803	-3.1733	0.1013	-0.8899	6.3022	7.1161	8.1358	4.193	11.5308	21.2627	-21.3894
5.4344	7.0591	7.7178	5.3046	9.0035	10.5965	6.6949	11.3787	12.0216	9.0542	12.9559	13.0382	10.0296	-3.1986	0.171	-0.7949	6.3402	6.9577	8.2087	4.098	11.5466	21.3387	-21.4875
5.5168	7.1572	7.8033	5.3711	9.0954	10.7042	6.755	11.4801	12.0786	9.0447	13.0192	13.0667	9.9695	-3.2081	0.304	-0.6746	6.3592	6.755	8.253	3.9967	11.5624	21.4115	-21.5857
5.5548	7.2332	7.8445	5.4028	9.1809	10.796	6.7677	11.5719	12.1673	9.0542	13.0825	13.111	9.8966	-3.2303	0.3832	-0.5985	6.4035	6.5714	8.3068	3.8668	11.5561	21.516	-21.7061
5.5928	7.3282	7.9205	5.4281	9.2696	10.9005	6.8089	11.6669	12.2338	9.0416	13.1269	13.168	9.8364	-3.2334	0.4972	-0.4972	6.4193	6.394	8.3828	3.7623	11.5656	21.6237	-21.8201
5.6498	7.3948	7.9743	5.4503	9.3582	10.9797	6.831	11.7303	12.3161	9.0352	13.1775	13.206	9.7668	-3.2524	0.6112	-0.4244	6.4605	6.1913	8.4018	3.6673	11.5466	21.7441	-21.9404
5.7258	7.4961	8.0725	5.5168	9.4659	11.0874	6.8659	11.8348	12.4017	9.0606	13.2567	13.2567	9.7193	-3.2524	0.7284	-0.2977	6.4605	6.0076	8.4778	3.5913	11.5498	21.8486	-22.0576
5.7796	7.5753	8.101	5.5453	9.5356	11.1982	6.907	11.9234	12.4777	9.0606	13.3011	13.2947	9.6844	-3.2841	0.8266	-0.2312	6.4953	5.8176	8.519	3.4773	11.5434	21.9816	-22.1779
5.824	7.6639	8.1897	5.5674	9.6306	11.3027	6.9356	11.9868	12.5663	9.0669	13.3359	13.3201	9.6053	-3.2714	0.9406	-0.133	6.5144	5.6371	8.5602	3.3538	11.5054	22.1083	-22.2888
5.9	7.759	8.2467	5.6308	9.7351	11.4294	6.9609	12.0755	12.6613	9.0891	13.3929	13.3739	9.5768	-3.2999	1.0514	-0.0443	6.5397	5.4819	8.614	3.2809	11.5117	22.2033	-22.3838
5.9411	7.8096	8.3037	5.6403	9.8111	11.5371	7.0116	12.1451	12.7278	9.0954	13.4499	13.3992	9.5609	-3.2968	1.1274	0.0253	6.565	5.3331	8.6489	3.1764	11.4832	22.3268	-22.5041
6.0108	7.8951	8.3797	5.6846	9.9188	11.6543	7.0717	12.2148	12.8324	9.1207	13.4847	13.4531	9.5324	-3.3158	1.2351	0.1172	6.5872	5.2127	8.6995	3.1004	11.4864	22.4186	-22.6055
6.0583	7.968	8.4398	5.691	9.9853	11.7493	7.1066	12.2686	12.8925	9.1397	13.5132	13.4816	9.5071	-3.3189	1.3238	0.1805	6.603	5.0671	8.7375	3.0339	11.4547	22.4851	-22.71
6.109	8.0503	8.4968	5.7195	10.0898	11.8538	7.1604	12.3288	12.978	9.1524	13.5544	13.5164	9.4881	-3.3158	1.3839	0.2502	6.5967	4.9467	8.7787	2.9769	11.4389	22.5706	-22.8081
6.1565	8.1326	8.5475	5.71	10.1595	11.952	7.1952	12.3922	13.0477	9.1904	13.5861	13.5734	9.4849	-3.3126	1.4536	0.3104	6.5777	4.8232	8.8009	2.9104	11.4452	22.6371	-22.8683
6.204	8.1706	8.6077	5.7195	10.207	12.0058	7.2427	12.4143	13.1269	9.2157	13.6019	13.5607	9.4596	-3.3126	1.5011	0.3769	6.5809	4.7282	8.823	2.8502	11.4041	22.6973	-22.9443
6.2357	8.2403	8.6552	5.7163	10.283	12.0913	7.2649	12.4618	13.1839	9.2379	13.6209	13.5607	9.4469	-3.3221	1.5708	0.437	6.584	4.6205	8.8579	2.7901	11.3851	22.7385	-23.0077
6.2357	8.2593	8.6679	5.7321	10.34	12.1736	7.2807	12.5062	13.2599	9.2569	13.6336	13.6019	9.4406	-3.3379	1.5898	0.4592	6.6094	4.5445	8.8769	2.7267	11.3692	22.7828	-23.0805
6.2832	8.2815	8.6995	5.7385	10.3717	12.2528	7.3473	12.5315	13.3201	9.2917	13.6526	13.6336	9.4374	-3.3316	1.6215	0.5479	6.6189	4.4527	8.8927	2.6919	11.3471	22.805	-23.0932
6.2673	8.3068	8.7249	5.71	10.416	12.3193	7.3536	12.56	13.3644	9.3012	13.6558	13.6589	9.4216	-3.3506	1.6341	0.5669	6.6569	4.3735	8.918	2.6507	11.3407	22.8493	-23.147
6.2927	8.3353	8.7945	5.7321	10.5047	12.4238	7.4074	12.617	13.4214	9.3772	13.6874	13.6621	9.4469	-3.3791	1.6468	0.6175	6.7107	4.3387	8.9497	2.6254	11.3407	22.8937	-23.2198
6.2958	8.3512	8.8072	5.7606	10.5617	12.4872	7.4486	12.6487	13.4879	9.4247	13.7001	13.6874	9.4374	-3.4203	1.6278	0.6207	6.7867	4.2563	8.9877	2.5937	11.3534	22.9538	-23.2198
6.28	8.3607	8.8705	5.7891	10.606	12.56	7.5119	12.7057	13.5734	9.4438	13.6811	13.7128	9.4438	-3.4551	1.6405	0.6366	6.8659	4.2025	9.0131	2.5715	11.3534	23.014	-23.261
6.3117	8.3828	8.9022	5.8176	10.6757	12.636	7.5658	12.7342	13.6589	9.4881	13.7254	13.7634	9.4469	-3.5121	1.6563	0.6936	6.9641	4.1645	9.0574	2.5684	11.3914	23.0742	-23.2895
6.3465	8.4303	8.9719	5.8588	10.7485	12.731	7.6196	12.8165	13.7349	9.5578	13.7476	13.8046	9.4754	-3.5628	1.6405	0.7031	7.0654	4.1233	9.1239	2.581	11.3977	23.1692	-23.3054
6.3877	8.4747	9.0289	5.8905	10.7992	12.8292	7.6924	12.8609	13.8299	9.5958	13.7634	13.8236	9.4881	-3.6103	1.6373	0.7411	7.1794	4.0758	9.1429	2.5652	11.4231	23.2515	-23.318
6.4162	8.4905	9.1112	5.9791	10.891	12.9305	7.7431	12.9274	13.9123	9.6749	13.8173	13.8711	9.5008	-3.6768	1.6436	0.7632	7.2902	4.0505	9.2126	2.5525	11.4642	23.3402	-23.3655
6.4637	8.5317	9.1746	6.0456	10.9607	13.0192	7.8191	12.997	13.9946	9.7288	13.8299	13.9218	9.5229	-3.7306	1.631	0.7506	7.4011	4.0252	9.2632	2.5747	11.5054	23.4669	-23.413
6.508	8.5823	9.2601	6.0932	11.0557	13.1522	7.8888	13.0667	14.0738	9.7763	13.8743	13.9598	9.5198	-3.7908	1.6341	0.7474	7.5278	3.9998	9.3202	2.562	11.5624	23.5777	-23.432
6.5777	8.6584	9.3646	6.2103	11.1507	13.2599	8.0028	13.1585	14.1846	9.8618	13.9186	14.0168	9.5419	-3.8446	1.6246	0.7442	7.6323	3.9618	9.3836	2.581	11.6099	23.7012	-23.4637
6.6569	8.7154	9.4754	6.3148	11.2331	13.3739	8.0946	13.2251	14.2923	9.9156	13.9566	14.0738	9.5229	-3.9048	1.631	0.7442	7.7368	3.9333	9.4342	2.5937	11.6416	23.8089	-23.4827
6.736	8.7945	9.6021	6.4542	11.3407	13.5386	8.2023	13.3011	14.4221	10.0138	14.0041	14.1561	9.6021	-3.9365	1.6025	0.6809	7.816	3.9143	9.4944	2.6349	11.7018	23.9577	-23.489
6.8532	8.8737	9.7541	6.6157	11.4516	13.7128	8.3353	13.3897	14.5362	10.0898	14.0516	14.2131	9.5926	-3.9872	1.6088	0.6651	7.9015	3.8921	9.5578	2.6697	11.7429	24.0907	-23.5239
6.9546	8.9529	9.8935	6.7614	11.5434	13.8711	8.4652	13.4974	14.6755	10.2165	14.0675	14.2891	9.6338	-4.041	1.5581	0.6112	8.0091	3.8605	9.5863	2.7077	11.7271	24.2206	-23.5302
7.0907	9.0447	10.0581	6.9229	11.6511	14.058	8.5982	13.5956	14.818	10.2925	14.1276	14.3746	9.6623	-4.0758	1.5676	0.5795	8.0978	3.8351	9.6401	2.7394	11.7683	24.3758	-23.565
7.2522	9.1682	10.2576	7.1224	11.8126	14.2511	8.7724	13.7064	14.989	10.4318	14.191	14.4665	9.7003	-4.1297	1.5803	0.5605	8.2087	3.8256	9.7003	2.7711	11.7841	24.5278	-23.5745
7.4359	9.3519	10.4952	7.3884	11.9868	14.5203	8.9719	13.8616	15.1885	10.5743	14.2891	14.6027	9.7668	-4.1772	1.631	0.6461	8.2847	3.8636	9.7984	2.8787	11.8411	24.6671	-23.5745
7.6354	9.5293	10.7612	7.6418	12.1736	14.78	9.1904	13.9946	15.4071	10.7295	14.3588	14.7325	9.8396	-4.212	1.745	0.6967	8.3733	3.8541	9.8808	2.9262	11.8569	24.8096	-23.5967
7.9078	9.7256	11.043	7.9141	12.389	15.0745	9.4089	14.1593	15.6446	10.9195	14.4601	14.8623	9.9568	-4.2563	1.8051	0.7949	8.4525	3.889	9.96	3.0181	11.8791	24.9648	-23.584
8.1992	9.9441	11.3756	8.2372	12.6107	15.4229	9.7066	14.3493	15.9169	11.1412	14.571	14.9985	10.055	-4.2848	1.9698	0.9437	8.5032	3.9301	10.074	3.1828	11.8886	25.12	-23.603
8.4747	10.1848	11.6923	8.5348	12.826	15.7333	9.9315	14.5393	16.1798	11.3661	14.6565	15.1505	10.1626	-4.3165	2.1408	1.1053	8.576	3.9523	10.1373	3.2936	11.9203	25.2752	-23.622
8.7787	10.4572	12.0501	8.8515	13.0889	16.0879	10.2418	14.7167	16.4426	11.5846	14.7895	15.3279	10.302	-4.3387	2.3404	1.3174	8.6299	4.022	10.264	3.4361	11.9646	25.4494	-23.6505
9.1239	10.7264	12.4207	9.1936	13.3549	16.468	10.5332	14.9447	16.7435	11.8379	14.9352	15.5084	10.435	-4.3735	2.5399	1.5328	8.6742	4.0727	10.3938	3.5564	12.0058	25.6394	-23.6632
9.4342	10.986	12.7722	9.5071	13.6114	16.8068	10.7929	15.1284	17.0064	12.0565	15.0619	15.6604	10.5743	-4.3957	2.7489	1.7861	8.7312	4.1392	10.4952	3.6895	12.047	25.8326	-23.6917
9.7984	11.2901	13.149	9.8428	13.8869	17.1774	11.1	15.3849	17.3452	12.3288	15.2139	15.8694	10.7359	-4.3988	2.9801	2.0458	8.7439	4.2215	10.625	3.8668	12.1008	26.0289	-23.7076
10.1246	11.5656	13.5322	10.1531	14.1593	17.5637	11.3756	15.5971	17.6302	12.5442	15.3501	16.0531	10.8879	-4.4115	3.1986	2.3245	8.7724	4.2753	10.7485	3.9998	12.1451	26.2443	-23.7171
10.4857	11.8538	13.9154	10.473	14.4443	17.9216	11.6606	15.8124	17.9311	12.8229	15.4989	16.2336	11.0114	-4.4242	3.4234	2.619	8.7819	4.3228	10.872	4.1392	12.1958	26.4596	-23.7456
10.8499	12.1388	14.305	10.7897	14.7198	18.2858	11.9393	16.0436	18.2319	13.0762	15.6604	16.4268	11.1761	-4.4242	3.6515	2.8566	8.7914	4.4115	10.9987	4.2722	12.2528	26.675	-23.7741
11.2331	12.4333	14.6945	11.0842	15.0397	18.6658	12.2275	16.297	18.5423	13.3169	15.8314	16.6453	11.3312	-4.4115	3.889	3.1099	8.7914	4.4717	11.1317	4.4242	12.332	26.8998	-23.8247
11.6289	12.7785	15.1062	11.4326	15.3722	19.0775	12.5505	16.5662	18.9255	13.6209	16.0404	16.9018	11.5498	-4.4337	4.1392	3.3823	8.804	4.6047	11.3217	4.5889	12.4333	27.1088	-23.8437
12.0026	13.0572	15.4926	11.7461	15.6794	19.4512	12.8387	16.829	19.2295	13.8743	16.2083	17.1394	11.7208	-4.4242	4.4115	3.6388	8.8072	4.6997	11.4611	4.7472	12.5252	27.3368	-23.8912
12.4365	13.4341	15.9328	12.104	16.0468	19.8977	13.149	17.1394	19.6096	14.1846	16.468	17.4307	11.9551	-4.459	4.6585	3.9048	8.8325	4.8454	11.6543	4.9372	12.6803	27.568	-23.9514
12.826	13.7888	16.3793	12.4523	16.411	20.2968	13.4752	17.4339	20.0023	14.5013	16.7245	17.7126	12.1958	-4.459	4.9214	4.1613	8.8547	4.9721	11.8443	5.1241	12.8165	27.7802	-24.0084
13.2631	14.1466	16.7878	12.7849	16.7688	20.737	13.7919	17.7632	20.3886	14.7768	16.9842	18.0134	12.4365	-4.4907	5.1937	4.4305	8.8895	5.1367	12.0691	5.3078	13.0002	27.9956	-24.0939
13.6716	14.5235	17.209	13.0952	17.1299	21.1614	14.0991	18.0641	20.7623	15.0682	17.2407	18.3175	12.6993	-4.4875	5.4218	4.6807	8.9117	5.2729	12.2338	5.4819	13.1332	28.2267	-24.1319
14.058	14.8845	17.6081	13.3961	17.4846	21.5509	14.3968	18.3618	21.1582	15.3722	17.4687	18.612	12.94	-4.5034	5.7005	4.9151	8.9624	5.4059	12.4238	5.6434	13.2852	28.4358	-24.2143
14.4823	15.2709	18.0356	13.7286	17.8994	21.9942	14.7388	18.7133	21.5604	15.6952	17.7791	18.9667	13.2377	-4.5129	5.938	5.1684	8.975	5.5928	12.6582	5.8588	13.5069	28.6511	-24.2903
14.856	15.6731	18.4505	14.0168	18.2953	22.4186	15.0175	19.0395	21.9626	15.9993	18.0831	19.2929	13.5037	-4.535	6.1692	5.3774	9.0035	5.7385	12.8704	5.9981	13.7033	28.876	-24.3758
15.2392	16.0278	18.8273	14.3176	18.6373	22.7955	15.274	19.3404	22.3331	16.2875	18.3808	19.6096	13.7666	-4.5572	6.375	5.5864	9.0384	5.9031	13.0794	6.1628	13.9091	29.0945	-24.4613
15.6256	16.43	19.2169	14.5868	19.0332	23.2167	15.5812	19.7141	22.7258	16.6042	18.6848	19.9674	14.058	-4.554	6.622	5.8081	9.0321	6.0963	13.3011	6.3497	14.1561	29.3162	-24.5721
15.9549	16.7625	19.5779	14.8497	19.4037	23.584	15.8694	20.0434	23.0868	16.886	18.9857	20.2873	14.3271	-4.554	6.85	5.9823	9.0511	6.2927	13.4974	6.5239	14.381	29.5569	-24.6703
16.316	17.1204	19.9389	15.1315	19.7837	23.9704	16.1513	20.3665	23.4574	17.19	19.2865	20.6293	14.6153	-4.5604	7.0622	6.204	9.0606	6.4732	13.7064	6.6854	14.6375	29.807	-24.778
16.658	17.4719	20.2904	15.4039	20.1448	24.3504	16.4173	20.6863	23.8374	17.4782	19.6349	20.9872	14.894	-4.573	7.2649	6.3718	9.0669	6.6632	13.9186	6.8532	14.8592	30.0636	-24.9173
16.9747	17.8202	20.6261	15.6256	20.4868	24.683	16.6738	20.9903	24.1731	17.7379	19.9326	21.3039	15.1759	-4.5794	7.4074	6.5365	9.0764	6.8532	14.1276	7.0274	15.103	30.3169	-25.0187
17.2692	18.1369	20.9587	15.8726	20.8383	25.0155	16.943	21.3007	24.5341	18.0324	20.2208	21.6301	15.4514	-4.5794	7.5341	6.66	9.0701	7.0401	14.305	7.2142	15.3247	30.6273	-25.1327
17.5732	18.4473	21.2437	16.1006	21.1392	25.3068	17.1742	21.5762	24.8571	18.2921	20.5185	21.9467	15.7142	-4.5857	7.6449	6.8089	9.0891	7.2047	14.4633	7.3694	15.5337	30.9155	-25.2403
17.8234	18.7228	21.5192	16.3001	21.4305	25.5982	17.4402	21.8422	25.1612	18.5645	20.8035	22.2571	16.0056	-4.5825	7.7304	6.8944	9.0986	7.4454	14.6153	7.5151	15.7523	31.2417	-25.329
18.0483	18.9983	21.7726	16.5123	21.7029	25.8864	17.6334	22.1178	25.4589	18.8115	21.1012	22.5485	16.259	-4.5825	7.778	6.9641	9.0986	7.6069	14.742	7.7019	15.9676	31.5583	-25.4462
18.289	19.239	22.0418	16.7182	21.9942	26.1809	17.8741	22.3679	25.7755	19.0427	21.3672	22.8556	16.4965	-4.5794	7.8065	7.0306	9.0954	7.7938	14.8877	7.8508	16.1735	31.9035	-25.5064
18.4853	19.4924	22.2919	16.8955	22.2318	26.4374	18.0863	22.6213	26.0289	19.2865	21.6491	23.1565	16.7562	-4.5794	7.8825	7.1192	9.0859	7.9775	15.0175	7.9965	16.3856	32.2392	-25.5887
18.6658	19.6539	22.4978	17.0665	22.444	26.6623	18.2573	22.7986	26.2823	19.4765	21.8866	23.4004	16.9874	-4.592	7.8603	7.1256	9.1017	8.139	15.1284	8.1231	16.5788	32.5939	-25.6679
18.8273	19.8661	22.6846	17.2249	22.6466	26.8935	18.4631	23.0267	26.5229	19.6951	22.1146	23.66	17.2059	-4.5667	7.8888	7.1192	9.0606	8.3163	15.2455	8.2435	16.7593	32.9391	-25.728
18.9477	20.0593	22.8588	17.38	22.8525	27.1088	18.6278	23.2357	26.7605	19.9199	22.3458	23.8722	17.4276	-4.5477	7.9046	7.1414	9.0131	8.4778	15.3596	8.3923	16.9272	33.2906	-25.7629
19.0522	20.1543	23.0172	17.4877	23.0108	27.2957	18.7672	23.3624	26.9441	20.0434	22.5168	24.0622	17.5701	-4.5382	7.8856	7.1097	8.9972	8.6299	15.4324	8.4937	17.076	33.6358	-25.8389
19.1599	20.2968	23.1818	17.6239	23.1407	27.4825	18.9033	23.5365	27.1342	20.2176	22.7005	24.2586	17.7537	-4.5065	7.8888	7.0812	8.9402	8.7724	15.4989	8.5887	17.228	33.9969	-25.8706
19.2644	20.3791	23.2832	17.7221	23.2737	27.6345	19.0173	23.6664	27.2988	20.3823	22.8366	24.4011	17.8963	-4.4844	7.8888	7.0369	8.8895	8.9022	15.5559	8.6932	17.3705	34.3294	-25.9086
19.3245	20.471	23.3845	17.8329	23.3687	27.7929	19.163	23.7709	27.4223	20.4995	22.976	24.55	18.0419	-4.44	7.9236	7.0084	8.8135	9.0194	15.5939	8.7882	17.4751	34.6714	-25.9719
19.3689	20.547	23.4827	17.9184	23.4827	27.9006	19.2454	23.8564	27.5712	20.6135	23.0932	24.6513	18.1464	-4.4052	7.9046	6.9292	8.7312	9.1302	15.6414	8.8547	17.5384	34.9944	-26.0036
19.4227	20.6008	23.5587	18.0071	23.5429	28.0241	19.334	23.9292	27.6884	20.6926	23.1692	24.7368	18.2541	-4.3577	7.892	6.8722	8.6425	9.2474	15.6541	8.9117	17.6271	35.3206	-26.0384
19.4512	20.6135	23.622	18.0673	23.5904	28.1159	19.4005	23.9767	27.758	20.7655	23.242	24.8001	18.3143	-4.3038	7.8856	6.8247	8.519	9.3266	15.6541	8.9814	17.6556	35.6563	-26.0827
19.4797	20.6261	23.66	18.0926	23.5904	28.1792	19.448	23.9926	27.8119	20.8193	23.2737	24.8603	18.384	-4.231	7.8761	6.7867	8.4018	9.4089	15.6382	9.0289	17.6936	35.9699	-26.1302
19.4607	20.623	23.7139	18.1654	23.6189	28.2489	19.4829	23.9989	27.8847	20.8732	23.3117	24.8983	18.4378	-4.1582	7.8603	6.7519	8.2403	9.4913	15.6256	9.0669	17.6999	36.2802	-26.1492
19.4449	20.6008	23.6886	18.1686	23.6189	28.2647	19.5146	24.0147	27.9069	20.9143	23.3054	24.9015	18.4631	-4.1043	7.8445	6.7265	8.1326	9.5419	15.5591	9.1017	17.6999	36.5716	-26.1841
19.4417	20.5501	23.6886	18.1718	23.6094	28.2964	19.5146	23.9957	27.9386	20.946	23.2927	24.8983	18.4758	-4.0157	7.8191	6.7614	7.9616	9.6116	15.5496	9.1429	17.6904	36.8629	-26.2284
19.3784	20.528	23.6727	18.1686	23.584	28.3123	19.5272	23.9482	27.9512	20.9397	23.261	24.911	18.4885	-3.9555	7.8445	6.7962	7.8191	9.6623	15.4957	9.1809	17.6461	37.129	-26.2411
19.3055	20.471	23.6347	18.1369	23.5207	28.2647	19.486	23.8691	27.8974	20.927	23.185	24.873	18.479	-3.8795	7.8065	6.8342	7.6924	9.6813	15.4102	9.1746	17.5827	37.4108	-26.2728
19.2169	20.3665	23.5555	18.0863	23.4384	28.2457	19.4385	23.7582	27.8815	20.8858	23.109	24.8128	18.4473	-3.8225	7.797	6.8564	7.5784	9.7193	15.3374	9.1841	17.5004	37.6895	-26.3076
19.0712	20.2904	23.4447	18.0071	23.3624	28.1761	19.3815	23.6442	27.8119	20.8383	23.0077	24.7431	18.4315	-3.7591	7.7716	6.888	7.4676	9.7414	15.2614	9.1777	17.4086	37.9492	-26.3361
18.9698	20.1638	23.3465	17.9153	23.242	28.0937	19.3214	23.5334	27.7327	20.7687	22.8842	24.6576	18.3491	-3.7085	7.7431	6.9102	7.3536	9.7636	15.1569	9.1714	17.2945	38.2247	-26.3963
18.7988	20.0023	23.1787	17.7822	23.0932	27.9544	19.201	23.3624	27.6345	20.6736	22.7195	24.5278	18.2541	-3.6578	7.7273	6.8849	7.2586	9.7351	15.0365	9.1429	17.1647	38.4939	-26.4628
18.5961	19.8091	23.0045	17.6239	22.9285	27.8119	19.0585	23.1502	27.4857	20.5533	22.5358	24.3758	18.1274	-3.6103	7.6703	6.8374	7.1667	9.7003	14.9004	9.1049	17.0127	38.7599	-26.5261
18.3903	19.6032	22.8018	17.4276	22.7258	27.6282	18.8843	22.9348	27.3147	20.4045	22.3014	24.2048	17.9818	-3.5691	7.6323	6.774	7.0654	9.6433	14.742	9.0447	16.8258	39.0133	-26.5926
18.1211	19.3594	22.5421	17.2027	22.4883	27.3938	18.6848	22.672	27.093	20.2113	22.0354	23.9767	17.8012	-3.5089	7.5499	6.6822	6.9577	9.5736	14.5742	8.9624	16.6137	39.273	-26.713
17.8519	19.0839	22.2159	16.9367	22.2096	27.1278	18.46	22.3838	26.8428	19.9959	21.7567	23.7171	17.5859	-3.4583	7.4676	6.546	6.8564	9.4818	14.3778	8.842	16.3951	39.5073	-26.7921
17.5479	18.783	21.9151	16.6707	21.9372	26.846	18.2098	22.0671	26.5831	19.7299	21.4527	23.4542	17.3389	-3.4108	7.3599	6.4035	6.7709	9.3361	14.172	8.728	16.1545	39.7448	-26.8935
17.228	18.5011	21.5762	16.4141	21.6269	26.5578	17.9216	21.7377	26.2728	19.4829	21.1265	23.1597	17.0887	-3.3854	7.2237	6.2198	6.7234	9.2316	13.9661	8.5855	15.9011	39.995	-27.0265
16.8765	18.1338	21.2184	16.0848	21.3039	26.2094	17.6461	21.3925	25.9529	19.2074	20.7908	22.8588	16.8353	-3.3569	7.1509	6.0488	6.6759	9.0891	13.7571	8.4493	15.6541	40.242	-27.1373
16.544	17.8234	20.8415	15.7681	20.965	25.8737	17.3484	21.0473	25.6109	18.9318	20.452	22.5421	16.5408	-3.3506	6.9831	5.8335	6.6537	8.9529	13.5354	8.2878	15.3944	40.4954	-27.283
16.1956	17.5162	20.4615	15.4641	20.6293	25.5064	17.0412	20.6926	25.2657	18.6341	20.1099	22.2033	16.2558	-3.3316	6.8532	5.6529	6.6157	8.7882	13.3074	8.1485	15.141	40.7329	-27.4065
15.8156	17.152	20.0434	15.1252	20.2588	25.1327	16.7308	20.3253	24.8856	18.3206	19.7679	21.8739	15.9581	-3.3189	6.6949	5.4091	6.5904	8.6172	13.1079	7.9838	14.8687	40.9863	-27.5649
15.4546	16.81	19.6476	14.7958	19.9136	24.7495	16.4205	19.9833	24.5246	18.0039	19.4005	21.5034	15.6382	-3.3189	6.527	5.2064	6.5745	8.4778	12.8925	7.8065	14.6122	41.2396	-27.6915
15.0745	16.4395	19.2264	14.4728	19.5272	24.3441	16.0784	19.5969	24.1446	17.6587	19.0553	21.1392	15.3184	-3.3158	6.3528	4.9689	6.5809	8.2847	12.6613	7.6513	14.3493	41.493	-27.8214
14.7008	16.0911	18.821	14.1403	19.1789	23.9387	15.7554	19.2485	23.7456	17.3642	18.726	20.775	15.0049	-3.3189	6.1945	4.7409	6.5777	8.1136	12.4745	7.4929	14.1023	41.7463	-27.9259
14.3303	15.7333	18.3935	13.7761	18.8052	23.5524	15.4166	18.8875	23.3624	17.0317	18.3681	20.414	14.6723	-3.3411	5.995	4.5192	6.6094	7.9268	12.2591	7.2934	13.8141	42.0187	-28.0272
13.9503	15.3881	18.0008	13.4562	18.46	23.1565	15.084	18.5486	22.9665	16.6928	18.0293	20.0276	14.3493	-3.3379	5.8303	4.2848	6.622	7.7621	12.0786	7.1097	13.5892	42.3037	-28.1412
13.6304	15.0777	17.6239	13.1554	18.1369	22.7955	14.7895	18.2478	22.6055	16.3793	17.7474	19.6887	14.0485	-3.3474	5.6498	4.1392	6.6442	7.5943	11.8886	6.9546	13.3676	42.5761	-28.2109
13.3011	14.7958	17.2755	12.8387	17.8266	22.4218	14.4823	17.9216	22.2349	16.0689	17.4181	19.334	13.7349	-3.3538	5.4788	3.9618	6.6664	7.4359	11.7303	6.7835	13.1807	42.8642	-28.2932
12.9875	14.4887	16.924	12.522	17.5131	22.0576	14.2036	17.6461	21.8866	15.7586	17.1267	19.0078	13.4562	-3.3854	5.3204	3.8415	6.7107	7.2491	11.5783	6.6125	12.9622	43.1524	-28.3629
12.7405	14.229	16.5947	12.2465	17.2439	21.7631	13.9154	17.38	21.573	15.4546	16.8638	18.6817	13.1775	-3.3981	5.2096	3.7338	6.7455	7.1192	11.4801	6.4858	12.8039	43.4438	-28.4421
12.4682	14.0168	16.3318	12.009	17.0095	21.4749	13.6653	17.1489	21.2564	15.2044	16.6485	18.3871	12.9179	-3.4139	5.1177	3.6388	6.7677	7.0052	11.3534	6.3497	12.6455	43.7446	-28.5181
12.2496	13.7888	16.0436	11.7651	16.7435	21.1709	13.4309	16.9113	20.946	14.9162	16.3951	18.0704	12.6645	-3.4424	5.0132	3.5945	6.8152	6.85	11.2521	6.2072	12.4935	44.0392	-28.5751
12.0248	13.5766	15.7839	11.5339	16.5186	20.8605	13.187	16.6865	20.6483	14.6628	16.1545	17.7569	12.3953	-3.4393	4.9246	3.5153	6.85	6.7107	11.1602	6.0741	12.3446	44.3527	-28.6606
11.8284	13.3676	15.5084	11.2996	16.2748	20.5913	12.9527	16.4553	20.3443	14.3841	15.9391	17.4592	12.1546	-3.4741	4.8454	3.4393	6.9102	6.565	11.062	5.9348	12.2085	44.682	-28.7366
11.6289	13.1775	15.255	11.1032	16.0689	20.2936	12.712	16.2716	20.0561	14.1276	15.7111	17.1647	11.9076	-3.5058	4.801	3.3823	6.9641	6.4257	10.9765	5.7923	12.085	44.9956	-28.7841
11.4357	12.9939	15.0207	10.9164	15.8409	20.0403	12.5093	16.0658	19.7616	13.9123	15.5052	16.8765	11.6828	-3.5216	4.7155	3.3126	7.0021	6.28	10.9164	5.6751	11.9298	45.3471	-28.8158
11.2299	12.7849	14.7515	10.7137	15.6161	19.7426	12.2876	15.8504	19.4734	13.6589	15.274	16.5757	11.4167	-3.5596	4.592	3.1733	7.0686	6.1312	10.7865	5.5326	11.7746	45.7303	-28.8981
11.0779	12.6328	14.5267	10.5427	15.3912	19.4892	12.1135	15.6446	19.1852	13.4404	15.0714	16.3223	11.2236	-3.5786	4.5509	3.1131	7.1034	6.0266	10.701	5.4154	11.6448	46.0913	-28.9266
10.8879	12.4555	14.3176	10.3748	15.1949	19.2295	11.9076	15.4546	18.9223	13.206	14.837	16.0373	11.0019	-3.5945	4.4749	3.0339	7.1382	5.8905	10.6028	5.3078	11.5054	46.4682	-28.9805
10.7074	12.2908	14.1245	10.2165	14.989	19.0015	11.7334	15.2487	18.6627	13.0065	14.6692	15.7934	10.8182	-3.6135	4.402	2.9326	7.1762	5.7923	10.4983	5.2032	11.4262	46.8736	-29.0121
10.5427	12.1388	13.9154	10.0645	14.837	18.7418	11.5783	15.0555	18.4188	12.826	14.4665	15.5116	10.6155	-3.6293	4.3545	2.8629	7.2111	5.6815	10.4097	5.1019	11.3027	47.2916	-29.0565
10.4128	12.0185	13.7508	9.96	14.6977	18.5423	11.4357	14.8877	18.1844	12.6518	14.2923	15.2867	10.4603	-3.6356	4.2975	2.7806	7.2174	5.5991	10.3495	5.0227	11.2109	47.7476	-29.0881
10.283	11.9266	13.6051	9.8713	14.5647	18.365	11.3122	14.7578	18.0198	12.5188	14.153	15.122	10.3273	-3.6388	4.2817	2.7426	7.2206	5.5453	10.2862	4.9942	11.1412	48.2068	-29.1198
10.207	11.8506	13.4911	9.7984	14.4697	18.1876	11.2141	14.6248	17.8266	12.408	14.0073	14.9035	10.169	-3.6483	4.2627	2.7552	7.2332	5.5231	10.2545	4.9404	11.0905	48.6945	-29.1673
10.1405	11.7714	13.3707	9.7288	14.3651	18.0356	11.1191	14.5045	17.6556	12.2845	13.8648	14.7262	10.074	-3.661	4.2912	2.7521	7.2712	5.4788	10.2133	4.9277	11.024	49.1791	-29.2275
10.0803	11.7366	13.2884	9.6781	14.3018	17.9216	11.0747	14.4063	17.5194	12.2053	13.7571	14.5805	9.96	-3.6736	4.326	2.8091	7.2966	5.4534	10.2196	4.9246	11.0114	49.6795	-29.2655
10.0581	11.6828	13.1997	9.6306	14.2448	17.8044	11.0272	14.2796	17.3832	12.1451	13.6368	14.438	9.8681	-3.6831	4.3735	2.8819	7.3187	5.4503	10.1911	4.9309	11.005	50.1767	-29.3067
9.9536	11.6479	13.0952	9.5799	14.1751	17.6809	10.9829	14.2068	17.2375	12.0438	13.5164	14.286	9.7794	-3.7053	4.4242	2.9674	7.3568	5.4154	10.1626	4.9182	10.967	50.6644	-29.3573
9.9283	11.5973	13.0065	9.5419	14.0896	17.5321	10.9132	14.0706	17.1077	11.9393	13.4182	14.1245	9.6654	-3.7211	4.4939	3.0402	7.3821	5.3774	10.1373	4.8961	10.9259	51.1584	-29.4143
9.8871	11.5688	12.9432	9.5293	14.0453	17.4497	10.8942	13.9661	16.9842	11.8981	13.2789	13.9819	9.5514	-3.7148	4.5667	3.1764	7.3758	5.3838	10.112	4.8961	10.8784	51.6239	-29.4682
9.8523	11.5434	12.8767	9.5008	13.9819	17.3705	10.8404	13.8616	16.8575	11.8316	13.1712	13.8394	9.4628	-3.7053	4.6554	3.2778	7.3663	5.3489	10.093	4.9087	10.8214	52.1053	-29.5157
9.8301	11.5212	12.8165	9.5008	13.9408	17.2439	10.7992	13.7476	16.7562	11.7936	13.0667	13.7064	9.3741	-3.6958	4.7345	3.4171	7.3314	5.3458	10.0866	4.9151	10.8024	52.5582	-29.522
9.7953	11.5244	12.7563	9.4754	13.8964	17.1394	10.7865	13.6621	16.6358	11.7303	12.959	13.5797	9.2664	-3.6768	4.8771	3.5913	7.2839	5.3299	10.0613	4.9182	10.7675	53.0047	-29.5569
9.8396	11.5117	12.7437	9.4849	13.8711	17.0982	10.7802	13.5924	16.5408	11.7049	12.8609	13.4721	9.2062	-3.642	4.9784	3.775	7.2047	5.3109	10.0265	4.9436	10.7232	53.4449	-29.5885
9.7984	11.4959	12.674	9.4754	13.8014	17.0159	10.7739	13.4689	16.4331	11.6479	12.7183	13.3074	9.0827	-3.5945	5.0924	3.9175	7.1351	5.2888	9.9758	4.9467	10.682	53.8693	-29.598
9.8111	11.5117	12.6645	9.5071	13.7603	16.9493	10.7675	13.3961	16.3698	11.6163	12.6328	13.187	9.0321	-3.5501	5.2508	4.0917	7.0464	5.3046	9.9315	4.9847	10.5965	54.2937	-29.6107
9.8586	11.5276	12.6582	9.5609	13.7444	16.9018	10.7897	13.3137	16.3096	11.6068	12.5505	13.0825	8.9465	-3.5058	5.4281	4.2563	6.9419	5.3014	9.9156	5.0196	10.568	54.7275	-29.6234
9.8808	11.5434	12.6708	9.5926	13.7191	16.8607	10.796	13.2504	16.2526	11.6131	12.4555	13.0034	8.8959	-3.4678	5.5833	4.3957	6.8564	5.2919	9.884	5.0766	10.511	55.1455	-29.6424
9.9378	11.5973	12.7057	9.6559	13.7096	16.8195	10.8372	13.2187	16.2241	11.6321	12.3573	12.9305	8.861	-3.4234	5.748	4.5604	6.7614	5.3046	9.8396	5.1209	10.4508	55.5668	-29.6645
10.0011	11.6194	12.7152	9.7161	13.6969	16.8005	10.8499	13.1427	16.1766	11.6226	12.2781	12.8419	8.8135	-3.3696	5.881	4.6744	6.6759	5.2888	9.8048	5.1652	10.4128	56.0038	-29.6867
10.0518	11.6321	12.7247	9.7636	13.6748	16.772	10.8815	13.1142	16.145	11.6258	12.199	12.7373	8.7692	-3.3443	5.9918	4.7789	6.6157	5.2983	9.7541	5.1906	10.3622	56.4377	-29.7057
10.0771	11.6701	12.7437	9.8555	13.6684	16.753	10.91	13.0509	16.1069	11.6384	12.1388	12.674	8.7439	-3.2999	6.1407	4.8739	6.5365	5.3173	9.7478	5.2539	10.3463	56.9095	-29.7374
10.1436	11.6701	12.7658	9.8935	13.6494	16.7245	10.929	13.0034	16.0594	11.6416	12.0881	12.6107	8.7059	-3.2809	6.223	4.9436	6.4922	5.3426	9.7161	5.2824	10.3115	57.3561	-29.7975
10.1816	11.6891	12.7944	9.9441	13.6368	16.6802	10.9544	12.9685	16.0309	11.6416	12.0185	12.5442	8.6742	-3.2588	6.3275	5.0481	6.4637	5.3553	9.7288	5.3268	10.2957	57.8469	-29.8419
10.2196	11.7018	12.7944	9.9948	13.5987	16.6802	10.986	12.9337	16.0088	11.6701	11.9678	12.484	8.6362	-3.2841	6.3972	5.1082	6.489	5.3648	9.7098	5.3553	10.2893	58.3505	-29.9274
10.2323	11.6954	12.8165	10.0138	13.5576	16.6453	10.9892	12.8799	15.9708	11.6448	11.9266	12.4238	8.6077	-3.3031	6.4257	5.1621	6.5144	5.3616	9.7034	5.3521	10.2735	58.8793	-30.0224
10.2323	11.6669	12.7785	10.0011	13.5069	16.5788	10.9639	12.8387	15.9264	11.6289	11.8443	12.3573	8.5665	-3.3094	6.4668	5.2064	6.5365	5.3458	9.7066	5.3616	10.2513	59.4336	-30.1364
10.2101	11.6068	12.7563	10.0106	13.4214	16.5028	10.9132	12.7595	15.8726	11.5846	11.7714	12.2496	8.4873	-3.3189	6.4732	5.2476	6.5872	5.3236	9.6749	5.3584	10.2101	59.9878	-30.2251
10.2196	11.5814	12.7437	9.9536	13.3866	16.4648	10.872	12.7215	15.8378	11.5561	11.7208	12.2021	8.443	-3.3538	6.4637	5.2888	6.6315	5.2888	9.6623	5.3014	10.1785	60.5641	-30.3676
10.1753	11.5434	12.7152	9.903	13.3042	16.4078	10.8024	12.6423	15.7808	11.4864	11.6163	12.0945	8.367	-3.3601	6.4637	5.3109	6.6632	5.2349	9.6274	5.2571	10.1056	61.1627	-30.4974
10.1595	11.4801	12.693	9.8364	13.2346	16.3255	10.7549	12.5727	15.7428	11.4389	11.5498	12.0406	8.3068	-3.3918	6.4478	5.3426	6.7107	5.1969	9.6084	5.2032	10.036	61.7391	-30.6241
10.1215	11.4326	12.6233	9.7984	13.1427	16.2811	10.6788	12.465	15.6826	11.3724	11.4896	11.9741	8.234	-3.4044	6.4193	5.3774	6.7424	5.1494	9.5926	5.1526	9.9758	62.3408	-30.7571
10.0835	11.4009	12.6107	9.7383	13.0762	16.2431	10.6123	12.4175	15.6509	11.2996	11.4357	11.9393	8.1738	-3.4013	6.4162	5.4091	6.7519	5.1051	9.5356	5.1177	9.9283	62.9267	-30.8965
10.0581	11.3597	12.5885	9.6781	13.0034	16.183	10.5617	12.3953	15.6287	11.2489	11.4041	11.8823	8.139	-3.4044	6.4098	5.4281	6.7455	5.0386	9.5103	5.0829	9.865	63.5062	-31.0421
10.0613	11.3661	12.5917	9.6591	12.9749	16.1861	10.4888	12.37	15.6287	11.2236	11.3787	11.8379	8.0883	-3.3949	6.3908	5.4439	6.7265	5.0132	9.5103	5.0449	9.8174	64.0699	-31.1815
10.0265	11.3376	12.5632	9.6243	12.921	16.1513	10.473	12.3225	15.6097	11.1697	11.3376	11.8316	8.0471	-3.3823	6.4003	5.4439	6.7075	4.9531	9.4849	4.9879	9.7509	64.6431	-31.3208
10.0201	11.3376	12.5727	9.5831	12.902	16.164	10.4223	12.2781	15.6382	11.1412	11.3312	11.8189	8.0281	-3.3664	6.3782	5.4344	6.66	4.9309	9.4786	4.9309	9.7256	65.21	-31.4633
10.0296	11.3471	12.5885	9.5673	12.8989	16.164	10.4128	12.2876	15.6541	11.1254	11.3249	11.8031	8.0028	-3.3348	6.4162	5.4566	6.603	4.8961	9.4754	4.9182	9.6686	65.7579	-31.59
10.0138	11.3597	12.5758	9.5483	12.883	16.1355	10.378	12.2465	15.6889	11.1096	11.3186	11.8316	7.9806	-3.3253	6.4035	5.3996	6.5777	4.8454	9.4691	4.8929	9.6274	66.3469	-31.7262
10.0106	11.3756	12.6075	9.5356	12.8862	16.164	10.3748	12.2655	15.7238	11.0905	11.3217	11.8474	7.9806	-3.2904	6.4383	5.3869	6.5207	4.8264	9.4818	4.8866	9.6084	66.9043	-31.8687
10.0106	11.3977	12.5853	9.4976	12.8957	16.183	10.3242	12.2971	15.7491	11.0747	11.3344	11.8538	7.9806	-3.2841	6.4637	5.3489	6.4827	4.782	9.5039	4.8264	9.5641	67.4744	-31.9574
9.9631	11.3851	12.5695	9.4564	12.8735	16.164	10.3147	12.2591	15.7681	11.062	11.3502	11.8664	7.9553	-3.2556	6.47	5.3331	6.4605	4.744	9.4913	4.8105	9.5388	68.0539	-32.0809
9.9505	11.4199	12.5632	9.4247	12.8704	16.164	10.2862	12.2718	15.7586	11.0494	11.3534	11.8854	7.9331	-3.2398	6.5365	5.3141	6.4193	4.7155	9.5198	4.7757	9.5008	68.6335	-32.2076
9.903	11.4041	12.56	9.3614	12.8894	16.1735	10.2481	12.2718	15.7839	11.0399	11.3566	11.8949	7.9331	-3.2461	6.603	5.2983	6.4003	4.6617	9.5388	4.7567	9.4944	69.2162	-32.3184
9.8618	11.4136	12.5252	9.3107	12.8704	16.1323	10.2291	12.2528	15.7681	11.0145	11.3407	11.9076	7.9458	-3.2208	6.6569	5.2793	6.3845	4.6142	9.5419	4.7029	9.4596	69.7957	-32.4387
9.8143	11.3566	12.4587	9.2221	12.845	16.0943	10.1626	12.2243	15.7333	10.9607	11.3344	11.8823	7.8825	-3.2208	6.7107	5.2761	6.3687	4.5635	9.5261	4.668	9.4121	70.3689	-32.5369
9.7668	11.3281	12.446	9.1746	12.826	16.0499	10.1405	12.2116	15.7079	10.9544	11.3154	11.8759	7.8666	-3.2049	6.7614	5.2571	6.3433	4.5445	9.5229	4.6269	9.3614	70.9421	-32.6509
9.7129	11.2901	12.3858	9.0859	12.7753	15.9961	10.0771	12.1895	15.6731	10.9069	11.2742	11.8284	7.8001	-3.2018	6.7899	5.2508	6.3307	4.478	9.5071	4.5794	9.3456	71.4964	-32.7459
9.6591	11.2489	12.3415	9.0099	12.7595	15.9423	10.0518	12.1705	15.6319	10.8847	11.2711	11.8189	7.7685	-3.1733	6.8595	5.2381	6.2895	4.478	9.4944	4.5604	9.3012	72.0252	-32.8504
9.5736	11.1697	12.2623	8.9592	12.7057	15.8884	9.9853	12.1103	15.5781	10.8024	11.2331	11.7778	7.7146	-3.1669	6.8532	5.2317	6.2832	4.4179	9.4659	4.5192	9.2347	72.5699	-32.9423
9.4818	11.1	12.1958	8.8674	12.6677	15.7871	9.9156	12.0881	15.5084	10.7612	11.2077	11.7334	7.6291	-3.1543	6.8912	5.2444	6.2578	4.3545	9.4311	4.4685	9.1714	73.0671	-33.0215
9.4374	11.0589	12.1483	8.8072	12.6518	15.7364	9.9061	12.047	15.4736	10.7105	11.1697	11.7049	7.6228	-3.1257	6.9039	5.2824	6.2072	4.3133	9.4089	4.4464	9.1271	73.5548	-33.088
9.3867	10.9987	12.0691	8.7122	12.6075	15.6667	9.884	12.0311	15.4324	10.6788	11.1444	11.7049	7.5943	-3.1194	6.9102	5.3109	6.1913	4.3133	9.3772	4.459	9.0827	74.0331	-33.1925
9.3171	10.9354	12.0185	8.6932	12.5885	15.5939	9.8491	11.99	15.3912	10.6472	11.1064	11.6638	7.5309	-3.1036	6.9166	5.3426	6.1565	4.2437	9.3424	4.4084	9.0669	74.5018	-33.2653
9.2727	10.891	11.9836	8.6299	12.5663	15.5369	9.8238	11.99	15.3596	10.6187	11.0842	11.6416	7.5088	-3.0751	6.9007	5.3964	6.1217	4.2405	9.3361	4.4084	9.0162	74.9578	-33.354
9.2474	10.8625	11.9361	8.6394	12.579	15.5147	9.8428	11.9678	15.3279	10.625	11.0842	11.6353	7.4961	-3.0466	6.8944	5.4503	6.0678	4.2532	9.3329	4.4337	8.9972	75.3948	-33.4363
9.1841	10.8214	11.8791	8.6077	12.5758	15.4261	9.8269	11.9488	15.2677	10.587	11.062	11.6131	7.4708	-3.0497	6.8595	5.4693	6.0425	4.2247	9.3171	4.4274	8.9719	75.8382	-33.5218
9.1334	10.7707	11.7904	8.5633	12.5473	15.3786	9.8333	11.9076	15.198	10.5268	11.0177	11.5846	7.4043	-3.0529	6.8437	5.4788	6.0456	4.1803	9.3107	4.3925	8.9339	76.2689	-33.62
9.1112	10.7454	11.7714	8.5665	12.5157	15.3121	9.7953	11.8823	15.1885	10.5173	10.986	11.5466	7.3853	-3.0402	6.8184	5.4946	6.0456	4.1613	9.2949	4.402	8.9022	76.6933	-33.7213
9.1144	10.7264	11.7429	8.5792	12.5252	15.3057	9.8111	11.8569	15.141	10.4857	10.9829	11.5149	7.3473	-3.0592	6.8152	5.5041	6.071	4.1138	9.2981	4.3767	8.8927	77.1176	-33.8607
9.0669	10.6883	11.6859	8.5348	12.4935	15.2012	9.7826	11.8063	15.0935	10.4445	10.9322	11.4484	7.2871	-3.0846	6.7614	5.4629	6.128	4.0663	9.2981	4.3355	8.8515	77.5547	-33.9937
9.0796	10.663	11.7018	8.5697	12.484	15.1695	9.8016	11.7936	15.0682	10.4192	10.9037	11.4326	7.2396	-3.0941	6.7582	5.4534	6.1755	4.0473	9.3107	4.3418	8.8199	78.0012	-34.1394
9.0669	10.6788	11.6828	8.5982	12.4967	15.1442	9.7921	11.7778	15.0365	10.3938	10.8879	11.4041	7.2079	-3.1352	6.7677	5.4439	6.242	4.0157	9.3139	4.2975	8.8515	78.4477	-34.3231
9.0732	10.6757	11.6511	8.595	12.484	15.1157	9.8016	11.7493	15.0017	10.3622	10.872	11.3756	7.1541	-3.1733	6.7677	5.4123	6.3117	3.9713	9.3392	4.2817	8.8357	78.9228	-34.4846
9.1207	10.6852	11.6574	8.6394	12.503	15.0999	9.8174	11.7303	14.9922	10.3305	10.853	11.3281	7.1129	-3.2208	6.755	5.4059	6.4003	3.9206	9.3361	4.2437	8.8547	79.401	-34.6714
9.1081	10.682	11.6448	8.6362	12.4713	15.0555	9.8333	11.6923	14.9415	10.2893	10.8055	11.2837	7.0337	-3.2683	6.7772	5.4059	6.4922	3.851	9.3456	4.174	8.8135	79.9045	-34.8551
