"FZ"	"FC3"	"FCZ"	"FC4"	"C3"	"CZ"	"C4"	"CP3"	"CPZ"	"CP4"	"P3"	"PZ"	"P4"	"OZ"	"FP1"	"FP2"	"A2"	"P8"	"TP7"	"TP8"	"P7"
-0.8999	-1.0214	-1.6856	-0.8214	-1.0571	-1.5928	-0.7964	-0.8607	-1.6606	-0.8071	-1.0606	-1.6463	-0.7535	0.0393	0.0036	0.1036	-0.0679	-0.3821	0.1143	-0.3107	-0.2036
-0.8642	-1.0142	-1.6535	-0.6964	-1.0178	-1.5106	-0.7642	-0.8107	-1.6035	-0.7964	-0.9964	-1.5963	-0.7392	0.0214	-0.0179	-0.0143	-0.0143	-0.3964	0.1071	-0.275	-0.1964
-0.8642	-1.0142	-1.6035	-0.6142	-0.9999	-1.4713	-0.7071	-0.7714	-1.5606	-0.7892	-0.9178	-1.5213	-0.7142	0	-0.025	-0.1357	0.0393	-0.3893	0.1143	-0.2286	-0.1964
-0.8357	-0.9928	-1.5499	-0.5214	-0.9464	-1.4071	-0.6464	-0.7285	-1.4892	-0.7571	-0.8499	-1.4713	-0.7142	-0.025	-0.0571	-0.2143	0.0893	-0.4035	0.125	-0.25	-0.1571
-0.7857	-0.9857	-1.4678	-0.3964	-0.9035	-1.2963	-0.5892	-0.6928	-1.4428	-0.7178	-0.8035	-1.4071	-0.7071	-0.0429	-0.0143	-0.25	0.1214	-0.3928	0.1178	-0.1964	-0.1464
-0.7571	-0.9428	-1.4106	-0.2786	-0.8678	-1.2321	-0.5357	-0.6607	-1.3713	-0.7	-0.7464	-1.3428	-0.6964	-0.05	-0.0214	-0.3143	0.1428	-0.4071	0.1286	-0.1964	-0.1178
-0.7214	-0.9285	-1.3392	-0.1786	-0.8321	-1.1785	-0.4857	-0.6178	-1.3035	-0.6785	-0.6714	-1.2535	-0.6464	-0.0571	0.0464	-0.3286	0.15	-0.4107	0.125	-0.1821	-0.1178
-0.6785	-0.9107	-1.2535	-0.0929	-0.8249	-1.0964	-0.425	-0.5928	-1.2571	-0.6464	-0.6392	-1.2356	-0.6535	-0.0821	0.0679	-0.3036	0.1964	-0.4071	0.0964	-0.1357	-0.0929
-0.6392	-0.8785	-1.1928	0.0321	-0.7821	-1.0142	-0.3821	-0.5678	-1.2321	-0.6178	-0.6071	-1.1714	-0.625	-0.075	0.1464	-0.2607	0.1928	-0.4035	0.0893	-0.1107	-0.0786
-0.5714	-0.8571	-1.1249	0.1	-0.7678	-0.9428	-0.3571	-0.5678	-1.1606	-0.6035	-0.5678	-1.1285	-0.625	-0.1	0.2	-0.2286	0.2286	-0.4571	0.05	-0.0893	-0.075
-0.525	-0.8285	-1.0285	0.1678	-0.7607	-0.8678	-0.2821	-0.5428	-1.0749	-0.5714	-0.5178	-1.0499	-0.6071	-0.1036	0.2643	-0.1821	0.2321	-0.4214	0.0536	-0.0821	-0.0607
-0.475	-0.7678	-0.9035	0.2393	-0.6821	-0.7821	-0.2143	-0.5035	-1.0214	-0.5321	-0.475	-0.9821	-0.5714	-0.1071	0.325	-0.1178	0.2393	-0.4393	0.0571	-0.0321	-0.0071
-0.3821	-0.7142	-0.8392	0.3	-0.6964	-0.7107	-0.1821	-0.5143	-0.9571	-0.4893	-0.4357	-0.9249	-0.5321	-0.1036	0.3643	-0.0286	0.2464	-0.4464	0.0821	0.0143	0.0286
-0.3214	-0.6678	-0.7071	0.3607	-0.6678	-0.5857	-0.125	-0.4678	-0.8892	-0.4285	-0.3964	-0.8321	-0.4928	-0.1107	0.4571	0.0571	0.2428	-0.4571	0.0964	0.0714	0.0786
-0.2357	-0.6214	-0.5607	0.4143	-0.6142	-0.4928	-0.0679	-0.425	-0.8142	-0.35	-0.325	-0.7285	-0.4428	-0.1071	0.5393	0.1036	0.2321	-0.4107	0.1393	0.1607	0.1286
-0.1643	-0.5643	-0.4785	0.4464	-0.5892	-0.4107	0.0071	-0.4	-0.7071	-0.2821	-0.2964	-0.6571	-0.3893	-0.1071	0.5714	0.1678	0.2428	-0.3714	0.1536	0.225	0.1571
-0.0786	-0.4893	-0.3571	0.4928	-0.5428	-0.3071	0.0393	-0.3893	-0.6107	-0.2321	-0.2607	-0.5857	-0.3321	-0.1143	0.6357	0.2643	0.2428	-0.3678	0.175	0.3321	0.2036
-0.0286	-0.4357	-0.2357	0.5071	-0.5143	-0.2321	0.0607	-0.3607	-0.5393	-0.175	-0.2036	-0.5035	-0.275	-0.1	0.6678	0.3643	0.2286	-0.3357	0.2036	0.425	0.2321
0.0786	-0.3893	-0.1321	0.5357	-0.4607	-0.1393	0.1178	-0.3393	-0.4607	-0.1286	-0.1786	-0.4464	-0.2714	-0.1107	0.6964	0.4571	0.2357	-0.325	0.2071	0.5	0.25
0.1071	-0.3321	-0.025	0.5393	-0.4464	-0.0643	0.1678	-0.3321	-0.3714	-0.0714	-0.1357	-0.3535	-0.2178	-0.1107	0.7392	0.5035	0.2393	-0.3178	0.1786	0.5678	0.2786
0.1571	-0.3071	0.0286	0.5535	-0.45	0.025	0.2071	-0.3643	-0.325	-0.0107	-0.1428	-0.3143	-0.1928	-0.1107	0.7107	0.5393	0.2428	-0.3036	0.15	0.6178	0.2536
0.2178	-0.2536	0.15	0.5464	-0.4393	0.0643	0.25	-0.3393	-0.2607	0.0214	-0.1357	-0.2928	-0.1607	-0.1071	0.75	0.6035	0.2464	-0.2928	0.1143	0.7035	0.25
0.2678	-0.2	0.2393	0.55	-0.3893	0.1393	0.2964	-0.3393	-0.2036	0.0786	-0.125	-0.2428	-0.125	-0.0964	0.7714	0.6714	0.2214	-0.2893	0.075	0.75	0.2464
0.2928	-0.1678	0.3	0.5607	-0.3678	0.1857	0.3286	-0.3607	-0.1321	0.1214	-0.1286	-0.1928	-0.1036	-0.0964	0.7642	0.6714	0.2107	-0.3	0.0536	0.7392	0.2357
0.3643	-0.1286	0.3928	0.5357	-0.3535	0.25	0.3607	-0.3535	-0.0857	0.1643	-0.125	-0.1607	-0.1036	-0.0964	0.7714	0.7035	0.2	-0.3143	0.025	0.7178	0.2178
0.4143	-0.0786	0.4214	0.525	-0.3286	0.2857	0.4035	-0.3107	-0.025	0.2	-0.1071	-0.1321	-0.075	-0.0857	0.75	0.7214	0.1821	-0.3143	0	0.7178	0.225
0.4535	-0.05	0.5107	0.5357	-0.2893	0.2964	0.4107	-0.3107	0.0429	0.2678	-0.0929	-0.0714	-0.0714	-0.075	0.7285	0.7107	0.1678	-0.35	-0.0286	0.6428	0.2321
0.5035	-0.0071	0.5464	0.5071	-0.2643	0.3214	0.4357	-0.2714	0.0714	0.2786	-0.0643	-0.0321	-0.0607	-0.0643	0.7071	0.7214	0.15	-0.3785	-0.0321	0.5428	0.2214
0.5107	0.0286	0.6107	0.5035	-0.2178	0.3678	0.4785	-0.25	0.1464	0.3071	-0.0214	0.025	-0.0464	-0.0571	0.6428	0.7178	0.1321	-0.4035	-0.05	0.4178	0.2536
0.5107	0.0643	0.6285	0.4571	-0.175	0.4035	0.4785	-0.1857	0.1857	0.3214	-0.025	0.0607	-0.05	-0.0286	0.6035	0.7142	0.0893	-0.4143	-0.0321	0.3428	0.2607
0.525	0.0857	0.6607	0.4393	-0.1857	0.4035	0.4643	-0.1714	0.2321	0.3143	-0.0179	0.075	-0.0393	-0.0286	0.525	0.6678	0.0821	-0.4678	-0.0714	0.1928	0.2393
0.5535	0.1357	0.7	0.4035	-0.1036	0.4464	0.4678	-0.1357	0.25	0.3357	0.0107	0.1321	-0.0286	-0.0179	0.4535	0.6464	0.0393	-0.4857	-0.0571	0.0786	0.2643
0.5464	0.1643	0.6892	0.3785	-0.1071	0.4571	0.4428	-0.1	0.2786	0.3214	0.0321	0.1393	-0.0321	-0.0107	0.3964	0.6178	0.0286	-0.5071	-0.0714	-0.0607	0.2786
0.5571	0.1821	0.7607	0.3643	-0.0393	0.4571	0.4285	-0.0536	0.3393	0.3357	0.0571	0.1714	-0.025	0.0107	0.3	0.5535	-0.0071	-0.4928	-0.0571	-0.1571	0.2893
0.5321	0.2143	0.7428	0.3107	-0.025	0.4821	0.3857	-0.025	0.3643	0.3071	0.075	0.1964	-0.0357	0.025	0.2428	0.5107	-0.0357	-0.4857	-0.075	-0.2286	0.2786
0.55	0.2286	0.7678	0.2786	0.0357	0.5071	0.3571	0.0357	0.4285	0.3143	0.0929	0.2393	-0.0179	0.0393	0.1357	0.4285	-0.0607	-0.4464	-0.0786	-0.2714	0.2678
0.5357	0.225	0.7714	0.2464	0.0821	0.525	0.3321	0.0464	0.4535	0.3143	0.1071	0.2678	-0.0107	0.0643	0.1	0.3857	-0.1036	-0.3928	-0.0964	-0.2857	0.2714
0.5214	0.2536	0.7821	0.2536	0.1214	0.5178	0.3143	0.0964	0.5	0.3143	0.1571	0.3143	0.0393	0.0964	0.0179	0.3036	-0.1571	-0.3428	-0.1178	-0.2857	0.2714
0.5035	0.25	0.7821	0.2428	0.15	0.5643	0.3071	0.1464	0.5535	0.325	0.1643	0.3535	0.0714	0.1214	-0.0107	0.2428	-0.2214	-0.275	-0.1036	-0.2857	0.2643
0.475	0.2464	0.8214	0.2357	0.1928	0.6	0.3321	0.1821	0.6107	0.3393	0.1893	0.4	0.1286	0.1464	-0.0429	0.1821	-0.2714	-0.1893	-0.125	-0.2821	0.2357
0.5	0.2893	0.8464	0.2714	0.2286	0.6535	0.3428	0.2571	0.6392	0.3964	0.2178	0.4785	0.2	0.1821	-0.0607	0.1393	-0.3535	-0.1178	-0.125	-0.2607	0.2464
0.5	0.275	0.8428	0.2821	0.2536	0.6857	0.3928	0.2928	0.7035	0.4	0.2571	0.525	0.2571	0.2214	-0.1036	0.05	-0.4178	-0.0429	-0.1321	-0.2571	0.2286
0.475	0.25	0.8571	0.2964	0.2786	0.7142	0.4035	0.325	0.7035	0.4214	0.2786	0.5643	0.325	0.2571	-0.1143	0.0179	-0.4821	-0.0071	-0.1464	-0.25	0.175
0.4785	0.2571	0.8642	0.3607	0.3321	0.7464	0.4428	0.3928	0.7607	0.4714	0.3143	0.6178	0.3821	0.2821	-0.1643	-0.0607	-0.5428	0.0464	-0.1571	-0.2857	0.1607
0.4785	0.2464	0.8214	0.3535	0.3321	0.7714	0.4428	0.4143	0.7892	0.4928	0.3321	0.6642	0.4285	0.3178	-0.1678	-0.1214	-0.6	0.0964	-0.175	-0.3036	0.1536
0.4607	0.25	0.8285	0.3607	0.3678	0.8178	0.475	0.4428	0.8178	0.4928	0.3678	0.7035	0.4678	0.325	-0.1821	-0.1607	-0.6428	0.15	-0.175	-0.3785	0.1178
0.4357	0.2571	0.8107	0.375	0.3857	0.8035	0.4893	0.45	0.7964	0.5214	0.3821	0.7142	0.4928	0.3571	-0.2178	-0.1714	-0.6607	0.1786	-0.1786	-0.4214	0.1071
0.45	0.2321	0.8249	0.3928	0.4107	0.8321	0.5071	0.5071	0.8142	0.5321	0.4071	0.7714	0.5607	0.3464	-0.1928	-0.1786	-0.6928	0.2107	-0.1714	-0.4035	0.0786
0.4107	0.2393	0.7964	0.4071	0.4357	0.8142	0.5143	0.4928	0.8071	0.5428	0.4214	0.8035	0.5714	0.3571	-0.1786	-0.1893	-0.6821	0.2428	-0.2107	-0.4428	0.0214
0.4357	0.2643	0.8	0.4107	0.4535	0.8428	0.5	0.5357	0.8357	0.525	0.4357	0.8	0.5928	0.3535	-0.2107	-0.1786	-0.675	0.2643	-0.2036	-0.4571	-0.0071
0.4321	0.2714	0.7892	0.3964	0.4857	0.8464	0.5071	0.5357	0.8178	0.5035	0.4321	0.7964	0.6178	0.35	-0.2286	-0.1678	-0.6464	0.2964	-0.2464	-0.4535	-0.0393
0.3928	0.2714	0.7607	0.3678	0.4785	0.8392	0.4964	0.5285	0.7821	0.4893	0.4107	0.8035	0.6107	0.3178	-0.2357	-0.1607	-0.6142	0.3071	-0.25	-0.4464	-0.1214
0.3893	0.3178	0.7142	0.3678	0.5	0.8285	0.5035	0.5035	0.7714	0.475	0.3893	0.8142	0.6285	0.3178	-0.2393	-0.1286	-0.5785	0.3893	-0.2607	-0.3964	-0.1786
0.3321	0.3036	0.6892	0.325	0.4535	0.8	0.4607	0.4857	0.7357	0.4357	0.3714	0.7928	0.5964	0.2786	-0.2786	-0.1393	-0.5178	0.4	-0.2714	-0.3678	-0.2571
0.3036	0.2786	0.6535	0.2821	0.4535	0.775	0.4393	0.45	0.6892	0.3785	0.3071	0.7428	0.575	0.2607	-0.2786	-0.1071	-0.4857	0.4393	-0.3	-0.3	-0.3036
0.2964	0.2607	0.6035	0.2428	0.4178	0.75	0.3964	0.3964	0.6607	0.3571	0.2821	0.7	0.5714	0.2464	-0.3321	-0.1	-0.4357	0.4714	-0.35	-0.2357	-0.3857
0.25	0.2928	0.5714	0.2321	0.4071	0.7107	0.3714	0.325	0.6035	0.3214	0.225	0.6428	0.525	0.2143	-0.3607	-0.0857	-0.3964	0.4893	-0.3857	-0.1643	-0.4857
0.1964	0.2964	0.5214	0.1857	0.3714	0.6892	0.3678	0.325	0.55	0.3143	0.1964	0.6321	0.5357	0.2071	-0.35	-0.0964	-0.3678	0.5357	-0.4035	-0.0643	-0.4964
0.1571	0.2428	0.4928	0.1857	0.3321	0.6464	0.3357	0.225	0.4893	0.2714	0.1071	0.5535	0.4964	0.1857	-0.4071	-0.1286	-0.3321	0.5393	-0.4643	-0.0036	-0.6035
0.1178	0.1928	0.4107	0.1536	0.275	0.575	0.3036	0.1678	0.425	0.2571	0.0536	0.4785	0.4393	0.1643	-0.4285	-0.1464	-0.3	0.5357	-0.4928	0.0071	-0.6642
0.0536	0.175	0.3785	0.1357	0.2107	0.5464	0.2928	0.1143	0.3535	0.2428	-0.0286	0.4178	0.4285	0.1607	-0.4678	-0.1786	-0.2893	0.5285	-0.5393	0.025	-0.7357
-0.0036	0.1428	0.3393	0.1393	0.1428	0.4964	0.2643	0.025	0.3	0.2	-0.1	0.3643	0.3893	0.1678	-0.4893	-0.2178	-0.2857	0.5214	-0.5892	0.0143	-0.7928
-0.0357	0.1036	0.2857	0.1643	0.1107	0.4607	0.2643	-0.0036	0.2536	0.1964	-0.1143	0.3	0.3857	0.1643	-0.5285	-0.2321	-0.2964	0.5285	-0.6	0.0036	-0.7928
-0.05	0.1178	0.2857	0.1928	0.075	0.4143	0.3	-0.0321	0.2214	0.2178	-0.1643	0.2678	0.3428	0.15	-0.5535	-0.275	-0.2928	0.5357	-0.6142	0.0143	-0.8142
-0.0821	0.0893	0.2678	0.2036	0.0679	0.3678	0.3143	-0.0714	0.1786	0.2214	-0.2	0.2214	0.3428	0.1821	-0.5892	-0.3571	-0.3107	0.5464	-0.6392	-0.0071	-0.8392
-0.1107	0.0857	0.2464	0.2357	0.0464	0.3464	0.3036	-0.0964	0.1357	0.2286	-0.2107	0.1964	0.3357	0.1714	-0.6321	-0.3857	-0.3143	0.5321	-0.6357	-0.0536	-0.8249
-0.1286	0.1143	0.2571	0.2786	0.05	0.35	0.3678	-0.1	0.1393	0.2357	-0.2286	0.1857	0.325	0.1964	-0.625	-0.4143	-0.3464	0.5535	-0.6	-0.0607	-0.7857
-0.15	0.1464	0.25	0.3071	0.0286	0.3143	0.3785	-0.1357	0.1178	0.2321	-0.2428	0.15	0.3	0.2071	-0.6535	-0.4821	-0.3607	0.5035	-0.5964	-0.0964	-0.7714
-0.1393	0.1786	0.2536	0.3678	0.0714	0.3178	0.4107	-0.1	0.1357	0.2428	-0.2071	0.1393	0.3	0.2214	-0.6642	-0.5107	-0.3928	0.525	-0.5393	-0.1071	-0.7071
-0.1571	0.2036	0.2357	0.375	0.0893	0.2786	0.3928	-0.0786	0.1321	0.2357	-0.2178	0.1321	0.3036	0.2178	-0.6714	-0.5785	-0.3964	0.5035	-0.5143	-0.1428	-0.6714
-0.175	0.2214	0.2	0.4178	0.1143	0.2607	0.4143	-0.0571	0.15	0.2321	-0.1857	0.1393	0.2678	0.2214	-0.675	-0.6071	-0.4178	0.5143	-0.4607	-0.1821	-0.6321
-0.2036	0.25	0.2107	0.425	0.1393	0.2428	0.4428	-0.0429	0.1393	0.2357	-0.1571	0.1214	0.25	0.2321	-0.6642	-0.625	-0.425	0.4893	-0.4285	-0.175	-0.6035
-0.2107	0.2643	0.2036	0.4071	0.1786	0.2464	0.3928	-0.0286	0.1714	0.2	-0.1607	0.125	0.2214	0.2393	-0.6678	-0.6392	-0.4357	0.4571	-0.3571	-0.2071	-0.5178
-0.2107	0.2928	0.1893	0.375	0.1536	0.2036	0.3571	0.0107	0.15	0.1678	-0.1357	0.1	0.1928	0.2393	-0.675	-0.6392	-0.4285	0.4428	-0.3107	-0.2107	-0.4571
-0.2071	0.3178	0.1964	0.3571	0.2107	0.2036	0.3214	0.0321	0.1928	0.1678	-0.1107	0.1107	0.175	0.2214	-0.6642	-0.6464	-0.4035	0.4143	-0.2571	-0.225	-0.4071
-0.2286	0.3143	0.1464	0.3	0.2178	0.175	0.2714	0.0643	0.1964	0.125	-0.0714	0.1107	0.1643	0.2107	-0.65	-0.6285	-0.3893	0.3821	-0.1964	-0.2	-0.325
-0.1964	0.3321	0.1357	0.2178	0.25	0.15	0.1964	0.0929	0.1714	0.0964	-0.05	0.1214	0.1286	0.2	-0.6357	-0.5785	-0.3393	0.3464	-0.15	-0.1857	-0.2928
-0.2428	0.3036	0.1214	0.1286	0.2643	0.1178	0.1286	0.1357	0.1893	0.05	-0.0179	0.1178	0.0964	0.1643	-0.575	-0.5393	-0.2786	0.3286	-0.075	-0.1393	-0.2036
-0.2214	0.3143	0.1107	0.0321	0.2964	0.0714	0.0536	0.1964	0.2107	0.0214	0.0643	0.1607	0.0857	0.1393	-0.5464	-0.5	-0.2357	0.3321	0.0321	-0.0821	-0.1
-0.2107	0.3321	0.0643	-0.0679	0.3464	0.0571	-0.0321	0.2214	0.2143	0	0.1107	0.1928	0.0429	0.1143	-0.4535	-0.4107	-0.1571	0.2928	0.0786	-0.05	-0.0071
-0.2107	0.3071	0.0429	-0.1857	0.35	-0.0036	-0.1143	0.2607	0.2036	-0.0571	0.1571	0.175	0.0107	0.0571	-0.4	-0.3535	-0.0643	0.2786	0.175	0.0107	0.0679
-0.2036	0.3143	0.0179	-0.2964	0.3928	-0.0393	-0.1893	0.3	0.2178	-0.1	0.1964	0.1893	0.0036	0.0071	-0.3214	-0.2643	0.0321	0.275	0.2428	0.0679	0.1571
-0.2178	0.2857	-0.0536	-0.4035	0.3928	-0.075	-0.2821	0.3321	0.2	-0.1393	0.2321	0.1893	0.0071	-0.0607	-0.25	-0.2036	0.1464	0.2393	0.3143	0.1	0.2036
-0.2143	0.3	-0.1036	-0.5285	0.4357	-0.1143	-0.4178	0.3428	0.2107	-0.2036	0.2786	0.2	-0.0464	-0.0929	-0.1821	-0.15	0.2428	0.25	0.3643	0.1607	0.2571
-0.2286	0.2928	-0.1607	-0.6607	0.4285	-0.1893	-0.5071	0.3821	0.1964	-0.275	0.3107	0.2071	-0.0571	-0.1607	-0.1178	-0.0679	0.3571	0.2036	0.3821	0.2	0.3071
-0.225	0.2893	-0.2107	-0.7642	0.4464	-0.25	-0.6142	0.4107	0.1678	-0.2928	0.3428	0.2178	-0.1178	-0.2178	-0.0786	-0.0464	0.4678	0.1571	0.4428	0.225	0.3393
-0.1928	0.2928	-0.25	-0.8464	0.4785	-0.2857	-0.6678	0.4035	0.1571	-0.325	0.375	0.1964	-0.1107	-0.2571	-0.025	0.0214	0.5643	0.15	0.5143	0.2571	0.3893
-0.2143	0.2857	-0.3286	-0.9535	0.4643	-0.3393	-0.7392	0.4071	0.1357	-0.3607	0.3964	0.1893	-0.1428	-0.3107	0.0464	0.05	0.6392	0.1143	0.5357	0.25	0.4464
-0.1893	0.3178	-0.35	-0.9964	0.4785	-0.4	-0.8178	0.425	0.0893	-0.4	0.425	0.1857	-0.1571	-0.3357	0.0857	0.0786	0.6964	0.0679	0.5714	0.275	0.4643
-0.2107	0.2964	-0.4178	-1.0821	0.4464	-0.45	-0.8678	0.4285	0.0571	-0.425	0.4285	0.1678	-0.1714	-0.3678	0.1286	0.0929	0.7607	0.0393	0.6142	0.2893	0.4857
-0.1893	0.2928	-0.4714	-1.1178	0.45	-0.4893	-0.9071	0.4393	0.0179	-0.4393	0.4428	0.1607	-0.1928	-0.3893	0.1786	0.1036	0.8	0.0143	0.6571	0.2893	0.5321
-0.1857	0.2607	-0.5393	-1.1606	0.4035	-0.5535	-0.9142	0.3857	0	-0.4535	0.4285	0.125	-0.2	-0.4178	0.2071	0.1321	0.8499	-0.0321	0.6571	0.2678	0.5
-0.1857	0.2786	-0.6107	-1.1785	0.3821	-0.5928	-0.9321	0.3321	-0.0536	-0.4643	0.4035	0.0929	-0.2143	-0.4321	0.225	0.1357	0.8821	-0.025	0.6678	0.2321	0.4857
-0.2143	0.2357	-0.6464	-1.2214	0.3286	-0.6571	-0.9321	0.3071	-0.1143	-0.4678	0.3964	0.0786	-0.2036	-0.4285	0.2607	0.1393	0.8928	-0.0571	0.6571	0.2036	0.4785
-0.1893	0.2071	-0.7107	-1.2214	0.275	-0.7107	-0.9392	0.2571	-0.1714	-0.4678	0.3571	0.0179	-0.2071	-0.4357	0.3036	0.1536	0.8928	-0.0786	0.6607	0.1571	0.4643
-0.2	0.175	-0.8107	-1.2428	0.225	-0.7785	-0.9178	0.2143	-0.2107	-0.475	0.3214	0	-0.1893	-0.4143	0.3393	0.1821	0.8678	-0.0786	0.6642	0.1214	0.475
-0.2321	0.1428	-0.8857	-1.2499	0.1714	-0.8285	-0.9285	0.1571	-0.2786	-0.4464	0.2857	-0.0286	-0.1893	-0.4035	0.3357	0.2036	0.8321	-0.075	0.6821	0.0679	0.4571
-0.2821	0.075	-0.9642	-1.2642	0.0857	-0.9071	-0.9142	0.0893	-0.35	-0.4678	0.225	-0.1036	-0.2286	-0.3964	0.325	0.2036	0.8178	-0.1143	0.6607	-0.0036	0.4143
-0.3535	0.0393	-1.0535	-1.2856	0.0143	-0.9714	-0.9142	0.0321	-0.4285	-0.4785	0.1893	-0.175	-0.2428	-0.3928	0.3143	0.2107	0.7857	-0.1321	0.6714	-0.0821	0.3678
-0.4321	-0.0357	-1.1749	-1.3178	-0.0536	-1.0749	-0.9357	-0.0571	-0.4893	-0.5	0.1393	-0.2321	-0.2464	-0.3785	0.3	0.1893	0.7428	-0.1321	0.675	-0.1321	0.3571
-0.4785	-0.0929	-1.2571	-1.2892	-0.1357	-1.1464	-0.9499	-0.0893	-0.5785	-0.5178	0.1	-0.2714	-0.2714	-0.3393	0.2464	0.1143	0.6964	-0.1571	0.6571	-0.1857	0.3286
-0.5714	-0.1607	-1.3535	-1.2892	-0.2071	-1.2071	-0.9464	-0.1714	-0.6678	-0.5285	0.0429	-0.3393	-0.3107	-0.3071	0.225	0.0536	0.6428	-0.1464	0.625	-0.225	0.3
-0.6535	-0.2393	-1.4285	-1.2999	-0.2928	-1.2999	-0.9571	-0.2393	-0.7357	-0.5464	-0.0107	-0.4107	-0.3357	-0.3	0.1678	-0.0286	0.6071	-0.1536	0.5535	-0.2964	0.2464
-0.75	-0.3107	-1.5499	-1.3071	-0.3857	-1.3785	-0.9714	-0.3143	-0.7892	-0.5643	-0.075	-0.4393	-0.3428	-0.2678	0.0643	-0.1571	0.5535	-0.1321	0.5178	-0.3464	0.2464
-0.8357	-0.4143	-1.6392	-1.2963	-0.475	-1.4321	-0.9642	-0.3785	-0.8678	-0.6107	-0.1036	-0.525	-0.3571	-0.2321	0.0357	-0.2678	0.4785	-0.1286	0.4643	-0.3857	0.2286
-0.9071	-0.475	-1.732	-1.2928	-0.5571	-1.532	-0.9678	-0.4464	-0.9428	-0.6142	-0.1714	-0.5678	-0.3714	-0.2036	-0.0429	-0.4357	0.425	-0.1178	0.4	-0.4285	0.2071
-0.9785	-0.5357	-1.7713	-1.2571	-0.6214	-1.5749	-0.9857	-0.5	-1.0107	-0.6214	-0.2107	-0.6214	-0.4	-0.175	-0.1464	-0.625	0.3857	-0.1036	0.3714	-0.4643	0.1964
-1.0535	-0.5964	-1.8427	-1.2392	-0.6964	-1.632	-0.9857	-0.5821	-1.0785	-0.6321	-0.2714	-0.675	-0.4143	-0.1428	-0.2357	-0.8142	0.3178	-0.0964	0.2893	-0.525	0.1964
-1.1142	-0.6607	-1.9249	-1.1928	-0.7607	-1.6856	-0.9678	-0.6392	-1.1428	-0.6642	-0.3143	-0.7178	-0.4428	-0.1071	-0.325	-1.0035	0.2571	-0.075	0.2286	-0.55	0.2071
-1.1356	-0.6785	-1.9392	-1.1464	-0.8249	-1.7285	-0.9464	-0.6607	-1.1821	-0.6785	-0.3678	-0.7571	-0.4357	-0.0714	-0.3607	-1.1499	0.1821	-0.0357	0.1571	-0.5857	0.2178
-1.1964	-0.75	-1.982	-1.1106	-0.8928	-1.7749	-0.9607	-0.7071	-1.2606	-0.7	-0.4214	-0.8071	-0.4643	-0.0536	-0.4321	-1.3071	0.1321	-0.0393	0.0821	-0.6357	0.1786
-1.2214	-0.8035	-2.0034	-1.0714	-0.9464	-1.8142	-0.9142	-0.7464	-1.2856	-0.7	-0.45	-0.8464	-0.4928	-0.0143	-0.4535	-1.4142	0.0643	-0.0036	0.0357	-0.675	0.2
-1.2392	-0.8249	-2.0106	-1.0428	-1.0035	-1.8285	-0.9035	-0.7892	-1.3535	-0.7071	-0.5035	-0.9214	-0.4857	0.0214	-0.4607	-1.5035	-0.0036	0.0393	-0.0464	-0.7178	0.1786
-1.2249	-0.8499	-2.0034	-0.9749	-0.9999	-1.8463	-0.8892	-0.8035	-1.3713	-0.7071	-0.5107	-0.9285	-0.5178	0.05	-0.4607	-1.5606	-0.0679	0.0536	-0.0857	-0.7428	0.1714
-1.1785	-0.8535	-1.982	-0.9107	-1.0321	-1.832	-0.8464	-0.8071	-1.3856	-0.7214	-0.55	-0.9357	-0.5	0.0893	-0.4464	-1.5606	-0.1428	0.1143	-0.1036	-0.7821	0.175
-1.1571	-0.8285	-1.932	-0.8357	-1.0035	-1.8142	-0.7928	-0.7857	-1.3856	-0.7035	-0.5428	-0.9714	-0.5	0.125	-0.4	-1.5392	-0.2107	0.1714	-0.1428	-0.7642	0.1964
-1.1392	-0.8357	-1.9142	-0.7821	-1.0107	-1.8213	-0.7857	-0.775	-1.3963	-0.7071	-0.5607	-0.9785	-0.5107	0.1357	-0.3643	-1.5499	-0.2428	0.1964	-0.1607	-0.7607	0.1607
-1.1356	-0.8214	-1.9035	-0.7321	-1.0107	-1.7749	-0.7357	-0.7321	-1.4035	-0.7178	-0.5643	-0.9785	-0.5321	0.1607	-0.3214	-1.5249	-0.2821	0.2536	-0.1571	-0.7321	0.1928
-1.0856	-0.8107	-1.8356	-0.675	-1.0035	-1.7785	-0.7142	-0.7392	-1.3821	-0.7178	-0.5571	-0.9678	-0.5357	0.1857	-0.2893	-1.4785	-0.3393	0.3214	-0.15	-0.6678	0.2178
-1.0785	-0.8035	-1.8285	-0.6428	-0.9892	-1.757	-0.7285	-0.7071	-1.3963	-0.7392	-0.5643	-0.9928	-0.5821	0.2036	-0.2464	-1.4571	-0.35	0.3393	-0.1571	-0.6214	0.2286
-1.0606	-0.7964	-1.8106	-0.6178	-0.9642	-1.7606	-0.7071	-0.65	-1.3642	-0.7357	-0.55	-0.9821	-0.5643	0.2143	-0.2143	-1.4535	-0.3785	0.4178	-0.1393	-0.5357	0.2321
-1.0571	-0.8107	-1.7713	-0.6142	-0.9535	-1.7392	-0.7	-0.6357	-1.3892	-0.7535	-0.5571	-0.9678	-0.5643	0.225	-0.1893	-1.4571	-0.3821	0.475	-0.1357	-0.4643	0.2357
-1.0321	-0.8464	-1.7713	-0.6178	-0.9464	-1.7106	-0.7357	-0.6	-1.3606	-0.7964	-0.5285	-0.9607	-0.5643	0.2107	-0.1786	-1.4463	-0.3821	0.5071	-0.1071	-0.3821	0.2678
-1.0785	-0.8499	-1.7749	-0.6535	-0.9499	-1.7106	-0.7464	-0.5678	-1.3321	-0.8	-0.5214	-0.9357	-0.5714	0.2143	-0.1678	-1.4321	-0.375	0.525	-0.0964	-0.3143	0.275
-1.0785	-0.8499	-1.7856	-0.6714	-0.9428	-1.7142	-0.7857	-0.5357	-1.3213	-0.8178	-0.5035	-0.9357	-0.5964	0.2	-0.1786	-1.4392	-0.3464	0.5178	-0.05	-0.2643	0.2893
-1.0964	-0.8785	-1.7856	-0.7035	-0.9035	-1.7142	-0.8107	-0.4785	-1.3213	-0.8321	-0.4607	-0.9035	-0.5964	0.1857	-0.1857	-1.4178	-0.3286	0.5214	0.0286	-0.225	0.3178
-1.1106	-0.9107	-1.807	-0.75	-0.8821	-1.707	-0.8321	-0.4393	-1.2856	-0.8392	-0.425	-0.8785	-0.6	0.1643	-0.2071	-1.4106	-0.3071	0.4964	0.0893	-0.2214	0.3893
-1.1642	-0.9642	-1.8392	-0.8071	-0.9249	-1.7249	-0.8892	-0.4321	-1.2963	-0.8821	-0.4214	-0.8642	-0.6392	0.1643	-0.2393	-1.3678	-0.2893	0.4571	0.1178	-0.2643	0.3857
-1.1964	-1.0071	-1.8642	-0.8607	-0.9142	-1.7427	-0.9285	-0.3857	-1.2678	-0.8785	-0.375	-0.8142	-0.6392	0.1571	-0.2893	-1.2999	-0.275	0.3928	0.1821	-0.2928	0.45
-1.2356	-1.0499	-1.8963	-0.9142	-0.8928	-1.7749	-0.9785	-0.3607	-1.2428	-0.9392	-0.35	-0.8	-0.6714	0.1214	-0.3607	-1.2963	-0.2214	0.3214	0.2178	-0.3928	0.4678
-1.2892	-1.1106	-1.9642	-0.9714	-0.8892	-1.7856	-1.0071	-0.3428	-1.2285	-0.9357	-0.3178	-0.7714	-0.6678	0.1178	-0.4071	-1.2464	-0.2107	0.2536	0.2678	-0.4821	0.5035
-1.3356	-1.1785	-2.0142	-1.0249	-0.8749	-1.7999	-1.0428	-0.3286	-1.2142	-0.9285	-0.2678	-0.75	-0.6464	0.1036	-0.4571	-1.1856	-0.175	0.1678	0.3143	-0.5892	0.5143
-1.3963	-1.2356	-2.0427	-1.0785	-0.8857	-1.7963	-1.0464	-0.275	-1.1535	-0.9428	-0.2357	-0.6642	-0.6142	0.1	-0.4714	-1.1392	-0.1536	0.1143	0.3464	-0.6714	0.5714
-1.4642	-1.2963	-2.0927	-1.1356	-0.8749	-1.7892	-1.0928	-0.2607	-1.1285	-0.9428	-0.1607	-0.6357	-0.6	0.0786	-0.525	-1.0785	-0.1071	0.0429	0.3785	-0.8071	0.5892
-1.507	-1.3178	-2.1177	-1.1749	-0.8464	-1.782	-1.0749	-0.1893	-1.0678	-0.9035	-0.125	-0.575	-0.5892	0.0571	-0.5607	-1.0178	-0.0714	-0.0036	0.4357	-0.9214	0.6428
-1.5713	-1.3571	-2.1606	-1.1964	-0.7964	-1.782	-1.0714	-0.1393	-1.0035	-0.8749	-0.0786	-0.4893	-0.5321	0.0357	-0.5892	-0.9857	-0.0286	-0.0357	0.4785	-1.0178	0.7107
-1.6356	-1.3821	-2.182	-1.2428	-0.7714	-1.7535	-1.0321	-0.1071	-0.9499	-0.8392	-0.0214	-0.4357	-0.5	0	-0.6142	-0.9535	0.0143	-0.0821	0.5178	-1.0928	0.7642
-1.6463	-1.4106	-2.1856	-1.2428	-0.7107	-1.6963	-0.9999	-0.0214	-0.8428	-0.7678	0.0857	-0.3286	-0.4143	-0.0071	-0.6071	-0.9357	0.0571	-0.1036	0.575	-1.1178	0.8214
-1.6749	-1.4321	-2.1856	-1.2571	-0.6571	-1.6678	-0.9821	0.0429	-0.7571	-0.7107	0.1393	-0.2286	-0.375	-0.0321	-0.6	-0.9035	0.1071	-0.1143	0.6357	-1.1678	0.8714
-1.6606	-1.3963	-2.1677	-1.2392	-0.5785	-1.6285	-0.9107	0.1178	-0.6392	-0.6392	0.2607	-0.1178	-0.2893	-0.0571	-0.5785	-0.8892	0.1286	-0.1036	0.7214	-1.1928	0.9892
-1.6856	-1.3963	-2.1677	-1.2678	-0.5143	-1.5749	-0.8607	0.175	-0.5571	-0.5643	0.3286	-0.0143	-0.2143	-0.0714	-0.55	-0.8714	0.1536	-0.075	0.7857	-1.2071	1.0642
-1.6642	-1.3606	-2.1534	-1.2428	-0.4571	-1.4821	-0.8178	0.275	-0.4321	-0.5035	0.4214	0.1071	-0.1607	-0.0643	-0.525	-0.8178	0.1678	-0.0679	0.8571	-1.1464	1.1428
-1.6963	-1.3321	-2.1499	-1.2428	-0.375	-1.4499	-0.7928	0.3036	-0.3464	-0.4285	0.4928	0.1893	-0.1107	-0.0929	-0.4821	-0.775	0.2107	-0.0214	0.9142	-1.0785	1.1964
-1.6856	-1.3499	-2.1427	-1.2356	-0.325	-1.3821	-0.7357	0.3643	-0.2428	-0.3714	0.55	0.2821	-0.0679	-0.1107	-0.4464	-0.775	0.2321	-0.0036	0.9821	-1.0178	1.2499
-1.6928	-1.2999	-2.0892	-1.2142	-0.2428	-1.3071	-0.7071	0.4143	-0.1321	-0.2893	0.65	0.3785	0.0393	-0.1036	-0.4107	-0.7285	0.25	0.0464	1.0499	-0.9321	1.3285
-1.6892	-1.2678	-2.1213	-1.2214	-0.2	-1.2535	-0.6535	0.4428	-0.0643	-0.2357	0.6785	0.4464	0.0929	-0.1178	-0.3464	-0.6678	0.2893	0.0786	1.1071	-0.8607	1.3571
-1.6856	-1.2356	-2.1142	-1.1928	-0.1321	-1.1892	-0.6178	0.4893	0.0107	-0.1464	0.7142	0.5321	0.1536	-0.1464	-0.3036	-0.5821	0.325	0.1393	1.1642	-0.7964	1.4035
-1.7142	-1.1892	-2.1034	-1.1999	-0.0929	-1.1142	-0.5464	0.5571	0.1071	-0.0893	0.7678	0.5857	0.2178	-0.1607	-0.2571	-0.5107	0.3607	0.1678	1.2142	-0.675	1.4071
-1.7213	-1.1678	-2.1106	-1.1749	-0.0464	-1.0892	-0.5071	0.5607	0.1821	-0.0286	0.7964	0.6571	0.2928	-0.175	-0.2214	-0.425	0.3928	0.2071	1.2571	-0.6285	1.4321
-1.7249	-1.1464	-2.107	-1.1678	-0.0286	-1.0571	-0.4821	0.5785	0.2143	0.0571	0.8214	0.7	0.3393	-0.1857	-0.2	-0.325	0.4143	0.2714	1.2892	-0.5178	1.4463
-1.732	-1.1678	-2.1177	-1.1892	0.0036	-1.0285	-0.4571	0.5785	0.2821	0.0893	0.8178	0.7321	0.3714	-0.225	-0.1643	-0.2786	0.4857	0.2607	1.2856	-0.425	1.4071
-1.7749	-1.1428	-2.1534	-1.2035	-0.0036	-1.0107	-0.4607	0.5643	0.2928	0.1321	0.8107	0.7357	0.4071	-0.2536	-0.1286	-0.1821	0.5357	0.3393	1.2928	-0.325	1.3963
-1.7856	-1.1499	-2.1606	-1.1928	-0.0107	-0.9999	-0.4071	0.5571	0.3071	0.1643	0.7964	0.7571	0.4535	-0.2536	-0.1071	-0.1286	0.55	0.3857	1.2678	-0.1821	1.3999
-1.8106	-1.1321	-2.1927	-1.1999	-0.0179	-0.9892	-0.4143	0.5321	0.3178	0.2178	0.7857	0.7392	0.4643	-0.2714	-0.1178	-0.0964	0.5857	0.4285	1.2535	-0.0607	1.3535
-1.8142	-1.1464	-2.1891	-1.1928	-0.0643	-0.9928	-0.3643	0.4678	0.3	0.2464	0.7571	0.7357	0.5143	-0.275	-0.075	-0.0643	0.6071	0.4821	1.2214	0.0714	1.3142
-1.8142	-1.1499	-2.2213	-1.1749	-0.0786	-0.9821	-0.325	0.4535	0.3143	0.2786	0.7178	0.7071	0.5464	-0.3036	-0.075	-0.0821	0.6214	0.5	1.1749	0.1857	1.2785
-1.8249	-1.1535	-2.257	-1.1749	-0.1357	-0.9785	-0.3143	0.3928	0.3	0.3214	0.6785	0.6892	0.575	-0.3178	-0.0643	-0.0857	0.6428	0.525	1.0999	0.2821	1.2106
-1.8177	-1.1642	-2.2391	-1.1428	-0.1857	-0.9714	-0.2786	0.3428	0.2786	0.3785	0.6357	0.6607	0.6035	-0.3036	-0.0536	-0.125	0.6428	0.5785	1.0571	0.3857	1.1714
-1.7999	-1.1928	-2.232	-1.1142	-0.2107	-0.9749	-0.2321	0.3143	0.2357	0.4071	0.6285	0.6464	0.6107	-0.3143	-0.0393	-0.1821	0.6392	0.5892	1.0356	0.45	1.1571
-1.7356	-1.1749	-2.2249	-1.0714	-0.2393	-0.9571	-0.1857	0.2786	0.2357	0.4643	0.6035	0.6321	0.6464	-0.3071	-0.0536	-0.2821	0.6428	0.6071	0.9678	0.5107	1.1392
-1.7356	-1.1821	-2.2034	-1.0714	-0.2607	-0.9321	-0.1286	0.2107	0.2107	0.5321	0.575	0.5928	0.6785	-0.3107	-0.0321	-0.3785	0.65	0.6178	0.9499	0.5393	1.1321
-1.6749	-1.1499	-2.1356	-0.9928	-0.2571	-0.8928	-0.0429	0.225	0.2464	0.6	0.5964	0.6071	0.7285	-0.3	-0.0286	-0.4678	0.6285	0.6571	0.9642	0.5892	1.1499
-1.582	-1.0999	-2.082	-0.8857	-0.2321	-0.8107	0.0393	0.2286	0.2714	0.6892	0.6142	0.6428	0.7892	-0.2714	-0.0036	-0.575	0.6071	0.7107	0.9571	0.6107	1.1892
-1.5213	-1.0464	-1.9856	-0.7857	-0.2036	-0.7535	0.125	0.2571	0.3071	0.7571	0.6392	0.6607	0.8535	-0.2786	0.0143	-0.6642	0.6071	0.7107	0.9785	0.6321	1.2356
-1.4678	-1.0178	-1.9249	-0.7107	-0.1786	-0.7035	0.2036	0.275	0.3321	0.8214	0.6714	0.6714	0.9035	-0.2964	-0.0107	-0.7857	0.6214	0.7107	1.0285	0.5892	1.2999
-1.3785	-0.9392	-1.8463	-0.6035	-0.1357	-0.5964	0.2964	0.3036	0.3893	0.8928	0.7178	0.7071	0.9642	-0.3107	0	-0.8714	0.6428	0.7178	1.0928	0.5714	1.3678
-1.2785	-0.8821	-1.707	-0.4893	-0.075	-0.4964	0.4071	0.3678	0.4393	0.9892	0.775	0.75	1.0321	-0.3143	-0.0179	-0.9607	0.6535	0.7107	1.1785	0.5321	1.4356
-1.1856	-0.7464	-1.5928	-0.3678	-0.0071	-0.4107	0.5035	0.4107	0.5107	1.0606	0.8642	0.8035	1.0856	-0.3286	-0.0143	-1.0928	0.6642	0.7285	1.2464	0.4678	1.5213
-1.0964	-0.7	-1.4428	-0.2143	0.0893	-0.2714	0.5964	0.4928	0.6	1.1535	0.9107	0.8392	1.1571	-0.325	-0.0464	-1.1714	0.6785	0.7035	1.2999	0.4178	1.5928
-0.9999	-0.5821	-1.2999	-0.0821	0.1857	-0.1643	0.7035	0.5535	0.6642	1.2285	0.9821	0.8821	1.1964	-0.3393	-0.0571	-1.2392	0.6892	0.6821	1.3642	0.3107	1.6785
-0.9142	-0.5178	-1.1714	0.0536	0.2464	-0.0571	0.7964	0.5857	0.7142	1.2749	0.9999	0.9178	1.2178	-0.3428	-0.075	-1.2963	0.7071	0.6785	1.3999	0.1893	1.7106
-0.8392	-0.475	-1.0464	0.1714	0.2857	0.0179	0.8499	0.6	0.75	1.2999	1.0107	0.9142	1.2571	-0.3464	-0.0964	-1.3571	0.7107	0.6428	1.4142	0.0571	1.732
-0.775	-0.4285	-0.9499	0.2714	0.2786	0.1036	0.9214	0.5964	0.7607	1.2928	1.0071	0.9214	1.2535	-0.3607	-0.1393	-1.4035	0.725	0.65	1.3856	-0.0643	1.7178
-0.6857	-0.3857	-0.8464	0.3928	0.2893	0.175	0.9642	0.6142	0.7964	1.3142	1.0214	0.9357	1.2749	-0.3393	-0.1571	-1.4213	0.7071	0.6392	1.3678	-0.1607	1.7213
-0.6142	-0.3393	-0.7392	0.5035	0.2928	0.2571	0.9892	0.6107	0.8107	1.3071	0.9928	0.9392	1.2821	-0.3286	-0.1214	-1.4392	0.6642	0.6392	1.3213	-0.2714	1.6999
-0.5678	-0.3428	-0.6714	0.5964	0.2607	0.2786	0.9964	0.5535	0.8	1.2821	0.9642	0.8964	1.2963	-0.3107	-0.1428	-1.4428	0.6392	0.6178	1.2392	-0.4	1.6535
-0.5785	-0.3428	-0.65	0.6428	0.2107	0.2857	0.9678	0.5035	0.7714	1.2285	0.9035	0.8892	1.2928	-0.2821	-0.15	-1.4213	0.5928	0.6285	1.2035	-0.4928	1.6106
-0.5607	-0.4035	-0.6392	0.675	0.125	0.2643	0.9392	0.45	0.7357	1.1642	0.8607	0.8464	1.2678	-0.25	-0.1428	-1.3999	0.5393	0.6178	1.0999	-0.5428	1.5285
-0.5285	-0.4285	-0.6071	0.7357	0.0679	0.2536	0.9107	0.3964	0.7107	1.1428	0.8178	0.8	1.2606	-0.2321	-0.1178	-1.3535	0.4785	0.6535	1.0285	-0.5785	1.4713
-0.5643	-0.5035	-0.65	0.7285	-0.0036	0.2071	0.8499	0.3286	0.6535	1.0678	0.775	0.7892	1.2428	-0.2	-0.1428	-1.2892	0.4143	0.6678	0.9357	-0.6178	1.4142
-0.5643	-0.5607	-0.6571	0.775	-0.0571	0.1821	0.8178	0.2857	0.6428	1.0464	0.7607	0.8107	1.2821	-0.1536	-0.1036	-1.1856	0.3214	0.7285	0.8821	-0.5785	1.3785
-0.6285	-0.6535	-0.7071	0.725	-0.1321	0.1286	0.7428	0.2178	0.5821	1.0035	0.7357	0.7928	1.3178	-0.1107	-0.0893	-1.0928	0.2536	0.7714	0.7785	-0.5928	1.3213
-0.6857	-0.7107	-0.7857	0.7035	-0.2143	0.0607	0.6714	0.1714	0.5643	0.9535	0.7214	0.8035	1.3356	-0.0643	-0.0714	-0.9928	0.1714	0.8285	0.7035	-0.5393	1.2856
-0.7357	-0.8071	-0.8428	0.6571	-0.2928	0.0071	0.6	0.1536	0.5607	0.9499	0.7392	0.8357	1.4106	-0.0393	-0.1071	-0.9392	0.0964	0.8964	0.65	-0.525	1.2678
-0.8357	-0.8714	-0.9392	0.5821	-0.3036	-0.0393	0.5428	0.1607	0.5571	0.9607	0.7785	0.9285	1.4928	-0.0036	-0.1464	-0.8678	0.025	0.9928	0.6	-0.4785	1.2892
-0.9392	-0.9535	-1.0178	0.4928	-0.3821	-0.1286	0.4571	0.15	0.5535	0.9499	0.8321	0.9964	1.557	0.0357	-0.175	-0.8107	-0.0393	1.0892	0.5571	-0.4214	1.3035
-1.0285	-1.0107	-1.1106	0.4178	-0.3857	-0.1607	0.4071	0.1821	0.6107	1.0107	0.9392	1.0964	1.7035	0.0679	-0.1857	-0.775	-0.1	1.1999	0.5607	-0.3928	1.3713
-1.1356	-1.0678	-1.1928	0.3071	-0.4035	-0.175	0.3357	0.2321	0.6678	1.0464	1.0535	1.2249	1.8035	0.1071	-0.25	-0.7321	-0.1678	1.3213	0.5678	-0.3714	1.4571
-1.2392	-1.0999	-1.2785	0.2	-0.3821	-0.1928	0.3107	0.3	0.725	1.0821	1.2214	1.3749	1.9427	0.1214	-0.2786	-0.7321	-0.2107	1.4678	0.6178	-0.3286	1.5928
-1.3606	-1.1356	-1.3749	0.0607	-0.3214	-0.2393	0.25	0.4035	0.7785	1.1428	1.3999	1.5249	2.0927	0.1464	-0.3535	-0.75	-0.2428	1.5642	0.6714	-0.2893	1.7499
-1.4321	-1.1499	-1.4499	-0.075	-0.2786	-0.2286	0.2178	0.5393	0.8642	1.2106	1.6142	1.7178	2.2391	0.1571	-0.4071	-0.7785	-0.2678	1.7035	0.7535	-0.2214	1.932
-1.5642	-1.1856	-1.5463	-0.225	-0.2071	-0.2607	0.1893	0.7	0.9714	1.2892	1.8249	1.9035	2.3999	0.1571	-0.5178	-0.8892	-0.2678	1.832	0.8392	-0.1893	2.1499
-1.6785	-1.1892	-1.6428	-0.4107	-0.1214	-0.2643	0.1643	0.8357	1.0964	1.3713	2.0642	2.0892	2.532	0.1536	-0.6107	-0.9607	-0.2571	1.9606	0.9642	-0.1607	2.3927
-1.7856	-1.2071	-1.732	-0.575	-0.0714	-0.275	0.1	0.9607	1.1642	1.4213	2.2927	2.2927	2.682	0.1428	-0.7178	-1.0964	-0.2464	2.0749	1.0785	-0.125	2.6177
-1.8999	-1.2321	-1.8499	-0.7535	0.0071	-0.2857	0.05	1.1071	1.2642	1.4713	2.5177	2.4891	2.807	0.1393	-0.7928	-1.2249	-0.2428	2.2534	1.2071	-0.0786	2.8784
-2.0356	-1.2678	-1.9677	-0.9535	0.075	-0.3571	-0.0071	1.2642	1.3321	1.5213	2.7534	2.6748	2.9605	0.1428	-0.9035	-1.3928	-0.225	2.3606	1.3428	0.0071	3.1391
-2.1963	-1.3071	-2.0927	-1.1499	0.1107	-0.425	-0.0821	1.3963	1.3892	1.557	2.9891	2.8605	3.0855	0.125	-1.0178	-1.5749	-0.2	2.4998	1.4749	0.05	3.3712
-2.3391	-1.3821	-2.2463	-1.3928	0.1214	-0.4857	-0.1893	1.4821	1.4356	1.557	3.1962	3.0141	3.1891	0.0893	-1.1464	-1.7892	-0.1571	2.6141	1.6178	0.1071	3.5998
-2.4963	-1.4499	-2.3891	-1.5928	0.0893	-0.6107	-0.2857	1.5713	1.4249	1.5499	3.4141	3.1462	3.2784	0.0929	-1.2928	-1.9749	-0.1286	2.7498	1.6963	0.1893	3.814
-2.6498	-1.532	-2.5427	-1.7677	0.1071	-0.7071	-0.35	1.6678	1.4713	1.5606	3.6176	3.2891	3.4176	0.0786	-1.4178	-2.1677	-0.1071	2.9427	1.8535	0.2786	4.0712
-2.807	-1.5892	-2.7034	-1.9463	0.0964	-0.8178	-0.4571	1.757	1.4571	1.5678	3.7855	3.4034	3.4926	0.0607	-1.5713	-2.3677	-0.0857	3.1069	1.9534	0.3428	4.264
-2.9748	-1.7106	-2.8712	-2.1606	0.0643	-0.9535	-0.5714	1.8177	1.4321	1.5535	3.9819	3.5391	3.5712	0.0571	-1.6892	-2.5713	-0.0679	3.2677	2.0463	0.45	4.4854
-3.1212	-1.8285	-3.0355	-2.332	-0.0214	-1.1106	-0.6928	1.8427	1.3785	1.5356	4.0962	3.6033	3.6462	0.0464	-1.7999	-2.7463	-0.0429	3.4534	2.1249	0.4821	4.6711
-3.2784	-1.9606	-3.1927	-2.5177	-0.1036	-1.2713	-0.7857	1.8463	1.3428	1.5213	4.2497	3.6712	3.7033	0.0357	-1.9392	-2.9212	-0.0286	3.6391	2.2177	0.55	4.8354
-3.4319	-2.0999	-3.3355	-2.6891	-0.2107	-1.4213	-0.8892	1.8642	1.2571	1.4749	4.3712	3.7319	3.7641	0.0214	-2.0856	-3.0855	-0.0143	3.8355	2.2677	0.5964	4.9854
-3.5533	-2.2391	-3.5069	-2.8641	-0.3071	-1.6285	-1.0107	1.8535	1.1821	1.4285	4.4747	3.7676	3.7855	0.0214	-2.2534	-3.2605	0.0036	3.9783	2.2999	0.6571	5.1104
-3.6605	-2.332	-3.6569	-2.9677	-0.4107	-1.7535	-1.1035	1.8499	1.1356	1.3856	4.5997	3.8212	3.8283	0.0071	-2.4177	-3.4034	-0.0036	4.1747	2.3534	0.75	5.2354
-3.8105	-2.4713	-3.7962	-3.1069	-0.5464	-1.9177	-1.1964	1.8213	1.0464	1.3749	4.6783	3.8712	3.889	0.0107	-2.5856	-3.5426	0.0179	4.3319	2.357	0.7857	5.3175
-3.8962	-2.6106	-3.9355	-3.1998	-0.675	-2.0927	-1.3071	1.8249	0.9714	1.3678	4.7854	3.9033	3.9498	0.0143	-2.7498	-3.6926	0	4.5104	2.3856	0.8464	5.4282
-3.9712	-2.7177	-4.0569	-3.2998	-0.7678	-2.2356	-1.3749	1.7785	0.9107	1.3428	4.8604	3.9355	3.9998	0.0143	-2.9105	-3.7819	-0.0071	4.6569	2.4284	0.9107	5.5175
-4.0855	-2.8427	-4.1462	-3.3426	-0.8571	-2.382	-1.4249	1.7749	0.8607	1.3321	4.9318	3.9676	4.0676	0.0393	-3.0962	-3.9105	-0.0286	4.8176	2.4463	0.9607	5.5997
-4.1426	-2.9212	-4.2533	-3.4141	-0.9392	-2.482	-1.4892	1.7606	0.8107	1.3463	5.0247	4.0355	4.1283	0.05	-3.2605	-4.0497	-0.0464	4.9818	2.4713	1.0071	5.6925
-4.2497	-3.0248	-4.3283	-3.4641	-1.0428	-2.5748	-1.5178	1.7463	0.7892	1.3606	5.1068	4.0569	4.1569	0.075	-3.4176	-4.164	-0.0893	5.1354	2.5106	1.0356	5.7746
-4.3069	-3.0891	-4.4176	-3.4748	-1.1106	-2.6713	-1.5356	1.7285	0.7571	1.3678	5.164	4.1069	4.2247	0.0714	-3.5783	-4.3176	-0.1143	5.2532	2.5463	1.0821	5.8568
-4.3712	-3.1498	-4.4711	-3.4784	-1.1821	-2.7177	-1.5713	1.7427	0.7178	1.3963	5.2604	4.1462	4.2962	0.0857	-3.7533	-4.439	-0.1428	5.3997	2.582	1.1106	5.9282
-4.4354	-3.1677	-4.4997	-3.4605	-1.1928	-2.7641	-1.5642	1.7535	0.7535	1.4535	5.3354	4.214	4.3854	0.1178	-3.8676	-4.5497	-0.1857	5.5389	2.6534	1.1678	6.0103
-4.4783	-3.2069	-4.5247	-3.4676	-1.1928	-2.7677	-1.5285	1.7606	0.7535	1.5035	5.4175	4.2854	4.4497	0.1393	-4.0033	-4.7068	-0.2321	5.6389	2.6713	1.2285	6.0746
-4.4926	-3.2069	-4.5354	-3.4212	-1.2178	-2.7891	-1.5178	1.7856	0.7821	1.5463	5.4854	4.3426	4.5319	0.1536	-4.0926	-4.8211	-0.275	5.7282	2.7213	1.2821	6.1246
-4.5247	-3.1998	-4.5319	-3.3926	-1.1928	-2.7391	-1.4856	1.8392	0.8107	1.5892	5.5568	4.4069	4.6033	0.1857	-4.1676	-4.9283	-0.3143	5.8104	2.7713	1.3428	6.1746
-4.5319	-3.1677	-4.489	-3.3105	-1.1321	-2.6677	-1.4178	1.8927	0.8821	1.6785	5.6532	4.4926	4.6747	0.1964	-4.214	-5.0104	-0.35	5.8782	2.8463	1.3999	6.221
-4.5283	-3.1105	-4.4426	-3.2498	-1.0714	-2.582	-1.3785	1.9499	0.9428	1.732	5.7032	4.539	4.7247	0.1857	-4.2426	-5.0925	-0.3535	5.8925	2.9141	1.4213	6.2818
-4.4997	-3.057	-4.3783	-3.1927	-0.9535	-2.4641	-1.3142	2.057	1.0499	1.832	5.7818	4.6497	4.7997	0.2036	-4.2319	-5.1211	-0.375	5.8996	2.9891	1.4606	6.3246
-4.4569	-2.9427	-4.2426	-3.0748	-0.8428	-2.3391	-1.2142	2.1427	1.1499	1.9035	5.8639	4.7568	4.864	0.1964	-4.214	-5.1818	-0.35	5.8675	3.0427	1.4713	6.371
-4.3426	-2.8177	-4.1247	-2.9534	-0.7321	-2.1677	-1.1178	2.2606	1.3142	1.9749	5.9603	4.8604	4.9318	0.1786	-4.164	-5.1711	-0.3393	5.8532	3.1105	1.5178	6.4317
-4.2533	-2.6713	-3.9355	-2.8498	-0.5607	-1.9856	-0.9999	2.3891	1.4499	2.0856	6.0532	4.9675	4.9747	0.1643	-4.089	-5.1068	-0.2786	5.7854	3.2284	1.5106	6.4567
-4.1176	-2.482	-3.7391	-2.6927	-0.3464	-1.7499	-0.8642	2.5606	1.6463	2.157	6.1496	5.0925	5.0568	0.1321	-3.9855	-5.0568	-0.2178	5.6782	3.2927	1.5249	6.5246
-3.9498	-2.282	-3.5176	-2.4963	-0.125	-1.4785	-0.6928	2.7427	1.8606	2.2856	6.296	5.2568	5.1211	0.0929	-3.8533	-4.9711	-0.15	5.5711	3.4212	1.5142	6.5853
-3.7712	-2.0392	-3.2927	-2.3499	0.1178	-1.2499	-0.5285	2.9427	2.0999	2.4177	6.396	5.4175	5.1747	0.0393	-3.7105	-4.8354	-0.0464	5.4139	3.5391	1.4606	6.646
-3.5569	-1.8177	-3.0248	-2.1534	0.3821	-0.9428	-0.3893	3.1355	2.3213	2.5106	6.5317	5.5818	5.2104	-0.0179	-3.5783	-4.7211	0.075	5.2175	3.6319	1.4142	6.7067
-3.3641	-1.5678	-2.7784	-1.9892	0.6357	-0.6642	-0.2143	3.3498	2.5677	2.582	6.6603	5.7496	5.2247	-0.0786	-3.4141	-4.5676	0.2071	4.9997	3.7819	1.3035	6.8031
-3.1034	-1.2892	-2.4784	-1.7999	0.9071	-0.3464	-0.0679	3.5855	2.8248	2.6855	6.796	5.9425	5.2711	-0.1464	-3.2427	-4.3926	0.3428	4.7854	3.964	1.2142	6.8817
-2.8641	-1.0071	-2.1784	-1.632	1.2356	-0.0536	0.0607	3.8355	3.082	2.7998	6.9389	6.1032	5.2925	-0.2393	-3.0248	-4.1819	0.5071	4.5176	4.1105	1.1035	6.9924
-2.6248	-0.7392	-1.9106	-1.4678	1.5428	0.2321	0.1857	4.0569	3.3248	2.8463	7.0853	6.2675	5.2497	-0.3464	-2.857	-4.0355	0.7142	4.1783	4.2462	0.9428	7.1067
-2.3499	-0.3785	-1.5999	-1.2713	1.8677	0.5714	0.3393	4.3497	3.6033	2.9462	7.2888	6.4603	5.2818	-0.4357	-2.6177	-3.7962	0.8857	3.8855	4.4711	0.8321	7.2567
-2.082	-0.0571	-1.2892	-1.1106	2.2106	0.8892	0.475	4.6319	3.864	2.9927	7.4531	6.6282	5.2604	-0.55	-2.3891	-3.6033	1.0964	3.5676	4.6711	0.7035	7.4103
-1.7963	0.2607	-1.0035	-0.9464	2.5534	1.1714	0.6107	4.9104	4.1319	3.0498	7.646	6.796	5.2211	-0.6714	-2.1963	-3.4105	1.3356	3.2212	4.8854	0.5607	7.5745
-1.5356	0.5964	-0.675	-0.775	2.8891	1.4606	0.7642	5.2104	4.3962	3.1141	7.8495	6.9853	5.2175	-0.7714	-1.9677	-3.1641	1.557	2.8784	5.139	0.4214	7.7745
-1.2642	0.9535	-0.35	-0.575	3.2569	1.7785	0.9214	5.5247	4.6961	3.1677	8.0816	7.1924	5.2068	-0.8857	-1.6999	-2.9498	1.7892	2.5498	5.3997	0.2857	7.9888
-0.9535	1.2749	-0.0679	-0.4178	3.6105	2.082	1.0428	5.8211	4.9247	3.2284	8.2888	7.3674	5.1711	-1.0071	-1.4571	-2.7177	2.0463	2.207	5.6639	0.2036	8.1816
-0.7	1.6035	0.2107	-0.2464	3.9605	2.332	1.1714	6.1175	5.2032	3.2712	8.4923	7.5388	5.139	-1.1428	-1.2285	-2.4856	2.2999	1.8535	5.9282	0.0679	8.3745
-0.4214	1.9677	0.5035	-0.0786	4.3247	2.6248	1.3213	6.4175	5.4889	3.3391	8.7387	7.7495	5.1354	-1.2892	-1.0071	-2.2677	2.5606	1.532	6.2425	0	8.603
-0.1678	2.282	0.7642	0.0929	4.6533	2.8712	1.4642	6.6746	5.7068	3.3891	8.9352	7.9209	5.0925	-1.4106	-0.7535	-2.0463	2.8284	1.2214	6.5032	-0.1071	8.7995
0.0786	2.5998	1.0321	0.2357	4.9747	3.1141	1.5749	6.9567	5.9425	3.4355	9.1351	8.0959	5.0997	-1.5392	-0.5464	-1.882	3.0891	0.9249	6.7567	-0.1821	9.0066
0.3428	2.907	1.2856	0.3928	5.2818	3.3248	1.7106	7.2317	6.1818	3.4926	9.328	8.2602	5.0747	-1.6785	-0.3428	-1.6785	3.3569	0.6	7.0138	-0.2678	9.2066
0.5643	3.1855	1.4963	0.5571	5.5782	3.5391	1.8463	7.4852	6.3925	3.5498	9.5387	8.4102	5.0818	-1.8249	-0.1464	-1.5642	3.6141	0.325	7.2531	-0.3571	9.4101
0.7642	3.4426	1.7142	0.675	5.8639	3.7248	1.9642	7.7067	6.6032	3.5926	9.6958	8.578	5.0711	-1.9392	0.0214	-1.4071	3.8748	0.0786	7.4602	-0.4285	9.5637
0.9607	3.6891	1.8999	0.8249	6.1175	3.8605	2.0749	7.9209	6.7496	3.6391	9.8744	8.703	5.0747	-2.0677	0.1786	-1.2963	4.1176	-0.1786	7.671	-0.5285	9.7494
1.1071	3.9248	2.0499	0.9285	6.3032	4.039	2.1606	8.0959	6.9246	3.6462	10.0279	8.7995	5.0533	-2.1749	0.2928	-1.2321	4.339	-0.3893	7.8352	-0.6321	9.928
1.2642	4.0997	2.2106	1.0428	6.5175	4.1462	2.2284	8.2602	7.071	3.7141	10.1494	8.9244	5.064	-2.2856	0.4285	-1.1856	4.5461	-0.6071	8.0031	-0.7357	10.0922
1.4142	4.2712	2.357	1.1499	6.6853	4.314	2.2784	8.4173	7.1888	3.7462	10.2922	9.028	5.0854	-2.3927	0.5	-1.1821	4.7283	-0.8	8.1531	-0.9035	10.2708
1.5178	4.3997	2.4498	1.1821	6.8246	4.3926	2.332	8.553	7.2924	3.7569	10.3779	9.1066	5.0783	-2.4784	0.5607	-1.2071	4.8997	-0.9642	8.2888	-1.0535	10.3994
1.607	4.5033	2.5356	1.2642	6.9389	4.464	2.3534	8.6459	7.3853	3.7498	10.4672	9.1851	5.0604	-2.5391	0.6392	-1.2678	5.0283	-1.1142	8.4352	-1.2142	10.5529
1.6785	4.5783	2.6034	1.2856	7.0246	4.4997	2.3391	8.7137	7.4317	3.7533	10.5636	9.2351	5.089	-2.607	0.6357	-1.3463	5.1497	-1.2178	8.5316	-1.4106	10.66
1.732	4.6426	2.632	1.2999	7.071	4.5461	2.3463	8.7709	7.4888	3.7569	10.6172	9.2637	5.0997	-2.6213	0.6642	-1.4356	5.2247	-1.3071	8.6316	-1.5463	10.7815
1.7427	4.6569	2.6641	1.2713	7.1067	4.5711	2.307	8.803	7.5281	3.7462	10.6493	9.2709	5.0747	-2.6605	0.6285	-1.582	5.3032	-1.3535	8.6745	-1.6892	10.8458
1.807	4.7033	2.6784	1.2821	7.1174	4.589	2.2999	8.8352	7.5781	3.7498	10.66	9.2709	5.0925	-2.6998	0.6428	-1.607	5.3568	-1.3642	8.7245	-1.7856	10.9315
1.8142	4.6676	2.6998	1.2356	7.1246	4.6033	2.2677	8.8459	7.5745	3.7141	10.6636	9.2744	5.1283	-2.7141	0.625	-1.6999	5.364	-1.3428	8.7673	-1.8392	10.9922
1.7963	4.6176	2.682	1.1535	7.0924	4.589	2.207	8.7887	7.5388	3.7069	10.6458	9.2244	5.1175	-2.7141	0.5892	-1.7677	5.3854	-1.2821	8.7209	-1.882	11.01
1.8177	4.5783	2.6677	1.1035	7.0424	4.5819	2.1606	8.753	7.5388	3.6712	10.5922	9.203	5.139	-2.6963	0.5821	-1.7927	5.3604	-1.1892	8.7173	-1.8499	11.0136
1.807	4.5533	2.6534	1.0464	6.9817	4.5426	2.0999	8.703	7.471	3.6783	10.5422	9.1637	5.1854	-2.6963	0.5214	-1.8249	5.3354	-1.0428	8.6852	-1.7392	10.985
1.8177	4.4604	2.632	0.9642	6.921	4.514	2.0427	8.6352	7.446	3.6533	10.4779	9.1101	5.2104	-2.6641	0.5285	-1.8285	5.2854	-0.8999	8.5852	-1.6249	10.9743
1.7713	4.4319	2.607	0.8785	6.871	4.489	2.0142	8.5709	7.3853	3.6569	10.4279	9.0601	5.2354	-2.6141	0.4964	-1.807	5.189	-0.7142	8.5638	-1.4642	10.9636
1.7499	4.3604	2.5356	0.7821	6.7853	4.4462	1.932	8.4709	7.3245	3.6355	10.3315	9.0102	5.2568	-2.582	0.4535	-1.7749	5.114	-0.5143	8.4959	-1.2606	10.91
1.6892	4.2962	2.4606	0.6785	6.6924	4.3712	1.8999	8.378	7.2281	3.6319	10.2101	8.928	5.2925	-2.532	0.4285	-1.7142	5.0211	-0.2893	8.3959	-1.0964	10.8172
1.6285	4.1676	2.4248	0.5393	6.5746	4.339	1.7963	8.2423	7.1424	3.6033	10.0815	8.8494	5.3318	-2.4856	0.3785	-1.6892	4.9104	-0.0571	8.2852	-0.8928	10.7243
1.5713	4.1319	2.3427	0.4321	6.4603	4.2462	1.7356	8.0852	7.0353	3.5891	9.9422	8.7209	5.364	-2.4034	0.3785	-1.6285	4.7676	0.2036	8.1602	-0.6678	10.6279
1.507	4.0212	2.2499	0.2893	6.321	4.1319	1.6606	7.9459	6.8639	3.5712	9.7637	8.5995	5.3961	-2.3213	0.3143	-1.6035	4.614	0.4714	8.0388	-0.4428	10.5101
1.4035	3.8998	2.1499	0.1607	6.171	4.0283	1.607	7.7924	6.7639	3.5462	9.5994	8.478	5.4211	-2.2534	0.2786	-1.532	4.4533	0.7142	7.8959	-0.2464	10.3851
1.2928	3.7855	2.0142	0.0143	5.9961	3.8926	1.5035	7.571	6.5746	3.4962	9.3887	8.3031	5.4247	-2.1677	0.2321	-1.5142	4.3033	0.9857	7.7459	-0.0571	10.1958
1.1678	3.6498	1.8606	-0.125	5.8282	3.7533	1.4213	7.3674	6.396	3.4641	9.1851	8.1423	5.4354	-2.0606	0.2286	-1.4678	4.1069	1.2535	7.5781	0.1214	10.0065
1.0392	3.5176	1.7356	-0.2893	5.6282	3.5926	1.3285	7.146	6.2175	3.3998	8.978	7.9531	5.4497	-1.9784	0.1964	-1.4606	3.9176	1.5392	7.4067	0.3178	9.803
0.9178	3.3498	1.5642	-0.4464	5.3889	3.4141	1.2571	6.8924	6.0139	3.3569	8.7459	7.7567	5.4497	-1.857	0.2036	-1.4213	3.6998	1.7856	7.2281	0.4785	9.5673
0.7714	3.1677	1.3821	-0.5892	5.1461	3.2177	1.1571	6.6674	5.8211	3.3105	8.5138	7.5495	5.4425	-1.7463	0.1607	-1.4571	3.4784	2.0177	7.0174	0.5964	9.3387
0.6321	2.9962	1.1928	-0.7678	4.914	3.0462	1.0856	6.4067	5.5961	3.2355	8.2566	7.3531	5.4354	-1.632	0.175	-1.4606	3.2427	2.2534	6.796	0.6892	9.1101
0.4893	2.8284	0.9964	-0.9357	4.6461	2.832	0.9535	6.1353	5.3782	3.1784	8.0102	7.1353	5.4139	-1.507	0.1607	-1.4821	3.0141	2.4998	6.5817	0.775	8.8494
0.3178	2.6248	0.7928	-1.1249	4.3854	2.582	0.8035	5.8603	5.1211	3.1034	7.7781	6.9103	5.4032	-1.3999	0.1643	-1.5463	2.782	2.7213	6.346	0.8285	8.6316
0.1464	2.4213	0.5321	-1.3106	4.1033	2.3606	0.7357	5.5961	4.8961	3.0212	7.5245	6.696	5.3925	-1.2892	0.1071	-1.5963	2.5641	2.9462	6.0996	0.8464	8.3852
-0.0286	2.1856	0.3214	-1.4928	3.8283	2.1392	0.6214	5.339	4.6319	2.9462	7.2674	6.4603	5.3747	-1.1749	0.1	-1.6606	2.3427	3.1498	5.8889	0.9035	8.1602
-0.175	1.9999	0.1036	-1.6356	3.5891	1.8963	0.4964	5.0747	4.3926	2.8748	7.0317	6.246	5.3532	-1.0499	0.0857	-1.6642	2.1142	3.3748	5.6675	0.9535	7.9888
-0.3857	1.7785	-0.1643	-1.8499	3.3069	1.6606	0.3535	4.8104	4.139	2.7855	6.8317	6.0425	5.3604	-0.9464	0.0357	-1.7285	1.907	3.6355	5.4568	0.9964	7.7781
-0.5357	1.5463	-0.3893	-2.0284	3.057	1.3928	0.225	4.5676	3.8855	2.682	6.5924	5.8246	5.3211	-0.8571	-0.025	-1.7785	1.7213	3.8498	5.2247	1.0214	7.596
-0.7392	1.3035	-0.6357	-2.207	2.7713	1.1249	0.0821	4.3104	3.6391	2.582	6.3817	5.6068	5.3068	-0.7535	-0.1214	-1.8249	1.5356	4.0962	5.0247	1.0535	7.421
-0.9357	1.0642	-0.8749	-2.3963	2.507	0.8642	-0.0393	4.1033	3.3819	2.4998	6.1925	5.4175	5.2818	-0.6607	-0.1893	-1.8427	1.3535	4.314	4.8104	1.1178	7.2603
-1.1392	0.8071	-1.1392	-2.5998	2.2391	0.6178	-0.2321	3.8283	3.1284	2.3713	5.9782	5.214	5.2532	-0.5928	-0.2928	-1.9035	1.2142	4.5569	4.5926	1.1642	7.0853
-1.3678	0.5607	-1.4106	-2.807	1.957	0.3178	-0.3785	3.6033	2.8748	2.2749	5.7854	4.9997	5.2247	-0.5285	-0.4178	-1.9534	1.0785	4.7926	4.3712	1.2071	6.9139
-1.6106	0.2893	-1.682	-3.0034	1.6606	0.0357	-0.5785	3.3569	2.582	2.1356	5.5568	4.7676	5.1318	-0.4643	-0.5857	-2.0356	0.9607	5.0175	4.1712	1.2428	6.7317
-1.8427	0.0536	-1.9892	-3.2034	1.4035	-0.2357	-0.7392	3.0962	2.3391	2.0284	5.3711	4.5604	5.0818	-0.4143	-0.7178	-2.1249	0.8357	5.2175	3.9426	1.3142	6.546
-2.0642	-0.2393	-2.2177	-3.3641	1.1392	-0.525	-0.8964	2.8748	2.082	1.9142	5.1782	4.3962	5.039	-0.3643	-0.9178	-2.2177	0.725	5.4532	3.7283	1.3428	6.3889
-2.3106	-0.4928	-2.4963	-3.5319	0.8785	-0.8071	-1.0428	2.6677	1.8463	1.782	5.0068	4.189	5.0104	-0.3143	-1.0642	-2.3356	0.6178	5.6461	3.5819	1.3749	6.2353
-2.4963	-0.7607	-2.757	-3.6783	0.6285	-1.0856	-1.1821	2.4606	1.6035	1.6892	4.8354	4.0247	4.9604	-0.25	-1.2678	-2.4284	0.5285	5.8318	3.3926	1.4071	6.1103
-2.7248	-1.0285	-3.007	-3.8212	0.3893	-1.3035	-1.2928	2.2534	1.3928	1.5892	4.6747	3.8605	4.914	-0.2143	-1.4499	-2.5891	0.45	6.0139	3.2462	1.4213	5.9889
-2.9212	-1.2428	-3.2284	-3.9283	0.1571	-1.5642	-1.3856	2.0963	1.2285	1.5213	4.5426	3.7141	4.8961	-0.175	-1.6106	-2.7141	0.3643	6.2032	3.0534	1.4749	5.8711
-3.1284	-1.4963	-3.4605	-4.0176	-0.0714	-1.7785	-1.4463	1.9463	1.0392	1.4606	4.4426	3.5712	4.8926	-0.1357	-1.7892	-2.857	0.2964	6.3853	2.9141	1.5285	5.7854
-3.2998	-1.7178	-3.7033	-4.0819	-0.2786	-2.007	-1.5428	1.7892	0.8678	1.4213	4.3212	3.4498	4.8783	-0.0964	-1.9749	-3.0141	0.2428	6.546	2.7855	1.532	5.7175
-3.4641	-1.9499	-3.9069	-4.114	-0.4321	-2.2106	-1.5713	1.6785	0.7214	1.4106	4.264	3.3676	4.9033	-0.0857	-2.1034	-3.1641	0.1893	6.7246	2.6784	1.5606	5.6711
-3.6319	-2.1927	-4.1033	-4.1676	-0.6142	-2.3927	-1.6178	1.5642	0.5892	1.3785	4.189	3.2855	4.9211	-0.0393	-2.2891	-3.3284	0.125	6.9353	2.607	1.5678	5.6568
-3.7926	-2.3677	-4.2712	-4.139	-0.7535	-2.5356	-1.632	1.4892	0.4964	1.3856	4.1533	3.2355	4.9354	-0.0036	-2.3856	-3.4426	0.0321	7.0603	2.5534	1.5642	5.6425
-3.9569	-2.5891	-4.464	-4.1462	-0.8821	-2.7141	-1.6606	1.3999	0.3607	1.3963	4.1176	3.1605	4.939	0.0321	-2.5284	-3.6391	-0.0429	7.2388	2.4998	1.5428	5.6746
-4.0962	-2.7963	-4.6461	-4.1747	-1.0356	-2.8748	-1.6785	1.3249	0.2714	1.3856	4.1069	3.1284	5.0033	0.0607	-2.6356	-3.814	-0.1107	7.3781	2.4641	1.4928	5.6961
-4.2319	-2.9891	-4.8104	-4.1247	-1.1606	-3.0105	-1.6963	1.2713	0.2036	1.3892	4.089	3.0855	5.0318	0.1143	-2.7355	-3.9962	-0.1821	7.496	2.432	1.4535	5.7461
-4.3819	-3.1962	-4.9711	-4.1497	-1.2678	-3.1248	-1.7035	1.2178	0.1107	1.4249	4.0747	3.0712	5.0568	0.1536	-2.8355	-4.164	-0.2714	7.6352	2.3963	1.3642	5.7818
-4.4961	-3.3069	-5.1068	-4.1069	-1.3749	-3.2569	-1.7178	1.1428	0.0321	1.4356	4.0747	3.0355	5.0961	0.1928	-2.9034	-4.3354	-0.3464	7.7281	2.357	1.2999	5.8246
-4.5747	-3.4605	-5.2461	-4.0605	-1.4713	-3.3641	-1.6963	1.1214	-0.025	1.4428	4.0926	3.0177	5.1533	0.2393	-2.9462	-4.4497	-0.4428	7.8174	2.3249	1.2571	5.8568
-4.7283	-3.6498	-5.3711	-4.0283	-1.6106	-3.4498	-1.7106	1.0535	-0.0821	1.4642	4.0855	2.9855	5.1533	0.2678	-3.0248	-4.5961	-0.4964	7.8959	2.2713	1.1571	5.8568
-4.7997	-3.7783	-5.4675	-4.0247	-1.7213	-3.5355	-1.6963	0.9857	-0.125	1.4713	4.089	2.9677	5.1925	0.3071	-3.057	-4.7068	-0.5892	7.9816	2.207	1.1035	5.8853
-4.8997	-3.9319	-5.5889	-3.9783	-1.8177	-3.6033	-1.6856	0.9714	-0.1678	1.5356	4.0783	2.9748	5.2354	0.3607	-3.0927	-4.7926	-0.6857	8.0602	2.1463	1.0356	5.9282
-4.9533	-4.0105	-5.6746	-3.9426	-1.8963	-3.6462	-1.6606	0.9142	-0.1893	1.5713	4.1033	2.9748	5.2782	0.4035	-3.1212	-4.8176	-0.7571	8.0924	2.0927	0.9821	5.9318
-5.0318	-4.1462	-5.7496	-3.8998	-1.9927	-3.6926	-1.6749	0.8928	-0.225	1.6356	4.0962	2.9927	5.3247	0.425	-3.1534	-4.8961	-0.8285	8.1459	2.0142	0.9035	5.9496
-5.0711	-4.2533	-5.8211	-3.8998	-2.0784	-3.7426	-1.6535	0.8535	-0.2357	1.6535	4.1283	3.007	5.364	0.4785	-3.1927	-4.9283	-0.9107	8.1888	1.932	0.8285	5.9675
-5.114	-4.3212	-5.8675	-3.8962	-2.107	-3.7462	-1.632	0.8357	-0.2428	1.6963	4.1676	3.0248	5.3818	0.5035	-3.1534	-4.914	-0.9928	8.2138	1.8713	0.7285	5.9603
-5.1568	-4.3854	-5.9139	-3.8498	-2.1677	-3.7676	-1.6035	0.7892	-0.2393	1.7677	4.1926	3.0427	5.4568	0.55	-3.1677	-4.914	-1.0642	8.2423	1.8035	0.6357	5.9853
-5.2032	-4.4533	-5.9568	-3.8676	-2.2284	-3.7748	-1.5606	0.7678	-0.2393	1.7927	4.2319	3.0677	5.4818	0.575	-3.1248	-4.8247	-1.1285	8.2673	1.7392	0.5321	6.0139
-5.1997	-4.4819	-5.9639	-3.8319	-2.2891	-3.789	-1.5499	0.7464	-0.2036	1.8285	4.2497	3.1069	5.5318	0.6107	-3.0927	-4.7497	-1.1856	8.2852	1.7213	0.4464	6.0496
-5.2211	-4.5426	-5.9746	-3.8283	-2.3213	-3.7783	-1.5178	0.7321	-0.2071	1.882	4.2854	3.1427	5.5747	0.6428	-3.0284	-4.6497	-1.2356	8.3138	1.6713	0.3785	6.0782
-5.2354	-4.5354	-5.9961	-3.7962	-2.3463	-3.7676	-1.4749	0.7428	-0.15	1.9427	4.3354	3.2177	5.6104	0.6785	-2.9712	-4.5426	-1.2963	8.3423	1.6713	0.3321	6.1282
-5.2568	-4.5569	-6.0068	-3.814	-2.382	-3.7605	-1.4678	0.7321	-0.1321	1.9892	4.3819	3.2569	5.6604	0.6928	-2.8962	-4.3926	-1.3356	8.3602	1.6535	0.2821	6.1818
-5.2282	-4.564	-6.0461	-3.7926	-2.382	-3.7248	-1.4642	0.7392	-0.1071	2.0213	4.3926	3.2819	5.6746	0.6964	-2.7998	-4.2819	-1.3535	8.3388	1.6606	0.2893	6.2032
-5.214	-4.5604	-6.0389	-3.7569	-2.382	-3.7212	-1.4321	0.7571	-0.0464	2.0249	4.4676	3.3426	5.7032	0.7178	-2.707	-4.1533	-1.3713	8.3745	1.6463	0.2928	6.2639
-5.214	-4.5711	-6.0461	-3.7712	-2.4106	-3.7069	-1.4071	0.7821	-0.0071	2.0499	4.5354	3.3819	5.7104	0.7214	-2.6034	-4.0247	-1.3856	8.3602	1.6463	0.3036	6.3103
-5.2032	-4.5426	-6.0318	-3.7926	-2.3784	-3.6926	-1.4321	0.8071	0.0357	2.0642	4.5711	3.4355	5.7318	0.7214	-2.4784	-3.9319	-1.3785	8.3566	1.6678	0.3607	6.3925
-5.1675	-4.5283	-6.0068	-3.7712	-2.3641	-3.6605	-1.4285	0.8107	0.0929	2.1142	4.6426	3.5069	5.7496	0.7178	-2.3927	-3.8283	-1.3749	8.3459	1.6785	0.3857	6.4532
-5.1568	-4.5283	-5.9996	-3.8033	-2.3534	-3.6462	-1.4392	0.8285	0.1643	2.0927	4.7211	3.5783	5.7496	0.7035	-2.3284	-3.789	-1.3749	8.3566	1.7142	0.4464	6.5603
-5.0925	-4.4997	-5.9639	-3.7998	-2.3356	-3.6283	-1.3963	0.8892	0.2321	2.1177	4.8033	3.6605	5.7818	0.7071	-2.2034	-3.7176	-1.3678	8.3209	1.757	0.525	6.646
-5.0497	-4.4604	-5.8889	-3.7819	-2.2856	-3.5355	-1.3678	0.9642	0.3357	2.1392	4.8997	3.7569	5.7961	0.7071	-2.1142	-3.6748	-1.3571	8.2888	1.8142	0.6357	6.771
-4.989	-4.3962	-5.8139	-3.7855	-2.2427	-3.4748	-1.3678	1.0249	0.4143	2.1642	5.0104	3.8426	5.8104	0.6964	-2.0213	-3.6462	-1.3428	8.2531	1.8642	0.725	6.8889
-4.8818	-4.339	-5.7139	-3.7319	-2.1356	-3.4105	-1.3178	1.1071	0.5321	2.182	5.1283	3.964	5.8639	0.6928	-1.8535	-3.5569	-1.3213	8.2066	1.9534	0.8035	6.9817
-4.8068	-4.2604	-5.6282	-3.7212	-2.0927	-3.3248	-1.2999	1.1785	0.6214	2.2034	5.2282	4.0569	5.8639	0.6714	-1.7499	-3.5248	-1.2856	8.1281	2.0284	0.8749	7.0817
-4.6569	-4.114	-5.5247	-3.6605	-1.9749	-3.2248	-1.2214	1.3071	0.7892	2.2463	5.3675	4.1747	5.9175	0.6714	-1.6499	-3.4355	-1.2785	8.1174	2.1392	0.9999	7.246
-4.5211	-4.0247	-5.3961	-3.6141	-1.8713	-3.0962	-1.1356	1.4321	0.9321	2.3213	5.5175	4.3104	5.9746	0.6571	-1.4856	-3.3355	-1.2606	8.0602	2.2427	1.1071	7.3924
-4.414	-3.8712	-5.264	-3.5426	-1.7213	-2.9927	-1.0678	1.5535	1.0856	2.3499	5.6711	4.4604	5.9996	0.65	-1.3213	-3.2034	-1.2499	8.0209	2.3641	1.2178	7.5567
-4.2712	-3.7533	-5.114	-3.4748	-1.5999	-2.8463	-0.9714	1.6856	1.2249	2.407	5.8282	4.5961	6.0425	0.6285	-1.1749	-3.0462	-1.1928	7.9638	2.4927	1.3285	7.6852
-4.089	-3.5855	-4.9568	-3.3498	-1.4571	-2.7177	-0.8785	1.8785	1.4249	2.4784	6.0103	4.7711	6.1068	0.6035	-1.0071	-2.882	-1.1749	7.9245	2.6498	1.4678	7.8531
-3.9462	-3.4105	-4.8247	-3.2998	-1.2749	-2.5784	-0.8035	2.0356	1.5678	2.5606	6.1603	4.9033	6.1532	0.5821	-0.8321	-2.6927	-1.1285	7.8602	2.7677	1.5892	7.9959
-3.7819	-3.2427	-4.6747	-3.2105	-1.1106	-2.4284	-0.6678	2.207	1.7642	2.6427	6.3282	5.064	6.221	0.5607	-0.6714	-2.4784	-1.0856	7.8245	2.8962	1.7142	8.1352
-3.6819	-3.1069	-4.5604	-3.1069	-0.9678	-2.3034	-0.6	2.3534	1.8999	2.7034	6.4996	5.1997	6.2996	0.5393	-0.5143	-2.282	-1.0285	7.7781	3.0427	1.8356	8.2781
-3.5391	-2.9677	-4.4426	-3.0355	-0.8142	-2.1749	-0.5035	2.507	2.0784	2.7713	6.6353	5.3604	6.3139	0.5035	-0.3643	-2.0892	-0.9642	7.6995	3.1748	1.9285	8.3602
-3.3712	-2.8213	-4.3212	-2.9177	-0.6785	-2.0213	-0.3928	2.6534	2.2391	2.8534	6.7781	5.4997	6.3675	0.475	-0.175	-1.8856	-0.9071	7.6674	3.2927	2.0427	8.4388
-3.2677	-2.7284	-4.2176	-2.8213	-0.5357	-1.9499	-0.3178	2.782	2.382	2.9105	6.9139	5.6389	6.4175	0.4607	-0.05	-1.7392	-0.8499	7.5924	3.3676	2.1142	8.5066
-3.1248	-2.5713	-4.0997	-2.7105	-0.3785	-1.8106	-0.1928	2.9712	2.5677	3.0248	7.0424	5.7854	6.496	0.4357	0.0929	-1.5178	-0.8142	7.5352	3.4641	2.2034	8.5816
-2.9784	-2.4356	-3.9712	-2.5748	-0.2143	-1.6749	-0.075	3.1105	2.7034	3.1391	7.146	5.9068	6.5353	0.4178	0.2607	-1.3606	-0.7821	7.4852	3.5426	2.282	8.6209
-2.8141	-2.2927	-3.8569	-2.432	-0.0607	-1.5213	0.075	3.2927	2.8784	3.2427	7.2853	6.0568	6.6174	0.4	0.4035	-1.1856	-0.7821	7.4353	3.6426	2.3713	8.6709
-2.7177	-2.2034	-3.7641	-2.3177	0.0929	-1.3928	0.1893	3.4069	3.0034	3.3355	7.396	6.1746	6.6817	0.4	0.4964	-1.0749	-0.7464	7.3567	3.6962	2.382	8.6602
-2.5391	-2.0249	-3.6391	-2.1677	0.2036	-1.2642	0.325	3.5355	3.1998	3.4498	7.4924	6.3032	6.746	0.4	0.6428	-0.9392	-0.7464	7.2924	3.7355	2.4391	8.6745
-2.4248	-1.9249	-3.5533	-2.032	0.3571	-1.1321	0.4321	3.6712	3.3177	3.5605	7.5531	6.4317	6.8139	0.3857	0.7571	-0.8535	-0.7214	7.2281	3.7641	2.4248	8.6423
-2.2963	-1.7963	-3.4426	-1.8892	0.5107	-1.0142	0.575	3.8033	3.4855	3.6641	7.6388	6.5532	6.8853	0.3785	0.8821	-0.7857	-0.7285	7.1853	3.7998	2.4641	8.6316
-2.1677	-1.6963	-3.3319	-1.7499	0.6285	-0.8571	0.6857	3.9176	3.6283	3.7855	7.7138	6.6817	6.9496	0.3785	0.9785	-0.7	-0.7285	7.1281	3.814	2.4998	8.603
-2.082	-1.5999	-3.2319	-1.6142	0.7785	-0.6964	0.8357	4.039	3.7998	3.8926	7.7709	6.8174	7.0424	0.3821	1.0678	-0.6785	-0.7285	7.0924	3.7819	2.5034	8.5602
-1.9534	-1.4963	-3.1427	-1.4785	0.8785	-0.6	0.9535	4.1462	3.9069	3.9926	7.8138	6.9246	7.096	0.4035	1.1785	-0.6428	-0.7464	7.0317	3.7998	2.5641	8.5138
-1.8713	-1.3999	-3.0462	-1.3285	0.9999	-0.4643	1.0821	4.239	4.0355	4.1069	7.8852	7.0353	7.1603	0.3964	1.2785	-0.6178	-0.7535	7.0138	3.7926	2.5998	8.4709
-1.7713	-1.2821	-2.9534	-1.1856	1.1321	-0.3143	1.2035	4.3247	4.1962	4.2033	7.9495	7.1353	7.2388	0.4	1.3713	-0.5678	-0.7892	6.996	3.7962	2.6784	8.4602
-1.6963	-1.2285	-2.8784	-1.0606	1.2321	-0.2107	1.3321	4.4426	4.2962	4.2997	7.9745	7.2317	7.2745	0.4285	1.4713	-0.5464	-0.8	6.946	3.8033	2.7427	8.4352
-1.6249	-1.1214	-2.807	-0.9321	1.3463	-0.0964	1.4428	4.5211	4.4354	4.4033	8.0174	7.346	7.3567	0.4393	1.5785	-0.5321	-0.8285	6.9353	3.8462	2.8105	8.4352
-1.5642	-1.0392	-2.7641	-0.7892	1.4428	-0.0107	1.5035	4.5819	4.5283	4.4783	8.0566	7.4174	7.3995	0.45	1.6678	-0.4821	-0.8464	6.8924	3.8783	2.8284	8.4066
-1.5142	-0.9821	-2.707	-0.7	1.5356	0.075	1.5892	4.6461	4.6283	4.5426	8.0995	7.4995	7.4424	0.4321	1.7142	-0.4321	-0.8321	6.8389	3.9069	2.8712	8.3995
-1.4785	-0.9107	-2.6713	-0.6035	1.607	0.1607	1.7249	4.7354	4.7068	4.589	8.1245	7.5495	7.4888	0.4321	1.8106	-0.3893	-0.8499	6.8139	3.9462	2.8998	8.3923
-1.4535	-0.8642	-2.6463	-0.4714	1.6606	0.2071	1.8142	4.7783	4.764	4.6461	8.1459	7.5852	7.5102	0.4464	1.8749	-0.2964	-0.8392	6.771	3.9676	2.932	8.3852
-1.4213	-0.7714	-2.5963	-0.3821	1.7356	0.2857	1.8927	4.8033	4.839	4.6961	8.1638	7.6245	7.5317	0.4464	1.932	-0.2107	-0.8464	6.7389	3.9819	2.9177	8.3459
-1.3821	-0.7035	-2.582	-0.2786	1.8035	0.3143	1.9463	4.8568	4.8997	4.7354	8.1673	7.6781	7.5674	0.4464	2.0034	-0.1214	-0.8535	6.7103	3.989	2.9248	8.3316
-1.3892	-0.6821	-2.5784	-0.1893	1.857	0.3428	1.9999	4.9033	4.9568	4.7818	8.1995	7.7031	7.596	0.4571	2.0392	-0.0107	-0.8642	6.6674	3.9926	2.8784	8.3531
-1.3285	-0.5785	-2.5391	-0.0929	1.8892	0.4214	2.0999	4.9354	5.0068	4.839	8.2245	7.7424	7.6174	0.4785	2.107	0.1107	-0.8857	6.6174	3.9998	2.8427	8.3709
-1.3035	-0.5107	-2.5177	0.0071	1.9606	0.4571	2.1534	4.9711	5.0568	4.8783	8.2281	7.7781	7.6352	0.475	2.1499	0.2321	-0.8928	6.5924	4.039	2.7963	8.3888
-1.2713	-0.4571	-2.507	0.0929	2.0284	0.475	2.2106	5.0354	5.1283	4.9318	8.2781	7.7924	7.6388	0.4821	2.182	0.3857	-0.9071	6.5424	4.0712	2.7463	8.4173
-1.2321	-0.3893	-2.4784	0.1607	2.082	0.5143	2.2891	5.0961	5.1747	4.9783	8.3423	7.8495	7.6781	0.4821	2.2141	0.4785	-0.9142	6.5139	4.1247	2.6998	8.4566
-1.2249	-0.3357	-2.4748	0.2143	2.132	0.5357	2.3213	5.1247	5.2175	4.9711	8.3673	7.8781	7.6852	0.475	2.232	0.6	-0.9071	6.4782	4.164	2.6248	8.4923
-1.2106	-0.2893	-2.4713	0.2536	2.1749	0.525	2.3284	5.1997	5.2211	4.9675	8.4173	7.9067	7.6852	0.4714	2.2034	0.65	-0.8892	6.4389	4.2212	2.5213	8.5245
-1.2178	-0.2178	-2.482	0.3	2.2427	0.5464	2.3499	5.2425	5.264	4.9997	8.4459	7.9459	7.6852	0.4714	2.1927	0.6928	-0.8785	6.4067	4.2854	2.4713	8.5887
-1.2106	-0.1714	-2.4713	0.3357	2.2784	0.5464	2.357	5.2782	5.2997	4.989	8.5066	7.9674	7.6674	0.4535	2.1677	0.7214	-0.8642	6.3639	4.3604	2.357	8.6459
-1.2535	-0.1214	-2.5106	0.3428	2.3641	0.5428	2.3677	5.3282	5.3532	4.9854	8.553	8.0031	7.671	0.4464	2.1177	0.7071	-0.8464	6.3532	4.4283	2.2713	8.6923
-1.2785	-0.0893	-2.5284	0.375	2.3999	0.5285	2.3463	5.3818	5.3604	4.9711	8.6066	8.0174	7.6388	0.4214	2.0284	0.6678	-0.8035	6.3317	4.4926	2.1891	8.7316
-1.3106	-0.0643	-2.5784	0.3393	2.432	0.5	2.3034	5.4389	5.3818	4.914	8.6209	8.0424	7.6031	0.3785	1.9463	0.5821	-0.725	6.2818	4.5533	2.0892	8.7637
-1.3428	-0.0607	-2.6106	0.3178	2.4748	0.4964	2.2606	5.4889	5.3961	4.8711	8.6995	8.0566	7.5745	0.3607	1.8535	0.5321	-0.675	6.246	4.639	2.0534	8.8494
-1.3928	-0.0429	-2.6213	0.3143	2.5248	0.4893	2.2034	5.5461	5.4389	4.8461	8.7602	8.1066	7.5495	0.3321	1.7713	0.4178	-0.6107	6.221	4.7068	2.007	8.8887
-1.4321	-0.0393	-2.6998	0.2464	2.5713	0.4535	2.1784	5.6211	5.4711	4.814	8.8173	8.1531	7.5102	0.2786	1.6678	0.3071	-0.5464	6.1925	4.764	1.9534	8.9566
-1.4463	-0.0464	-2.6998	0.2214	2.6141	0.4321	2.107	5.6675	5.4889	4.7461	8.8566	8.2031	7.496	0.2571	1.5749	0.1786	-0.4714	6.1568	4.8033	1.8999	9.0066
-1.4963	-0.05	-2.7534	0.1714	2.632	0.4321	2.0606	5.7282	5.5247	4.714	8.9209	8.2495	7.4852	0.2143	1.4785	0.0464	-0.3893	6.1282	4.8426	1.8499	9.0494
-1.5499	-0.0607	-2.7891	0.1	2.6641	0.4464	2.007	5.7818	5.5497	4.6819	9.0066	8.3102	7.496	0.175	1.3428	-0.1428	-0.3036	6.0996	4.8926	1.7677	9.0744
-1.557	-0.0571	-2.8284	0.0679	2.6927	0.4321	1.957	5.8675	5.6389	4.6283	9.0851	8.3816	7.5102	0.1214	1.2392	-0.3178	-0.2143	6.0889	4.9283	1.7463	9.1244
-1.6285	-0.0964	-2.8712	0	2.7284	0.4464	1.9177	5.9032	5.6711	4.6033	9.1637	8.453	7.4745	0.0929	1.1249	-0.4893	-0.1536	6.0496	4.9568	1.6856	9.1566
-1.6535	-0.1036	-2.8962	-0.0464	2.7391	0.4571	1.832	5.9675	5.7068	4.5676	9.203	8.5173	7.4852	0.0464	1.0035	-0.7035	-0.0714	6.0425	4.989	1.6428	9.1816
-1.7249	-0.1286	-2.9462	-0.1214	2.7963	0.4571	1.7999	6.0139	5.7461	4.5354	9.2423	8.5959	7.4602	0.025	0.8642	-0.8785	-0.0107	6.0139	5.014	1.6035	9.1887
-1.7785	-0.1428	-2.9712	-0.1643	2.832	0.45	1.707	6.0389	5.7854	4.4961	9.3066	8.6423	7.4781	-0.0107	0.7642	-1.1035	0.05	6.0318	5.0104	1.5678	9.1959
-1.8213	-0.1643	-3.0034	-0.2286	2.8641	0.4785	1.6392	6.0996	5.8175	4.4819	9.3351	8.6816	7.4567	-0.0393	0.65	-1.3071	0.1107	6.0032	4.9925	1.5856	9.1709
-1.8963	-0.1714	-3.0462	-0.3286	2.8891	0.4678	1.5642	6.1389	5.8603	4.4533	9.3958	8.7459	7.4745	-0.0464	0.5678	-1.4821	0.1357	5.9925	5.014	1.5678	9.1744
-1.9606	-0.2107	-3.1141	-0.4535	2.9177	0.4571	1.4785	6.1603	5.9175	4.3854	9.4066	8.7923	7.4531	-0.0821	0.4714	-1.6678	0.1821	5.9996	5.0068	1.582	9.1494
-2.0427	-0.225	-3.1712	-0.525	2.9212	0.4607	1.3892	6.1603	5.9246	4.3176	9.4351	8.828	7.4281	-0.0964	0.3893	-1.8535	0.225	5.9782	4.9854	1.582	9.128
-2.0963	-0.2536	-3.1962	-0.6035	2.9712	0.4785	1.3392	6.196	5.9818	4.2819	9.4673	8.8923	7.4317	-0.1071	0.3178	-2.007	0.2464	5.9889	4.989	1.582	9.1173
-2.1713	-0.2536	-3.2248	-0.7071	3.0141	0.4714	1.2464	6.2425	6.0318	4.2604	9.4923	8.928	7.4138	-0.1071	0.2286	-2.1427	0.2464	5.9853	4.989	1.582	9.1209
-2.2356	-0.2607	-3.2819	-0.7964	3.0177	0.4964	1.1856	6.2603	6.0889	4.2283	9.5244	8.9959	7.4353	-0.1036	0.1571	-2.207	0.2464	5.9925	4.9783	1.5999	9.1173
-2.3034	-0.2928	-3.3141	-0.8928	3.057	0.5357	1.1249	6.2996	6.1282	4.1819	9.5565	9.0601	7.4281	-0.1036	0.0821	-2.307	0.2357	5.9818	5.0033	1.5963	9.128
-2.3534	-0.3107	-3.3141	-0.9821	3.1105	0.5643	1.0535	6.3103	6.1782	4.1712	9.6101	9.0923	7.4531	-0.1	0.0071	-2.3284	0.2214	5.9782	5.039	1.5963	9.1351
-2.4356	-0.3143	-3.3426	-1.0642	3.1605	0.6142	1.0178	6.3532	6.2318	4.1497	9.6423	9.1423	7.4388	-0.0857	-0.0714	-2.3784	0.2178	5.9711	5.0568	1.607	9.1459
-2.4748	-0.275	-3.3212	-1.1356	3.2177	0.6964	1.0107	6.4103	6.3353	4.1569	9.6708	9.228	7.4745	-0.0786	-0.1286	-2.3463	0.1714	5.9818	5.1033	1.657	9.1959
-2.482	-0.25	-3.3462	-1.1892	3.2855	0.7571	0.9607	6.4746	6.4282	4.1926	9.7494	9.3066	7.5424	-0.0571	-0.1857	-2.3141	0.1321	5.9996	5.1711	1.6963	9.2423
-2.532	-0.2357	-3.3284	-1.2392	3.3784	0.8392	0.9857	6.5496	6.546	4.2319	9.8458	9.4173	7.6174	-0.025	-0.2786	-2.3034	0.0786	6.0068	5.2068	1.7463	9.2851
-2.5427	-0.1607	-3.2819	-1.2749	3.4962	0.9678	1.0035	6.6282	6.6496	4.2997	9.8958	9.5101	7.6495	-0.0036	-0.3607	-2.2713	0.0179	6.0675	5.2675	1.8499	9.3458
-2.5998	-0.1214	-3.2641	-1.3213	3.5498	1.0285	1.0035	6.6782	6.7746	4.3533	9.9708	9.5994	7.6995	0.0393	-0.4571	-2.2641	-0.0429	6.0746	5.3211	1.9249	9.4066
-2.632	-0.1143	-3.2355	-1.3392	3.6248	1.1285	1.0606	6.7496	6.8746	4.3854	10.0458	9.6887	7.7674	0.0679	-0.5428	-2.2963	-0.0929	6.1103	5.364	2.0284	9.4458
-2.6605	-0.0643	-3.2355	-1.3535	3.7283	1.2321	1.0892	6.8389	6.9924	4.4747	10.1208	9.803	7.8602	0.1036	-0.5928	-2.3249	-0.1678	6.1389	5.4532	2.1177	9.5351
-2.7034	-0.0179	-3.2105	-1.3821	3.814	1.3213	1.1249	6.9246	7.1174	4.5711	10.2244	9.9172	7.9566	0.1393	-0.6964	-2.3499	-0.225	6.1853	5.5104	2.2427	9.6101
-2.7284	0.0357	-3.1677	-1.3963	3.9033	1.4606	1.1785	7.021	7.2281	4.664	10.2958	10.0244	7.9995	0.1786	-0.775	-2.4034	-0.3	6.2425	5.5997	2.357	9.6744
-2.7534	0.1	-3.1355	-1.3856	4.0069	1.5678	1.2464	7.1138	7.3531	4.7926	10.3851	10.1458	8.1209	0.2071	-0.8249	-2.432	-0.3678	6.2675	5.6854	2.482	9.7815
-2.7891	0.1214	-3.1177	-1.3678	4.089	1.6642	1.3213	7.2138	7.4531	4.889	10.4779	10.2279	8.2066	0.2178	-0.8857	-2.5427	-0.4035	6.3067	5.7354	2.5641	9.853
-2.8355	0.2036	-3.0927	-1.3463	4.1926	1.7785	1.3963	7.271	7.5781	5.0033	10.5708	10.3672	8.2995	0.2571	-0.9499	-2.6605	-0.4571	6.371	5.8282	2.6391	9.9637
-2.907	0.2143	-3.0712	-1.3285	4.2355	1.8677	1.4499	7.3424	7.6852	5.089	10.6315	10.4565	8.3852	0.25	-0.9749	-2.7677	-0.4714	6.4032	5.8782	2.6891	10.0279
-2.9355	0.2571	-3.0355	-1.3035	4.3247	1.9499	1.5392	7.4602	7.8281	5.2247	10.735	10.5922	8.5102	0.275	-0.9892	-2.8712	-0.5143	6.4853	5.9639	2.7248	10.1351
-3.0105	0.2464	-3.0462	-1.3321	4.3712	2.0427	1.5999	7.5602	7.9245	5.2818	10.785	10.7065	8.5816	0.2928	-1.0821	-2.9927	-0.5107	6.5246	6.0139	2.732	10.1851
-3.0391	0.2678	-3.0248	-1.2928	4.4533	2.1427	1.657	7.6245	8.0316	5.3711	10.8708	10.81	8.6495	0.275	-1.1106	-3.0962	-0.5143	6.5496	6.0746	2.7248	10.2636
-3.0962	0.2893	-3.0284	-1.2856	4.5211	2.2356	1.7106	7.6924	8.1316	5.4604	10.9636	10.9279	8.7816	0.2678	-1.1392	-3.1998	-0.5035	6.5853	6.121	2.7105	10.3101
-3.1391	0.3071	-3.0212	-1.2821	4.5676	2.3249	1.7677	7.7674	8.2566	5.5568	11.0493	11.0636	8.8209	0.2714	-1.2285	-3.3391	-0.4893	6.646	6.171	2.682	10.4029
-3.1819	0.3214	-2.9855	-1.2642	4.6569	2.432	1.832	7.8959	8.403	5.6425	11.1743	11.1957	8.928	0.2607	-1.2821	-3.4498	-0.4678	6.6996	6.2568	2.6891	10.4993
-3.2462	0.3214	-2.982	-1.2713	4.7176	2.4998	1.8606	7.9709	8.5245	5.7104	11.285	11.3243	9.028	0.2464	-1.3356	-3.5498	-0.4464	6.746	6.3353	2.6677	10.5886
-3.2855	0.3607	-2.9712	-1.3071	4.7783	2.6177	1.9106	8.0852	8.6209	5.7746	11.3564	11.4707	9.0887	0.2321	-1.3892	-3.6998	-0.4107	6.7996	6.4103	2.6463	10.7029
-3.3712	0.3535	-2.9677	-1.3428	4.8676	2.7034	1.9463	8.2031	8.7923	5.8425	11.4743	11.635	9.1923	0.2107	-1.5106	-3.8105	-0.3678	6.8853	6.496	2.6284	10.8172
-3.3998	0.3893	-2.9462	-1.3428	4.9497	2.807	1.9749	8.3316	8.9173	5.8996	11.6136	11.7528	9.2709	0.1821	-1.5678	-3.9212	-0.3393	6.9281	6.6032	2.6248	10.9243
-3.4676	0.4178	-2.9712	-1.3928	5.0354	2.907	2.0106	8.4245	9.053	5.9746	11.7171	11.9028	9.3494	0.1607	-1.6999	-4.0176	-0.2821	7.0138	6.7139	2.6248	11.0207
-3.5355	0.4107	-2.9462	-1.4571	5.114	2.9748	2.0356	8.528	9.1566	6.0318	11.7957	12.035	9.3887	0.125	-1.807	-4.114	-0.225	7.0531	6.7889	2.6141	11.1172
-3.5962	0.4428	-2.9748	-1.4821	5.1782	3.0748	2.0463	8.653	9.2923	6.0818	11.9278	12.1778	9.5065	0.1178	-1.8927	-4.1855	-0.1786	7.1496	6.8996	2.6748	11.235
-3.6391	0.4714	-2.9498	-1.5463	5.2568	3.1712	2.0749	8.7816	9.3923	6.146	12.035	12.2849	9.5637	0.0679	-2.0034	-4.264	-0.1036	7.2353	6.9817	2.682	11.335
-3.7391	0.4571	-2.982	-1.607	5.3318	3.2284	2.0534	8.8459	9.478	6.1782	12.1207	12.3849	9.6315	0.025	-2.107	-4.3747	-0.0179	7.296	7.0424	2.6677	11.4279
-3.8283	0.4893	-2.982	-1.6606	5.3889	3.2927	2.0642	8.9387	9.5708	6.2282	12.1992	12.4635	9.6744	-0.0143	-2.2106	-4.439	0.0571	7.3531	7.1424	2.6855	11.4957
-3.864	0.5143	-2.957	-1.7106	5.4532	3.3784	2.0749	9.0387	9.6887	6.2532	12.2778	12.5706	9.7244	-0.0464	-2.2856	-4.5533	0.1286	7.4388	7.1924	2.7391	11.5671
-3.9426	0.5035	-2.982	-1.7749	5.5068	3.4284	2.0642	9.1137	9.7422	6.2746	12.3385	12.6314	9.778	-0.0893	-2.4141	-4.6319	0.2036	7.4995	7.2353	2.7677	11.61
-3.9998	0.5285	-2.9712	-1.807	5.5639	3.4891	2.0606	9.1887	9.8315	6.321	12.4099	12.7028	9.8315	-0.1214	-2.4927	-4.7354	0.2714	7.5495	7.2745	2.8177	11.6921
-4.0033	0.5714	-2.9355	-1.8213	5.6104	3.5819	2.1106	9.2709	9.9137	6.371	12.4885	12.7706	9.8744	-0.1714	-2.5534	-4.8318	0.3357	7.6031	7.3245	2.8891	11.7386
-4.0283	0.6071	-2.8891	-1.8213	5.6961	3.6712	2.1034	9.3494	9.9887	6.4175	12.5349	12.8563	9.9208	-0.1821	-2.6356	-4.9283	0.3893	7.6638	7.3245	2.9712	11.785
-4.064	0.6571	-2.8712	-1.8035	5.7711	3.7569	2.1499	9.4208	10.0565	6.4889	12.5956	12.9313	9.9815	-0.225	-2.7284	-5.0604	0.4571	7.6852	7.3674	3.007	11.8528
-4.0497	0.7142	-2.7748	-1.8035	5.8711	3.8498	2.232	9.5101	10.1922	6.5674	12.6778	13.0099	10.0672	-0.2428	-2.7998	-5.1104	0.4893	7.7317	7.4103	3.0998	11.91
-4.0426	0.8071	-2.732	-1.732	5.9818	3.9533	2.2891	9.6423	10.2886	6.6496	12.7671	13.1028	10.1387	-0.2643	-2.8427	-5.1782	0.525	7.7995	7.471	3.2034	11.9528
-4.0105	0.8535	-2.6605	-1.7178	6.0461	4.0676	2.3534	9.7065	10.3922	6.7282	12.8028	13.1849	10.2065	-0.2786	-2.9177	-5.239	0.5607	7.8174	7.5102	3.2712	12.0135
-3.964	0.9321	-2.5248	-1.6535	6.1568	4.2069	2.432	9.8101	10.5065	6.8353	12.8778	13.2885	10.2994	-0.275	-2.9641	-5.2747	0.5643	7.8638	7.5674	3.3605	12.0671
-3.9248	1.0249	-2.4427	-1.5892	6.2496	4.3319	2.5106	9.9315	10.6493	6.9353	12.967	13.3777	10.4065	-0.2536	-3.0248	-5.314	0.5643	7.9102	7.6674	3.4284	12.1028
-3.864	1.1321	-2.3499	-1.5035	6.3782	4.4426	2.6177	10.0529	10.7958	7.0603	13.0528	13.4849	10.5351	-0.2571	-3.0605	-5.3211	0.5393	7.9388	7.7352	3.4891	12.16
-3.839	1.1785	-2.2356	-1.4463	6.5282	4.614	2.7105	10.1601	10.8993	7.1996	13.1099	13.6099	10.6386	-0.2464	-3.1391	-5.3461	0.5214	7.9745	7.7924	3.4926	12.1992
-3.7819	1.2963	-2.0999	-1.3571	6.6139	4.7497	2.8177	10.2744	11.0172	7.2817	13.1742	13.6956	10.7243	-0.2357	-3.1819	-5.3282	0.4893	7.9995	7.8352	3.5284	12.235
-3.7141	1.3713	-1.9963	-1.3178	6.7567	4.8747	2.8962	10.3851	11.1243	7.4245	13.2456	13.8027	10.8315	-0.225	-3.2498	-5.3104	0.4643	8.0281	7.8781	3.5105	12.2635
-3.6712	1.4535	-1.9035	-1.2713	6.8603	4.989	2.9605	10.4672	11.2529	7.5424	13.2777	13.892	10.935	-0.2143	-3.3034	-5.2782	0.4535	8.0209	7.9031	3.4962	12.2814
-3.5962	1.5713	-1.7677	-1.2178	6.9781	5.1711	3.0677	10.5672	11.3779	7.6495	13.3385	13.9777	11.0207	-0.2071	-3.3462	-5.2247	0.4285	8.0209	7.9138	3.4605	12.3278
-3.5212	1.6963	-1.6213	-1.1642	7.1353	5.2925	3.1427	10.6922	11.5064	7.7817	13.4134	14.0848	11.1314	-0.2107	-3.3641	-5.2175	0.4214	8.0352	7.9566	3.4105	12.3778
-3.4284	1.807	-1.507	-1.1214	7.271	5.4461	3.2355	10.7993	11.61	7.9102	13.4813	14.1813	11.26	-0.2	-3.3891	-5.1533	0.4143	8.0638	8.0066	3.3605	12.4099
-3.3569	1.9249	-1.3571	-1.0928	7.3888	5.5818	3.3355	10.8957	11.7421	8.0566	13.5456	14.2884	11.3457	-0.2036	-3.3962	-5.0961	0.4178	8.0995	8.0638	3.2927	12.4635
-3.2712	2.0642	-1.2106	-1.0785	7.5245	5.7496	3.4462	11.0207	11.885	8.1673	13.6563	14.3884	11.4743	-0.2036	-3.4141	-5.0354	0.425	8.1138	8.1316	3.2284	12.5206
-3.1784	2.182	-1.0856	-1.0428	7.6352	5.9068	3.5284	11.1136	11.9993	8.2781	13.7241	14.4598	11.5671	-0.2036	-3.3891	-4.9747	0.4428	8.1245	8.2138	3.1355	12.5956
-3.0855	2.3106	-0.9428	-1.0285	7.7817	6.0496	3.6176	11.21	12.1064	8.3959	13.792	14.542	11.6743	-0.2357	-3.3926	-4.9604	0.4857	8.1531	8.2638	3.0105	12.6528
-3.0248	2.4213	-0.7821	-1.0249	7.9245	6.1782	3.7105	11.3207	12.2314	8.5316	13.8848	14.6384	11.7671	-0.25	-3.3926	-4.9461	0.5214	8.1781	8.3459	2.9141	12.7492
-2.957	2.5534	-0.6892	-1.0535	8.0459	6.3067	3.789	11.4029	12.3349	8.6066	13.967	14.7062	11.8385	-0.2928	-3.3891	-4.939	0.5964	8.1923	8.403	2.7998	12.8028
-2.8677	2.6677	-0.5178	-1.0499	8.1709	6.4532	3.8533	11.5136	12.4385	8.6959	14.0206	14.7884	11.9064	-0.3	-3.3426	-4.9711	0.6464	8.2066	8.4673	2.7391	12.8813
-2.8213	2.7641	-0.4285	-1.0892	8.2459	6.5424	3.8962	11.5421	12.5064	8.7173	14.0777	14.8276	11.9671	-0.3535	-3.3748	-5.0033	0.7428	8.2066	8.5173	2.657	12.8992
-2.7713	2.8962	-0.3214	-1.0785	8.3531	6.671	3.9426	11.6207	12.5956	8.7637	14.117	14.8919	12.0243	-0.4	-3.3926	-5.064	0.8392	8.2495	8.5745	2.607	12.9563
-2.7248	3.032	-0.2178	-1.1285	8.4709	6.7924	4.0105	11.6886	12.6778	8.8173	14.2063	14.9491	12.0814	-0.4464	-3.3462	-5.1175	0.9214	8.2638	8.6102	2.5641	13.017
-2.7034	3.082	-0.1107	-1.1428	8.528	6.8496	4.0319	11.7243	12.7242	8.8209	14.2384	14.9848	12.0778	-0.4964	-3.3712	-5.2247	1.0285	8.2531	8.6102	2.532	13.0599
-2.6427	3.1927	-0.0214	-1.1356	8.6173	6.9603	4.0569	11.7957	12.8063	8.8566	14.2884	15.0419	12.1028	-0.5464	-3.3534	-5.3175	1.1214	8.2816	8.6352	2.5141	13.0813
-2.5998	3.2748	0.0571	-1.1535	8.6995	7.0638	4.0569	11.8278	12.8778	8.878	14.3277	15.0991	12.1492	-0.6	-3.3641	-5.4782	1.2142	8.2531	8.6387	2.5248	13.1206
-2.582	3.3498	0.1464	-1.1464	8.7745	7.1388	4.0997	11.8635	12.9313	8.903	14.3848	15.1312	12.1457	-0.6428	-3.3676	-5.6246	1.2999	8.2673	8.6709	2.5427	13.1635
-2.5534	3.4248	0.2464	-1.1892	8.8066	7.2103	4.1105	11.9028	12.9778	8.8709	14.417	15.1526	12.1671	-0.6821	-3.3748	-5.7746	1.3785	8.2566	8.6709	2.5391	13.1706
-2.5391	3.4855	0.3107	-1.1821	8.8566	7.2781	4.1247	11.9171	13.0099	8.8744	14.4348	15.1812	12.1957	-0.7142	-3.3605	-5.9532	1.4499	8.2495	8.6637	2.5963	13.192
-2.5141	3.5426	0.3928	-1.1392	8.9102	7.3531	4.1426	11.9385	13.0599	8.8852	14.4812	15.1991	12.2171	-0.7357	-3.3784	-6.0818	1.4928	8.2745	8.6959	2.6248	13.2385
-2.457	3.5926	0.4785	-1.1178	8.953	7.4317	4.1676	11.9528	13.1063	8.9173	14.5062	15.2169	12.2385	-0.7607	-3.3748	-6.2389	1.5392	8.2459	8.6959	2.6963	13.2706
-2.4427	3.6319	0.5928	-1.0999	8.9959	7.5174	4.2176	11.9921	13.1528	8.9387	14.5384	15.2669	12.2528	-0.7678	-3.4034	-6.371	1.557	8.2638	8.7387	2.7677	13.317
-2.4213	3.6855	0.6821	-1.0285	9.0459	7.571	4.2819	12.0492	13.1992	9.0066	14.5598	15.3098	12.3099	-0.7571	-3.3926	-6.4889	1.5499	8.2852	8.7637	2.857	13.3777
-2.3499	3.7676	0.7642	-0.9642	9.0959	7.6745	4.364	12.085	13.267	9.0637	14.6062	15.3526	12.3457	-0.7642	-3.4212	-6.646	1.5499	8.3245	8.8066	2.9105	13.4456
-2.3106	3.7783	0.8607	-0.8785	9.1494	7.7709	4.4283	12.1242	13.3027	9.128	14.6527	15.3812	12.4135	-0.7714	-3.4534	-6.7246	1.5392	8.3388	8.8673	2.9462	13.5277
-2.2534	3.8462	0.9964	-0.7785	9.1744	7.8852	4.5461	12.1707	13.3635	9.2101	14.6884	15.4419	12.4707	-0.75	-3.4712	-6.871	1.5142	8.3566	8.9244	2.9784	13.6134
-2.1927	3.914	1.0821	-0.6892	9.2459	7.9745	4.639	12.2171	13.4313	9.2994	14.7348	15.4883	12.5456	-0.7285	-3.5069	-6.9746	1.4785	8.3852	9.028	2.9962	13.6849
-2.1284	3.9783	1.1892	-0.5571	9.2958	8.0674	4.7676	12.2921	13.4849	9.4208	14.7741	15.5312	12.6135	-0.7178	-3.5748	-7.0781	1.4499	8.4102	9.1101	3.0177	13.7813
-2.107	3.9926	1.2821	-0.4643	9.3066	8.1531	4.8568	12.3349	13.5277	9.4923	14.8241	15.5526	12.6492	-0.7071	-3.6391	-7.171	1.4213	8.4352	9.1744	3.0355	13.842
-2.0427	4.0462	1.3642	-0.3357	9.3744	8.2495	4.9961	12.3742	13.5742	9.6173	14.8276	15.599	12.7135	-0.6785	-3.6891	-7.2138	1.3678	8.4352	9.2173	3.0534	13.9134
-2.0177	4.0855	1.4535	-0.2428	9.3994	8.3352	5.0854	12.3957	13.6063	9.7173	14.8384	15.6276	12.7635	-0.65	-3.7426	-7.2853	1.3213	8.4709	9.2387	3.057	13.9491
-1.982	4.0962	1.5428	-0.1536	9.4316	8.428	5.214	12.4349	13.6313	9.8315	14.8669	15.6276	12.8135	-0.625	-3.8355	-7.371	1.2642	8.5245	9.2816	3.0462	13.992
-1.9392	4.1676	1.6178	-0.0357	9.4851	8.528	5.3104	12.4814	13.6599	9.9458	14.8526	15.6419	12.8813	-0.5892	-3.889	-7.4353	1.2035	8.5423	9.3208	3.0391	13.992
-1.9356	4.1783	1.7106	0.0393	9.503	8.5995	5.4247	12.4849	13.7099	10.0208	14.8812	15.6669	12.942	-0.5535	-3.964	-7.4888	1.1321	8.6173	9.3137	3.032	14.0277
-1.8927	4.239	1.8213	0.1071	9.553	8.6637	5.4997	12.4885	13.7349	10.1208	14.8526	15.649	12.9742	-0.5178	-4.0355	-7.5495	1.0642	8.6173	9.2958	2.9962	14.0277
-1.8785	4.2569	1.8999	0.15	9.5851	8.7566	5.5997	12.5135	13.7384	10.2172	14.8134	15.624	12.9706	-0.4928	-4.0676	-7.5817	0.9857	8.6745	9.2816	2.9784	13.992
-1.8356	4.2819	1.9499	0.1786	9.5923	8.778	5.6461	12.4885	13.7599	10.2601	14.7705	15.6169	12.9992	-0.4643	-4.1497	-7.6067	0.9392	8.7066	9.2316	2.9212	13.9384
-1.7999	4.3533	2.0784	0.2286	9.6637	8.8923	5.7211	12.5028	13.8063	10.3636	14.7455	15.6276	13.0528	-0.4285	-4.1533	-7.621	0.8464	8.7637	9.2209	2.9462	13.9063
-1.7677	4.4176	2.1713	0.2321	9.6923	8.978	5.7604	12.5135	13.867	10.4208	14.6991	15.5955	13.0599	-0.3928	-4.1962	-7.6317	0.8035	8.8316	9.1923	2.982	13.8598
-1.7213	4.4711	2.2749	0.2464	9.703	9.0566	5.8104	12.4885	13.867	10.4458	14.6384	15.5633	13.0528	-0.3678	-4.2105	-7.5924	0.7464	8.878	9.1351	3.007	13.7884
-1.6713	4.539	2.3534	0.2428	9.7458	9.1209	5.8211	12.4885	13.8813	10.4993	14.5741	15.5419	13.0706	-0.3357	-4.1962	-7.5888	0.6892	8.928	9.0709	3.0712	13.7099
-1.6535	4.5747	2.4498	0.1821	9.778	9.1709	5.8282	12.4314	13.8956	10.5172	14.4812	15.4562	13.0492	-0.3286	-4.2283	-7.596	0.6571	8.9887	9.0066	3.1141	13.6099
-1.657	4.589	2.4856	0.1321	9.778	9.1994	5.7996	12.3742	13.867	10.4922	14.3634	15.4062	13.0099	-0.3143	-4.2426	-7.5995	0.65	9.0566	8.903	3.1712	13.4706
-1.6463	4.6461	2.5463	0.0286	9.778	9.228	5.7532	12.3349	13.842	10.4743	14.2455	15.3062	12.9813	-0.2928	-4.2604	-7.546	0.6142	9.1173	8.828	3.2927	13.3349
-1.6142	4.6569	2.5927	-0.0643	9.753	9.2209	5.6854	12.2492	13.7599	10.3922	14.0955	15.2098	12.9135	-0.2964	-4.2712	-7.5388	0.6035	9.153	8.7495	3.3605	13.1528
-1.6106	4.689	2.6213	-0.1678	9.7387	9.2316	5.6175	12.1314	13.6956	10.3386	13.9527	15.0776	12.8385	-0.2821	-4.2926	-7.521	0.6107	9.2137	8.6245	3.4319	12.9813
-1.5999	4.6819	2.632	-0.2928	9.6673	9.1744	5.4854	12.035	13.6313	10.2422	13.7849	14.9526	12.7671	-0.3036	-4.3283	-7.5424	0.6107	9.2387	8.5316	3.4926	12.8206
-1.6285	4.6926	2.6284	-0.4143	9.603	9.1066	5.3747	11.9135	13.5063	10.1279	13.6134	14.8134	12.6528	-0.2928	-4.3676	-7.4995	0.6142	9.278	8.4352	3.5748	12.6099
-1.6535	4.6747	2.5963	-0.5535	9.5208	9.0244	5.239	11.7921	13.3849	10.0172	13.4384	14.6419	12.5706	-0.3	-4.3854	-7.4745	0.6214	9.303	8.3138	3.6283	12.4492
-1.6642	4.6676	2.5748	-0.6642	9.4816	8.978	5.1211	11.6707	13.2635	9.8994	13.2849	14.4705	12.4778	-0.3036	-4.414	-7.4495	0.625	9.3244	8.1995	3.6962	12.2742
-1.7213	4.5961	2.4856	-0.8321	9.3458	8.8637	4.9533	11.5207	13.1063	9.7565	13.0885	14.2955	12.3457	-0.3	-4.4569	-7.4424	0.6392	9.3244	8.0709	3.7283	12.0742
-1.7535	4.5319	2.4248	-0.9499	9.2209	8.7316	4.8247	11.3457	12.9528	9.603	12.9028	14.1027	12.2457	-0.3107	-4.5319	-7.4174	0.6428	9.2923	7.9531	3.7426	11.8885
-1.8142	4.4212	2.332	-1.0928	9.0566	8.5959	4.6497	11.1707	12.7778	9.4423	12.7242	13.9206	12.1242	-0.3321	-4.5676	-7.4174	0.675	9.2709	7.7888	3.7176	11.6921
-1.832	4.3676	2.2499	-1.2178	8.9423	8.4673	4.4961	11.0386	12.6421	9.2994	12.5564	13.7849	12.0028	-0.325	-4.5819	-7.3781	0.6642	9.2744	7.671	3.6962	11.5529
-1.8713	4.2783	2.157	-1.3392	8.8209	8.3209	4.3569	10.9029	12.4778	9.1494	12.4135	13.592	11.8743	-0.3393	-4.6104	-7.3888	0.6857	9.2316	7.5352	3.6426	11.41
-1.9285	4.1819	2.0606	-1.4678	8.6745	8.1638	4.2033	10.7386	12.3207	8.9673	12.2314	13.4242	11.7493	-0.3535	-4.6783	-7.396	0.7214	9.1959	7.3924	3.5712	11.26
-1.9713	4.1033	1.9499	-1.5678	8.5638	8.0281	4.064	10.6351	12.1778	8.8566	12.1457	13.292	11.6314	-0.375	-4.6961	-7.4281	0.7428	9.1459	7.3067	3.4676	11.1957
-2.0213	4.0497	1.8606	-1.6606	8.4709	7.8995	3.9176	10.5351	12.0278	8.6959	12.0421	13.1528	11.5636	-0.3607	-4.739	-7.4353	0.75	9.1351	7.221	3.3462	11.1314
-2.057	3.964	1.7677	-1.7642	8.3566	7.8031	3.8176	10.4351	11.9243	8.5566	11.9493	13.0385	11.435	-0.3821	-4.7676	-7.4924	0.7678	9.0959	7.1353	3.2391	11.0957
-2.1284	3.9176	1.6963	-1.8535	8.2709	7.6852	3.6855	10.3744	11.81	8.3995	11.885	12.9099	11.3064	-0.3928	-4.7926	-7.5245	0.7964	9.0352	7.0817	3.1677	11.0493
-2.1534	3.8283	1.5749	-1.907	8.1995	7.5567	3.5819	10.3172	11.6993	8.2745	11.8064	12.7992	11.2136	-0.3964	-4.7997	-7.6138	0.8035	9.0066	7.0567	3.0891	11.0422
-2.1927	3.7748	1.5178	-1.9892	8.1388	7.4852	3.4748	10.2672	11.6207	8.1495	11.7564	12.6849	11.135	-0.4035	-4.8068	-7.7031	0.8071	8.9852	7.046	3.0355	11.035
-2.2177	3.7748	1.4749	-2.0177	8.1174	7.4103	3.4069	10.2172	11.5421	8.0495	11.7278	12.6064	11.0493	-0.3928	-4.839	-7.8031	0.7928	8.9602	7.046	2.9677	11.0422
-2.2391	3.7176	1.4071	-2.0999	8.0674	7.3067	3.2819	10.2136	11.4421	7.9424	11.6814	12.5028	10.9493	-0.4035	-4.8533	-7.9352	0.8107	8.9209	7.0603	2.9248	11.0672
-2.2463	3.7105	1.3606	-2.1034	8.0424	7.2388	3.1927	10.1994	11.3636	7.8531	11.66	12.4278	10.835	-0.3893	-4.9068	-8.0138	0.7964	8.903	7.0781	2.9034	11.0743
-2.3034	3.6783	1.2821	-2.1856	8.0281	7.171	3.1105	10.1994	11.31	7.7638	11.6314	12.3421	10.7815	-0.3821	-4.9211	-8.1388	0.7892	8.853	7.1031	2.8927	11.1029
-2.3034	3.6641	1.2499	-2.2427	8.0174	7.071	3.0141	10.1744	11.2493	7.671	11.5921	12.2671	10.6743	-0.3964	-4.9783	-8.2245	0.8035	8.8316	7.1281	2.8784	11.11
-2.332	3.6212	1.1749	-2.2677	7.9852	6.9996	2.9355	10.1565	11.16	7.5531	11.5457	12.1635	10.5672	-0.4071	-4.9961	-8.3102	0.8249	8.7816	7.1353	2.8641	11.1029
-2.3784	3.6176	1.1249	-2.332	7.9709	6.921	2.8712	10.1315	11.0743	7.4638	11.5136	12.06	10.4886	-0.4071	-5.0461	-8.3459	0.8428	8.753	7.1638	2.8891	11.1136
-2.3927	3.6033	1.1106	-2.407	7.9352	6.8317	2.8105	10.0922	10.9815	7.3853	11.4707	11.9528	10.3529	-0.4214	-5.0783	-8.428	0.8535	8.6959	7.196	2.8855	11.1314
-2.4177	3.5891	1.0499	-2.4606	7.9138	6.7603	2.732	10.0244	10.8957	7.3245	11.4171	11.86	10.2636	-0.4357	-5.1175	-8.4388	0.8821	8.628	7.1996	2.8677	11.1314
-2.4356	3.5498	0.9892	-2.5356	7.8674	6.6639	2.6641	9.9851	10.7922	7.2281	11.3421	11.7457	10.1422	-0.4464	-5.1604	-8.4138	0.9178	8.5709	7.2067	2.8891	11.1065
-2.4534	3.5391	0.9535	-2.5748	7.8352	6.5603	2.5641	9.9065	10.6672	7.1496	11.2636	11.6564	10.0065	-0.4571	-5.1747	-8.4173	0.9392	8.4566	7.2245	2.8855	11.0922
-2.4927	3.5248	0.8892	-2.6605	7.7852	6.4317	2.5034	9.8601	10.5601	7.0424	11.2029	11.5421	9.8851	-0.4893	-5.2318	-8.3995	0.9785	8.3602	7.2067	2.8677	11.0636
-2.5177	3.5141	0.8071	-2.7177	7.7209	6.3282	2.3963	9.7994	10.4065	6.9639	11.1314	11.3921	9.7422	-0.4964	-5.264	-8.3281	1.0178	8.2602	7.2031	2.8248	11.0207
-2.5713	3.4784	0.7142	-2.8391	7.6317	6.1639	2.282	9.7208	10.2529	6.8174	11.0243	11.2386	9.5887	-0.5464	-5.289	-8.3352	1.0892	8.1031	7.1817	2.7713	10.9636
-2.6356	3.4248	0.6357	-2.9462	7.5602	6.0425	2.182	9.6208	10.1065	6.6996	10.9279	11.0993	9.4173	-0.5643	-5.339	-8.3388	1.1321	7.9674	7.171	2.6927	10.9065
-2.6963	3.3926	0.5178	-3.0355	7.4924	5.8925	2.057	9.5173	9.8887	6.5532	10.7922	10.9172	9.1959	-0.5857	-5.3961	-8.3423	1.1964	7.8138	7.1424	2.5856	10.8493
-2.7748	3.3319	0.3857	-3.1498	7.3995	5.6996	1.9356	9.3958	9.7208	6.4175	10.6886	10.7458	9.0102	-0.6142	-5.4604	-8.3173	1.2428	7.6602	7.1317	2.4713	10.7815
-2.8641	3.2534	0.2428	-3.2641	7.2603	5.5247	1.8106	9.278	9.5065	6.2318	10.5779	10.5493	8.8102	-0.6285	-5.5461	-8.4066	1.2963	7.471	7.1174	2.3356	10.7208
-2.9641	3.1784	0.0929	-3.4034	7.1603	5.3068	1.6463	9.153	9.278	6.0389	10.4422	10.3351	8.5745	-0.6678	-5.6211	-8.4745	1.3642	7.296	7.0781	2.1749	10.6458
-3.1177	3.1212	-0.0536	-3.5284	7.021	5.0818	1.4785	9.003	9.0423	5.8389	10.2815	10.1101	8.3459	-0.725	-5.6782	-8.5245	1.4356	7.1138	7.0317	2.0034	10.5386
-3.2462	3.0284	-0.2643	-3.6641	6.8746	4.8461	1.3071	8.8352	8.7923	5.6175	10.1101	9.8744	8.0709	-0.7571	-5.7746	-8.5959	1.5142	6.9246	6.971	1.8142	10.4458
-3.3676	2.9248	-0.4393	-3.7998	6.7139	4.6104	1.1178	8.6709	8.5138	5.3961	9.8958	9.5958	7.7959	-0.7857	-5.8496	-8.6923	1.5856	6.7496	6.9031	1.632	10.3172
-3.5355	2.8177	-0.6142	-3.9355	6.5353	4.3569	0.9464	8.4888	8.2495	5.1533	9.7101	9.3423	7.521	-0.8357	-5.9603	-8.778	1.6856	6.5175	6.8281	1.4213	10.1672
-3.6855	2.6963	-0.8464	-4.0676	6.4067	4.1462	0.7714	8.3352	7.9959	4.9211	9.5101	9.078	7.2495	-0.8678	-6.0461	-8.8744	1.7606	6.3067	6.7639	1.2214	10.0565
-3.8319	2.5427	-1.0499	-4.1926	6.2389	3.8962	0.5857	8.1388	7.6924	4.6676	9.2601	8.8102	6.9567	-0.9142	-6.1353	-8.9923	1.832	6.0996	6.6389	0.9464	9.8958
-3.9998	2.4034	-1.2356	-4.314	6.0568	3.6498	0.4	7.9459	7.421	4.4319	9.0494	8.5066	6.6817	-0.9428	-6.2246	-9.0816	1.9035	5.8853	6.5674	0.6928	9.7244
-4.114	2.2999	-1.4321	-4.4033	5.8639	3.4176	0.2321	7.7674	7.1496	4.1747	8.7995	8.2495	6.3853	-0.9785	-6.3139	-9.1816	1.9677	5.6639	6.4496	0.475	9.553
-4.2747	2.1427	-1.6463	-4.5354	5.7068	3.1855	0.0357	7.5638	6.8817	3.9355	8.5638	7.9459	6.1068	-1.0035	-6.3996	-9.303	2.0249	5.4568	6.2889	0.2357	9.3744
-4.4319	1.9999	-1.8463	-4.6569	5.5318	2.9427	-0.1178	7.3995	6.6174	3.6962	8.3245	7.6781	5.7961	-1.0285	-6.521	-9.4423	2.0892	5.2425	6.1746	0.025	9.1923
-4.5676	1.8427	-2.0392	-4.7318	5.3818	2.7463	-0.3143	7.2031	6.3567	3.4641	8.0781	7.4174	5.5247	-1.0821	-6.5996	-9.6244	2.1606	5.0425	6.0211	-0.2214	9.0137
-4.689	1.6928	-2.2106	-4.8354	5.214	2.5427	-0.4928	7.0317	6.1318	3.2212	7.8245	7.146	5.2711	-1.0999	-6.696	-9.8065	2.207	4.8426	5.8782	-0.4107	8.8209
-4.8354	1.5499	-2.3963	-4.9818	5.0533	2.332	-0.6571	6.846	5.8961	3.0034	7.6031	6.9031	5.0033	-1.1249	-6.8139	-9.9887	2.2606	4.6711	5.7139	-0.6107	8.6066
-4.9461	1.3678	-2.5606	-5.064	4.8854	2.1713	-0.8214	6.6817	5.6318	2.7641	7.3317	6.6424	4.7354	-1.1428	-6.9389	-10.1779	2.2999	4.4604	5.5532	-0.7964	8.3888
-5.0747	1.1964	-2.7141	-5.1711	4.7354	1.9856	-0.9714	6.496	5.4175	2.5606	7.0746	6.3853	4.4497	-1.1606	-7.0138	-10.3601	2.3284	4.264	5.3997	-0.9678	8.1852
-5.2354	1.0392	-2.8927	-5.2854	4.5676	1.8213	-1.1071	6.3282	5.1997	2.3534	6.846	6.1353	4.239	-1.1785	-7.1103	-10.5315	2.3427	4.0962	5.2675	-1.1321	7.9924
-5.3568	0.8785	-3.0427	-5.3461	4.4247	1.6499	-1.2535	6.1425	5.0033	2.1499	6.621	5.8889	3.9962	-1.1714	-7.2388	-10.7029	2.3534	3.9105	5.1104	-1.2464	7.7602
-5.4639	0.7285	-3.2034	-5.4782	4.2676	1.5035	-1.3963	6.0032	4.8497	1.9892	6.3639	5.6925	3.7676	-1.1642	-7.2995	-10.8243	2.3499	3.7391	4.9854	-1.3606	7.5602
-5.6211	0.55	-3.3534	-5.5639	4.1105	1.3606	-1.532	5.8282	4.6247	1.8035	6.121	5.4782	3.5391	-1.1749	-7.4317	-10.9707	2.3356	3.5855	4.8568	-1.4713	7.3638
-5.7496	0.4071	-3.4784	-5.6568	3.9783	1.2464	-1.6142	5.6746	4.4604	1.6499	5.9103	5.2818	3.3462	-1.1499	-7.5031	-11.0636	2.2999	3.4355	4.714	-1.5499	7.1246
-5.8568	0.2428	-3.6248	-5.7532	3.8176	1.1178	-1.7035	5.4961	4.314	1.4928	5.6568	5.064	3.1355	-1.1428	-7.6138	-11.1564	2.2927	3.2784	4.589	-1.6392	6.9067
-5.9568	0.125	-3.7248	-5.8246	3.7212	1.0499	-1.7713	5.3925	4.1962	1.3785	5.4747	4.8961	2.9998	-1.0999	-7.6852	-11.1672	2.2177	3.1784	4.4711	-1.6785	6.7174
-6.0211	-0.0429	-3.814	-5.8961	3.5676	0.9285	-1.857	5.239	4.0497	1.2356	5.2675	4.6926	2.8105	-1.0785	-7.7102	-11.1707	2.1713	3.0462	4.3354	-1.7427	6.4817
-6.0818	-0.1536	-3.8783	-5.9353	3.4819	0.8642	-1.882	5.1068	3.9319	1.1571	5.0747	4.514	2.6534	-1.0678	-7.7388	-11.1529	2.132	2.9212	4.239	-1.7356	6.3139
-6.121	-0.2143	-3.9355	-5.9425	3.4248	0.8392	-1.9177	5.0283	3.889	1.0964	4.9247	4.4176	2.5356	-1.0321	-7.7317	-11.0707	2.0713	2.8213	4.1533	-1.7677	6.1353
-6.1282	-0.2786	-3.9462	-5.9353	3.3605	0.8071	-1.9142	4.939	3.8248	1.0392	4.7926	4.289	2.4213	-1.0178	-7.7317	-11.01	2.0284	2.7284	4.039	-1.7535	5.9711
-6.1425	-0.3178	-3.9605	-5.9139	3.3391	0.8035	-1.8963	4.864	3.7533	0.9892	4.6533	4.189	2.3284	-0.9892	-7.7352	-10.8779	1.9927	2.632	3.9676	-1.732	5.8211
-6.1032	-0.3036	-3.939	-5.8818	3.2891	0.8142	-1.8677	4.7926	3.7426	0.9535	4.5461	4.1033	2.2177	-0.9785	-7.6924	-10.7565	1.9499	2.5606	3.9105	-1.707	5.6782
-6.0853	-0.3214	-3.8998	-5.8282	3.2569	0.8678	-1.8213	4.7461	3.7176	0.9321	4.4569	4.0212	2.1499	-0.9499	-7.6495	-10.5886	1.9177	2.4856	3.8676	-1.657	5.5532
-6.0211	-0.3143	-3.8569	-5.7461	3.2748	0.9142	-1.757	4.714	3.7248	0.9107	4.3747	3.9712	2.0963	-0.9428	-7.621	-10.4243	1.8999	2.4106	3.789	-1.6356	5.4104
-5.9746	-0.3	-3.7962	-5.6782	3.2927	0.9464	-1.6892	4.6533	3.6998	0.9214	4.2854	3.8998	2.007	-0.9535	-7.5567	-10.2279	1.8892	2.3106	3.7462	-1.6106	5.2782
-5.8818	-0.2464	-3.7141	-5.6175	3.2962	0.9964	-1.632	4.6426	3.7212	0.8749	4.1926	3.8462	1.9463	-0.9321	-7.4924	-10.0387	1.8677	2.2463	3.6891	-1.5678	5.1497
-5.8425	-0.2143	-3.6712	-5.5354	3.3034	1.0285	-1.5963	4.5711	3.7069	0.8357	4.1033	3.7676	1.8856	-0.9321	-7.4353	-9.8601	1.8785	2.157	3.6391	-1.5356	5.0104
-5.7496	-0.1143	-3.5319	-5.4139	3.3498	1.1464	-1.5142	4.5676	3.7248	0.8571	4.0247	3.7569	1.8427	-0.9321	-7.3567	-9.6494	1.8642	2.0963	3.5819	-1.4928	4.8676
-5.6425	-0.0429	-3.4498	-5.3497	3.3998	1.1999	-1.4428	4.5711	3.7569	0.8642	3.9462	3.6998	1.7856	-0.9535	-7.296	-9.4816	1.8963	2.0213	3.5141	-1.4785	4.7533
-5.5354	0.0393	-3.3355	-5.2354	3.4319	1.3213	-1.3392	4.5283	3.7712	0.8571	3.889	3.6783	1.7606	-0.9571	-7.196	-9.2744	1.8892	1.9606	3.4426	-1.4285	4.6247
-5.4211	0.125	-3.2034	-5.1425	3.4891	1.4285	-1.2749	4.514	3.8105	0.8535	3.8033	3.6212	1.7035	-0.9714	-7.1388	-9.1316	1.9285	1.8606	3.3891	-1.3821	4.4747
-5.2997	0.2143	-3.082	-5.0247	3.5319	1.5535	-1.1642	4.5211	3.8498	0.8749	3.7533	3.6069	1.6678	-0.9785	-7.0317	-9.028	1.9499	1.8285	3.3391	-1.3356	4.3569
-5.164	0.3535	-2.9212	-4.9033	3.5783	1.6749	-1.0464	4.4961	3.9176	0.8964	3.6962	3.5855	1.6499	-1.0035	-6.946	-8.9244	1.9927	1.7285	3.2998	-1.3071	4.2533
-5.014	0.4893	-2.7463	-4.7818	3.6605	1.8106	-0.9464	4.5319	3.9855	0.9214	3.6605	3.5998	1.657	-1.0214	-6.8424	-8.8066	2.0106	1.6392	3.2819	-1.3106	4.1676
-4.8318	0.6107	-2.5641	-4.614	3.7391	1.9427	-0.8321	4.564	4.0533	0.9785	3.6212	3.5783	1.6428	-1.0464	-6.7424	-8.7387	2.0642	1.5356	3.2391	-1.2963	4.0605
-4.639	0.7714	-2.3641	-4.4676	3.8605	2.1392	-0.6857	4.6033	4.1712	1.0642	3.6141	3.6391	1.6713	-1.0356	-6.6103	-8.6316	2.1034	1.4713	3.2284	-1.2785	4.0176
-4.464	0.9107	-2.1749	-4.2926	3.9855	2.2963	-0.5535	4.6497	4.2604	1.1285	3.6248	3.6426	1.6713	-1.0785	-6.496	-8.5423	2.1642	1.3642	3.2284	-1.2464	3.9783
-4.2319	1.1214	-1.9392	-4.114	4.1319	2.5248	-0.375	4.7461	4.4069	1.2214	3.6462	3.7248	1.7106	-1.1142	-6.3532	-8.4745	2.2249	1.2892	3.2391	-1.2178	3.9426
-4.014	1.3392	-1.7142	-3.9212	4.2926	2.7105	-0.2071	4.8283	4.5354	1.3499	3.7069	3.7748	1.7427	-1.1499	-6.2068	-8.3959	2.2927	1.2142	3.2748	-1.1892	3.9533
-3.8105	1.5213	-1.5142	-3.7283	4.4462	2.9284	-0.05	4.9211	4.7068	1.4856	3.7605	3.8676	1.807	-1.1964	-6.0603	-8.3316	2.3856	1.1499	3.2927	-1.1642	3.9498
-3.5676	1.7499	-1.2499	-3.5069	4.6176	3.1748	0.1178	5.039	4.864	1.6213	3.8426	3.9712	1.8892	-1.2249	-5.8996	-8.2388	2.457	1.0892	3.3426	-1.1035	3.9748
-3.3712	1.9677	-1.0142	-3.3177	4.7818	3.3926	0.3071	5.164	5.0604	1.7606	3.9248	4.089	1.9534	-1.2963	-5.7818	-8.1638	2.5606	1.0142	3.3855	-1.0356	3.9998
-3.1427	2.157	-0.7892	-3.1105	4.9747	3.6176	0.4714	5.314	5.2532	1.9213	4.0247	4.1962	2.057	-1.3321	-5.6139	-8.0709	2.657	0.9607	3.4426	-0.9714	4.0605
-2.907	2.3927	-0.5035	-2.8855	5.2104	3.864	0.6821	5.5032	5.4747	2.1213	4.1569	4.339	2.207	-1.3785	-5.4639	-7.9995	2.7391	0.9285	3.5533	-0.8678	4.1497
-2.6677	2.5856	-0.25	-2.682	5.3961	4.1033	0.8964	5.6532	5.6889	2.3141	4.2747	4.5033	2.3213	-1.4321	-5.2854	-7.9031	2.8427	0.9107	3.6319	-0.7928	4.2319
-2.4677	2.8248	0.025	-2.4713	5.6175	4.3462	1.0749	5.8175	5.9032	2.4927	4.4247	4.6676	2.4713	-1.4571	-5.1497	-7.7924	2.9212	0.9035	3.7355	-0.7214	4.3319
-2.2641	3.0605	0.25	-2.2641	5.7996	4.5747	1.3071	5.9603	6.1175	2.6963	4.5711	4.7818	2.6141	-1.5142	-5.0283	-7.671	3.0105	0.9214	3.839	-0.6285	4.4354
-2.0213	3.2712	0.4821	-2.0642	6.0139	4.8068	1.4749	6.1318	6.3246	2.8891	4.6997	4.964	2.7677	-1.5499	-4.839	-7.5067	3.082	0.9285	4.0069	-0.5321	4.5533
-1.8427	3.4819	0.7321	-1.8892	6.2139	5.0211	1.6749	6.3246	6.5532	3.1034	4.8604	5.1068	2.9605	-1.5892	-4.714	-7.3281	3.1605	0.9714	4.1247	-0.4678	4.6569
-1.6285	3.6676	0.9499	-1.6999	6.3817	5.2247	1.8499	6.4675	6.7532	3.3069	5.0068	5.289	3.1105	-1.6213	-4.5569	-7.1353	3.2248	0.9964	4.264	-0.3857	4.7926
-1.4213	3.8676	1.1321	-1.507	6.596	5.4389	2.0463	6.6353	6.9924	3.5176	5.1747	5.4318	3.3141	-1.6428	-4.3854	-6.9139	3.2712	1.0678	4.4176	-0.3036	4.9104
-1.2214	4.0783	1.3892	-1.2892	6.8281	5.6639	2.257	6.8174	7.2388	3.7533	5.3711	5.6354	3.5105	-1.6606	-4.2355	-6.6674	3.3034	1.1428	4.5854	-0.1821	5.0854
-1.0356	4.2283	1.5999	-1.1392	7.0103	5.8675	2.4391	7.0246	7.4745	3.989	5.5532	5.8068	3.7426	-1.6749	-4.1069	-6.4139	3.3534	1.2321	4.7318	-0.05	5.2175
-0.8	4.4283	1.8392	-0.9499	7.1996	6.0568	2.6177	7.2031	7.6959	4.1962	5.7568	5.9961	3.9355	-1.6856	-3.9498	-6.1532	3.3712	1.2571	4.9033	0.0429	5.3782
-0.6464	4.5997	2.0034	-0.8107	7.396	6.2568	2.8213	7.3781	7.8888	4.3962	5.9032	6.171	4.1176	-1.6999	-3.7855	-5.8889	3.3891	1.3499	5.0283	0.1821	5.4889
-0.4	4.8176	2.2499	-0.6	7.5924	6.4782	3.0212	7.5638	8.1673	4.6533	6.1068	6.3746	4.3783	-1.6999	-3.6033	-5.6246	3.3748	1.4856	5.214	0.3286	5.6639
-0.25	4.9533	2.4141	-0.4571	7.7959	6.6817	3.1855	7.7209	8.378	4.8783	6.2782	6.571	4.5926	-1.707	-3.4819	-5.3711	3.3819	1.5713	5.3461	0.4	5.8032
-0.125	5.0783	2.5677	-0.3178	7.9602	6.8389	3.3855	7.8674	8.5673	5.0533	6.446	6.746	4.7854	-1.6928	-3.3177	-5.089	3.3641	1.6713	5.4639	0.5178	5.8996
0.0143	5.2425	2.7284	-0.1857	8.1066	7.021	3.5533	8.0388	8.7709	5.2711	6.6139	6.9246	4.9675	-1.682	-3.1641	-4.8926	3.3319	1.7749	5.5961	0.6178	6.0175
0.125	5.3318	2.8284	-0.0964	8.2638	7.1638	3.6891	8.1888	8.9352	5.4354	6.7746	7.0817	5.1461	-1.6535	-3.0034	-4.6569	3.2962	1.8999	5.7068	0.7321	6.121
0.1964	5.4032	2.932	-0.0107	8.3745	7.2888	3.8212	8.2852	9.0637	5.6104	6.871	7.2317	5.3247	-1.6392	-2.8891	-4.4711	3.2534	1.982	5.7925	0.8321	6.1996
0.2643	5.4639	2.9891	0.0714	8.4495	7.3888	3.9605	8.3531	9.1994	5.7675	6.9567	7.3031	5.4782	-1.6106	-2.7784	-4.339	3.2177	2.1106	5.8746	0.8999	6.2425
0.3	5.4961	3.0498	0.1357	8.528	7.4852	4.0783	8.4209	9.3101	5.9139	7.0317	7.4174	5.6425	-1.5856	-2.6891	-4.2426	3.1748	2.1963	5.9425	0.9535	6.2389
0.3178	5.5032	3.0462	0.1571	8.5709	7.5245	4.1462	8.4852	9.4101	6.0603	7.0531	7.496	5.7639	-1.582	-2.6356	-4.1926	3.1319	2.2749	6.0175	1.0321	6.2425
0.3107	5.4425	3.0355	0.2036	8.5745	7.5817	4.2319	8.5138	9.4601	6.1675	7.0924	7.571	5.8818	-1.5499	-2.5748	-4.1747	3.0927	2.382	5.9889	1.0821	6.196
0.2893	5.4032	3.007	0.2107	8.5959	7.6174	4.3319	8.4816	9.4994	6.2782	7.0638	7.6138	5.9746	-1.5178	-2.5141	-4.189	3.0391	2.4856	5.9746	1.1214	6.1282
0.2571	5.3461	2.9748	0.25	8.5495	7.6352	4.4069	8.5102	9.5565	6.4139	7.046	7.6531	6.0925	-1.4999	-2.4927	-4.2319	2.9855	2.5606	5.9318	1.1714	6.0889
0.2214	5.2854	2.9498	0.2428	8.5423	7.6495	4.4961	8.478	9.578	6.521	7.046	7.6817	6.1675	-1.4785	-2.4784	-4.2854	2.9427	2.6106	5.8889	1.2071	6.0032
0.2036	5.1997	2.8962	0.275	8.503	7.7067	4.589	8.478	9.628	6.6282	7.0317	7.7138	6.2568	-1.4463	-2.457	-4.3283	2.8748	2.7177	5.8389	1.2785	5.9282
0.1857	5.1425	2.882	0.3464	8.5066	7.7317	4.6819	8.4923	9.6601	6.7924	7.0031	7.7709	6.3782	-1.4178	-2.4248	-4.3926	2.8177	2.7998	5.7961	1.3749	5.8496
0.175	5.0783	2.8748	0.3571	8.4923	7.7959	4.7568	8.4709	9.7315	6.9353	6.9853	7.8352	6.4925	-1.3678	-2.4177	-4.4533	2.7355	2.9105	5.7425	1.4571	5.7889
0.1428	5.0318	2.857	0.4	8.478	7.8352	4.9033	8.503	9.8101	7.0817	6.9674	7.8638	6.621	-1.3499	-2.4356	-4.5569	2.6784	2.9748	5.6996	1.5678	5.6996
0.1357	4.9533	2.832	0.4643	8.4495	7.8924	4.9997	8.4923	9.8708	7.2174	6.9353	7.9174	6.7496	-1.2963	-2.4284	-4.6069	2.5963	3.0998	5.6461	1.6642	5.6104
0.15	4.9211	2.8463	0.5643	8.4709	7.9566	5.1354	8.5459	9.9601	7.3888	6.9389	7.9924	6.9031	-1.2571	-2.4641	-4.6533	2.4963	3.2034	5.6032	1.7785	5.5568
0.1607	4.8747	2.8605	0.6392	8.4923	8.0602	5.2818	8.5602	10.0529	7.5424	6.9246	8.0495	7.0281	-1.1964	-2.457	-4.689	2.382	3.3355	5.5925	1.9035	5.4997
0.1571	4.8318	2.8784	0.7107	8.503	8.1102	5.3961	8.578	10.1208	7.6959	6.9139	8.1245	7.1567	-1.1321	-2.5034	-4.7676	2.2856	3.4284	5.5675	1.9642	5.4247
0.1928	4.7961	2.9391	0.8249	8.5388	8.2031	5.5211	8.6316	10.2244	7.8495	6.9103	8.2102	7.321	-1.0821	-2.5177	-4.8033	2.157	3.5891	5.5104	2.0749	5.3604
0.1857	4.8104	2.957	0.9321	8.553	8.3066	5.6782	8.6495	10.3172	7.9924	6.8996	8.2745	7.4388	-1.0321	-2.5784	-4.8497	2.0499	3.6891	5.4675	2.1534	5.2854
0.2107	4.7676	3.0177	1.0107	8.5816	8.4209	5.8175	8.6852	10.4243	8.1316	6.8853	8.3209	7.5745	-0.9714	-2.6106	-4.8783	1.9285	3.7998	5.4139	2.2463	5.2175
0.2107	4.7497	3.0712	1.1178	8.5852	8.4923	5.9568	8.7173	10.4922	8.3031	6.8603	8.3888	7.7102	-0.9035	-2.6391	-4.8676	1.8142	3.9248	5.3604	2.3534	5.1247
0.2214	4.7318	3.1355	1.2428	8.578	8.5673	6.0925	8.7245	10.5743	8.4209	6.8424	8.4566	7.7924	-0.8464	-2.6677	-4.8533	1.682	4.0426	5.2854	2.4677	5.039
0.2571	4.6997	3.2355	1.3463	8.603	8.6852	6.2139	8.7316	10.66	8.5495	6.821	8.503	7.9102	-0.7678	-2.6891	-4.789	1.557	4.1712	5.164	2.5856	4.9461
0.2964	4.7247	3.3141	1.4392	8.603	8.7745	6.346	8.7637	10.7529	8.6709	6.7817	8.5495	7.9995	-0.7071	-2.7213	-4.7426	1.4356	4.3104	5.0747	2.732	4.8497
0.3428	4.6926	3.3676	1.5999	8.6173	8.8709	6.4817	8.778	10.8386	8.803	6.7603	8.5959	8.0959	-0.6428	-2.6891	-4.6569	1.2999	4.4247	4.9854	2.9034	4.7783
0.3857	4.7211	3.4641	1.6963	8.6352	8.9459	6.5996	8.7709	10.9029	8.9209	6.7639	8.6423	8.1995	-0.5857	-2.682	-4.5926	1.1856	4.539	4.8747	3.057	4.6854
0.4643	4.739	3.5712	1.8142	8.6709	9.0566	6.7567	8.8209	11.0136	9.0244	6.7746	8.7102	8.2995	-0.5214	-2.6677	-4.5033	1.0606	4.6854	4.789	3.2498	4.6247
0.525	4.7783	3.6783	1.9392	8.7102	9.1601	6.8424	8.8566	11.0815	9.1101	6.7781	8.7852	8.3995	-0.4821	-2.6677	-4.4319	0.9785	4.8104	4.7104	3.4212	4.564
0.6142	4.8426	3.7962	2.0642	8.7566	9.278	6.9603	8.9066	11.1672	9.2209	6.8139	8.8637	8.478	-0.4214	-2.6177	-4.3283	0.8785	4.9283	4.6604	3.5855	4.5497
0.6785	4.8818	3.9105	2.1499	8.8316	9.3708	7.0638	8.9602	11.2886	9.3066	6.846	8.9423	8.5566	-0.4035	-2.5391	-4.2355	0.8178	4.9997	4.6283	3.7212	4.5104
0.7964	4.9604	4.0462	2.2963	8.9102	9.4816	7.1746	9.028	11.385	9.3958	6.9139	9.0459	8.6316	-0.3607	-2.507	-4.1569	0.7642	5.0997	4.6461	3.8462	4.539
0.8607	4.9961	4.164	2.3606	8.9709	9.5458	7.2317	9.0851	11.4493	9.4566	6.9853	9.0887	8.678	-0.3607	-2.4641	-4.0605	0.75	5.1354	4.614	3.914	4.564
0.9464	5.0675	4.2854	2.4213	9.0173	9.6423	7.2853	9.1316	11.5207	9.5137	7.0531	9.1387	8.7352	-0.3607	-2.4427	-3.964	0.7428	5.1818	4.614	3.9783	4.5961
1.0464	5.139	4.3747	2.5141	9.0923	9.7351	7.3567	9.203	11.5778	9.5351	7.1317	9.2351	8.8066	-0.3571	-2.3963	-3.8962	0.7285	5.2354	4.6747	4.0533	4.6569
1.0856	5.1925	4.4711	2.5463	9.1673	9.7994	7.3995	9.2744	11.6314	9.5815	7.1888	9.2816	8.8387	-0.3571	-2.3713	-3.7998	0.7535	5.2782	4.6747	4.1105	4.7033
1.1571	5.2675	4.5961	2.6177	9.2316	9.8708	7.4388	9.3244	11.6921	9.6137	7.271	9.3637	8.8566	-0.3821	-2.3284	-3.7355	0.7821	5.289	4.7426	4.1747	4.7497
1.2214	5.3175	4.639	2.6427	9.278	9.9244	7.446	9.378	11.7243	9.6208	7.3745	9.3887	8.878	-0.4143	-2.2927	-3.6319	0.8357	5.3068	4.7783	4.1962	4.8033
1.2606	5.3747	4.7461	2.6891	9.3458	9.9887	7.4781	9.4423	11.7421	9.628	7.4495	9.4387	8.8994	-0.4393	-2.2749	-3.5569	0.8785	5.3461	4.8283	4.2176	4.8676
1.2892	5.3818	4.7961	2.7355	9.3851	10.0351	7.4924	9.4601	11.7528	9.6351	7.5174	9.4958	8.8994	-0.45	-2.2713	-3.4748	0.9178	5.3711	4.889	4.264	4.9497
1.3642	5.4175	4.8783	2.7355	9.4101	10.0708	7.4781	9.478	11.7778	9.6173	7.5531	9.4816	8.8887	-0.4857	-2.2499	-3.4069	0.9821	5.3282	4.9068	4.2747	5.0033
1.4071	5.4389	4.9425	2.7855	9.4601	10.1208	7.5067	9.5565	11.8135	9.6458	7.621	9.5423	8.903	-0.5071	-2.2177	-3.3426	1.0428	5.3604	4.9497	4.3247	5.1104
1.4606	5.4854	4.9818	2.807	9.4994	10.1529	7.4888	9.5851	11.835	9.6208	7.7102	9.5601	8.9137	-0.5393	-2.182	-3.2641	1.1035	5.339	5.0104	4.339	5.1925
1.5178	5.4997	5.0925	2.8463	9.5494	10.2065	7.5031	9.6315	11.86	9.6494	7.7888	9.6065	8.9423	-0.5678	-2.1499	-3.2212	1.1714	5.3782	5.064	4.4354	5.2711
1.5713	5.5389	5.139	2.9034	9.5673	10.2351	7.5102	9.678	11.8957	9.6387	7.8602	9.6494	8.9494	-0.6142	-2.1392	-3.1962	1.2428	5.3568	5.1283	4.4711	5.339
1.6249	5.5497	5.1925	2.9498	9.6208	10.2851	7.5281	9.7244	11.9064	9.6601	7.9459	9.7137	8.9566	-0.6571	-2.0927	-3.1819	1.3321	5.3711	5.1568	4.5033	5.4068
1.6856	5.5961	5.2818	3.0177	9.6387	10.3315	7.521	9.7744	11.9457	9.6887	8.0388	9.7744	8.9744	-0.6928	-2.0713	-3.1819	1.3999	5.3782	5.2175	4.5676	5.5139
1.7427	5.6068	5.339	3.0748	9.6708	10.3636	7.5388	9.803	11.9707	9.6744	8.1066	9.828	9.0244	-0.7392	-1.9963	-3.1855	1.4642	5.3818	5.264	4.5747	5.6068
1.7642	5.6175	5.3747	3.1248	9.7101	10.4065	7.5674	9.8458	11.985	9.6851	8.1923	9.8565	9.0244	-0.7857	-1.9963	-3.1998	1.5642	5.3568	5.2854	4.5926	5.6996
1.8285	5.6175	5.4461	3.1891	9.7494	10.4386	7.571	9.8958	12.0243	9.7173	8.2709	9.9208	9.053	-0.8285	-1.9642	-3.2034	1.6428	5.3532	5.3568	4.589	5.7711
1.8785	5.6318	5.5175	3.2712	9.7601	10.4815	7.5888	9.9244	12.0421	9.7422	8.3173	9.9887	9.0887	-0.8642	-1.9499	-3.2069	1.7178	5.3282	5.4032	4.5354	5.8496
1.9177	5.6354	5.5604	3.3391	9.7815	10.5101	7.5995	9.9458	12.0635	9.7422	8.3638	10.0279	9.103	-0.9214	-1.9035	-3.2284	1.807	5.2818	5.4354	4.4711	5.9175
1.9534	5.6532	5.5747	3.3998	9.7994	10.5279	7.5995	9.9601	12.0992	9.7672	8.3995	10.0708	9.1101	-0.9357	-1.9035	-3.2391	1.8606	5.2675	5.4747	4.3926	5.9746
1.9713	5.6389	5.6282	3.4784	9.803	10.5529	7.6388	9.953	12.1064	9.7422	8.4352	10.0458	9.078	-0.9607	-1.8927	-3.2605	1.9249	5.1997	5.4961	4.2926	6.0282
2.0213	5.6318	5.6711	3.5533	9.8172	10.6065	7.6388	9.9851	12.1171	9.7601	8.4638	10.0922	9.0851	-0.9999	-1.8749	-3.2784	1.9677	5.1854	5.5247	4.1962	6.1175
2.0142	5.6425	5.7211	3.5962	9.828	10.6243	7.6602	10.0065	12.1385	9.7637	8.478	10.0887	9.0923	-1.0035	-1.8535	-3.2712	2.0106	5.189	5.5461	4.1319	6.1746
2.0606	5.6318	5.7746	3.6355	9.8137	10.6458	7.6852	10.0244	12.1421	9.7672	8.5245	10.0994	9.0994	-1.0178	-1.832	-3.2248	2.0249	5.1604	5.5497	4.0605	6.2139
2.0749	5.6354	5.8175	3.6962	9.8208	10.685	7.7174	10.0494	12.1778	9.753	8.5102	10.0887	9.0851	-1.0249	-1.8285	-3.2177	2.0392	5.1675	5.5711	3.9998	6.2496
2.1142	5.6604	5.8639	3.7248	9.8422	10.7386	7.7317	10.0422	12.1957	9.7672	8.5173	10.0958	9.0851	-1.0428	-1.7677	-3.1569	2.0642	5.139	5.6068	3.9248	6.296
2.1713	5.6782	5.9246	3.789	9.8458	10.7993	7.7638	10.0637	12.2171	9.7637	8.5138	10.1029	9.1101	-1.0392	-1.7249	-3.0962	2.0677	5.139	5.6175	3.8676	6.3532
2.1927	5.6782	5.9603	3.8283	9.8708	10.86	7.7995	10.0672	12.2457	9.778	8.553	10.0922	9.0887	-1.0356	-1.6785	-3.0034	2.0713	5.1533	5.6568	3.8033	6.4032
2.2713	5.7068	6.0782	3.8748	9.8994	10.935	7.8602	10.1065	12.3171	9.7887	8.553	10.0958	9.0744	-1.0285	-1.6499	-2.9284	2.0784	5.1568	5.6925	3.7712	6.421
2.3106	5.7354	6.1282	3.8962	9.8851	10.9886	7.8745	10.1244	12.3314	9.7851	8.553	10.0958	9.0566	-1.0499	-1.5642	-2.8427	2.1034	5.1533	5.7104	3.7212	6.4389
2.3463	5.7711	6.1818	3.914	9.9422	11.0779	7.9102	10.1351	12.3814	9.828	8.5495	10.0922	9.028	-1.0499	-1.5499	-2.732	2.107	5.1497	5.7318	3.6533	6.4603
2.3999	5.8318	6.3032	3.9533	9.9601	11.1707	7.9745	10.1887	12.4421	9.8351	8.5709	10.0887	9.028	-1.0535	-1.5142	-2.657	2.1249	5.1675	5.7496	3.6141	6.4603
2.4498	5.8496	6.346	3.9569	9.9494	11.2172	8.0031	10.1922	12.4385	9.8208	8.5102	10.0494	8.9959	-1.0714	-1.4892	-2.5534	2.1534	5.1604	5.7854	3.5855	6.4603
2.5141	5.8818	6.4282	3.9498	9.9815	11.2957	8.0209	10.2244	12.4814	9.828	8.478	10.0279	8.9816	-1.0821	-1.4535	-2.4641	2.157	5.1675	5.8389	3.5533	6.4746
2.5463	5.8889	6.471	3.9533	10.0065	11.3707	8.0316	10.2101	12.5064	9.8137	8.453	9.9887	8.9423	-1.0749	-1.5035	-2.3963	2.1642	5.1854	5.8461	3.5176	6.4603
2.5998	5.8925	6.5139	3.9355	9.9994	11.4064	8.0495	10.1958	12.5099	9.8172	8.3995	9.9494	8.8994	-1.0856	-1.4642	-2.3391	2.1856	5.1711	5.8246	3.5426	6.4139
2.6141	5.8889	6.5817	3.9069	9.9565	11.4314	8.0495	10.2029	12.4849	9.803	8.3602	9.8565	8.8459	-1.0999	-1.4785	-2.2677	2.1856	5.1997	5.8354	3.5712	6.4067
2.5998	5.8675	6.5889	3.8926	9.928	11.4529	8.0674	10.2101	12.4742	9.778	8.2781	9.7958	8.778	-1.1071	-1.4856	-2.2427	2.2106	5.2104	5.8603	3.6176	6.3675
2.657	5.8568	6.6032	3.8676	9.8994	11.4707	8.0745	10.1672	12.4278	9.7744	8.2102	9.703	8.7102	-1.0892	-1.4499	-2.182	2.2034	5.239	5.8603	3.6533	6.3246
2.6356	5.8425	6.6389	3.8748	9.853	11.4779	8.0888	10.0994	12.3742	9.7351	8.1316	9.5958	8.6316	-1.1071	-1.4463	-2.1392	2.2106	5.2425	5.8639	3.6891	6.2782
2.6534	5.7996	6.6496	3.8712	9.803	11.4493	8.0888	10.0637	12.2849	9.7351	8.0388	9.4923	8.5816	-1.1035	-1.4035	-2.0927	2.1999	5.2568	5.8496	3.7141	6.2282
2.6356	5.7425	6.646	3.8569	9.7422	11.4064	8.0781	9.9922	12.2135	9.6815	7.9209	9.378	8.4923	-1.1071	-1.4213	-2.082	2.1927	5.2675	5.8246	3.7105	6.1603
2.6998	5.7354	6.6603	3.889	9.6851	11.385	8.1066	9.9422	12.1314	9.6815	7.8067	9.2459	8.4245	-1.0856	-1.3749	-2.0392	2.1642	5.2747	5.8211	3.7283	6.0889
2.6963	5.6818	6.6746	3.8748	9.6351	11.31	8.0995	9.8672	12.0243	9.6423	7.6817	9.1244	8.3388	-1.0464	-1.2928	-2.0034	2.1249	5.2675	5.7496	3.7033	6.0353
2.6927	5.6282	6.6532	3.9069	9.5673	11.2672	8.0852	9.7851	11.91	9.5815	7.5531	8.9673	8.2388	-1.0392	-1.2749	-1.9677	2.0856	5.264	5.7175	3.6676	5.9639
2.6963	5.6282	6.646	3.9426	9.478	11.1922	8.0602	9.7173	11.8028	9.5351	7.4353	8.8244	8.1745	-1.0142	-1.2356	-1.9642	2.0392	5.1997	5.6818	3.6391	5.8818
2.7141	5.5854	6.6424	3.9676	9.4137	11.1065	8.0674	9.6351	11.6814	9.4816	7.3567	8.703	8.0959	-0.9964	-1.1892	-1.9356	1.9927	5.1818	5.6675	3.5855	5.8318
2.7034	5.5425	6.5924	3.9855	9.3387	10.9993	8.0388	9.528	11.5457	9.4173	7.2031	8.5352	7.9602	-0.9678	-1.1678	-1.9035	1.9499	5.1461	5.5925	3.5748	5.7461
2.6713	5.5032	6.5567	4.0176	9.2816	10.9029	8.0066	9.4458	11.3921	9.3494	7.0746	8.3959	7.8459	-0.9499	-1.1499	-1.9285	1.907	5.0925	5.4997	3.5319	5.6604
2.6713	5.4782	6.5567	4.0605	9.228	10.8136	8.0066	9.353	11.2886	9.3066	6.9389	8.2531	7.7602	-0.9285	-1.1392	-1.9356	1.8642	5.0675	5.4497	3.5141	5.5889
2.6998	5.4282	6.5032	4.0819	9.128	10.7208	7.9959	9.2423	11.11	9.2209	6.8103	8.1066	7.6531	-0.9142	-1.1392	-1.9499	1.8213	5.0318	5.3961	3.4855	5.5318
2.6534	5.3925	6.4425	4.1176	9.0494	10.5851	7.9424	9.1173	10.985	9.1423	6.6532	7.9566	7.5067	-0.8821	-1.1571	-1.9642	1.7713	4.964	5.3175	3.4712	5.4104
2.6641	5.3497	6.4139	4.1605	8.9566	10.4636	7.9245	9.0137	10.8315	9.0566	6.4889	7.7924	7.4317	-0.8642	-1.1678	-1.9784	1.707	4.9497	5.239	3.4962	5.2961
2.657	5.2782	6.3567	4.1855	8.8566	10.3422	7.8852	8.8816	10.6529	8.9959	6.3532	7.6352	7.3317	-0.8321	-1.1749	-2.0249	1.6463	4.8961	5.139	3.5034	5.1854
2.6284	5.2568	6.3317	4.2355	8.7566	10.2172	7.8602	8.7566	10.5136	8.8887	6.196	7.4924	7.2138	-0.7892	-1.2106	-2.0499	1.5785	4.8568	5.0461	3.5462	5.0318
2.6463	5.2282	6.2889	4.2712	8.6709	10.0887	7.8602	8.628	10.3529	8.8316	6.0353	7.3495	7.1103	-0.7357	-1.2178	-2.0927	1.4749	4.8711	4.9318	3.6105	4.9033
2.6641	5.1747	6.2425	4.3212	8.5566	9.9887	7.8424	8.478	10.2279	8.7602	5.8532	7.1817	7.0174	-0.6785	-1.2178	-2.0963	1.3749	4.8497	4.8033	3.6748	4.7318
2.6713	5.1818	6.221	4.3962	8.4816	9.8815	7.8459	8.3245	10.0672	8.6709	5.6996	7.0246	6.9139	-0.6285	-1.2178	-2.1677	1.2678	4.8533	4.6926	3.7426	4.5497
2.7248	5.1533	6.1853	4.4497	8.4066	9.7601	7.8281	8.1745	9.9244	8.628	5.5211	6.8603	6.8317	-0.5714	-1.2106	-2.1784	1.1535	4.8497	4.5569	3.8498	4.3783
2.7534	5.1211	6.171	4.5354	8.3031	9.6673	7.8388	8.0138	9.7851	8.5423	5.3318	6.7139	6.7317	-0.5035	-1.2035	-2.2141	1.0321	4.8568	4.414	3.9355	4.2033
2.7998	5.1283	6.1853	4.6461	8.2566	9.6137	7.8817	7.9102	9.6923	8.5102	5.1854	6.6139	6.6603	-0.4428	-1.1642	-2.1963	0.9035	4.8711	4.3212	4.064	4.0676
2.8891	5.1533	6.221	4.7247	8.1995	9.553	7.8888	7.8102	9.5923	8.4888	5.0283	6.4925	6.5817	-0.3821	-1.0999	-2.1784	0.7821	4.8926	4.2105	4.214	3.9212
2.9962	5.1818	6.271	4.839	8.1531	9.5065	7.9352	7.7102	9.5065	8.4709	4.8961	6.4103	6.5496	-0.3178	-1.0214	-2.1499	0.6642	4.9497	4.1069	4.3462	3.7748
3.0998	5.2425	6.3317	4.9461	8.1066	9.4851	7.9816	7.5924	9.4316	8.4316	4.7426	6.321	6.5103	-0.2821	-0.9321	-2.1106	0.5535	4.9497	4.039	4.464	3.6355
3.2355	5.2997	6.3889	5.0925	8.0638	9.4923	8.0424	7.5174	9.3816	8.4566	4.6283	6.246	6.5067	-0.2107	-0.8321	-2.0356	0.45	4.9997	3.9533	4.6069	3.4998
3.3498	5.364	6.3996	5.2032	8.0495	9.453	8.0745	7.4317	9.2994	8.428	4.514	6.1746	6.4746	-0.1643	-0.7285	-1.9534	0.3428	5.0033	3.8676	4.7068	3.3926
3.4676	5.4282	6.5282	5.3318	8.0459	9.4923	8.1745	7.3567	9.2851	8.4745	4.4176	6.121	6.4746	-0.1036	-0.5928	-1.832	0.2357	5.0675	3.8319	4.8747	3.3141
3.5712	5.4747	6.5817	5.4997	8.0138	9.4887	8.2316	7.2674	9.2387	8.4995	4.3069	6.0639	6.4746	-0.0429	-0.4535	-1.707	0.125	5.0711	3.7962	4.9711	3.1962
3.6855	5.5461	6.6317	5.5854	7.9995	9.478	8.2709	7.1996	9.203	8.5066	4.2105	6.0103	6.4675	-0.0214	-0.325	-1.6106	0.0393	5.0747	3.7355	5.064	3.0962
3.7783	5.6175	6.696	5.6889	7.9781	9.4744	8.3245	7.1388	9.1637	8.5316	4.1283	5.9818	6.471	0.0286	-0.1786	-1.4642	-0.0571	5.0997	3.6962	5.1818	3.007
3.8605	5.6639	6.7103	5.7854	7.9067	9.4423	8.3531	7.0531	9.1137	8.5388	4.0569	5.9389	6.4675	0.0929	-0.0571	-1.3642	-0.1536	5.1068	3.6498	5.2604	2.9105
3.939	5.6604	6.7496	5.8568	7.8817	9.428	8.4138	7.0103	9.0744	8.5459	3.9676	5.8925	6.4782	0.1428	0.0643	-1.2571	-0.2464	5.1033	3.6069	5.364	2.8284
3.989	5.6782	6.7639	5.9139	7.8459	9.4316	8.4352	6.9317	9.028	8.553	3.8998	5.8354	6.4782	0.1821	0.1857	-1.1571	-0.3464	5.1104	3.5605	5.4497	2.7391
4.0355	5.6711	6.7567	5.9425	7.7709	9.378	8.4459	6.8389	8.9494	8.5423	3.7926	5.7639	6.471	0.2357	0.2893	-1.0678	-0.4214	5.1068	3.4891	5.5247	2.6356
4.064	5.6568	6.7389	5.9675	7.6745	9.3423	8.4923	6.771	8.928	8.5388	3.7248	5.7104	6.4389	0.2821	0.4285	-0.9714	-0.5214	5.0818	3.4319	5.5782	2.5391
4.064	5.6282	6.6996	5.9639	7.6031	9.2994	8.4459	6.6853	8.828	8.5138	3.6462	5.6389	6.4032	0.325	0.525	-0.8999	-0.6071	5.0568	3.3426	5.5925	2.4356
4.0569	5.5425	6.6496	5.9353	7.5138	9.2316	8.4388	6.5924	8.7602	8.478	3.5498	5.5818	6.371	0.3607	0.6178	-0.8285	-0.6678	5.0068	3.2748	5.6032	2.3463
4.039	5.4854	6.5924	5.8996	7.4138	9.1137	8.3923	6.4853	8.6923	8.4495	3.4926	5.4889	6.3067	0.3821	0.7071	-0.7392	-0.7285	4.9211	3.1819	5.5925	2.2391
4.0176	5.3997	6.546	5.8461	7.3031	9.0709	8.3566	6.3925	8.6137	8.378	3.3926	5.4389	6.2425	0.4143	0.7964	-0.6714	-0.775	4.8711	3.1212	5.5497	2.1463
4.014	5.314	6.4782	5.7818	7.1924	9.0173	8.2888	6.3067	8.5459	8.3495	3.3355	5.3818	6.1853	0.4321	0.9071	-0.575	-0.8178	4.8033	3.0748	5.5211	2.0784
3.9783	5.239	6.421	5.7389	7.1103	8.9494	8.2459	6.2425	8.4888	8.3066	3.2927	5.3032	6.1353	0.4535	1.0035	-0.4535	-0.8464	4.7461	3.0034	5.4711	2.0106
3.9533	5.1568	6.346	5.6532	7.0317	8.8923	8.2102	6.1853	8.4602	8.2388	3.2427	5.2782	6.0675	0.4571	1.0642	-0.3464	-0.8607	4.6961	2.9498	5.4247	1.9356
3.9426	5.1033	6.3032	5.6354	6.9496	8.8209	8.1709	6.1318	8.4066	8.2102	3.1927	5.2425	6.0461	0.4643	1.1392	-0.2036	-0.8642	4.6247	2.9105	5.4175	1.8892
3.9319	5.014	6.2353	5.5711	6.8746	8.7995	8.1531	6.0711	8.3673	8.1923	3.1855	5.2032	5.9996	0.4607	1.2106	-0.075	-0.8642	4.614	2.8855	5.3782	1.8499
3.914	4.9425	6.2032	5.5389	6.7996	8.7209	8.1352	6.0461	8.3209	8.1638	3.1605	5.1675	5.9425	0.4571	1.2785	0.0857	-0.8571	4.5604	2.857	5.3282	1.8392
3.9069	4.8854	6.1425	5.5211	6.7424	8.7066	8.1316	6.0175	8.3066	8.1388	3.1427	5.1711	5.8996	0.45	1.3356	0.2428	-0.8464	4.5176	2.8213	5.2675	1.8356
3.8819	4.8283	6.121	5.5139	6.7067	8.6673	8.1066	5.9853	8.2566	8.1174	3.1212	5.1354	5.8461	0.45	1.3749	0.4178	-0.8321	4.4569	2.8463	5.1854	1.8463
3.8712	4.7604	6.0639	5.4818	6.6139	8.6316	8.1031	5.9711	8.2245	8.0781	3.1355	5.1104	5.7925	0.4285	1.3892	0.5964	-0.8178	4.439	2.8427	5.1104	1.8713
3.8819	4.7211	6.0461	5.5282	6.6139	8.6173	8.0995	5.9711	8.2173	8.0781	3.1712	5.1033	5.7604	0.4393	1.4321	0.7464	-0.8214	4.3783	2.8784	5.0568	1.8856
3.9033	4.6569	6.0175	5.5461	6.5639	8.5852	8.1066	5.9568	8.1888	8.0566	3.1605	5.0818	5.7282	0.425	1.4392	0.9035	-0.8035	4.3747	2.8998	5.0175	1.8892
3.9105	4.614	6.0103	5.5532	6.5139	8.5745	8.1066	5.9639	8.1602	8.0388	3.1819	5.0747	5.7032	0.4178	1.4499	1.0464	-0.8035	4.339	2.9177	4.9783	1.9499
3.9283	4.5961	6.0175	5.5889	6.496	8.5388	8.0995	5.9496	8.1423	8.0138	3.1641	5.0354	5.6782	0.425	1.4928	1.1464	-0.8071	4.3212	2.9534	4.989	1.9606
3.989	4.5569	6.0318	5.6389	6.4675	8.5102	8.0852	5.9675	8.1138	8.0174	3.2034	5.0318	5.6461	0.4178	1.5499	1.2928	-0.8142	4.3426	2.9748	4.9925	2.0034
3.9998	4.5283	6.0353	5.6675	6.4425	8.5102	8.1031	5.9818	8.1138	8.0102	3.2141	5.0068	5.6282	0.4321	1.5928	1.3678	-0.8071	4.3104	3.0141	4.9961	2.0392
4.0676	4.5426	6.0603	5.7461	6.4425	8.5173	8.1174	5.9889	8.0924	8.0316	3.2462	4.9961	5.6246	0.425	1.6428	1.4463	-0.8142	4.3033	3.0641	5.0247	2.082
4.089	4.5069	6.0461	5.7532	6.4139	8.478	8.1281	5.9996	8.0638	8.0066	3.2605	4.964	5.5854	0.4178	1.6285	1.4642	-0.7964	4.2819	3.0962	5.0247	2.107
4.139	4.5069	6.121	5.8246	6.4103	8.4852	8.1531	6.0103	8.0674	8.0031	3.2819	4.964	5.5961	0.4	1.6999	1.4856	-0.7821	4.2497	3.1534	5.014	2.1177
4.1997	4.5104	6.1532	5.8889	6.4032	8.4816	8.1459	6.0211	8.0316	8.0245	3.3177	4.9568	5.5818	0.4071	1.757	1.4785	-0.7714	4.2426	3.1641	5.039	2.1534
4.2247	4.5461	6.1818	5.9389	6.4353	8.4745	8.1923	6.0389	8.0031	8.0352	3.3355	4.9568	5.5854	0.3893	1.7856	1.4713	-0.7392	4.1997	3.1998	5.0354	2.1606
4.2962	4.5497	6.2496	6.0175	6.4603	8.4852	8.2173	6.0675	7.9995	8.0388	3.3319	4.939	5.5889	0.375	1.8356	1.4463	-0.7	4.1569	3.2069	5.0497	2.157
4.3354	4.5819	6.2853	6.0746	6.4675	8.4673	8.2459	6.0889	7.9888	8.0459	3.3748	4.9283	5.5604	0.3428	1.9106	1.3963	-0.6607	4.0855	3.2105	5.064	2.1713
4.3819	4.6176	6.3032	6.1139	6.4925	8.4888	8.2602	6.1282	7.9852	8.0495	3.3998	4.9354	5.5461	0.325	1.957	1.4071	-0.6	4.0426	3.2319	5.0354	2.1749
4.4176	4.6354	6.3639	6.1639	6.5175	8.4923	8.2888	6.1425	7.9745	8.0352	3.3962	4.9033	5.5675	0.2964	2.0249	1.3856	-0.5464	3.9783	3.2427	5.0425	2.1606
4.4961	4.7247	6.4317	6.246	6.5674	8.5173	8.3102	6.1782	7.9745	8.0816	3.4391	4.9104	5.5604	0.2714	2.1249	1.4249	-0.4964	3.9462	3.2819	5.0497	2.1499
4.5319	4.764	6.496	6.2746	6.5782	8.5066	8.3459	6.1853	7.9388	8.0602	3.4498	4.8997	5.5425	0.2071	2.2106	1.4749	-0.3928	3.8855	3.2641	5.0283	2.0892
4.5997	4.8533	6.5603	6.321	6.6496	8.5602	8.3923	6.2318	7.9638	8.0566	3.4641	4.8961	5.5389	0.1786	2.307	1.5249	-0.3464	3.8355	3.2855	4.9961	2.0892
4.6247	4.9211	6.621	6.3389	6.696	8.5887	8.3995	6.246	7.9602	8.0709	3.4462	4.889	5.5211	0.1464	2.3891	1.6035	-0.275	3.7748	3.3355	4.9568	2.0677
4.7247	5.0175	6.6924	6.371	6.7746	8.628	8.4495	6.2675	7.9638	8.0816	3.4712	4.8783	5.5211	0.125	2.4891	1.6928	-0.2	3.7283	3.3248	4.914	2.0356
4.789	5.1104	6.7746	6.3925	6.821	8.6387	8.4459	6.2996	7.9638	8.0888	3.4569	4.8604	5.5032	0.0929	2.6177	1.7749	-0.1428	3.6641	3.3534	4.864	1.9784
4.8604	5.2032	6.846	6.4032	6.8531	8.6745	8.4423	6.2925	7.9424	8.0424	3.4355	4.814	5.4675	0.0536	2.7105	1.8392	-0.0857	3.5819	3.3462	4.789	1.9392
4.9425	5.2961	6.9246	6.396	6.8889	8.6923	8.4566	6.3103	7.9674	8.0531	3.4141	4.8104	5.4139	0.0214	2.7963	1.9427	-0.0429	3.5034	3.3212	4.7247	1.8749
5.0211	5.364	7.0103	6.4032	6.9246	8.7459	8.4459	6.2996	7.9638	8.0031	3.3891	4.7604	5.4032	0	2.857	2.0427	0.0143	3.4426	3.2891	4.6783	1.782
5.1247	5.4854	7.0531	6.3853	6.9674	8.7816	8.4352	6.2853	7.9852	7.9745	3.3319	4.739	5.3211	-0.0179	2.907	2.0999	0.0714	3.3534	3.2677	4.5997	1.6856
5.2318	5.5961	7.1603	6.3889	7.0353	8.8209	8.428	6.2746	7.9995	7.9638	3.3069	4.7211	5.2961	-0.0321	3.0034	2.1927	0.0964	3.2748	3.2462	4.5533	1.6178
5.3211	5.7032	7.2531	6.3532	7.071	8.8637	8.3709	6.2639	7.9888	7.8852	3.2427	4.6926	5.2247	-0.0643	3.0641	2.2391	0.1571	3.2034	3.2034	4.5247	1.4928
5.4139	5.8282	7.3495	6.3317	7.1174	8.903	8.378	6.2353	7.9781	7.8495	3.1998	4.6461	5.1961	-0.1	3.1355	2.3141	0.2178	3.1319	3.1391	4.4854	1.3963
5.5318	5.9425	7.4353	6.346	7.171	8.9673	8.3388	6.2639	8.0209	7.8067	3.1784	4.614	5.1283	-0.1107	3.1927	2.4034	0.25	3.0641	3.1177	4.4961	1.3213
5.6354	6.0603	7.5352	6.3103	7.1996	9.0244	8.3316	6.2675	8.0245	7.7709	3.1427	4.5569	5.1033	-0.15	3.2712	2.4534	0.3214	2.9855	3.082	4.5176	1.2214
5.7711	6.2032	7.6495	6.3317	7.2781	9.0923	8.3209	6.2568	8.0674	7.7209	3.0927	4.539	5.0318	-0.1714	3.3641	2.4998	0.3714	2.9427	3.0712	4.5354	1.1499
5.8996	6.3532	7.7781	6.3425	7.3567	9.1709	8.3173	6.2746	8.0816	7.7031	3.1069	4.5176	5.0068	-0.2036	3.4569	2.5891	0.4321	2.8927	3.0498	4.5819	1.0821
6.0353	6.4925	7.8817	6.3817	7.4245	9.253	8.3138	6.2925	8.1459	7.6781	3.0855	4.4997	4.9568	-0.2321	3.4998	2.5891	0.475	2.8498	3.0462	4.6747	1.0321
6.171	6.646	8.0138	6.4389	7.5138	9.3423	8.3352	6.346	8.2102	7.7102	3.057	4.4961	4.9533	-0.2464	3.6319	2.6677	0.5107	2.8034	3.0248	4.7676	1.0071
6.2782	6.7817	8.1316	6.4746	7.6245	9.4387	8.3638	6.4032	8.2566	7.7245	3.0784	4.5211	4.9318	-0.2678	3.7498	2.7213	0.5464	2.7891	3.0248	4.8497	1.0107
6.3925	6.9139	8.2638	6.5103	7.6888	9.503	8.3602	6.446	8.3281	7.7138	3.0998	4.5069	4.9033	-0.2857	3.8819	2.782	0.5785	2.7641	3.057	4.9318	0.9964
6.5317	7.0603	8.3888	6.5782	7.7924	9.6244	8.4066	6.5067	8.3959	7.7567	3.1141	4.539	4.9104	-0.2857	3.964	2.8213	0.6035	2.7641	3.0712	5.0068	0.9749
6.6496	7.1674	8.4959	6.6317	7.8674	9.7173	8.4388	6.5424	8.4566	7.7495	3.1462	4.5426	4.9318	-0.3	4.0819	2.8927	0.6321	2.6927	3.082	5.0461	1.0249
6.8067	7.296	8.628	6.7067	7.9638	9.8172	8.4745	6.6103	8.528	7.8031	3.2069	4.5604	4.9675	-0.3	4.2462	3.0034	0.6464	2.6463	3.0962	5.0997	1.0535
6.921	7.4103	8.7852	6.7674	8.0745	9.9494	8.5566	6.7067	8.6602	7.8567	3.2534	4.6283	4.9854	-0.325	4.3783	3.0712	0.6464	2.6106	3.1641	5.1497	1.1249
6.9889	7.4995	8.8923	6.8281	8.1673	10.0315	8.578	6.7603	8.6887	7.9245	3.2998	4.6569	5.0068	-0.35	4.5283	3.1319	0.7071	2.5641	3.1962	5.1854	1.1928
7.1281	7.6138	9.0244	6.9174	8.2531	10.1672	8.6495	6.8674	8.8244	8.0031	3.3998	4.7568	5.0425	-0.3464	4.639	3.2177	0.725	2.5356	3.2641	5.2175	1.2428
7.2281	7.6959	9.1566	6.9924	8.3495	10.2386	8.7173	6.9603	8.9066	8.0531	3.5105	4.8176	5.089	-0.3714	4.7711	3.3105	0.7714	2.4998	3.3248	5.2247	1.3356
7.3103	7.7745	9.2566	7.0853	8.4388	10.3672	8.8102	7.0674	9.0244	8.1566	3.5891	4.9068	5.1604	-0.3714	4.9033	3.4034	0.7785	2.4927	3.3926	5.264	1.4499
7.421	7.8245	9.3423	7.1817	8.5173	10.4708	8.8816	7.1638	9.1137	8.2066	3.7033	4.9997	5.2318	-0.4	5.0354	3.4998	0.8214	2.4856	3.5069	5.2747	1.5606
7.5067	7.8888	9.4351	7.2817	8.5995	10.5601	8.9637	7.2388	9.2173	8.3066	3.8355	5.1068	5.289	-0.4143	5.1247	3.6141	0.8571	2.432	3.5855	5.2854	1.6606
7.5567	7.9138	9.5137	7.371	8.6816	10.6565	9.0637	7.3353	9.328	8.4209	3.9569	5.2068	5.364	-0.4357	5.2175	3.7212	0.8928	2.432	3.6998	5.3175	1.7606
7.6602	7.9424	9.6101	7.4781	8.7209	10.7493	9.1173	7.4495	9.4494	8.4959	4.0426	5.3175	5.4389	-0.4464	5.3068	3.8283	0.9035	2.4391	3.7926	5.364	1.8927
7.6638	7.9281	9.6244	7.5352	8.7387	10.8136	9.1923	7.5031	9.5315	8.578	4.1319	5.3604	5.5318	-0.4535	5.3282	3.8355	0.9392	2.4391	3.8676	5.3818	1.957
7.7281	7.9209	9.6994	7.6281	8.7995	10.8957	9.2494	7.5531	9.603	8.6423	4.1855	5.4568	5.5925	-0.4785	5.3782	3.9605	0.9678	2.4641	3.9248	5.4389	1.9963
7.7531	7.9102	9.7244	7.7281	8.8137	10.935	9.3244	7.6067	9.6887	8.7245	4.264	5.5318	5.6568	-0.4893	5.3961	3.9962	0.9928	2.482	3.9926	5.4889	2.057
7.8174	7.9031	9.753	7.8352	8.8566	10.9993	9.3673	7.6638	9.7601	8.7852	4.3176	5.5997	5.7354	-0.4857	5.4247	4.0533	0.9821	2.5177	4.0569	5.5675	2.1249
7.8352	7.8495	9.7744	7.8781	8.8744	11.0065	9.4566	7.6674	9.8351	8.878	4.3462	5.6389	5.7854	-0.4928	5.3925	4.0855	1.0071	2.532	4.0462	5.6496	2.1106
7.8817	7.8352	9.8208	7.9638	8.8816	11.1136	9.5173	7.6995	9.8815	8.9423	4.3997	5.6961	5.8461	-0.4928	5.4247	4.0997	1.0035	2.5927	4.0855	5.7282	2.1249
7.9174	7.8281	9.853	8.0352	8.8994	11.1422	9.578	7.7567	9.9672	9.0352	4.3997	5.7675	5.8961	-0.4964	5.4247	4.1462	1.0107	2.6213	4.1176	5.8139	2.1034
7.9638	7.8174	9.8887	8.1316	8.9209	11.2243	9.6494	7.7924	10.0387	9.0994	4.4533	5.8318	5.9568	-0.4857	5.4389	4.1997	0.9999	2.682	4.1676	5.9068	2.1249
8.0031	7.8174	9.9494	8.1995	8.9494	11.2922	9.7065	7.8174	10.1137	9.1851	4.4854	5.8782	6.0068	-0.4893	5.4782	4.214	0.9928	2.7248	4.1819	5.9818	2.1427
8.0888	7.8317	10.0101	8.2602	9.0244	11.3529	9.7708	7.8709	10.1601	9.2601	4.514	5.9353	6.0496	-0.4893	5.4961	4.2747	0.9999	2.7213	4.1997	6.0675	2.1213
8.1388	7.8638	10.0672	8.3209	9.0637	11.3993	9.828	7.9102	10.2029	9.3173	4.5283	5.9675	6.0746	-0.4964	5.5318	4.3033	1.0071	2.7463	4.2176	6.0711	2.0892
8.2102	7.9316	10.1744	8.3959	9.1423	11.4779	9.878	7.9638	10.2672	9.3851	4.5604	6.0068	6.1103	-0.4857	5.5747	4.3712	1.0035	2.7534	4.2462	6.0782	2.0892
8.3138	7.9924	10.2315	8.4459	9.228	11.5564	9.9351	8.0495	10.3494	9.4601	4.589	6.0496	6.1496	-0.4928	5.6496	4.4247	0.9964	2.7463	4.2819	6.0818	2.082
8.4066	8.0852	10.3279	8.5245	9.3173	11.6743	10.0387	8.1066	10.4101	9.4958	4.6211	6.0818	6.1818	-0.4678	5.7139	4.4961	0.9678	2.7748	4.3497	6.0853	2.107
8.4923	8.1959	10.4279	8.5602	9.4316	11.7207	10.0601	8.1816	10.4422	9.5244	4.6354	6.1103	6.1818	-0.475	5.7961	4.5747	0.9571	2.7641	4.414	6.0425	2.0892
8.5923	8.3102	10.5101	8.603	9.5423	11.8243	10.1172	8.2459	10.4993	9.5708	4.6426	6.1318	6.171	-0.4643	5.8675	4.6211	0.9392	2.7534	4.4569	6.0211	2.107
8.6459	8.4066	10.5922	8.653	9.628	11.8743	10.1637	8.2923	10.5136	9.5815	4.6247	6.1175	6.1639	-0.45	5.9496	4.689	0.9321	2.7284	4.5069	5.9461	2.0784
8.7137	8.5495	10.6458	8.6959	9.7208	11.9457	10.2065	8.3245	10.5351	9.5923	4.6069	6.0853	6.1032	-0.45	6.0175	4.7211	0.9142	2.7034	4.5426	5.8996	2.0392
8.7852	8.6673	10.7565	8.7245	9.803	12.0064	10.2779	8.3566	10.5815	9.6137	4.5819	6.0675	6.096	-0.425	6.0746	4.7676	0.8857	2.6998	4.5247	5.8354	1.9999
8.8709	8.8066	10.8636	8.7923	9.8958	12.1064	10.3208	8.3745	10.5922	9.5994	4.5569	6.0639	6.0353	-0.4321	6.1782	4.8497	0.8607	2.6391	4.5461	5.7496	1.932
8.9423	8.9173	10.9279	8.8137	9.9458	12.1492	10.3458	8.3816	10.5493	9.5744	4.4926	5.9925	5.9746	-0.4035	6.2353	4.8533	0.8357	2.5713	4.4961	5.6354	1.857
8.9887	9.0173	11.0172	8.8709	10.0137	12.1921	10.4065	8.3816	10.5208	9.5601	4.439	5.9353	5.9068	-0.3928	6.321	4.9176	0.8071	2.5213	4.439	5.5211	1.7642
9.0744	9.1601	11.0957	8.9352	10.0922	12.2957	10.4815	8.3852	10.5458	9.5673	4.3604	5.8996	5.8425	-0.3785	6.3817	4.9568	0.7714	2.457	4.3712	5.4175	1.6606
9.1744	9.2673	11.2314	9.0316	10.1315	12.3457	10.5529	8.3888	10.5351	9.5137	4.264	5.8496	5.7604	-0.3714	6.4746	4.9854	0.75	2.4034	4.3176	5.2997	1.5428
9.2744	9.378	11.3279	9.103	10.1672	12.4171	10.6243	8.3673	10.5172	9.4994	4.1783	5.7782	5.7175	-0.3571	6.5175	5.0354	0.725	2.3356	4.2212	5.164	1.4178
9.3637	9.4816	11.4957	9.2137	10.2136	12.4992	10.71	8.3281	10.4922	9.4744	4.1212	5.7175	5.6175	-0.3393	6.5782	5.0925	0.6928	2.2963	4.1676	5.064	1.3356
9.4708	9.5815	11.585	9.2994	10.2529	12.5635	10.785	8.2995	10.4922	9.428	4.039	5.6532	5.5389	-0.3393	6.6353	5.1604	0.6928	2.2284	4.0962	4.9604	1.2214
9.6173	9.6958	11.7278	9.3923	10.3208	12.6671	10.8529	8.3245	10.4993	9.403	4.0105	5.6246	5.4854	-0.3286	6.7282	5.2211	0.6642	2.207	4.0247	4.9354	1.1356
9.7208	9.753	11.8528	9.4816	10.3279	12.7171	10.9172	8.2816	10.4743	9.3851	3.9283	5.5568	5.4354	-0.325	6.796	5.2711	0.675	2.1606	3.9462	4.8711	1.0214
9.8315	9.8672	12.0028	9.5815	10.3529	12.8206	10.9886	8.2423	10.4422	9.3316	3.8569	5.5068	5.3497	-0.3214	6.8889	5.364	0.6642	2.132	3.8605	4.7997	0.9464
9.9851	9.9672	12.1421	9.6744	10.3958	12.9028	11.0707	8.2602	10.4565	9.3208	3.7998	5.4639	5.314	-0.3321	6.946	5.4211	0.6678	2.0999	3.8033	4.8068	0.8535
10.0887	10.0494	12.2742	9.778	10.4065	12.9528	11.0922	8.2352	10.4529	9.2459	3.7498	5.4318	5.2604	-0.3178	7.0496	5.5139	0.6571	2.0892	3.7962	4.8283	0.8142
10.2101	10.1101	12.3885	9.8458	10.4279	13.0135	11.1386	8.2209	10.4101	9.1994	3.6855	5.3675	5.1675	-0.3321	7.1174	5.5782	0.6821	2.0284	3.7248	4.8104	0.6928
10.2958	10.1744	12.5314	9.9172	10.4208	13.0599	11.135	8.1888	10.3851	9.1244	3.6319	5.3211	5.1175	-0.3535	7.1888	5.6068	0.7	2.032	3.6891	4.7961	0.6642
10.3922	10.2136	12.6135	9.9779	10.4351	13.0885	11.1422	8.1745	10.3494	9.0352	3.5855	5.2818	5.0318	-0.3571	7.2638	5.6532	0.7428	1.9999	3.6676	4.8033	0.5928
10.4958	10.2886	12.7135	10.0315	10.4422	13.1242	11.16	8.1852	10.3386	8.9709	3.5533	5.2425	4.9747	-0.3714	7.3353	5.6996	0.7714	1.9892	3.6569	4.8497	0.6
10.5922	10.3244	12.8135	10.0851	10.4315	13.1706	11.1386	8.1709	10.3101	8.8923	3.5533	5.2068	4.9104	-0.3893	7.3995	5.7211	0.7928	1.9784	3.6426	4.8818	0.5464
10.71	10.3815	12.9135	10.1315	10.4279	13.1813	11.1136	8.1745	10.2779	8.828	3.5212	5.1782	4.8176	-0.4107	7.4817	5.7032	0.8249	1.9784	3.6605	4.9033	0.5607
10.7993	10.4172	12.9849	10.1887	10.4422	13.2242	11.1314	8.1638	10.2565	8.753	3.4855	5.1354	4.764	-0.4035	7.571	5.7425	0.8214	1.9606	3.6676	4.9425	0.5607
