"FZ"	"FC3"	"FCZ"	"FC4"	"C3"	"CZ"	"C4"	"CP3"	"CPZ"	"CP4"	"P3"	"PZ"	"P4"	"OZ"	"FP1"	"FP2"	"A2"	"P8"	"TP7"	"TP8"	"P7"
-2.0142	-2.0083	-1.8699	-1.2162	-1.9612	-1.5636	-0.9482	-1.6284	-1.5901	-0.8186	-1.5901	-1.4223	-0.8922	-0.0147	-2.02	-0.6066	0	-0.3563	-1.0306	0.106	-0.7627
-1.97	-1.9199	-1.7933	-1.172	-1.8875	-1.5047	-0.9099	-1.6048	-1.5489	-0.7803	-1.5931	-1.4076	-0.8716	-0.0206	-2.02	-0.7362	-0.0059	-0.3151	-1.0336	0.1325	-0.7745
-1.8846	-1.8198	-1.6961	-1.0571	-1.7904	-1.4252	-0.8304	-1.5548	-1.5106	-0.7332	-1.5695	-1.4076	-0.8157	-0.0088	-1.9847	-0.8245	-0.0324	-0.265	-1.0571	0.1649	-0.7656
-1.8286	-1.758	-1.6284	-0.9894	-1.705	-1.3928	-0.7538	-1.543	-1.49	-0.6773	-1.5636	-1.3928	-0.7715	0.0177	-1.967	-0.9452	-0.0559	-0.2415	-1.0454	0.1796	-0.801
-1.7756	-1.6873	-1.5666	-0.904	-1.652	-1.3457	-0.6743	-1.5136	-1.4635	-0.6272	-1.5518	-1.3663	-0.7214	0.0353	-1.9788	-1.0601	-0.0854	-0.1855	-1.0984	0.1885	-0.8186
-1.6785	-1.5872	-1.4959	-0.8098	-1.5695	-1.2927	-0.6066	-1.4841	-1.3899	-0.5565	-1.5283	-1.3074	-0.6537	0.0383	-1.9494	-1.2162	-0.1178	-0.1413	-1.1101	0.2474	-0.801
-1.6225	-1.5518	-1.4547	-0.7332	-1.5342	-1.2633	-0.5242	-1.4547	-1.3899	-0.5035	-1.5224	-1.3104	-0.6095	0.0559	-1.9435	-1.3251	-0.1472	-0.0854	-1.0925	0.2532	-0.8275
-1.5666	-1.5106	-1.384	-0.6596	-1.4606	-1.2044	-0.424	-1.4105	-1.3457	-0.4505	-1.4871	-1.2603	-0.5565	0.0707	-1.9405	-1.4871	-0.1708	-0.0471	-1.1101	0.2591	-0.8098
-1.4723	-1.4576	-1.3339	-0.5742	-1.4311	-1.1602	-0.371	-1.3899	-1.2721	-0.4123	-1.4606	-1.2397	-0.4977	0.0942	-1.9494	-1.599	-0.212	-0.0206	-1.1043	0.2886	-0.7892
-1.4664	-1.4341	-1.3133	-0.5094	-1.3958	-1.1455	-0.3151	-1.3604	-1.2338	-0.3593	-1.4311	-1.1838	-0.4535	0.1119	-1.9523	-1.6814	-0.2209	0.0265	-1.0984	0.3121	-0.798
-1.3899	-1.3928	-1.2574	-0.4299	-1.3663	-1.1072	-0.2474	-1.3398	-1.1867	-0.318	-1.384	-1.1131	-0.371	0.1119	-1.9435	-1.7698	-0.2385	0.0736	-1.0866	0.3357	-0.7597
-1.3575	-1.3928	-1.222	-0.3887	-1.3516	-1.1219	-0.212	-1.3015	-1.169	-0.2768	-1.3752	-1.0984	-0.3563	0.109	-1.9405	-1.8051	-0.2385	0.1031	-1.0689	0.3445	-0.7362
-1.3192	-1.3575	-1.2014	-0.3357	-1.3251	-1.0689	-0.1649	-1.278	-1.116	-0.2326	-1.2986	-1.0306	-0.3062	0.106	-1.9023	-1.8228	-0.2474	0.1325	-1.0395	0.3651	-0.6979
-1.2427	-1.3163	-1.1838	-0.2886	-1.3104	-1.0689	-0.1472	-1.2662	-1.0689	-0.2091	-1.2662	-0.9953	-0.2709	0.1266	-1.8758	-1.7992	-0.2562	0.1855	-1.0424	0.4005	-0.6596
-1.2014	-1.3015	-1.1278	-0.2385	-1.2485	-1.0071	-0.0825	-1.2044	-0.9865	-0.1708	-1.2162	-0.9335	-0.2238	0.1266	-1.7933	-1.7698	-0.2739	0.2326	-0.9953	0.4417	-0.586
-1.1808	-1.331	-1.1278	-0.2267	-1.2662	-1.0071	-0.0677	-1.2044	-0.9717	-0.1943	-1.1779	-0.907	-0.2238	0.1413	-1.7521	-1.7197	-0.2797	0.2415	-0.9865	0.4623	-0.583
-1.1396	-1.2868	-1.116	-0.1855	-1.2515	-0.9835	-0.0412	-1.172	-0.9276	-0.162	-1.1366	-0.8657	-0.2032	0.1296	-1.6726	-1.6402	-0.2827	0.2621	-0.9541	0.4653	-0.5359
-1.1249	-1.2809	-1.0748	-0.1649	-1.2309	-0.957	-0.0412	-1.1455	-0.8628	-0.1355	-1.0778	-0.7862	-0.1472	0.1472	-1.5725	-1.546	-0.3121	0.3357	-0.9099	0.5035	-0.477
-1.0601	-1.2427	-1.0571	-0.1443	-1.225	-0.96	-0.0236	-1.119	-0.8333	-0.1207	-1.0454	-0.7715	-0.1649	0.1649	-1.4517	-1.4399	-0.3357	0.3445	-0.9011	0.5153	-0.4358
-0.9894	-1.222	-1.0159	-0.109	-1.1661	-0.8805	0	-1.0571	-0.7627	-0.0883	-0.9659	-0.6979	-0.106	0.1678	-1.3222	-1.3281	-0.3651	0.3681	-0.8392	0.5389	-0.3799
-0.9335	-1.172	-0.9659	-0.0501	-1.1425	-0.8275	0.0206	-1.0218	-0.7008	-0.0589	-0.9099	-0.6361	-0.106	0.1885	-1.1573	-1.1631	-0.4005	0.3887	-0.8245	0.5536	-0.3327
-0.8657	-1.2014	-0.9276	-0.0589	-1.1455	-0.7774	0.0294	-0.9835	-0.6449	-0.0618	-0.851	-0.6154	-0.0854	0.2091	-1.0306	-1.0571	-0.424	0.3887	-0.7892	0.583	-0.3239
-0.7921	-1.1278	-0.854	0.0265	-1.0689	-0.7008	0.0707	-0.9129	-0.5448	-0.0059	-0.7833	-0.5565	-0.0618	0.2415	-0.8157	-0.8805	-0.4741	0.4034	-0.7332	0.5889	-0.265
-0.6949	-1.0719	-0.7656	0.0236	-0.9924	-0.6213	0.0942	-0.851	-0.4741	0.0265	-0.6979	-0.5006	-0.0294	0.2356	-0.6361	-0.7038	-0.5035	0.4211	-0.6684	0.5889	-0.2032
-0.6066	-1.0365	-0.7067	0.0648	-0.9452	-0.5477	0.1325	-0.7892	-0.3975	0.0501	-0.6361	-0.4388	-0.0294	0.265	-0.4388	-0.53	-0.5389	0.4476	-0.6095	0.6125	-0.1708
-0.53	-0.9688	-0.6272	0.0766	-0.8716	-0.4653	0.1767	-0.7244	-0.3092	0.0854	-0.5801	-0.371	0	0.2856	-0.2621	-0.3416	-0.5654	0.4123	-0.5477	0.5919	-0.1237
-0.4417	-0.907	-0.5654	0.1237	-0.8039	-0.3769	0.1943	-0.6508	-0.2238	0.1119	-0.5035	-0.3062	0.0265	0.2974	-0.0736	-0.1708	-0.5889	0.4034	-0.48	0.583	-0.0854
-0.3062	-0.8186	-0.4476	0.1826	-0.7273	-0.2562	0.2591	-0.5448	-0.109	0.1943	-0.427	-0.2209	0.0736	0.3062	0.1266	0.0501	-0.6213	0.4329	-0.4034	0.6243	-0.0147
-0.2532	-0.7656	-0.3681	0.1826	-0.6626	-0.1678	0.2797	-0.4947	-0.0177	0.2267	-0.3681	-0.1531	0.0825	0.321	0.2739	0.2179	-0.6302	0.3887	-0.3475	0.6037	-0.0206
-0.1531	-0.6596	-0.2621	0.215	-0.5742	-0.0648	0.3327	-0.4123	0.0854	0.2709	-0.2886	-0.0795	0.1178	0.3062	0.4505	0.3975	-0.639	0.3769	-0.2591	0.5772	0.0324
-0.1031	-0.6331	-0.2091	0.215	-0.533	-0.0029	0.3445	-0.3651	0.1443	0.2945	-0.2562	-0.0236	0.1472	0.321	0.5772	0.5477	-0.6243	0.3622	-0.2474	0.5389	-0.0088
-0.0236	-0.5595	-0.1296	0.2326	-0.4653	0.0883	0.3651	-0.3151	0.1943	0.3033	-0.2002	0.0177	0.1531	0.3092	0.6802	0.6773	-0.6154	0.3298	-0.1796	0.4947	0.0236
0.0147	-0.4918	-0.0825	0.2444	-0.4211	0.1737	0.3946	-0.2856	0.2768	0.3475	-0.1649	0.0972	0.1767	0.2886	0.7833	0.7745	-0.586	0.2974	-0.1561	0.4476	0.0177
0.0648	-0.4594	-0.0206	0.2591	-0.3681	0.2415	0.4123	-0.2444	0.3269	0.371	-0.1502	0.1119	0.1796	0.265	0.8422	0.8716	-0.5448	0.2562	-0.1355	0.424	-0.0147
0.0972	-0.4152	0.0177	0.2591	-0.3386	0.2768	0.4064	-0.2297	0.3504	0.3563	-0.1413	0.1796	0.2091	0.2474	0.8893	0.9011	-0.5006	0.2179	-0.1207	0.3504	-0.0559
0.1237	-0.3975	0.0618	0.2562	-0.318	0.3327	0.4211	-0.212	0.3769	0.374	-0.1531	0.1885	0.1943	0.2238	0.9099	0.957	-0.4446	0.1826	-0.1266	0.2915	-0.0883
0.162	-0.3239	0.1031	0.2621	-0.2886	0.3651	0.427	-0.2002	0.424	0.3916	-0.1531	0.1826	0.2002	0.1855	0.904	0.9335	-0.3946	0.1413	-0.1296	0.2356	-0.1472
0.2032	-0.3151	0.1472	0.2709	-0.2562	0.3887	0.4299	-0.1973	0.4417	0.3946	-0.162	0.2179	0.2061	0.1708	0.8687	0.9423	-0.3593	0.1266	-0.1443	0.2002	-0.1649
0.215	-0.2768	0.162	0.3004	-0.2591	0.4299	0.4329	-0.1767	0.4682	0.3946	-0.162	0.2444	0.2238	0.1737	0.8569	0.9246	-0.3151	0.106	-0.1355	0.1561	-0.215
0.2562	-0.2297	0.2061	0.3033	-0.2238	0.4505	0.4358	-0.1531	0.48	0.4093	-0.1708	0.265	0.2326	0.1325	0.8245	0.8834	-0.2797	0.0942	-0.1384	0.106	-0.2444
0.2739	-0.2209	0.2385	0.318	-0.212	0.4653	0.4388	-0.1649	0.4918	0.4064	-0.1649	0.2709	0.2474	0.1207	0.7803	0.8304	-0.2474	0.0589	-0.159	0.0383	-0.3092
0.2974	-0.1914	0.268	0.3445	-0.1973	0.4918	0.4417	-0.1708	0.5065	0.4152	-0.1796	0.2974	0.2415	0.109	0.7509	0.7892	-0.2209	0.0471	-0.2032	0.0088	-0.3416
0.3534	-0.1384	0.3062	0.3975	-0.1531	0.5094	0.4505	-0.1325	0.5359	0.427	-0.1325	0.3386	0.2945	0.0942	0.7244	0.7185	-0.2091	0.0471	-0.1796	-0.0177	-0.3622
0.3593	-0.1355	0.3298	0.4093	-0.1384	0.5271	0.4388	-0.1325	0.5418	0.4299	-0.1443	0.3416	0.3033	0.0795	0.6419	0.6361	-0.1796	0.0147	-0.212	-0.0236	-0.4093
0.3298	-0.1472	0.3033	0.3916	-0.1266	0.5124	0.4476	-0.1325	0.5065	0.424	-0.162	0.3445	0.321	0.0795	0.5742	0.5654	-0.1502	0	-0.2297	-0.0677	-0.4211
0.3504	-0.109	0.3327	0.4358	-0.0766	0.4947	0.427	-0.1237	0.533	0.4329	-0.1296	0.374	0.3416	0.0618	0.4977	0.4947	-0.1443	0.0236	-0.2002	-0.0825	-0.4005
0.3622	-0.0913	0.3563	0.4564	-0.053	0.4977	0.4152	-0.0942	0.5242	0.4711	-0.1031	0.3916	0.3593	0.0353	0.424	0.4329	-0.1148	0.0265	-0.215	-0.0766	-0.424
0.3386	-0.1001	0.3327	0.4535	-0.053	0.4682	0.4064	-0.0913	0.4977	0.4653	-0.1119	0.3975	0.374	0.0442	0.3475	0.3769	-0.0972	0.0177	-0.2326	-0.1207	-0.4123
0.3269	-0.0589	0.3475	0.4741	0.0088	0.4829	0.4181	-0.053	0.5153	0.5035	-0.0795	0.4358	0.424	0.0324	0.2591	0.3534	-0.0766	0.0589	-0.1885	-0.0883	-0.4034
0.318	-0.0206	0.3445	0.4829	0.0383	0.4859	0.4005	-0.0294	0.533	0.5271	-0.0766	0.4358	0.4594	0.0118	0.159	0.3622	-0.0559	0.0825	-0.1855	-0.0913	-0.3946
0.3062	0.0088	0.3445	0.4977	0.0677	0.4564	0.4064	0.0059	0.53	0.533	-0.0236	0.4594	0.4918	-0.0029	0.0501	0.318	-0.0324	0.1148	-0.159	-0.0795	-0.3828
0.2945	0.0412	0.3769	0.4918	0.1119	0.4711	0.424	0.0294	0.5153	0.5595	0.0059	0.4829	0.533	0.0118	-0.0324	0.3651	-0.0236	0.1649	-0.1502	-0.0412	-0.3593
0.3445	0.1237	0.4093	0.5418	0.1943	0.5065	0.4388	0.0972	0.533	0.5801	0.0618	0.5065	0.586	0.0029	-0.0883	0.3946	-0.0265	0.215	-0.1119	0.0147	-0.3327
0.3475	0.2179	0.4446	0.5448	0.265	0.4918	0.4741	0.1237	0.5271	0.6302	0.1001	0.5153	0.6213	0.0088	-0.159	0.4299	-0.0294	0.2532	-0.0707	0.0677	-0.3151
0.3887	0.2797	0.4741	0.5654	0.3269	0.5035	0.4888	0.1678	0.5153	0.6419	0.1296	0.5035	0.6243	0.0029	-0.1796	0.4682	-0.0206	0.318	-0.0383	0.1355	-0.2768
0.4358	0.3828	0.5389	0.5919	0.4005	0.5359	0.5094	0.2209	0.5065	0.6684	0.1649	0.5124	0.6626	0.0118	-0.1796	0.5153	-0.0324	0.3622	-0.0118	0.1649	-0.2297
0.4859	0.48	0.6037	0.6213	0.4859	0.5448	0.5654	0.2768	0.4829	0.6861	0.2002	0.4947	0.6714	0.0118	-0.1855	0.5536	-0.0412	0.4181	0.0177	0.2415	-0.2209
0.5507	0.5624	0.6361	0.6361	0.5536	0.5595	0.5948	0.3151	0.4653	0.7038	0.2209	0.4741	0.6773	0.0265	-0.159	0.586	-0.0383	0.4594	0.053	0.2797	-0.1796
0.5948	0.6567	0.6773	0.6596	0.6066	0.5448	0.586	0.3475	0.4535	0.7008	0.2415	0.4417	0.6773	0.0059	-0.162	0.6095	-0.0324	0.4653	0.0618	0.2915	-0.1649
0.6802	0.7686	0.745	0.6832	0.7008	0.5536	0.6095	0.4093	0.4299	0.7185	0.2739	0.4181	0.6626	0.0118	-0.0942	0.6478	-0.0559	0.4653	0.1266	0.3445	-0.1237
0.7391	0.8687	0.7862	0.6655	0.7597	0.5418	0.6095	0.4505	0.3563	0.6949	0.2915	0.3916	0.6331	0.0029	-0.0559	0.6655	-0.0383	0.4446	0.1355	0.3681	-0.0795
0.8068	0.9659	0.8392	0.7038	0.8157	0.5212	0.6125	0.4741	0.3239	0.6743	0.318	0.3445	0.6154	0.0177	0.0236	0.6832	-0.0501	0.4329	0.1796	0.3799	-0.053
0.8952	1.0689	0.8746	0.7097	0.8952	0.5242	0.6302	0.5065	0.3062	0.6419	0.3475	0.3386	0.6095	0.0059	0.1148	0.6949	-0.053	0.427	0.2179	0.3946	0.0059
0.957	1.1396	0.8834	0.6684	0.9423	0.5359	0.5978	0.5565	0.2562	0.6066	0.3651	0.2915	0.5683	0.0265	0.1914	0.7185	-0.053	0.3887	0.2768	0.3475	0.0294
0.9629	1.2132	0.907	0.6243	0.957	0.4888	0.5683	0.5889	0.215	0.5565	0.3769	0.215	0.5006	0.0206	0.2768	0.6979	-0.0471	0.3327	0.3033	0.3151	0.0501
1.0277	1.275	0.9217	0.5948	1.013	0.4741	0.5359	0.6243	0.1826	0.5183	0.4064	0.2091	0.4535	0.0177	0.3799	0.6891	-0.053	0.2768	0.3622	0.2945	0.1001
1.0542	1.3281	0.9452	0.5565	1.066	0.4741	0.4594	0.639	0.1649	0.4682	0.4417	0.1885	0.424	0.0147	0.4476	0.6567	-0.0501	0.2267	0.4123	0.2415	0.1561
1.066	1.3869	0.9423	0.5035	1.0954	0.4417	0.427	0.6802	0.1148	0.424	0.4594	0.1885	0.3946	0.0147	0.4829	0.5978	-0.0471	0.1737	0.4358	0.2002	0.1973
1.0395	1.4076	0.9011	0.4123	1.0866	0.3946	0.374	0.7214	0.0766	0.374	0.4947	0.1531	0.3062	0.0147	0.5477	0.53	-0.0412	0.1031	0.4682	0.1266	0.2356
1.01	1.3899	0.8805	0.3445	1.119	0.4093	0.3269	0.7479	0.0648	0.3269	0.4947	0.1266	0.2591	0.0118	0.6213	0.48	-0.0383	0.0559	0.4859	0.0825	0.2945
1.01	1.4252	0.904	0.2915	1.1366	0.4064	0.2797	0.7921	0.0412	0.2768	0.5477	0.1384	0.2297	0.0177	0.7244	0.4417	-0.0324	-0.0059	0.5271	0.0294	0.318
0.9835	1.4252	0.8598	0.2326	1.1396	0.3622	0.212	0.7951	0.0412	0.215	0.586	0.1472	0.1885	0.0147	0.798	0.4064	-0.0383	-0.0766	0.5507	-0.0707	0.3534
0.9187	1.3428	0.8127	0.1266	1.116	0.3593	0.1413	0.798	0.0265	0.1325	0.5919	0.1207	0.0942	-0.0059	0.8657	0.3681	0	-0.1472	0.5654	-0.1296	0.3563
0.8981	1.3339	0.8068	0.0883	1.1072	0.3475	0.0883	0.8186	0.0559	0.0795	0.6213	0.159	0.0559	-0.0059	0.9865	0.3269	-0.0029	-0.2179	0.586	-0.2209	0.4181
0.8598	1.3074	0.7627	0.0206	1.0866	0.321	0.0265	0.8216	0.0501	0.0265	0.6419	0.1826	0.0118	-0.0206	1.0571	0.2945	0.0206	-0.2532	0.6184	-0.2562	0.4388
0.8363	1.2633	0.7362	-0.0118	1.0571	0.3062	0	0.8481	0.0736	-0.0206	0.7008	0.1943	-0.0147	-0.0265	1.1631	0.2709	0.0501	-0.2945	0.6449	-0.3386	0.4888
0.7803	1.2515	0.6979	-0.0883	1.0542	0.2768	-0.0618	0.8657	0.106	-0.0766	0.7627	0.2444	-0.0442	-0.0353	1.2485	0.2856	0.0825	-0.318	0.6773	-0.4152	0.5124
0.7244	1.1897	0.6478	-0.1561	1.0247	0.2768	-0.1531	0.8834	0.1325	-0.1472	0.7745	0.2768	-0.1001	-0.0707	1.2898	0.2915	0.1296	-0.3593	0.6861	-0.4741	0.5565
0.7008	1.1455	0.6037	-0.1708	1.0247	0.2797	-0.1885	0.907	0.1855	-0.1914	0.8481	0.318	-0.106	-0.0942	1.3604	0.2974	0.1796	-0.3946	0.7479	-0.5389	0.6095
0.6567	1.0925	0.586	-0.212	1.013	0.2797	-0.265	0.9364	0.2238	-0.2385	0.9011	0.374	-0.1472	-0.1325	1.3899	0.2974	0.2474	-0.424	0.7921	-0.5948	0.6478
0.6537	1.0807	0.5801	-0.2356	1.0012	0.3033	-0.3004	0.9423	0.265	-0.2709	0.9629	0.4211	-0.1355	-0.1443	1.4488	0.3386	0.2915	-0.4123	0.851	-0.639	0.7244
0.6184	1.01	0.53	-0.2474	0.9541	0.2856	-0.371	0.9835	0.3298	-0.3386	1.0306	0.477	-0.1649	-0.1796	1.4134	0.3769	0.3504	-0.4535	0.9011	-0.6537	0.7627
0.583	0.9423	0.4859	-0.3298	0.9423	0.2768	-0.4299	0.9659	0.3504	-0.4152	1.0748	0.4977	-0.1796	-0.2209	1.4017	0.374	0.4299	-0.4594	0.957	-0.6949	0.7921
0.5595	0.9246	0.4623	-0.3327	0.9276	0.2974	-0.477	1.0159	0.4064	-0.4505	1.1249	0.5713	-0.1796	-0.2385	1.3869	0.4005	0.477	-0.477	0.9982	-0.7156	0.8363
0.5772	0.9011	0.4888	-0.3386	0.9482	0.3327	-0.533	1.0336	0.4711	-0.4918	1.1749	0.6213	-0.1737	-0.2709	1.3722	0.4093	0.5183	-0.4653	1.0336	-0.7156	0.8893
0.5359	0.8834	0.4476	-0.3357	0.9335	0.3445	-0.5713	1.0542	0.4888	-0.5359	1.1926	0.639	-0.1737	-0.2945	1.3163	0.3975	0.5683	-0.4564	1.066	-0.7214	0.8981
0.5242	0.851	0.424	-0.3769	0.9246	0.3327	-0.6095	1.0542	0.4947	-0.5919	1.222	0.6419	-0.1855	-0.321	1.2692	0.3563	0.6154	-0.4711	1.0895	-0.7303	0.8922
0.4859	0.8127	0.4123	-0.3769	0.9158	0.3504	-0.6331	1.0542	0.5212	-0.639	1.2397	0.6714	-0.1885	-0.3416	1.1808	0.3269	0.6567	-0.4682	1.1249	-0.7362	0.9099
0.4682	0.7892	0.4034	-0.371	0.9011	0.374	-0.6655	1.0571	0.5448	-0.6802	1.2485	0.6684	-0.2179	-0.371	1.116	0.2739	0.6979	-0.4653	1.1249	-0.7597	0.9335
0.4505	0.7391	0.3887	-0.3858	0.904	0.3593	-0.6979	1.0748	0.5595	-0.692	1.2485	0.692	-0.2297	-0.3858	1.013	0.2532	0.7273	-0.4859	1.1043	-0.7479	0.9276
0.4123	0.7362	0.3799	-0.3858	0.8922	0.3681	-0.7097	1.0836	0.5654	-0.7303	1.2692	0.6861	-0.2415	-0.3946	0.8952	0.1973	0.7568	-0.477	1.1013	-0.7479	0.9217
0.4064	0.7067	0.3593	-0.3946	0.8952	0.3769	-0.745	1.0689	0.5536	-0.7745	1.2574	0.6832	-0.2532	-0.4034	0.7391	0.1678	0.7892	-0.4859	1.0866	-0.7774	0.9187
0.3828	0.6979	0.3563	-0.4034	0.8922	0.4034	-0.7391	1.0689	0.5742	-0.7892	1.2309	0.6655	-0.2797	-0.4299	0.6066	0.1502	0.8157	-0.5153	1.0601	-0.7656	0.8863
0.3534	0.6714	0.3357	-0.4181	0.9276	0.4034	-0.7509	1.0748	0.5507	-0.8157	1.2191	0.6537	-0.3121	-0.4329	0.4211	0.1266	0.8216	-0.5124	1.0395	-0.7803	0.8805
0.321	0.6361	0.3416	-0.4181	0.9158	0.4005	-0.7568	1.066	0.5418	-0.8304	1.1897	0.6243	-0.3593	-0.4417	0.2385	0.1119	0.8422	-0.5565	0.9835	-0.8039	0.8451
0.2591	0.6243	0.3327	-0.4329	0.9452	0.3799	-0.7362	1.0689	0.5418	-0.8304	1.1455	0.5772	-0.3681	-0.4446	0.0766	0.1266	0.8422	-0.5713	0.9364	-0.8098	0.7921
0.2032	0.6125	0.3004	-0.4535	0.9423	0.3681	-0.7479	1.063	0.4888	-0.8863	1.1072	0.5389	-0.4211	-0.4564	-0.0795	0.0766	0.8628	-0.6272	0.8893	-0.8481	0.7479
0.1826	0.6243	0.3004	-0.4653	0.9747	0.3769	-0.7303	1.0365	0.4417	-0.9187	1.0807	0.5094	-0.4476	-0.4594	-0.2061	0.0766	0.8687	-0.6714	0.8333	-0.8775	0.7067
0.1472	0.6213	0.3004	-0.5153	0.9865	0.3534	-0.7391	1.0189	0.4358	-0.9187	1.0218	0.4623	-0.5035	-0.4446	-0.3092	0.0707	0.8775	-0.7244	0.7656	-0.9246	0.6537
0.106	0.6184	0.3062	-0.5006	1.0071	0.3416	-0.7273	0.9924	0.3975	-0.9423	0.96	0.3946	-0.5389	-0.4741	-0.374	0.0825	0.8981	-0.7745	0.7097	-0.9688	0.6037
0.0825	0.6419	0.2915	-0.5271	1.0395	0.3327	-0.7362	0.9776	0.3504	-0.9747	0.8981	0.3563	-0.583	-0.4682	-0.4329	0.0736	0.9217	-0.8687	0.6655	-1.013	0.5624
0.0501	0.6655	0.3121	-0.5183	1.0542	0.3269	-0.7214	0.9659	0.3239	-0.9982	0.8127	0.3121	-0.6449	-0.4977	-0.4358	0.0736	0.9511	-0.9335	0.5948	-1.063	0.5006
0.0412	0.7126	0.321	-0.5271	1.1013	0.3092	-0.7038	0.9865	0.2768	-1.0159	0.7803	0.2385	-0.6979	-0.5065	-0.4123	0.0883	0.9688	-1.01	0.5742	-1.1308	0.4505
0.0206	0.7185	0.3327	-0.53	1.1366	0.2886	-0.6832	0.9659	0.2415	-1.0336	0.7008	0.1855	-0.7745	-0.5124	-0.3858	0.0618	0.9953	-1.0895	0.5271	-1.1808	0.4446
0.0029	0.7538	0.321	-0.5183	1.1602	0.268	-0.692	0.96	0.2002	-1.066	0.6331	0.1178	-0.8392	-0.53	-0.2974	0.0854	1.0041	-1.1926	0.4947	-1.2662	0.3916
-0.0118	0.8039	0.3357	-0.533	1.1749	0.2474	-0.6891	0.9541	0.1737	-1.0895	0.6125	0.0736	-0.8952	-0.5359	-0.2709	0.0883	1.0365	-1.3015	0.4653	-1.3457	0.3593
-0.0353	0.8216	0.3092	-0.5683	1.1779	0.2356	-0.6832	0.9335	0.1296	-1.1249	0.5595	0.0383	-0.957	-0.5536	-0.1502	0.0648	1.0571	-1.3987	0.4446	-1.4311	0.318
-0.0383	0.8363	0.318	-0.5654	1.1808	0.2032	-0.6979	0.9423	0.0972	-1.1455	0.5242	-0.0088	-1.0218	-0.5595	-0.0648	0.0766	1.0719	-1.5047	0.4329	-1.5018	0.3298
-0.0559	0.851	0.3062	-0.583	1.1897	0.1708	-0.7038	0.9246	0.0677	-1.1838	0.4711	-0.0559	-1.0836	-0.5536	-0.0059	0.0353	1.0836	-1.5872	0.4476	-1.5725	0.321
-0.0501	0.8657	0.2709	-0.6125	1.172	0.1325	-0.7332	0.9129	0.0177	-1.2132	0.4417	-0.1031	-1.169	-0.5654	0.1148	0.0206	1.0925	-1.6932	0.4358	-1.6726	0.3298
-0.0825	0.8687	0.2444	-0.639	1.1602	0.0795	-0.7715	0.8863	-0.0294	-1.2633	0.424	-0.1384	-1.2191	-0.5713	0.2032	-0.0118	1.1072	-1.7727	0.4505	-1.755	0.3445
-0.1178	0.8687	0.2267	-0.6567	1.1543	0.053	-0.7862	0.907	-0.0324	-1.2839	0.4329	-0.162	-1.2456	-0.5683	0.2591	-0.0501	1.0925	-1.8493	0.4711	-1.7963	0.4005
-0.1237	0.8628	0.1973	-0.7126	1.0954	0.0029	-0.8363	0.8981	-0.0766	-1.3369	0.4123	-0.1914	-1.3251	-0.5565	0.3534	-0.0618	1.0807	-1.914	0.5006	-1.861	0.4211
-0.1502	0.8598	0.159	-0.7568	1.0925	-0.0471	-0.8716	0.8893	-0.1001	-1.3604	0.4329	-0.1943	-1.3428	-0.5595	0.4093	-0.1266	1.0689	-1.9759	0.5624	-1.9464	0.4682
-0.1737	0.854	0.1296	-0.7568	1.0601	-0.0707	-0.9011	0.8805	-0.1296	-1.3869	0.4653	-0.1943	-1.3899	-0.5448	0.4594	-0.1649	1.0571	-2.02	0.6243	-1.9729	0.5536
-0.1855	0.8481	0.0972	-0.7892	1.0277	-0.1001	-0.9246	0.8893	-0.1266	-1.3928	0.5065	-0.1678	-1.3958	-0.5389	0.4682	-0.1973	1.063	-2.0377	0.6861	-2.0024	0.6243
-0.212	0.8481	0.0383	-0.8068	1.0071	-0.1413	-0.9305	0.9158	-0.1355	-1.3987	0.5624	-0.1355	-1.3693	-0.5389	0.4623	-0.1973	1.0513	-2.0554	0.7509	-2.0407	0.7067
-0.265	0.7951	-0.0324	-0.8481	0.9688	-0.1737	-0.9835	0.8863	-0.1266	-1.4193	0.6184	-0.1266	-1.3663	-0.5389	0.427	-0.2356	1.0571	-2.0495	0.8216	-2.0613	0.801
-0.265	0.7715	-0.0412	-0.8422	0.9217	-0.1973	-0.9835	0.9099	-0.1178	-1.4076	0.6714	-0.0677	-1.3487	-0.533	0.4005	-0.215	1.0454	-2.0024	0.9305	-2.0524	0.8981
-0.268	0.7214	-0.0648	-0.854	0.8687	-0.1943	-1.0041	0.9276	-0.1031	-1.384	0.7391	-0.053	-1.3192	-0.5359	0.3563	-0.215	1.0454	-1.9994	1.0424	-2.0348	1.0247
-0.2827	0.6949	-0.1148	-0.8805	0.8157	-0.2444	-1.0218	0.907	-0.0795	-1.4017	0.7774	0	-1.2986	-0.533	0.2768	-0.1708	1.0395	-1.9788	1.1101	-2.0259	1.0984
-0.2797	0.6302	-0.1678	-0.8863	0.7862	-0.2709	-1.0277	0.9129	-0.0707	-1.3693	0.8392	0.0442	-1.2692	-0.53	0.265	-0.1296	1.0247	-1.9641	1.1867	-2.0112	1.2044
-0.2945	0.583	-0.2032	-0.8922	0.7362	-0.2974	-1.0454	0.9099	-0.0589	-1.3604	0.8687	0.0471	-1.2662	-0.5242	0.1796	-0.0766	1.0336	-1.9494	1.2721	-1.9994	1.2692
-0.3004	0.5035	-0.2474	-0.8834	0.6743	-0.3269	-1.0041	0.9187	-0.0177	-1.3133	0.9011	0.0883	-1.2162	-0.5418	0.1767	-0.0206	1.0454	-1.9347	1.3516	-1.967	1.3192
-0.2974	0.4299	-0.2915	-0.8922	0.5654	-0.3298	-1.01	0.8863	-0.0177	-1.3045	0.9423	0.106	-1.1985	-0.53	0.1443	0.0442	1.0571	-1.9052	1.4193	-1.9405	1.384
-0.3062	0.371	-0.321	-0.8716	0.5242	-0.3239	-0.9806	0.8775	0.0147	-1.2515	0.9541	0.1355	-1.1602	-0.5507	0.1413	0.1031	1.0778	-1.864	1.4576	-1.8993	1.4458
-0.3033	0.2797	-0.3445	-0.8598	0.4682	-0.3416	-0.9335	0.8687	0.0412	-1.2162	0.9688	0.1767	-1.1219	-0.5683	0.106	0.1767	1.1013	-1.8345	1.5136	-1.8846	1.4782
-0.2709	0.2091	-0.3916	-0.8098	0.4123	-0.371	-0.9099	0.851	0.0618	-1.1337	1.0012	0.215	-1.0571	-0.5683	0.0913	0.2532	1.1072	-1.8286	1.5577	-1.8345	1.493
-0.3004	0.162	-0.4152	-0.7862	0.3563	-0.3327	-0.8598	0.854	0.1178	-1.0984	1.013	0.2797	-1.01	-0.583	0.0707	0.2974	1.1308	-1.7933	1.5842	-1.7904	1.5106
-0.3062	0.0913	-0.4123	-0.745	0.3239	-0.3062	-0.7774	0.8392	0.1708	-0.9953	1.0336	0.2945	-0.9541	-0.5772	0.0147	0.3269	1.1219	-1.7639	1.5901	-1.7609	1.543
-0.3062	0.0618	-0.4064	-0.6832	0.3004	-0.2591	-0.7156	0.8216	0.215	-0.9394	1.0395	0.3504	-0.9129	-0.586	-0.0206	0.3563	1.1337	-1.7315	1.5931	-1.7079	1.543
-0.3327	-0.0147	-0.4299	-0.6331	0.2356	-0.2415	-0.6419	0.798	0.2444	-0.8716	1.0365	0.3828	-0.851	-0.5948	-0.0618	0.3062	1.1602	-1.7167	1.5901	-1.6932	1.5371
-0.318	-0.0383	-0.3975	-0.5595	0.2238	-0.1914	-0.5507	0.7803	0.3151	-0.7686	1.0424	0.4358	-0.7803	-0.6037	-0.0825	0.2591	1.1661	-1.6932	1.5725	-1.6431	1.5371
-0.3239	-0.0766	-0.3769	-0.5124	0.215	-0.1355	-0.4594	0.7568	0.3799	-0.692	1.0689	0.4829	-0.7244	-0.6037	-0.1119	0.2002	1.172	-1.652	1.543	-1.6019	1.543
-0.3357	-0.0825	-0.3357	-0.4358	0.2238	-0.0648	-0.3475	0.7656	0.4594	-0.5801	1.0807	0.5389	-0.6567	-0.5978	-0.1502	0.0942	1.1602	-1.6196	1.5371	-1.546	1.5342
-0.3327	-0.106	-0.3092	-0.3475	0.2209	0.0029	-0.2356	0.7627	0.5242	-0.4888	1.0954	0.583	-0.5889	-0.6095	-0.1649	0.0118	1.1749	-1.5931	1.5106	-1.5047	1.5224
-0.3416	-0.1325	-0.265	-0.2886	0.2209	0.0559	-0.159	0.7803	0.6007	-0.4034	1.0689	0.6184	-0.5418	-0.6125	-0.1472	-0.1119	1.1779	-1.5695	1.4694	-1.493	1.49
-0.321	-0.0942	-0.1767	-0.1796	0.2591	0.1325	-0.0236	0.7745	0.6567	-0.3269	1.0954	0.6832	-0.4653	-0.6095	-0.1531	-0.2061	1.172	-1.5401	1.4399	-1.4576	1.4517
-0.318	-0.0942	-0.1325	-0.1178	0.2797	0.2061	0.0589	0.7892	0.6949	-0.2444	1.1043	0.7244	-0.424	-0.6066	-0.1266	-0.3092	1.1867	-1.5312	1.4046	-1.4252	1.4399
-0.2739	-0.0913	-0.0589	-0.0294	0.3504	0.3004	0.1826	0.8333	0.7921	-0.1472	1.1337	0.8039	-0.3357	-0.6154	-0.1296	-0.3946	1.1897	-1.4871	1.3781	-1.384	1.4134
-0.2532	-0.0383	0.0412	0.0707	0.424	0.3828	0.3092	0.8893	0.8716	-0.0559	1.1573	0.851	-0.2739	-0.6095	-0.0766	-0.4299	1.1867	-1.437	1.384	-1.3457	1.4164
-0.1943	0.0118	0.1296	0.1826	0.4859	0.4682	0.3946	0.9482	0.9717	0.0324	1.2014	0.9217	-0.2032	-0.6125	-0.0618	-0.4829	1.2014	-1.4134	1.3781	-1.3192	1.4252
-0.1384	0.0766	0.2179	0.2739	0.5654	0.5565	0.5271	0.9982	1.0542	0.1325	1.2515	0.9835	-0.1355	-0.6184	-0.0147	-0.5035	1.2044	-1.3693	1.4076	-1.2721	1.4164
-0.053	0.162	0.3239	0.4093	0.6773	0.639	0.6154	1.0895	1.1425	0.1914	1.3045	1.0454	-0.0589	-0.6302	0.0353	-0.4918	1.2103	-1.3074	1.437	-1.2368	1.4576
-0.0147	0.212	0.427	0.4888	0.7803	0.7067	0.7126	1.1425	1.222	0.2915	1.3811	1.1101	0.0029	-0.6419	0.0854	-0.4329	1.2279	-1.2986	1.4664	-1.2103	1.4959
0.0471	0.3092	0.5153	0.5889	0.8981	0.798	0.8039	1.2456	1.3339	0.374	1.4547	1.2132	0.0766	-0.6302	0.1266	-0.4005	1.2338	-1.2427	1.4959	-1.1514	1.5224
0.1355	0.4005	0.6095	0.6802	1.0071	0.8893	0.8981	1.3428	1.3958	0.4329	1.5283	1.2692	0.1678	-0.6596	0.1678	-0.3445	1.2574	-1.2103	1.543	-1.1337	1.5666
0.1943	0.4829	0.6773	0.7362	1.1278	0.9835	0.9894	1.4105	1.4841	0.5094	1.6107	1.3281	0.2179	-0.6655	0.1914	-0.2503	1.2839	-1.169	1.5636	-1.1101	1.6137
0.2739	0.5772	0.7479	0.8186	1.2162	1.0189	1.0277	1.5253	1.5548	0.5507	1.705	1.3958	0.2827	-0.6832	0.268	-0.1561	1.3192	-1.1101	1.6461	-1.066	1.6637
0.3062	0.6655	0.8186	0.8481	1.3516	1.066	1.0483	1.6372	1.6343	0.5889	1.808	1.4723	0.3475	-0.6979	0.3534	-0.0177	1.3428	-1.0778	1.7079	-1.0483	1.7226
0.374	0.7538	0.8775	0.8746	1.4399	1.1308	1.0689	1.7403	1.705	0.6184	1.8964	1.5607	0.4211	-0.7067	0.4005	0.0942	1.3722	-1.0306	1.7668	-1.0189	1.7609
0.424	0.8422	0.9364	0.9187	1.546	1.1573	1.0866	1.8198	1.7403	0.6243	1.9641	1.6078	0.4682	-0.7214	0.4476	0.2061	1.3958	-0.9982	1.8198	-0.9924	1.8286
0.4329	0.8981	0.9482	0.8863	1.6196	1.2073	1.0807	1.917	1.7786	0.6478	2.0171	1.6255	0.4829	-0.7273	0.5035	0.3092	1.4105	-0.9423	1.8787	-1.0012	1.9082
0.4594	0.96	0.9688	0.854	1.6667	1.2191	1.0454	1.9641	1.8375	0.6213	2.0878	1.6608	0.5242	-0.7391	0.5507	0.4594	1.4223	-0.8922	1.8964	-0.9394	1.9494
0.4859	0.9982	0.9894	0.8333	1.7462	1.2397	1.0424	2.023	1.8493	0.639	2.1349	1.6873	0.5477	-0.7421	0.6361	0.5624	1.4282	-0.8333	1.9464	-0.9276	2.0142
0.4947	1.0542	0.9747	0.7597	1.7992	1.2191	0.9747	2.0878	1.8493	0.586	2.1938	1.6902	0.5477	-0.7244	0.6979	0.6655	1.4134	-0.7862	1.967	-0.9129	2.0583
0.4711	1.0866	0.9541	0.6979	1.8345	1.2132	0.9305	2.1496	1.861	0.5713	2.2173	1.6961	0.5978	-0.7185	0.7421	0.7686	1.3928	-0.7214	2.0024	-0.907	2.0789
0.4859	1.1249	0.9541	0.6478	1.8463	1.2014	0.8716	2.182	1.8228	0.5507	2.2468	1.6726	0.5801	-0.7097	0.8068	0.7803	1.3722	-0.6626	2.0259	-0.8657	2.129
0.4505	1.1249	0.9187	0.5536	1.8846	1.1897	0.8098	2.1967	1.7933	0.4977	2.2703	1.6579	0.5772	-0.6979	0.8687	0.8363	1.3428	-0.6184	2.0171	-0.8363	2.1349
0.4299	1.1131	0.8922	0.4653	1.8875	1.1631	0.7479	2.2409	1.8169	0.5094	2.2851	1.6461	0.5624	-0.6743	0.9305	0.8275	1.2957	-0.5683	2.0495	-0.7951	2.1555
0.4093	1.1308	0.8628	0.3858	1.9052	1.1425	0.6832	2.2556	1.755	0.48	2.2703	1.6166	0.5919	-0.6537	1.0012	0.8216	1.2427	-0.5065	2.0112	-0.7479	2.1673
0.3975	1.1661	0.8333	0.3151	1.9435	1.1543	0.6596	2.2998	1.758	0.4446	2.3057	1.599	0.5801	-0.6125	1.0601	0.8098	1.1779	-0.4329	2.0053	-0.7038	2.1761
0.3445	1.1602	0.8039	0.2415	1.9641	1.1484	0.5948	2.2851	1.7109	0.4181	2.2851	1.5636	0.586	-0.586	1.1131	0.745	1.1337	-0.3887	1.9788	-0.6949	2.1702
0.3681	1.2014	0.8245	0.212	2.0142	1.1808	0.583	2.3322	1.7256	0.4446	2.2821	1.5754	0.6213	-0.5507	1.1897	0.7214	1.0513	-0.3327	1.9965	-0.6449	2.1997
0.321	1.1897	0.8186	0.1413	2.0083	1.1602	0.5536	2.344	1.7197	0.4594	2.2674	1.5401	0.6272	-0.5271	1.2014	0.6596	1.01	-0.2709	1.9612	-0.5978	2.1908
0.3298	1.222	0.8333	0.1296	2.0583	1.2014	0.5624	2.3646	1.7374	0.4741	2.2674	1.5283	0.6478	-0.5094	1.2132	0.5595	0.9541	-0.2032	1.9494	-0.5507	2.185
0.318	1.2515	0.8569	0.1001	2.0966	1.2427	0.5772	2.3587	1.7197	0.48	2.2409	1.5312	0.6773	-0.477	1.1867	0.5183	0.8952	-0.1649	1.9435	-0.5035	2.1761
0.3121	1.275	0.907	0.1472	2.1054	1.2839	0.6007	2.3675	1.7462	0.5094	2.2291	1.4988	0.7067	-0.4446	1.1602	0.424	0.854	-0.0942	1.8905	-0.4564	2.1408
0.3298	1.3074	0.9364	0.1443	2.1614	1.3339	0.6361	2.3528	1.7491	0.5595	2.1908	1.5106	0.7244	-0.424	1.0895	0.3357	0.8098	-0.0353	1.8758	-0.4064	2.1526
0.3681	1.3133	0.9541	0.1561	2.1673	1.3663	0.6684	2.3263	1.7197	0.5624	2.1496	1.4664	0.7126	-0.4181	1.0012	0.2591	0.7715	0.0029	1.8169	-0.3681	2.1261
0.3445	1.3074	1.013	0.1914	2.1584	1.4164	0.6802	2.291	1.702	0.5536	2.0907	1.4399	0.692	-0.3887	0.9011	0.1826	0.7421	0.0412	1.7639	-0.321	2.0937
0.3622	1.2839	1.0189	0.2179	2.1408	1.4282	0.6891	2.2527	1.6961	0.5772	2.0348	1.4017	0.6891	-0.371	0.8039	0.1119	0.7067	0.0736	1.6932	-0.2739	2.0613
0.3681	1.2544	1.0748	0.2385	2.1084	1.4458	0.7126	2.2026	1.6549	0.5654	1.9582	1.3457	0.6537	-0.3475	0.7126	0.0766	0.6655	0.1001	1.6461	-0.2562	1.9965
0.3504	1.1926	1.0719	0.2179	2.0259	1.4429	0.7008	2.1231	1.599	0.5448	1.8728	1.2839	0.6066	-0.3475	0.5595	0.0029	0.6537	0.0618	1.5725	-0.265	1.9553
0.3269	1.1455	1.0542	0.2326	1.9464	1.4223	0.6596	2.0524	1.5224	0.5153	1.8169	1.2132	0.5742	-0.3239	0.4741	-0.0648	0.6125	0.0736	1.5018	-0.2532	1.914
0.2886	1.0601	1.0071	0.1943	1.8257	1.3928	0.6272	1.9435	1.4488	0.4417	1.6932	1.1278	0.4918	-0.3151	0.3445	-0.1296	0.5919	0.0766	1.437	-0.2915	1.8669
0.2179	0.9158	0.9452	0.162	1.7462	1.3487	0.5713	1.8257	1.3634	0.3828	1.6314	1.0424	0.427	-0.2974	0.2532	-0.1767	0.5683	0.0795	1.3634	-0.3239	1.811
0.1649	0.8245	0.8893	0.109	1.6372	1.278	0.4859	1.755	1.2839	0.3151	1.5312	0.9541	0.3327	-0.2886	0.1296	-0.268	0.5595	0.0766	1.2927	-0.321	1.8021
0.0913	0.7038	0.8098	0.0442	1.5077	1.2044	0.4093	1.6785	1.1661	0.2444	1.4576	0.8746	0.2562	-0.2827	0.0471	-0.3062	0.5507	0.0177	1.2338	-0.3681	1.7727
-0.0029	0.586	0.6949	-0.0501	1.4076	1.1072	0.3121	1.5666	1.066	0.1472	1.4046	0.7833	0.1649	-0.2886	-0.0353	-0.3445	0.5448	-0.0059	1.1926	-0.4358	1.758
-0.0942	0.4947	0.6213	-0.106	1.3074	1.0218	0.1943	1.5195	0.9659	0.0589	1.3516	0.692	0.0825	-0.2945	-0.1266	-0.4358	0.5477	-0.0353	1.1573	-0.4653	1.7698
-0.1943	0.374	0.5035	-0.1708	1.2162	0.9158	0.1148	1.4341	0.854	-0.0294	1.3457	0.6243	0.0147	-0.3033	-0.1943	-0.4947	0.5507	-0.0648	1.1573	-0.5183	1.7904
-0.2768	0.265	0.3769	-0.268	1.1455	0.8216	0.0265	1.3958	0.7774	-0.0913	1.3369	0.5565	-0.0618	-0.3062	-0.2621	-0.5418	0.5713	-0.106	1.1631	-0.6007	1.8404
-0.3799	0.1678	0.2709	-0.3475	1.0836	0.7421	-0.053	1.3752	0.692	-0.2032	1.3398	0.48	-0.1384	-0.3151	-0.3357	-0.5801	0.5919	-0.1502	1.1779	-0.6243	1.8964
-0.4859	0.0471	0.1649	-0.4446	1.0071	0.6184	-0.1502	1.3369	0.6243	-0.2856	1.3575	0.4299	-0.1973	-0.3416	-0.3946	-0.6243	0.639	-0.2091	1.172	-0.7156	1.9523
-0.6066	-0.0206	0.0324	-0.5242	0.9776	0.5271	-0.2415	1.3074	0.5212	-0.3946	1.3781	0.3593	-0.268	-0.3681	-0.4888	-0.7038	0.7126	-0.2444	1.2162	-0.8186	1.9847
-0.6861	-0.0942	-0.0589	-0.6066	0.9394	0.4653	-0.3357	1.3251	0.477	-0.4535	1.4193	0.3445	-0.3298	-0.3975	-0.5565	-0.745	0.7627	-0.2974	1.2603	-0.9099	2.0819
-0.798	-0.1885	-0.159	-0.7214	0.9129	0.371	-0.4181	1.3104	0.427	-0.5624	1.4753	0.3033	-0.3946	-0.4329	-0.6066	-0.798	0.8216	-0.371	1.3074	-0.9776	2.1408
-0.9305	-0.2768	-0.2797	-0.8275	0.8657	0.3092	-0.5153	1.3281	0.4005	-0.639	1.5224	0.2739	-0.4653	-0.477	-0.7008	-0.8834	0.9158	-0.4653	1.3428	-1.0719	2.1938
-1.0454	-0.3563	-0.3975	-0.9511	0.8363	0.2267	-0.6302	1.3281	0.3357	-0.7273	1.5607	0.2591	-0.5242	-0.5065	-0.7538	-0.957	0.9776	-0.5507	1.3604	-1.1926	2.2674
-1.1543	-0.4181	-0.4947	-1.0542	0.8098	0.1855	-0.7185	1.3604	0.2974	-0.8216	1.6078	0.2267	-0.6213	-0.5565	-0.798	-1.0571	1.0689	-0.6537	1.3928	-1.3133	2.3057
-1.2544	-0.5153	-0.5948	-1.1838	0.7892	0.0972	-0.8068	1.3457	0.2503	-0.9452	1.6402	0.215	-0.6802	-0.6095	-0.8657	-1.1661	1.1514	-0.7597	1.4311	-1.4458	2.3204
-1.3604	-0.5978	-0.7038	-1.2868	0.7538	0.0471	-0.8775	1.3663	0.2267	-1.0218	1.6785	0.1973	-0.7126	-0.6419	-0.8922	-1.2574	1.2279	-0.851	1.4517	-1.5577	2.3734
-1.4753	-0.6714	-0.7892	-1.4576	0.7008	-0.0265	-0.9894	1.3457	0.1737	-1.1308	1.6991	0.1708	-0.7833	-0.692	-0.9541	-1.3516	1.3281	-0.9894	1.4517	-1.6902	2.3822
-1.6019	-0.7538	-0.8834	-1.5636	0.6743	-0.1119	-1.0954	1.3516	0.1413	-1.2427	1.7256	0.159	-0.851	-0.7214	-0.9747	-1.4576	1.4105	-1.1072	1.4664	-1.8257	2.4087
-1.7109	-0.8628	-1.0012	-1.7167	0.5978	-0.1973	-1.2073	1.3045	0.0736	-1.3398	1.7138	0.1178	-0.9246	-0.7833	-1.0483	-1.5783	1.5224	-1.2456	1.4193	-1.9818	2.394
-1.8228	-0.96	-1.0895	-1.8522	0.5065	-0.2768	-1.3428	1.2927	0.0059	-1.4606	1.6991	0.0972	-0.9982	-0.8275	-1.0984	-1.6726	1.6137	-1.3487	1.4223	-2.1202	2.3675
-1.9199	-1.0542	-1.2014	-2.0024	0.4594	-0.3622	-1.4399	1.2633	-0.053	-1.546	1.6961	0.1001	-1.0218	-0.8657	-1.1985	-1.7786	1.6873	-1.4547	1.384	-2.2438	2.3646
-2.0377	-1.1396	-1.3045	-2.1467	0.3916	-0.477	-1.5754	1.2014	-0.106	-1.649	1.6579	0.053	-1.0601	-0.9158	-1.2574	-1.8728	1.7698	-1.543	1.3546	-2.3499	2.3234
-2.1261	-1.2338	-1.4252	-2.2939	0.2945	-0.6066	-1.6902	1.1543	-0.1914	-1.7079	1.6372	0.0501	-1.1013	-0.9511	-1.3663	-1.9818	1.8404	-1.6048	1.2662	-2.4352	2.3145
-2.2645	-1.3339	-1.5783	-2.4706	0.2032	-0.7185	-1.8316	1.0925	-0.2768	-1.8286	1.6137	0.0265	-1.1366	-0.96	-1.4664	-2.0731	1.8905	-1.6726	1.2368	-2.5177	2.2645
-2.3557	-1.4547	-1.7315	-2.6296	0.0766	-0.9099	-1.9877	1.0041	-0.371	-1.917	1.5577	0.0294	-1.1308	-0.9924	-1.5842	-2.1437	1.9464	-1.702	1.169	-2.5825	2.2438
-2.503	-1.5901	-1.8875	-2.8446	-0.0412	-1.0601	-2.1319	0.907	-0.4623	-1.9877	1.5195	0.0118	-1.119	-0.9953	-1.6961	-2.238	1.97	-1.6814	1.0925	-2.6473	2.185
-2.6325	-1.7344	-2.0907	-3.033	-0.1914	-1.2662	-2.3116	0.798	-0.5889	-2.0672	1.4517	-0.0059	-1.1278	-1.01	-1.8463	-2.3204	1.9906	-1.702	1.01	-2.715	2.1673
-2.8033	-1.8669	-2.3175	-3.2539	-0.3593	-1.49	-2.5059	0.6684	-0.7067	-2.1408	1.3811	-0.053	-1.1101	-1.0218	-1.9729	-2.4235	1.9965	-1.6696	0.8863	-2.7474	2.0819
-2.9682	-2.0348	-2.5354	-3.4688	-0.5065	-1.7109	-2.662	0.5624	-0.8245	-2.2232	1.3045	-0.0883	-1.0925	-1.0071	-2.1614	-2.4912	1.9906	-1.6461	0.8068	-2.7798	2.0318
-3.1538	-2.1967	-2.7974	-3.7044	-0.7214	-1.9317	-2.8298	0.3858	-0.9865	-2.2733	1.2044	-0.1148	-1.0542	-0.9953	-2.3469	-2.6002	1.9612	-1.5931	0.6655	-2.7916	1.9376
-3.3393	-2.3881	-3.0625	-3.9311	-0.8893	-2.1673	-3.0065	0.2532	-1.1072	-2.3351	1.1278	-0.1207	-1.01	-0.9835	-2.5295	-2.7327	1.9288	-1.4988	0.5595	-2.7886	1.8758
-3.5719	-2.5854	-3.3069	-4.1579	-1.0866	-2.4117	-3.1832	0.0795	-1.2809	-2.3822	1.0071	-0.1737	-0.9482	-0.957	-2.7062	-2.8828	1.8728	-1.4164	0.4005	-2.7827	1.8198
-3.7839	-2.7916	-3.6131	-4.3935	-1.2927	-2.6532	-3.3599	-0.0854	-1.4193	-2.4058	0.9217	-0.2238	-0.8922	-0.9305	-2.9005	-3.0212	1.8198	-1.2692	0.2797	-2.7415	1.7403
-3.9989	-3.0065	-3.8546	-4.5937	-1.5106	-2.8711	-3.4777	-0.2444	-1.5666	-2.4264	0.8245	-0.2415	-0.7862	-0.8922	-3.0595	-3.1979	1.7344	-1.1337	0.159	-2.6679	1.6579
-4.2079	-3.192	-4.1226	-4.788	-1.6755	-3.0831	-3.5925	-0.3769	-1.6873	-2.4411	0.7421	-0.2444	-0.692	-0.8392	-3.2686	-3.3187	1.6402	-0.957	0.0383	-2.5736	1.5754
-4.4406	-3.3746	-4.3463	-4.9618	-1.917	-3.298	-3.7015	-0.5448	-1.7933	-2.4146	0.6419	-0.2591	-0.5801	-0.8039	-3.4217	-3.4983	1.5489	-0.7892	-0.0942	-2.4912	1.493
-4.5966	-3.5366	-4.5495	-5.0737	-2.0524	-3.4453	-3.7633	-0.6773	-1.8905	-2.3822	0.5889	-0.2356	-0.424	-0.7362	-3.6072	-3.6396	1.4341	-0.5595	-0.2002	-2.3734	1.4223
-4.7763	-3.7368	-4.7174	-5.2062	-2.2026	-3.5807	-3.8222	-0.8098	-1.97	-2.3381	0.5006	-0.265	-0.3239	-0.6861	-3.7751	-3.8016	1.3251	-0.374	-0.3357	-2.291	1.3428
-4.9529	-3.8458	-4.8587	-5.2886	-2.3351	-3.6897	-3.8192	-0.8952	-2.0289	-2.2615	0.424	-0.2444	-0.1355	-0.6302	-3.9282	-3.9576	1.2103	-0.1502	-0.4299	-2.1526	1.2662
-5.0884	-3.9665	-4.9618	-5.3269	-2.4529	-3.7574	-3.8134	-1.01	-2.0819	-2.1908	0.3534	-0.2238	0.0118	-0.5801	-4.043	-4.0666	1.119	0.0942	-0.5595	-2.0112	1.172
-5.165	-4.0578	-5.0236	-5.3416	-2.5324	-3.7692	-3.7751	-1.0719	-2.0495	-2.0789	0.3121	-0.162	0.2002	-0.5212	-4.152	-4.1638	1.0012	0.3445	-0.6419	-1.8434	1.0954
-5.2356	-4.0931	-5.0207	-5.2975	-2.5648	-3.7604	-3.6897	-1.116	-2.0407	-1.9288	0.2827	-0.1296	0.3651	-0.4623	-4.1932	-4.2079	0.8775	0.586	-0.7303	-1.6667	1.0365
-5.2445	-4.099	-4.9824	-5.218	-2.5854	-3.6956	-3.5807	-1.1455	-1.9818	-1.7874	0.2532	-0.0442	0.5683	-0.4093	-4.2227	-4.2492	0.7774	0.8392	-0.7921	-1.5195	0.96
-5.2091	-4.0931	-4.8617	-5.0737	-2.5766	-3.566	-3.4158	-1.1514	-1.8934	-1.6107	0.2827	0.0766	0.801	-0.3475	-4.1991	-4.2344	0.6537	1.1219	-0.854	-1.3281	0.907
-5.1532	-4.046	-4.7468	-4.9235	-2.5265	-3.407	-3.2185	-1.1219	-1.7727	-1.384	0.3298	0.1855	1.0159	-0.2945	-4.1432	-4.2227	0.5448	1.3811	-0.8834	-1.1249	0.8716
-5.0266	-3.9429	-4.5495	-4.6997	-2.4529	-3.2068	-2.9918	-1.0513	-1.6019	-1.1514	0.3946	0.3504	1.2839	-0.2267	-4.0843	-4.1608	0.4329	1.6637	-0.8893	-0.9364	0.8275
-4.8352	-3.8192	-4.2875	-4.4288	-2.3057	-2.9447	-2.7444	-0.9747	-1.4134	-0.9129	0.48	0.5153	1.5312	-0.1943	-4.0048	-4.0902	0.3534	1.9347	-0.904	-0.7244	0.7715
-4.5966	-3.6131	-3.993	-4.1461	-2.1496	-2.6384	-2.4411	-0.854	-1.1661	-0.6361	0.5654	0.6979	1.8139	-0.1355	-3.8516	-3.9842	0.265	2.2144	-0.8746	-0.5124	0.7332
-4.3228	-3.4217	-3.6367	-3.8163	-1.9494	-2.2998	-2.1172	-0.6832	-0.8893	-0.321	0.7067	0.9364	2.1231	-0.106	-3.6808	-3.8605	0.2032	2.4735	-0.8422	-0.2856	0.7391
-4.0018	-3.1744	-3.2274	-3.4512	-1.7256	-1.9111	-1.7491	-0.4977	-0.5448	0.0236	0.8746	1.1926	2.4264	-0.0795	-3.4865	-3.6985	0.1443	2.7238	-0.7833	-0.0618	0.7362
-3.6573	-2.8887	-2.7798	-3.0301	-1.4458	-1.4871	-1.3516	-0.2915	-0.215	0.3887	1.0513	1.4606	2.7356	-0.0707	-3.2274	-3.4806	0.109	2.9623	-0.6891	0.1472	0.7656
-3.2274	-2.5442	-2.3027	-2.5943	-1.1101	-1.0247	-0.96	-0.0265	0.1796	0.7362	1.278	1.7698	3.0477	-0.053	-2.9358	-3.2598	0.0795	3.2009	-0.6184	0.3534	0.7745
-2.8092	-2.1908	-1.8021	-2.1467	-0.8039	-0.5448	-0.5477	0.212	0.5654	1.0984	1.4841	2.0672	3.3304	-0.0501	-2.6708	-3.0065	0.0825	3.3982	-0.4829	0.5507	0.8186
-2.3234	-1.7874	-1.2485	-1.649	-0.4123	-0.0236	-0.106	0.5271	1.0071	1.49	1.7698	2.4235	3.6779	-0.0442	-2.3587	-2.7356	0.0795	3.622	-0.3593	0.7509	0.8893
-1.8522	-1.3899	-0.6743	-1.1779	-0.0206	0.4918	0.321	0.8451	1.4635	1.8551	2.0466	2.7709	3.9665	-0.0471	-2.0554	-2.4323	0.0883	3.7662	-0.1855	0.9158	0.9659
-1.3369	-0.9394	-0.0883	-0.6861	0.3946	1.0483	0.7862	1.1749	1.9258	2.2497	2.3322	3.1184	4.2875	-0.0707	-1.7668	-2.1202	0.1178	3.937	-0.0029	1.0925	1.0689
-0.7803	-0.4594	0.5271	-0.159	0.8245	1.5931	1.2338	1.5548	2.397	2.6355	2.6237	3.5042	4.5966	-0.0972	-1.4517	-1.811	0.1767	4.0666	0.1885	1.2544	1.169
-0.2385	0.0471	1.1308	0.3593	1.2927	2.1791	1.702	1.9288	2.874	3.0212	2.983	3.8723	4.9088	-0.1207	-1.1631	-1.5136	0.212	4.205	0.4299	1.4046	1.3222
0.321	0.5389	1.7668	0.8716	1.7786	2.7621	2.1437	2.3234	3.3834	3.4011	3.3069	4.2816	5.2003	-0.1561	-0.8716	-1.1955	0.2621	4.2992	0.6478	1.5047	1.4429
0.8952	1.0748	2.397	1.3869	2.2586	3.3481	2.6002	2.7268	3.884	3.8016	3.6602	4.6732	5.5007	-0.1885	-0.6066	-0.9011	0.3386	4.3463	0.8952	1.6255	1.5901
1.4694	1.6166	3.036	1.8846	2.7474	3.9194	3.036	3.1449	4.3758	4.1667	4.0165	5.0943	5.804	-0.2267	-0.3269	-0.6007	0.4181	4.3699	1.1484	1.7403	1.7462
2.0407	2.1349	3.6632	2.3587	3.2539	4.4877	3.4541	3.5719	4.897	4.5319	4.3787	5.5183	6.0778	-0.268	-0.0854	-0.3092	0.5035	4.4259	1.4223	1.8198	1.8875
2.6002	2.6708	4.2963	2.8799	3.7604	5.0796	3.8752	4.0077	5.4005	4.8911	4.7557	5.9276	6.3664	-0.3151	0.1796	-0.0383	0.6007	4.4612	1.6902	1.8964	2.0878
3.1567	3.2097	4.9088	3.3481	4.2875	5.6656	4.2933	4.4229	5.9217	5.2415	5.1414	6.3635	6.655	-0.371	0.4564	0.2621	0.7097	4.4524	1.9464	1.97	2.2497
3.675	3.7427	5.483	3.7574	4.7763	6.2044	4.6791	4.8734	6.4076	5.5713	5.4948	6.7698	6.8817	-0.424	0.7568	0.53	0.8098	4.4317	2.2438	2.0083	2.4205
4.2168	4.2875	6.0808	4.2109	5.2857	6.7227	5.0325	5.3328	6.9141	5.8776	5.8776	7.188	7.1173	-0.48	1.0365	0.8127	0.9335	4.4111	2.5177	2.0466	2.6031
4.6791	4.7939	6.6108	4.632	5.7775	7.2469	5.4241	5.7539	7.3882	6.1485	6.2103	7.5796	7.3205	-0.5536	1.3339	1.0925	1.066	4.3405	2.7916	2.076	2.7503
5.1385	5.2769	7.1438	4.9942	6.2398	7.7504	5.748	6.1603	7.8476	6.4106	6.5431	7.9595	7.5237	-0.6184	1.6255	1.3516	1.1897	4.261	3.0684	2.076	2.9064
5.5537	5.7539	7.6532	5.3681	6.708	8.2157	6.0778	6.5549	8.2775	6.6756	6.8552	8.3128	7.6797	-0.6891	1.9523	1.6078	1.3163	4.1962	3.3569	2.0819	3.0566
5.9306	6.2103	8.0684	5.7068	7.1438	8.6397	6.387	6.9259	8.6839	6.8817	7.135	8.6426	7.8034	-0.7391	2.2115	1.8846	1.4694	4.096	3.569	2.0524	3.1685
6.3163	6.6373	8.4954	6.0484	7.5708	9.0461	6.6461	7.294	9.0873	7.0908	7.4059	8.9518	7.9389	-0.8216	2.4971	2.129	1.6019	4.0048	3.8281	2.0554	3.2774
6.6285	7.0378	8.8782	6.334	7.9801	9.4348	6.9318	7.6002	9.4318	7.2616	7.6591	9.2286	8.0301	-0.8893	2.7768	2.3764	1.7285	3.8899	4.0372	2.0348	3.3658
6.9583	7.4265	9.2463	6.6344	8.3187	9.8028	7.1791	7.9182	9.7646	7.4265	7.8858	9.4907	8.1391	-0.9394	3.0566	2.6443	1.8345	3.7692	4.261	2.0112	3.46
7.1644	7.7386	9.5408	6.8905	8.625	10.1179	7.4088	8.1538	10.0679	7.5413	8.0566	9.7115	8.1597	-1.0247	3.2568	2.8328	1.9965	3.5955	4.4023	1.9317	3.4806
7.4176	8.0301	9.8117	7.1232	8.9135	10.4153	7.6238	8.3894	10.3417	7.6827	8.2157	9.9177	8.2186	-1.0689	3.4629	3.0477	2.0878	3.4865	4.5701	1.9229	3.5189
7.6738	8.3187	10.0973	7.3499	9.1697	10.6715	7.824	8.5867	10.5979	7.7857	8.3482	10.1209	8.2598	-1.119	3.6308	3.248	2.185	3.3334	4.7056	1.8964	3.513
7.8476	8.5543	10.3034	7.5502	9.37	10.8747	7.986	8.7339	10.8011	7.877	8.4542	10.2828	8.2863	-1.169	3.7869	3.4099	2.2792	3.2097	4.788	1.8581	3.4894
7.9948	8.7722	10.5213	7.7268	9.5408	11.0897	8.1391	8.8753	10.9984	7.9418	8.5484	10.4124	8.3158	-1.2073	3.8811	3.5631	2.3499	3.089	4.8734	1.8375	3.4629
8.142	8.9665	10.6715	7.8976	9.6968	11.2752	8.2893	8.9783	11.1868	8.0036	8.6161	10.5626	8.3334	-1.2309	3.9665	3.7044	2.4087	2.9653	4.897	1.8286	3.4099
8.2745	9.0991	10.807	8.0184	9.7969	11.3989	8.3776	9.0137	11.3076	8.0419	8.6309	10.6303	8.3423	-1.2574	4.0136	3.834	2.4588	2.8828	4.9294	1.7992	3.3628
8.3776	9.2139	10.9248	8.1244	9.8706	11.5166	8.4601	9.0431	11.4283	8.0743	8.6485	10.7304	8.3305	-1.2839	4.0872	3.9429	2.5	2.7798	4.9382	1.7786	3.2804
8.4336	9.2757	10.9984	8.2215	9.9118	11.6079	8.5455	9.0284	11.5137	8.0773	8.6662	10.7775	8.3334	-1.2986	4.0931	4.0725	2.5295	2.6944	4.9058	1.7521	3.1891
8.5307	9.3376	11.0602	8.2952	9.9353	11.6874	8.572	9.0431	11.5903	8.1038	8.6574	10.8335	8.3217	-1.3074	4.1284	4.1785	2.5501	2.6031	4.8676	1.7374	3.1243
8.5602	9.3641	11.0985	8.3276	9.9118	11.7493	8.6132	9.0078	11.6315	8.0714	8.5985	10.8394	8.2952	-1.3163	4.1814	4.2933	2.5678	2.5059	4.8087	1.6873	3.0183
8.5749	9.3847	11.1014	8.3305	9.8912	11.761	8.5955	8.9371	11.6226	8.0508	8.5278	10.8158	8.2363	-1.3281	4.2109	4.3728	2.606	2.4323	4.7704	1.649	2.9241
8.5896	9.3611	11.1103	8.3276	9.8205	11.7552	8.5896	8.834	11.6226	8.0066	8.466	10.7864	8.1921	-1.3398	4.2197	4.4582	2.606	2.3587	4.7085	1.6137	2.8181
8.569	9.2993	11.1044	8.304	9.7528	11.7287	8.5631	8.7457	11.5844	7.9624	8.3747	10.7275	8.1244	-1.3428	4.2374	4.5819	2.6208	2.2762	4.629	1.596	2.7386
8.5337	9.2345	11.0278	8.2539	9.6438	11.6727	8.4954	8.6309	11.5107	7.8947	8.2804	10.6391	8.0331	-1.3546	4.2845	4.6467	2.6384	2.1732	4.5289	1.5195	2.662
8.466	9.1373	10.9601	8.1715	9.529	11.6109	8.3982	8.5013	11.4254	7.7887	8.1479	10.5567	7.9654	-1.3634	4.3169	4.7321	2.6473	2.1054	4.4317	1.4458	2.553
8.3806	9.0313	10.8688	8.0596	9.3935	11.4901	8.2893	8.3364	11.3076	7.6915	8.0095	10.4212	7.8299	-1.3604	4.3257	4.7822	2.6561	2.0142	4.3375	1.3516	2.4618
8.2598	8.8929	10.7569	7.9477	9.2581	11.3841	8.1803	8.1862	11.1809	7.5884	7.9006	10.2946	7.7357	-1.3781	4.3493	4.7939	2.6767	1.917	4.2492	1.2868	2.3852
8.1509	8.7339	10.6273	7.8093	9.1049	11.2546	8.0036	8.0095	11.0219	7.4353	7.7327	10.1474	7.6149	-1.384	4.3699	4.8381	2.6855	1.8316	4.1373	1.172	2.344
8.0213	8.5808	10.4889	7.6532	8.9312	11.0897	7.8652	7.8623	10.8364	7.294	7.6149	9.9677	7.4854	-1.3869	4.3552	4.7939	2.6944	1.755	4.0283	1.0954	2.2556
7.8623	8.3806	10.327	7.4913	8.7516	10.913	7.6738	7.7033	10.648	7.1556	7.4972	9.8146	7.3499	-1.4046	4.3169	4.7203	2.712	1.652	3.9488	0.9806	2.235
7.7298	8.2068	10.1856	7.3175	8.5837	10.7628	7.5001	7.5472	10.4507	7.0083	7.3882	9.6291	7.2321	-1.3987	4.2845	4.6202	2.7209	1.5901	3.8399	0.8657	2.1879
7.559	8.0419	10.0355	7.1438	8.4394	10.5979	7.3087	7.4206	10.2917	6.8493	7.3057	9.4819	7.1055	-1.4105	4.2197	4.4524	2.7356	1.5106	3.7604	0.7568	2.1967
7.3941	7.8328	9.8588	6.9141	8.2745	10.4153	7.1114	7.3028	10.0885	6.7021	7.2204	9.3081	6.9759	-1.4105	4.1373	4.2992	2.7533	1.4488	3.7191	0.6419	2.2262
7.2498	7.6562	9.6909	6.7492	8.1479	10.2269	6.917	7.1968	9.9118	6.549	7.1379	9.1609	6.8552	-1.4311	4.0401	4.1226	2.7798	1.3869	3.6455	0.5477	2.2733
7.1114	7.4706	9.5437	6.5666	8.0095	10.0561	6.7315	7.1085	9.7174	6.3811	7.0996	8.9813	6.7227	-1.4458	3.9341	3.9164	2.7857	1.3457	3.6102	0.4535	2.3499
6.9465	7.2881	9.3582	6.3605	7.8741	9.9	6.5342	7.0289	9.5201	6.2339	7.0554	8.8046	6.5931	-1.4488	3.8134	3.7397	2.8151	1.3133	3.5896	0.3534	2.4087
6.7904	7.1379	9.211	6.1779	7.7857	9.6968	6.3193	6.9642	9.3405	6.0867	7.0054	8.6309	6.4547	-1.4576	3.6867	3.5159	2.8416	1.2544	3.5837	0.2503	2.4912
6.6285	6.9406	8.9989	5.9777	7.6886	9.476	6.1132	6.8876	9.1079	5.9217	6.9494	8.4247	6.3016	-1.4782	3.5307	3.2804	2.8828	1.2044	3.5513	0.1502	2.5648
6.4636	6.7963	8.8281	5.7627	7.5737	9.2905	5.91	6.8582	8.9077	5.7568	6.9259	8.2392	6.1632	-1.4959	3.3805	3.0477	2.9035	1.1838	3.5336	0.0677	2.6767
6.2692	6.6196	8.6073	5.5831	7.4765	9.0696	5.7127	6.7963	8.6956	5.5949	6.8876	8.0272	6.0101	-1.5047	3.245	2.8416	2.93	1.1573	3.5189	-0.0294	2.7415
6.0984	6.4577	8.3953	5.374	7.3588	8.8281	5.4889	6.7345	8.4601	5.4182	6.8199	7.8063	5.8393	-1.5224	3.089	2.6031	2.9447	1.1219	3.5042	-0.1178	2.8298
5.8658	6.2751	8.145	5.1709	7.2557	8.5985	5.2945	6.6785	8.2333	5.2445	6.7492	7.6032	5.6538	-1.5047	2.9447	2.3793	2.9476	1.0984	3.4718	-0.2061	2.9182
5.6744	6.0808	7.8917	4.9618	7.1261	8.3305	5.109	6.5961	7.9948	5.0531	6.6638	7.3646	5.483	-1.5253	2.7651	2.1408	2.9682	1.0719	3.4541	-0.3062	2.9888
5.4594	5.9159	7.6473	4.7586	7.0024	8.0861	4.8646	6.5254	7.7474	4.8558	6.5902	7.1202	5.2945	-1.5224	2.6119	1.9347	2.9653	1.063	3.4306	-0.371	3.086
5.215	5.7097	7.3735	4.5348	6.8582	7.827	4.682	6.443	7.4913	4.6997	6.5077	6.8788	5.1326	-1.5312	2.45	1.7197	2.9771	1.0689	3.4011	-0.4329	3.1508
4.9912	5.5183	7.082	4.3434	6.7404	7.5502	4.4847	6.3841	7.2557	4.5554	6.4547	6.6726	4.9736	-1.5195	2.2851	1.5283	2.9741	1.0807	3.3893	-0.4711	3.2362
4.7409	5.321	6.7963	4.1432	6.6137	7.2586	4.2992	6.2957	7.0407	4.3935	6.3635	6.4459	4.8558	-1.5195	2.1025	1.3487	2.9682	1.1249	3.3687	-0.53	3.2804
4.523	5.1355	6.5519	3.94	6.4871	7.0142	4.1167	6.2251	6.8258	4.258	6.3193	6.2663	4.7674	-1.5077	1.9906	1.2162	2.9388	1.1926	3.3569	-0.5448	3.4099
4.2639	4.9412	6.2633	3.7427	6.3752	6.7492	3.9547	6.1603	6.6196	4.1373	6.2928	6.069	4.6703	-1.4841	1.8198	1.063	2.9182	1.2574	3.351	-0.586	3.4836
4.0372	4.7557	5.9689	3.5778	6.2486	6.4871	3.8192	6.1338	6.4076	4.0283	6.2987	5.9365	4.6349	-1.4782	1.6667	0.907	2.877	1.3752	3.354	-0.5595	3.6072
3.8045	4.5495	5.695	3.3717	6.0984	6.2251	3.6661	6.0572	6.2044	3.9282	6.2545	5.7804	4.579	-1.4664	1.5106	0.7774	2.8563	1.4694	3.3481	-0.5801	3.6956
3.5925	4.3552	5.4182	3.2097	5.9571	5.9895	3.5513	6.0307	6.0336	3.8723	6.2516	5.6685	4.5584	-1.437	1.3457	0.6125	2.8122	1.5754	3.3422	-0.5654	3.8134
3.3717	4.205	5.1502	3.0448	5.857	5.7568	3.4541	5.9954	5.907	3.831	6.2751	5.5596	4.5584	-1.4134	1.169	0.4859	2.7739	1.705	3.3717	-0.5359	3.9547
3.1508	4.0519	4.8941	2.8917	5.7716	5.536	3.3363	5.9748	5.7539	3.7721	6.2869	5.4889	4.5554	-1.4076	0.9806	0.3416	2.7179	1.8551	3.4011	-0.5242	4.0607
2.9152	3.8546	4.6408	2.7238	5.6479	5.3181	3.2362	5.9424	5.6037	3.7162	6.3046	5.4005	4.5819	-1.3781	0.7951	0.1973	2.6855	1.9759	3.3864	-0.5006	4.1962
2.7003	3.6808	4.4023	2.556	5.5389	5.0943	3.1331	5.9129	5.4889	3.6838	6.3046	5.3358	4.5996	-1.3604	0.5772	0.053	2.6502	2.129	3.3893	-0.4623	4.3257
2.4941	3.5542	4.1579	2.394	5.4535	4.8911	3.0419	5.8746	5.3446	3.6514	6.3428	5.2769	4.6614	-1.3369	0.3769	-0.0825	2.6119	2.2939	3.407	-0.424	4.4494
2.2645	3.3717	3.9194	2.2733	5.3299	4.685	2.9506	5.8275	5.2356	3.6102	6.3428	5.1885	4.6703	-1.3251	0.1413	-0.2267	2.5707	2.45	3.407	-0.3858	4.5819
2.0171	3.2009	3.6691	2.076	5.1709	4.4818	2.8298	5.7745	5.0796	3.566	6.334	5.1031	4.6555	-1.3104	-0.0825	-0.371	2.553	2.5589	3.3923	-0.371	4.6673
1.8051	3.0242	3.4394	1.9376	5.0413	4.2698	2.7032	5.7097	4.9294	3.5071	6.3369	5.0266	4.6761	-1.2986	-0.3121	-0.4711	2.5089	2.7003	3.4011	-0.318	4.7615
1.5165	2.821	3.1773	1.7344	4.8911	4.046	2.5648	5.6361	4.791	3.4306	6.2928	4.9471	4.6614	-1.2515	-0.5448	-0.6037	2.4647	2.8593	3.3687	-0.2945	4.8528
1.3015	2.6149	2.9182	1.5548	4.7085	3.8281	2.4441	5.5448	4.6438	3.3569	6.2869	4.8764	4.6791	-1.2515	-0.7656	-0.7214	2.4205	2.9712	3.3481	-0.265	4.9412
1.0542	2.397	2.6708	1.3781	4.5289	3.6367	2.3027	5.4477	4.4936	3.2863	6.2339	4.8057	4.6909	-1.222	-0.9776	-0.8304	2.3705	3.1007	3.2863	-0.2415	4.9529
0.8127	2.185	2.3822	1.1808	4.3611	3.4011	2.1467	5.3505	4.3405	3.2274	6.2162	4.7292	4.6879	-1.1867	-1.1543	-0.8834	2.3086	3.2568	3.2656	-0.1973	4.9824
0.5654	1.9582	2.1408	0.9982	4.1638	3.1626	1.9994	5.2533	4.2138	3.142	6.1927	4.682	4.7439	-1.1455	-1.3074	-0.9982	2.2438	3.4129	3.2185	-0.1207	5.0295
0.321	1.755	1.8905	0.8186	3.9959	2.9594	1.8846	5.1502	4.0754	3.0949	6.1691	4.6467	4.7498	-1.1278	-1.4105	-1.0454	2.182	3.5837	3.1714	-0.0795	5.0855
0.1001	1.5312	1.6579	0.6567	3.8428	2.7503	1.7374	5.0796	3.9783	3.0507	6.1897	4.6408	4.8352	-1.0895	-1.5077	-1.1013	2.1172	3.7604	3.1302	-0.0177	5.1267
-0.109	1.3428	1.4399	0.4977	3.6661	2.5884	1.6314	5.0295	3.9076	3.0301	6.2398	4.6909	4.9441	-1.0365	-1.5518	-1.1661	2.0083	3.9694	3.1479	0.1001	5.1974
-0.3357	1.116	1.222	0.321	3.5189	2.4087	1.4988	4.9795	3.831	3.0183	6.2663	4.6968	5.006	-1.0041	-1.6255	-1.2162	1.9464	4.1844	3.086	0.1531	5.2533
-0.5271	0.9305	1.01	0.1855	3.3893	2.2645	1.4311	4.9618	3.7839	3.033	6.3458	4.7645	5.1444	-0.9482	-1.6696	-1.3015	1.8463	4.4376	3.1037	0.2768	5.3034
-0.7332	0.745	0.7951	0.0294	3.248	2.1349	1.3074	4.9206	3.7456	3.036	6.3723	4.7998	5.2415	-0.907	-1.6961	-1.3781	1.7521	4.6761	3.0772	0.3858	5.4035
-0.9099	0.5595	0.5948	-0.1001	3.1302	1.9788	1.225	4.897	3.6867	3.0183	6.3929	4.8411	5.3593	-0.8687	-1.7138	-1.4488	1.6726	4.9176	3.0566	0.48	5.4359
-1.1043	0.3916	0.3946	-0.2061	3.0124	1.861	1.172	4.8705	3.675	3.0507	6.4488	4.8793	5.48	-0.8186	-1.7521	-1.5253	1.5842	5.1591	3.0448	0.6184	5.4859
-1.2898	0.2415	0.2091	-0.3651	2.9093	1.7109	1.0689	4.844	3.5984	3.036	6.4665	4.9029	5.5713	-0.7774	-1.7609	-1.6284	1.5018	5.3888	3.033	0.7273	5.5596
-1.4753	0.0825	0.0206	-0.4711	2.7739	1.6019	1.0041	4.7851	3.5601	3.0389	6.5019	4.9264	5.6567	-0.7303	-1.8169	-1.6991	1.4252	5.6037	2.9947	0.8746	5.5831
-1.6579	-0.0825	-0.1325	-0.5654	2.6973	1.4959	0.9305	4.8057	3.5218	3.0742	6.5195	4.9323	5.7421	-0.6832	-1.8228	-1.8051	1.3369	5.8393	2.9888	0.9894	5.6243
-1.8345	-0.215	-0.321	-0.6743	2.5766	1.3811	0.8687	4.7468	3.4688	3.0919	6.5107	4.9264	5.8069	-0.6478	-1.861	-1.8669	1.2574	6.0454	2.9565	1.1425	5.6508
-1.9965	-0.3593	-0.4682	-0.7479	2.4941	1.2809	0.8304	4.7233	3.4453	3.1007	6.5195	4.9294	5.9306	-0.5889	-1.8964	-1.9729	1.1602	6.2692	2.9535	1.2633	5.6803
-2.1437	-0.4859	-0.6302	-0.8098	2.3999	1.1808	0.7862	4.6879	3.3952	3.1243	6.5254	4.9147	5.963	-0.5595	-1.9317	-2.02	1.0895	6.4636	2.9182	1.384	5.7097
-2.288	-0.6302	-0.7686	-0.904	2.3116	1.1278	0.7892	4.6555	3.351	3.1243	6.5107	4.9264	6.0631	-0.5242	-1.9523	-2.0495	0.9982	6.6785	2.9093	1.5077	5.7333
-2.3911	-0.7391	-0.8805	-0.9217	2.291	1.0778	0.7715	4.6968	3.3569	3.1714	6.5342	4.95	6.1662	-0.4623	-1.9464	-2.0937	0.8863	6.8964	2.9152	1.6637	5.7627
-2.4912	-0.8216	-0.9982	-0.9747	2.2409	1.0189	0.7774	4.6761	3.3569	3.2333	6.5431	4.9677	6.2545	-0.4211	-1.9464	-2.1084	0.7892	7.1143	2.9123	1.7933	5.8069
-2.5854	-0.8952	-1.0954	-0.9423	2.2026	0.9894	0.801	4.7027	3.3746	3.3039	6.602	5.0501	6.3929	-0.3416	-1.914	-2.1172	0.6684	7.3646	2.9005	1.9582	5.8393
-2.662	-0.9629	-1.1749	-0.9894	2.1879	0.96	0.8422	4.7586	3.3982	3.3952	6.6491	5.1296	6.5549	-0.2886	-1.8551	-2.1054	0.5772	7.5943	2.9182	2.0819	5.8982
-2.6973	-0.9835	-1.2279	-0.9659	2.2291	0.96	0.8981	4.8263	3.4688	3.5189	6.7463	5.2327	6.7139	-0.2385	-1.8021	-2.0966	0.4476	7.877	2.9447	2.2762	6.0013
-2.7739	-1.0336	-1.3398	-0.9364	2.2645	0.9659	0.9482	4.8882	3.5042	3.6367	6.8199	5.3328	6.9053	-0.1885	-1.7698	-2.0819	0.3504	8.1774	2.9712	2.4559	6.0896
-2.7945	-1.0071	-1.3428	-0.9217	2.3086	0.9747	1.0041	4.9942	3.5866	3.7721	6.9524	5.4918	7.0937	-0.1472	-1.6961	-2.0937	0.2385	8.4718	3.036	2.6561	6.2103
-2.7945	-1.01	-1.3516	-0.8863	2.3734	1.0041	1.0807	5.0972	3.6543	3.8988	7.0613	5.6214	7.3087	-0.0854	-1.6284	-2.0907	0.1325	8.731	3.1007	2.8504	6.2987
-2.8298	-1.0071	-1.4164	-0.8716	2.4323	1.0277	1.1455	5.1767	3.7397	4.0401	7.188	5.7568	7.4706	-0.0353	-1.5725	-2.0996	0.0589	8.996	3.1567	3.0536	6.4106
-2.8181	-0.9776	-1.4311	-0.8422	2.5	1.063	1.222	5.3034	3.8104	4.1667	7.2792	5.8894	7.6709	0.0118	-1.5548	-2.1349	-0.0383	9.2669	3.2126	3.195	6.5372
-2.8534	-0.9511	-1.4723	-0.8481	2.5854	1.0719	1.2662	5.3888	3.8546	4.2727	7.4	5.9865	7.8122	0.053	-1.5636	-2.2527	-0.1119	9.4848	3.2774	3.3452	6.655
-2.8681	-0.9217	-1.5047	-0.8569	2.6355	1.0719	1.2868	5.4624	3.8811	4.3611	7.4854	6.0719	7.9506	0.0589	-1.5725	-2.3557	-0.1708	9.685	3.3658	3.4924	6.7639
-2.8858	-0.8952	-1.5371	-0.8893	2.7209	1.0748	1.3045	5.5478	3.9341	4.4347	7.5884	6.175	8.089	0.1148	-1.6314	-2.4647	-0.2356	9.8941	3.4364	3.6485	6.8876
-2.9211	-0.8657	-1.5607	-0.8834	2.7945	1.0895	1.3457	5.6479	3.9989	4.526	7.6679	6.2486	8.2039	0.1355	-1.6755	-2.5736	-0.2945	10.0502	3.513	3.781	6.9995
-2.9035	-0.8127	-1.5813	-0.904	2.8622	1.0895	1.3634	5.7127	4.043	4.5731	7.7357	6.3369	8.304	0.162	-1.7756	-2.6826	-0.3475	10.218	3.6013	3.9105	7.135
-2.9182	-0.7774	-1.6019	-0.9217	2.9329	1.1131	1.3928	5.801	4.0872	4.6555	7.8446	6.4106	8.4071	0.2002	-1.8522	-2.7798	-0.4211	10.3741	3.7044	4.0283	7.2704
-2.8976	-0.7656	-1.5725	-0.9335	2.9771	1.1602	1.4105	5.8982	4.1638	4.7085	7.9359	6.4871	8.5042	0.2297	-1.9347	-2.8799	-0.4741	10.5184	3.7692	4.1196	7.3764
-2.874	-0.6832	-1.5518	-0.9364	3.0919	1.1955	1.4664	6.0395	4.2521	4.7998	8.0449	6.5843	8.6132	0.268	-2.0318	-2.9417	-0.5595	10.6597	3.8811	4.2344	7.5178
-2.8563	-0.6361	-1.5283	-0.9129	3.1803	1.2603	1.5165	6.1367	4.3581	4.9058	8.1774	6.705	8.7575	0.3121	-2.1584	-3.0006	-0.6419	10.8158	3.9842	4.364	7.6503
-2.8122	-0.5772	-1.4871	-0.8805	3.2686	1.3428	1.5901	6.2751	4.4877	5.0325	8.3217	6.8493	8.8841	0.3563	-2.2968	-3.0654	-0.7185	10.9513	4.0843	4.4936	7.8122
-2.7651	-0.5153	-1.437	-0.8039	3.3599	1.4458	1.6579	6.4106	4.6379	5.1502	8.4895	7.0054	9.0637	0.4005	-2.397	-3.1331	-0.8068	11.1221	4.205	4.6231	7.9683
-2.6855	-0.4417	-1.3604	-0.7656	3.4953	1.546	1.7786	6.5549	4.8204	5.2916	8.6662	7.1703	9.208	0.424	-2.5324	-3.1832	-0.8716	11.2752	4.3257	4.7321	8.1214
-2.6561	-0.3475	-1.2721	-0.6773	3.6337	1.702	1.914	6.7433	5.0089	5.4418	8.8635	7.3676	9.4053	0.4535	-2.6355	-3.2038	-0.9335	11.4666	4.4553	4.8587	8.2834
-2.5648	-0.2974	-1.172	-0.6037	3.7633	1.8699	2.0466	6.8994	5.1856	5.5978	9.0549	7.5678	9.582	0.4918	-2.7327	-3.2097	-0.9835	11.6226	4.5908	5.0001	8.4394
-2.5059	-0.1943	-1.0984	-0.5124	3.8899	1.967	2.1437	7.0584	5.3829	5.751	9.2492	7.7681	9.7822	0.5094	-2.7621	-3.1596	-1.0189	11.7964	4.7498	5.109	8.6309
-2.447	-0.1355	-0.9806	-0.4417	4.0372	2.1054	2.2998	7.2439	5.6067	5.9365	9.4613	7.9683	9.9589	0.5183	-2.7827	-3.089	-1.0395	11.9642	4.897	5.2239	8.8046
-2.3764	-0.0442	-0.8775	-0.3327	4.1814	2.291	2.4529	7.4265	5.8246	6.119	9.6644	8.1509	10.1562	0.5035	-2.7415	-2.9859	-1.0483	12.1026	5.0737	5.3387	8.9607
-2.344	0.0324	-0.7686	-0.2503	4.2992	2.4294	2.5766	7.5973	6.0425	6.2751	9.8117	8.3246	10.2946	0.5153	-2.7003	-2.8681	-1.0336	12.2175	5.2062	5.4477	9.1108
-2.3057	0.0913	-0.6861	-0.1531	4.4111	2.5825	2.6944	7.7268	6.228	6.4165	9.9854	8.466	10.4566	0.4829	-2.6355	-2.7032	-0.9835	12.3294	5.3593	5.5213	9.264
-2.238	0.1649	-0.586	-0.0442	4.5289	2.7503	2.8563	7.8829	6.4312	6.5931	10.1267	8.622	10.5773	0.4741	-2.5295	-2.5324	-0.9482	12.4295	5.5095	5.6243	9.3965
-2.1761	0.2091	-0.477	0.0471	4.629	2.8887	2.98	8.0184	6.6049	6.6933	10.2445	8.7398	10.6921	0.4358	-2.4352	-2.3322	-0.8952	12.5149	5.6332	5.6773	9.5319
-2.1496	0.2856	-0.3769	0.1708	4.7409	3.0183	3.0919	8.1715	6.7963	6.8552	10.38	8.8929	10.8305	0.4034	-2.3175	-2.1437	-0.8333	12.5738	5.7775	5.7627	9.6615
-2.0966	0.3563	-0.2503	0.2415	4.8558	3.2038	3.2274	8.3187	6.9907	6.9907	10.5213	9.0196	10.9542	0.3858	-2.2144	-1.9553	-0.7803	12.6739	5.9276	5.8334	9.7704
-2.0466	0.4005	-0.1708	0.3357	4.9353	3.3245	3.3363	8.3894	7.1379	7.0908	10.5861	9.1138	11.0308	0.3269	-2.1555	-1.8228	-0.6979	12.7181	6.0454	5.8982	9.8912
-1.9906	0.4682	-0.0442	0.4682	5.0266	3.4688	3.4571	8.5101	7.3146	7.2233	10.7098	9.2463	11.1544	0.3151	-2.0937	-1.6431	-0.6537	12.7711	6.1397	5.9689	9.9883
-1.9347	0.4888	0.0766	0.5654	5.1061	3.6367	3.5719	8.625	7.4765	7.3499	10.804	9.37	11.284	0.2739	-2.023	-1.546	-0.583	12.8476	6.2427	6.0543	10.0885
-1.8581	0.5683	0.1885	0.692	5.1944	3.7898	3.7074	8.7162	7.6385	7.4824	10.913	9.4936	11.4342	0.2562	-1.9906	-1.5047	-0.53	12.9419	6.3576	6.1544	10.1827
-1.7963	0.6125	0.3121	0.8392	5.2769	3.9488	3.834	8.8075	7.7916	7.6326	11.0013	9.632	11.5785	0.2209	-1.967	-1.49	-0.4682	13.0037	6.4282	6.1779	10.2651
-1.7167	0.6537	0.4535	0.9688	5.3416	4.096	3.9547	8.9047	7.9595	7.7592	11.0897	9.7528	11.7375	0.2061	-1.9258	-1.4547	-0.4358	13.092	6.5136	6.2987	10.3447
-1.6844	0.6861	0.586	1.0689	5.3799	4.2344	4.0637	8.9724	8.0802	7.8888	11.1574	9.8912	11.8494	0.1767	-1.9405	-1.5136	-0.3858	13.1598	6.5519	6.3723	10.3829
-1.6196	0.7185	0.6891	1.1808	5.4359	4.3405	4.1432	9.0549	8.2274	8.0066	11.2251	10.0178	12.0231	0.159	-1.9317	-1.5636	-0.3445	13.254	6.6049	6.4695	10.4242
-1.546	0.7126	0.8068	1.2839	5.4418	4.4582	4.2344	9.0755	8.3276	8.1096	11.2663	10.1238	12.1232	0.1413	-1.9405	-1.6255	-0.3062	13.3041	6.6285	6.5195	10.4359
-1.5224	0.7214	0.8952	1.3722	5.4477	4.5672	4.314	9.1079	8.4336	8.1715	11.2811	10.2269	12.2322	0.109	-1.9847	-1.6961	-0.2562	13.363	6.6255	6.5666	10.4418
-1.5018	0.7008	0.96	1.4547	5.4418	4.6084	4.3405	9.0961	8.5013	8.2363	11.2958	10.2681	12.3205	0.0913	-2.0289	-1.7609	-0.2091	13.4189	6.5872	6.6167	10.4242
-1.4635	0.692	1.0306	1.5165	5.4005	4.682	4.367	9.0814	8.5513	8.2745	11.2811	10.3211	12.3706	0.0795	-2.0583	-1.8522	-0.1708	13.4366	6.5902	6.6373	10.3888
-1.4606	0.6655	1.0719	1.5666	5.3711	4.7321	4.3787	9.0637	8.572	8.3069	11.2398	10.3329	12.4148	0.0471	-2.1025	-1.9729	-0.1237	13.4366	6.5519	6.6756	10.3034
-1.4635	0.6302	1.1101	1.5813	5.3093	4.7292	4.3493	8.9695	8.5837	8.2834	11.1515	10.3182	12.4118	0.0294	-2.1408	-2.0672	-0.0677	13.4012	6.4606	6.652	10.2121
-1.4488	0.5978	1.1337	1.6225	5.2651	4.7233	4.3375	8.9047	8.5926	8.301	11.0955	10.3535	12.4177	0.0118	-2.2026	-2.1908	-0.0353	13.3895	6.4223	6.6579	10.1267
-1.4311	0.6184	1.169	1.6549	5.1944	4.7409	4.3434	8.8458	8.6102	8.304	11.0308	10.3447	12.4236	-0.0059	-2.2291	-2.2939	-0.0265	13.3688	6.3576	6.6844	10.0414
-1.4164	0.5507	1.1779	1.649	5.109	4.7174	4.311	8.7634	8.572	8.2893	10.9248	10.3093	12.3824	-0.0177	-2.2645	-2.397	-0.0029	13.3011	6.2751	6.6196	9.9353
-1.384	0.5801	1.1867	1.6696	5.0678	4.7557	4.3257	8.6809	8.5867	8.2922	10.8718	10.3064	12.3912	-0.0059	-2.2733	-2.503	0.0059	13.2422	6.1897	6.6255	9.8087
-1.3339	0.5654	1.2692	1.7079	5.0442	4.7704	4.314	8.622	8.622	8.301	10.8158	10.3329	12.3824	0.0059	-2.2556	-2.5736	-0.0206	13.1951	6.1338	6.6167	9.7086
-1.275	0.586	1.3015	1.755	4.9883	4.788	4.314	8.5778	8.6161	8.3187	10.7599	10.3712	12.3794	0.0029	-2.2438	-2.6443	-0.0265	13.1274	6.0631	6.5961	9.6055
-1.2103	0.6125	1.3369	1.7933	4.9853	4.8293	4.3316	8.5572	8.6544	8.3128	10.7569	10.4242	12.3971	0.0147	-2.2497	-2.7238	-0.0442	13.0891	6.0071	6.5696	9.5143
-1.1101	0.692	1.4458	1.8875	4.9971	4.8793	4.3581	8.5455	8.7516	8.3747	10.7481	10.4948	12.4501	0.0324	-2.2203	-2.7651	-0.0766	13.0685	5.9483	6.5666	9.4289
-1.0218	0.7892	1.5018	1.9405	5.0148	4.9559	4.4023	8.5572	8.8223	8.41	10.7392	10.5714	12.4884	0.0294	-2.185	-2.8269	-0.0883	13.0096	5.8894	6.5166	9.3346
-0.9011	0.854	1.5872	2.023	5.0648	5.0501	4.4847	8.5749	8.9224	8.4748	10.7805	10.7039	12.5502	0.0559	-2.1437	-2.8504	-0.1207	12.9772	5.8334	6.5284	9.2463
-0.7921	0.9629	1.705	2.1437	5.1002	5.109	4.5407	8.5985	9.0048	8.5219	10.807	10.7952	12.5797	0.0559	-2.076	-2.8328	-0.1413	12.9212	5.7922	6.4989	9.1373
-0.6655	1.0542	1.7933	2.235	5.1767	5.2356	4.6202	8.6367	9.1226	8.5896	10.8364	10.8983	12.6268	0.0883	-2.023	-2.8504	-0.1767	12.9095	5.7038	6.5077	9.0667
-0.5536	1.1897	1.9199	2.3351	5.2857	5.3151	4.6732	8.7074	9.2257	8.6309	10.8924	11.0072	12.6503	0.0825	-1.9641	-2.8446	-0.1855	12.8535	5.6862	6.4547	8.9754
-0.4034	1.3163	1.9877	2.4087	5.3475	5.4212	4.7321	8.7545	9.3405	8.6897	10.9218	11.1191	12.7004	0.0913	-1.9347	-2.821	-0.2061	12.8005	5.6332	6.4223	8.9253
-0.2797	1.4664	2.1496	2.5265	5.48	5.5242	4.8087	8.8429	9.4613	8.7486	10.9984	11.2281	12.7033	0.1031	-1.8493	-2.7474	-0.2356	12.7416	5.6037	6.4135	8.8281
-0.1413	1.5872	2.2586	2.6443	5.5743	5.6479	4.8793	8.89	9.5731	8.7987	11.069	11.3252	12.7269	0.0972	-1.758	-2.6944	-0.2385	12.6768	5.5861	6.3841	8.7722
0	1.7374	2.3705	2.7297	5.6715	5.7627	4.9353	8.9695	9.6703	8.8016	11.1397	11.4106	12.7269	0.1207	-1.6579	-2.6031	-0.268	12.6032	5.5566	6.3458	8.728
0.1472	1.861	2.4912	2.8416	5.7657	5.8776	4.9942	9.0519	9.794	8.8546	11.2016	11.5373	12.7446	0.1325	-1.5312	-2.5206	-0.2768	12.5443	5.5301	6.334	8.678
0.2827	1.9847	2.6296	2.98	5.8982	6.0071	5.0648	9.1373	9.9	8.8723	11.2722	11.6256	12.7475	0.1472	-1.3987	-2.4176	-0.3092	12.4766	5.4977	6.281	8.6574
0.3946	2.0966	2.7415	3.0448	5.9954	6.122	5.1355	9.1933	10.0001	8.9165	11.3341	11.6874	12.7387	0.1443	-1.2898	-2.3322	-0.3121	12.3883	5.4565	6.2486	8.5749
0.4947	2.1967	2.8652	3.1803	6.0955	6.2368	5.2032	9.2964	10.1091	8.9636	11.4077	11.8111	12.7946	0.1767	-1.1749	-2.2232	-0.3475	12.347	5.4477	6.2368	8.5543
0.6007	2.344	2.9947	3.2568	6.2103	6.3723	5.2739	9.4082	10.2504	9.0107	11.5373	11.9142	12.8182	0.162	-1.063	-2.1467	-0.3534	12.2734	5.4212	6.1779	8.5631
0.7244	2.4382	3.1272	3.3864	6.3281	6.5136	5.324	9.5231	10.3682	9.0843	11.6315	12.0408	12.8682	0.1885	-0.9688	-2.0436	-0.3799	12.244	5.4005	6.1809	8.5602
0.8157	2.4971	3.2509	3.4983	6.4312	6.6344	5.4123	9.6173	10.5037	9.1609	11.7846	12.1969	12.9566	0.1914	-0.8598	-1.9494	-0.4034	12.241	5.3858	6.175	8.569
0.9217	2.5943	3.3834	3.5807	6.5784	6.7757	5.4594	9.7469	10.6627	9.2492	11.9112	12.3411	13.0567	0.1943	-0.7862	-1.8493	-0.4093	12.2469	5.3799	6.1455	8.5778
1.01	2.6561	3.4688	3.6573	6.6815	6.8964	5.5389	9.8588	10.7805	9.3111	12.0231	12.4884	13.1627	0.2002	-0.745	-1.7668	-0.4034	12.2646	5.374	6.1279	8.5955
1.1013	2.7562	3.6072	3.7986	6.8052	7.0378	5.6302	9.9795	10.9336	9.423	12.1851	12.6651	13.2776	0.2061	-0.6773	-1.6726	-0.424	12.2911	5.3888	6.1367	8.6279
1.172	2.8269	3.7162	3.8575	6.9259	7.1615	5.6862	10.0914	11.0808	9.5143	12.3176	12.8005	13.4012	0.1943	-0.6302	-1.6255	-0.4152	12.3058	5.3888	6.1338	8.6544
1.2603	2.9329	3.8104	3.9812	7.0407	7.2763	5.7716	10.2063	11.1868	9.5997	12.453	12.9419	13.5072	0.1855	-0.5889	-1.5636	-0.4123	12.3382	5.3947	6.119	8.7015
1.3133	2.9594	3.8958	4.043	7.1408	7.3823	5.8069	10.2917	11.284	9.6556	12.5826	13.0714	13.6191	0.1826	-0.583	-1.5283	-0.3799	12.3353	5.3888	6.0837	8.7339
1.3516	3.0006	3.9635	4.1167	7.2351	7.503	5.8805	10.4006	11.4401	9.7469	12.7092	13.1951	13.7075	0.1678	-0.5536	-1.5165	-0.3622	12.3735	5.4094	6.0778	8.7663
1.3899	3.0448	4.0313	4.1814	7.3234	7.5737	5.9188	10.5037	11.5431	9.8323	12.8035	13.3041	13.8105	0.1472	-0.5624	-1.5018	-0.3298	12.3853	5.3917	6.0631	8.781
1.3899	3.0713	4.0872	4.2433	7.3911	7.6356	5.9483	10.5773	11.6079	9.8882	12.8947	13.3836	13.8753	0.1355	-0.5919	-1.543	-0.2974	12.3706	5.374	6.0101	8.7928
1.3958	3.0831	4.1167	4.2816	7.4441	7.7209	5.9895	10.6185	11.6727	9.9412	12.9831	13.469	13.946	0.1296	-0.6419	-1.5607	-0.2591	12.3794	5.377	5.963	8.8134
1.3752	3.0772	4.1167	4.3081	7.5001	7.7681	6.0219	10.6921	11.7404	9.9795	13.0331	13.5279	14.0108	0.0854	-0.7597	-1.6608	-0.2179	12.3353	5.3652	5.91	8.7987
1.3487	3.0419	4.1432	4.3287	7.5295	7.8328	6.0484	10.7716	11.8317	10.0502	13.1156	13.6309	14.0932	0.0854	-0.9129	-1.7432	-0.1855	12.3441	5.3328	5.8776	8.8075
1.3163	3.0477	4.1549	4.3463	7.5678	7.8652	6.1043	10.804	11.8877	10.1002	13.1892	13.6751	14.1521	0.0795	-1.0454	-1.7963	-0.1708	12.3441	5.321	5.8422	8.8016
1.2574	3.0095	4.1196	4.364	7.5737	7.9035	6.1073	10.857	11.9259	10.1621	13.2275	13.7428	14.2228	0.0559	-1.2368	-1.8993	-0.1384	12.3088	5.2886	5.7951	8.7751
1.225	3.0124	4.1284	4.3699	7.6179	7.9565	6.175	10.9395	12.0261	10.2651	13.3335	13.8577	14.3435	0.0589	-1.4105	-1.9494	-0.1355	12.3441	5.2828	5.7951	8.8075
1.1661	2.98	4.1137	4.364	7.6414	7.9771	6.2221	11.0131	12.0643	10.3182	13.4042	13.9372	14.426	0.0353	-1.5666	-1.9994	-0.1148	12.3735	5.2886	5.7863	8.8105
1.1749	3.0212	4.1196	4.3876	7.6886	8.0213	6.281	11.0808	12.1792	10.4212	13.4984	14.0726	14.529	0.0471	-1.6932	-2.0053	-0.1148	12.4118	5.2769	5.7981	8.8311
1.1337	3.0154	4.1196	4.4465	7.7239	8.0743	6.3605	11.178	12.2587	10.5243	13.5897	14.1816	14.6557	0.0442	-1.8257	-2.0377	-0.109	12.5061	5.2621	5.8099	8.8252
1.1484	3.033	4.1491	4.4641	7.7828	8.142	6.4312	11.2398	12.3529	10.6391	13.678	14.2935	14.7764	0.0412	-1.8993	-2.0171	-0.1178	12.5119	5.2592	5.8216	8.8105
1.119	3.0507	4.1343	4.4789	7.8358	8.1538	6.4842	11.3282	12.4442	10.7275	13.7811	14.4348	14.9384	0.0648	-2.0171	-2.0554	-0.1355	12.6091	5.2857	5.8952	8.8429
1.1308	3.0978	4.1726	4.526	7.8888	8.2215	6.5902	11.4047	12.5237	10.8482	13.8753	14.5644	15.0561	0.0736	-2.0878	-2.0583	-0.1796	12.6975	5.2798	5.9217	8.8399
1.1366	3.1302	4.1991	4.5466	7.9153	8.2628	6.652	11.4754	12.6238	10.966	13.9696	14.7028	15.1857	0.1001	-2.1997	-2.0701	-0.2209	12.7534	5.268	5.9806	8.8281
1.116	3.1596	4.2109	4.576	7.9447	8.2952	6.7256	11.5078	12.6945	11.0425	14.0167	14.8176	15.277	0.1237	-2.2645	-2.0848	-0.2503	12.8359	5.2621	6.0601	8.837
1.1101	3.2068	4.2344	4.5878	7.983	8.3482	6.8052	11.5726	12.7711	11.1279	14.055	14.8942	15.3594	0.1355	-2.3587	-2.1467	-0.2886	12.8712	5.2327	6.1161	8.8193
1.1043	3.2421	4.261	4.5819	8.0184	8.3776	6.8434	11.6109	12.8152	11.1839	14.0962	14.9855	15.4743	0.1502	-2.4588	-2.2056	-0.3269	12.9301	5.2268	6.1662	8.7899
1.0836	3.2627	4.2786	4.6173	8.0566	8.4041	6.917	11.6433	12.883	11.2487	14.1286	15.065	15.5096	0.1708	-2.553	-2.2703	-0.3445	12.9389	5.1944	6.2192	8.7486
1.0895	3.3187	4.2845	4.6202	8.0831	8.4601	6.973	11.6757	12.9419	11.3017	14.1698	15.1298	15.5685	0.1885	-2.6561	-2.3351	-0.3887	12.9684	5.1296	6.2574	8.7192
1.119	3.3481	4.3405	4.6408	8.1361	8.5072	7.0437	11.7198	13.0184	11.4018	14.2257	15.2269	15.6598	0.2091	-2.7503	-2.3881	-0.4299	13.0066	5.1385	6.3399	8.7339
1.1249	3.4217	4.42	4.6673	8.1892	8.569	7.1202	11.7493	13.095	11.4813	14.2611	15.3329	15.704	0.2267	-2.8122	-2.4647	-0.4741	13.0273	5.1061	6.3988	8.7015
1.1425	3.4806	4.47	4.6909	8.2392	8.6338	7.1762	11.8111	13.1598	11.5343	14.2994	15.4066	15.7805	0.2356	-2.9064	-2.5265	-0.5094	13.0714	5.0884	6.4253	8.6927
1.2132	3.5572	4.5849	4.7468	8.3423	8.7516	7.2851	11.8965	13.2952	11.6521	14.37	15.545	15.8718	0.265	-2.9741	-2.5795	-0.5565	13.1244	5.0766	6.5166	8.7162
1.2839	3.6514	4.685	4.8381	8.4601	8.8517	7.4176	12.0025	13.416	11.7758	14.4672	15.6922	16.0014	0.3033	-3.0536	-2.6178	-0.6184	13.2039	5.1149	6.6137	8.7781
1.3634	3.7898	4.8175	4.9176	8.5955	9.0048	7.5443	12.1174	13.5867	11.9259	14.5732	15.8453	16.1398	0.3151	-3.0772	-2.6473	-0.6537	13.2628	5.1444	6.6874	8.8193
1.5283	3.9311	5.006	5.0295	8.7516	9.1609	7.6944	12.2234	13.7664	12.0938	14.6969	16.0338	16.2988	0.3239	-3.1214	-2.6679	-0.6832	13.3747	5.1856	6.7963	8.8753
1.6637	4.1284	5.2091	5.2091	8.9548	9.3641	7.8917	12.403	13.9961	12.2881	14.8588	16.2576	16.4902	0.3475	-3.1272	-2.6208	-0.7244	13.5043	5.268	6.9112	9.0048
1.861	4.3346	5.4241	5.3564	9.1521	9.6085	8.0979	12.5708	14.214	12.4825	15.0444	16.4843	16.6728	0.3475	-3.1272	-2.606	-0.7362	13.6309	5.3711	7.0378	9.1256
2.0701	4.5436	5.6773	5.5448	9.3759	9.8117	8.2863	12.7505	14.4378	12.6975	15.221	16.7052	16.8671	0.371	-3.1302	-2.5678	-0.7479	13.7487	5.4565	7.1585	9.2286
2.2733	4.8028	5.9424	5.7245	9.6085	10.0561	8.4954	12.9713	14.6822	12.9242	15.4036	16.979	17.0703	0.374	-3.1479	-2.5648	-0.7686	13.8753	5.5596	7.2734	9.3729
2.4706	5.0325	6.2074	5.907	9.8117	10.3034	8.6868	13.1686	14.9413	13.1362	15.5773	17.1793	17.247	0.3651	-3.1479	-2.5354	-0.7479	14.0049	5.6715	7.3882	9.4995
2.6826	5.2563	6.443	6.0867	10.0649	10.5213	8.8782	13.3688	15.1857	13.3482	15.7835	17.4354	17.4296	0.3799	-3.1596	-2.5295	-0.7686	14.105	5.7951	7.5089	9.6291
2.9035	5.5242	6.7021	6.2545	10.3064	10.7834	9.0667	13.5661	15.4242	13.5455	15.9543	17.6681	17.6298	0.3593	-3.1331	-2.556	-0.7568	14.2375	5.9306	7.6238	9.7704
3.089	5.7833	6.9583	6.4282	10.5478	11.0484	9.264	13.7575	15.6716	13.7546	16.1221	17.8595	17.777	0.371	-3.1272	-2.5501	-0.7568	14.3229	6.0454	7.7121	9.903
3.2804	6.0248	7.2174	6.5755	10.7805	11.2693	9.4406	13.9342	15.863	13.9519	16.2605	18.042	17.9125	0.3593	-3.1272	-2.5854	-0.745	14.3965	6.1544	7.8005	10.0001
3.4836	6.2574	7.4618	6.7374	10.9895	11.4931	9.6232	14.1403	16.0986	14.1197	16.4343	18.2658	18.0479	0.3622	-3.0831	-2.5884	-0.745	14.5202	6.3046	7.9153	10.1591
3.6838	6.5519	7.7062	6.9288	11.2516	11.7434	9.8028	14.3524	16.3518	14.3111	16.6198	18.472	18.204	0.3651	-3.0124	-2.556	-0.7509	14.582	6.4488	8.0154	10.3211
3.8723	6.7757	7.9565	7.0643	11.4666	11.979	9.953	14.5467	16.5638	14.4731	16.7641	18.6428	18.3188	0.3416	-2.9388	-2.5236	-0.7097	14.6498	6.5725	8.0684	10.4359
4.0813	7.0054	8.1803	7.1968	11.708	12.2145	10.115	14.744	16.7847	14.6645	16.9407	18.8283	18.4602	0.3416	-2.8711	-2.4824	-0.6979	14.7263	6.7198	8.1361	10.5773
4.2286	7.2439	8.3953	7.3617	11.9171	12.4236	10.2799	14.9325	16.979	14.7941	17.0968	18.9932	18.5544	0.321	-2.7739	-2.4294	-0.6655	14.7735	6.8552	8.2098	10.7157
4.4288	7.4765	8.6338	7.5266	12.1468	12.6886	10.4624	15.1592	17.2205	14.9678	17.2794	19.2052	18.7046	0.3269	-2.6914	-2.3793	-0.6567	14.8736	7.0319	8.2893	10.8718
4.5554	7.6827	8.8753	7.6915	12.3735	12.9095	10.5979	15.3536	17.406	15.118	17.4531	19.3642	18.8106	0.3004	-2.6149	-2.3322	-0.6125	14.9236	7.1644	8.3364	11.016
4.7468	7.8741	9.0873	7.8063	12.6091	13.1303	10.7775	15.5656	17.6327	15.2593	17.6298	19.5644	18.9726	0.2856	-2.5295	-2.3263	-0.583	14.9972	7.3205	8.4012	11.1633
4.9058	8.0655	9.3111	7.9565	12.8241	13.3541	10.9306	15.754	17.8359	15.3918	17.7888	19.7146	19.0845	0.2621	-2.4323	-2.3027	-0.533	15.0709	7.4677	8.463	11.2987
5.0383	8.2304	9.4936	8.1067	13.0273	13.5426	11.0661	15.9543	18.0362	15.5361	17.9331	19.8854	19.1787	0.2297	-2.3734	-2.3204	-0.4741	15.1239	7.6002	8.5072	11.4342
5.2032	8.4012	9.7263	8.2716	13.2246	13.7575	11.2634	16.1751	18.2334	15.6834	18.1009	20.0415	19.2994	0.2091	-2.2939	-2.3027	-0.4299	15.1798	7.7533	8.5602	11.5785
5.3181	8.5425	9.8853	8.3688	13.4277	13.9548	11.4047	16.3224	18.3954	15.7511	18.2217	20.1445	19.3642	0.1561	-2.2085	-2.3204	-0.3445	15.221	7.8564	8.5867	11.6845
5.4535	8.6956	10.0767	8.5572	13.6162	14.1727	11.5814	16.5108	18.5839	15.8807	18.3601	20.2859	19.4584	0.1413	-2.1231	-2.3086	-0.2797	15.2711	7.9742	8.6397	11.8111
5.5831	8.8399	10.2769	8.6897	13.7958	14.3288	11.7228	16.6669	18.7311	15.9925	18.4837	20.4155	19.5173	0.0854	-2.02	-2.3322	-0.1767	15.3035	8.0979	8.6868	11.8965
5.698	9.0019	10.4742	8.834	13.9813	14.5408	11.9142	16.8436	18.9107	16.1221	18.5809	20.5038	19.588	0.0265	-1.9464	-2.3086	-0.0766	15.3271	8.2098	8.7133	12.0084
5.8246	9.1609	10.645	8.9901	14.1904	14.7381	12.0732	16.9967	19.0697	16.237	18.7046	20.5892	19.6498	-0.0118	-1.8257	-2.2674	0.0147	15.3801	8.3305	8.7663	12.1321
5.9276	9.2993	10.8217	9.1285	14.3406	14.8883	12.2292	17.1586	19.1905	16.3282	18.8194	20.6834	19.6852	-0.0707	-1.7079	-2.1938	0.1178	15.4154	8.4718	8.7869	12.241
6.0896	9.4377	11.0219	9.2875	14.5497	15.0944	12.4089	17.3206	19.3966	16.4931	18.9196	20.7894	19.7794	-0.1031	-1.6284	-2.1143	0.1943	15.4743	8.6014	8.8488	12.3588
6.1927	9.5731	11.1486	9.4289	14.6645	15.2269	12.5443	17.4266	19.4908	16.5609	18.9873	20.8159	19.7971	-0.1561	-1.543	-2.0407	0.2915	15.4566	8.6662	8.8664	12.4177
6.3252	9.7115	11.3517	9.5849	14.8265	15.4213	12.7269	17.5621	19.6233	16.6963	19.0756	20.9102	19.8648	-0.1826	-1.4812	-1.9435	0.3622	15.5185	8.781	8.9165	12.5296
6.4606	9.8264	11.4931	9.7292	14.9354	15.5567	12.88	17.6563	19.7411	16.8082	19.1345	20.9632	19.9384	-0.2209	-1.3928	-1.8434	0.4329	15.5479	8.8664	8.9548	12.6062
6.599	9.953	11.6874	9.8676	15.0826	15.7187	13.0538	17.7741	19.8942	16.9613	19.2346	21.0397	20.0209	-0.2474	-1.3457	-1.755	0.4741	15.6127	8.9724	9.0254	12.7033
6.708	10.0737	11.8464	10.0031	15.171	15.8483	13.2275	17.8477	19.9767	17.0909	19.2818	21.1104	20.0798	-0.2621	-1.2692	-1.652	0.5153	15.6775	9.0431	9.0814	12.7799
6.8434	10.1915	11.9907	10.1326	15.2829	15.9896	13.3659	17.9213	20.0974	17.2205	19.3465	21.1722	20.174	-0.2797	-1.2191	-1.5666	0.53	15.7629	9.1314	9.1491	12.8624
6.9318	10.3005	12.0967	10.2445	15.3742	16.0868	13.4925	17.9979	20.1946	17.3795	19.4054	21.2517	20.2918	-0.2827	-1.2162	-1.5195	0.5536	15.8689	9.1845	9.2433	12.9478
7.0525	10.3888	12.2322	10.3623	15.4743	16.2016	13.6515	18.0656	20.3036	17.5473	19.4555	21.3313	20.4243	-0.2886	-1.2014	-1.5018	0.5624	15.9837	9.2316	9.3405	13.0066
7.1467	10.4683	12.3058	10.4389	15.5361	16.29	13.7958	18.1274	20.4037	17.6916	19.5056	21.399	20.5362	-0.2886	-1.2162	-1.49	0.5683	16.1015	9.261	9.4082	13.0685
7.2321	10.5567	12.4354	10.539	15.6156	16.4048	13.9166	18.1569	20.492	17.8683	19.5497	21.4932	20.6805	-0.2856	-1.2485	-1.4959	0.5595	16.2487	9.3052	9.5054	13.1127
7.3087	10.6362	12.5149	10.5979	15.701	16.4931	14.0815	18.2246	20.6216	18.0685	19.5939	21.5668	20.8248	-0.2974	-1.3015	-1.5489	0.5565	16.4019	9.37	9.6203	13.2039
7.3558	10.7245	12.5767	10.6715	15.757	16.5756	14.1992	18.2658	20.6981	18.2334	19.6233	21.6434	20.9573	-0.2974	-1.4017	-1.5901	0.5683	16.5461	9.3847	9.7086	13.2422
7.4029	10.7981	12.6386	10.7275	15.8276	16.6433	14.3376	18.313	20.8042	18.4042	19.6734	21.7582	21.1516	-0.2974	-1.4988	-1.6461	0.5624	16.6963	9.4348	9.8205	13.2982
7.4147	10.8364	12.6975	10.7422	15.9013	16.7317	14.476	18.3512	20.8807	18.6015	19.7117	21.8554	21.3106	-0.3004	-1.652	-1.6726	0.5507	16.8524	9.476	9.9118	13.3482
7.4147	10.9159	12.7269	10.751	15.9808	16.8141	14.6174	18.416	20.9985	18.7959	19.7588	21.9732	21.4638	-0.2768	-1.8345	-1.7285	0.5448	16.982	9.5054	10.0296	13.3659
7.4206	10.9895	12.7711	10.7922	16.0721	16.9083	14.7322	18.472	21.131	18.9991	19.8059	22.0851	21.6493	-0.2886	-1.97	-1.8169	0.5448	17.1263	9.5408	10.1091	13.3924
7.4294	11.0602	12.8211	10.8187	16.1957	17.0085	14.8971	18.5574	21.2606	19.217	19.8648	22.2353	21.8554	-0.268	-2.1408	-1.8669	0.533	17.2823	9.6026	10.2298	13.466
7.4324	11.1279	12.8712	10.8305	16.2988	17.1233	15.0503	18.631	21.4225	19.4202	19.9296	22.3796	22.0556	-0.2621	-2.291	-1.917	0.5035	17.459	9.6232	10.3417	13.4955
7.4589	11.2163	12.9713	10.8865	16.4284	17.2705	15.2505	18.7134	21.5757	19.6469	20.0238	22.5415	22.2618	-0.2562	-2.3999	-1.9405	0.48	17.621	9.688	10.4919	13.5396
7.4559	11.2899	13.0331	10.9365	16.5403	17.3883	15.3742	18.8077	21.7141	19.853	20.0915	22.6887	22.4385	-0.2444	-2.5118	-1.9965	0.4535	17.7859	9.7115	10.592	13.572
7.4589	11.3723	13.1038	10.9895	16.658	17.5356	15.5567	18.8989	21.8878	20.0739	20.1681	22.8713	22.6711	-0.2032	-2.6237	-2.0613	0.4093	17.9537	9.7381	10.7334	13.5956
7.4854	11.4489	13.201	11.0278	16.8023	17.6916	15.7364	19.0138	22.0468	20.3153	20.2564	23.048	22.8802	-0.1943	-2.7062	-2.1231	0.3475	18.1216	9.7763	10.8629	13.6368
7.5266	11.5255	13.2864	11.0838	16.8995	17.833	15.8748	19.0874	22.2029	20.5215	20.3212	23.1893	23.0598	-0.1649	-2.7386	-2.1732	0.3033	18.2894	9.7999	11.0043	13.6368
7.5413	11.5638	13.3718	11.1191	16.9879	17.9449	16.0338	19.1699	22.3177	20.7011	20.3801	23.313	23.2335	-0.1472	-2.8063	-2.1997	0.2562	18.4543	9.8382	11.1279	13.6604
7.5649	11.6374	13.4542	11.1603	17.0968	18.0509	16.1457	19.214	22.4326	20.8689	20.4331	23.4014	23.366	-0.1266	-2.8122	-2.2645	0.2002	18.6045	9.8617	11.2693	13.678
7.5914	11.6609	13.5337	11.2104	17.1616	18.1657	16.2723	19.2611	22.5121	21.0191	20.4449	23.4603	23.4926	-0.0766	-2.8092	-2.3027	0.1384	18.734	9.8382	11.3871	13.6633
7.6238	11.7139	13.6132	11.2605	17.1822	18.2305	16.3547	19.2729	22.571	21.1428	20.4567	23.5339	23.6104	-0.0442	-2.7768	-2.3734	0.0589	18.8842	9.8588	11.5078	13.6574
7.6267	11.7463	13.6339	11.3164	17.191	18.2982	16.4401	19.2641	22.621	21.2429	20.439	23.5457	23.6723	-0.0147	-2.768	-2.4411	0.0177	19.0108	9.8647	11.6079	13.6368
7.6149	11.711	13.6692	11.3223	17.1734	18.3218	16.4843	19.2288	22.5827	21.2782	20.3654	23.5221	23.7047	0	-2.7327	-2.503	-0.0294	19.1198	9.8146	11.6845	13.5956
7.612	11.6963	13.6928	11.3547	17.138	18.3159	16.5167	19.1669	22.568	21.3371	20.3242	23.5074	23.7518	0.0383	-2.715	-2.5795	-0.0942	19.214	9.7763	11.7875	13.5514
7.5943	11.6462	13.678	11.3694	17.0467	18.31	16.5226	19.0786	22.4797	21.3195	20.2329	23.4514	23.7488	0.0559	-2.7179	-2.6502	-0.1443	19.2965	9.7204	11.8553	13.4719
7.5678	11.605	13.6721	11.3723	16.9702	18.2511	16.5255	18.9932	22.4237	21.343	20.1504	23.3866	23.7577	0.0913	-2.715	-2.7091	-0.212	19.3937	9.6909	11.9407	13.4336
7.503	11.4931	13.6132	11.3458	16.8347	18.1687	16.4696	18.8783	22.3354	21.3195	20.0297	23.2954	23.7164	0.1178	-2.7327	-2.8239	-0.2591	19.4673	9.6232	11.9907	13.3541
7.4618	11.4401	13.5455	11.3341	16.7228	18.0921	16.4372	18.7429	22.2264	21.2812	19.9237	23.2011	23.684	0.1443	-2.7621	-2.8828	-0.3239	19.5497	9.5466	12.0585	13.2982
7.3411	11.3017	13.4748	11.3252	16.5668	17.9832	16.4077	18.5898	22.0527	21.2341	19.7824	23.0686	23.631	0.1737	-2.8004	-2.9977	-0.3622	19.5909	9.4613	12.0967	13.201
7.2822	11.1839	13.3659	11.2928	16.393	17.8565	16.3489	18.4278	21.9084	21.1634	19.6763	22.9567	23.5692	0.2002	-2.8504	-3.1155	-0.424	19.6498	9.3876	12.1439	13.0979
7.1644	11.0102	13.2216	11.2251	16.1957	17.7181	16.2605	18.2452	21.7317	21.0839	19.5114	22.7948	23.472	0.2356	-2.9182	-3.2215	-0.4947	19.6705	9.2816	12.1615	12.986
7.0672	10.8983	13.1215	11.1662	16.0426	17.5562	16.1869	18.0951	21.5668	21.0162	19.3848	22.6711	23.419	0.2739	-2.9918	-3.3334	-0.5595	19.6852	9.1903	12.1939	12.883
6.9494	10.7599	12.9743	11.1397	15.8541	17.4031	16.1309	17.8978	21.3843	20.9102	19.217	22.5209	23.3277	0.3004	-3.089	-3.4453	-0.6213	19.694	9.0784	12.191	12.7505
6.8464	10.6156	12.83	11.0484	15.6745	17.244	16.0279	17.724	21.2105	20.8248	19.0727	22.3678	23.2365	0.3269	-3.1685	-3.513	-0.6861	19.6675	8.9783	12.1998	12.6386
6.7345	10.4654	12.6916	10.9925	15.5037	17.088	15.9572	17.5444	21.0132	20.7246	18.9166	22.2147	23.1246	0.3563	-3.2892	-3.6455	-0.7509	19.6528	8.9077	12.2175	12.5237
6.6196	10.3505	12.5296	10.913	15.383	16.929	15.9013	17.3795	20.8365	20.6157	18.7664	22.0262	23.0097	0.3828	-3.3864	-3.7191	-0.8039	19.5968	8.8016	12.2145	12.4148
6.549	10.274	12.4442	10.8423	15.2564	16.7994	15.8041	17.2264	20.6569	20.5156	18.6369	21.8701	22.8919	0.4181	-3.4659	-3.7692	-0.8451	19.5497	8.7339	12.1998	12.2999
6.4606	10.1768	12.3264	10.7687	15.1268	16.658	15.7128	17.0762	20.4567	20.3713	18.4572	21.6993	22.7359	0.4152	-3.566	-3.834	-0.8657	19.4231	8.6102	12.1556	12.135
6.3988	10.1621	12.244	10.6921	15.0473	16.5285	15.651	16.9466	20.2888	20.2771	18.3247	21.5433	22.624	0.4446	-3.6278	-3.8988	-0.8775	19.3406	8.5572	12.1115	12.0349
6.3193	10.1002	12.1586	10.6391	14.9737	16.4195	15.5832	16.7994	20.1328	20.1593	18.1893	21.3548	22.4561	0.424	-3.7309	-3.937	-0.8775	19.2111	8.4895	12.0643	11.9112
6.2781	10.062	12.0879	10.5861	14.906	16.287	15.5008	16.6963	19.9531	20.0297	18.0185	21.1634	22.2824	0.424	-3.8016	-4.0195	-0.8716	19.058	8.4247	11.9907	11.7846
6.2309	10.0826	12.0143	10.5096	14.8677	16.181	15.436	16.5756	19.8059	19.8942	17.886	20.9867	22.1145	0.4211	-3.8781	-4.0401	-0.8569	18.9048	8.3864	11.9112	11.6639
6.172	10.1002	11.9377	10.4536	14.8294	16.0662	15.3477	16.4784	19.6469	19.7676	17.7299	20.8012	21.9202	0.4123	-3.9194	-4.0695	-0.8481	18.6958	8.3305	11.8141	11.5284
6.172	10.1179	11.9053	10.4065	14.8382	15.9808	15.3005	16.3783	19.5262	19.6528	17.6003	20.6451	21.7612	0.4034	-3.99	-4.1255	-0.8304	18.5309	8.2451	11.7228	11.3871
6.1485	10.1267	11.8435	10.3123	14.8088	15.9042	15.2269	16.2723	19.3672	19.5085	17.4502	20.4626	21.5374	0.3887	-4.0372	-4.1638	-0.801	18.2923	8.2068	11.6109	11.2546
6.1691	10.2004	11.8317	10.2651	14.8029	15.8306	15.1386	16.2193	19.2553	19.3819	17.3147	20.2918	21.3607	0.3887	-4.0872	-4.1873	-0.7774	18.098	8.1538	11.499	11.1132
6.1161	10.2063	11.7669	10.1768	14.7793	15.7629	15.0591	16.1251	19.111	19.2376	17.1675	20.1504	21.1605	0.374	-4.1019	-4.2227	-0.745	17.8889	8.0596	11.3635	10.9365
6.1161	10.2328	11.7522	10.1091	14.7617	15.6834	14.9737	16.0308	18.9991	19.108	17.035	19.9914	20.9749	0.3622	-4.1432	-4.261	-0.7185	17.6651	7.9889	11.2281	10.8129
6.0749	10.2386	11.711	10.0119	14.7411	15.6068	14.8883	15.9395	18.8607	18.9578	16.8818	19.8295	20.7629	0.3386	-4.1108	-4.3022	-0.7097	17.4325	7.9035	11.0955	10.6538
6.0572	10.2445	11.658	9.9088	14.6998	15.5391	14.7852	15.8541	18.7429	18.8077	16.7317	19.6498	20.545	0.3327	-4.1108	-4.3375	-0.6891	17.2234	7.8034	10.9837	10.4889
6.0071	10.2269	11.6109	9.8234	14.6144	15.4478	14.6527	15.7423	18.5839	18.631	16.5491	19.4761	20.2888	0.3269	-4.0666	-4.4111	-0.6773	16.979	7.6944	10.8187	10.3093
5.9748	10.2004	11.5549	9.688	14.585	15.3536	14.5585	15.6421	18.4631	18.472	16.3812	19.2818	20.065	0.3151	-4.0695	-4.4347	-0.6626	16.7552	7.6002	10.6951	10.1385
5.9306	10.1503	11.499	9.579	14.479	15.2475	14.4201	15.5008	18.2953	18.2688	16.1898	19.0697	19.7971	0.3004	-4.0342	-4.473	-0.639	16.4902	7.453	10.5243	9.9412
5.8481	10.0826	11.4195	9.4082	14.4083	15.1298	14.2581	15.3565	18.1127	18.0715	15.9808	18.8577	19.5203	0.2856	-4.0107	-4.5289	-0.6037	16.2281	7.3146	10.3653	9.7351
5.7804	10.006	11.3223	9.2816	14.2935	15.0385	14.1315	15.224	17.9478	17.8477	15.7805	18.6634	19.2494	0.2739	-4.0224	-4.576	-0.5948	15.9984	7.1791	10.2092	9.5555
5.6921	9.9383	11.2222	9.1403	14.1963	14.906	13.9902	15.0503	17.7829	17.6445	15.5773	18.4572	18.9785	0.265	-4.0195	-4.6202	-0.5624	15.7481	7.0554	10.0472	9.3552
5.6273	9.8352	11.1338	9.0078	14.0579	14.8029	13.8312	14.9325	17.6357	17.4413	15.3594	18.2099	18.6781	0.2474	-4.0195	-4.685	-0.53	15.4978	6.9082	9.8794	9.1668
5.5478	9.7145	11.0543	8.89	13.9401	14.6851	13.6663	14.7528	17.4472	17.2205	15.1592	18.0126	18.4042	0.2179	-4.043	-4.738	-0.4859	15.2446	6.7463	9.7263	8.9783
5.4477	9.5938	10.966	8.7722	13.8017	14.5791	13.519	14.5791	17.2853	17.0144	14.9531	17.7947	18.1245	0.1973	-4.1078	-4.8087	-0.4329	14.9972	6.6049	9.5614	8.7575
5.374	9.4907	10.8835	8.678	13.681	14.4819	13.3895	14.4142	17.1498	16.8082	14.7705	17.6092	17.8654	0.1973	-4.0843	-4.8469	-0.4211	14.7852	6.4547	9.4377	8.572
5.2857	9.3641	10.7893	8.5749	13.572	14.3995	13.2687	14.2964	17.0114	16.6345	14.5968	17.4384	17.6504	0.1914	-4.0872	-4.8882	-0.3975	14.5791	6.3487	9.2934	8.4071
5.215	9.2286	10.7098	8.4895	13.4307	14.3052	13.1362	14.1492	16.8789	16.4725	14.3877	17.2617	17.4119	0.1678	-4.1226	-4.9147	-0.371	14.3553	6.172	9.1373	8.1803
5.1414	9.1079	10.6686	8.4336	13.3306	14.2464	13.0567	14.0019	16.7611	16.3017	14.2611	17.1145	17.2175	0.162	-4.1019	-4.9559	-0.3563	14.1727	6.0543	9.0166	8.0154
5.0707	8.9872	10.6097	8.3894	13.2187	14.1934	13.0037	13.8783	16.6698	16.1781	14.1227	17.0085	17.0291	0.1649	-4.1373	-4.9441	-0.3475	14.0049	5.9512	8.9194	7.8476
5.0266	8.8605	10.5508	8.3658	13.092	14.1374	12.9448	13.7752	16.6168	16.0721	14.0078	16.9025	16.8701	0.162	-4.1226	-4.9441	-0.3504	13.8429	5.8246	8.834	7.6827
4.9559	8.7398	10.5154	8.3423	13.0096	14.1168	12.9124	13.6928	16.552	15.9719	13.9018	16.8377	16.7641	0.159	-4.1373	-4.9382	-0.3475	13.678	5.7068	8.7015	7.5295
4.9088	8.6456	10.4919	8.3393	12.933	14.1168	12.9154	13.6015	16.5461	15.9278	13.8105	16.7964	16.6787	0.1737	-4.1314	-4.8705	-0.3651	13.5544	5.6214	8.6397	7.3617
4.8705	8.5543	10.4624	8.3423	12.88	14.105	12.8947	13.5396	16.5167	15.8689	13.7045	16.7641	16.5874	0.1678	-4.1196	-4.8204	-0.3681	13.4101	5.5124	8.5661	7.238
4.8587	8.4748	10.4713	8.4129	12.827	14.1138	12.9595	13.4896	16.4961	15.8394	13.6456	16.7199	16.502	0.1767	-4.1019	-4.7851	-0.3887	13.3041	5.4388	8.5131	7.1114
4.8499	8.4336	10.4713	8.4571	12.8359	14.1403	12.9801	13.4218	16.5344	15.8218	13.5956	16.7258	16.449	0.1796	-4.0519	-4.7085	-0.4152	13.1774	5.3534	8.4571	6.9995
4.8587	8.4218	10.5037	8.519	12.8329	14.1963	13.0479	13.4248	16.5697	15.8365	13.5367	16.7258	16.3901	0.2032	-3.99	-4.6644	-0.4358	13.0744	5.3151	8.4306	6.9023
4.8793	8.4041	10.5419	8.6044	12.827	14.2287	13.1009	13.4101	16.5903	15.807	13.4925	16.7317	16.3282	0.2002	-3.9194	-4.5731	-0.4388	12.9419	5.2739	8.3688	6.7875
4.8793	8.3982	10.5743	8.6603	12.8447	14.2994	13.1951	13.4042	16.6257	15.7629	13.4189	16.7199	16.2723	0.2032	-3.831	-4.5112	-0.4388	12.8211	5.2356	8.3276	6.6844
4.9058	8.4012	10.6215	8.7634	12.8889	14.3641	13.2599	13.3924	16.6845	15.7923	13.3953	16.7346	16.2105	0.2061	-3.7633	-4.4288	-0.4358	12.671	5.2121	8.2893	6.599
4.9353	8.4512	10.6568	8.837	12.9183	14.4201	13.3306	13.3777	16.714	15.7835	13.3512	16.7552	16.1486	0.2032	-3.7044	-4.3787	-0.427	12.5267	5.2032	8.251	6.5107
4.9795	8.5131	10.698	8.9047	12.933	14.4436	13.4042	13.3747	16.7523	15.7923	13.307	16.7641	16.0779	0.1796	-3.6161	-4.2727	-0.3916	12.347	5.1767	8.1803	6.4341
5.0295	8.5513	10.754	8.9783	12.989	14.4908	13.4748	13.4012	16.8112	15.7835	13.2599	16.7611	16.0367	0.1796	-3.5366	-4.1844	-0.3769	12.2086	5.1591	8.1479	6.3752
5.0737	8.6191	10.804	9.0932	13.0538	14.5909	13.5573	13.416	16.8583	15.7953	13.2746	16.7994	15.9749	0.1443	-3.4659	-4.1196	-0.3327	12.0585	5.165	8.1185	6.3458
5.1944	8.7339	10.8806	9.1727	13.1156	14.638	13.6427	13.4307	16.8995	15.807	13.2599	16.8583	15.9602	0.1472	-3.3481	-3.9753	-0.321	11.9289	5.1709	8.1038	6.2869
5.2651	8.7899	10.9571	9.2492	13.1922	14.6792	13.6928	13.4425	16.9643	15.8365	13.2834	16.8907	15.9307	0.1207	-3.2539	-3.8458	-0.2827	11.8023	5.2032	8.0714	6.2663
5.3593	8.9018	11.0013	9.314	13.2511	14.7381	13.7575	13.4719	17.0526	15.8571	13.3041	16.9525	15.9307	0.106	-3.1479	-3.7427	-0.2385	11.6904	5.1826	8.039	6.2457
5.4859	8.9901	11.1073	9.4053	13.307	14.8117	13.8164	13.5102	17.1027	15.8954	13.3423	17.0202	15.9278	0.1001	-3.0477	-3.6249	-0.2238	11.5755	5.2356	8.0508	6.2633
5.5625	9.1079	11.1662	9.4671	13.3836	14.8736	13.8989	13.5661	17.1734	15.9278	13.3836	17.0939	15.9337	0.0883	-2.9476	-3.5277	-0.2061	11.4813	5.2386	8.0478	6.2781
5.6803	9.208	11.2605	9.5378	13.4454	14.9266	13.9489	13.6162	17.2529	15.9719	13.4513	17.1557	15.966	0.0795	-2.8711	-3.4423	-0.1885	11.4018	5.2651	8.0331	6.2692
5.7775	9.3081	11.3223	9.6085	13.5102	15.009	14.0049	13.6574	17.3206	16.0279	13.5161	17.247	15.9749	0.0854	-2.7827	-3.4011	-0.1914	11.3429	5.3004	8.0802	6.2957
5.8805	9.3906	11.393	9.6527	13.5661	15.062	14.052	13.6898	17.3736	16.0632	13.5661	17.297	15.9808	0.0854	-2.715	-3.3569	-0.1855	11.2663	5.3034	8.092	6.3193
5.9689	9.4671	11.4725	9.6939	13.625	15.118	14.0667	13.7575	17.4325	16.0956	13.5926	17.3471	15.9925	0.0707	-2.6532	-3.3893	-0.1796	11.2251	5.3151	8.1332	6.3369
6.0307	9.5349	11.5284	9.7469	13.6427	15.1651	14.1138	13.7782	17.4973	16.1074	13.6309	17.3736	15.966	0.0736	-2.609	-3.4394	-0.1678	11.1692	5.3328	8.1479	6.3311
6.0808	9.5938	11.5667	9.7763	13.681	15.1945	14.1315	13.7899	17.5032	16.1221	13.6456	17.3824	15.9425	0.0589	-2.5854	-3.5572	-0.1472	11.1044	5.3446	8.1509	6.3428
6.1426	9.6379	11.6315	9.794	13.7045	15.2564	14.1668	13.7899	17.5179	16.1103	13.6486	17.3648	15.9101	0.053	-2.5619	-3.7074	-0.1355	11.072	5.3711	8.1509	6.3546
6.1868	9.6909	11.7139	9.8529	13.7281	15.3035	14.2022	13.8223	17.5562	16.1575	13.6545	17.3471	15.8659	0.0501	-2.5619	-3.8781	-0.1207	11.0367	5.3829	8.1774	6.3517
6.2457	9.7263	11.761	9.8971	13.7575	15.33	14.2434	13.8577	17.5532	16.1457	13.6309	17.3147	15.8276	0.0471	-2.5501	-4.0489	-0.106	10.9866	5.3976	8.1862	6.3428
6.2957	9.7557	11.7934	9.9383	13.7782	15.3536	14.2758	13.8105	17.5238	16.1221	13.5809	17.2617	15.7364	0.0236	-2.5736	-4.258	-0.0766	10.9159	5.4123	8.2068	6.2898
6.334	9.8087	11.8582	10.009	13.7988	15.3918	14.317	13.8429	17.5385	16.1457	13.5573	17.2058	15.6951	0.0206	-2.609	-4.47	-0.0648	10.8865	5.4418	8.2392	6.2869
6.387	9.8441	11.9289	10.0973	13.8223	15.4213	14.3641	13.8518	17.5356	16.1869	13.522	17.1498	15.651	0.0147	-2.6267	-4.6055	-0.0589	10.8511	5.4594	8.2598	6.2604
6.4871	9.8765	12.0055	10.1798	13.8665	15.4802	14.4525	13.8694	17.5827	16.2428	13.5072	17.1292	15.6598	0.0118	-2.6914	-4.8087	-0.053	10.8776	5.5065	8.3099	6.2574
6.5666	9.9177	12.082	10.274	13.893	15.5273	14.5408	13.9018	17.5827	16.2635	13.4866	17.0732	15.6451	0.0088	-2.6914	-4.8941	-0.0559	10.8865	5.5507	8.3629	6.2722
6.6403	9.9825	12.1762	10.3829	13.9372	15.5803	14.638	13.9313	17.6003	16.3577	13.4866	17.0762	15.6863	0.0147	-2.7474	-4.9529	-0.0589	10.8894	5.6067	8.4424	6.2545
6.7374	10.059	12.2675	10.5184	14.0137	15.6686	14.7646	13.9725	17.6533	16.4725	13.4955	17.1115	15.7216	0.0206	-2.7327	-4.9294	-0.0825	10.9513	5.6626	8.5484	6.2751
6.8434	10.0914	12.3441	10.6303	14.0638	15.7275	14.8912	14.0255	17.6887	16.5432	13.5014	17.1086	15.7864	0.0294	-2.7238	-4.8793	-0.1001	11.0043	5.7186	8.622	6.2987
6.9465	10.1562	12.4354	10.7893	14.1374	15.7982	15.0414	14.0726	17.7476	16.6845	13.522	17.1263	15.8748	0.0412	-2.6767	-4.8028	-0.109	11.0838	5.7892	8.7192	6.3281
7.0525	10.2092	12.5443	10.9424	14.2081	15.9042	15.1916	14.1168	17.8065	16.8112	13.5337	17.1469	15.9719	0.0677	-2.6178	-4.6261	-0.1355	11.1692	5.8687	8.834	6.3635
7.1673	10.2593	12.6209	11.0661	14.2434	15.9543	15.3241	14.158	17.8389	16.9054	13.5573	17.1851	16.0367	0.0589	-2.5619	-4.473	-0.1472	11.231	5.9541	8.94	6.3929
7.2557	10.3005	12.6827	11.1751	14.2876	15.9955	15.4272	14.1992	17.8801	17.0055	13.5367	17.1763	16.0779	0.0648	-2.5148	-4.3022	-0.1502	11.2928	5.9954	9.0372	6.4253
7.3175	10.3476	12.7357	11.284	14.3406	16.0338	15.5302	14.2316	17.8978	17.1086	13.5249	17.1793	16.128	0.0559	-2.4352	-4.096	-0.162	11.3135	6.0749	9.102	6.4842
7.4059	10.3859	12.7917	11.3989	14.3759	16.0956	15.648	14.2375	17.9154	17.1969	13.519	17.1822	16.1898	0.0618	-2.3499	-3.9194	-0.1649	11.3517	6.1809	9.1845	6.5637
7.4353	10.3829	12.8064	11.4931	14.4083	16.0956	15.7393	14.2257	17.9125	17.2676	13.4778	17.138	16.2046	0.0707	-2.2939	-3.7132	-0.1649	11.3812	6.2398	9.2698	6.6167
7.4765	10.3977	12.8359	11.5932	14.4289	16.0927	15.8424	14.2346	17.9095	17.3235	13.4572	17.0997	16.2193	0.0707	-2.2144	-3.5277	-0.1678	11.3812	6.2898	9.3494	6.6638
7.4942	10.4006	12.8064	11.6374	14.4142	16.0662	15.8895	14.1904	17.8654	17.3442	13.3953	17.0055	16.1928	0.0589	-2.1555	-3.3304	-0.1531	11.3488	6.3487	9.3847	6.7168
7.506	10.3623	12.8035	11.6963	14.4083	16.0632	15.9572	14.1786	17.8359	17.3913	13.3423	16.9319	16.1898	0.0559	-2.1172	-3.195	-0.1413	11.3341	6.4135	9.4318	6.7757
7.5001	10.3594	12.7711	11.7198	14.3818	16.0191	15.9925	14.1286	17.7711	17.3942	13.3011	16.8848	16.1751	0.0648	-2.0819	-2.9977	-0.1355	11.3076	6.4547	9.4701	6.8405
7.4559	10.3034	12.7092	11.7228	14.3494	15.9749	16.0367	14.0903	17.7122	17.4354	13.2363	16.8141	16.1751	0.0501	-2.0259	-2.8534	-0.1178	11.2958	6.5048	9.5054	6.9082
7.4235	10.271	12.671	11.764	14.3318	15.9366	16.0779	14.0844	17.6798	17.4737	13.2039	16.7611	16.1898	0.0471	-1.967	-2.6797	-0.1178	11.2781	6.5578	9.5496	6.9995
7.4176	10.1915	12.6091	11.7846	14.2905	15.8954	16.1162	14.0461	17.6416	17.5208	13.1745	16.7081	16.2105	0.0559	-1.8787	-2.5118	-0.1325	11.2811	6.6049	9.6144	7.0702
7.3588	10.1238	12.5326	11.7699	14.2287	15.8365	16.1663	14.0108	17.5768	17.5709	13.1598	16.6492	16.2428	0.0589	-1.8198	-2.3675	-0.1413	11.287	6.6461	9.6585	7.1497
7.3175	10.0708	12.4884	11.7993	14.2022	15.7953	16.2252	14.0019	17.5709	17.6563	13.1715	16.658	16.3135	0.0648	-1.7109	-2.2262	-0.1531	11.34	6.6874	9.7381	7.2557
7.2851	10.009	12.4383	11.8023	14.1668	15.7923	16.2929	14.0137	17.5738	17.7623	13.2069	16.6728	16.4136	0.0795	-1.6314	-2.0672	-0.1737	11.393	6.7521	9.7999	7.3705
7.2527	9.9147	12.3588	11.7875	14.1374	15.7364	16.3489	13.999	17.5797	17.8124	13.254	16.6963	16.4873	0.0766	-1.543	-1.9729	-0.1855	11.4577	6.7904	9.8617	7.4765
7.2233	9.8558	12.2911	11.7787	14.1021	15.7216	16.3989	14.0196	17.565	17.9419	13.3188	16.7317	16.6109	0.0854	-1.4606	-1.861	-0.1973	11.5343	6.8582	9.9088	7.6061
7.1526	9.7881	12.2263	11.7581	14.0608	15.6981	16.4401	14.0255	17.5974	18.0303	13.3747	16.7611	16.7199	0.0795	-1.4046	-1.7992	-0.1973	11.5991	6.8905	9.9766	7.7151
7.082	9.7027	12.135	11.7169	13.999	15.6274	16.4608	14.0373	17.568	18.0862	13.4336	16.7552	16.7847	0.0795	-1.3251	-1.7432	-0.1885	11.6639	6.9288	10.006	7.8122
7.0024	9.6203	12.032	11.6727	13.9195	15.5744	16.5049	14.0314	17.5621	18.1657	13.466	16.7434	16.8612	0.0677	-1.3015	-1.7109	-0.1737	11.7198	6.973	10.0561	7.9271
6.9406	9.5555	11.9878	11.6285	13.9136	15.5744	16.552	14.0697	17.5562	18.26	13.5573	16.7847	16.982	0.0795	-1.2721	-1.7226	-0.1708	11.8111	7.0172	10.115	8.0596
6.8258	9.4554	11.8553	11.549	13.8459	15.4743	16.5255	14.0373	17.5091	18.2923	13.5926	16.767	17.0173	0.0618	-1.2721	-1.7315	-0.1384	11.8553	7.0496	10.1179	8.1273
6.708	9.3611	11.761	11.4813	13.7782	15.4272	16.5373	14.0579	17.4649	18.3336	13.6427	16.7464	17.088	0.0294	-1.3163	-1.7874	-0.0883	11.8906	7.0849	10.1533	8.2304
6.6373	9.3081	11.6491	11.4342	13.7516	15.3447	16.5255	14.0608	17.4502	18.3689	13.7134	16.7317	17.1498	0.0147	-1.2986	-1.8139	-0.0618	11.9407	7.1173	10.1739	8.3187
6.5284	9.2581	11.5785	11.4018	13.7134	15.2917	16.5461	14.0815	17.4354	18.4219	13.7693	16.7346	17.2293	0.0147	-1.2957	-1.8816	-0.0383	12.0143	7.1585	10.1974	8.4159
6.4459	9.2139	11.499	11.3458	13.6957	15.2358	16.5579	14.1197	17.4148	18.472	13.8459	16.7611	17.3	-0.0029	-1.3045	-1.9199	-0.0236	12.082	7.2115	10.2328	8.5072
6.3517	9.1756	11.4136	11.3223	13.6663	15.1798	16.5697	14.1433	17.4148	18.5485	13.9195	16.7729	17.3736	-0.0177	-1.3192	-1.9818	-0.0029	12.1409	7.2292	10.274	8.5867
6.3222	9.1786	11.3576	11.3135	13.6751	15.1651	16.6109	14.2051	17.4207	18.6133	14.0314	16.8023	17.4943	-0.0059	-1.3222	-2.0171	-0.0088	12.2322	7.2822	10.3388	8.6956
6.3046	9.1874	11.3429	11.3282	13.7104	15.1415	16.6757	14.2581	17.4472	18.7075	14.1227	16.8495	17.6092	0	-1.2692	-2.0259	-0.0118	12.3235	7.3205	10.4124	8.781
6.2692	9.2198	11.2899	11.3606	13.7281	15.1445	16.7287	14.3524	17.4973	18.8106	14.2522	16.9201	17.7564	-0.0088	-1.2515	-2.076	-0.0029	12.4472	7.3911	10.4889	8.887
6.2781	9.211	11.2958	11.3723	13.7605	15.1209	16.8112	14.4201	17.5032	18.9166	14.3877	16.9996	17.883	-0.0118	-1.2044	-2.1143	-0.0177	12.5591	7.4294	10.5979	8.9783
6.2898	9.2787	11.2987	11.4548	13.8429	15.1504	16.8995	14.5055	17.5562	19.0197	14.5114	17.0939	18.0479	0.0059	-1.0836	-2.1349	-0.0324	12.6916	7.4824	10.6892	9.0608
6.3369	9.3287	11.3076	11.5196	13.893	15.1445	16.9613	14.585	17.5886	19.1492	14.6292	17.1763	18.1775	-0.0029	-1.0218	-2.1614	-0.0265	12.8476	7.5502	10.7952	9.1462
6.3752	9.37	11.3046	11.5726	13.9313	15.1298	17.0409	14.6616	17.6327	19.2317	14.7322	17.2323	18.313	-0.0029	-0.9158	-2.1879	-0.0265	12.9713	7.6002	10.8953	9.1962
6.4135	9.3994	11.3193	11.6374	13.9607	15.1268	17.0997	14.7057	17.6533	19.3259	14.8176	17.2764	18.4131	-0.0059	-0.798	-2.1702	-0.0206	13.0714	7.6385	10.9807	9.2522
6.44	9.4406	11.2928	11.6815	13.9931	15.115	17.194	14.747	17.6327	19.3937	14.903	17.3029	18.4926	-0.0118	-0.7008	-2.185	-0.0029	13.1922	7.7062	11.0425	9.2757
6.493	9.4878	11.3076	11.764	14.0255	15.0738	17.2323	14.7823	17.6239	19.4496	14.9177	17.3	18.5574	-0.0177	-0.6213	-2.1584	0.0294	13.2776	7.7386	11.1279	9.3081
6.5166	9.5113	11.2663	11.7875	14.0373	15.0326	17.2735	14.7911	17.5915	19.4673	14.9501	17.297	18.5986	-0.0383	-0.5595	-2.1614	0.0559	13.3158	7.771	11.178	9.2875
6.5313	9.5349	11.2693	11.8229	14.0314	14.9737	17.2764	14.7941	17.5473	19.5085	14.9531	17.2647	18.628	-0.0471	-0.5212	-2.1584	0.0648	13.4042	7.8093	11.2369	9.2905
6.5195	9.5172	11.2133	11.8258	14.0196	14.8854	17.3	14.7676	17.459	19.5173	14.9001	17.191	18.6074	-0.0707	-0.53	-2.1437	0.106	13.4483	7.8005	11.284	9.2757
6.5048	9.5054	11.1692	11.8141	13.9725	14.797	17.2853	14.7087	17.3677	19.4908	14.8294	17.1056	18.5603	-0.0795	-0.5124	-2.1202	0.1384	13.4454	7.8063	11.3105	9.2227
6.5166	9.4524	11.0985	11.8082	13.9489	14.6998	17.2558	14.6645	17.2705	19.4702	14.7587	16.9908	18.5338	-0.106	-0.5389	-2.1349	0.1767	13.4454	7.8299	11.3429	9.1815
6.4871	9.3965	11.0308	11.7934	13.8724	14.5644	17.2323	14.5585	17.1439	19.4437	14.6674	16.876	18.4808	-0.1178	-0.6037	-2.0907	0.2032	13.4336	7.8122	11.3429	9.1079
6.4165	9.3199	10.9159	11.7875	13.784	14.4436	17.1793	14.4672	17.0085	19.4202	14.5585	16.7641	18.4278	-0.1237	-0.6449	-2.0848	0.2238	13.4189	7.7916	11.3665	9.0402
6.3811	9.2433	10.8423	11.7198	13.7104	14.3318	17.1557	14.3818	16.8848	19.3878	14.4407	16.6404	18.3483	-0.1413	-0.6861	-2.0318	0.2415	13.3895	7.7592	11.3871	8.9665
6.3664	9.1727	10.7716	11.711	13.6309	14.2375	17.1734	14.3141	16.7876	19.3554	14.3406	16.555	18.3424	-0.1237	-0.7067	-1.967	0.2356	13.3895	7.7268	11.4224	8.9135
6.3016	9.0667	10.6745	11.6639	13.5455	14.1227	17.141	14.211	16.6993	19.3642	14.2375	16.4343	18.2953	-0.1355	-0.7833	-1.9847	0.2415	13.3983	7.6974	11.4401	8.8281
6.2633	8.9724	10.5979	11.6521	13.4542	14.0196	17.1145	14.1109	16.6109	19.3701	14.1492	16.3371	18.26	-0.1207	-0.8422	-1.9494	0.215	13.3806	7.6591	11.4695	8.7634
6.2251	8.8694	10.5272	11.6109	13.3512	13.9607	17.1145	14.0196	16.5108	19.3672	14.0284	16.2664	18.2482	-0.109	-0.9011	-1.8905	0.1943	13.3718	7.609	11.5166	8.6662
6.2044	8.7722	10.4654	11.5814	13.2599	13.8694	17.1204	13.8783	16.4136	19.3554	13.9048	16.1575	18.2452	-0.0913	-0.9835	-1.8345	0.1678	13.3747	7.5472	11.5579	8.5985
6.1485	8.6809	10.4183	11.5579	13.1627	13.8017	17.1204	13.8017	16.34	19.3642	13.8017	16.0779	18.2128	-0.0942	-1.0719	-1.7845	0.1325	13.3482	7.5119	11.602	8.5307
6.1073	8.5955	10.3329	11.552	13.0596	13.7487	17.138	13.7075	16.2811	19.3819	13.7075	16.0014	18.1746	-0.0589	-1.1337	-1.702	0.0883	13.3423	7.4854	11.6344	8.4394
6.0867	8.5013	10.2858	11.5255	12.9743	13.6898	17.1321	13.5985	16.2016	19.376	13.5838	15.9101	18.1451	-0.0324	-1.225	-1.6343	0.0471	13.3217	7.4176	11.6609	8.3393
6.0366	8.466	10.2386	11.5107	12.8918	13.6574	17.1292	13.5249	16.128	19.3819	13.4748	15.8129	18.0951	-0.0118	-1.2633	-1.5106	-0.0029	13.3011	7.4	11.7022	8.2981
6.0307	8.3599	10.1827	11.4754	12.7828	13.6074	17.1056	13.416	16.0338	19.3465	13.3276	15.7128	18.0273	0	-1.3015	-1.3781	-0.0324	13.2275	7.3499	11.708	8.1862
5.9954	8.2893	10.1238	11.4666	12.668	13.5455	17.1086	13.2893	15.9189	19.3053	13.1686	15.5685	17.9508	0.0236	-1.3251	-1.2162	-0.053	13.1951	7.3205	11.7375	8.092
5.9571	8.1921	10.0914	11.443	12.5826	13.5072	17.0939	13.1863	15.8276	19.2876	13.0361	15.4713	17.8771	0.0353	-1.3192	-1.0454	-0.1001	13.1303	7.291	11.7434	8.0184
5.9247	8.1509	10.0384	11.3959	12.5119	13.4601	17.085	13.0862	15.7423	19.2847	12.88	15.3653	17.7976	0.0648	-1.2662	-0.8481	-0.1384	13.0744	7.2586	11.7463	7.9418
5.8952	8.0655	9.9736	11.3812	12.4089	13.3924	17.0821	12.9831	15.6392	19.2229	12.7505	15.2093	17.6857	0.0795	-1.2279	-0.6655	-0.1649	12.9949	7.1997	11.7169	7.8446
5.8687	8.0095	9.9501	11.3488	12.3058	13.3482	17.0585	12.8624	15.545	19.2052	12.5826	15.1033	17.6033	0.0825	-1.1808	-0.4653	-0.1914	12.9419	7.1615	11.7404	7.7504
5.8481	7.9654	9.9412	11.337	12.2292	13.3188	17.0585	12.777	15.4507	19.1492	12.4472	14.9855	17.5267	0.109	-1.0395	-0.2385	-0.2444	12.9006	7.1467	11.7493	7.6768
5.8452	7.9124	9.8971	11.3193	12.1468	13.2717	17.0732	12.6857	15.3506	19.1522	12.3205	14.8942	17.4678	0.1266	-0.9099	-0.0442	-0.2945	12.8476	7.0908	11.764	7.5973
5.8246	7.8682	9.8912	11.34	12.0643	13.2481	17.0674	12.5826	15.277	19.1257	12.2057	14.7941	17.4001	0.1708	-0.7509	0.159	-0.3622	12.7976	7.0643	11.7787	7.5325
5.8187	7.8328	9.8676	11.3164	12.0025	13.2039	17.0968	12.5061	15.224	19.1257	12.1026	14.7234	17.3559	0.2002	-0.5801	0.321	-0.4299	12.7799	7.0113	11.7964	7.4383
5.8187	7.7946	9.847	11.2958	11.8936	13.148	17.088	12.4148	15.1209	19.111	11.9672	14.6351	17.3029	0.2503	-0.4211	0.4829	-0.5094	12.7593	6.9789	11.7758	7.3264
5.857	7.7651	9.8617	11.3017	11.8288	13.1303	17.1086	12.3205	15.0561	19.1198	11.87	14.5997	17.2882	0.2886	-0.2474	0.5948	-0.5919	12.7622	6.9583	11.8406	7.2734
5.854	7.718	9.8499	11.3017	11.764	13.0744	17.1145	12.2263	14.9737	19.108	11.7758	14.5202	17.2588	0.3504	-0.0972	0.7038	-0.7008	12.7505	6.9318	11.8759	7.1732
5.8805	7.7062	9.8588	11.284	11.6874	13.042	17.1351	12.1409	14.9001	19.1139	11.6609	14.4319	17.2146	0.3946	0.0766	0.7597	-0.8039	12.7387	6.8758	11.8729	7.0908
5.857	7.6414	9.7911	11.2251	11.5579	12.9536	17.1086	12.0084	14.7852	19.0432	11.5402	14.3141	17.1321	0.4388	0.1796	0.7745	-0.8922	12.6857	6.8169	11.8906	6.9701
5.8305	7.6032	9.741	11.1544	11.4607	12.8476	17.0644	11.8965	14.6616	18.9961	11.39	14.1757	17.0467	0.4711	0.2503	0.7568	-0.9747	12.6386	6.7845	11.8759	6.8729
5.7775	7.5001	9.6468	11.0543	11.3576	12.7416	16.979	11.7669	14.4908	18.9048	11.2251	14.0402	16.9319	0.4977	0.3239	0.7008	-1.0336	12.5797	6.7227	11.8788	6.7404
5.7009	7.4353	9.5437	10.9336	11.2133	12.6356	16.9172	11.6285	14.3406	18.8077	11.0573	13.8871	16.7994	0.5389	0.3386	0.6361	-1.1013	12.5208	6.6638	11.8553	6.6344
5.6332	7.3411	9.4406	10.8011	11.1132	12.4589	16.8023	11.5019	14.1963	18.7282	10.9071	13.7075	16.6698	0.5713	0.3593	0.5212	-1.1602	12.4472	6.6226	11.8464	6.5166
5.5183	7.2292	9.3081	10.6538	10.9513	12.3058	16.6845	11.34	14.0049	18.5721	10.698	13.5131	16.4814	0.586	0.3121	0.4181	-1.1897	12.3735	6.5637	11.8052	6.387
5.4153	7.1261	9.1786	10.5213	10.8335	12.1291	16.5579	11.1633	13.8341	18.4425	10.5184	13.3247	16.3253	0.6184	0.2856	0.3151	-1.2309	12.2852	6.5048	11.7787	6.2781
5.3034	6.9966	9.0402	10.3388	10.6892	11.9672	16.4136	11.0455	13.6515	18.3041	10.327	13.1097	16.1368	0.6302	0.2002	0.215	-1.2662	12.1939	6.4606	11.7257	6.1779
5.1856	6.9112	8.9165	10.1768	10.5478	11.8111	16.2811	10.8953	13.4778	18.1628	10.165	12.9183	15.9425	0.6419	0.1119	0.1266	-1.3015	12.0938	6.4106	11.6933	6.0572
5.0796	6.814	8.8105	10.0119	10.4271	11.6609	16.1575	10.7569	13.3217	18.0155	10.0207	12.7622	15.7894	0.6596	0.0324	0.0559	-1.3222	12.0025	6.3723	11.6786	5.9777
4.9824	6.7139	8.6809	9.8617	10.327	11.5343	16.0014	10.6627	13.1863	17.8948	9.8853	12.6003	15.6274	0.6802	-0.0501	0.0177	-1.3516	11.9377	6.3193	11.6374	5.8805
4.8999	6.6373	8.5896	9.7145	10.2298	11.39	15.8689	10.595	13.0479	17.7623	9.7646	12.4501	15.4743	0.6802	-0.1443	-0.0412	-1.3752	11.8582	6.2869	11.5814	5.7951
4.8087	6.5725	8.4866	9.5673	10.1444	11.2722	15.7334	10.4948	12.9154	17.6327	9.6703	12.3088	15.3388	0.692	-0.2356	-0.0677	-1.3869	11.8023	6.2309	11.552	5.7038
4.738	6.4842	8.3982	9.4436	10.0708	11.1544	15.6009	10.4153	12.8123	17.4973	9.5496	12.191	15.1887	0.7067	-0.2945	-0.0677	-1.4252	11.7493	6.1809	11.549	5.6449
4.6732	6.4547	8.3334	9.3494	10.009	11.0867	15.492	10.3888	12.7534	17.4089	9.4848	12.1232	15.1209	0.7303	-0.3563	-0.1119	-1.4399	11.7375	6.1662	11.5314	5.5772
4.6055	6.3841	8.251	9.2522	9.9618	10.9954	15.3742	10.3329	12.668	17.2823	9.3994	12.0231	14.9825	0.7185	-0.4388	-0.1678	-1.4517	11.6874	6.119	11.496	5.5448
4.5112	6.3134	8.1833	9.1197	9.8912	10.8983	15.2446	10.2799	12.5885	17.1498	9.314	11.9259	14.8706	0.7273	-0.5065	-0.2621	-1.4488	11.6521	6.066	11.4636	5.4594
4.4671	6.2722	8.1126	9.0107	9.8382	10.7922	15.1298	10.2328	12.5002	17.0055	9.2492	11.8288	14.7528	0.7185	-0.5595	-0.3151	-1.4399	11.605	6.0071	11.4224	5.4064
4.3493	6.2103	8.0331	8.9018	9.7881	10.7098	14.9796	10.1621	12.4089	16.876	9.1491	11.7169	14.6086	0.7097	-0.6361	-0.4505	-1.4105	11.5608	5.9512	11.3871	5.3652
4.3022	6.1662	7.9536	8.8016	9.6998	10.6362	14.8736	10.115	12.3353	16.7464	9.0843	11.605	14.476	0.6861	-0.6802	-0.5242	-1.3811	11.4901	5.9129	11.3311	5.3093
4.2286	6.069	7.8829	8.6897	9.6468	10.5478	14.7411	10.0472	12.2469	16.5815	8.9813	11.4931	14.32	0.6832	-0.7097	-0.6302	-1.3457	11.4224	5.8305	11.2693	5.2356
4.1373	6.0219	7.8005	8.5985	9.5879	10.4389	14.6056	9.9913	12.1556	16.4136	8.8694	11.3547	14.1521	0.6361	-0.7656	-0.7273	-1.2927	11.3429	5.7716	11.1986	5.1944
4.0754	5.9836	7.7357	8.5219	9.5319	10.3594	14.4996	9.9206	12.0555	16.2605	8.7693	11.2133	13.9961	0.6302	-0.7715	-0.8068	-1.2662	11.2575	5.7009	11.125	5.1473
4.0077	5.8864	7.6827	8.4306	9.473	10.2946	14.3671	9.8647	11.9672	16.0868	8.6574	11.0867	13.8194	0.6066	-0.7538	-0.8952	-1.225	11.1427	5.6391	11.0278	5.0884
3.9871	5.8511	7.6326	8.3541	9.4141	10.2475	14.2758	9.7969	11.8936	15.9278	8.572	10.9454	13.6545	0.5919	-0.7745	-0.9364	-1.1779	11.0779	5.5831	10.9601	5.0295
3.9164	5.7775	7.5796	8.3069	9.3641	10.1621	14.1639	9.7381	11.7934	15.7599	8.4689	10.8453	13.5072	0.5713	-0.7627	-0.9924	-1.1425	10.9778	5.5301	10.8894	5.0148
3.887	5.7097	7.5413	8.251	9.2964	10.0885	14.0402	9.6821	11.7287	15.6156	8.3688	10.7039	13.36	0.5536	-0.7715	-1.0247	-1.119	10.8629	5.4742	10.7922	4.9736
3.8369	5.6567	7.4913	8.198	9.2404	10.0531	13.9696	9.632	11.655	15.5008	8.2981	10.6067	13.201	0.533	-0.7509	-1.013	-1.0866	10.7746	5.4329	10.7334	4.9294
3.8458	5.5772	7.4589	8.1597	9.1874	10.009	13.893	9.579	11.5961	15.3742	8.2186	10.4948	13.1185	0.533	-0.7479	-1.0306	-1.0689	10.6921	5.3976	10.6509	4.9029
3.831	5.5124	7.4294	8.1391	9.1373	9.956	13.8105	9.526	11.5608	15.2799	8.1685	10.4242	13.0096	0.5183	-0.7391	-0.9835	-1.0454	10.6273	5.3829	10.6038	4.9029
3.8192	5.427	7.4118	8.092	9.0578	9.9177	13.7664	9.4701	11.4842	15.1739	8.1067	10.3064	12.9036	0.5124	-0.6949	-0.9217	-1.0306	10.5537	5.3534	10.5302	4.8646
3.8016	5.3858	7.3911	8.0684	8.9842	9.8853	13.6898	9.4377	11.4577	15.0768	8.092	10.2416	12.8447	0.5035	-0.6773	-0.8157	-1.0041	10.4801	5.324	10.4772	4.8293
3.8134	5.321	7.347	8.0655	8.94	9.8441	13.6368	9.4141	11.3989	15.0267	8.0331	10.1709	12.7799	0.4859	-0.6714	-0.745	-0.9894	10.4448	5.3034	10.4153	4.8293
3.7957	5.215	7.291	8.0095	8.8635	9.7999	13.5661	9.3494	11.3517	14.9413	7.9919	10.0855	12.7004	0.4741	-0.6537	-0.6478	-0.9541	10.3682	5.2916	10.3947	4.8234
3.7751	5.1444	7.2616	7.9683	8.8105	9.7528	13.4837	9.2846	11.287	14.8647	7.9418	10.0178	12.6238	0.4564	-0.6331	-0.5359	-0.9364	10.324	5.2651	10.3299	4.8057
3.7368	5.0531	7.2174	7.933	8.7045	9.7027	13.4425	9.2286	11.2045	14.7823	7.9094	9.9295	12.5384	0.4388	-0.6272	-0.424	-0.8863	10.2504	5.268	10.2622	4.7822
3.7103	4.9382	7.1291	7.8947	8.6014	9.6203	13.36	9.1373	11.1191	14.6998	7.8093	9.7852	12.4324	0.427	-0.6066	-0.2562	-0.854	10.1739	5.2474	10.1886	4.7822
3.6808	4.8705	7.0731	7.8211	8.5042	9.5525	13.2982	9.0667	11.016	14.5997	7.7209	9.6674	12.3264	0.4123	-0.5713	-0.1119	-0.8098	10.1091	5.2769	10.1533	4.7674
3.6455	4.7645	6.9671	7.7504	8.4188	9.4613	13.198	8.9518	10.9218	14.5232	7.6385	9.4995	12.2204	0.3799	-0.5153	0.0177	-0.7656	10.006	5.2445	10.0885	4.7292
3.5955	4.6673	6.8994	7.6886	8.2893	9.3523	13.1097	8.8134	10.751	14.3789	7.5325	9.3464	12.0732	0.3534	-0.4358	0.2061	-0.7244	9.9	5.2415	9.9883	4.7085
3.5542	4.5672	6.814	7.6179	8.1626	9.2581	13.0125	8.7251	10.6332	14.2905	7.4235	9.1727	11.9466	0.3239	-0.3651	0.3357	-0.6684	9.7999	5.218	9.9059	4.6968
3.4865	4.4582	6.708	7.5178	8.0184	9.1167	12.9212	8.5543	10.4477	14.1757	7.2734	8.996	11.7817	0.3121	-0.2591	0.4829	-0.6272	9.6674	5.2268	9.8264	4.6526
3.4541	4.3699	6.6137	7.4677	7.8829	9.0048	12.83	8.4483	10.324	14.0667	7.1938	8.8193	11.658	0.2945	-0.1207	0.6272	-0.6037	9.5879	5.2209	9.7498	4.6202
3.407	4.2551	6.5166	7.4029	7.771	8.9135	12.7622	8.3187	10.165	13.946	7.0378	8.6515	11.5373	0.2768	0.0118	0.745	-0.5683	9.4819	5.1767	9.6527	4.5672
3.3687	4.1579	6.4106	7.2969	7.5973	8.7869	12.6768	8.1774	10.006	13.84	6.917	8.5013	11.4047	0.2532	0.1325	0.8333	-0.533	9.3935	5.1414	9.5967	4.5584
3.301	4.0519	6.334	7.2616	7.4706	8.6809	12.5738	8.0684	9.903	13.7546	6.7993	8.3629	11.3252	0.2474	0.2768	0.9158	-0.5124	9.3111	5.1208	9.5172	4.526
3.2715	3.993	6.281	7.185	7.347	8.572	12.5296	7.9359	9.7646	13.678	6.7227	8.2628	11.2516	0.2562	0.4152	0.9717	-0.5271	9.2728	5.109	9.4848	4.5024
3.2539	3.8752	6.1927	7.1615	7.238	8.4866	12.4795	7.8299	9.6468	13.6191	6.6344	8.1361	11.1839	0.2503	0.5389	1.0424	-0.5418	9.2286	5.0766	9.4406	4.4847
3.2038	3.7927	6.1338	7.1026	7.1232	8.4071	12.4236	7.7298	9.5349	13.5632	6.546	8.0625	11.1427	0.2739	0.6773	1.0483	-0.5565	9.1727	5.0236	9.4141	4.4435
3.1773	3.672	6.0425	7.0613	7.0024	8.3246	12.3853	7.6208	9.4348	13.5131	6.4695	7.983	11.0779	0.2768	0.7627	1.0542	-0.5889	9.1373	4.9765	9.3876	4.3758
3.1243	3.5925	6.0013	7.0348	6.8935	8.2333	12.3411	7.4972	9.3199	13.4425	6.4106	7.9094	11.0337	0.3121	0.851	1.0189	-0.6419	9.102	4.9588	9.3552	4.3758
3.0507	3.4806	5.907	6.9936	6.7551	8.1273	12.294	7.3882	9.211	13.3836	6.3046	7.7887	10.9571	0.321	0.904	0.9776	-0.6684	9.0372	4.8587	9.3081	4.3081
2.983	3.3599	5.8128	6.973	6.6373	8.0184	12.2528	7.2557	9.0843	13.2952	6.1573	7.6679	10.8806	0.3386	0.9246	0.9217	-0.7126	8.9901	4.8028	9.2846	4.2286
2.9152	3.2274	5.7127	6.9023	6.4989	7.9241	12.1556	7.1026	8.94	13.1715	6.0425	7.5148	10.7628	0.371	0.9099	0.8569	-0.7597	8.9106	4.7321	9.2286	4.1549
2.8181	3.1007	5.6155	6.8611	6.3546	7.7887	12.0879	6.9612	8.7987	13.0803	5.9011	7.3617	10.6303	0.4005	0.9158	0.8039	-0.8275	8.8134	4.6261	9.2051	4.0519
2.7327	2.9888	5.5183	6.7963	6.1956	7.6856	12.0496	6.7787	8.6367	12.9419	5.7303	7.1938	10.4831	0.4299	0.8422	0.7391	-0.8775	8.7251	4.5112	9.1462	3.9459
2.6178	2.877	5.4064	6.7551	6.0808	7.5413	11.9289	6.6461	8.4895	12.8417	5.5625	7.0172	10.3152	0.4653	0.798	0.6567	-0.9452	8.6073	4.4111	9.0873	3.831
2.4971	2.6914	5.2945	6.6815	5.9335	7.4412	11.8435	6.4783	8.304	12.7063	5.3829	6.8258	10.1326	0.5065	0.6743	0.5565	-1.0041	8.4925	4.2727	9.0284	3.725
2.3911	2.5854	5.1826	6.6226	5.7775	7.3116	11.7434	6.2869	8.0949	12.5443	5.1561	6.6049	9.9648	0.5271	0.5713	0.4682	-1.0689	8.357	4.1402	8.9813	3.5807
2.3027	2.4765	5.1002	6.5313	5.6508	7.185	11.658	6.1279	7.9536	12.4295	5.003	6.4341	9.8058	0.5565	0.4446	0.3946	-1.1366	8.2687	4.0165	8.9224	3.4512
2.1938	2.3705	5.0177	6.4753	5.5537	7.0584	11.5844	6.0013	7.8034	12.3176	4.8293	6.2486	9.6379	0.6007	0.2945	0.3239	-1.2073	8.1685	3.9076	8.8841	3.3393
2.1143	2.291	4.9412	6.4076	5.4064	6.9907	11.5107	5.8216	7.665	12.1733	4.6467	6.0749	9.5054	0.6302	0.1472	0.268	-1.2633	8.0566	3.7751	8.8429	3.192
2.0495	2.1938	4.8617	6.3841	5.3446	6.8964	11.446	5.7245	7.556	12.0791	4.5201	5.9512	9.3641	0.6714	-0.0029	0.2267	-1.3546	7.983	3.6838	8.8046	3.086
1.967	2.1643	4.788	6.2987	5.2533	6.8199	11.3871	5.5978	7.4176	11.9819	4.3581	5.7951	9.2404	0.7038	-0.1413	0.1885	-1.4076	7.9124	3.5631	8.7604	2.9417
1.9405	2.1319	4.7409	6.2633	5.2062	6.7492	11.3164	5.483	7.3234	11.8906	4.2256	5.6656	9.1314	0.7273	-0.2797	0.1443	-1.4694	7.8535	3.4718	8.7369	2.8563
1.8993	2.1025	4.7262	6.2398	5.1473	6.6991	11.287	5.3976	7.2321	11.8229	4.1049	5.5772	9.049	0.7627	-0.3916	0.1443	-1.5401	7.8005	3.3982	8.7369	2.7592
1.8551	2.0554	4.6703	6.1897	5.0825	6.6255	11.2281	5.2798	7.1526	11.7257	3.9635	5.48	8.943	0.7892	-0.4594	0.1443	-1.5872	7.7209	3.2892	8.6897	2.6296
1.7992	2.02	4.6084	6.1397	5.0001	6.5578	11.1751	5.2003	7.0407	11.6344	3.8575	5.3711	8.8429	0.8127	-0.586	0.1355	-1.6343	7.6709	3.2038	8.6574	2.503
1.755	1.9759	4.5377	6.0837	4.9323	6.4783	11.0867	5.0619	6.9347	11.4901	3.7191	5.2327	8.7162	0.8216	-0.6714	0.1443	-1.652	7.5708	3.1037	8.6102	2.3734
1.7109	1.9582	4.4847	6.0425	4.8499	6.3782	11.016	4.9618	6.8199	11.3635	3.5807	5.1031	8.572	0.8304	-0.7214	0.1826	-1.6726	7.4854	3.036	8.5513	2.2586
1.6608	1.9111	4.4111	5.9453	4.7792	6.2957	10.9189	4.8617	6.6903	11.2281	3.4217	4.9441	8.4188	0.8333	-0.745	0.2267	-1.6755	7.3764	2.9535	8.4777	2.0937
1.5783	1.8934	4.3316	5.8952	4.7085	6.1927	10.8129	4.735	6.5607	11.069	3.2627	4.8028	8.2539	0.8392	-0.7597	0.2797	-1.6902	7.2734	2.8828	8.4071	1.9612
1.543	1.864	4.2462	5.8246	4.5996	6.0778	10.698	4.6143	6.39	10.8894	3.0919	4.5937	8.0537	0.8363	-0.7568	0.3239	-1.6726	7.132	2.821	8.3158	1.8198
1.5165	1.8228	4.1697	5.7775	4.523	5.9541	10.5861	4.47	6.2103	10.6774	2.9211	4.3993	7.8505	0.8304	-0.6949	0.3858	-1.6696	7.0113	2.7415	8.2186	1.6814
1.4753	1.808	4.099	5.6862	4.4229	5.8334	10.4624	4.3257	6.0395	10.4919	2.7562	4.2168	7.6356	0.8333	-0.6066	0.4741	-1.6637	6.8434	2.6826	8.1214	1.5253
1.4723	1.7933	4.0313	5.6214	4.3522	5.7068	10.3476	4.205	5.8717	10.3034	2.5825	4.0224	7.4324	0.8275	-0.4977	0.5536	-1.6549	6.6815	2.6296	8.0272	1.3722
1.4517	1.7815	3.94	5.5478	4.2344	5.5772	10.2151	4.0519	5.6891	10.112	2.397	3.8192	7.1909	0.8186	-0.3858	0.6125	-1.6284	6.5136	2.5678	7.8947	1.225
1.4282	1.7374	3.9076	5.4948	4.1579	5.4624	10.0973	3.9429	5.5272	9.9383	2.2497	3.6367	7.0231	0.8068	-0.2562	0.6567	-1.6255	6.3958	2.5206	7.8122	1.119
1.437	1.7432	3.8251	5.4565	4.0843	5.321	9.9913	3.8134	5.3681	9.7675	2.0819	3.4747	6.8464	0.801	-0.109	0.7156	-1.6078	6.281	2.4735	7.7121	0.9865
1.4812	1.7374	3.7545	5.3888	3.9871	5.2091	9.8647	3.7044	5.2121	9.6173	1.9405	3.3069	6.6815	0.7921	0.0825	0.7715	-1.6019	6.1779	2.4146	7.5914	0.8834
1.4812	1.7256	3.6956	5.324	3.9017	5.1031	9.7852	3.5984	5.056	9.4613	1.8493	3.1832	6.546	0.798	0.2415	0.8392	-1.6078	6.0925	2.4058	7.5531	0.8098
1.5077	1.7256	3.6367	5.2592	3.8399	4.9942	9.6762	3.5042	4.9294	9.3287	1.7344	3.0713	6.4253	0.7862	0.3887	0.8922	-1.599	5.9924	2.3705	7.4765	0.7391
1.5165	1.702	3.6013	5.2268	3.778	4.9029	9.5879	3.407	4.7939	9.2257	1.649	2.9653	6.3134	0.801	0.586	0.9776	-1.6255	5.9453	2.3557	7.4265	0.6714
1.5253	1.6991	3.5277	5.1826	3.7074	4.7792	9.4966	3.3304	4.6791	9.1079	1.5695	2.8887	6.228	0.8098	0.745	1.0836	-1.6255	5.9011	2.3469	7.3823	0.6184
1.5283	1.6844	3.4836	5.1208	3.622	4.6997	9.3965	3.2244	4.579	8.9872	1.4841	2.7916	6.122	0.8186	0.9129	1.1602	-1.6461	5.8393	2.3204	7.3234	0.5624
1.5047	1.6637	3.3982	5.0678	3.5513	4.5819	9.2846	3.1361	4.4494	8.8605	1.4105	2.7179	6.0366	0.8275	1.0454	1.2014	-1.652	5.8069	2.2792	7.2822	0.53
1.4429	1.6284	3.3187	5.0001	3.4718	4.4818	9.1727	3.0154	4.3316	8.7457	1.3104	2.6237	5.9453	0.8245	1.1514	1.275	-1.6608	5.748	2.235	7.2145	0.4653
1.4311	1.5901	3.2303	4.95	3.3717	4.3728	9.0755	2.9241	4.2079	8.6309	1.2279	2.5471	5.8422	0.854	1.2574	1.3281	-1.6844	5.6832	2.1879	7.1997	0.4123
1.3928	1.5018	3.1243	4.8145	3.2509	4.258	8.9459	2.7857	4.0607	8.4807	1.1043	2.4323	5.7186	0.8333	1.3192	1.331	-1.6726	5.6184	2.1496	7.1173	0.3357
1.3251	1.4635	3.0389	4.7409	3.1567	4.1343	8.8252	2.6738	3.94	8.3658	1.0012	2.3381	5.6184	0.851	1.3722	1.3222	-1.6873	5.5625	2.0819	7.0908	0.3062
1.2839	1.3811	2.9388	4.6673	3.0507	4.0165	8.7074	2.5589	3.8045	8.2186	0.8863	2.2232	5.4742	0.8481	1.384	1.3222	-1.6961	5.4742	2.0171	7.0024	0.2179
1.2338	1.3163	2.8681	4.5966	2.9565	3.9311	8.6014	2.45	3.6956	8.1038	0.7774	2.1202	5.3799	0.8481	1.3811	1.3369	-1.7109	5.3858	1.9464	6.9524	0.1678
1.2132	1.2721	2.7827	4.5289	2.877	3.884	8.5278	2.344	3.6072	8.0036	0.7008	2.0613	5.3093	0.8805	1.3693	1.331	-1.7462	5.3593	1.8728	6.9494	0.0854
1.1602	1.2162	2.7179	4.4435	2.7798	3.8104	8.4483	2.2291	3.5483	7.9153	0.6007	1.9877	5.2445	0.8834	1.3104	1.3281	-1.7786	5.2886	1.7874	6.8905	0.0206
1.1573	1.2044	2.6885	4.3964	2.7356	3.8045	8.4071	2.182	3.513	7.8535	0.5389	1.97	5.1826	0.9158	1.2868	1.3133	-1.8375	5.2563	1.7285	6.8523	-0.0177
1.1573	1.1838	2.6649	4.3846	2.712	3.8192	8.3511	2.1496	3.4894	7.8152	0.4947	1.9553	5.1944	0.957	1.222	1.3222	-1.8993	5.2504	1.6549	6.864	-0.0648
1.1602	1.1543	2.6502	4.314	2.6797	3.8016	8.3187	2.0996	3.5071	7.7946	0.4623	1.967	5.1944	0.9747	1.1808	1.3281	-1.9405	5.2121	1.5754	6.811	-0.1266
1.172	1.1631	2.6797	4.3081	2.659	3.8546	8.2775	2.076	3.5454	7.8063	0.4388	2.0083	5.2474	1.0041	1.1013	1.331	-2.0053	5.215	1.5165	6.8022	-0.159
1.1808	1.1749	2.6855	4.2757	2.6826	3.9223	8.3099	2.0878	3.6278	7.8152	0.4623	2.0848	5.2828	1.0277	1.0571	1.3752	-2.0642	5.2386	1.4488	6.811	-0.215
1.1838	1.1897	2.715	4.2462	2.6973	3.9959	8.2952	2.1054	3.6985	7.8211	0.477	2.1643	5.3446	1.0513	1.0424	1.4193	-2.1143	5.2386	1.3899	6.8052	-0.2238
1.2397	1.2515	2.7798	4.2698	2.7651	4.1078	8.3099	2.1437	3.8134	7.8829	0.4888	2.2615	5.4094	1.0925	1.0571	1.5077	-2.1879	5.2533	1.3634	6.8258	-0.2591
1.2309	1.2809	2.8475	4.2904	2.8269	4.2079	8.3334	2.1791	3.9105	7.9241	0.5477	2.3616	5.4889	1.1101	1.0365	1.5636	-2.2173	5.2769	1.2986	6.7787	-0.2915
1.2868	1.3045	2.9211	4.2933	2.877	4.3228	8.3629	2.235	4.0313	7.9801	0.5595	2.45	5.5625	1.1366	1.116	1.6579	-2.2556	5.2739	1.2603	6.7963	-0.3298
1.3045	1.3516	2.9682	4.2933	2.9565	4.4376	8.3953	2.2939	4.1284	7.9948	0.5595	2.5236	5.6037	1.1278	1.1955	1.7315	-2.2497	5.2563	1.2279	6.7639	-0.3357
1.3428	1.4134	3.0772	4.3228	3.0419	4.5554	8.4336	2.3528	4.2551	8.0449	0.6154	2.6119	5.6567	1.1396	1.2809	1.864	-2.2468	5.2563	1.2162	6.7669	-0.3681
1.3958	1.4723	3.1538	4.3287	3.1449	4.6585	8.4453	2.4087	4.364	8.0301	0.6213	2.659	5.6656	1.1101	1.4076	1.97	-2.2262	5.2091	1.1955	6.6962	-0.3887
1.4547	1.5312	3.2097	4.3493	3.2303	4.791	8.4748	2.4883	4.4641	8.0508	0.6508	2.6973	5.6744	1.0778	1.5342	2.0789	-2.1761	5.1738	1.2073	6.6609	-0.4064
1.4841	1.5842	3.3098	4.4082	3.3334	4.8852	8.5013	2.5619	4.5495	8.0625	0.6596	2.7474	5.6773	1.0689	1.6726	2.235	-2.1349	5.1208	1.2044	6.6255	-0.4152
1.5695	1.6667	3.4247	4.4406	3.4688	5.0118	8.5484	2.6325	4.6496	8.0655	0.6832	2.8063	5.6656	1.0336	1.8021	2.3204	-2.0789	5.0678	1.2279	6.549	-0.4211
1.6637	1.7462	3.5189	4.4847	3.5778	5.1326	8.5778	2.7003	4.7233	8.0625	0.692	2.8269	5.6567	1.0159	1.9729	2.45	-2.0289	5.0295	1.2515	6.496	-0.4476
1.7138	1.8051	3.6043	4.5319	3.672	5.2268	8.6014	2.7709	4.8028	8.0655	0.6891	2.8387	5.6361	0.9717	2.0937	2.5118	-1.9494	4.9618	1.2986	6.4076	-0.4446
1.8257	1.9052	3.725	4.6143	3.781	5.3387	8.6544	2.8416	4.8999	8.0537	0.7597	2.8946	5.642	0.9394	2.238	2.5972	-1.8934	4.9235	1.3251	6.3605	-0.427
1.8993	1.9818	3.8516	4.6761	3.884	5.4329	8.6927	2.9064	4.9912	8.0655	0.7833	2.9417	5.6214	0.9187	2.3852	2.6826	-1.8257	4.8852	1.3869	6.3163	-0.4329
2.0289	2.0789	3.9724	4.7527	4.0372	5.5419	8.7369	3.0124	5.1031	8.0802	0.8275	2.9771	5.6332	0.8863	2.5354	2.768	-1.7727	4.8499	1.437	6.2516	-0.3946
2.1319	2.182	4.0548	4.8204	4.1284	5.6332	8.8046	3.0801	5.165	8.1038	0.8716	3.0448	5.6538	0.8657	2.6679	2.8387	-1.7138	4.7969	1.4694	6.1985	-0.3916
2.2438	2.2762	4.1785	4.9058	4.2138	5.7274	8.8281	3.142	5.2239	8.1067	0.9276	3.0566	5.6302	0.8216	2.8239	2.927	-1.6579	4.7498	1.5224	6.1161	-0.3769
2.3263	2.341	4.2492	4.9736	4.2698	5.7951	8.8723	3.1891	5.2621	8.0949	0.9423	3.0684	5.6155	0.7833	2.93	3.0065	-1.5754	4.6938	1.5666	6.0484	-0.3504
2.4235	2.4029	4.3316	5.0442	4.3287	5.8305	8.9047	3.2097	5.3034	8.0979	0.9659	3.0595	5.6008	0.7568	3.0949	3.1155	-1.5165	4.629	1.5901	5.9954	-0.3769
2.503	2.503	4.4082	5.1061	4.3758	5.8776	8.9518	3.2863	5.3299	8.0861	0.9982	3.086	5.589	0.7126	3.2156	3.2038	-1.4399	4.5466	1.6431	5.9276	-0.3416
2.5825	2.5825	4.473	5.1767	4.4259	5.8952	9.0019	3.2892	5.3122	8.0449	0.9953	3.033	5.5183	0.6861	3.3157	3.3098	-1.3546	4.47	1.6637	5.8481	-0.3651
2.6561	2.6561	4.5348	5.2592	4.4494	5.9247	9.0078	3.298	5.3122	8.0154	0.9953	3.0006	5.4712	0.6508	3.4394	3.4453	-1.2986	4.3964	1.7197	5.7892	-0.3416
2.715	2.7238	4.5701	5.2945	4.4789	5.9217	9.0137	3.3128	5.2857	7.9919	0.9806	2.9211	5.3976	0.6037	3.5159	3.5277	-1.2132	4.2933	1.7491	5.7097	-0.3386
2.8004	2.7886	4.6261	5.3681	4.4818	5.9129	9.0726	3.3069	5.2327	7.9506	0.9511	2.8328	5.3181	0.5742	3.6308	3.6278	-1.1661	4.205	1.7756	5.6567	-0.3357
2.8681	2.8269	4.6467	5.3976	4.4553	5.9217	9.0549	3.2804	5.1444	7.8829	0.8981	2.7209	5.1856	0.53	3.7015	3.7044	-1.0866	4.0548	1.8051	5.5802	-0.3534
2.9152	2.8976	4.6732	5.4388	4.4494	5.8835	9.0814	3.2745	5.1149	7.8829	0.8716	2.6325	5.0855	0.5094	3.7515	3.7957	-1.0395	3.94	1.8375	5.5095	-0.3651
2.9741	2.9623	4.6909	5.4771	4.4465	5.8717	9.0814	3.2362	5.0501	7.824	0.8186	2.5265	4.9912	0.4977	3.7869	3.8693	-1.0012	3.8281	1.8669	5.4624	-0.3622
3.033	3.0036	4.7144	5.5331	4.4259	5.8393	9.0902	3.2244	4.9618	7.7769	0.7597	2.4176	4.8705	0.4741	3.8222	3.9194	-0.9688	3.7368	1.864	5.43	-0.3799
3.0949	3.0419	4.7233	5.5713	4.3817	5.8099	9.0696	3.1773	4.8793	7.7327	0.6979	2.2998	4.791	0.4505	3.8369	3.9223	-0.9335	3.622	1.8846	5.3564	-0.3858
3.1744	3.1125	4.7704	5.6067	4.3964	5.8157	9.0873	3.1744	4.8204	7.7003	0.6743	2.2173	4.7262	0.4741	3.8369	3.9576	-0.9511	3.5513	1.9229	5.3475	-0.371
3.2215	3.1479	4.7733	5.6214	4.3876	5.7981	9.0637	3.1803	4.738	7.6856	0.6419	2.1437	4.6761	0.4623	3.8369	3.9518	-0.9629	3.4806	1.9553	5.2975	-0.3622
3.2774	3.1979	4.7939	5.6744	4.3699	5.7892	9.0784	3.1803	4.7027	7.6621	0.639	2.0996	4.6496	0.4888	3.8045	3.9282	-0.9924	3.4158	1.9994	5.2739	-0.3327
3.3363	3.2656	4.8234	5.7333	4.3787	5.7833	9.0755	3.1803	4.6585	7.6591	0.6449	2.0407	4.6408	0.5124	3.8016	3.9017	-1.0424	3.3893	2.0083	5.2621	-0.3298
3.4217	3.3452	4.8705	5.751	4.3876	5.8128	9.0784	3.2244	4.6467	7.6621	0.6714	2.0318	4.6438	0.5507	3.7839	3.8929	-1.1072	3.3746	2.0701	5.3063	-0.2856
3.4541	3.3658	4.8676	5.7539	4.3846	5.7833	9.0254	3.195	4.5908	7.6208	0.6478	1.9818	4.5937	0.5565	3.7869	3.8487	-1.1455	3.2804	2.0613	5.2769	-0.2886
3.4806	3.4099	4.8882	5.7686	4.3993	5.7686	8.9842	3.2097	4.5377	7.6002	0.6832	1.9553	4.5878	0.6007	3.781	3.8516	-1.2044	3.2686	2.0966	5.2769	-0.2797
3.5424	3.4659	4.8999	5.7745	4.4141	5.751	8.9548	3.2215	4.4906	7.5619	0.6832	1.9288	4.5584	0.6243	3.7869	3.8192	-1.2397	3.2038	2.0966	5.2857	-0.2827
3.5631	3.4983	4.8823	5.7686	4.4111	5.7274	8.8959	3.2156	4.4259	7.4972	0.6714	1.864	4.5024	0.6331	3.7898	3.7869	-1.275	3.139	2.0996	5.2445	-0.2827
3.5866	3.5631	4.8882	5.7775	4.4259	5.7186	8.8252	3.2068	4.3758	7.4294	0.6684	1.8434	4.4641	0.6478	3.8104	3.7368	-1.3104	3.0566	2.0907	5.2209	-0.2797
3.6131	3.6249	4.897	5.7568	4.4406	5.6862	8.7398	3.1773	4.3228	7.3705	0.6537	1.7933	4.4288	0.6714	3.8163	3.7604	-1.3457	2.9741	2.0583	5.2003	-0.2915
3.6602	3.6485	4.8823	5.7127	4.4406	5.6656	8.6574	3.1685	4.2757	7.2999	0.6361	1.7256	4.3228	0.6979	3.8428	3.7309	-1.3958	2.8828	2.0554	5.1679	-0.3121
3.6779	3.7074	4.9206	5.7097	4.4465	5.6449	8.5867	3.1714	4.2286	7.2351	0.639	1.6991	4.2668	0.7067	3.831	3.7132	-1.4252	2.7916	2.0318	5.1267	-0.3445
3.7103	3.7604	4.9117	5.6597	4.4524	5.6096	8.5072	3.1538	4.1697	7.1379	0.6125	1.6255	4.1785	0.7185	3.8281	3.672	-1.4399	2.6738	1.9965	5.0766	-0.4005
3.7191	3.8075	4.9176	5.6479	4.473	5.589	8.4306	3.1331	4.1284	7.0643	0.5889	1.596	4.1108	0.7332	3.831	3.6485	-1.4723	2.5795	1.9523	5.0383	-0.427
3.7898	3.8605	4.9323	5.6214	4.4906	5.5831	8.3688	3.1272	4.0931	7.0142	0.5742	1.5607	4.0254	0.7332	3.8399	3.619	-1.4753	2.4912	1.9288	5.0089	-0.4741
3.8605	3.937	5.0266	5.6332	4.5377	5.6243	8.3364	3.1714	4.1226	6.9936	0.6125	1.5813	4.0195	0.7627	3.834	3.6367	-1.5047	2.4323	1.8816	4.9971	-0.4918
3.9311	3.9989	5.0501	5.642	4.5643	5.6096	8.3069	3.1626	4.1167	6.9494	0.6154	1.5872	3.9753	0.7509	3.8605	3.6278	-1.5047	2.3292	1.8522	4.9706	-0.5124
4.0136	4.0754	5.109	5.6508	4.6349	5.6744	8.3187	3.2215	4.1932	6.9818	0.6832	1.6667	3.9783	0.745	3.9017	3.619	-1.5047	2.2939	1.811	4.95	-0.533
4.1343	4.2079	5.218	5.7539	4.7203	5.7775	8.3894	3.2833	4.2992	7.0348	0.7686	1.7432	4.0224	0.7568	3.9547	3.6543	-1.5165	2.2762	1.7992	4.9706	-0.53
4.2668	4.3228	5.3564	5.804	4.8558	5.9011	8.4512	3.3893	4.3993	7.1026	0.8834	1.864	4.0813	0.7568	3.9959	3.675	-1.5312	2.291	1.7992	4.9971	-0.5124
