"FZ"	"FC3"	"FCZ"	"FC4"	"C3"	"CZ"	"C4"	"CP3"	"CPZ"	"CP4"	"P3"	"PZ"	"P4"	"OZ"	"FP1"	"FP2"	"A2"	"P8"	"TP7"	"TP8"	"P7"
1.9231	1.3342	2.1763	2.512	1.7098	2.3868	2.5547	1.8349	2.5888	2.6912	1.724	2.3925	2.7567	0.2447	2.1564	0.7311	-0.4836	2.0142	0.9274	1.7382	0.7937
2.0455	1.3542	2.3043	2.6059	1.778	2.4836	2.6998	1.9231	2.7254	2.7851	1.8492	2.5547	2.8818	0.202	2.293	0.8819	-0.3897	2.0113	0.9729	1.7496	0.899
2.1365	1.4139	2.4096	2.7168	1.8236	2.6486	2.7737	2.0113	2.8477	2.8847	1.9459	2.6742	2.9672	0.1479	2.4124	1.0384	-0.3016	1.98	1.0128	1.7411	0.9559
2.2474	1.4338	2.512	2.8363	1.8634	2.7339	2.8733	2.0853	2.9956	2.9729	2.0625	2.8164	3.0895	0.1109	2.4921	1.192	-0.2219	1.9971	1.0583	1.7439	1.0441
2.31	1.4196	2.5774	2.8904	1.8719	2.7908	2.9245	2.1365	3.0668	3.0497	2.1393	2.8932	3.1692	0.0683	2.5291	1.3513	-0.1223	1.9743	1.0896	1.7496	1.0896
2.3954	1.4509	2.6628	2.9615	1.889	2.8705	2.9899	2.1706	3.1692	3.1037	2.2275	3.0013	3.2403	0.0256	2.5917	1.5192	-0.0284	1.963	1.1266	1.7439	1.1379
2.4665	1.4566	2.7339	3.0156	1.9117	2.9473	3.0326	2.1991	3.2261	3.1464	2.293	3.0895	3.32	-0.0114	2.6286	1.7041	0.0313	1.926	1.1664	1.7325	1.2062
2.5035	1.448	2.751	3.0611	1.8947	2.9757	3.0326	2.2076	3.2744	3.1692	2.3356	3.1293	3.3171	-0.0711	2.6286	1.8605	0.1337	1.8805	1.1607	1.6898	1.2688
2.5547	1.4623	2.7709	3.0639	1.8719	2.9729	3.0383	2.2048	3.2801	3.1777	2.3698	3.1635	3.3342	-0.0853	2.6429	2.0682	0.1991	1.8662	1.1892	1.687	1.3143
2.5689	1.4879	2.8136	3.1066	1.8634	2.97	3.0355	2.1991	3.3114	3.1578	2.4124	3.2033	3.3427	-0.1138	2.6685	2.2986	0.239	1.8179	1.2005	1.6472	1.3997
2.5774	1.5049	2.8079	3.0668	1.8236	2.9643	3.0013	2.1564	3.2801	3.1123	2.4096	3.1862	3.3143	-0.1337	2.6372	2.5262	0.2902	1.7723	1.1806	1.6216	1.4395
2.6173	1.5163	2.7794	3.0497	1.7923	2.9245	2.953	2.1336	3.2517	3.0668	2.4551	3.1948	3.3114	-0.1479	2.6543	2.7311	0.3215	1.7268	1.1863	1.5874	1.485
2.6173	1.5334	2.7794	3.0013	1.7581	2.879	2.8505	2.1109	3.2118	2.9899	2.421	3.1635	3.2545	-0.1906	2.6286	2.9444	0.3755	1.6642	1.192	1.5277	1.5163
2.6372	1.5789	2.7794	2.953	1.7581	2.842	2.7937	2.0597	3.1635	2.9274	2.4295	3.1379	3.1806	-0.1991	2.5917	3.1663	0.3869	1.5931	1.1977	1.4793	1.5732
2.6543	1.613	2.751	2.9074	1.7297	2.8079	2.7112	2.0369	3.118	2.8449	2.421	3.1151	3.1521	-0.1963	2.5177	3.3342	0.3869	1.5362	1.2091	1.4224	1.559
2.6258	1.6358	2.6941	2.8022	1.7154	2.7311	2.5945	1.9743	3.0298	2.7424	2.3783	3.0582	3.0355	-0.202	2.3811	3.4281	0.4011	1.4594	1.1835	1.357	1.5789
2.5945	1.6842	2.6457	2.714	1.6813	2.6599	2.4921	1.9345	2.9899	2.6173	2.3242	2.9985	2.9587	-0.1963	2.2275	3.4878	0.3983	1.3883	1.1607	1.2859	1.5931
2.5689	1.6955	2.586	2.5831	1.6586	2.5803	2.3641	1.8548	2.8818	2.5092	2.2674	2.916	2.8306	-0.1735	2.0369	3.502	0.3499	1.266	1.1266	1.2005	1.5846
2.4807	1.6699	2.4807	2.4238	1.5704	2.4494	2.2105	1.7553	2.7538	2.3413	2.145	2.7766	2.6628	-0.1479	1.8264	3.4224	0.3101	1.1749	1.0498	1.0924	1.5305
2.4124	1.6529	2.3954	2.2816	1.5248	2.347	2.0398	1.6642	2.623	2.1877	2.0682	2.6685	2.5149	-0.1337	1.5732	3.3057	0.2475	1.0611	0.9985	1.0185	1.4822
2.2986	1.5846	2.2617	2.1024	1.431	2.2133	1.8662	1.5504	2.4722	2.0028	1.9459	2.5376	2.3612	-0.1024	1.3456	3.1265	0.1878	0.9189	0.9303	0.8762	1.4196
2.1507	1.5362	2.1109	1.8975	1.3428	2.0483	1.6813	1.4224	2.31	1.8179	1.8093	2.3925	2.1849	-0.0626	1.1095	2.879	0.1394	0.7653	0.8364	0.7624	1.3229
2.0398	1.4423	1.9601	1.6898	1.246	1.8861	1.4765	1.3115	2.1706	1.6529	1.7098	2.2645	1.9999	-0.0427	0.8591	2.5803	0.0654	0.6116	0.7766	0.6116	1.2773
1.8406	1.3542	1.8008	1.4879	1.1379	1.7211	1.2717	1.1522	1.9942	1.4196	1.559	2.0938	1.7951	0.0057	0.6316	2.2446	0.0057	0.458	0.6572	0.4523	1.1635
1.6329	1.2546	1.6273	1.2404	1.0071	1.5163	1.0441	1.0042	1.778	1.2034	1.394	1.889	1.559	0.0028	0.4125	1.8435	-0.0142	0.276	0.5718	0.2816	1.0697
1.4452	1.1266	1.4253	0.9929	0.9104	1.32	0.8222	0.8734	1.5817	0.99	1.2176	1.7012	1.3456	0.0313	0.2134	1.4395	-0.0512	0.0967	0.4751	0.1024	0.9758
1.2233	1.0185	1.246	0.7596	0.7937	1.1095	0.5718	0.7539	1.4111	0.7482	1.0924	1.522	1.118	0.0228	0.0057	1.0042	-0.0427	-0.0825	0.4125	-0.0853	0.8791
1.0099	0.9246	1.0583	0.5348	0.6714	0.9274	0.3784	0.6003	1.229	0.5604	0.9559	1.3285	0.9104	0.0228	-0.1536	0.623	-0.0313	-0.2503	0.3272	-0.2646	0.788
0.8165	0.8051	0.8762	0.3215	0.6003	0.7567	0.1878	0.5092	1.0355	0.3556	0.825	1.1664	0.7112	0	-0.3016	0.2333	-0.0028	-0.3954	0.256	-0.4153	0.7197
0.6259	0.7397	0.7197	0.1081	0.5235	0.5832	0.0028	0.4239	0.9018	0.1821	0.7482	1.0128	0.5291	-0.0256	-0.4011	-0.1109	0.0398	-0.532	0.1991	-0.5832	0.6572
0.4466	0.6515	0.5491	-0.0683	0.458	0.4097	-0.1821	0.3272	0.7397	0.0171	0.6316	0.8563	0.3499	-0.0654	-0.4779	-0.404	0.1223	-0.6629	0.1764	-0.7283	0.586
0.3044	0.5974	0.4324	-0.2418	0.4068	0.2845	-0.3528	0.2873	0.6401	-0.1451	0.569	0.6998	0.1593	-0.1138	-0.5291	-0.6372	0.2219	-0.7624	0.128	-0.8563	0.5377
0.1935	0.5576	0.2959	-0.3983	0.4011	0.1906	-0.4751	0.2304	0.5178	-0.2788	0.5121	0.5917	0.0341	-0.1678	-0.5547	-0.8364	0.3186	-0.862	0.1252	-0.99	0.5092
0.128	0.5434	0.2361	-0.5206	0.4182	0.0939	-0.569	0.2219	0.441	-0.3897	0.4865	0.4722	-0.1081	-0.2191	-0.4893	-0.9416	0.4296	-0.9246	0.1366	-1.0924	0.4893
0.0711	0.5178	0.1707	-0.606	0.404	0.0284	-0.6685	0.2333	0.3841	-0.4722	0.4893	0.4068	-0.1792	-0.2703	-0.441	-1.0298	0.5291	-0.9843	0.1593	-1.1664	0.4979
0.0284	0.5291	0.1166	-0.6941	0.421	-0.037	-0.7653	0.256	0.3471	-0.5519	0.4836	0.3243	-0.293	-0.3158	-0.3727	-1.0668	0.6401	-1.0355	0.1508	-1.2517	0.5007
-0.0028	0.5291	0.0797	-0.7653	0.458	-0.0768	-0.8193	0.2503	0.2731	-0.6429	0.4922	0.239	-0.3812	-0.367	-0.2646	-1.0867	0.734	-1.1123	0.1878	-1.3115	0.5121
-0.0313	0.5092	0.0427	-0.8591	0.4779	-0.1195	-0.8848	0.2902	0.2333	-0.7169	0.5007	0.1849	-0.4779	-0.4153	-0.1735	-1.0725	0.8193	-1.1522	0.2162	-1.394	0.5291
0.0114	0.5434	0.037	-0.8876	0.5348	-0.1166	-0.9132	0.3243	0.2077	-0.7425	0.5206	0.1593	-0.5348	-0.4381	-0.0512	-1.0128	0.8762	-1.1721	0.2617	-1.4281	0.5121
0.0057	0.5462	0.0256	-0.9445	0.5661	-0.1024	-0.9445	0.3755	0.1849	-0.7909	0.5291	0.0967	-0.6316	-0.4751	0.0313	-0.9473	0.9246	-1.2148	0.293	-1.4623	0.5263
0.0085	0.5405	0.0171	-0.9445	0.5946	-0.1252	-0.9701	0.3954	0.1735	-0.8307	0.5576	0.037	-0.6998	-0.4751	0.1536	-0.8762	0.9559	-1.2517	0.3357	-1.5049	0.5291
0.037	0.5917	0.0427	-0.953	0.6657	-0.1166	-0.9957	0.4552	0.1678	-0.862	0.5747	0.0142	-0.7596	-0.5007	0.239	-0.7425	0.9843	-1.266	0.3698	-1.5135	0.5405
0.0313	0.6031	0.0455	-0.9729	0.6685	-0.1053	-0.9957	0.4637	0.1081	-0.9018	0.5718	-0.0427	-0.8421	-0.5092	0.3272	-0.6572	0.9985	-1.3029	0.3954	-1.5049	0.5434
0.0626	0.6401	0.0541	-0.953	0.7254	-0.0882	-0.9815	0.4979	0.0882	-0.9246	0.5946	-0.0711	-0.9104	-0.5348	0.4068	-0.5405	1.027	-1.3342	0.4239	-1.5391	0.5405
0.0853	0.6657	0.0683	-0.9388	0.7283	-0.1081	-1.0042	0.5405	0.0768	-0.9416	0.606	-0.1024	-0.9416	-0.532	0.4609	-0.4495	1.0355	-1.3456	0.458	-1.522	0.5206
0.1195	0.7311	0.0825	-0.9104	0.7937	-0.0825	-0.9644	0.5889	0.0569	-0.9331	0.6116	-0.1195	-0.99	-0.5405	0.5035	-0.3186	1.0526	-1.3513	0.4808	-1.4879	0.5576
0.1422	0.7738	0.1309	-0.8819	0.8136	-0.0597	-0.9331	0.6287	0.0569	-0.9189	0.6458	-0.1422	-1.0042	-0.5348	0.5519	-0.1821	1.0554	-1.3456	0.5235	-1.4793	0.5547
0.1622	0.7937	0.1451	-0.8591	0.8279	-0.0398	-0.9274	0.623	0.0057	-0.9274	0.606	-0.1849	-1.0725	-0.5434	0.569	-0.0398	1.0668	-1.3285	0.5377	-1.4566	0.5377
0.2247	0.8591	0.1821	-0.8165	0.8478	-0.0199	-0.8563	0.6742	0.0199	-0.9132	0.6173	-0.1878	-1.0725	-0.5491	0.6145	0.1195	1.0725	-1.3229	0.5718	-1.4139	0.5206
0.2788	0.8791	0.2105	-0.7454	0.8933	-0.0057	-0.8165	0.6799	-0.0142	-0.8705	0.5804	-0.2105	-1.0782	-0.5405	0.6003	0.2902	1.0583	-1.2603	0.5775	-1.3598	0.5348
0.2902	0.9075	0.2333	-0.6998	0.9018	0.0199	-0.7596	0.6856	-0.0341	-0.8506	0.569	-0.2247	-1.0782	-0.5348	0.6116	0.4353	1.064	-1.2204	0.5889	-1.283	0.5149
0.3243	0.9132	0.2617	-0.6287	0.8904	0.0085	-0.7169	0.6657	-0.074	-0.8478	0.5121	-0.2646	-1.0839	-0.5263	0.5547	0.6145	1.0469	-1.1835	0.5718	-1.2688	0.4552
0.3328	0.8876	0.2219	-0.6173	0.8222	-0.0256	-0.697	0.6316	-0.1223	-0.8478	0.4666	-0.3101	-1.1209	-0.5178	0.495	0.7112	1.0384	-1.1493	0.5462	-1.2119	0.421
0.3243	0.8449	0.1821	-0.6173	0.7738	-0.0683	-0.6885	0.5775	-0.1935	-0.8591	0.3727	-0.3841	-1.1579	-0.5178	0.3812	0.7681	1.0185	-1.1209	0.5064	-1.1692	0.3328
0.2447	0.7482	0.1166	-0.606	0.6885	-0.1309	-0.6799	0.4523	-0.3072	-0.8591	0.2304	-0.4694	-1.2005	-0.4865	0.2134	0.7766	0.9701	-1.1209	0.4153	-1.1152	0.2333
0.1366	0.6202	0.0256	-0.6173	0.5291	-0.2276	-0.7311	0.3528	-0.404	-0.899	0.1109	-0.586	-1.266	-0.458	0.0142	0.6913	0.8876	-1.0953	0.3101	-1.101	0.1166
0.0313	0.4694	-0.0853	-0.6259	0.3755	-0.3158	-0.734	0.2191	-0.5519	-0.9701	-0.0484	-0.7027	-1.3342	-0.404	-0.2105	0.623	0.7966	-1.0725	0.1849	-1.0839	0.0114
-0.1252	0.2646	-0.2162	-0.6515	0.2048	-0.4523	-0.7567	0.0569	-0.6742	-0.9929	-0.2191	-0.8335	-1.394	-0.3357	-0.4267	0.4296	0.6629	-1.0526	0.0341	-1.0384	-0.1508
-0.3072	0.0484	-0.3926	-0.7311	-0.0171	-0.5974	-0.8307	-0.1337	-0.8705	-1.0839	-0.421	-1.0071	-1.485	-0.2646	-0.6543	0.2475	0.5348	-1.0668	-0.1053	-1.0042	-0.3556
-0.5064	-0.1935	-0.5804	-0.7823	-0.2418	-0.7397	-0.8848	-0.3158	-1.0441	-1.1635	-0.6401	-1.1493	-1.5732	-0.1878	-0.8535	0.0654	0.3613	-1.0526	-0.2731	-0.953	-0.5434
-0.6913	-0.4011	-0.734	-0.8335	-0.4609	-0.9047	-0.9217	-0.5434	-1.2375	-1.2091	-0.8279	-1.3285	-1.6557	-0.0967	-1.0384	-0.1337	0.2077	-1.064	-0.4694	-0.9132	-0.6998
-0.8819	-0.6458	-0.899	-0.8791	-0.6742	-1.0583	-0.9758	-0.734	-1.3997	-1.2773	-1.0469	-1.4822	-1.7354	-0.0057	-1.1493	-0.3158	0.0284	-1.0355	-0.6372	-0.8535	-0.8791
-1.0469	-0.8648	-1.064	-0.9473	-0.899	-1.1977	-1.0128	-0.9388	-1.5504	-1.357	-1.2802	-1.6301	-1.8036	0.0626	-1.2318	-0.4466	-0.1337	-1.0128	-0.7795	-0.7909	-1.0754
-1.1607	-1.081	-1.2261	-0.9587	-1.1123	-1.3285	-1.0754	-1.1237	-1.7439	-1.4111	-1.4765	-1.798	-1.9004	0.1479	-1.2859	-0.5804	-0.2902	-1.0099	-0.953	-0.7368	-1.2517
-1.3029	-1.283	-1.3542	-0.9729	-1.3058	-1.4708	-1.1152	-1.3285	-1.9004	-1.448	-1.6671	-1.9601	-1.9573	0.2191	-1.3086	-0.6828	-0.421	-1.0099	-1.0981	-0.6913	-1.4338
-1.3968	-1.4423	-1.5078	-0.99	-1.4708	-1.5391	-1.1237	-1.4879	-2.0312	-1.5277	-1.8577	-2.1024	-2.0284	0.2845	-1.32	-0.7738	-0.5633	-0.9758	-1.2375	-0.6401	-1.5647
-1.4936	-1.5476	-1.5732	-0.9786	-1.6244	-1.6472	-1.155	-1.6358	-2.1393	-1.5305	-2.0085	-2.219	-2.0511	0.3556	-1.3029	-0.8421	-0.6742	-0.953	-1.3428	-0.5917	-1.7041
-1.5504	-1.6927	-1.6728	-0.9729	-1.7695	-1.7325	-1.1892	-1.7667	-2.273	-1.6102	-2.145	-2.3612	-2.1166	0.3983	-1.3399	-0.9246	-0.7795	-0.9331	-1.4566	-0.5491	-1.8406
-1.6301	-1.8008	-1.7553	-0.9616	-1.852	-1.8036	-1.2148	-1.8776	-2.3669	-1.6329	-2.2702	-2.4608	-2.1479	0.4381	-1.3371	-0.9872	-0.8677	-0.8904	-1.5448	-0.5178	-1.9288
-1.6443	-1.8975	-1.8378	-0.9274	-1.9658	-1.8776	-1.229	-1.963	-2.4722	-1.6329	-2.3669	-2.5746	-2.1706	0.4922	-1.3542	-1.064	-0.9786	-0.8705	-1.5846	-0.4808	-2.0085
-1.7098	-2.0056	-1.9174	-0.9644	-2.0881	-1.9772	-1.246	-2.108	-2.5945	-1.6671	-2.4722	-2.6628	-2.1991	0.5263	-1.4054	-1.192	-1.0441	-0.8421	-1.6614	-0.4466	-2.0796
-1.7297	-2.0682	-1.9942	-0.9644	-2.1621	-2.0341	-1.2944	-2.1592	-2.6685	-1.7154	-2.549	-2.7624	-2.2133	0.5576	-1.4196	-1.3029	-1.118	-0.7994	-1.6955	-0.4239	-2.128
-1.7837	-2.1536	-2.0682	-0.99	-2.219	-2.0938	-1.3001	-2.256	-2.7624	-1.7211	-2.6258	-2.8136	-2.2304	0.5917	-1.4736	-1.3854	-1.1635	-0.7624	-1.7211	-0.3698	-2.145
-1.7923	-2.1649	-2.0938	-1.0099	-2.256	-2.1621	-1.3143	-2.2759	-2.7908	-1.7382	-2.6514	-2.8534	-2.219	0.606	-1.4964	-1.4651	-1.192	-0.6913	-1.7126	-0.3357	-2.1479
-1.8321	-2.219	-2.1564	-1.0185	-2.31	-2.1735	-1.3371	-2.3271	-2.8676	-1.7439	-2.6998	-2.9046	-2.1991	0.5974	-1.5049	-1.5618	-1.1806	-0.606	-1.6728	-0.2816	-2.1365
-1.8605	-2.2332	-2.2133	-1.0554	-2.3299	-2.2361	-1.357	-2.3328	-2.8989	-1.7268	-2.714	-2.9387	-2.1877	0.5775	-1.4822	-1.6244	-1.1465	-0.5462	-1.6699	-0.2333	-2.0967
-1.8805	-2.2304	-2.2332	-1.064	-2.3043	-2.256	-1.3684	-2.3242	-2.8875	-1.7041	-2.6571	-2.9188	-2.1137	0.5604	-1.448	-1.6557	-1.1067	-0.4722	-1.6017	-0.1536	-2.0455
-1.9345	-2.2275	-2.2759	-1.1209	-2.3043	-2.2958	-1.394	-2.3214	-2.8904	-1.7069	-2.6543	-2.9131	-2.0767	0.5235	-1.3911	-1.6728	-1.0384	-0.367	-1.5504	-0.1109	-2.0142
-1.9715	-2.1905	-2.3072	-1.155	-2.273	-2.293	-1.3911	-2.293	-2.8904	-1.687	-2.5974	-2.8847	-2.017	0.4979	-1.3371	-1.6813	-0.9673	-0.256	-1.4679	-0.0569	-1.9089
-2.0455	-2.1592	-2.3299	-1.246	-2.2531	-2.3129	-1.4082	-2.2332	-2.8505	-1.6415	-2.5433	-2.8392	-1.9658	0.441	-1.2859	-1.6785	-0.8677	-0.1821	-1.3769	-0.0057	-1.8036
-2.0739	-2.1194	-2.3527	-1.3172	-2.1962	-2.293	-1.4082	-2.182	-2.8022	-1.5846	-2.458	-2.7481	-1.8577	0.3954	-1.2432	-1.6671	-0.7823	-0.0825	-1.2802	0.0484	-1.6955
-2.1336	-2.091	-2.3584	-1.3741	-2.1592	-2.2816	-1.3997	-2.1336	-2.7794	-1.559	-2.3783	-2.6685	-1.7837	0.3471	-1.2119	-1.724	-0.6771	-0.0028	-1.1778	0.1223	-1.5931
-2.182	-2.0483	-2.3669	-1.448	-2.0711	-2.2787	-1.3911	-2.0483	-2.6884	-1.4992	-2.293	-2.5661	-1.6756	0.3044	-1.192	-1.7837	-0.6031	0.074	-1.0611	0.165	-1.4793
-2.2361	-2.0028	-2.3954	-1.5277	-2.0227	-2.2674	-1.4082	-1.9886	-2.6059	-1.4423	-2.1763	-2.4636	-1.5903	0.2731	-1.2034	-1.8776	-0.5121	0.1366	-0.9502	0.202	-1.3229
-2.2816	-1.9573	-2.3925	-1.5931	-1.9601	-2.2076	-1.3883	-1.8947	-2.4893	-1.3968	-2.054	-2.3328	-1.4736	0.2247	-1.2546	-2.0369	-0.4324	0.2048	-0.8677	0.2788	-1.1892
-2.3356	-1.9288	-2.3868	-1.6728	-1.9061	-2.1735	-1.3712	-1.8292	-2.3982	-1.3143	-1.9516	-2.1991	-1.3684	0.1878	-1.3058	-2.1792	-0.3585	0.2304	-0.7653	0.3016	-1.0839
-2.347	-1.8548	-2.3584	-1.7154	-1.8378	-2.1052	-1.3314	-1.7268	-2.2844	-1.2347	-1.8264	-2.0739	-1.2574	0.165	-1.3428	-2.3043	-0.3272	0.2703	-0.6685	0.3385	-0.936
-2.3612	-1.8179	-2.3214	-1.761	-1.761	-2.0682	-1.2802	-1.6443	-2.1763	-1.1465	-1.7012	-1.9061	-1.1067	0.1451	-1.4509	-2.4523	-0.2987	0.3272	-0.5747	0.4011	-0.8222
-2.3299	-1.7723	-2.2759	-1.7581	-1.6756	-1.9715	-1.2091	-1.559	-2.0255	-1.0327	-1.5817	-1.7439	-0.9815	0.1479	-1.4822	-2.5319	-0.293	0.3954	-0.495	0.4552	-0.7141
-2.273	-1.6955	-2.1763	-1.7325	-1.5761	-1.8719	-1.1209	-1.4452	-1.8719	-0.916	-1.4594	-1.5761	-0.825	0.1593	-1.5049	-2.5035	-0.3215	0.421	-0.421	0.5064	-0.6173
-2.1934	-1.5931	-2.0824	-1.6756	-1.4907	-1.7439	-1.0298	-1.3485	-1.7183	-0.7937	-1.3399	-1.3997	-0.6856	0.1735	-1.5362	-2.4551	-0.3528	0.4552	-0.3869	0.569	-0.5263
-2.054	-1.4537	-1.9288	-1.5817	-1.3456	-1.6187	-0.8876	-1.229	-1.5362	-0.6771	-1.1948	-1.2062	-0.5092	0.1991	-1.522	-2.2702	-0.3897	0.5462	-0.3158	0.6543	-0.4466
-1.9174	-1.3115	-1.7752	-1.4708	-1.2261	-1.4395	-0.7539	-1.1095	-1.32	-0.5178	-1.064	-1.0128	-0.3471	0.2276	-1.4879	-2.0511	-0.441	0.6116	-0.2731	0.7311	-0.3641
-1.7268	-1.1607	-1.5704	-1.3257	-1.0583	-1.2603	-0.6088	-0.9729	-1.1323	-0.33	-0.916	-0.7937	-0.1451	0.2475	-1.4025	-1.7439	-0.5064	0.6885	-0.1991	0.8193	-0.2873
-1.4992	-0.9616	-1.3342	-1.1721	-0.8876	-1.0498	-0.404	-0.8023	-0.9104	-0.1451	-0.751	-0.5519	0.0484	0.2902	-1.283	-1.4111	-0.5804	0.7539	-0.1422	0.9189	-0.2276
-1.2802	-0.771	-1.1237	-0.9758	-0.734	-0.8449	-0.256	-0.6486	-0.6685	0.0228	-0.6088	-0.3613	0.2247	0.3272	-1.1806	-1.0924	-0.6344	0.8279	-0.1223	1.0355	-0.1337
-1.0583	-0.569	-0.8762	-0.771	-0.5576	-0.6486	-0.0484	-0.5092	-0.4722	0.2134	-0.4637	-0.1166	0.4324	0.3613	-1.0668	-0.7766	-0.6913	0.9047	-0.0853	1.1408	-0.0996
-0.7766	-0.3698	-0.6372	-0.5519	-0.3869	-0.4239	0.1138	-0.3585	-0.2304	0.3897	-0.2987	0.091	0.6202	0.3869	-0.9246	-0.4666	-0.751	1.0213	-0.0256	1.2489	-0.0256
-0.5235	-0.1508	-0.3841	-0.3044	-0.1935	-0.1935	0.3072	-0.1764	-0.0142	0.5747	-0.1337	0.33	0.8165	0.4125	-0.7994	-0.1508	-0.8193	1.1123	0.0256	1.3542	0.0654
-0.2447	0.1024	-0.1109	-0.0797	0.0199	0.0597	0.5092	-0.0114	0.2247	0.7681	0.0085	0.5775	1.0213	0.4324	-0.6259	0.1394	-0.8677	1.2091	0.091	1.4708	0.1366
0.0341	0.3186	0.1821	0.1963	0.2105	0.2873	0.7197	0.1991	0.4779	0.9559	0.202	0.8051	1.2318	0.4609	-0.4609	0.441	-0.9018	1.3172	0.1593	1.5732	0.2333
0.3044	0.5576	0.4353	0.4466	0.4239	0.5064	0.9018	0.3613	0.7112	1.1379	0.3869	1.0384	1.394	0.4779	-0.3158	0.6998	-0.9303	1.3911	0.2247	1.6756	0.33
0.5946	0.8222	0.7197	0.6714	0.6458	0.751	1.0867	0.5604	0.9701	1.3115	0.5604	1.2574	1.5874	0.4893	-0.1536	0.9786	-0.9502	1.5078	0.3328	1.7695	0.4153
0.8933	1.0554	0.9815	0.9217	0.862	0.9758	1.2802	0.751	1.1806	1.485	0.7482	1.4936	1.7951	0.495	0.0114	1.2176	-0.9872	1.5931	0.4637	1.8378	0.5491
1.1294	1.2631	1.2261	1.1379	1.0611	1.1948	1.431	0.9075	1.3997	1.6529	0.9104	1.6728	1.9601	0.5035	0.1593	1.4281	-0.9872	1.6529	0.5405	1.8975	0.6316
1.3513	1.4395	1.448	1.3314	1.2375	1.3513	1.5789	1.081	1.5789	1.761	1.0782	1.8662	2.091	0.5121	0.2703	1.5817	-1.0042	1.7354	0.6486	1.9373	0.734
1.559	1.6329	1.6358	1.4879	1.4139	1.5476	1.6927	1.2546	1.7866	1.9032	1.2347	2.0455	2.2332	0.5178	0.3528	1.6728	-1.0128	1.8036	0.7823	2.017	0.8705
1.7354	1.7866	1.798	1.6301	1.5704	1.7126	1.815	1.3826	1.9317	2.0113	1.3798	2.2076	2.3726	0.5206	0.4125	1.7524	-1.0071	1.8577	0.9075	2.0568	0.9985
1.8776	1.9345	1.9658	1.7553	1.7183	1.8435	1.8947	1.5305	2.1024	2.1109	1.5391	2.3698	2.4779	0.5092	0.4523	1.7211	-1.0014	1.9174	1.0298	2.0767	1.1323
1.9743	1.9999	2.0511	1.8349	1.8207	1.9573	1.9743	1.6529	2.2048	2.1735	1.65	2.5006	2.5831	0.4979	0.4324	1.6529	-0.9729	1.9715	1.1379	2.0967	1.2261
2.0483	2.0938	2.1621	1.9061	1.9317	2.0654	2.0142	1.7496	2.3242	2.2332	1.7695	2.6258	2.6941	0.4722	0.421	1.5334	-0.9303	2.017	1.2404	2.0938	1.3456
2.1336	2.1849	2.2076	1.9686	2.0426	2.145	2.0568	1.8805	2.458	2.293	1.8947	2.7453	2.7851	0.4694	0.4011	1.4025	-0.8819	2.0455	1.3627	2.1251	1.4566
2.1592	2.2389	2.2787	1.9971	2.1052	2.1962	2.0625	1.9686	2.5234	2.3242	2.0028	2.8534	2.8562	0.4267	0.3442	1.246	-0.825	2.0711	1.4623	2.1052	1.5817
2.1792	2.2674	2.2986	2.0142	2.2076	2.2531	2.0938	2.054	2.5974	2.3783	2.1194	2.97	2.9359	0.3897	0.2873	1.081	-0.7624	2.0796	1.5789	2.091	1.7041
2.1735	2.293	2.31	2.0255	2.273	2.273	2.0938	2.1365	2.6713	2.3954	2.2048	3.0412	2.9956	0.3499	0.2617	0.899	-0.6828	2.1024	1.6671	2.0625	1.7894
2.1735	2.2986	2.293	2.0085	2.3271	2.3157	2.0568	2.2218	2.7225	2.421	2.2787	3.1037	3.0127	0.3158	0.2191	0.7197	-0.6003	2.0625	1.7638	2.0056	1.8861
2.145	2.2873	2.2702	1.9971	2.347	2.3242	2.0511	2.2389	2.7368	2.4068	2.3698	3.1834	3.0668	0.2646	0.2219	0.5121	-0.5064	2.0284	1.8378	1.9402	1.98
2.108	2.2816	2.2588	1.9601	2.3755	2.3129	2.0085	2.2958	2.7737	2.3811	2.4153	3.2261	3.0525	0.2134	0.2077	0.2902	-0.4125	1.98	1.9174	1.8719	2.0597
2.0284	2.2105	2.1706	1.8918	2.3783	2.2617	1.9373	2.3157	2.7368	2.31	2.4238	3.2204	3.0156	0.165	0.1991	0.0768	-0.3101	1.9061	1.943	1.7524	2.1024
1.9886	2.182	2.1223	1.8321	2.3641	2.2361	1.889	2.3214	2.7282	2.2844	2.458	3.2318	3.0042	0.1024	0.2134	-0.1366	-0.2191	1.8435	1.9857	1.65	2.1422
1.9004	2.1536	2.0455	1.7723	2.3612	2.1962	1.798	2.3356	2.7112	2.1991	2.4779	3.2403	2.9729	0.0683	0.1991	-0.3499	-0.1138	1.7524	2.0085	1.522	2.1735
1.8548	2.091	2.0227	1.7098	2.3612	2.1592	1.7524	2.3669	2.6855	2.1479	2.4921	3.2261	2.9188	0.0199	0.1963	-0.4609	-0.0398	1.6671	2.054	1.4224	2.2076
1.7752	2.0767	1.9373	1.6472	2.3669	2.1365	1.687	2.3783	2.6457	2.0938	2.4665	3.2005	2.8392	-0.0284	0.2134	-0.5775	0.0683	1.5334	2.0796	1.2973	2.2304
1.7638	2.091	1.9203	1.6073	2.4039	2.1308	1.6273	2.3925	2.6486	2.0085	2.4836	3.1777	2.7851	-0.0825	0.2589	-0.6088	0.1451	1.4281	2.091	1.1721	2.2531
1.7439	2.1336	1.9231	1.5761	2.4437	2.1166	1.6216	2.4409	2.6429	1.9942	2.5063	3.1663	2.7424	-0.1138	0.3471	-0.5946	0.2134	1.3257	2.1592	1.0441	2.2816
1.7723	2.182	1.9402	1.5419	2.5205	2.145	1.6073	2.5063	2.6628	1.9601	2.5632	3.1862	2.6912	-0.1536	0.404	-0.5348	0.2959	1.2176	2.219	0.9473	2.3385
1.7923	2.2218	1.963	1.5163	2.5547	2.1393	1.5533	2.5433	2.6457	1.9089	2.5803	3.1606	2.6258	-0.202	0.4808	-0.4779	0.3926	1.0896	2.256	0.8335	2.3811
1.7894	2.3157	1.9715	1.4708	2.6372	2.1763	1.5277	2.6173	2.6998	1.8719	2.6201	3.1549	2.5831	-0.2447	0.5462	-0.404	0.4922	0.99	2.3043	0.697	2.4124
1.8321	2.4096	2.0028	1.4822	2.7197	2.2304	1.5106	2.7083	2.7254	1.8349	2.6941	3.209	2.5632	-0.2873	0.5832	-0.3328	0.569	0.899	2.3982	0.5946	2.4836
1.8435	2.4779	2.0654	1.4423	2.8249	2.2787	1.4992	2.7737	2.7737	1.815	2.7282	3.1976	2.5262	-0.3272	0.6088	-0.2503	0.6429	0.8307	2.4523	0.5206	2.512
1.8748	2.586	2.1137	1.4025	2.8932	2.3385	1.485	2.8505	2.7993	1.798	2.7993	3.2005	2.4722	-0.3698	0.6429	-0.1792	0.7197	0.7141	2.5092	0.4296	2.5718
1.8548	2.6457	2.1393	1.3542	2.9615	2.3925	1.4423	2.9188	2.8505	1.761	2.8505	3.2118	2.4437	-0.4097	0.6145	-0.1678	0.7994	0.623	2.5718	0.3499	2.6173
1.8548	2.6998	2.182	1.2973	3.0212	2.4437	1.4082	3.0013	2.9103	1.724	2.9018	3.2346	2.4068	-0.4438	0.5462	-0.1536	0.8762	0.5604	2.6116	0.2845	2.6713
1.8492	2.7737	2.2361	1.2375	3.118	2.4893	1.394	3.0781	2.9587	1.7041	2.9587	3.2289	2.3811	-0.4779	0.5149	-0.1593	0.9502	0.4922	2.6543	0.1963	2.7168
1.8605	2.8022	2.2417	1.155	3.1379	2.5461	1.3542	3.1322	3.0127	1.6842	3.0355	3.2943	2.384	-0.5121	0.4466	-0.2134	1.0327	0.458	2.7083	0.165	2.7823
1.8292	2.8335	2.2816	1.0867	3.1834	2.5917	1.3229	3.1919	3.0639	1.6785	3.1037	3.2943	2.3356	-0.5661	0.404	-0.256	1.1294	0.3841	2.7254	0.1109	2.8107
1.8036	2.8107	2.3299	1.0156	3.2431	2.6599	1.2887	3.2403	3.1009	1.6386	3.1436	3.3086	2.3214	-0.6116	0.3641	-0.3129	1.2005	0.3471	2.751	0.0683	2.8363
1.7894	2.8221	2.3612	0.9473	3.2659	2.6799	1.2432	3.283	3.1635	1.6159	3.1862	3.3313	2.3015	-0.6486	0.3585	-0.3585	1.266	0.3186	2.7737	0.0597	2.8705
1.7951	2.8534	2.4068	0.9104	3.2887	2.7567	1.2631	3.3171	3.2147	1.6329	3.2431	3.3512	2.3043	-0.6742	0.4011	-0.3954	1.32	0.2987	2.7937	0.0256	2.9046
1.7923	2.8164	2.4608	0.8705	3.3029	2.805	1.2176	3.3313	3.2517	1.5931	3.2574	3.3484	2.2702	-0.6998	0.458	-0.4125	1.3712	0.2475	2.8193	0	2.9018
1.778	2.8022	2.4807	0.8279	3.2858	2.842	1.1863	3.3456	3.2659	1.5504	3.2602	3.3143	2.2247	-0.7169	0.5462	-0.3983	1.4139	0.2333	2.7652	-0.0284	2.8733
1.7667	2.768	2.5035	0.7823	3.2716	2.8392	1.1522	3.3285	3.2773	1.5135	3.2858	3.2915	2.1763	-0.7397	0.7141	-0.3954	1.4509	0.1906	2.7339	-0.0512	2.8648
1.7581	2.7311	2.5376	0.7539	3.2318	2.8676	1.1209	3.3029	3.2744	1.4793	3.2517	3.2659	2.1393	-0.734	0.8421	-0.3385	1.4452	0.1565	2.7254	-0.0711	2.8335
1.761	2.7368	2.5661	0.7454	3.2175	2.8619	1.0896	3.2887	3.2574	1.448	3.2374	3.2204	2.0711	-0.734	1.0327	-0.3016	1.4423	0.0939	2.6799	-0.0996	2.7937
1.7439	2.6912	2.5888	0.7311	3.1976	2.8818	1.064	3.2574	3.2232	1.3627	3.209	3.1549	1.9658	-0.751	1.2631	-0.239	1.4423	0.0199	2.6315	-0.1479	2.7567
1.7667	2.6912	2.5974	0.6998	3.1549	2.8676	0.99	3.2232	3.1862	1.3172	3.1749	3.1094	1.8975	-0.7254	1.4566	-0.1735	1.4196	-0.0541	2.5974	-0.1935	2.7168
1.7695	2.6941	2.6116	0.7141	3.1265	2.8562	0.9587	3.1806	3.1493	1.2773	3.1493	3.0298	1.8236	-0.6998	1.6187	-0.1337	1.3826	-0.1223	2.5518	-0.2048	2.6799
1.7951	2.6912	2.6486	0.7169	3.1293	2.8363	0.899	3.135	3.1037	1.2119	3.0668	2.97	1.7268	-0.6828	1.8093	-0.0853	1.357	-0.1849	2.5177	-0.2646	2.6116
1.8349	2.7481	2.6628	0.734	3.1151	2.7993	0.8819	3.0952	3.0611	1.1379	3.0668	2.9018	1.65	-0.6714	2.0085	0.0057	1.3314	-0.2361	2.4864	-0.276	2.5945
1.9061	2.7453	2.6827	0.7567	3.1265	2.805	0.8392	3.0781	2.9928	1.0611	3.0269	2.8221	1.5761	-0.6572	2.1592	0.0597	1.2973	-0.3158	2.4693	-0.3129	2.5718
1.98	2.7908	2.7225	0.8193	3.1407	2.7908	0.8136	3.0468	2.97	1.0128	2.9786	2.7339	1.4822	-0.6543	2.2844	0.1166	1.3001	-0.3897	2.4295	-0.3414	2.5575
2.0625	2.8392	2.7595	0.8705	3.1663	2.7908	0.7766	3.0156	2.9046	0.9616	2.9416	2.6656	1.3997	-0.6572	2.4267	0.2503	1.2973	-0.4637	2.4437	-0.3499	2.5262
2.1592	2.8961	2.7737	0.9473	3.172	2.7538	0.7624	2.9729	2.8363	0.916	2.8932	2.5945	1.3257	-0.6372	2.5205	0.3414	1.2916	-0.5007	2.4324	-0.3841	2.4949
2.2674	2.9473	2.8221	0.9786	3.1692	2.7595	0.7197	2.9473	2.7709	0.8478	2.8363	2.4978	1.2233	-0.66	2.5774	0.4609	1.3029	-0.5747	2.4324	-0.4182	2.4921
2.3925	3.007	2.8363	1.0355	3.172	2.7339	0.7311	2.9018	2.7055	0.8051	2.7851	2.3925	1.1237	-0.6657	2.6315	0.6003	1.3143	-0.6515	2.4295	-0.441	2.4693
2.4807	3.0412	2.8733	1.081	3.1862	2.6799	0.6714	2.8505	2.5945	0.7197	2.7254	2.293	1.0128	-0.6657	2.6286	0.6828	1.3029	-0.7141	2.4295	-0.4666	2.4494
2.5547	3.0554	2.8505	1.1123	3.1606	2.6315	0.6401	2.768	2.4949	0.6543	2.6372	2.1592	0.9132	-0.6486	2.5831	0.7795	1.3058	-0.7738	2.4153	-0.4808	2.4153
2.6002	3.0525	2.8193	1.1351	3.1151	2.5575	0.5832	2.6884	2.3698	0.586	2.5661	2.0369	0.788	-0.6572	2.4978	0.8392	1.3257	-0.8307	2.4153	-0.5291	2.3698
2.6315	3.044	2.7794	1.1379	3.0554	2.4523	0.5291	2.5945	2.2531	0.4922	2.4409	1.852	0.6458	-0.6799	2.3527	0.8392	1.3456	-0.9104	2.3726	-0.5804	2.3299
2.6059	2.9587	2.6599	1.0924	2.9558	2.3186	0.4353	2.4949	2.091	0.3499	2.3129	1.7012	0.5121	-0.7055	2.2361	0.788	1.3968	-1.0042	2.3698	-0.6287	2.2901
2.5461	2.8875	2.5661	1.0213	2.8591	2.1934	0.3556	2.3527	1.9373	0.2589	2.1735	1.5334	0.367	-0.7141	2.0568	0.7283	1.4281	-1.0384	2.3328	-0.6856	2.2304
2.4466	2.7851	2.421	0.936	2.7168	2.0341	0.2219	2.219	1.7154	0.1053	2.0341	1.3314	0.1991	-0.7454	1.8548	0.586	1.4822	-1.118	2.2873	-0.7596	2.2019
2.3072	2.6457	2.2275	0.7909	2.5917	1.8463	0.0967	2.0511	1.5192	-0.0427	1.9117	1.1749	0.0484	-0.7738	1.6273	0.4267	1.5334	-1.1977	2.2617	-0.8108	2.1336
2.128	2.4779	2.0398	0.6629	2.3954	1.6443	-0.0484	1.8861	1.3058	-0.1878	1.7581	0.9644	-0.1366	-0.8079	1.4082	0.2788	1.5931	-1.2688	2.2019	-0.8961	2.0568
1.9146	2.3186	1.8236	0.4751	2.2332	1.4367	-0.202	1.7183	1.1095	-0.3528	1.6017	0.8023	-0.2845	-0.8449	1.1692	0.0597	1.6586	-1.3285	2.1934	-0.9786	2.0198
1.7126	2.0995	1.596	0.2788	2.0597	1.2489	-0.3357	1.5561	0.8933	-0.4979	1.4281	0.6116	-0.4267	-0.8591	0.9616	-0.1223	1.6955	-1.3655	2.1365	-0.9872	1.9573
1.4651	1.9089	1.3655	0.0654	1.8662	1.0412	-0.4893	1.3627	0.6771	-0.6486	1.2717	0.421	-0.5519	-0.8734	0.7397	-0.3044	1.724	-1.4167	2.0711	-1.081	1.889
1.2091	1.6785	1.101	-0.1764	1.6415	0.8108	-0.6657	1.1892	0.458	-0.8364	1.1123	0.2816	-0.6913	-0.899	0.5178	-0.4865	1.7524	-1.4509	2.0284	-1.1351	1.8264
0.9559	1.4623	0.8705	-0.3841	1.4253	0.5889	-0.8165	1.0156	0.2646	-0.9559	0.9473	0.1024	-0.8023	-0.8791	0.3328	-0.6429	1.7354	-1.431	1.9743	-1.1493	1.7667
0.7055	1.2517	0.6145	-0.6116	1.2261	0.3528	-1.0241	0.8165	0.0569	-1.0924	0.7937	-0.0711	-0.9075	-0.8904	0.1565	-0.7653	1.7382	-1.4281	1.8861	-1.1607	1.6813
0.4637	1.027	0.3727	-0.8449	1.0241	0.1764	-1.1408	0.6401	-0.1394	-1.2233	0.6372	-0.1935	-1.0014	-0.8591	0.0171	-0.8677	1.6927	-1.4167	1.8207	-1.1664	1.5903
0.1878	0.7852	0.1081	-1.0754	0.7766	-0.0569	-1.3172	0.441	-0.33	-1.3485	0.4722	-0.3613	-1.0924	-0.8364	-0.1394	-1.0071	1.6642	-1.4082	1.7439	-1.1664	1.5021
-0.0683	0.5633	-0.1053	-1.2859	0.5889	-0.2191	-1.4537	0.2788	-0.5149	-1.4395	0.3328	-0.5092	-1.1664	-0.8279	-0.2418	-1.0924	1.6273	-1.4054	1.6557	-1.155	1.4594
-0.293	0.3784	-0.3414	-1.4907	0.3784	-0.421	-1.5789	0.0939	-0.6941	-1.5334	0.1764	-0.6344	-1.2489	-0.8079	-0.3328	-1.1835	1.5988	-1.3542	1.5704	-1.1323	1.3598
-0.5121	0.1678	-0.5576	-1.6898	0.1991	-0.5889	-1.6699	-0.0683	-0.8392	-1.6102	0.0569	-0.7226	-1.2631	-0.7966	-0.4267	-1.2802	1.5675	-1.2887	1.5078	-1.1209	1.3086
-0.7596	-0.0085	-0.751	-1.8691	0.0057	-0.7454	-1.7866	-0.2475	-0.9957	-1.6472	-0.0768	-0.8563	-1.3285	-0.7909	-0.5007	-1.3769	1.5504	-1.2574	1.3997	-1.0896	1.2176
-0.9445	-0.1735	-0.9388	-2.0284	-0.1593	-0.8904	-1.8861	-0.3755	-1.1067	-1.7325	-0.1991	-0.953	-1.3513	-0.7823	-0.532	-1.4651	1.5305	-1.1806	1.3257	-1.064	1.1664
-1.1266	-0.3158	-1.1209	-2.1905	-0.3101	-1.0327	-1.9715	-0.4922	-1.1863	-1.7667	-0.293	-1.0071	-1.3513	-0.771	-0.5547	-1.5761	1.4964	-1.1123	1.2717	-1.0298	1.0896
-1.3485	-0.4523	-1.2773	-2.3242	-0.4609	-1.118	-1.9999	-0.6202	-1.2859	-1.7809	-0.3897	-1.0839	-1.357	-0.7454	-0.6173	-1.6614	1.4679	-1.0298	1.2091	-0.9701	1.0185
-1.5419	-0.6031	-1.4679	-2.4665	-0.5917	-1.2546	-2.1052	-0.7368	-1.3684	-1.8292	-0.4922	-1.1721	-1.3712	-0.7425	-0.6657	-1.8093	1.4679	-0.9701	1.0981	-0.953	0.953
-1.7354	-0.751	-1.6244	-2.603	-0.734	-1.3485	-2.1592	-0.8563	-1.4679	-1.8548	-0.5917	-1.246	-1.3854	-0.7368	-0.6998	-1.926	1.4623	-0.9075	1.0298	-0.9246	0.8791
-1.9459	-0.8876	-1.8065	-2.7368	-0.8762	-1.4509	-2.2133	-0.9473	-1.5561	-1.8691	-0.6657	-1.2973	-1.3854	-0.7311	-0.7766	-2.0654	1.4423	-0.8478	0.9701	-0.8933	0.8364
-2.145	-1.0327	-1.9544	-2.879	-1.0042	-1.5675	-2.273	-1.0526	-1.6187	-1.9117	-0.7539	-1.3598	-1.394	-0.7311	-0.8165	-2.1877	1.4423	-0.7909	0.8848	-0.8677	0.751
-2.3129	-1.1465	-2.091	-2.9871	-1.081	-1.6358	-2.2986	-1.1209	-1.6529	-1.8975	-0.8108	-1.3968	-1.3769	-0.7084	-0.8876	-2.3328	1.4082	-0.7112	0.8222	-0.8108	0.6998
-2.4665	-1.2233	-2.2076	-3.0468	-1.1778	-1.7069	-2.3442	-1.1721	-1.6955	-1.8861	-0.8364	-1.4139	-1.3513	-0.6913	-0.9416	-2.4636	1.3684	-0.6401	0.8023	-0.7823	0.6998
-2.6286	-1.3485	-2.3442	-3.1436	-1.2603	-1.7695	-2.3669	-1.2034	-1.724	-1.8805	-0.8762	-1.431	-1.3086	-0.6771	-1.0071	-2.6144	1.3399	-0.5519	0.7567	-0.7368	0.6913
-2.805	-1.4822	-2.4636	-3.2602	-1.3428	-1.8492	-2.3954	-1.2603	-1.7524	-1.8776	-0.9132	-1.4395	-1.266	-0.6572	-1.1038	-2.7766	1.3058	-0.4922	0.7084	-0.6714	0.6344
-2.9274	-1.5504	-2.5433	-3.3086	-1.4054	-1.889	-2.421	-1.2773	-1.761	-1.8548	-0.916	-1.4111	-1.2261	-0.6344	-1.2005	-2.9302	1.2546	-0.4097	0.6714	-0.6202	0.6429
-3.0554	-1.6472	-2.6343	-3.3313	-1.4281	-1.9117	-2.4096	-1.2859	-1.761	-1.8065	-0.8677	-1.3627	-1.1493	-0.6003	-1.2745	-3.0924	1.1948	-0.3357	0.6742	-0.5405	0.6572
-3.1436	-1.7524	-2.7368	-3.3968	-1.5049	-1.963	-2.4039	-1.2631	-1.7354	-1.7496	-0.8335	-1.32	-1.0754	-0.5576	-1.3485	-3.2631	1.1237	-0.2646	0.6429	-0.4808	0.6771
-3.2716	-1.8492	-2.7937	-3.411	-1.5305	-1.9914	-2.3982	-1.2489	-1.7211	-1.7069	-0.7823	-1.2375	-0.9872	-0.5434	-1.4253	-3.4394	1.0725	-0.1707	0.6685	-0.4097	0.6941
-3.3285	-1.8975	-2.8363	-3.3797	-1.5248	-1.9857	-2.3698	-1.2062	-1.6842	-1.6358	-0.697	-1.1266	-0.8734	-0.4893	-1.4594	-3.5589	0.9758	-0.0939	0.7112	-0.3328	0.7681
-3.4081	-1.9914	-2.879	-3.3939	-1.5362	-1.9743	-2.3214	-1.1579	-1.6415	-1.5647	-0.6003	-1.0298	-0.7681	-0.458	-1.5192	-3.7182	0.916	-0.0228	0.7027	-0.2361	0.8165
-3.4707	-2.0426	-2.9131	-3.3541	-1.5391	-1.9743	-2.3157	-1.1209	-1.613	-1.5049	-0.5235	-0.916	-0.6657	-0.4267	-1.5419	-3.8406	0.8421	0.0654	0.7454	-0.1565	0.8734
-3.5049	-2.0739	-2.933	-3.3057	-1.5533	-1.9715	-2.2702	-1.081	-1.5704	-1.4338	-0.4153	-0.8108	-0.569	-0.3983	-1.5846	-3.9401	0.8023	0.1394	0.7852	-0.0797	0.9388
-3.4935	-2.091	-2.9217	-3.2204	-1.4907	-1.9174	-2.2076	-0.9815	-1.4936	-1.3712	-0.2731	-0.6742	-0.4324	-0.3755	-1.5504	-3.9828	0.7368	0.2361	0.8222	0.0028	1.0384
-3.4878	-2.0312	-2.879	-3.1265	-1.4423	-1.8634	-2.1422	-0.8677	-1.4054	-1.2887	-0.1195	-0.4979	-0.2816	-0.3499	-1.5277	-4.0255	0.697	0.3528	0.8961	0.1109	1.1635
-3.4053	-1.9914	-2.8335	-3.007	-1.357	-1.798	-2.0597	-0.7425	-1.3285	-1.1892	0.0427	-0.3499	-0.1508	-0.3414	-1.5106	-3.9743	0.6714	0.3869	0.9729	0.1593	1.2574
-3.3228	-1.8947	-2.7282	-2.8505	-1.2631	-1.7325	-1.9743	-0.6088	-1.1977	-1.1095	0.1991	-0.1906	-0.0284	-0.3272	-1.4594	-3.9288	0.6515	0.4808	1.0583	0.2503	1.3854
-3.2033	-1.7951	-2.6429	-2.7112	-1.1408	-1.6415	-1.8691	-0.4666	-1.0981	-1.0014	0.4267	0.0199	0.1223	-0.3385	-1.4338	-3.8605	0.6714	0.5604	1.1465	0.2959	1.5135
-3.0156	-1.6386	-2.4921	-2.5205	-1.0185	-1.5362	-1.7866	-0.2959	-0.9758	-0.9047	0.6031	0.1878	0.2646	-0.3442	-1.4111	-3.7268	0.6828	0.6515	1.2603	0.3328	1.6785
-2.8449	-1.4793	-2.384	-2.347	-0.8677	-1.4281	-1.6842	-0.1735	-0.8933	-0.8051	0.7823	0.3385	0.3954	-0.3528	-1.4139	-3.5959	0.7169	0.7169	1.3371	0.3841	1.8207
-2.6742	-1.3229	-2.2588	-2.1706	-0.7226	-1.3371	-1.6045	0.0114	-0.7539	-0.697	0.9729	0.5235	0.532	-0.3784	-1.4623	-3.4195	0.7397	0.7937	1.448	0.4267	1.98
-2.4836	-1.1607	-2.1336	-2.0113	-0.5804	-1.246	-1.4936	0.1508	-0.6572	-0.6173	1.1607	0.6742	0.6685	-0.3897	-1.5106	-3.2545	0.7567	0.8392	1.5391	0.4609	2.108
-2.2844	-0.99	-1.9886	-1.852	-0.4495	-1.1465	-1.394	0.3072	-0.5491	-0.5405	1.3399	0.8506	0.8023	-0.3841	-1.596	-3.0497	0.771	0.8933	1.6329	0.4865	2.2417
-2.108	-0.8335	-1.8492	-1.6984	-0.3215	-1.0469	-1.3143	0.4609	-0.4324	-0.4353	1.522	0.9957	0.9075	-0.3954	-1.6699	-2.8932	0.7823	0.8933	1.724	0.5149	2.4039
-1.9914	-0.697	-1.7581	-1.5817	-0.2276	-1.0042	-1.246	0.5889	-0.367	-0.3784	1.6898	1.1209	1.0156	-0.4125	-1.7752	-2.7225	0.8051	0.9104	1.7866	0.5178	2.5376
-1.8378	-0.5633	-1.6273	-1.4452	-0.1252	-0.9388	-1.1721	0.7226	-0.256	-0.3186	1.8463	1.2631	1.1237	-0.404	-1.8605	-2.5518	0.7852	0.9047	1.8719	0.495	2.6827
-1.7467	-0.4523	-1.5789	-1.3854	-0.0228	-0.899	-1.1294	0.8421	-0.165	-0.2532	1.9971	1.394	1.2204	-0.3841	-1.9857	-2.4096	0.7738	0.9047	1.9373	0.4637	2.7937
-1.6642	-0.3357	-1.4992	-1.3172	0.0569	-0.8222	-1.0782	0.9758	-0.0797	-0.1878	2.1792	1.5192	1.2859	-0.3812	-2.0682	-2.2674	0.7624	0.8791	1.9971	0.4353	2.9245
-1.6102	-0.2902	-1.4736	-1.2631	0.1252	-0.788	-1.0241	1.0867	0.0028	-0.1309	2.3299	1.65	1.3883	-0.3755	-2.1507	-2.1934	0.7425	0.862	2.0739	0.4097	3.044
-1.5789	-0.2247	-1.4623	-1.2176	0.1991	-0.7624	-0.9929	1.1977	0.0797	-0.091	2.5035	1.7638	1.4765	-0.3641	-2.2702	-2.1308	0.7254	0.8222	2.1536	0.3556	3.1663
-1.5846	-0.1821	-1.4395	-1.2119	0.256	-0.7368	-0.9502	1.3143	0.1622	-0.0228	2.677	1.8975	1.5761	-0.3471	-2.3555	-2.0938	0.7112	0.8051	2.2275	0.2731	3.2915
-1.6187	-0.1935	-1.4907	-1.2489	0.2646	-0.7539	-0.9673	1.4281	0.2703	-0.0171	2.8306	2.0113	1.6557	-0.3528	-2.4779	-2.145	0.7055	0.7368	2.2873	0.1821	3.448
-1.7098	-0.1991	-1.5021	-1.2745	0.293	-0.7454	-0.9587	1.5021	0.3243	0.0284	3.007	2.1422	1.7581	-0.3585	-2.5433	-2.2417	0.7084	0.7197	2.384	0.1508	3.5845
-1.7496	-0.2105	-1.5533	-1.3229	0.3357	-0.7397	-0.9445	1.6017	0.4011	0.0541	3.1379	2.2702	1.8492	-0.3585	-2.6514	-2.3925	0.7169	0.7055	2.4665	0.0882	3.7211
-1.889	-0.2617	-1.6102	-1.4025	0.3328	-0.7681	-0.9388	1.7041	0.4666	0.074	3.3	2.3868	1.9317	-0.3698	-2.7595	-2.5831	0.7368	0.6941	2.5291	0.0398	3.8662
-1.9886	-0.3016	-1.6671	-1.4423	0.33	-0.7766	-0.9559	1.8065	0.5661	0.1337	3.4565	2.5092	2.0113	-0.3869	-2.8363	-2.7823	0.7567	0.6742	2.6059	-0.0284	4.0084
-2.0938	-0.3414	-1.7154	-1.5305	0.3613	-0.7653	-0.9388	1.8634	0.6401	0.1622	3.5959	2.6514	2.1251	-0.3897	-2.9217	-3.0212	0.771	0.6515	2.7026	-0.0683	4.145
-2.2019	-0.3641	-1.761	-1.6244	0.3841	-0.7681	-0.9303	1.9772	0.7567	0.2134	3.7723	2.805	2.2161	-0.3727	-2.97	-3.2118	0.751	0.697	2.7823	-0.0882	4.2929
-2.3129	-0.421	-1.8321	-1.6927	0.3897	-0.7738	-0.9246	2.0511	0.8392	0.2503	3.906	2.953	2.3299	-0.3784	-3.0212	-3.4167	0.751	0.6629	2.8534	-0.1252	4.4209
-2.3641	-0.4353	-1.8036	-1.7354	0.4552	-0.6885	-0.8848	2.1592	0.9729	0.3215	4.0425	3.0924	2.438	-0.3528	-3.044	-3.613	0.7055	0.7254	2.953	-0.1223	4.5632
-2.4324	-0.4609	-1.8065	-1.7837	0.4979	-0.6372	-0.8449	2.2816	1.0953	0.3841	4.1905	3.2403	2.5575	-0.3528	-3.0668	-3.8064	0.6771	0.7425	3.0184	-0.1309	4.6855
-2.5177	-0.4779	-1.8264	-1.8292	0.5604	-0.6031	-0.8222	2.3783	1.2091	0.4666	4.2929	3.3655	2.6599	-0.3101	-3.0668	-3.997	0.6316	0.7653	3.0781	-0.128	4.7822
-2.5405	-0.4438	-1.7467	-1.8292	0.6657	-0.4694	-0.7425	2.4921	1.3769	0.569	4.4494	3.5532	2.8249	-0.2873	-3.0497	-4.1364	0.569	0.8335	3.1862	-0.0825	4.8988
-2.5689	-0.4267	-1.6955	-1.8406	0.7368	-0.3556	-0.6458	2.6144	1.5305	0.6714	4.5774	3.7069	2.9501	-0.2731	-3.0298	-4.2531	0.5291	0.8819	3.2431	-0.0597	4.9899
-2.603	-0.3897	-1.6443	-1.8406	0.8563	-0.2276	-0.606	2.7197	1.6728	0.7653	4.6912	3.8719	3.0696	-0.256	-3.0412	-4.4238	0.5035	0.953	3.3029	-0.0114	5.0752
-2.6059	-0.3328	-1.5391	-1.8093	0.9957	-0.0797	-0.5035	2.8591	1.8805	0.8848	4.8078	4.0369	3.2062	-0.2447	-3.0156	-4.5404	0.4609	1.0583	3.3825	0.0256	5.1321
-2.5604	-0.2532	-1.4082	-1.761	1.1237	0.0967	-0.367	3.0099	2.0796	1.0298	4.9273	4.2218	3.3655	-0.2134	-3.0127	-4.6513	0.4182	1.1294	3.4679	0.1166	5.226
-2.5319	-0.1451	-1.2717	-1.7211	1.2973	0.3016	-0.3016	3.135	2.2446	1.1465	5.0269	4.3811	3.4906	-0.2361	-2.9928	-4.7851	0.4353	1.2034	3.5362	0.1479	5.2857
-2.4693	-0.0142	-1.118	-1.687	1.4537	0.495	-0.1821	3.3143	2.5063	1.266	5.1264	4.529	3.5931	-0.2333	-2.9387	-4.859	0.441	1.3001	3.6329	0.2162	5.3455
-2.3555	0.1195	-0.9274	-1.6045	1.6415	0.7027	-0.0711	3.4508	2.714	1.3826	5.2175	4.6912	3.7012	-0.256	-2.8875	-4.9017	0.4893	1.3542	3.7069	0.2503	5.3796
-2.2275	0.276	-0.7112	-1.4992	1.852	0.9559	0.0512	3.5987	2.933	1.4964	5.2914	4.8419	3.7922	-0.2902	-2.7908	-4.8732	0.5491	1.3741	3.7922	0.3215	5.4081
-2.0654	0.4836	-0.4808	-1.4025	2.0682	1.2204	0.1565	3.7524	3.1635	1.6273	5.4052	5.0013	3.8832	-0.3385	-2.6429	-4.7907	0.6316	1.4196	3.8889	0.3897	5.4479
-1.8662	0.6572	-0.2247	-1.3086	2.2816	1.448	0.293	3.9088	3.3854	1.7126	5.482	5.1094	3.9458	-0.3841	-2.4636	-4.6457	0.7397	1.4281	3.9629	0.4495	5.4621
-1.6273	0.899	0.0256	-1.1948	2.4949	1.6927	0.4068	4.0397	3.5902	1.8036	5.5475	5.2232	3.997	-0.4267	-2.2275	-4.4209	0.8535	1.4509	4.0369	0.5092	5.4735
-1.357	1.1351	0.3272	-1.0526	2.7538	1.9857	0.5235	4.2075	3.8178	1.9061	5.6072	5.3455	4.0397	-0.495	-1.943	-4.1506	0.9644	1.4395	4.1194	0.5747	5.4564
-1.0583	1.3798	0.6372	-0.8791	2.9843	2.2503	0.6742	4.3498	3.9942	2.0255	5.6641	5.428	4.0625	-0.5519	-1.6102	-3.8121	1.0896	1.4139	4.1876	0.6543	5.4536
-0.7425	1.65	0.9701	-0.7226	3.2147	2.5461	0.8165	4.4835	4.2189	2.1052	5.721	5.5304	4.0909	-0.6003	-1.2631	-3.4394	1.1863	1.3769	4.2644	0.7084	5.4223
-0.3869	1.8918	1.2944	-0.5263	3.4224	2.7965	0.9473	4.5944	4.3669	2.1991	5.7523	5.5901	4.0767	-0.6344	-0.8563	-3.0127	1.2859	1.3029	4.3213	0.751	5.3711
-0.0427	2.1934	1.6529	-0.3044	3.6613	3.0668	1.0953	4.7253	4.566	2.2873	5.758	5.6385	4.0539	-0.6885	-0.3926	-2.5035	1.3911	1.2176	4.3555	0.7425	5.3057
0.3755	2.5319	2.0426	-0.037	3.9174	3.3569	1.266	4.8875	4.7737	2.3811	5.7978	5.6869	4.034	-0.7254	0.0996	-1.9288	1.4623	1.1522	4.3868	0.7909	5.2545
0.8193	2.8904	2.4523	0.239	4.1905	3.6443	1.4651	5.0013	4.9472	2.475	5.8007	5.7295	4.0027	-0.771	0.6202	-1.32	1.5391	1.0754	4.4693	0.8535	5.2004
1.246	3.2232	2.8591	0.5178	4.4465	3.9401	1.6443	5.1378	5.1094	2.5689	5.832	5.7722	3.9572	-0.8165	1.1664	-0.6173	1.6159	0.9388	4.5091	0.8563	5.1378
1.7638	3.63	3.2744	0.8819	4.731	4.2417	1.8634	5.2573	5.2857	2.6799	5.8291	5.812	3.9259	-0.8307	1.7382	0.1252	1.6557	0.8535	4.5432	0.916	5.0582
2.2531	4.0369	3.7239	1.2574	5.0439	4.5603	2.0654	5.4081	5.4877	2.7908	5.8718	5.8462	3.8804	-0.8421	2.347	0.8791	1.6842	0.7368	4.603	0.9502	4.9643
2.788	4.4778	4.1848	1.6216	5.3426	4.8704	2.3157	5.5759	5.6613	2.8989	5.9031	5.8689	3.8178	-0.8677	2.9416	1.6586	1.6955	0.6173	4.6172	0.9729	4.8903
3.2915	4.9131	4.6485	2.0597	5.6385	5.2175	2.5575	5.684	5.8462	3.0269	5.8917	5.9059	3.7524	-0.8563	3.5162	2.4466	1.6984	0.5064	4.6314	1.0498	4.8107
3.8292	5.3569	5.0923	2.5092	5.9372	5.5418	2.8591	5.8832	6.0453	3.1749	5.9287	5.9543	3.7296	-0.8335	4.0681	3.2005	1.687	0.4011	4.6997	1.1067	4.6997
4.3896	5.8149	5.5788	2.9814	6.2786	5.8775	3.1094	6.0339	6.2189	3.3086	5.96	6.014	3.7069	-0.8279	4.6115	3.9344	1.6443	0.2788	4.7509	1.1522	4.6457
4.9159	6.2615	6.0368	3.4309	6.5716	6.1904	3.3939	6.1705	6.4066	3.4764	5.9827	6.0453	3.6756	-0.8023	5.0866	4.6257	1.6073	0.1821	4.7794	1.2204	4.5546
5.4536	6.7082	6.4948	3.8918	6.8732	6.5204	3.6756	6.3156	6.5944	3.6158	6.0226	6.0965	3.6699	-0.7681	5.5389	5.2914	1.5419	0.0882	4.8021	1.266	4.4693
5.9998	7.1605	6.9386	4.3612	7.1776	6.8419	3.9629	6.4777	6.7992	3.795	6.0396	6.1421	3.6699	-0.7311	5.9429	5.9059	1.4623	0.0199	4.859	1.3712	4.4238
6.4806	7.5474	7.3682	4.822	7.445	7.1463	4.236	6.6001	6.9358	3.9316	6.0539	6.1733	3.6471	-0.6941	6.2473	6.4436	1.3741	-0.0825	4.8277	1.4196	4.3441
6.9756	7.9286	7.7608	5.2516	7.701	7.4279	4.5176	6.7281	7.1292	4.0938	6.088	6.2416	3.6613	-0.6429	6.5204	6.9585	1.2631	-0.1536	4.8818	1.4679	4.2701
7.4336	8.2871	8.1505	5.6897	7.94	7.6982	4.8021	6.8277	7.2885	4.2872	6.1307	6.2758	3.6869	-0.5804	6.7423	7.3796	1.1635	-0.202	4.896	1.5277	4.2332
7.8376	8.6199	8.4862	6.0937	8.1761	7.977	5.0468	6.9642	7.4706	4.4494	6.1591	6.3298	3.6869	-0.5377	6.9187	7.7522	1.0554	-0.2617	4.9074	1.6159	4.1791
8.216	8.9158	8.7963	6.4635	8.3667	8.1903	5.2971	7.0553	7.5986	4.5973	6.1819	6.3981	3.7325	-0.4808	7.0496	8.0481	0.9673	-0.2845	4.9415	1.6984	4.1222
8.5545	9.1661	9.095	6.8049	8.5516	8.4151	5.5418	7.1804	7.7722	4.7594	6.2445	6.4692	3.7837	-0.4438	7.1178	8.2302	0.8791	-0.3072	4.9643	1.7667	4.1051
8.7991	9.3852	9.3397	7.1235	8.7081	8.6142	5.7665	7.2544	7.8916	4.8988	6.2729	6.5119	3.8377	-0.404	7.1548	8.361	0.8108	-0.3186	4.987	1.8492	4.108
9.0068	9.553	9.5502	7.4137	8.839	8.8162	5.9657	7.3597	8.031	5.0866	6.3156	6.6058	3.9231	-0.3812	7.1719	8.3923	0.7397	-0.3158	5.0212	1.9288	4.0881
9.169	9.6697	9.7095	7.6498	8.9471	8.93	6.1193	7.4308	8.1477	5.1976	6.3497	6.6371	3.9487	-0.3613	7.1235	8.3667	0.6998	-0.3414	5.0269	2.0113	4.1051
9.2771	9.7465	9.8347	7.8547	9.0154	9.0779	6.3042	7.4905	8.2444	5.3284	6.3696	6.6826	4.0084	-0.3414	7.0922	8.2302	0.6572	-0.3186	5.0667	2.0796	4.0824
9.2913	9.792	9.9143	7.9969	9.0666	9.1434	6.4351	7.519	8.3184	5.4251	6.4009	6.7281	4.0681	-0.3243	7.0296	8.0879	0.6486	-0.3328	5.0667	2.1649	4.0625
9.3198	9.792	9.9456	8.1022	9.0922	9.206	6.5147	7.5161	8.3781	5.5048	6.4066	6.7509	4.0909	-0.3385	6.9301	7.8689	0.6486	-0.3471	5.0667	2.2048	4.0482
9.26	9.7493	9.9314	8.1534	9.0523	9.2344	6.5716	7.5332	8.4094	5.5361	6.4152	6.7594	4.1165	-0.3471	6.8191	7.5787	0.6629	-0.3556	5.061	2.1991	4.0482
9.1804	9.6668	9.9143	8.1619	9.0438	9.2572	6.6001	7.5161	8.4379	5.5816	6.4265	6.7736	4.1592	-0.3528	6.7082	7.28	0.6913	-0.3556	5.061	2.2446	4.0283
9.0467	9.5559	9.8404	8.1363	8.9755	9.2259	6.6314	7.4934	8.4322	5.6015	6.3896	6.7281	4.162	-0.367	6.5915	6.9585	0.7197	-0.3812	5.0269	2.2588	4.0084
8.8845	9.4023	9.7209	8.0339	8.8873	9.1604	6.6001	7.4109	8.3838	5.5731	6.3526	6.7082	4.1819	-0.3869	6.4493	6.6427	0.7539	-0.3328	5.0126	2.2617	3.9885
8.6939	9.2401	9.5673	7.8717	8.7792	9.1092	6.5716	7.3625	8.3582	5.5788	6.3298	6.6826	4.1933	-0.4125	6.3099	6.3127	0.7937	-0.3414	4.9757	2.2588	3.9657
8.4635	9.041	9.3937	7.7238	8.6398	9.0068	6.5005	7.2857	8.307	5.5304	6.2843	6.6285	4.2047	-0.4239	6.1876	6.014	0.8136	-0.3272	4.9415	2.2588	3.9316
8.2472	8.8105	9.2173	7.5161	8.4862	8.8902	6.4408	7.1975	8.2245	5.4963	6.2473	6.6058	4.2303	-0.4182	6.051	5.7381	0.8307	-0.2617	4.8704	2.2873	3.9231
7.9571	8.5659	8.9898	7.2743	8.3212	8.765	6.3469	7.0922	8.1647	5.4365	6.1961	6.5688	4.2132	-0.4182	5.9059	5.4678	0.8335	-0.1906	4.8334	2.2986	3.8918
7.6897	8.2928	8.7565	7.024	8.1534	8.637	6.2473	6.9585	8.068	5.4166	6.1534	6.5147	4.2616	-0.441	5.7694	5.2061	0.8535	-0.128	4.7993	2.2986	3.8662
7.3767	8.0168	8.4947	6.7281	7.9514	8.4521	6.1193	6.8959	7.9969	5.3825	6.1108	6.4749	4.2673	-0.4353	5.6357	4.9728	0.8449	-0.0256	4.731	2.3043	3.8605
7.0666	7.7551	8.2558	6.4351	7.7722	8.2871	5.9799	6.7594	7.866	5.3085	6.0709	6.4237	4.3213	-0.421	5.5133	4.7822	0.8335	0.1109	4.6769	2.3612	3.8491
6.7167	7.4478	7.9457	6.0795	7.5389	8.1022	5.8263	6.6029	7.7323	5.2431	5.9742	6.3753	4.3384	-0.4381	5.3398	4.566	0.8506	0.2418	4.6001	2.4039	3.8349
6.3924	7.1378	7.6584	5.7523	7.3284	7.9059	5.6783	6.4806	7.6015	5.1748	5.9258	6.3327	4.364	-0.4353	5.2431	4.3982	0.8392	0.3897	4.5262	2.4324	3.815
6.0283	6.7736	7.3369	5.3939	7.0553	7.6697	5.4934	6.3071	7.4279	5.0809	5.8206	6.2558	4.3811	-0.4267	5.0895	4.1962	0.8535	0.5405	4.4238	2.4836	3.7979
5.6414	6.4664	6.9813	4.987	6.7935	7.4336	5.2857	6.1335	7.2487	4.9728	5.721	6.1591	4.3583	-0.441	4.9216	4.0255	0.8591	0.6856	4.3413	2.4949	3.7694
5.2431	6.125	6.6314	4.5944	6.5233	7.1776	5.0326	5.9486	7.0439	4.8391	5.5987	6.0396	4.3356	-0.421	4.7452	3.8349	0.8449	0.8079	4.2161	2.5234	3.7125
4.8903	5.795	6.29	4.2047	6.2473	6.8846	4.8306	5.7267	6.8191	4.7111	5.4365	5.9401	4.3128	-0.4125	4.5688	3.6756	0.8193	0.9189	4.1222	2.5575	3.667
4.5034	5.4365	5.9059	3.8292	5.9628	6.6001	4.5688	5.4934	6.5631	4.5375	5.2829	5.7893	4.2701	-0.4068	4.3868	3.502	0.7823	1.0213	3.9942	2.5291	3.6158
4.0938	5.0752	5.4991	3.3939	5.6527	6.2558	4.3071	5.2573	6.3042	4.3441	5.1236	5.6129	4.1905	-0.3841	4.1592	3.3256	0.7624	1.0782	3.832	2.5177	3.5362
3.7154	4.7282	5.1492	3.0412	5.354	5.9714	4.0425	4.9984	6.0226	4.2189	4.9358	5.4564	4.1165	-0.367	3.9544	3.1521	0.7112	1.1692	3.6926	2.5063	3.485
3.3655	4.3839	4.7481	2.6884	5.0525	5.6442	3.8121	4.7708	5.7523	4.0255	4.731	5.2801	4.0397	-0.3357	3.7666	2.97	0.6572	1.283	3.5447	2.4779	3.4281
3.007	4.0454	4.3782	2.3072	4.7282	5.3	3.5305	4.5091	5.4707	3.8263	4.5461	5.1037	3.9487	-0.3044	3.5219	2.7766	0.5974	1.3342	3.3626	2.4722	3.3114
2.6656	3.6955	3.997	1.9914	4.4152	4.9956	3.2858	4.2616	5.1776	3.6955	4.3384	4.9245	3.8662	-0.2703	3.283	2.586	0.5206	1.431	3.209	2.4466	3.2431
2.3328	3.4025	3.6613	1.687	4.1108	4.6627	3.0639	4.0454	4.9074	3.4906	4.1763	4.7623	3.8093	-0.2191	3.0326	2.3868	0.4296	1.5334	3.0867	2.438	3.1777
2.0227	3.1094	3.2887	1.4054	3.8292	4.3896	2.879	3.7865	4.6286	3.3484	3.9714	4.5944	3.7353	-0.1792	2.7993	2.1934	0.3471	1.6386	2.933	2.421	3.1037
1.724	2.8335	2.9843	1.1692	3.5475	4.0881	2.6571	3.5589	4.364	3.2005	3.8263	4.438	3.6898	-0.1366	2.5319	1.9658	0.2617	1.7325	2.8107	2.3783	3.0554
1.4736	2.5831	2.6742	0.9303	3.3	3.7922	2.4779	3.3399	4.1051	3.0639	3.6756	4.2957	3.6329	-0.091	2.273	1.7382	0.1707	1.8634	2.6827	2.4068	2.9956
1.2062	2.3442	2.3698	0.7624	3.0582	3.5305	2.3242	3.1464	3.8889	2.9473	3.539	4.1563	3.5959	-0.0512	2.0056	1.5248	0.0853	1.9743	2.6087	2.3925	2.9615
0.9559	2.128	2.091	0.5889	2.8022	3.2744	2.1536	2.9444	3.6386	2.8221	3.3626	4.0226	3.5646	-0.0142	1.7211	1.2574	0.0427	2.1024	2.475	2.4068	2.9131
0.7169	1.8947	1.8236	0.4125	2.5974	3.0042	1.98	2.7567	3.4195	2.7197	3.2716	3.9401	3.5447	0.0085	1.4537	1.0213	-0.0057	2.2247	2.4295	2.438	2.8961
0.5121	1.7439	1.5761	0.3272	2.384	2.7624	1.8805	2.5831	3.2147	2.623	3.1436	3.7894	3.5276	0.0284	1.2204	0.7653	-0.0341	2.3612	2.347	2.438	2.9018
0.3158	1.5561	1.3456	0.2219	2.1706	2.5291	1.7439	2.4267	3.0127	2.5461	3.0326	3.6784	3.4935	0.0171	0.9929	0.5121	-0.0398	2.458	2.2901	2.4722	2.9074
0.1508	1.4196	1.1579	0.165	2.0227	2.3299	1.6443	2.273	2.8164	2.475	2.953	3.6016	3.5049	-0.0028	0.8335	0.2788	-0.0142	2.5746	2.2958	2.4978	2.9359
0.0313	1.3086	0.9985	0.1109	1.8691	2.1564	1.559	2.1507	2.6685	2.384	2.8762	3.5077	3.4878	0.0114	0.7055	0.0853	-0.0028	2.6884	2.2674	2.5575	2.9814
-0.0967	1.2233	0.8421	0.091	1.7382	2.0056	1.4708	2.017	2.4893	2.3072	2.8221	3.411	3.4565	-0.0171	0.606	-0.1309	0.0313	2.7851	2.256	2.586	3.007
-0.1707	1.1294	0.6885	0.1081	1.6443	1.8179	1.4253	1.9317	2.3669	2.2417	2.7908	3.3512	3.4679	-0.0427	0.5633	-0.2731	0.0683	2.8534	2.2901	2.5974	3.0468
-0.256	1.0554	0.5718	0.1053	1.4992	1.6642	1.3598	1.8207	2.2105	2.1905	2.7083	3.2545	3.4337	-0.0654	0.5035	-0.4296	0.1252	2.9274	2.2389	2.6173	3.0753
-0.3158	0.9416	0.4466	0.1195	1.4025	1.5305	1.2802	1.7098	2.0654	2.1308	2.6656	3.172	3.411	-0.0825	0.458	-0.5263	0.165	2.9928	2.2645	2.623	3.1094
-0.3357	0.9047	0.367	0.1849	1.3058	1.4025	1.2432	1.65	1.9402	2.0711	2.6343	3.1151	3.3882	-0.1053	0.4495	-0.623	0.2219	3.0241	2.2645	2.6144	3.1293
-0.3784	0.8165	0.2959	0.2219	1.2148	1.283	1.1948	1.5618	1.8207	2.0142	2.6173	3.0412	3.3541	-0.1195	0.4552	-0.66	0.2475	3.0298	2.2474	2.5917	3.1891
-0.3755	0.771	0.2276	0.2788	1.1579	1.192	1.1721	1.5106	1.7325	1.9573	2.5974	2.9956	3.3256	-0.1394	0.4893	-0.6742	0.276	3.0781	2.2674	2.5632	3.2232
-0.3585	0.7681	0.1678	0.3442	1.0981	1.1294	1.1465	1.4907	1.6728	1.9373	2.6116	2.9729	3.3171	-0.1565	0.5547	-0.623	0.3072	3.1322	2.3214	2.549	3.2687
-0.3357	0.7226	0.1565	0.4068	1.0611	1.064	1.1436	1.4651	1.6187	1.9004	2.6315	2.9473	3.3171	-0.1906	0.5917	-0.5462	0.3613	3.1436	2.3413	2.5348	3.337
-0.2873	0.7254	0.1792	0.5007	1.0583	1.0441	1.1749	1.485	1.6017	1.9231	2.714	2.9985	3.3797	-0.2048	0.697	-0.4523	0.3897	3.2374	2.421	2.5518	3.4081
-0.2162	0.7653	0.1991	0.6145	1.0953	1.0583	1.1948	1.5334	1.6102	1.926	2.7823	3.0412	3.4281	-0.2247	0.8051	-0.3641	0.441	3.3143	2.4722	2.5888	3.5162
-0.1166	0.8791	0.2532	0.7112	1.1465	1.0896	1.2916	1.6159	1.6642	2.0341	2.8847	3.1322	3.5248	-0.256	0.8933	-0.1991	0.4779	3.4281	2.5575	2.6286	3.63
-0.0256	0.9189	0.3072	0.8364	1.1778	1.1266	1.3371	1.6927	1.7496	2.1052	2.9899	3.2232	3.6244	-0.2731	1.0042	-0.0455	0.5434	3.5191	2.6429	2.6742	3.7154
0.0768	0.9985	0.4068	0.953	1.2631	1.1806	1.4281	1.7923	1.8492	2.182	3.1322	3.32	3.7211	-0.2959	1.1209	0.1024	0.5804	3.6784	2.7282	2.7567	3.8434
0.1963	1.0896	0.4722	1.0498	1.3257	1.266	1.5192	1.9174	1.9516	2.3015	3.2545	3.4679	3.8832	-0.3072	1.2261	0.2788	0.6031	3.7922	2.8477	2.8221	3.9714
0.3158	1.1948	0.6003	1.192	1.4167	1.3598	1.6273	2.0369	2.0682	2.4153	3.3968	3.6244	4.0113	-0.3072	1.3342	0.4267	0.6145	3.9373	2.9473	2.9103	4.0909
0.404	1.2404	0.6515	1.266	1.5021	1.431	1.6671	2.128	2.1536	2.5006	3.5362	3.7438	4.1563	-0.3044	1.3854	0.5064	0.5946	4.0568	3.0326	2.97	4.1876
0.5149	1.2973	0.6885	1.32	1.5618	1.5049	1.7667	2.219	2.2702	2.5945	3.6443	3.8804	4.2787	-0.2646	1.4537	0.5747	0.5462	4.1791	3.0895	3.0355	4.2787
0.5405	1.3371	0.7539	1.357	1.5931	1.5533	1.815	2.2901	2.3356	2.6656	3.7268	3.9572	4.3526	-0.2447	1.4736	0.5633	0.4865	4.2644	3.1379	3.0924	4.3157
0.586	1.3314	0.7681	1.3997	1.6159	1.6102	1.8634	2.3584	2.4011	2.7453	3.815	4.0568	4.455	-0.202	1.4907	0.5206	0.4011	4.327	3.1777	3.118	4.3555
0.606	1.3399	0.8079	1.3883	1.6358	1.6614	1.889	2.384	2.4636	2.7823	3.8918	4.1535	4.5262	-0.1309	1.4566	0.4097	0.2646	4.3811	3.1777	3.1578	4.4095
0.5804	1.2802	0.788	1.3428	1.5903	1.7012	1.9117	2.4466	2.5348	2.8335	3.9657	4.2189	4.5831	-0.0797	1.3826	0.2418	0.1508	4.4095	3.2005	3.1578	4.4209
0.5519	1.2261	0.7795	1.3001	1.5761	1.7098	1.9317	2.458	2.5803	2.8705	4.0169	4.2872	4.6371	-0.0085	1.2773	0.0085	0.0171	4.4266	3.1919	3.1635	4.4294
0.5092	1.192	0.7852	1.2688	1.5817	1.7467	1.926	2.4864	2.6713	2.9302	4.0938	4.3782	4.7225	0.0569	1.1977	-0.1849	-0.128	4.4465	3.1919	3.1606	4.4494
0.4353	1.0981	0.7482	1.2091	1.5761	1.7866	1.9772	2.5319	2.7424	2.9899	4.1535	4.455	4.7907	0.1309	1.0782	-0.4722	-0.2788	4.475	3.2062	3.172	4.4579
0.3585	1.0526	0.7454	1.1607	1.5732	1.8406	1.9999	2.5774	2.8306	3.0042	4.2445	4.5688	4.8846	0.2048	0.9388	-0.7397	-0.4068	4.492	3.2232	3.1834	4.4807
0.2873	1.0014	0.7226	1.0953	1.559	1.9004	2.0056	2.6144	2.916	3.1009	4.3185	4.6826	4.9614	0.2816	0.771	-1.0071	-0.532	4.5205	3.209	3.1948	4.4977
0.2105	0.9872	0.771	1.064	1.5704	1.9857	2.0824	2.6742	3.0468	3.1777	4.4323	4.822	5.0667	0.3215	0.6714	-1.246	-0.6372	4.5575	3.2631	3.2147	4.5575
0.165	0.9786	0.8079	1.0554	1.6273	2.0824	2.1592	2.7709	3.1862	3.3086	4.5717	4.97	5.189	0.3641	0.5661	-1.4025	-0.7197	4.6058	3.3086	3.2773	4.6087
0.128	1.0014	0.8364	1.0526	1.6984	2.2218	2.256	2.9018	3.3598	3.4138	4.7111	5.1492	5.3256	0.3869	0.5206	-1.4936	-0.771	4.6485	3.3655	3.3114	4.694
0.1109	1.027	0.9274	1.0754	1.7951	2.3698	2.3555	3.0184	3.5675	3.5675	4.8476	5.3227	5.4849	0.4097	0.4779	-1.5647	-0.7994	4.7196	3.4224	3.3598	4.7452
0.0967	1.0953	1.0099	1.1237	1.8691	2.5035	2.4665	3.1379	3.7552	3.7069	4.987	5.5076	5.6442	0.4068	0.4637	-1.5533	-0.7966	4.7822	3.4906	3.4053	4.8476
0.1223	1.1635	1.0896	1.1977	1.9743	2.677	2.5803	3.2858	3.9714	3.8576	5.1606	5.7068	5.7893	0.3983	0.4836	-1.5448	-0.7766	4.8306	3.5703	3.485	4.9102
0.1138	1.2148	1.1635	1.2603	2.0881	2.8107	2.6713	3.4081	4.1848	3.9657	5.3028	5.8775	5.9031	0.3698	0.4865	-1.4679	-0.7283	4.8789	3.6272	3.5106	5.0155
0.1849	1.3285	1.3058	1.3598	2.2247	3.007	2.8022	3.539	4.3982	4.1222	5.482	6.0823	6.0652	0.3471	0.5633	-1.3627	-0.6856	4.9358	3.7296	3.5532	5.1236
0.1821	1.394	1.3627	1.4025	2.2901	3.1407	2.9103	3.6528	4.5831	4.2559	5.63	6.2701	6.1733	0.2845	0.586	-1.2688	-0.586	4.9614	3.8121	3.576	5.2004
0.2447	1.4594	1.4651	1.4964	2.4238	3.3057	3.007	3.778	4.7964	4.3669	5.7722	6.4379	6.2814	0.2304	0.6316	-1.1579	-0.4751	4.9643	3.8804	3.6073	5.2943
0.2959	1.5476	1.5732	1.5761	2.5063	3.4366	3.0867	3.9145	5.0013	4.4693	5.9401	6.6115	6.4095	0.1963	0.7084	-1.0099	-0.3727	5.024	3.943	3.6357	5.3882
0.3897	1.6472	1.6927	1.7154	2.6429	3.6158	3.2346	4.0596	5.2232	4.6087	6.1022	6.822	6.5631	0.1337	0.8307	-0.8335	-0.2674	5.0724	4.0596	3.6784	5.5446
0.4552	1.7098	1.8008	1.8093	2.7567	3.7495	3.3256	4.1933	5.4365	4.7253	6.2701	7.004	6.6456	0.0683	0.9616	-0.6458	-0.1252	5.1094	4.1478	3.7097	5.667
0.6202	1.8662	1.9743	1.9288	2.9131	3.9487	3.4565	4.3469	5.6584	4.8391	6.4493	7.1861	6.7708	0.0057	1.1408	-0.4011	0.0028	5.1549	4.2701	3.7552	5.8092
0.7454	1.9857	2.0767	2.0625	3.0582	4.071	3.5362	4.4977	5.8689	4.9415	6.6171	7.4023	6.8874	-0.0797	1.32	-0.1479	0.1479	5.1947	4.3982	3.795	5.9571
0.9104	2.1536	2.2645	2.2076	3.2232	4.2787	3.6812	4.6855	6.1136	5.0895	6.8191	7.6356	7.0325	-0.1422	1.5846	0.1821	0.276	5.2573	4.5461	3.8633	6.1335
1.0896	2.3555	2.4466	2.3726	3.4366	4.4807	3.8121	4.8619	6.3554	5.2374	7.0553	7.8518	7.1918	-0.2162	1.8292	0.5519	0.4097	5.3313	4.7082	3.9259	6.3241
1.2887	2.5205	2.623	2.5376	3.6215	4.6741	3.9515	5.0695	6.6171	5.3768	7.2572	8.0709	7.3255	-0.2703	2.0824	0.9018	0.5491	5.3939	4.8505	3.9714	6.5261
1.4879	2.7595	2.8249	2.6998	3.8377	4.8875	4.0909	5.2687	6.8618	5.5133	7.4535	8.2985	7.482	-0.3556	2.3669	1.3115	0.6856	5.4934	5.0553	4.0681	6.7338
1.7183	2.9814	3.0099	2.8705	4.0397	5.0724	4.2189	5.4849	7.115	5.6527	7.6783	8.509	7.6271	-0.404	2.623	1.724	0.788	5.5645	5.2089	4.1393	6.9358
1.9089	3.2204	3.1749	3.0127	4.2758	5.2687	4.327	5.6613	7.3397	5.7722	7.8547	8.7309	7.7835	-0.4666	2.9103	2.1052	0.9075	5.6613	5.3682	4.2132	7.0894
2.0881	3.4167	3.3854	3.1777	4.4607	5.4536	4.4522	5.8576	7.5702	5.923	8.0623	8.9613	7.94	-0.5092	3.1208	2.4409	0.9957	5.7466	5.5361	4.2986	7.2999
2.2674	3.6244	3.5162	3.2915	4.6457	5.63	4.5404	6.0027	7.738	6.0112	8.2103	9.132	8.0396	-0.5576	3.3171	2.6998	1.0924	5.8263	5.6726	4.3782	7.445
2.3982	3.7637	3.63	3.3968	4.7964	5.7438	4.6058	6.1648	7.9315	6.1079	8.3525	9.2799	8.1335	-0.586	3.4508	2.9274	1.1749	5.886	5.7808	4.4294	7.61
2.4779	3.8548	3.7012	3.4053	4.9159	5.8234	4.6201	6.2416	8.0111	6.1193	8.4578	9.3966	8.1989	-0.6287	3.5504	3.0468	1.2546	5.9059	5.8803	4.4721	7.7124
2.5149	3.9487	3.7581	3.4451	5.007	5.8718	4.6343	6.3668	8.1249	6.1534	8.5431	9.4648	8.2416	-0.6572	3.6016	3.0867	1.3115	5.9657	5.9344	4.4892	7.8148
2.5433	3.9743	3.7438	3.4138	5.0382	5.9315	4.6115	6.4038	8.1903	6.1506	8.5915	9.536	8.2558	-0.6856	3.6443	3.0924	1.3655	5.9827	5.96	4.5034	7.8774
2.5063	3.9657	3.7268	3.3854	5.0752	5.9031	4.5888	6.4095	8.2046	6.1278	8.6398	9.573	8.27	-0.6998	3.63	2.9956	1.3997	5.9742	6.014	4.5063	7.9372
2.438	3.9174	3.6727	3.3114	5.0752	5.8945	4.5119	6.4095	8.2046	6.0994	8.6598	9.5815	8.2359	-0.734	3.5874	2.8306	1.4423	5.9202	6.0254	4.5119	7.9827
2.3499	3.8491	3.5959	3.2175	5.0553	5.8291	4.4494	6.3782	8.1875	6.0425	8.6313	9.5502	8.1875	-0.7368	3.5219	2.623	1.4594	5.8832	6.0055	4.5006	7.9912
2.2332	3.741	3.4992	3.118	4.987	5.7608	4.3469	6.3327	8.1164	5.9543	8.6285	9.5246	8.1391	-0.7482	3.4309	2.3755	1.4822	5.832	5.9571	4.4977	7.9941
2.1365	3.6443	3.411	3.007	4.9245	5.6954	4.2673	6.2957	8.0709	5.8889	8.6	9.4933	8.0737	-0.7454	3.3456	2.0967	1.4992	5.7921	5.9401	4.4636	7.9827
2.0085	3.5731	3.3171	2.8875	4.8676	5.6158	4.1563	6.2473	8.0253	5.812	8.5716	9.4307	8.0083	-0.7624	3.2574	1.7752	1.5049	5.7267	5.923	4.4351	7.9713
1.889	3.4707	3.2232	2.7709	4.8249	5.5418	4.0681	6.2189	7.9628	5.7409	8.5772	9.4079	7.9514	-0.7482	3.1436	1.4679	1.4936	5.6613	5.8889	4.4124	7.9798
1.7581	3.3882	3.1521	2.7055	4.7651	5.4764	3.9999	6.1933	7.94	5.6726	8.5545	9.3511	7.8945	-0.7454	3.0184	1.1493	1.4736	5.6044	5.8519	4.4067	7.977
1.6529	3.2801	3.0668	2.603	4.6969	5.4166	3.9117	6.1648	7.9002	5.6271	8.5317	9.334	7.8291	-0.7226	2.9302	0.8023	1.4367	5.5503	5.8291	4.3697	7.9941
1.5561	3.209	2.9956	2.5234	4.6314	5.337	3.8548	6.0965	7.8433	5.5674	8.5175	9.3141	7.8006	-0.6998	2.7908	0.4694	1.4054	5.4991	5.8007	4.3213	7.9912
1.4423	3.1237	2.9245	2.4409	4.5831	5.2943	3.7808	6.0539	7.8006	5.502	8.5118	9.2913	7.7551	-0.6941	2.6315	0.0996	1.3712	5.4507	5.7551	4.31	7.9827
1.3086	3.0184	2.842	2.3385	4.5091	5.2203	3.6756	6.014	7.7693	5.4308	8.4834	9.2429	7.6754	-0.6799	2.4836	-0.239	1.3428	5.3483	5.7068	4.2673	7.9997
1.2204	2.9274	2.7851	2.3015	4.4977	5.2061	3.6272	6.0027	7.7579	5.3995	8.4947	9.2486	7.6612	-0.6572	2.3555	-0.5889	1.2973	5.3057	5.7068	4.2189	8.0111
1.1522	2.8591	2.7083	2.2161	4.4294	5.1549	3.5703	5.96	7.7295	5.3512	8.5033	9.2373	7.6413	-0.6259	2.2161	-0.8791	1.2631	5.2374	5.6726	4.1506	8.0282
1.0355	2.8107	2.6599	2.1706	4.3896	5.1151	3.5276	5.9543	7.7323	5.2971	8.5232	9.2173	7.6214	-0.6259	2.1109	-1.1436	1.2347	5.1776	5.6812	4.1137	8.0197
1.0185	2.7481	2.6457	2.1792	4.3839	5.1236	3.4963	5.9657	7.7209	5.2772	8.5317	9.2543	7.6072	-0.5946	2.0455	-1.32	1.1835	5.1293	5.6926	4.0568	8.0595
0.9843	2.7083	2.6429	2.1763	4.3896	5.1264	3.465	5.9827	7.7608	5.3028	8.5602	9.2429	7.6072	-0.5661	2.0483	-1.448	1.1351	5.1065	5.6755	4.0027	8.105
0.9872	2.714	2.6372	2.1735	4.3896	5.1549	3.4736	6.0055	7.8006	5.2943	8.6029	9.2998	7.6242	-0.5434	2.0597	-1.4651	1.0782	5.0923	5.7153	3.9913	8.1562
1.0185	2.7595	2.6685	2.2389	4.4209	5.1833	3.502	6.0567	7.8547	5.3028	8.6654	9.3425	7.6555	-0.5064	2.1422	-1.4025	1.0384	5.0582	5.7608	3.9544	8.2103
1.0441	2.7794	2.7112	2.2617	4.4721	5.2488	3.5333	6.125	7.9116	5.3455	8.7394	9.4051	7.7067	-0.5149	2.1991	-1.2432	1.0014	5.0638	5.7978	3.9373	8.2928
1.101	2.8363	2.7595	2.3356	4.5546	5.3057	3.5731	6.2445	8.0111	5.4024	8.8219	9.4904	7.7835	-0.4865	2.2901	-1.0128	0.9416	5.0951	5.886	3.9231	8.4009
1.1607	2.8932	2.7965	2.4153	4.6286	5.391	3.6585	6.3639	8.1448	5.4934	8.9385	9.5986	7.8859	-0.4552	2.3811	-0.7397	0.9018	5.1435	5.9514	3.9003	8.5232
1.2148	2.9843	2.879	2.475	4.7225	5.482	3.7296	6.4806	8.2586	5.5987	9.0694	9.7408	7.9855	-0.4637	2.4295	-0.4182	0.8848	5.189	6.0624	3.8719	8.6626
1.2517	3.0582	2.9217	2.5376	4.8363	5.5788	3.7837	6.6257	8.3696	5.6698	9.2003	9.8603	8.1135	-0.4239	2.4949	-0.0882	0.8335	5.2801	6.1563	3.8775	8.7622
1.2916	3.1464	2.9729	2.5917	4.9188	5.6442	3.8491	6.7338	8.4919	5.7608	9.3482	10.0111	8.2672	-0.404	2.5063	0.2532	0.8023	5.354	6.29	3.8804	8.9186
1.3257	3.2346	3.0099	2.6343	5.0297	5.7722	3.9316	6.8959	8.6313	5.8832	9.4933	10.1391	8.4037	-0.3869	2.4949	0.5604	0.7624	5.4564	6.4066	3.8975	9.0865
1.3086	3.3171	3.0326	2.6286	5.1407	5.849	4.0198	7.0467	8.7792	5.9799	9.6412	10.3211	8.563	-0.3755	2.458	0.8279	0.7397	5.556	6.529	3.8804	9.2003
1.3058	3.374	3.0838	2.6286	5.2516	5.923	4.0767	7.189	8.9129	6.1136	9.7778	10.4634	8.7252	-0.367	2.3584	1.0355	0.7055	5.6499	6.6371	3.8918	9.3653
1.246	3.4366	3.0639	2.6173	5.3398	5.9514	4.1165	7.3028	9.0154	6.1933	9.9086	10.5743	8.8475	-0.3357	2.2076	1.1692	0.6885	5.7751	6.7309	3.8946	9.4648
1.1721	3.4679	3.0383	2.5348	5.4109	5.9856	4.1364	7.3853	9.0779	6.2644	10.0054	10.6768	8.9585	-0.3328	2.0198	1.2005	0.6629	5.8462	6.8077	3.9003	9.573
1.0412	3.4707	2.97	2.4267	5.4422	5.9799	4.1478	7.4592	9.132	6.3327	10.0907	10.7678	9.0893	-0.3414	1.7894	1.1436	0.6714	5.9372	6.8618	3.9088	9.6526
0.9189	3.4565	2.8904	2.3129	5.4564	5.9486	4.1023	7.519	9.1718	6.3497	10.1675	10.819	9.1747	-0.3414	1.5675	1.0185	0.6742	6.014	6.9187	3.8832	9.7266
0.7624	3.4138	2.768	2.1393	5.428	5.8832	4.0568	7.5474	9.169	6.3753	10.2074	10.8674	9.2401	-0.3471	1.3058	0.8335	0.6941	6.088	6.9443	3.9174	9.7778
0.6344	3.374	2.6628	1.9999	5.4394	5.8177	4.0056	7.5958	9.1661	6.3896	10.2472	10.9015	9.3084	-0.3357	1.0924	0.6685	0.6799	6.179	7.004	3.9373	9.8119
0.4523	3.2943	2.5547	1.8292	5.4195	5.7637	3.9515	7.6328	9.1832	6.3839	10.2927	10.9243	9.3681	-0.3499	0.8535	0.3613	0.6913	6.253	7.0211	3.9288	9.8461
0.2987	3.2431	2.4295	1.6472	5.3739	5.6726	3.8747	7.6242	9.1661	6.3668	10.3268	10.9413	9.3966	-0.3556	0.6515	0.091	0.6998	6.3412	7.0609	3.9856	9.8973
0.1109	3.1464	2.2759	1.4765	5.3426	5.6015	3.8178	7.6242	9.1064	6.3497	10.3553	10.9413	9.4165	-0.3585	0.4637	-0.2247	0.7311	6.418	7.0695	4.0312	9.9229
-0.037	3.0696	2.1422	1.3172	5.2943	5.5076	3.7467	7.647	9.0751	6.3469	10.3581	10.9328	9.4222	-0.3812	0.2845	-0.532	0.7795	6.4834	7.1093	4.0909	9.9485
-0.1878	2.9871	2.0142	1.1465	5.3085	5.4422	3.6812	7.6726	9.0666	6.3355	10.4264	10.9669	9.4904	-0.4239	0.1451	-0.8762	0.8335	6.5574	7.1776	4.1649	9.9968
-0.3499	2.9274	1.9174	0.9786	5.2459	5.3455	3.5902	7.6925	9.041	6.3156	10.4605	10.9868	9.5047	-0.4609	0.0028	-1.1635	0.9246	6.6371	7.2288	4.2246	10.0651
-0.4893	2.8363	1.8008	0.862	5.2374	5.3028	3.5504	7.7153	9.004	6.2985	10.5374	10.9925	9.536	-0.5064	-0.1366	-1.4936	1.0099	6.6826	7.2857	4.3213	10.1078
-0.6173	2.805	1.7411	0.7567	5.2374	5.2374	3.4992	7.7551	9.0068	6.2814	10.5886	11.0096	9.5559	-0.5462	-0.2361	-1.7866	1.0953	6.7537	7.3426	4.3896	10.1931
-0.7254	2.7424	1.6415	0.6572	5.2374	5.2232	3.4565	7.8234	9.021	6.344	10.6881	11.0864	9.6213	-0.6088	-0.3698	-2.0796	1.1806	6.8476	7.4422	4.5034	10.2927
-0.8279	2.7083	1.5732	0.5604	5.2289	5.1691	3.4337	7.8746	9.0353	6.3355	10.7649	11.1376	9.6668	-0.6401	-0.4893	-2.3385	1.2717	6.8732	7.5303	4.603	10.3809
-0.9388	2.6599	1.5448	0.5064	5.2488	5.172	3.3968	7.9343	9.0353	6.3497	10.8332	11.1575	9.6924	-0.6742	-0.6003	-2.5518	1.3371	6.9557	7.5958	4.6855	10.4577
-1.0156	2.64	1.4879	0.4523	5.2516	5.152	3.3655	7.9969	9.0637	6.3526	10.9186	11.2059	9.7209	-0.7027	-0.6657	-2.768	1.3712	6.9813	7.6584	4.768	10.5174
-1.0924	2.6059	1.4395	0.3983	5.2545	5.1378	3.3456	8.0197	9.0467	6.3497	10.9385	11.2087	9.7237	-0.7112	-0.7454	-2.8932	1.4139	7.0268	7.6897	4.822	10.5687
-1.1209	2.5803	1.448	0.3983	5.2488	5.1094	3.3399	8.0623	9.0666	6.3668	10.9982	11.2514	9.7465	-0.7055	-0.771	-3.0611	1.3911	7.0609	7.7636	4.8818	10.6568
-1.1493	2.5461	1.4196	0.367	5.2203	5.0866	3.3256	8.1107	9.0637	6.3469	11.0124	11.2372	9.7408	-0.7027	-0.7567	-3.1578	1.3712	7.0666	7.7892	4.9045	10.6455
-1.1465	2.5433	1.4139	0.3499	5.2317	5.0781	3.3171	8.0936	9.0609	6.3668	11.0352	11.2514	9.7408	-0.6771	-0.7254	-3.246	1.3342	7.0695	7.7864	4.9501	10.6768
-1.1209	2.5376	1.4281	0.3926	5.2374	5.1065	3.3427	8.1221	9.0523	6.3526	11.0409	11.24	9.7152	-0.6372	-0.6401	-3.2687	1.2603	7.0325	7.7949	4.9501	10.6995
-1.0782	2.5405	1.431	0.4011	5.2175	5.0923	3.32	8.1363	9.0523	6.3213	11.0437	11.2116	9.6697	-0.6031	-0.5434	-3.2744	1.1977	7.0211	7.8063	4.9415	10.6682
-1.0128	2.5689	1.4594	0.4523	5.2573	5.1122	3.3313	8.1619	9.0381	6.3412	11.0494	11.2372	9.6839	-0.5604	-0.4466	-3.2517	1.118	7.0296	7.8347	4.9643	10.6967
-0.9416	2.603	1.4936	0.4979	5.2829	5.0923	3.3541	8.196	9.058	6.3327	11.0722	11.2258	9.6526	-0.5291	-0.3585	-3.1521	1.0498	6.9898	7.866	4.9899	10.7194
-0.8506	2.6884	1.5647	0.586	5.3426	5.1577	3.3996	8.2359	9.0637	6.3639	11.0978	11.26	9.6697	-0.5035	-0.2674	-3.0582	0.9872	6.9955	7.903	5.0126	10.7479
-0.751	2.7766	1.6557	0.6771	5.391	5.2118	3.4764	8.2928	9.1263	6.418	11.1661	11.2969	9.6725	-0.4865	-0.1991	-2.9387	0.9473	7.004	7.9428	5.061	10.7735
-0.6116	2.8989	1.7723	0.7994	5.4735	5.2886	3.5532	8.3838	9.1946	6.4749	11.2372	11.3737	9.7351	-0.458	-0.1479	-2.7937	0.9104	7.0012	7.9997	5.0866	10.8218
-0.5064	3.0156	1.8833	0.9217	5.5788	5.3654	3.6272	8.472	9.2657	6.5489	11.2998	11.4392	9.7863	-0.4552	-0.1138	-2.6599	0.9104	7.0126	8.0652	5.1606	10.8759
-0.404	3.1407	1.9886	1.0071	5.7039	5.4621	3.7182	8.5858	9.3596	6.6314	11.4306	11.5558	9.883	-0.4779	-0.1309	-2.512	0.9303	7.0496	8.1363	5.2175	10.9356
-0.2418	3.3	2.1109	1.1522	5.8433	5.5987	3.8121	8.6854	9.4677	6.7281	11.5046	11.644	9.9399	-0.4893	-0.1707	-2.4011	0.9644	7.0695	8.196	5.2744	10.9868
-0.1394	3.4281	2.2247	1.2802	5.9486	5.6812	3.9316	8.8105	9.5929	6.8163	11.6298	11.772	10.0452	-0.5092	-0.1821	-2.2588	1.0213	7.1065	8.2757	5.354	11.0665
0.0142	3.5788	2.3669	1.4196	6.0994	5.7978	4.0425	8.9414	9.7038	6.9272	11.7322	11.9	10.1334	-0.5462	-0.2361	-2.1336	1.0782	7.1378	8.3497	5.4195	11.1206
0.1451	3.7381	2.4693	1.5305	6.2331	5.9344	4.1535	9.0438	9.829	7.0296	11.8744	12.0394	10.25	-0.5917	-0.293	-2.0142	1.1721	7.1804	8.435	5.482	11.2031
0.2617	3.8946	2.6059	1.6529	6.3839	6.0567	4.2616	9.186	9.9883	7.1463	11.9825	12.1703	10.3496	-0.6429	-0.3841	-1.926	1.266	7.2373	8.4947	5.5389	11.2799
0.3784	4.0141	2.7055	1.7667	6.5233	6.1733	4.3782	9.3027	10.1049	7.2487	12.1248	12.341	10.4918	-0.697	-0.441	-1.8207	1.394	7.2686	8.6029	5.6243	11.3709
0.4979	4.1649	2.8505	1.9146	6.6541	6.3071	4.475	9.4336	10.2443	7.3653	12.3069	12.4861	10.6369	-0.7425	-0.5149	-1.7866	1.4679	7.3426	8.6825	5.7039	11.4762
0.5889	4.2502	2.953	1.9886	6.7594	6.3924	4.5802	9.5132	10.3695	7.4763	12.3808	12.6056	10.7223	-0.7994	-0.6173	-1.7638	1.5846	7.3796	8.7394	5.7438	11.5245
0.6771	4.3498	3.0639	2.0682	6.8703	6.5062	4.6599	9.6071	10.4975	7.5673	12.4832	12.7336	10.8275	-0.8307	-0.7197	-1.761	1.65	7.4393	8.7821	5.812	11.5928
0.7368	4.3839	3.1493	2.1592	6.9272	6.6058	4.7452	9.664	10.5943	7.6754	12.5913	12.8559	10.91	-0.8819	-0.825	-1.7866	1.7268	7.4706	8.8134	5.8377	11.6469
0.7795	4.455	3.2204	2.1877	6.9813	6.6911	4.8419	9.7692	10.7052	7.7437	12.6824	12.9811	11.0324	-0.8904	-0.8933	-1.815	1.7581	7.5303	8.8646	5.8917	11.7009
0.8335	4.4664	3.2915	2.256	7.0496	6.7907	4.8818	9.7977	10.7906	7.8177	12.7563	13.0807	11.112	-0.9075	-0.9985	-1.9117	1.778	7.5844	8.8816	5.923	11.7464
0.8791	4.4835	3.3655	2.2787	7.0979	6.8447	4.9415	9.8603	10.8844	7.8717	12.8388	13.1689	11.1803	-0.916	-1.0754	-1.9886	1.798	7.6185	8.8731	5.9486	11.7493
0.8848	4.4863	3.3968	2.3527	7.1121	6.8931	5.0041	9.883	10.9641	7.9172	12.8872	13.2599	11.223	-0.9189	-1.1522	-2.0881	1.8207	7.6128	8.8674	5.9486	11.7606
0.9274	4.4949	3.4963	2.384	7.1747	6.9984	5.0695	9.9342	11.0523	7.9997	12.9697	13.3851	11.2998	-0.9274	-1.1607	-2.182	1.8292	7.647	8.839	5.9543	11.7635
0.953	4.5176	3.5475	2.4238	7.206	7.0467	5.1065	9.9741	11.1575	8.051	13.0209	13.4647	11.3652	-0.9445	-1.1806	-2.31	1.8548	7.6441	8.8276	5.9486	11.7663
0.9729	4.5176	3.6386	2.4864	7.2601	7.169	5.172	9.9911	11.2486	8.1192	13.0664	13.533	11.4278	-0.9587	-1.192	-2.3811	1.8776	7.6356	8.7935	5.96	11.7578
1.0384	4.5688	3.6955	2.5405	7.3084	7.2658	5.2232	10.048	11.3425	8.1932	13.1518	13.6411	11.4989	-0.9616	-1.1237	-2.5006	1.8975	7.6669	8.7735	5.9543	11.7521
1.1294	4.6144	3.8064	2.6258	7.3682	7.354	5.3114	10.1135	11.4705	8.27	13.2058	13.7464	11.5757	-0.9786	-1.0355	-2.5234	1.9174	7.684	8.7565	5.9685	11.7692
1.1977	4.6826	3.9202	2.7112	7.4422	7.4763	5.3825	10.1618	11.5672	8.3354	13.2798	13.8459	11.6497	-0.9786	-0.9331	-2.5291	1.9345	7.6754	8.7337	5.9543	11.7663
1.3086	4.7623	4.0369	2.8193	7.5161	7.6072	5.4621	10.2557	11.6952	8.435	13.3595	13.9626	11.7407	-0.9985	-0.8079	-2.4779	1.9715	7.7096	8.7366	5.9514	11.7777
1.4423	4.8448	4.1649	2.9387	7.5958	7.7608	5.5759	10.3126	11.8033	8.526	13.4391	14.0849	11.8261	-1.0099	-0.6458	-2.4437	1.9971	7.7067	8.7138	5.96	11.8033
1.5931	4.9557	4.2929	3.0497	7.6868	7.866	5.6414	10.3837	11.9342	8.5772	13.459	14.1731	11.883	-1.027	-0.4779	-2.3726	2.0198	7.7579	8.7024	5.9543	11.7806
1.7098	5.0354	4.401	3.1549	7.7665	7.9713	5.7182	10.4463	12.0195	8.6341	13.5074	14.2442	11.9285	-1.0355	-0.3129	-2.3129	2.0426	7.7352	8.691	5.9258	11.7692
1.889	5.1691	4.5518	3.2858	7.866	8.0908	5.7836	10.489	12.0935	8.6996	13.5643	14.3352	12.0025	-1.0185	-0.165	-2.219	2.0198	7.7409	8.6854	5.8746	11.7749
2.0369	5.2715	4.6855	3.3911	7.9428	8.1903	5.8633	10.543	12.2101	8.765	13.5614	14.3779	12.0309	-1.0042	0.0057	-2.1194	1.9971	7.6982	8.6427	5.8547	11.7493
2.1934	5.3512	4.7964	3.485	7.9997	8.2814	5.9344	10.5743	12.2699	8.7735	13.5785	14.4291	12.0707	-1.0071	0.1252	-2.0739	1.9743	7.6897	8.6484	5.7921	11.7208
2.3214	5.4593	4.9159	3.5874	8.0453	8.3525	5.9799	10.6284	12.3268	8.8162	13.587	14.4746	12.1134	-0.9985	0.2418	-2.0142	1.9317	7.7039	8.5943	5.7495	11.6867
2.458	5.5702	5.0098	3.6926	8.0993	8.435	6.0339	10.6455	12.3808	8.8333	13.5757	14.5031	12.1049	-0.953	0.3072	-1.9772	1.8833	7.647	8.546	5.6726	11.6355
2.5945	5.6812	5.1463	3.7922	8.1903	8.5033	6.0994	10.6881	12.4406	8.8703	13.5842	14.5429	12.1532	-0.9132	0.3841	-1.9459	1.8008	7.6356	8.5175	5.6129	11.6156
2.6969	5.7665	5.2061	3.8434	8.2529	8.5801	6.1506	10.7194	12.4918	8.8902	13.5728	14.5685	12.1675	-0.8762	0.3983	-1.9089	1.7467	7.6271	8.4691	5.5389	11.5814
2.8164	5.9002	5.3398	3.9259	8.3155	8.6654	6.216	10.7536	12.5316	8.9442	13.57	14.5827	12.1874	-0.8478	0.4068	-1.8833	1.6728	7.6242	8.4578	5.4394	11.5359
2.933	6.0027	5.465	3.9885	8.4151	8.7451	6.2786	10.782	12.5828	8.967	13.5757	14.6226	12.2272	-0.8108	0.3812	-1.8833	1.5988	7.6242	8.4094	5.3882	11.5245
3.0355	6.1364	5.5901	4.0795	8.5147	8.8589	6.3241	10.8361	12.6482	9.0097	13.5927	14.6596	12.2642	-0.7681	0.3414	-1.8662	1.5305	7.6413	8.3838	5.3341	11.5188
3.1521	6.2729	5.7039	4.1478	8.6313	8.9613	6.3952	10.9015	12.7165	9.0495	13.5927	14.6965	12.304	-0.7539	0.256	-1.8634	1.4879	7.6328	8.3724	5.2687	11.5018
3.2431	6.418	5.8263	4.2019	8.7366	9.0666	6.455	10.9698	12.8076	9.1178	13.6155	14.7392	12.3581	-0.7311	0.1166	-1.8776	1.4281	7.6612	8.3497	5.2089	11.4932
3.3342	6.5745	5.9657	4.2588	8.8475	9.1775	6.5147	11.0324	12.8645	9.1604	13.6439	14.7904	12.4263	-0.697	-0.0057	-1.9402	1.394	7.6982	8.3326	5.1606	11.4847
3.3911	6.6683	6.0652	4.3213	8.967	9.2856	6.5802	11.1092	12.9299	9.1974	13.6724	14.8729	12.4889	-0.6885	-0.1878	-2.017	1.3513	7.7323	8.3241	5.1151	11.479
3.4992	6.822	6.2103	4.3583	9.1035	9.4108	6.6257	11.1746	13.0038	9.2543	13.6952	14.9213	12.5344	-0.6629	-0.3727	-2.1052	1.3115	7.7437	8.3297	5.0638	11.4961
3.539	6.9272	6.3298	4.3612	9.1917	9.5047	6.6513	11.2315	13.0778	9.2913	13.7037	14.9782	12.6027	-0.6657	-0.6287	-2.2304	1.3086	7.7864	8.2956	5.007	11.4733
3.6044	7.0325	6.4322	4.364	9.2942	9.6242	6.6911	11.277	13.1262	9.3169	13.7321	15.0038	12.6141	-0.6486	-0.7937	-2.3328	1.2717	7.775	8.2757	4.9614	11.4477
3.6556	7.1577	6.5432	4.3697	9.3738	9.701	6.7053	11.3254	13.1888	9.3425	13.7264	15.0294	12.6596	-0.6372	-0.9985	-2.4466	1.2517	7.7978	8.2302	4.9045	11.425
3.7097	7.2288	6.6598	4.3925	9.4762	9.8119	6.7651	11.3851	13.2514	9.3823	13.7407	15.092	12.7222	-0.6316	-1.2091	-2.5831	1.2347	7.8347	8.1989	4.8875	11.4136
3.7325	7.2999	6.7565	4.401	9.5587	9.8802	6.7793	11.4136	13.2912	9.4079	13.752	15.129	12.7592	-0.6173	-1.4111	-2.7168	1.2261	7.8376	8.1477	4.8619	11.3851
3.7609	7.3853	6.8476	4.3953	9.6441	9.9798	6.8049	11.4619	13.3765	9.4421	13.7634	15.1546	12.8019	-0.6202	-1.5675	-2.8534	1.2204	7.8774	8.1022	4.8448	11.3481
3.832	7.482	6.9756	4.4181	9.7579	10.0936	6.8362	11.5331	13.4391	9.4933	13.7833	15.2257	12.8758	-0.6173	-1.7012	-2.9871	1.2091	7.9201	8.0936	4.8562	11.3595
3.8605	7.5474	7.0609	4.4323	9.8318	10.1846	6.8561	11.553	13.5131	9.5616	13.8033	15.2797	12.9697	-0.6088	-1.7809	-3.0867	1.2119	7.9685	8.0623	4.8903	11.3368
3.9003	7.6441	7.2032	4.4949	9.9599	10.324	6.9272	11.6554	13.624	9.6441	13.8602	15.3509	13.0408	-0.606	-1.8321	-3.2118	1.2176	8.0339	8.0538	4.9415	11.3311
3.9771	7.7067	7.3113	4.5319	10.0594	10.4349	6.9927	11.735	13.7464	9.755	13.9313	15.4618	13.1689	-0.6173	-1.8406	-3.2744	1.2233	8.1335	8.0481	5.0212	11.3652
4.0084	7.7778	7.4365	4.6201	10.1618	10.5601	7.0752	11.8119	13.8545	9.8461	14.0024	15.5728	13.277	-0.6344	-1.7894	-3.3399	1.2546	8.2216	8.0652	5.0895	11.4079
4.1051	7.8717	7.573	4.694	10.287	10.7052	7.1634	11.9256	13.9768	9.9513	14.0792	15.6866	13.4277	-0.6572	-1.7098	-3.3854	1.2773	8.3155	8.0879	5.2061	11.4534
4.1933	7.9542	7.7124	4.8021	10.4293	10.8702	7.2743	12.0622	14.1731	10.1049	14.1589	15.8089	13.5757	-0.6629	-1.5903	-3.3626	1.3001	8.4379	8.1022	5.3512	11.5274
4.2929	8.0908	7.8717	4.933	10.5715	11.0096	7.3853	12.1902	14.3267	10.2415	14.2641	15.9767	13.7407	-0.6629	-1.3997	-3.2858	1.3143	8.5573	8.1562	5.4707	11.6099
4.4323	8.1932	8.0566	5.1122	10.7308	11.2087	7.5161	12.3154	14.4832	10.3866	14.3865	16.1104	13.8943	-0.6685	-1.1635	-3.1293	1.32	8.6569	8.1932	5.5702	11.6781
4.6087	8.344	8.2416	5.2744	10.8958	11.3908	7.6811	12.4576	14.6766	10.5573	14.5287	16.284	14.0764	-0.66	-0.9246	-2.953	1.2944	8.802	8.2501	5.7295	11.772
4.7907	8.4976	8.4435	5.4507	11.0779	11.5814	7.8177	12.6511	14.8615	10.7137	14.6596	16.4518	14.2584	-0.6401	-0.6458	-2.7083	1.266	8.9101	8.3212	5.8633	11.8716
4.9728	8.6512	8.637	5.63	11.2315	11.7322	7.9428	12.7677	15.0038	10.8787	14.7819	16.577	14.4064	-0.6344	-0.3698	-2.4494	1.2375	9.0125	8.3525	5.9628	11.9484
5.1976	8.8134	8.839	5.8519	11.4221	11.9484	8.105	12.9157	15.1773	11.0324	14.8843	16.7591	14.5685	-0.5917	-0.0313	-2.1223	1.1692	9.1035	8.4521	6.088	12.0508
5.4052	8.9585	9.0154	6.0396	11.5615	12.0963	8.2416	13.0351	15.3366	11.1689	15.0009	16.8871	14.7136	-0.5576	0.2589	-1.778	1.0953	9.1946	8.5061	6.1847	12.1276
5.6015	9.1007	9.1747	6.1933	11.6952	12.2471	8.3639	13.1262	15.4447	11.2969	15.0778	16.9724	14.816	-0.532	0.5149	-1.4651	1.0384	9.2515	8.5431	6.2331	12.1931
5.8263	9.2515	9.3454	6.3611	11.8261	12.3638	8.509	13.2599	15.5728	11.405	15.1944	17.1232	14.9497	-0.4865	0.7567	-1.1465	0.9616	9.3482	8.6228	6.327	12.2784
6.0169	9.3852	9.499	6.5147	11.9456	12.4889	8.6114	13.3651	15.7065	11.5416	15.274	17.2171	15.0721	-0.4552	0.9132	-0.8819	0.8876	9.4136	8.691	6.4294	12.3495
6.1762	9.4535	9.6014	6.657	12.0309	12.5657	8.7195	13.405	15.7634	11.6269	15.2911	17.2683	15.1546	-0.4324	1.0725	-0.6515	0.8506	9.4734	8.7166	6.4948	12.3979
6.2871	9.536	9.6839	6.7423	12.0764	12.6198	8.7764	13.4391	15.806	11.681	15.3309	17.3138	15.22	-0.4068	1.1522	-0.4893	0.8079	9.4876	8.7394	6.5546	12.432
6.418	9.5843	9.7266	6.8419	12.1077	12.6653	8.8361	13.4989	15.8686	11.7379	15.3167	17.328	15.2627	-0.3897	1.2062	-0.3357	0.7624	9.5331	8.7622	6.5915	12.4662
6.4977	9.5957	9.7493	6.8817	12.1447	12.6824	8.8845	13.5102	15.8629	11.7919	15.3224	17.3223	15.294	-0.3812	1.2404	-0.2532	0.7397	9.5587	8.7735	6.6598	12.4491
6.5318	9.5986	9.7493	6.9187	12.1248	12.6682	8.8987	13.5102	15.8715	11.809	15.274	17.2967	15.3053	-0.3613	1.2261	-0.1479	0.7084	9.5673	8.7366	6.7309	12.4491
6.5204	9.5388	9.6782	6.8732	12.0394	12.5686	8.8418	13.4192	15.7776	11.7834	15.1773	17.2057	15.2484	-0.3698	1.1351	-0.1394	0.7226	9.5388	8.6711	6.7196	12.3694
6.4834	9.4848	9.6099	6.8732	11.974	12.5231	8.8191	13.3452	15.7093	11.7692	15.092	17.1204	15.2115	-0.3727	1.064	-0.1024	0.7084	9.5417	8.6484	6.7509	12.3069
6.4351	9.3994	9.5047	6.7935	11.8631	12.4207	8.7679	13.24	15.5927	11.7237	14.9839	16.9923	15.1574	-0.3641	0.936	-0.128	0.7112	9.5274	8.5801	6.7651	12.2244
6.3156	9.3169	9.3966	6.711	11.7493	12.2955	8.6882	13.1262	15.459	11.6497	14.8445	16.8529	15.0493	-0.3698	0.771	-0.1252	0.734	9.4734	8.5061	6.7565	12.1191
6.1933	9.1946	9.223	6.6001	11.6042	12.1276	8.5772	13.001	15.2826	11.5302	14.6795	16.6538	14.9298	-0.3869	0.5747	-0.1394	0.7596	9.4222	8.4521	6.7139	12.0167
6.0368	9.0011	9.0609	6.4351	11.4335	11.9683	8.4407	12.8332	15.0977	11.405	14.5116	16.4831	14.7819	-0.404	0.3698	-0.2105	0.8023	9.3539	8.3781	6.6627	11.8887
5.8633	8.876	8.8418	6.2644	11.2514	11.7891	8.3127	12.6653	14.8871	11.277	14.3068	16.2527	14.6254	-0.4239	0.1451	-0.2845	0.8335	9.2572	8.2956	6.6001	11.7834
5.6414	8.6825	8.6228	6.0567	11.0551	11.5814	8.1448	12.4804	14.6738	11.1177	14.1276	16.0308	14.4377	-0.4523	-0.1166	-0.4153	0.8848	9.1747	8.2188	6.5033	11.6668
5.4251	8.4976	8.4009	5.8746	10.8446	11.3652	7.977	12.3097	14.4633	10.9612	13.937	15.806	14.2527	-0.4609	-0.3983	-0.5206	0.9189	9.0694	8.1363	6.4294	11.57
5.1691	8.2842	8.1761	5.6385	10.6398	11.1604	7.8177	12.1163	14.23	10.7991	13.752	15.5813	14.0451	-0.4865	-0.6742	-0.6429	0.9445	8.9841	8.0822	6.3412	11.4932
4.9529	8.1107	7.9087	5.4109	10.4093	10.9413	7.6356	11.9427	14.0024	10.6056	13.5643	15.3452	13.8545	-0.4893	-0.899	-0.7539	0.9616	8.9073	7.9884	6.2359	11.3681
4.6855	7.9059	7.6726	5.1919	10.1874	10.728	7.4507	11.7606	13.7777	10.4236	13.3908	15.1176	13.6752	-0.5092	-1.2091	-0.8705	1.0042	8.8105	7.9172	6.1364	11.2827
4.4181	7.6783	7.4279	4.9529	9.994	10.5146	7.28	11.5757	13.5614	10.2586	13.2257	14.8871	13.4932	-0.5263	-1.4423	-1.027	1.0241	8.7337	7.8433	6.0226	11.2201
4.1421	7.4791	7.206	4.7253	9.7977	10.3041	7.1093	11.4107	13.3566	10.0708	13.0636	14.7193	13.3225	-0.532	-1.6927	-1.1892	1.0583	8.6768	7.7949	5.9258	11.1234
3.8605	7.2572	6.9244	4.4778	9.6014	10.0907	6.9272	11.2656	13.1404	9.9058	12.9356	14.5173	13.1461	-0.5462	-1.98	-1.3285	1.0782	8.5687	7.701	5.8547	11.0722
3.5845	7.0695	6.711	4.2388	9.425	9.9086	6.7537	11.1006	12.964	9.7408	12.799	14.3267	12.9896	-0.5547	-2.2588	-1.5504	1.0953	8.5488	7.6555	5.7836	11.021
3.3171	6.876	6.5204	4.0681	9.2458	9.7522	6.6001	10.9954	12.8019	9.6099	12.7108	14.2015	12.8787	-0.5348	-2.5092	-1.7382	1.0697	8.5403	7.61	5.7182	11.0181
3.0241	6.6655	6.2843	3.7979	9.0523	9.5417	6.4237	10.8361	12.6056	9.4535	12.617	14.0564	12.7279	-0.5405	-2.7737	-1.98	1.0668	8.4891	7.5702	5.6556	10.9755
2.7709	6.4891	6.0652	3.613	8.9329	9.3852	6.2814	10.7308	12.4975	9.3141	12.5344	13.9171	12.6056	-0.5178	-2.9871	-2.1763	1.0441	8.4322	7.536	5.5759	10.9442
2.5376	6.3213	5.8689	3.4337	8.7764	9.2316	6.1335	10.6113	12.3495	9.1548	12.4463	13.7663	12.4576	-0.5149	-3.172	-2.4011	1.0071	8.3838	7.4564	5.5276	10.9214
2.2958	6.1677	5.6613	3.2517	8.6569	9.0808	6.0027	10.5288	12.2016	9.0125	12.3666	13.6496	12.341	-0.4922	-3.2972	-2.6087	0.9587	8.3582	7.4308	5.4564	10.9015
2.1251	6.0453	5.4963	3.0981	8.5431	8.9414	5.8604	10.4065	12.0707	8.9129	12.2955	13.5216	12.2158	-0.4694	-3.4025	-2.8193	0.9189	8.2871	7.3938	5.3882	10.8787
1.9402	5.9202	5.3426	2.9473	8.4179	8.7991	5.7381	10.324	11.9541	8.7735	12.2158	13.4078	12.0878	-0.4438	-3.4394	-2.9871	0.8677	8.233	7.3682	5.3341	10.8617
1.8122	5.8177	5.2032	2.8249	8.3297	8.6683	5.6186	10.2273	11.8261	8.6541	12.1561	13.3083	11.9541	-0.4267	-3.4451	-3.172	0.8279	8.1534	7.3227	5.2857	10.8304
1.7012	5.7409	5.1008	2.7567	8.2586	8.5659	5.5333	10.1533	11.7237	8.5488	12.0793	13.2201	11.8517	-0.3784	-3.3968	-3.283	0.7624	8.105	7.3084	5.2687	10.819
1.6216	5.6954	4.9813	2.7083	8.2302	8.4691	5.4507	10.1163	11.6355	8.4578	12.0622	13.1176	11.7464	-0.3613	-3.3256	-3.4053	0.7027	8.0481	7.2999	5.2289	10.8076
1.5931	5.6556	4.9102	2.6855	8.1647	8.381	5.4138	10.0224	11.5302	8.3724	12.0082	13.0437	11.644	-0.33	-3.1976	-3.4593	0.6515	7.9827	7.2971	5.2004	10.7479
1.5817	5.6726	4.8533	2.6713	8.1505	8.3127	5.3455	9.9883	11.479	8.3354	11.9825	12.9811	11.553	-0.3044	-3.081	-3.502	0.6031	7.9685	7.2914	5.2118	10.7735
1.6102	5.6983	4.8249	2.7112	8.1761	8.2444	5.3512	9.9542	11.3965	8.2956	11.9427	12.9071	11.4676	-0.2788	-2.933	-3.4878	0.5604	7.9144	7.3141	5.1976	10.7507
1.65	5.7409	4.8021	2.7595	8.1818	8.2131	5.354	9.9428	11.3766	8.2501	11.9399	12.8844	11.405	-0.2845	-2.7282	-3.4081	0.5604	7.8689	7.3426	5.2203	10.7649
1.7411	5.8519	4.8249	2.8363	8.2558	8.1989	5.3768	9.9599	11.3538	8.2529	11.9569	12.8502	11.3481	-0.2987	-2.5177	-3.2943	0.569	7.8603	7.3938	5.2545	10.782
1.8719	5.9543	4.8676	2.9444	8.3241	8.2245	5.4081	10.0025	11.3652	8.2899	11.9825	12.8502	11.3254	-0.3016	-2.293	-3.1293	0.5946	7.8547	7.4592	5.2886	10.8076
2.0056	6.0994	4.9358	3.0724	8.4407	8.2416	5.465	10.0224	11.3595	8.3127	11.9939	12.8474	11.3083	-0.3357	-2.0369	-2.8705	0.6543	7.8433	7.5247	5.3341	10.8247
2.1649	6.2672	5.0269	3.2318	8.5716	8.2871	5.5418	10.0964	11.3965	8.361	12.0394	12.8388	11.277	-0.3841	-1.8122	-2.6116	0.7425	7.8262	7.5958	5.3739	10.8418
2.3584	6.4834	5.1463	3.3626	8.7252	8.3525	5.6101	10.1818	11.4591	8.3952	12.1106	12.8559	11.2713	-0.4182	-1.559	-2.3157	0.8222	7.7978	7.7181	5.4422	10.8844
2.5604	6.6712	5.2431	3.5106	8.8532	8.3952	5.6755	10.2472	11.4619	8.4037	12.1419	12.836	11.223	-0.4722	-1.3542	-1.9658	0.9303	7.7807	7.7722	5.4849	10.9015
2.7311	6.9045	5.3426	3.63	9.004	8.4635	5.7182	10.3126	11.5046	8.4379	12.1703	12.8189	11.1831	-0.5291	-1.1806	-1.6358	1.0327	7.7266	7.8575	5.5076	10.9186
2.8932	7.0809	5.4422	3.7296	9.1462	8.5033	5.7665	10.3809	11.5103	8.4407	12.2044	12.8132	11.149	-0.5661	-1.0697	-1.3684	1.1209	7.684	7.9116	5.502	10.8987
3.0554	7.2629	5.5276	3.8178	9.2657	8.5573	5.7921	10.4378	11.5245	8.4521	12.2244	12.7706	11.0807	-0.606	-0.9815	-1.0725	1.1892	7.61	7.9713	5.4991	10.9015
3.1606	7.4222	5.5788	3.8804	9.371	8.5801	5.8149	10.4549	11.5103	8.4151	12.1845	12.7023	10.9783	-0.6202	-0.99	-0.8791	1.2489	7.5275	7.9969	5.4678	10.8531
3.2602	7.5588	5.6214	3.9373	9.4449	8.6	5.8206	10.4918	11.4875	8.3895	12.1504	12.6084	10.8731	-0.6486	-1.0298	-0.7169	1.2944	7.3909	7.9941	5.4337	10.7849
3.3143	7.6299	5.6442	3.9288	9.5018	8.5744	5.7694	10.4947	11.4278	8.3013	12.0935	12.5032	10.7365	-0.6771	-1.1635	-0.6486	1.3399	7.2743	7.9827	5.3398	10.708
3.3569	7.7067	5.647	3.9316	9.5331	8.5488	5.7324	10.5004	11.3794	8.2216	12.0281	12.3951	10.5971	-0.6856	-1.2859	-0.6145	1.3542	7.1321	7.9798	5.2744	10.5886
3.3626	7.7494	5.6158	3.8889	9.5673	8.5374	5.6897	10.4577	11.3112	8.1448	11.9569	12.2869	10.4662	-0.6913	-1.448	-0.6742	1.3684	6.9784	7.9628	5.2061	10.489
3.3541	7.7636	5.6044	3.8462	9.5644	8.5118	5.6385	10.4321	11.2543	8.068	11.8688	12.1874	10.3297	-0.6856	-1.6557	-0.788	1.3684	6.8561	7.9087	5.1463	10.3553
3.3256	7.7522	5.5674	3.815	9.5417	8.4777	5.5532	10.3809	11.186	7.9656	11.7663	12.0338	10.1761	-0.6742	-1.8236	-0.9104	1.3598	6.7082	7.8376	5.0439	10.2244
3.2716	7.7266	5.5105	3.7467	9.5018	8.4322	5.4792	10.3496	11.112	7.8717	11.6838	11.937	10.0424	-0.6856	-2.0341	-1.0924	1.3456	6.5773	7.7921	4.9614	10.0907
3.1862	7.6555	5.4678	3.6556	9.4648	8.3866	5.4223	10.287	11.0437	7.7949	11.5729	11.8062	9.9001	-0.6685	-2.2361	-1.3229	1.3428	6.4436	7.7181	4.9501	9.957
3.0838	7.5872	5.3882	3.5845	9.4079	8.3184	5.3341	10.213	10.9755	7.6982	11.4449	11.7009	9.7607	-0.6486	-2.4011	-1.6017	1.3172	6.3355	7.6612	4.859	9.8119
2.9587	7.4905	5.2857	3.4878	9.3169	8.2785	5.2545	10.1305	10.8588	7.5616	11.3368	11.5644	9.6128	-0.6429	-2.586	-1.8577	1.2745	6.2302	7.573	4.7964	9.6611
2.788	7.334	5.1947	3.3712	9.2117	8.1847	5.1805	10.0395	10.7621	7.4393	11.1775	11.4193	9.4421	-0.6116	-2.7908	-2.2076	1.229	6.0937	7.4621	4.7111	9.4819
2.5945	7.1634	5.0496	3.246	9.0808	8.0595	5.0411	9.8916	10.6113	7.2743	11.0068	11.2372	9.2543	-0.5889	-3.0013	-2.5632	1.1692	5.9458	7.3511	4.6087	9.2913
2.347	6.95	4.8619	3.0525	8.8845	7.9087	4.896	9.7095	10.4349	7.0865	10.7792	11.0181	9.0097	-0.5633	-3.2488	-3.0013	1.118	5.7665	7.1861	4.492	9.0381
2.1137	6.6826	4.6371	2.842	8.6854	7.7266	4.7139	9.5246	10.2301	6.9215	10.5857	10.7962	8.8077	-0.5206	-3.4707	-3.4537	1.0355	5.6015	7.0467	4.3498	8.8162
1.8122	6.3952	4.4038	2.6173	8.4094	7.5076	4.5347	9.2942	10.0054	6.657	10.3183	10.5459	8.5147	-0.4836	-3.7381	-3.9487	0.9815	5.3853	6.8248	4.2019	8.5687
1.4907	6.0482	4.1307	2.3555	8.1363	7.2914	4.2929	9.0239	9.738	6.4038	10.0253	10.2586	8.2387	-0.458	-4.0056	-4.4693	0.9075	5.1748	6.6115	4.0113	8.2871
1.1863	5.721	3.8206	2.0853	7.8547	7.0581	4.071	8.7679	9.4677	6.1278	9.7209	9.9485	7.9286	-0.4153	-4.2644	-4.9444	0.8392	4.9842	6.3725	3.8462	8.0026
0.8648	5.3711	3.5532	1.7951	7.536	6.7964	3.8434	8.4691	9.1576	5.8633	9.4165	9.6384	7.6527	-0.3755	-4.5176	-5.3995	0.7596	4.7566	6.179	3.6926	7.7124
0.5661	5.024	3.2687	1.5362	7.2203	6.5346	3.5874	8.1818	8.8646	5.593	9.0922	9.3141	7.3284	-0.33	-4.7282	-5.8291	0.6685	4.5489	5.9202	3.5106	7.4109
0.2646	4.6769	2.9985	1.2603	6.9102	6.2871	3.3797	7.8916	8.5687	5.354	8.7679	9.0011	7.0211	-0.293	-4.9415	-6.1591	0.5917	4.3555	5.6755	3.374	7.0865
0.0171	4.3811	2.7254	0.9957	6.6143	6.0482	3.1919	7.5844	8.2672	5.1094	8.4407	8.6711	6.7395	-0.2674	-5.1122	-6.4777	0.5206	4.1535	5.4479	3.1891	6.8049
-0.2418	4.0653	2.4921	0.7539	6.3241	5.7893	2.9786	7.2857	7.9685	4.8619	8.1022	8.3497	6.4521	-0.2219	-5.2857	-6.7423	0.441	3.943	5.2203	3.0611	6.5375
-0.4381	3.8007	2.2588	0.5633	6.0482	5.5901	2.8136	7.0439	7.7181	4.6656	7.8091	8.0595	6.1961	-0.1849	-5.3995	-6.9415	0.3585	3.8007	5.0155	2.9188	6.2843
-0.6259	3.5731	2.0796	0.3698	5.8177	5.3967	2.677	6.7708	7.4365	4.4607	7.5133	7.7864	5.9799	-0.1536	-5.4678	-7.1008	0.2987	3.6073	4.8192	2.788	6.014
-0.7766	3.3712	1.9203	0.2447	5.5845	5.2545	2.5461	6.5574	7.2316	4.3327	7.2686	7.5133	5.7637	-0.1252	-5.5333	-7.2003	0.2418	3.4707	4.6485	2.6543	5.812
-0.8392	3.2716	1.8207	0.1422	5.4479	5.1321	2.4665	6.3753	7.0752	4.2075	7.0296	7.3141	5.5901	-0.1024	-5.5503	-7.2771	0.1906	3.3256	4.4863	2.5547	5.6044
-0.8933	3.1948	1.778	0.0996	5.3426	5.0667	2.438	6.2274	6.9528	4.1364	6.8021	7.1321	5.4564	-0.074	-5.4849	-7.206	0.1366	3.2289	4.3384	2.4437	5.4195
-0.8364	3.1891	1.7951	0.1109	5.3	5.0638	2.4523	6.1079	6.8504	4.1279	6.6513	7.0183	5.3626	-0.0541	-5.3796	-7.1491	0.1024	3.1549	4.2531	2.3783	5.263
-0.7368	3.2488	1.8719	0.1906	5.3085	5.1122	2.4949	6.0396	6.8191	4.1364	6.5119	6.9272	5.3256	-0.0284	-5.2516	-6.987	0.0626	3.1123	4.1649	2.3214	5.1293
-0.5974	3.3541	1.9686	0.3072	5.3654	5.2004	2.6059	6.0425	6.8618	4.1876	6.4152	6.876	5.3085	-0.0199	-5.0439	-6.7708	0.0284	3.0781	4.1279	2.2986	5.0382
-0.3698	3.5618	2.1678	0.4666	5.4906	5.3341	2.7567	6.0539	6.9187	4.3071	6.3924	6.9073	5.3483	-0.0028	-4.8306	-6.4977	0.0171	3.0668	4.1194	2.2787	4.9956
-0.1081	3.8093	2.3982	0.697	5.6641	5.5276	2.933	6.1164	7.0353	4.4323	6.3497	6.9244	5.4166	-0.0085	-4.566	-6.1819	0.0171	3.081	4.1364	2.2759	4.9245
0.2162	4.0909	2.7026	0.9445	5.8917	5.7836	3.1635	6.216	7.1833	4.6058	6.4038	6.987	5.5105	-0.0284	-4.2844	-5.8405	0.0341	3.1037	4.199	2.3129	4.9273
0.6145	4.4437	3.0525	1.2859	6.1648	6.0681	3.4394	6.381	7.4023	4.8448	6.4664	7.115	5.6584	-0.0398	-3.9544	-5.4422	0.0597	3.172	4.2588	2.3897	4.9557
1.0298	4.8277	3.4593	1.6301	6.4749	6.4095	3.7296	6.5688	7.647	5.0866	6.5688	7.28	5.8462	-0.0683	-3.5987	-5.007	0.1223	3.2574	4.3725	2.4836	5.0013
1.485	5.2345	3.869	2.0198	6.8191	6.7622	4.0795	6.8049	7.9343	5.3739	6.7053	7.482	6.0567	-0.1024	-3.2118	-4.5831	0.1935	3.3342	4.5119	2.5661	5.0525
1.9487	5.6641	4.3043	2.4039	7.1662	7.169	4.4266	7.0467	8.2501	5.6755	6.8703	7.6897	6.2729	-0.1394	-2.7937	-4.1279	0.2731	3.4394	4.6257	2.7055	5.1549
2.458	6.1136	4.7936	2.8619	7.5815	7.6185	4.8021	7.3312	8.6199	6.0425	7.0496	7.9428	6.5318	-0.1849	-2.3925	-3.6727	0.3698	3.5561	4.7794	2.8306	5.226
2.9103	6.5631	5.2943	3.2915	7.9884	8.0396	5.1776	7.6242	8.9926	6.3696	7.2515	8.233	6.7935	-0.2447	-1.9487	-3.2659	0.4865	3.6727	4.9358	2.9729	5.3227
3.4366	7.0097	5.7921	3.7211	8.3895	8.509	5.5759	7.9372	9.3767	6.7338	7.5076	8.5289	7.0752	-0.3101	-1.5277	-2.8562	0.6088	3.7979	5.1179	3.1123	5.4507
3.9088	7.4962	6.3184	4.2019	8.856	8.9983	5.9913	8.2757	9.7977	7.1349	7.7494	8.8617	7.3511	-0.3698	-1.1038	-2.4466	0.7397	3.9458	5.317	3.2716	5.5958
4.4067	7.9542	6.8533	4.6542	9.2828	9.499	6.4095	8.6341	10.2187	7.499	8.0282	9.1889	7.6726	-0.4324	-0.697	-2.091	0.8677	4.0568	5.5133	3.4394	5.758
4.9074	8.4322	7.371	5.1321	9.7323	9.9769	6.8106	8.9841	10.6625	7.903	8.3269	9.5502	7.9741	-0.5064	-0.3129	-1.724	0.9957	4.1763	5.7239	3.5902	5.9145
5.4223	8.9129	7.9116	5.6186	10.1789	10.4691	7.2373	9.3567	11.0864	8.2928	8.5972	9.8887	8.2672	-0.5661	0.0626	-1.4423	1.1095	4.3384	5.9429	3.7808	6.0908
5.8945	9.3681	8.4379	6.0624	10.6312	10.9584	7.6043	9.7323	11.5217	8.6683	8.9073	10.2614	8.5772	-0.6145	0.3954	-1.1408	1.2034	4.4664	6.1392	3.943	6.2843
6.3497	9.7835	8.9016	6.4834	11.0352	11.4107	7.9855	10.0765	11.9513	9.0125	9.186	10.5999	8.8703	-0.6572	0.6657	-0.899	1.2973	4.5859	6.3412	4.1222	6.4208
6.8134	10.1675	9.3823	6.8902	11.405	11.8375	8.3354	10.378	12.3325	9.3511	9.4307	10.9072	9.1292	-0.7112	0.9047	-0.7397	1.3911	4.6713	6.5204	4.2445	6.5631
7.189	10.5146	9.7863	7.2316	11.7407	12.1902	8.6085	10.6625	12.6596	9.6185	9.6839	11.2059	9.3681	-0.7425	1.0583	-0.5804	1.4566	4.7594	6.6456	4.3896	6.6911
7.5673	10.8218	10.1561	7.5673	12.0793	12.58	8.9044	10.9442	12.9839	9.9229	9.9115	11.4904	9.5986	-0.7567	1.2034	-0.4808	1.5021	4.8363	6.8049	4.5205	6.8277
7.9116	11.1092	10.5089	7.8689	12.3438	12.8957	9.1576	11.1803	13.2855	10.1533	10.1448	11.7208	9.7806	-0.788	1.357	-0.3983	1.5533	4.8846	6.9272	4.6144	6.95
8.2046	11.3055	10.7906	8.1135	12.5686	13.1376	9.3596	11.3425	13.4761	10.3325	10.287	11.9256	9.9143	-0.7966	1.4452	-0.4239	1.5846	4.8818	7.0296	4.6769	7.0211
8.4919	11.4961	11.0324	8.307	12.7364	13.3595	9.5388	11.4989	13.6752	10.5004	10.4293	12.0907	10.0566	-0.8079	1.5419	-0.4438	1.6017	4.896	7.0894	4.7367	7.0894
8.728	11.6013	11.2372	8.4663	12.873	13.5245	9.6498	11.6469	13.8175	10.6312	10.5174	12.2187	10.1334	-0.7937	1.613	-0.5035	1.5732	4.9245	7.1235	4.805	7.1264
8.9215	11.7066	11.4278	8.6029	12.9669	13.6752	9.7778	11.7464	13.9626	10.7507	10.6113	12.341	10.2244	-0.7681	1.6955	-0.6088	1.5192	4.9358	7.1861	4.8676	7.1861
9.0808	11.7294	11.5188	8.6967	13.001	13.7663	9.8688	11.7976	14.0223	10.8218	10.6597	12.4377	10.2643	-0.734	1.8093	-0.7055	1.4594	4.9586	7.1747	4.8875	7.1946
9.2088	11.7436	11.6355	8.765	13.0124	13.8345	9.903	11.8403	14.0934	10.8873	10.7052	12.4861	10.3268	-0.697	1.8748	-0.771	1.3798	4.9643	7.189	4.9387	7.206
9.3198	11.7464	11.7151	8.8219	13.0522	13.9256	9.9855	11.8858	14.1446	10.947	10.745	12.5629	10.3695	-0.6486	1.98	-0.8023	1.2802	4.9757	7.1804	5.0041	7.2316
9.3966	11.7151	11.772	8.8788	13.0408	13.9512	10.0253	11.9313	14.1958	11.0181	10.7735	12.6283	10.4293	-0.5974	2.0682	-0.8108	1.1749	5.0098	7.1804	5.0439	7.28
9.4961	11.7407	11.8403	8.9129	13.0408	14.0052	10.085	11.9513	14.2243	11.075	10.8133	12.6995	10.5061	-0.5263	2.1735	-0.7226	1.0469	5.0525	7.1946	5.0951	7.3141
9.5872	11.7208	11.9228	8.9727	13.0465	14.0764	10.1448	12.0025	14.2897	11.149	10.8702	12.745	10.563	-0.4466	2.2674	-0.5946	0.8961	5.1207	7.2032	5.1805	7.3739
9.6384	11.6924	11.9569	8.9727	13.0494	14.1133	10.1789	12.0366	14.3267	11.1518	10.9072	12.7876	10.6142	-0.3841	2.3442	-0.4324	0.7738	5.172	7.2146	5.2004	7.4109
9.7266	11.7237	11.9882	9.0068	13.0408	14.1389	10.2102	12.0736	14.3808	11.1974	10.9385	12.8275	10.654	-0.3215	2.4324	-0.2361	0.6344	5.226	7.2259	5.263	7.5047
9.7863	11.7322	12.011	9.0097	13.0522	14.1788	10.2415	12.1077	14.4234	11.2372	10.9783	12.8645	10.728	-0.2646	2.5035	0	0.5235	5.2857	7.2572	5.3057	7.5815
9.8233	11.7606	12.0252	9.0182	13.0664	14.2044	10.2785	12.1248	14.4433	11.2486	11.0324	12.927	10.7706	-0.2134	2.5547	0.2788	0.4267	5.3597	7.2715	5.3426	7.6413
9.9143	11.7891	12.102	9.0495	13.112	14.2471	10.3126	12.1959	14.4917	11.277	11.0921	12.9669	10.8048	-0.1735	2.64	0.6173	0.3357	5.3967	7.3397	5.4024	7.7693
10.0338	11.8801	12.1475	9.0751	13.1461	14.321	10.3752	12.2585	14.5458	11.3026	11.1575	13.0124	10.8702	-0.1422	2.7339	0.9673	0.2703	5.4707	7.4052	5.4593	7.866
10.085	11.9029	12.1902	9.0808	13.1831	14.321	10.3923	12.2898	14.5628	11.3282	11.1945	13.0209	10.8958	-0.128	2.7766	1.3428	0.2532	5.519	7.4194	5.4906	7.9315
10.1874	12.0053	12.2585	9.1348	13.2201	14.3637	10.4349	12.3211	14.5941	11.3254	11.2372	13.0266	10.9385	-0.1166	2.9074	1.7496	0.2361	5.5503	7.482	5.5645	8.0396
10.2785	12.0537	12.3125	9.1292	13.2485	14.3865	10.4406	12.3638	14.5941	11.3453	11.277	13.038	10.9556	-0.128	2.9871	2.1536	0.2418	5.5901	7.5503	5.6385	8.1107
10.415	12.139	12.3552	9.1832	13.3054	14.449	10.4776	12.415	14.6084	11.3453	11.3396	13.0551	10.9812	-0.1252	3.1293	2.5604	0.239	5.6499	7.5958	5.721	8.1903
10.4719	12.1618	12.4007	9.186	13.3339	14.4405	10.4748	12.4406	14.634	11.3311	11.3481	13.038	10.9698	-0.1223	3.1948	2.9103	0.2532	5.6641	7.6527	5.7551	8.2672
10.526	12.2443	12.4377	9.1804	13.3452	14.4746	10.5118	12.4576	14.6226	11.3311	11.3965	13.0295	10.9925	-0.1252	3.246	3.2261	0.2731	5.7068	7.6925	5.832	8.3411
10.5487	12.267	12.4463	9.1832	13.3708	14.4832	10.5146	12.4776	14.6084	11.3225	11.4022	12.9868	10.9669	-0.1678	3.3029	3.4622	0.33	5.6954	7.7295	5.8576	8.4066
10.5317	12.23	12.432	9.1377	13.3708	14.4633	10.4947	12.4776	14.5742	11.277	11.4022	12.9498	10.9385	-0.1849	3.3086	3.576	0.3727	5.6897	7.7522	5.9002	8.435
10.4662	12.1959	12.3951	9.0751	13.3196	14.4206	10.4549	12.4576	14.5287	11.2343	11.4221	12.91	10.9072	-0.2134	3.2574	3.6158	0.4324	5.6954	7.775	5.8889	8.472
10.3496	12.102	12.3353	8.9812	13.277	14.3608	10.3951	12.4007	14.4661	11.1661	11.3709	12.8388	10.8617	-0.2475	3.1464	3.5646	0.5121	5.6783	7.7551	5.8746	8.4777
10.2074	12.0053	12.2044	8.8447	13.1745	14.2983	10.2899	12.3438	14.3836	11.0836	11.3652	12.782	10.7934	-0.2873	3.0298	3.4423	0.5661	5.593	7.7323	5.8462	8.4891
10.0025	11.846	12.048	8.6939	13.0579	14.1816	10.1988	12.2414	14.2812	10.9783	11.2799	12.6767	10.7052	-0.33	2.8477	3.2261	0.6543	5.5418	7.6925	5.795	8.4464
9.755	11.6412	11.8659	8.5004	12.8872	14.0479	10.0708	12.1362	14.1532	10.8702	11.2116	12.58	10.6341	-0.3528	2.6571	2.9757	0.734	5.4792	7.647	5.7324	8.4208
9.4904	11.3994	11.6525	8.2956	12.7336	13.8829	9.903	12.0195	14.0024	10.7649	11.1206	12.4491	10.526	-0.4011	2.4466	2.6486	0.7966	5.3825	7.5503	5.6584	8.361
9.1576	11.1063	11.3823	8.0367	12.4975	13.6724	9.7266	11.8431	13.8203	10.5743	11.0068	12.2813	10.3866	-0.421	2.1763	2.2759	0.8762	5.2772	7.4279	5.5333	8.2472
8.8077	10.7906	11.0693	7.7778	12.2471	13.442	9.5161	11.6497	13.6041	10.4264	10.8731	12.1305	10.2415	-0.4666	1.9146	1.8776	0.9416	5.189	7.2942	5.4536	8.1647
8.4236	10.4093	10.7507	7.482	11.974	13.203	9.2828	11.4363	13.3765	10.2216	10.6967	11.9484	10.0879	-0.5064	1.6785	1.4822	1.0014	5.0695	7.1605	5.3057	8.0282
8.0737	10.0224	10.4349	7.2089	11.6554	12.927	9.0979	11.1803	13.1347	10.0167	10.4947	11.7521	9.9286	-0.5178	1.4651	1.0839	1.027	4.97	6.9727	5.1976	7.8603
7.6953	9.6298	10.0708	6.9215	11.3481	12.6767	8.8504	10.9356	12.8502	9.8347	10.2955	11.5558	9.755	-0.5178	1.2603	0.7112	1.0412	4.8562	6.7878	5.0752	7.7295
7.3255	9.2373	9.7351	6.6427	11.0295	12.3808	8.6228	10.691	12.5913	9.627	10.0964	11.3311	9.553	-0.5235	1.118	0.3784	1.0469	4.7481	6.6115	4.9557	7.5588
6.987	8.8447	9.3966	6.3725	10.7251	12.0679	8.4094	10.4207	12.3325	9.4336	9.866	11.1149	9.3738	-0.5291	1.0099	0.1081	1.0498	4.6542	6.4322	4.8533	7.3625
6.6399	8.4635	9.0523	6.1335	10.3894	11.7863	8.1875	10.1561	12.0451	9.2316	9.6583	10.8901	9.2003	-0.5235	0.9303	-0.128	1.0526	4.5489	6.2388	4.7395	7.189
6.3497	8.1249	8.7479	5.9002	10.0822	11.5131	7.9798	9.9172	11.7834	9.0609	9.425	10.6796	9.0068	-0.5206	0.8848	-0.293	1.0241	4.455	6.0652	4.6257	7.0183
6.0852	7.7807	8.4549	5.6954	9.7806	11.24	7.775	9.6412	11.516	8.8845	9.2173	10.4805	8.8532	-0.5064	0.8591	-0.4068	1.0128	4.3697	5.9031	4.5347	6.8334
5.8462	7.4706	8.1733	5.5333	9.4876	10.9726	7.5872	9.4165	11.2827	8.6967	8.9869	10.2529	8.6512	-0.4779	0.8392	-0.4694	0.9616	4.29	5.7295	4.4266	6.6541
5.6328	7.2089	7.9172	5.3597	9.2344	10.7393	7.4535	9.1832	11.0437	8.5403	8.7792	10.0822	8.4947	-0.4779	0.8734	-0.4495	0.9331	4.199	5.5901	4.3441	6.5033
5.4365	6.9386	7.7039	5.2061	8.9869	10.5174	7.2743	8.9499	10.7962	8.3753	8.5516	9.866	8.3155	-0.458	0.8848	-0.4239	0.8961	4.1051	5.4195	4.2303	6.3298
5.2772	6.711	7.5076	5.1264	8.7707	10.2984	7.1463	8.7707	10.5999	8.2501	8.3753	9.6981	8.1534	-0.421	0.9559	-0.3186	0.8478	3.9856	5.2886	4.162	6.1933
5.1919	6.5233	7.3369	5.0297	8.563	10.1106	7.0496	8.5716	10.415	8.105	8.1647	9.5132	7.9997	-0.404	0.9929	-0.1792	0.7795	3.9088	5.172	4.0738	6.0482
5.0951	6.3611	7.1605	4.9671	8.3582	9.9314	6.9272	8.3639	10.213	7.9713	7.9542	9.3368	7.8063	-0.3698	1.0782	-0.0256	0.7283	3.8036	5.0183	3.96	5.886
5.061	6.2103	7.0581	4.9273	8.196	9.7778	6.8277	8.2103	10.0338	7.8803	7.7835	9.1604	7.6584	-0.3215	1.1152	0.128	0.6429	3.7097	4.9301	3.9117	5.7495
5.0126	6.0908	6.9386	4.8704	8.0396	9.6498	6.7281	8.0396	9.8546	7.7665	7.5759	8.9784	7.5133	-0.2873	1.1465	0.2987	0.5661	3.6187	4.8277	3.8263	5.5987
5.007	5.9856	6.8646	4.8789	7.903	9.536	6.6797	7.9201	9.7209	7.6811	7.4251	8.8077	7.3597	-0.2447	1.1835	0.458	0.4808	3.5532	4.7168	3.7524	5.4849
5.0382	5.8974	6.8077	4.8818	7.7807	9.4222	6.6342	7.7665	9.5815	7.5645	7.2601	8.637	7.2146	-0.202	1.1977	0.5832	0.3926	3.4736	4.6826	3.6812	5.3796
5.0525	5.8377	6.7281	4.8818	7.6897	9.334	6.5489	7.6441	9.4079	7.4763	7.0809	8.472	7.0752	-0.1565	1.1721	0.7027	0.3158	3.3939	4.5831	3.63	5.2459
5.1264	5.7637	6.6968	4.9017	7.5588	9.2259	6.5176	7.519	9.2913	7.3938	6.9557	8.3297	6.9557	-0.1024	1.118	0.7909	0.2276	3.3427	4.5404	3.5646	5.1577
5.1663	5.6954	6.6541	4.9017	7.4336	9.1149	6.4294	7.3653	9.1434	7.3056	6.7565	8.1249	6.7964	-0.091	0.9957	0.8079	0.1707	3.2687	4.4437	3.5106	5.0326
5.1919	5.6015	6.6228	4.8846	7.3198	9.0182	6.3782	7.2316	8.9954	7.1975	6.583	7.9457	6.6598	-0.0484	0.8848	0.8222	0.0967	3.2118	4.3839	3.4508	4.9131
5.2232	5.5418	6.583	4.8789	7.2459	8.9329	6.3127	7.1036	8.8248	7.1292	6.4237	7.775	6.5204	-0.0284	0.7226	0.771	0.0512	3.1407	4.3242	3.4394	4.7907
5.2829	5.4934	6.583	4.8988	7.1491	8.8873	6.2843	7.004	8.7195	7.0581	6.2644	7.61	6.3924	0.0057	0.569	0.7027	-0.0114	3.0867	4.2787	3.4081	4.6912
5.3085	5.4337	6.5346	4.8761	7.0609	8.8134	6.2246	6.8703	8.5687	6.9727	6.1164	7.4393	6.2672	0.0085	0.3983	0.6173	-0.0228	3.0497	4.2189	3.3854	4.566
5.3256	5.391	6.5147	4.8818	6.987	8.7508	6.1876	6.7736	8.4691	6.8959	5.9628	7.2828	6.1506	0.0028	0.2219	0.5178	-0.0085	2.9615	4.1876	3.374	4.4494
5.3739	5.3512	6.5318	4.8875	6.9443	8.7252	6.1648	6.6883	8.3639	6.8618	5.849	7.1463	6.0539	-0.0085	0.0654	0.4125	0.0228	2.9131	4.1649	3.3512	4.3754
5.3739	5.3398	6.5005	4.8846	6.8732	8.6569	6.1136	6.5944	8.2842	6.8191	5.721	7.0211	5.9628	-0.0455	-0.0939	0.3158	0.0768	2.8449	4.1137	3.3313	4.2844
5.4138	5.3284	6.5375	4.9045	6.859	8.6569	6.1193	6.5204	8.1932	6.7793	5.6129	6.9016	5.8718	-0.0711	-0.2447	0.2134	0.1394	2.8079	4.1023	3.337	4.1933
5.4451	5.3483	6.5517	4.9159	6.8419	8.6455	6.1108	6.4834	8.1391	6.785	5.519	6.8049	5.8177	-0.1166	-0.3755	0.1878	0.2134	2.7624	4.1307	3.3029	4.1649
5.4991	5.3853	6.5972	4.9557	6.859	8.6598	6.1392	6.4436	8.1078	6.7878	5.4337	6.7309	5.8007	-0.1366	-0.4922	0.1451	0.2646	2.7624	4.1478	3.32	4.1307
5.5702	5.4052	6.6314	4.9813	6.859	8.6854	6.1221	6.4095	8.0652	6.7935	5.3853	6.657	5.7665	-0.1849	-0.5604	0.1081	0.3442	2.7368	4.1563	3.3342	4.0795
5.5816	5.4337	6.6826	4.9956	6.8789	8.6967	6.1506	6.3981	8.0424	6.7765	5.317	6.5745	5.7409	-0.1935	-0.6401	0.0683	0.4011	2.751	4.1848	3.32	4.0169
5.63	5.465	6.6968	5.0013	6.8732	8.6996	6.1591	6.3469	7.9997	6.7821	5.2345	6.4834	5.6983	-0.2503	-0.7482	0.0398	0.4865	2.7225	4.1848	3.283	3.9743
5.6499	5.4507	6.711	4.9842	6.8846	8.6996	6.125	6.3071	7.9428	6.7679	5.1691	6.3981	5.647	-0.2845	-0.771	-0.0057	0.5604	2.7055	4.162	3.2659	3.9031
5.6698	5.4536	6.6883	4.9927	6.8789	8.6626	6.1449	6.2473	7.8859	6.7679	5.0781	6.2985	5.6072	-0.3186	-0.825	-0.0341	0.6515	2.714	4.1649	3.2517	3.8235
5.684	5.4707	6.7139	4.9728	6.876	8.674	6.1506	6.2302	7.8575	6.7679	5.0212	6.2246	5.5731	-0.3698	-0.8449	-0.0512	0.7311	2.7026	4.1563	3.2488	3.7524
5.6812	5.4308	6.7196	4.9728	6.876	8.6825	6.1534	6.1677	7.8034	6.785	4.9273	6.1278	5.5532	-0.404	-0.8222	-0.0455	0.8051	2.7424	4.1905	3.2346	3.7069
5.7096	5.4593	6.7167	4.9444	6.8846	8.674	6.1477	6.1591	7.7722	6.7565	4.8932	6.0567	5.5133	-0.4637	-0.7539	-0.0028	0.9018	2.7339	4.1905	3.2318	3.6699
5.7324	5.4678	6.711	4.9358	6.8846	8.6626	6.1563	6.1108	7.7209	6.7651	4.8363	5.9571	5.4877	-0.5092	-0.6572	0.0768	0.9929	2.7424	4.2189	3.2232	3.6244
5.7551	5.4479	6.7167	4.9245	6.8817	8.674	6.1648	6.1164	7.701	6.7679	4.8135	5.8917	5.4735	-0.5547	-0.5519	0.1252	1.0953	2.7908	4.2588	3.2545	3.6187
5.7495	5.4707	6.7252	4.896	6.8874	8.6711	6.1677	6.1164	7.6754	6.7907	4.805	5.8547	5.4507	-0.6088	-0.441	0.2162	1.1977	2.8278	4.2929	3.2545	3.6044
5.7751	5.4963	6.7338	4.8903	6.9159	8.6683	6.2103	6.1364	7.6811	6.7935	4.7851	5.8092	5.4507	-0.6543	-0.2134	0.33	1.2887	2.8591	4.3583	3.3029	3.6215
5.8007	5.4991	6.7281	4.9188	6.9329	8.6768	6.2359	6.1449	7.6641	6.8163	4.7964	5.7751	5.4507	-0.6998	-0.0256	0.4381	1.3798	2.8989	4.4437	3.3399	3.6585
5.812	5.5162	6.7281	4.9358	6.9471	8.6683	6.2644	6.162	7.6584	6.8504	4.8306	5.7665	5.4764	-0.7539	0.1849	0.5291	1.485	2.9387	4.5119	3.3484	3.7182
5.8206	5.5702	6.7338	4.9472	7.0126	8.6825	6.2985	6.2046	7.6441	6.8618	4.8533	5.7523	5.465	-0.7937	0.4153	0.5718	1.559	3.0156	4.6115	3.4252	3.7894
5.8149	5.5674	6.7224	4.9757	7.0126	8.674	6.3213	6.2416	7.647	6.8817	4.8932	5.7352	5.4849	-0.825	0.6515	0.6145	1.6301	3.0468	4.7054	3.4707	3.8548
5.8291	5.5958	6.7281	5.0013	7.0638	8.6569	6.3526	6.2729	7.6242	6.8988	4.9131	5.7466	5.502	-0.8506	0.8819	0.6259	1.6842	3.1151	4.8163	3.5418	3.9401
5.8149	5.5845	6.694	5.0098	7.0609	8.6512	6.3611	6.3071	7.6271	6.9187	4.9472	5.7324	5.5076	-0.8791	1.0981	0.623	1.7211	3.1379	4.8875	3.5618	4.0084
5.7921	5.5958	6.6285	5.0183	7.041	8.6029	6.3383	6.3184	7.5503	6.8817	4.9757	5.7125	5.4792	-0.862	1.2887	0.5633	1.7325	3.1493	4.9671	3.5987	4.0795
5.7779	5.5788	6.5802	5.0326	7.041	8.5602	6.3526	6.3383	7.5218	6.8732	5.0126	5.6983	5.4877	-0.8791	1.4395	0.4865	1.7411	3.1948	5.0525	3.6613	4.145
5.721	5.5105	6.509	5.0183	6.9927	8.4891	6.3327	6.3071	7.4478	6.839	4.9842	5.6129	5.4166	-0.8762	1.5647	0.4068	1.7354	3.1919	5.0838	3.6756	4.1933
5.6783	5.4991	6.4237	5.0297	6.95	8.398	6.3042	6.2786	7.3824	6.7821	4.9757	5.5731	5.3426	-0.8677	1.65	0.3243	1.7012	3.1891	5.1094	3.7069	4.2474
5.647	5.4507	6.3412	5.0326	6.9159	8.3411	6.2786	6.2672	7.2857	6.7309	4.9557	5.4991	5.2943	-0.8449	1.7467	0.2503	1.6671	3.1606	5.1378	3.7069	4.2787
5.5901	5.3967	6.2558	5.024	6.8362	8.2131	6.2103	6.2075	7.1662	6.6513	4.9074	5.4166	5.1976	-0.8222	1.8321	0.2077	1.6216	3.1521	5.1634	3.741	4.2872
5.5532	5.3682	6.1677	5.0269	6.7907	8.1391	6.2018	6.1705	7.0723	6.5944	4.859	5.3085	5.098	-0.7909	1.9174	0.2105	1.559	3.1265	5.1407	3.7467	4.2844
5.5048	5.317	6.1051	5.0098	6.7252	8.051	6.1563	6.125	6.9471	6.5375	4.8306	5.2203	5.0098	-0.7539	2.0227	0.2902	1.5078	3.0838	5.1321	3.7581	4.2872
5.4735	5.2857	6.0311	5.0439	6.6598	7.9542	6.1136	6.0482	6.8533	6.4834	4.768	5.1122	4.9102	-0.7397	2.1422	0.3869	1.4679	3.0412	5.135	3.7808	4.2844
5.465	5.2687	5.9685	5.0525	6.6086	7.8774	6.0965	6.0197	6.7509	6.4123	4.7282	5.0354	4.8334	-0.7197	2.2332	0.5547	1.4025	3.0269	5.1094	3.8007	4.2844
5.5076	5.2801	5.9514	5.098	6.6115	7.8376	6.1079	5.997	6.6712	6.381	4.6997	4.9899	4.7424	-0.6714	2.3612	0.8165	1.3285	2.9928	5.1094	3.8349	4.3014
5.5532	5.3256	5.9458	5.1492	6.6115	7.8006	6.0908	5.9742	6.6115	6.3184	4.6713	4.9102	4.6769	-0.6344	2.5006	1.0782	1.2404	2.9814	5.1037	3.8548	4.2844
5.5987	5.3711	5.9628	5.2203	6.5915	7.7921	6.0994	5.9344	6.5432	6.2957	4.6599	4.8562	4.603	-0.6088	2.5974	1.4025	1.1721	2.9245	5.1037	3.8719	4.29
5.667	5.3939	5.9571	5.3028	6.6058	7.7864	6.1136	5.9884	6.5233	6.2502	4.6457	4.822	4.5489	-0.5434	2.714	1.7211	1.0782	2.9018	5.0866	3.8775	4.2957
5.7551	5.4593	6.0112	5.3853	6.6627	7.7921	6.1307	5.96	6.4834	6.2587	4.6229	4.7851	4.4636	-0.5149	2.8136	2.0654	0.99	2.8505	5.0866	3.9003	4.2787
5.8462	5.5503	6.0539	5.4877	6.674	7.8262	6.1819	5.96	6.4721	6.216	4.6229	4.7794	4.4181	-0.4609	2.9188	2.4096	0.9018	2.8079	5.0496	3.8918	4.2616
5.9258	5.6186	6.125	5.5702	6.7338	7.8291	6.2189	5.9856	6.4635	6.1989	4.5973	4.7509	4.3612	-0.404	3.0042	2.6855	0.788	2.7709	5.0297	3.8775	4.2388
6.0254	5.6783	6.1961	5.667	6.7537	7.8888	6.2672	6.0027	6.4806	6.1904	4.6001	4.7139	4.2929	-0.3471	3.0838	2.953	0.6941	2.7254	5.0041	3.8889	4.2047
6.0937	5.721	6.2274	5.7295	6.785	7.9116	6.2644	6.0027	6.4607	6.1477	4.5717	4.6997	4.236	-0.3101	3.1208	3.1834	0.6116	2.6429	4.9614	3.8519	4.162
6.1733	5.7864	6.3099	5.8007	6.822	7.9514	6.2843	5.9856	6.418	6.1164	4.529	4.6542	4.1535	-0.2674	3.1635	3.3854	0.5263	2.6087	4.9045	3.8292	4.1165
6.2132	5.8547	6.3298	5.8604	6.8419	7.9798	6.3042	5.9913	6.4123	6.0652	4.5034	4.6343	4.0824	-0.2333	3.2118	3.5532	0.4523	2.5547	4.8505	3.8093	4.0738
6.2928	5.9002	6.4009	5.923	6.8846	8.014	6.3355	5.997	6.4208	6.0539	4.4892	4.6058	4.034	-0.1935	3.2175	3.6784	0.3812	2.4864	4.8021	3.7666	4.0084
6.3725	5.9714	6.4891	5.977	6.9358	8.068	6.3497	6.0311	6.418	6.0339	4.455	4.5973	3.9487	-0.1565	3.246	3.8206	0.3016	2.4295	4.7338	3.7125	3.9515
6.418	6.0197	6.5489	6.0396	6.9727	8.1192	6.3611	6.0197	6.4038	5.9827	4.4124	4.5688	3.8605	-0.1479	3.2631	3.9316	0.2703	2.3299	4.657	3.6471	3.8719
6.4806	6.1022	6.6314	6.0908	7.0581	8.1932	6.3782	6.051	6.4294	5.9486	4.3896	4.5404	3.795	-0.1166	3.2687	4.0397	0.2361	2.2389	4.603	3.5731	3.7979
6.5574	6.1762	6.7509	6.1421	7.1178	8.2501	6.4123	6.0965	6.4607	5.9202	4.3697	4.5461	3.7268	-0.1024	3.2744	4.1592	0.1991	2.1336	4.5603	3.4992	3.7381
6.6399	6.2701	6.8248	6.2046	7.1804	8.3411	6.4294	6.1193	6.4806	5.8974	4.3498	4.5375	3.6585	-0.0797	3.2801	4.2673	0.1821	2.0426	4.492	3.4025	3.6784
6.7053	6.3725	6.9471	6.2502	7.2828	8.4236	6.4607	6.1477	6.5346	5.8803	4.3157	4.5176	3.576	-0.0882	3.2801	4.3555	0.1764	1.926	4.4095	3.3086	3.5788
6.8163	6.5147	7.1036	6.3156	7.4165	8.5716	6.5176	6.2416	6.6171	5.8974	4.3327	4.5262	3.5333	-0.0768	3.3114	4.4664	0.1565	1.8264	4.3839	3.2602	3.5305
6.913	6.6513	7.2146	6.3696	7.4791	8.6484	6.5432	6.2701	6.6484	5.8775	4.3498	4.5404	3.448	-0.0853	3.2773	4.5461	0.165	1.7098	4.2986	3.1749	3.4508
7.0638	6.8021	7.408	6.4749	7.6356	8.8333	6.6342	6.344	6.7224	5.9031	4.3441	4.5745	3.4138	-0.0768	3.2943	4.6115	0.1536	1.596	4.2872	3.1151	3.3939
7.2089	6.9415	7.5531	6.546	7.7835	8.9329	6.674	6.4009	6.8134	5.923	4.3583	4.6058	3.3854	-0.074	3.2943	4.6798	0.1536	1.4964	4.2445	3.0298	3.3456
7.3227	7.0951	7.7209	6.6086	7.9059	9.0723	6.7196	6.4834	6.8931	5.9145	4.3982	4.6343	3.3399	-0.0967	3.2574	4.7737	0.1792	1.3655	4.1933	2.9473	3.2716
7.4905	7.2658	7.8973	6.6968	8.0111	9.1946	6.7594	6.5346	6.9614	5.9258	4.3953	4.6457	3.2858	-0.1195	3.2687	4.8107	0.2105	1.2432	4.1677	2.8591	3.1976
7.6669	7.4336	8.1022	6.785	8.1534	9.3311	6.8191	6.6086	7.0695	5.9571	4.4067	4.657	3.2517	-0.1337	3.3256	4.9358	0.2503	1.1209	4.1336	2.7709	3.1606
7.8404	7.5901	8.2785	6.8874	8.2814	9.4705	6.8817	6.6854	7.1577	5.9458	4.4294	4.6798	3.2033	-0.1565	3.3512	5.0126	0.3016	1.0185	4.0966	2.6941	3.0895
8.0282	7.7522	8.4606	6.9813	8.4009	9.5957	6.9159	6.7252	7.2089	5.9486	4.3982	4.6713	3.1322	-0.1935	3.4309	5.098	0.3784	0.8591	4.0369	2.5917	3.0212
8.2359	7.9286	8.6427	7.0723	8.5033	9.6782	6.9699	6.7281	7.2231	5.9202	4.3782	4.6144	3.0895	-0.2532	3.5788	5.189	0.4666	0.7454	3.9999	2.5035	2.9444
8.4094	8.0538	8.8048	7.1861	8.5829	9.7664	6.9955	6.748	7.2771	5.9002	4.364	4.6001	3.0355	-0.2845	3.7325	5.2886	0.5576	0.6344	3.9572	2.4238	2.8591
8.6683	8.2074	9.0182	7.3284	8.6939	9.8916	7.0524	6.7708	7.3113	5.8945	4.3213	4.5575	2.97	-0.3215	3.9373	5.4195	0.6316	0.532	3.906	2.3442	2.7937
8.8504	8.3241	9.1832	7.3995	8.7366	9.9229	7.115	6.7651	7.317	5.8974	4.2986	4.5148	2.9018	-0.3869	4.1336	5.4906	0.7425	0.4153	3.8861	2.2474	2.7112
9.0495	8.4521	9.3283	7.5104	8.8048	9.994	7.1321	6.7679	7.3284	5.8604	4.2588	4.4607	2.8278	-0.421	4.3498	5.556	0.8563	0.3044	3.8064	2.1479	2.6372
9.2145	8.526	9.4364	7.6214	8.8418	10.0424	7.1434	6.7565	7.3141	5.8377	4.2104	4.3982	2.7624	-0.5035	4.566	5.5873	0.9929	0.1878	3.7581	2.0483	2.5518
9.3767	8.6142	9.5616	7.6697	8.8532	10.0907	7.1463	6.7196	7.3198	5.8007	4.1677	4.3441	2.6855	-0.5604	4.7708	5.6214	1.1038	0.0967	3.7069	1.9573	2.4949
9.5274	8.6683	9.6555	7.7778	8.8873	10.1021	7.1577	6.711	7.3056	5.7808	4.1222	4.2872	2.6315	-0.6031	4.9842	5.6129	1.2062	0.0114	3.6357	1.8691	2.3954
9.6668	8.7423	9.738	7.849	8.8873	10.1419	7.1491	6.6911	7.2857	5.7523	4.108	4.2502	2.5661	-0.66	5.1407	5.5759	1.2973	-0.0882	3.6016	1.7866	2.3442
9.7408	8.7337	9.7863	7.8859	8.8418	10.1078	7.1178	6.6683	7.2629	5.7011	4.071	4.1933	2.5063	-0.6913	5.2801	5.519	1.3712	-0.1366	3.5618	1.6984	2.3072
9.8091	8.7309	9.7977	7.9229	8.8048	10.085	7.0894	6.6029	7.2174	5.6385	4.0312	4.1421	2.4437	-0.7283	5.3512	5.4223	1.4367	-0.2361	3.5106	1.6159	2.256
9.8461	8.6768	9.8005	7.8916	8.7622	9.9997	7.024	6.5489	7.1662	5.5731	3.9885	4.0824	2.3925	-0.7454	5.3882	5.3256	1.4964	-0.2959	3.4309	1.5248	2.1649
9.8802	8.6313	9.7863	7.8831	8.6939	9.957	6.95	6.509	7.1321	5.5105	3.9714	4.0425	2.3356	-0.7624	5.4451	5.1805	1.522	-0.3727	3.3996	1.4736	2.128
9.883	8.563	9.7294	7.8404	8.6142	9.8887	6.9045	6.4777	7.0638	5.4536	3.9544	3.9828	2.2674	-0.771	5.4593	5.0695	1.522	-0.4239	3.3541	1.4196	2.0938
9.8375	8.4521	9.6071	7.7437	8.4947	9.7892	6.7594	6.3839	6.9671	5.3426	3.8861	3.9003	2.2076	-0.7567	5.4223	4.9017	1.5106	-0.4637	3.2858	1.3513	2.0255
9.7806	8.3184	9.5217	7.6584	8.3753	9.664	6.6655	6.3184	6.9073	5.2317	3.8434	3.8349	2.1393	-0.7425	5.4166	4.7481	1.4736	-0.5576	3.246	1.2773	1.98
9.6839	8.179	9.4079	7.5389	8.2472	9.5132	6.529	6.2217	6.8049	5.1264	3.7666	3.7637	2.0711	-0.7197	5.3796	4.5944	1.3997	-0.6173	3.1493	1.2091	1.9317
9.6071	8.0054	9.2657	7.4023	8.0965	9.3596	6.3896	6.1051	6.6683	5.0013	3.6955	3.667	1.9942	-0.6657	5.3142	4.4294	1.3229	-0.6771	3.0895	1.1579	1.8463
9.5274	7.8632	9.1235	7.2715	7.94	9.1974	6.2558	5.9913	6.5489	4.8704	3.6471	3.6016	1.9203	-0.606	5.3426	4.3185	1.2034	-0.7397	3.0156	1.1294	1.798
9.3909	7.6811	8.9329	7.1065	7.8063	9.0125	6.0766	5.886	6.4322	4.7338	3.5276	3.4764	1.8292	-0.5576	5.2971	4.1962	1.101	-0.8165	2.9473	1.027	1.724
9.2885	7.5218	8.7906	6.9415	7.6413	8.8504	5.9173	5.7608	6.2814	4.6144	3.448	3.4025	1.7553	-0.5035	5.3626	4.1307	1.0042	-0.8762	2.8591	0.9872	1.6329
9.1775	7.3682	8.6029	6.785	7.4734	8.6768	5.7836	5.6698	6.1677	4.4892	3.3484	3.3086	1.6728	-0.4637	5.3796	4.1194	0.9104	-0.936	2.7993	0.9331	1.5704
9.0609	7.2117	8.4435	6.6086	7.3597	8.5004	5.6243	5.5589	6.0595	4.3555	3.2915	3.2147	1.596	-0.4296	5.4536	4.1307	0.8364	-0.9729	2.7282	0.8933	1.4992
8.9499	7.0837	8.2899	6.4635	7.2174	8.3383	5.4877	5.4849	5.9514	4.2815	3.1919	3.1322	1.5561	-0.3954	5.5304	4.1848	0.7738	-0.99	2.6969	0.8535	1.4566
8.8504	6.9813	8.1562	6.3412	7.1264	8.2444	5.3796	5.4308	5.8974	4.2104	3.1407	3.1208	1.5533	-0.3698	5.63	4.3071	0.7311	-1.0327	2.677	0.8364	1.4423
8.7565	6.9016	8.0367	6.1819	7.0325	8.0851	5.2402	5.3768	5.8064	4.1336	3.1151	3.0952	1.5049	-0.3755	5.7068	4.4209	0.7311	-1.0042	2.6656	0.7994	1.4196
8.6996	6.8618	7.9343	6.0709	6.9955	8.0253	5.1691	5.3682	5.7694	4.1023	3.0924	3.1151	1.5504	-0.3727	5.8661	4.6144	0.7397	-0.9985	2.6884	0.7909	1.4082
8.6341	6.8277	7.8433	5.977	6.9642	7.9457	5.098	5.3512	5.7523	4.071	3.0867	3.1379	1.5647	-0.3812	5.9685	4.8163	0.7653	-0.9416	2.7254	0.825	1.4367
8.5716	6.8077	7.7522	5.8633	6.9642	7.8774	5.0126	5.3455	5.7267	4.034	3.0867	3.1237	1.5817	-0.4182	6.0738	5.0439	0.8222	-0.9331	2.768	0.7909	1.4651
8.5516	6.7992	7.6811	5.7523	6.9301	7.7949	4.9358	5.354	5.7153	4.0169	3.0895	3.1692	1.6073	-0.441	6.1762	5.2744	0.8648	-0.8904	2.8136	0.8108	1.4907
8.4919	6.8049	7.5929	5.6698	6.9272	7.7181	4.8448	5.337	5.6812	3.9856	3.0895	3.1749	1.6443	-0.4779	6.2075	5.465	0.9303	-0.8734	2.8676	0.8108	1.5248
8.4322	6.8049	7.536	5.5674	6.8931	7.6697	4.7907	5.3199	5.6328	3.9544	3.0753	3.172	1.6728	-0.5007	6.2302	5.6414	0.9786	-0.8079	2.9245	0.8136	1.5675
8.3753	6.8106	7.4336	5.4564	6.9073	7.5929	4.7168	5.3398	5.6158	3.9401	3.0753	3.1976	1.7069	-0.5092	6.1677	5.7125	1.0241	-0.7966	2.9615	0.825	1.6017
8.2586	6.7679	7.3454	5.3455	6.8334	7.5076	4.6229	5.2829	5.5503	3.9145	3.0554	3.1549	1.6984	-0.5348	6.0226	5.7068	1.0611	-0.7482	2.9672	0.8222	1.6273
8.1704	6.7366	7.2515	5.2317	6.8049	7.408	4.5518	5.2601	5.4934	3.8548	3.0269	3.1578	1.7098	-0.5462	5.8633	5.6442	1.081	-0.7226	3.0156	0.8335	1.6386
8.0481	6.6883	7.1463	5.1179	6.7366	7.3284	4.4693	5.1947	5.4223	3.832	2.9928	3.135	1.7211	-0.5377	5.6357	5.5247	1.081	-0.6287	3.0383	0.8591	1.6671
7.9116	6.6285	7.0268	5.0155	6.6797	7.2259	4.4124	5.1435	5.3711	3.8093	2.9786	3.0867	1.7154	-0.5547	5.3796	5.3114	1.0924	-0.6202	3.0412	0.8677	1.6898
7.7807	6.5716	6.9358	4.9131	6.6001	7.1292	4.3555	5.1037	5.3	3.7922	2.9274	3.081	1.7268	-0.5661	5.0752	5.0269	1.118	-0.5462	3.0582	0.8591	1.7098
7.6555	6.5489	6.8504	4.8476	6.583	7.0837	4.3213	5.0866	5.2545	3.8093	2.953	3.081	1.7695	-0.569	4.7765	4.7196	1.1237	-0.4666	3.1123	0.9416	1.7837
7.5218	6.5176	6.7964	4.7851	6.5375	7.0581	4.31	5.0695	5.2345	3.8093	2.9615	3.0781	1.8065	-0.5576	4.4863	4.3384	1.1266	-0.3556	3.1379	1.0071	1.8179
7.3824	6.4607	6.7338	4.7253	6.5033	6.9984	4.2758	5.0638	5.2175	3.8548	2.9757	3.1066	1.8378	-0.5832	4.1421	3.9202	1.1721	-0.293	3.2118	1.064	1.9231
7.3028	6.4237	6.6797	4.6883	6.4607	6.9841	4.2844	5.0781	5.2203	3.8633	3.0127	3.1407	1.8975	-0.623	3.8519	3.4394	1.2148	-0.2077	3.2716	1.1522	1.9886
7.1491	6.381	6.6371	4.6485	6.4237	6.9358	4.2957	5.0582	5.1833	3.8918	3.0326	3.1464	1.9402	-0.6401	3.5362	2.9501	1.2859	-0.1195	3.3171	1.2091	2.0853
7.0382	6.3327	6.6171	4.5916	6.3924	6.9159	4.2815	5.0724	5.1862	3.9174	3.081	3.1749	1.9914	-0.6657	3.2631	2.4181	1.3456	-0.0626	3.3911	1.2717	2.1592
6.8959	6.2672	6.5489	4.5148	6.3696	6.8732	4.2332	5.0525	5.1833	3.9174	3.118	3.1806	2.0284	-0.7254	2.9729	1.8492	1.4338	-0.0057	3.4394	1.3115	2.2588
6.7679	6.1989	6.5062	4.4522	6.3213	6.8419	4.2417	5.0752	5.1776	3.9088	3.1806	3.2346	2.0597	-0.751	2.7282	1.3115	1.4879	0.0199	3.5191	1.3627	2.3641
6.6484	6.1051	6.4436	4.3839	6.2701	6.7964	4.1905	5.0695	5.1463	3.8918	3.2005	3.2005	2.0739	-0.8079	2.5035	0.7283	1.5732	0.0228	3.5675	1.3428	2.421
6.529	6.0055	6.4038	4.3014	6.1847	6.7622	4.1734	5.0553	5.135	3.8662	3.2261	3.2062	2.0711	-0.8222	2.3214	0.1963	1.6301	0.0427	3.5788	1.3655	2.5348
6.4465	5.9258	6.3782	4.2701	6.1591	6.7423	4.1791	5.0638	5.1122	3.8861	3.2716	3.2204	2.0853	-0.8449	2.2048	-0.2845	1.6728	0.0199	3.6528	1.3456	2.5917
6.3896	5.849	6.3355	4.2303	6.0908	6.7025	4.1706	5.0496	5.0895	3.8605	3.32	3.2147	2.0938	-0.8677	2.1564	-0.6998	1.7183	0.0142	3.7211	1.3399	2.6799
6.3241	5.758	6.3241	4.1905	6.0453	6.6598	4.1592	5.0354	5.0752	3.8121	3.3569	3.1976	2.0739	-0.8876	2.1365	-1.0924	1.7638	-0.0199	3.7524	1.2944	2.768
6.3156	5.6983	6.3127	4.199	5.9827	6.6371	4.1506	5.0155	5.0382	3.8007	3.3797	3.1777	2.0625	-0.8933	2.1934	-1.3883	1.7923	-0.0711	3.8206	1.2802	2.8562
6.3355	5.6414	6.3412	4.2218	5.9799	6.6399	4.1563	5.0382	5.0439	3.8121	3.4337	3.2033	2.0739	-0.9246	2.3157	-1.6187	1.8292	-0.0797	3.9117	1.246	2.9786
6.4066	5.6271	6.3782	4.2787	5.9543	6.6427	4.1933	5.0838	5.0439	3.7837	3.4821	3.2005	2.0711	-0.936	2.4921	-1.7354	1.8577	-0.0882	3.98	1.2204	3.0838
6.5033	5.6726	6.4834	4.3469	5.9742	6.6627	4.2388	5.1264	5.0667	3.8007	3.5561	3.2033	2.0739	-0.9644	2.7311	-1.7354	1.9117	-0.0882	4.0852	1.2204	3.1976
6.6655	5.7153	6.5716	4.455	6.0197	6.7082	4.3327	5.1691	5.1008	3.8178	3.6244	3.2204	2.0853	-0.9815	3.0326	-1.6898	1.9601	-0.091	4.2275	1.2062	3.3285
6.8504	5.8206	6.7395	4.603	6.1136	6.7935	4.401	5.2801	5.1435	3.8719	3.741	3.2716	2.1137	-1.0128	3.3655	-1.5021	2.017	-0.0882	4.3413	1.2347	3.4764
7.0439	5.9571	6.8618	4.7424	6.1933	6.8561	4.4949	5.3569	5.2146	3.9088	3.8263	3.3171	2.1137	-1.0754	3.7097	-1.2432	2.1052	-0.0825	4.4807	1.2119	3.6329
7.2999	6.0965	7.0382	4.9273	6.3156	6.9841	4.603	5.4536	5.2857	3.9629	3.9259	3.3569	2.1621	-1.1123	4.0653	-0.8933	2.1991	-0.0996	4.6144	1.2318	3.7751
7.5645	6.2615	7.2174	5.0809	6.4379	7.0695	4.7026	5.5788	5.3597	4.0027	4.034	3.4081	2.1706	-1.1635	4.4294	-0.5121	2.3043	-0.0967	4.7424	1.2318	3.9231
7.8717	6.4863	7.4109	5.2829	6.6115	7.2117	4.8107	5.684	5.4337	4.0852	4.1592	3.485	2.2076	-1.192	4.7509	-0.0256	2.3726	-0.0541	4.9017	1.3029	4.0539
8.1562	6.6797	7.6214	5.4735	6.7651	7.3483	4.9586	5.7978	5.5389	4.162	4.2588	3.539	2.2218	-1.2375	5.0553	0.4466	2.4636	-0.074	5.0411	1.2717	4.1763
8.4492	6.876	7.8148	5.647	6.9073	7.4422	5.0411	5.923	5.6072	4.199	4.3413	3.6101	2.2474	-1.283	5.2715	0.8648	2.5575	-0.0939	5.1549	1.2887	4.2673
8.7337	7.1008	8.0253	5.8234	7.0951	7.5872	5.1634	6.0539	5.7068	4.236	4.4266	3.6556	2.2531	-1.3086	5.4764	1.2944	2.6173	-0.074	5.2744	1.2973	4.3896
8.9698	7.2686	8.1591	5.9514	7.2259	7.6669	5.226	6.1307	5.7608	4.2758	4.4977	3.6784	2.2105	-1.3542	5.6015	1.6586	2.6827	-0.091	5.3711	1.2887	4.4721
9.2287	7.4564	8.3184	6.0823	7.3369	7.7551	5.2857	6.2302	5.8064	4.2815	4.5688	3.7125	2.2133	-1.3655	5.667	1.9772	2.7168	-0.1252	5.4479	1.2944	4.5432
9.4392	7.5815	8.4265	6.1648	7.4365	7.8063	5.3483	6.2871	5.8405	4.2872	4.603	3.7097	2.2048	-1.3627	5.6783	2.2275	2.7282	-0.1366	5.4963	1.2916	4.5518
9.6156	7.6868	8.5175	6.2246	7.499	7.8461	5.3426	6.3213	5.8263	4.2559	4.6087	3.6955	2.1308	-1.3741	5.6499	2.4181	2.7339	-0.1735	5.5219	1.2802	4.566
9.7493	7.8034	8.5772	6.2843	7.5872	7.8746	5.3739	6.3554	5.8462	4.2246	4.6058	3.6556	2.0654	-1.3513	5.6072	2.5433	2.6998	-0.2247	5.5702	1.2404	4.5859
9.8489	7.8433	8.6057	6.2871	7.6072	7.8831	5.3483	6.3497	5.7921	4.162	4.603	3.5902	1.9573	-1.3371	5.4735	2.6201	2.6685	-0.2816	5.5333	1.2034	4.5319
9.9485	7.9144	8.6455	6.2729	7.6413	7.8575	5.3341	6.3583	5.7921	4.0966	4.5546	3.5561	1.8861	-1.3058	5.3227	2.623	2.6116	-0.3186	5.5219	1.1806	4.455
9.9883	7.9485	8.6683	6.2843	7.6868	7.8547	5.3057	6.344	5.7182	4.0596	4.492	3.4736	1.7951	-1.2802	5.1321	2.5661	2.5575	-0.3698	5.4934	1.1237	4.4266
10.0196	7.9884	8.6398	6.2502	7.7039	7.8091	5.2345	6.3156	5.6613	3.9771	4.455	3.3939	1.6813	-1.2574	4.9074	2.4494	2.5035	-0.4353	5.4451	1.0839	4.3583
9.9911	7.9997	8.6313	6.1961	7.7067	7.7608	5.2089	6.3071	5.5958	3.9174	4.3782	3.283	1.5761	-1.2318	4.6144	2.2531	2.4466	-0.5149	5.3825	1.0412	4.2815
9.9855	8.0253	8.6029	6.1762	7.7096	7.7181	5.152	6.2814	5.556	3.815	4.3526	3.2204	1.4765	-1.1948	4.3071	2.017	2.384	-0.5491	5.3426	0.9843	4.199
9.9058	8.014	8.5488	6.1051	7.684	7.6612	5.0895	6.2331	5.4564	3.7296	4.2701	3.1208	1.3627	-1.1778	3.9999	1.7211	2.3271	-0.6458	5.263	0.9303	4.1279
9.8404	8.0225	8.5403	6.0453	7.738	7.6299	5.0212	6.2189	5.4251	3.6613	4.2161	3.0525	1.3086	-1.1379	3.7211	1.4167	2.256	-0.6998	5.2032	0.9104	4.0283
9.7692	8.0453	8.509	5.9856	7.7494	7.6015	4.9671	6.2189	5.391	3.5874	4.1506	2.9786	1.2005	-1.1152	3.4508	1.0839	2.1877	-0.7852	5.1463	0.8791	3.9544
9.6896	8.0396	8.4748	5.9145	7.7409	7.5559	4.9131	6.1876	5.3284	3.5219	4.1023	2.9046	1.1323	-1.0611	3.2204	0.7425	2.091	-0.8478	5.0866	0.8705	3.8633
9.6071	8.0367	8.4379	5.8832	7.7352	7.5417	4.896	6.162	5.2914	3.4679	4.0454	2.8534	1.0611	-1.0014	3.044	0.421	1.9914	-0.8961	5.0183	0.862	3.7637
9.5161	8.0396	8.4293	5.8348	7.7522	7.5417	4.8277	6.1421	5.2857	3.4309	3.9913	2.788	0.9929	-0.936	2.9074	0.0967	1.8719	-0.9644	4.9472	0.8563	3.6585
9.4563	8.0652	8.4265	5.8007	7.7835	7.5076	4.8334	6.1079	5.2345	3.3825	3.9202	2.714	0.9502	-0.8677	2.8449	-0.2162	1.7325	-1.0185	4.8988	0.8762	3.5646
9.425	8.0709	8.4151	5.7751	7.7807	7.5389	4.8163	6.0681	5.2175	3.3569	3.8747	2.6628	0.8791	-0.8136	2.8221	-0.4893	1.6017	-1.1067	4.8192	0.8648	3.485
9.3539	8.0595	8.4009	5.7352	7.7722	7.536	4.7737	6.0425	5.189	3.3228	3.7837	2.5803	0.8193	-0.751	2.7908	-0.7567	1.4765	-1.1607	4.7481	0.8535	3.3456
9.3511	8.1078	8.4293	5.7324	7.812	7.5588	4.7822	6.0169	5.1634	3.3114	3.7296	2.5291	0.7596	-0.6657	2.8762	-0.9644	1.32	-1.229	4.6684	0.8848	3.2431
9.3226	8.1022	8.4492	5.7324	7.7921	7.5702	4.7594	5.9685	5.1264	3.2801	3.6471	2.4636	0.7141	-0.6116	2.97	-1.1977	1.2233	-1.3058	4.5973	0.862	3.1037
9.3027	8.1221	8.4663	5.7182	7.812	7.6015	4.7452	5.923	5.1179	3.2659	3.5618	2.3954	0.6685	-0.569	3.1009	-1.357	1.1266	-1.3655	4.5432	0.8563	2.9985
9.334	8.1903	8.526	5.7409	7.8717	7.647	4.8021	5.9002	5.1293	3.2887	3.4878	2.3527	0.6429	-0.5405	3.2716	-1.4623	1.0554	-1.3883	4.475	0.8876	2.8904
9.3767	8.2558	8.6171	5.7921	7.8859	7.7096	4.8476	5.8633	5.152	3.3171	3.4394	2.3299	0.6458	-0.495	3.502	-1.5248	0.9815	-1.4025	4.4238	0.9331	2.8221
9.4051	8.3184	8.6768	5.8348	7.9315	7.7864	4.896	5.8604	5.172	3.3712	3.3911	2.3356	0.6629	-0.4922	3.7154	-1.5846	0.9559	-1.3997	4.3925	0.99	2.7225
9.4535	8.4066	8.7735	5.8661	7.9685	7.866	4.9586	5.8348	5.2118	3.4309	3.3456	2.3385	0.6771	-0.4922	3.9515	-1.5732	0.9559	-1.4281	4.3441	0.9929	2.6315
9.5331	8.4834	8.8617	5.9458	8.0168	7.9571	5.0382	5.8377	5.2601	3.5191	3.3114	2.3385	0.7397	-0.4836	4.1649	-1.5248	0.953	-1.3769	4.3014	1.064	2.5319
9.6042	8.563	8.9556	5.9941	8.0766	8.051	5.1151	5.8633	5.3569	3.5902	3.283	2.3783	0.7966	-0.4922	4.4095	-1.4594	0.9872	-1.3399	4.2957	1.1465	2.4779
9.6583	8.6598	9.0694	6.0539	8.1448	8.142	5.2032	5.8519	5.4223	3.6585	3.2545	2.4181	0.8535	-0.5178	4.6201	-1.3741	1.0384	-1.3029	4.2445	1.1977	2.4011
9.7664	8.7451	9.169	6.0852	8.196	8.2472	5.2943	5.8889	5.4934	3.7381	3.2574	2.4494	0.9388	-0.5576	4.8249	-1.2802	1.0981	-1.2404	4.2332	1.2574	2.347
9.8176	8.8134	9.2486	6.1307	8.2615	8.3241	5.3569	5.9088	5.5702	3.7979	3.2175	2.4722	0.9872	-0.5889	5.024	-1.1664	1.1692	-1.2034	4.2047	1.32	2.2873
9.8916	8.8987	9.3311	6.162	8.307	8.4179	5.391	5.9173	5.6357	3.8775	3.1834	2.5205	1.0384	-0.6173	5.1805	-1.064	1.2347	-1.192	4.1763	1.357	2.2105
9.9399	8.9357	9.388	6.1677	8.3354	8.4635	5.4564	5.9059	5.6698	3.9288	3.1436	2.5205	1.0611	-0.6629	5.3142	-0.99	1.3115	-1.1664	4.1051	1.3741	2.1251
10.0139	8.9983	9.462	6.1989	8.3525	8.5232	5.4906	5.9031	5.7096	3.9487	3.0895	2.5604	1.101	-0.6828	5.4138	-0.8933	1.3684	-1.1294	4.0681	1.3883	2.054
10.0537	8.9954	9.4819	6.1563	8.3696	8.5289	5.4906	5.8832	5.7182	3.9458	3.0184	2.512	1.0839	-0.7169	5.4138	-0.8648	1.4338	-1.1323	3.9999	1.3598	1.9544
10.0651	8.9755	9.4705	6.1335	8.3525	8.5545	5.4906	5.832	5.7182	3.9316	2.9558	2.4636	1.0526	-0.7368	5.391	-0.8478	1.4736	-1.2062	3.9231	1.32	1.8321
10.0736	8.9613	9.4791	6.0681	8.2928	8.5659	5.4479	5.7608	5.6897	3.9088	2.8392	2.4181	1.0241	-0.7454	5.2971	-0.8478	1.4822	-1.2517	3.8662	1.2603	1.7411
10.0793	8.9129	9.4677	5.997	8.2558	8.5175	5.4166	5.7068	5.6726	3.8633	2.7368	2.3669	0.9445	-0.7454	5.2175	-0.9217	1.485	-1.3115	3.7979	1.1892	1.6073
10.0566	8.8646	9.4449	5.923	8.2188	8.4435	5.337	5.6584	5.6129	3.7808	2.6258	2.2816	0.8677	-0.7482	5.0838	-0.99	1.4736	-1.4082	3.7182	1.0839	1.4936
10.0224	8.8077	9.3767	5.8405	8.1249	8.3895	5.2715	5.5731	5.5389	3.667	2.5035	2.1735	0.7539	-0.7368	4.933	-1.0924	1.431	-1.4509	3.6272	0.99	1.394
9.957	8.711	9.3112	5.7352	8.0282	8.3297	5.1805	5.4735	5.4621	3.6016	2.3726	2.0654	0.6543	-0.7141	4.7395	-1.1948	1.4082	-1.5903	3.5248	0.8449	1.2546
9.9001	8.5972	9.2401	5.6271	7.9172	8.2302	5.0582	5.3825	5.3626	3.4793	2.2674	1.9516	0.5178	-0.6913	4.5745	-1.3285	1.3627	-1.7069	3.4593	0.7055	1.1323
9.8062	8.4805	9.1491	5.4963	7.8234	8.1278	4.9586	5.2886	5.2744	3.337	2.1422	1.8605	0.3784	-0.6856	4.401	-1.4395	1.3456	-1.8435	3.3882	0.5747	1.0241
9.6981	8.3554	9.0267	5.3939	7.6868	8.0225	4.805	5.2032	5.1634	3.1862	2.0341	1.7354	0.2162	-0.6799	4.2075	-1.559	1.3172	-1.9487	3.3029	0.4324	0.9331
