"FZ"	"FC3"	"FCZ"	"FC4"	"C3"	"CZ"	"C4"	"CP3"	"CPZ"	"CP4"	"P3"	"PZ"	"P4"	"OZ"	"FP1"	"FP2"	"A2"	"P8"	"TP7"	"TP8"	"P7"	"VEOG"	"HEOG"
-0.1513	-0.1761	-0.2889	0.2284	-0.1789	-0.3384	-0.1183	-0.6081	-0.9961	-0.1844	-1.1254	-1.23	-0.4513	0.2972	-0.4375	0.3027	-0.5888	0.1128	-0.1899	0.4265	-0.4678	-0.6439	1.9866
-0.1954	-0.2201	-0.3522	0.1733	-0.2119	-0.3962	-0.1678	-0.6439	-1.0098	-0.2201	-1.1612	-1.2712	-0.4843	0.2339	-0.421	0.2752	-0.4733	0.0275	-0.1678	0.3797	-0.4705	-0.6824	1.9151
-0.2339	-0.2779	-0.4237	0.1128	-0.2807	-0.4788	-0.2256	-0.6741	-1.0263	-0.2642	-1.2024	-1.2795	-0.5118	0.1761	-0.3962	0.2229	-0.3632	-0.0193	-0.1706	0.3247	-0.4788	-0.7402	1.8326
-0.2752	-0.3137	-0.4705	0.0715	-0.3247	-0.5145	-0.2752	-0.7237	-1.0484	-0.3027	-1.1887	-1.2685	-0.5476	0.1238	-0.366	0.2091	-0.2614	-0.0715	-0.1651	0.2972	-0.4815	-0.798	1.7225
-0.3439	-0.3467	-0.5283	0.0303	-0.4155	-0.5806	-0.3192	-0.7622	-1.0401	-0.3522	-1.2079	-1.2547	-0.5476	0.1018	-0.3467	0.1789	-0.1899	-0.0963	-0.1623	0.2201	-0.4898	-0.8365	1.5849
-0.3907	-0.399	-0.5971	-0.0358	-0.4733	-0.6301	-0.355	-0.8007	-1.0346	-0.3797	-1.1942	-1.263	-0.5723	0.066	-0.3192	0.1678	-0.1211	-0.1183	-0.1403	0.1844	-0.4898	-0.8585	1.4693
-0.454	-0.4458	-0.6659	-0.0798	-0.509	-0.6879	-0.3825	-0.831	-1.0263	-0.3962	-1.2162	-1.219	-0.5641	0.022	-0.3054	0.1211	-0.055	-0.1568	-0.1568	0.1046	-0.4953	-0.8612	1.3235
-0.5035	-0.498	-0.7319	-0.1458	-0.5751	-0.7347	-0.4348	-0.8612	-0.9933	-0.4375	-1.2079	-1.1969	-0.5723	0	-0.3302	0.0523	-0.0165	-0.1761	-0.1513	0.0358	-0.4815	-0.8667	1.1639
-0.5448	-0.5311	-0.7732	-0.1899	-0.6219	-0.7815	-0.4678	-0.8915	-0.9961	-0.443	-1.1639	-1.1392	-0.5558	-0.0248	-0.3412	-0.0193	0.0275	-0.2201	-0.1431	-0.0385	-0.5035	-0.8282	0.9988
-0.6384	-0.5696	-0.853	-0.2642	-0.6879	-0.842	-0.5035	-0.9163	-0.9686	-0.454	-1.1502	-1.1006	-0.5696	-0.055	-0.3825	-0.0908	0.0743	-0.2256	-0.1651	-0.1046	-0.5063	-0.7815	0.842
-0.6879	-0.6329	-0.8943	-0.3247	-0.7237	-0.8723	-0.5118	-0.9025	-0.9355	-0.4678	-1.0869	-1.0401	-0.5338	-0.0715	-0.4045	-0.1899	0.1211	-0.2339	-0.1733	-0.1568	-0.4623	-0.7264	0.6934
-0.7567	-0.6356	-0.9328	-0.3632	-0.7347	-0.8667	-0.5366	-0.8915	-0.8695	-0.4485	-1.0318	-0.9631	-0.5256	-0.0991	-0.4485	-0.2807	0.1844	-0.2807	-0.1816	-0.2284	-0.4623	-0.6604	0.5503
-0.8007	-0.7044	-1.0043	-0.4348	-0.7759	-0.919	-0.5558	-0.908	-0.842	-0.432	-0.9823	-0.8943	-0.498	-0.1431	-0.5063	-0.3687	0.2697	-0.2834	-0.1954	-0.2944	-0.4513	-0.5888	0.4595
-0.875	-0.7319	-1.0456	-0.5008	-0.809	-0.919	-0.5558	-0.8557	-0.7484	-0.4017	-0.9025	-0.7925	-0.4595	-0.1871	-0.5421	-0.4568	0.3439	-0.2669	-0.1926	-0.3247	-0.3935	-0.5063	0.3577
-0.908	-0.7732	-1.0786	-0.5531	-0.809	-0.919	-0.5778	-0.831	-0.7099	-0.3742	-0.809	-0.6989	-0.4127	-0.2256	-0.5916	-0.5476	0.4182	-0.2642	-0.1733	-0.3495	-0.3439	-0.4237	0.2999
-0.93	-0.7649	-1.0786	-0.5833	-0.8117	-0.9163	-0.5833	-0.7649	-0.6384	-0.3357	-0.7154	-0.5833	-0.3797	-0.2504	-0.6494	-0.5751	0.4953	-0.2449	-0.1816	-0.3687	-0.2834	-0.3384	0.2531
-0.9768	-0.8035	-1.1254	-0.6521	-0.8172	-0.9135	-0.5888	-0.7154	-0.5751	-0.3192	-0.6274	-0.4815	-0.3329	-0.3027	-0.7237	-0.6494	0.5861	-0.2586	-0.1899	-0.3605	-0.2449	-0.2642	0.1926
-1.0208	-0.8282	-1.1171	-0.6934	-0.8035	-0.8888	-0.5971	-0.6989	-0.509	-0.2889	-0.5311	-0.3907	-0.3137	-0.3412	-0.787	-0.6934	0.6604	-0.2476	-0.1844	-0.3687	-0.1954	-0.1899	0.1871
-1.0263	-0.864	-1.1281	-0.7127	-0.8145	-0.8695	-0.5888	-0.6466	-0.4458	-0.2339	-0.4458	-0.2999	-0.2697	-0.3715	-0.8447	-0.7044	0.7127	-0.2394	-0.1789	-0.3852	-0.1073	-0.1101	0.1623
-1.0539	-0.9053	-1.1364	-0.7484	-0.8062	-0.8612	-0.5833	-0.5943	-0.3852	-0.2091	-0.3605	-0.2339	-0.2449	-0.4017	-0.886	-0.7017	0.798	-0.2394	-0.1678	-0.366	-0.0633	-0.0605	0.1348
-1.0621	-0.9548	-1.1447	-0.7622	-0.8282	-0.842	-0.5641	-0.5641	-0.3329	-0.1761	-0.2917	-0.1321	-0.1816	-0.443	-0.9493	-0.7044	0.8695	-0.2504	-0.1981	-0.3632	0.0055	0	0.1431
-1.0566	-0.9988	-1.1034	-0.7732	-0.8172	-0.8007	-0.5366	-0.509	-0.2779	-0.1431	-0.2146	-0.044	-0.1541	-0.4678	-0.9823	-0.6631	0.9163	-0.2284	-0.1651	-0.3412	0.0688	0.033	0.1183
-1.0153	-1.0181	-1.0869	-0.7677	-0.8035	-0.7622	-0.4815	-0.4568	-0.2091	-0.066	-0.1238	0.0303	-0.1101	-0.4815	-0.9988	-0.6109	0.9603	-0.1844	-0.1596	-0.2972	0.1266	0.0495	0.1128
-0.9933	-1.0318	-1.0318	-0.7539	-0.8117	-0.7347	-0.4348	-0.4348	-0.1733	-0.0303	-0.0495	0.0881	-0.0908	-0.5173	-0.9823	-0.5338	1.0098	-0.1596	-0.1623	-0.2834	0.1954	0.044	0.1183
-0.9658	-1.0429	-1.0043	-0.7319	-0.787	-0.6796	-0.4348	-0.3577	-0.1018	0.022	0.0385	0.1568	-0.0303	-0.5256	-0.9686	-0.443	1.0236	-0.1046	-0.1183	-0.2339	0.2614	0.0413	0.0991
-0.9025	-1.0016	-0.9245	-0.6659	-0.7374	-0.5998	-0.3577	-0.2944	-0.0083	0.1018	0.1211	0.2311	0.0303	-0.5366	-0.9218	-0.3109	1.0539	-0.0468	-0.0881	-0.1816	0.3357	0.0083	0.1183
-0.8337	-0.9988	-0.8805	-0.6356	-0.7209	-0.5751	-0.3082	-0.2504	0.033	0.1321	0.1899	0.2944	0.1101	-0.5503	-0.8833	-0.1954	1.0759	0.0193	-0.0385	-0.1101	0.41	-0.0275	0.1156
-0.7815	-0.9548	-0.8117	-0.5723	-0.7127	-0.5145	-0.2504	-0.2064	0.0715	0.1899	0.2559	0.3715	0.1596	-0.5668	-0.809	-0.0963	1.1171	0.077	-0.0193	-0.0523	0.4705	-0.0715	0.1128
-0.6796	-0.8778	-0.7127	-0.498	-0.6026	-0.4127	-0.1733	-0.1156	0.1761	0.2779	0.366	0.4595	0.2559	-0.5806	-0.7209	0.0303	1.1502	0.1678	0.0275	0.0385	0.5613	-0.1183	0.1018
-0.5943	-0.8117	-0.6164	-0.4265	-0.5723	-0.3742	-0.1238	-0.0578	0.2256	0.3329	0.432	0.5145	0.3384	-0.6109	-0.5998	0.1238	1.2024	0.2531	0.0743	0.1018	0.6219	-0.1568	0.0881
-0.52	-0.7374	-0.5393	-0.3687	-0.4925	-0.3109	-0.0578	-0.0055	0.2697	0.4072	0.5063	0.5943	0.4182	-0.6439	-0.5338	0.1789	1.2685	0.3109	0.1128	0.1238	0.6906	-0.2119	0.0881
-0.4265	-0.6659	-0.4678	-0.2999	-0.4348	-0.2476	0.011	0.066	0.3495	0.4925	0.5861	0.6549	0.4733	-0.6659	-0.4182	0.2146	1.3125	0.388	0.1954	0.1651	0.7704	-0.2614	0.0743
-0.3384	-0.5558	-0.355	-0.2311	-0.3522	-0.1899	0.0798	0.1266	0.4072	0.5173	0.6466	0.7209	0.5888	-0.6741	-0.3329	0.2146	1.34	0.465	0.2476	0.2036	0.8695	-0.2862	0.0413
-0.2614	-0.4788	-0.2697	-0.1678	-0.2669	-0.1211	0.1293	0.1954	0.454	0.5778	0.7374	0.787	0.6439	-0.6851	-0.2421	0.1954	1.362	0.509	0.2917	0.2504	0.897	-0.3164	0.0083
-0.1596	-0.3715	-0.1678	-0.0991	-0.1706	-0.0248	0.1761	0.2642	0.52	0.6411	0.8062	0.8392	0.7044	-0.6934	-0.1348	0.1348	1.3593	0.5641	0.3302	0.2256	0.9576	-0.3247	-0.0303
-0.0908	-0.3054	-0.0991	-0.0358	-0.1046	0.033	0.1954	0.3082	0.5586	0.6439	0.853	0.8888	0.7319	-0.6796	-0.1018	0.055	1.34	0.5861	0.4072	0.2146	0.9823	-0.2944	-0.0881
-0.0165	-0.2229	-0.0193	-0.0138	-0.0385	0.0798	0.2311	0.3907	0.5943	0.6631	0.875	0.9053	0.7649	-0.6576	-0.055	-0.055	1.2987	0.5778	0.4237	0.1789	1.0373	-0.2504	-0.1348
0.033	-0.1541	0.0275	0.0358	0.055	0.1376	0.2201	0.443	0.6136	0.6549	0.93	0.93	0.7732	-0.6301	-0.0248	-0.1541	1.2492	0.5503	0.4403	0.1266	1.0621	-0.1926	-0.1871
0.0936	-0.0715	0.1183	0.0578	0.1156	0.1789	0.2476	0.4898	0.6439	0.6576	0.9631	0.9576	0.787	-0.5888	0.0028	-0.2614	1.1667	0.5586	0.4705	0.0825	1.0759	-0.1073	-0.2421
0.1596	0.0028	0.1871	0.1101	0.2229	0.2614	0.2669	0.5421	0.6494	0.6164	0.9933	0.9713	0.7704	-0.5448	0.0578	-0.3439	1.0731	0.5008	0.4925	0.0248	1.1034	-0.011	-0.3109
0.2256	0.0936	0.2449	0.1293	0.3054	0.2779	0.2779	0.6026	0.6906	0.6109	1.0126	0.9548	0.7319	-0.4925	0.0963	-0.4072	0.9603	0.4513	0.509	-0.044	1.1144	0.077	-0.355
0.2642	0.1513	0.2834	0.1431	0.3605	0.3164	0.2586	0.6521	0.6851	0.5558	1.0346	0.9686	0.6879	-0.4292	0.1266	-0.4623	0.8365	0.3935	0.5063	-0.0991	1.1116	0.1816	-0.3907
0.3082	0.2009	0.3329	0.1568	0.4292	0.3384	0.2559	0.6576	0.6796	0.4898	1.0098	0.9245	0.6109	-0.377	0.1541	-0.5311	0.7292	0.2889	0.5063	-0.1871	1.0786	0.2697	-0.4733
0.3384	0.2807	0.3577	0.1431	0.5008	0.3715	0.2119	0.7099	0.6631	0.4155	1.0071	0.908	0.5531	-0.2972	0.2146	-0.5393	0.5861	0.2311	0.487	-0.2421	1.0676	0.3384	-0.5173
0.3522	0.3274	0.4045	0.1678	0.5531	0.3962	0.1954	0.7429	0.6439	0.3522	0.9768	0.864	0.4843	-0.2394	0.2586	-0.5613	0.4568	0.1321	0.4733	-0.3027	1.0429	0.4182	-0.5531
0.366	0.3935	0.432	0.1568	0.5943	0.3935	0.1486	0.7457	0.6246	0.2669	0.9493	0.82	0.3935	-0.1816	0.3137	-0.5641	0.3522	0.0385	0.4458	-0.3357	1.0208	0.4733	-0.5916
0.3742	0.4155	0.421	0.1238	0.6219	0.3962	0.1266	0.7677	0.5943	0.2119	0.9328	0.7842	0.3082	-0.1211	0.3742	-0.5861	0.2366	-0.0303	0.4155	-0.377	0.9686	0.5366	-0.6576
0.3742	0.4403	0.4072	0.1018	0.6769	0.3907	0.0743	0.7787	0.5613	0.1348	0.875	0.7072	0.2421	-0.0825	0.4292	-0.5723	0.1266	-0.077	0.4127	-0.4265	0.9438	0.5613	-0.7044
0.366	0.4815	0.399	0.0936	0.6824	0.3522	0.0083	0.7374	0.4733	0.033	0.8172	0.6329	0.1458	-0.0248	0.5063	-0.5393	0.0358	-0.1541	0.3605	-0.4788	0.8833	0.5696	-0.7484
0.3384	0.4678	0.366	0.0303	0.6604	0.2999	-0.0715	0.7044	0.4017	-0.0605	0.7292	0.5448	0.0413	0.033	0.5476	-0.5035	-0.0688	-0.2064	0.2917	-0.5283	0.8255	0.5613	-0.7759
0.2862	0.4348	0.3192	-0.033	0.6301	0.2449	-0.1348	0.6631	0.3219	-0.1596	0.6329	0.4348	-0.0908	0.077	0.6219	-0.4348	-0.1596	-0.2999	0.2009	-0.5723	0.7292	0.5393	-0.8145
0.2311	0.388	0.2531	-0.0881	0.5806	0.1623	-0.2091	0.5806	0.2174	-0.2449	0.5338	0.3467	-0.1651	0.1156	0.6384	-0.3467	-0.2476	-0.366	0.1266	-0.5998	0.6274	0.4953	-0.8172
0.1541	0.3439	0.1789	-0.1733	0.5283	0.0991	-0.2752	0.5366	0.1348	-0.3467	0.4182	0.2229	-0.2917	0.1733	0.7127	-0.1926	-0.3412	-0.3962	0.0413	-0.6439	0.5476	0.443	-0.8502
0.0908	0.2697	0.1128	-0.2697	0.4705	0.0193	-0.3797	0.454	0.0468	-0.4348	0.3164	0.1046	-0.388	0.2036	0.7292	-0.0853	-0.4127	-0.4843	-0.0495	-0.6989	0.4485	0.4127	-0.8337
0.022	0.1678	0.0495	-0.355	0.399	-0.0523	-0.4458	0.3605	-0.0743	-0.5366	0.2229	0.011	-0.4733	0.2531	0.7842	0.0991	-0.4925	-0.5393	-0.1706	-0.7127	0.3412	0.3605	-0.8337
-0.0495	0.1266	-0.022	-0.421	0.3467	-0.1183	-0.498	0.3247	-0.1403	-0.6191	0.1431	-0.1046	-0.5613	0.2917	0.7925	0.2917	-0.5778	-0.5998	-0.2229	-0.7099	0.2669	0.3027	-0.8365
-0.1128	0.0523	-0.1293	-0.5173	0.2807	-0.1981	-0.5861	0.2476	-0.2339	-0.6906	0.044	-0.1954	-0.6494	0.3192	0.8007	0.487	-0.6411	-0.6576	-0.3082	-0.7154	0.1789	0.2504	-0.7759
-0.1596	0.0138	-0.1678	-0.5696	0.2504	-0.2394	-0.6521	0.1871	-0.3082	-0.7484	-0.0303	-0.2834	-0.7017	0.3467	0.8227	0.6962	-0.6989	-0.6851	-0.3715	-0.6906	0.1101	0.1844	-0.7209
-0.1871	-0.0138	-0.2256	-0.6026	0.1981	-0.3109	-0.6934	0.1238	-0.3742	-0.8007	-0.1238	-0.3907	-0.7732	0.3687	0.8117	0.8585	-0.7457	-0.6962	-0.454	-0.6769	0.0193	0.1046	-0.6604
-0.2339	-0.0248	-0.2807	-0.6604	0.2036	-0.3247	-0.7099	0.0991	-0.4072	-0.8282	-0.1761	-0.4403	-0.8035	0.3825	0.809	1.0291	-0.7649	-0.7154	-0.4898	-0.6411	-0.0385	-0.0028	-0.6053
-0.2256	0.011	-0.2834	-0.6714	0.2201	-0.3412	-0.7237	0.0743	-0.4375	-0.8392	-0.2119	-0.476	-0.8117	0.3825	0.798	1.1804	-0.7787	-0.6989	-0.5118	-0.6191	-0.0853	-0.1266	-0.5393
-0.2009	0.0605	-0.2669	-0.6576	0.2201	-0.3522	-0.7127	0.055	-0.4348	-0.8117	-0.2834	-0.509	-0.8145	0.388	0.7842	1.2712	-0.7677	-0.7099	-0.5338	-0.6109	-0.1431	-0.2614	-0.4705
-0.1816	0.1211	-0.2834	-0.6494	0.2504	-0.3495	-0.6851	0.066	-0.4595	-0.7925	-0.2504	-0.5173	-0.8007	0.3715	0.7594	1.3593	-0.7347	-0.6906	-0.5613	-0.5503	-0.1899	-0.388	-0.3852
-0.1541	0.1761	-0.2586	-0.6136	0.2724	-0.3384	-0.6631	0.066	-0.4072	-0.7512	-0.2586	-0.5118	-0.7457	0.3467	0.7182	1.3785	-0.6824	-0.6824	-0.5476	-0.5256	-0.2201	-0.5173	-0.3384
-0.0825	0.2504	-0.2009	-0.5613	0.3164	-0.2807	-0.5998	0.0715	-0.3825	-0.6934	-0.2504	-0.4953	-0.7072	0.3027	0.6796	1.3923	-0.6274	-0.6191	-0.52	-0.5338	-0.2614	-0.6521	-0.2889
-0.0275	0.3274	-0.1926	-0.5145	0.3302	-0.2421	-0.5448	0.0715	-0.3715	-0.6411	-0.2421	-0.4815	-0.6604	0.2586	0.6439	1.373	-0.5448	-0.5806	-0.487	-0.5008	-0.2834	-0.7594	-0.2531
0.033	0.4072	-0.1376	-0.4375	0.3522	-0.2036	-0.4788	0.1046	-0.3384	-0.5641	-0.1981	-0.432	-0.6081	0.2091	0.5778	1.296	-0.4568	-0.5366	-0.454	-0.4733	-0.2889	-0.853	-0.2311
0.1183	0.454	-0.1018	-0.3825	0.3577	-0.1568	-0.4127	0.1238	-0.2697	-0.5173	-0.1733	-0.3962	-0.5558	0.1678	0.5008	1.2052	-0.355	-0.5118	-0.4237	-0.4375	-0.3054	-0.919	-0.1816
0.1789	0.4925	-0.0468	-0.3219	0.3687	-0.0881	-0.3192	0.1403	-0.2284	-0.443	-0.1238	-0.3329	-0.4733	0.1321	0.4568	1.0814	-0.2586	-0.4733	-0.3715	-0.4127	-0.3302	-0.9768	-0.1706
0.2449	0.5448	0.055	-0.2174	0.3797	-0.0248	-0.2284	0.1761	-0.1568	-0.3715	-0.0715	-0.2614	-0.3962	0.0715	0.3797	0.9383	-0.1541	-0.4485	-0.3192	-0.4017	-0.3192	-1.0126	-0.1706
0.3192	0.5696	0.0881	-0.1376	0.3577	0.033	-0.1541	0.1981	-0.1073	-0.2999	-0.0358	-0.2256	-0.355	0.0303	0.3137	0.7732	-0.0523	-0.4045	-0.2669	-0.377	-0.3357	-0.9878	-0.1816
0.3962	0.5888	0.1733	-0.0385	0.3907	0.1376	-0.055	0.2339	-0.0385	-0.2174	0.0165	-0.1403	-0.2697	-0.0138	0.2476	0.5971	0.022	-0.355	-0.2009	-0.3384	-0.3302	-0.9355	-0.2036
0.4348	0.5943	0.2091	0.0303	0.3357	0.1623	0.0193	0.2531	0.0303	-0.1568	0.0743	-0.077	-0.1981	-0.0495	0.1926	0.4568	0.0991	-0.3357	-0.1458	-0.3329	-0.3495	-0.8805	-0.2009
0.4898	0.6053	0.2917	0.1348	0.366	0.2586	0.1403	0.2834	0.1073	-0.0715	0.1431	0.011	-0.0908	-0.055	0.1623	0.3109	0.1211	-0.2724	-0.0908	-0.2614	-0.3412	-0.7952	-0.2284
0.5035	0.6081	0.377	0.2394	0.3357	0.3164	0.1981	0.3054	0.1486	-0.0138	0.1761	0.0688	-0.0468	-0.0715	0.0936	0.1623	0.1486	-0.2394	-0.0523	-0.2311	-0.3605	-0.6934	-0.2394
0.5503	0.6164	0.443	0.3247	0.3495	0.4045	0.2972	0.3329	0.2036	0.0633	0.2119	0.1403	0.0495	-0.066	0.0853	0.0743	0.1211	-0.1844	0.011	-0.1954	-0.355	-0.5971	-0.2531
0.5723	0.5778	0.4815	0.3852	0.3329	0.476	0.3605	0.3302	0.2476	0.1018	0.2669	0.2009	0.0881	-0.0578	0.044	-0.0523	0.0991	-0.1376	0.0413	-0.1266	-0.3715	-0.4953	-0.2669
0.5888	0.5641	0.5145	0.4155	0.3137	0.5118	0.4017	0.3164	0.2834	0.1458	0.2807	0.2394	0.1321	-0.033	0.0083	-0.1623	0.0578	-0.0825	0.0523	-0.0385	-0.388	-0.388	-0.2531
0.5916	0.5283	0.5751	0.4678	0.2669	0.5641	0.4375	0.3164	0.2999	0.1706	0.2669	0.2752	0.1789	-0.0028	-0.0138	-0.2614	-0.0028	-0.0358	0.0688	0.044	-0.443	-0.2724	-0.2421
0.6053	0.4953	0.6219	0.509	0.2339	0.5916	0.476	0.2944	0.3467	0.1981	0.2999	0.2834	0.2036	0.044	-0.055	-0.3302	-0.0936	0.0275	0.1046	0.1458	-0.4265	-0.1623	-0.2201
0.5586	0.4403	0.6576	0.5283	0.2009	0.6191	0.498	0.2531	0.3384	0.2036	0.2834	0.3192	0.2531	0.0881	-0.1101	-0.4485	-0.1789	0.0991	0.0715	0.2449	-0.4705	-0.0275	-0.2064
0.5613	0.4485	0.7209	0.5696	0.1871	0.6631	0.5311	0.2476	0.377	0.2174	0.3027	0.3495	0.2779	0.1431	-0.1513	-0.498	-0.2944	0.1541	0.1046	0.3522	-0.4843	0.1046	-0.1789
0.5861	0.399	0.7292	0.5778	0.1431	0.6962	0.5448	0.2009	0.3715	0.2476	0.2586	0.3439	0.3137	0.1954	-0.1954	-0.5613	-0.399	0.1981	0.0881	0.4568	-0.5035	0.2339	-0.1568
0.5916	0.3962	0.7622	0.6136	0.1321	0.7264	0.5531	0.1678	0.366	0.2366	0.2504	0.3329	0.3274	0.2669	-0.2366	-0.6164	-0.5228	0.2697	0.0963	0.5641	-0.5118	0.355	-0.1073
0.6026	0.399	0.8282	0.6549	0.1596	0.798	0.6081	0.1733	0.4127	0.2669	0.2339	0.3522	0.3742	0.3192	-0.2339	-0.6246	-0.6604	0.3329	0.0963	0.6631	-0.5283	0.4843	-0.0963
0.6246	0.4348	0.8805	0.7182	0.1623	0.8117	0.6741	0.1513	0.4237	0.2999	0.1844	0.3302	0.3935	0.388	-0.2174	-0.6604	-0.787	0.3962	0.0936	0.7457	-0.5393	0.6356	-0.0715
0.6741	0.4403	0.9273	0.7539	0.1899	0.864	0.7154	0.1348	0.4292	0.3247	0.1596	0.3192	0.4292	0.4485	-0.2229	-0.6494	-0.9163	0.4348	0.0936	0.8337	-0.5366	0.7484	-0.0083
0.6659	0.4513	0.9548	0.8062	0.2119	0.897	0.7787	0.1128	0.4292	0.3412	0.0936	0.2834	0.4348	0.5145	-0.1623	-0.6053	-1.0456	0.4953	0.0715	0.8943	-0.5448	0.8612	0.022
0.6962	0.487	0.9796	0.8365	0.2284	0.9108	0.8172	0.1018	0.4403	0.3852	0.0523	0.2614	0.4815	0.5696	-0.1431	-0.5751	-1.1447	0.509	0.0798	0.9465	-0.5613	0.9576	0.0605
0.6962	0.52	1.0043	0.8943	0.2339	0.9218	0.8365	0.0633	0.4292	0.41	0.0138	0.2119	0.4815	0.6219	-0.077	-0.4815	-1.2382	0.5586	0.077	0.9713	-0.5696	1.0731	0.0991
0.7044	0.5173	1.0208	0.9135	0.2284	0.9383	0.886	0.0303	0.399	0.4458	-0.0495	0.1844	0.5008	0.6686	-0.0083	-0.3935	-1.3153	0.6164	0.0825	1.0043	-0.5861	1.1694	0.1293
0.7347	0.5503	1.0456	0.9658	0.2669	0.941	0.9493	0.0083	0.4127	0.487	-0.1046	0.1403	0.5035	0.6906	0.0715	-0.2752	-1.384	0.6384	0.0936	1.0153	-0.5641	1.2382	0.1568
0.7594	0.5503	1.0676	1.0071	0.2779	0.941	0.9851	0.0083	0.4127	0.5008	-0.1293	0.1348	0.5641	0.7154	0.1761	-0.1266	-1.4198	0.6769	0.1211	1.0373	-0.5696	1.3015	0.1761
0.7704	0.5696	1.0759	1.0484	0.3164	0.9603	1.0126	-0.0193	0.41	0.5531	-0.1981	0.0688	0.5531	0.7127	0.2614	-0.0028	-1.4281	0.7127	0.1623	1.0594	-0.5586	1.34	0.1761
0.7842	0.5943	1.0951	1.0566	0.3412	0.9465	1.0373	-0.0248	0.399	0.5696	-0.2119	0.066	0.5861	0.6989	0.3384	0.1018	-1.4033	0.7264	0.1789	1.0814	-0.5063	1.3703	0.2009
0.7732	0.5861	1.0814	1.0786	0.3495	0.9438	1.0676	-0.011	0.4045	0.5723	-0.2339	0.0413	0.5888	0.6659	0.4017	0.2064	-1.362	0.7374	0.2256	1.0621	-0.4925	1.3868	0.1844
0.7759	0.6053	1.0814	1.0841	0.3687	0.9218	1.0841	-0.0358	0.3797	0.5668	-0.2862	0.022	0.5971	0.6549	0.4925	0.2944	-1.3208	0.7512	0.2504	1.0456	-0.4733	1.3593	0.1761
0.7649	0.5943	1.0621	1.0786	0.355	0.8998	1.0979	-0.0303	0.3605	0.5696	-0.3027	-0.0138	0.5888	0.6246	0.5531	0.3137	-1.252	0.7677	0.2614	1.0456	-0.4265	1.3373	0.1844
0.787	0.5943	1.0594	1.0786	0.4017	0.8695	1.1089	-0.0165	0.388	0.6219	-0.3302	-0.0193	0.6301	0.5806	0.6026	0.3329	-1.1804	0.787	0.3027	1.0539	-0.3797	1.307	0.1541
0.7925	0.6246	1.0208	1.0539	0.4072	0.8475	1.0924	-0.0193	0.3742	0.6274	-0.3439	-0.033	0.6356	0.5448	0.6521	0.3247	-1.1006	0.7925	0.3302	1.0621	-0.3467	1.2437	0.1293
0.7842	0.6109	1.0016	1.0346	0.4458	0.8337	1.0869	0.0083	0.3825	0.6274	-0.3467	-0.044	0.6246	0.5008	0.7347	0.3137	-1.0071	0.8365	0.3495	1.0869	-0.3274	1.1832	0.077
0.7897	0.6109	1.0126	1.0153	0.4375	0.7925	1.0786	0	0.3825	0.6439	-0.3302	-0.0413	0.6356	0.4458	0.7622	0.2944	-0.9163	0.8502	0.377	1.0759	-0.2642	1.1199	0.0275
0.8227	0.6356	1.0016	0.9823	0.498	0.7897	1.0649	0.0908	0.4072	0.6604	-0.3302	-0.0385	0.6521	0.421	0.82	0.2752	-0.853	0.8778	0.4265	1.1116	-0.1899	1.0401	-0.011
0.8227	0.6246	0.9713	0.9465	0.52	0.7649	1.0208	0.0798	0.4182	0.6411	-0.3247	-0.0303	0.6356	0.3825	0.8255	0.2586	-0.7704	0.886	0.4292	1.0841	-0.1623	0.9548	-0.044
0.8282	0.6384	0.9741	0.9108	0.5531	0.7484	1.0373	0.1211	0.4292	0.6494	-0.2999	-0.011	0.6576	0.3412	0.8695	0.2559	-0.6989	0.8833	0.4265	1.1089	-0.1266	0.8612	-0.0798
0.8282	0.6769	0.9465	0.875	0.5586	0.7292	0.9906	0.1651	0.4513	0.6356	-0.2697	0.0165	0.6576	0.3219	0.908	0.2614	-0.6604	0.875	0.432	1.1144	-0.0936	0.7539	-0.1101
0.8585	0.7072	0.9465	0.8667	0.5998	0.7319	0.9851	0.1899	0.4733	0.6494	-0.2339	0.0633	0.6659	0.2889	0.9493	0.2394	-0.5943	0.886	0.4485	1.1309	-0.0523	0.6521	-0.1321
0.8667	0.7347	0.9438	0.864	0.6246	0.7402	0.9713	0.2339	0.4953	0.6576	-0.1926	0.0881	0.6714	0.2697	0.9576	0.2201	-0.5586	0.8778	0.4678	1.1502	-0.011	0.5476	-0.1789
0.8695	0.7594	0.9658	0.8585	0.6714	0.7512	0.9796	0.2724	0.5476	0.6576	-0.1596	0.1486	0.7017	0.2559	0.9906	0.2311	-0.5228	0.886	0.4513	1.1749	0.0138	0.4403	-0.1871
0.897	0.7649	0.9658	0.8502	0.7099	0.7759	0.9768	0.3137	0.5751	0.6604	-0.1403	0.1871	0.6962	0.2311	0.9878	0.1844	-0.476	0.8557	0.443	1.1749	0.055	0.3274	-0.1954
0.9053	0.7897	0.9658	0.8667	0.7182	0.7732	0.9631	0.3605	0.6026	0.6906	-0.1101	0.2284	0.6769	0.2146	0.9631	0.1513	-0.432	0.853	0.4127	1.1777	0.0688	0.2091	-0.2229
0.919	0.8117	0.9686	0.897	0.7677	0.8062	0.9768	0.4017	0.6521	0.6769	-0.0413	0.2834	0.7429	0.1981	0.9245	0.1376	-0.3962	0.8667	0.3962	1.1667	0.1073	0.0798	-0.2504
0.9053	0.7952	0.9493	0.8667	0.7759	0.82	0.9658	0.421	0.6769	0.7044	-0.011	0.3274	0.7512	0.1733	0.9053	0.0936	-0.366	0.8392	0.3522	1.1392	0.1018	-0.022	-0.2504
0.9273	0.8035	0.9713	0.8998	0.7952	0.8502	0.9823	0.4815	0.7319	0.7264	0.0495	0.399	0.7704	0.1513	0.864	0.0908	-0.3329	0.842	0.3137	1.1529	0.1266	-0.1211	-0.2724
0.919	0.7622	0.9658	0.8998	0.8145	0.8612	0.9796	0.4788	0.7484	0.7539	0.0605	0.4237	0.7649	0.1348	0.7842	0.0936	-0.2972	0.8282	0.2449	1.1419	0.1293	-0.2009	-0.2669
0.9273	0.7429	0.9576	0.8943	0.8172	0.864	0.9576	0.487	0.7539	0.7787	0.0825	0.465	0.7842	0.1211	0.7292	0.1156	-0.2614	0.8337	0.2091	1.0869	0.1348	-0.2724	-0.2779
0.9135	0.7264	0.9713	0.8943	0.8117	0.8695	0.9796	0.5035	0.7842	0.787	0.1156	0.5035	0.8007	0.0963	0.6274	0.1211	-0.2146	0.8117	0.1513	1.0704	0.1321	-0.3219	-0.2669
0.908	0.6906	0.9796	0.9135	0.8035	0.886	0.9686	0.5476	0.8282	0.809	0.1348	0.5531	0.8255	0.0825	0.5421	0.1321	-0.1816	0.7815	0.0715	1.0318	0.1293	-0.3577	-0.2697
0.8667	0.6329	0.9163	0.9108	0.7732	0.8557	0.9438	0.5118	0.82	0.8035	0.1403	0.5641	0.8337	0.0468	0.4072	0.0963	-0.1183	0.7264	0.0193	0.9768	0.0963	-0.3384	-0.2394
0.8585	0.5641	0.908	0.9025	0.7484	0.8475	0.9576	0.5118	0.8145	0.7952	0.1348	0.5916	0.8337	0.0275	0.3247	0.1018	-0.0798	0.6851	-0.0578	0.9218	0.0633	-0.3357	-0.2311
0.831	0.4925	0.908	0.8888	0.7099	0.8475	0.9273	0.487	0.798	0.7897	0.1238	0.5806	0.8172	-0.0028	0.2009	0.0743	-0.0138	0.6274	-0.1266	0.8282	0.044	-0.2972	-0.2339
0.8035	0.4403	0.8805	0.8888	0.6576	0.8172	0.9245	0.4815	0.8035	0.8035	0.0936	0.6053	0.8255	-0.0303	0.1156	0.0385	0.055	0.5586	-0.2064	0.7264	0	-0.2586	-0.2256
0.7484	0.3439	0.8585	0.8667	0.6081	0.798	0.9053	0.454	0.7759	0.798	0.0743	0.6026	0.8255	-0.0633	0.0028	0.0138	0.1128	0.4678	-0.2972	0.6164	-0.0468	-0.2119	-0.2284
0.6962	0.3054	0.8475	0.8227	0.5476	0.7704	0.8805	0.3907	0.7539	0.7842	0.0275	0.5778	0.7815	-0.0963	-0.0798	-0.0193	0.1733	0.3329	-0.3632	0.498	-0.1073	-0.1706	-0.2531
0.6576	0.2256	0.7897	0.7897	0.4733	0.7127	0.8723	0.3412	0.7182	0.7237	-0.0468	0.5338	0.7374	-0.1403	-0.1486	-0.0495	0.2586	0.2311	-0.4843	0.3605	-0.1513	-0.1183	-0.2862
0.5833	0.1486	0.7594	0.7457	0.4072	0.6962	0.8365	0.2972	0.6604	0.6906	-0.1238	0.487	0.7044	-0.2009	-0.2146	-0.1101	0.3687	0.1018	-0.5723	0.2311	-0.2229	-0.055	-0.3082
0.5393	0.0743	0.7292	0.6769	0.3137	0.6439	0.8007	0.2284	0.6136	0.6384	-0.1706	0.4568	0.6411	-0.2421	-0.2917	-0.1458	0.4705	-0.0138	-0.6934	0.1101	-0.2889	0.011	-0.3274
0.4733	0.0303	0.6989	0.6301	0.2807	0.6219	0.7512	0.1651	0.5696	0.5613	-0.2449	0.399	0.6164	-0.2972	-0.3164	-0.1293	0.5723	-0.1376	-0.7897	-0.0083	-0.3632	0.0578	-0.3302
0.4375	-0.0055	0.6714	0.5888	0.2311	0.5641	0.7017	0.1101	0.52	0.5338	-0.3219	0.3632	0.5641	-0.3605	-0.3192	-0.1321	0.6659	-0.2339	-0.9053	-0.1293	-0.41	0.1211	-0.3439
0.3742	-0.033	0.6411	0.5311	0.1844	0.5421	0.6824	0.0523	0.4595	0.4898	-0.3715	0.3219	0.5118	-0.399	-0.3329	-0.0963	0.7677	-0.3384	-1.0263	-0.2366	-0.4925	0.1899	-0.355
0.3137	-0.0798	0.6219	0.4678	0.1211	0.4843	0.6494	-0.0028	0.421	0.4568	-0.443	0.2862	0.476	-0.4292	-0.3027	-0.0523	0.8502	-0.4237	-1.0869	-0.3687	-0.5641	0.2807	-0.3852
0.2834	-0.0853	0.5888	0.4072	0.0991	0.432	0.5861	-0.077	0.3632	0.399	-0.52	0.2339	0.4127	-0.5008	-0.2862	-0.0055	0.9713	-0.5366	-1.1832	-0.4733	-0.5971	0.3522	-0.388
0.2697	-0.1018	0.5641	0.3357	0.0688	0.4045	0.5613	-0.1101	0.3164	0.377	-0.5778	0.1926	0.3632	-0.5366	-0.2339	0.077	1.0566	-0.6136	-1.2465	-0.5558	-0.6494	0.4513	-0.4155
0.2174	-0.1073	0.5228	0.2586	-0.0028	0.3357	0.5008	-0.1706	0.2614	0.2862	-0.6301	0.1596	0.3109	-0.5806	-0.1899	0.1651	1.1474	-0.7127	-1.3043	-0.6384	-0.7209	0.5448	-0.4292
0.1954	-0.1431	0.4843	0.1733	-0.0358	0.2972	0.4595	-0.2531	0.1899	0.2174	-0.6934	0.0936	0.2669	-0.6136	-0.1403	0.2669	1.219	-0.7897	-1.3675	-0.7127	-0.7512	0.6301	-0.4788
0.1789	-0.1733	0.4595	0.1018	-0.0743	0.2586	0.4348	-0.3054	0.1816	0.2036	-0.7209	0.0853	0.2366	-0.6466	-0.0605	0.3852	1.2602	-0.8612	-1.3593	-0.7732	-0.7677	0.6934	-0.5118
0.1651	-0.1954	0.4265	0.033	-0.1348	0.2256	0.3852	-0.3687	0.1211	0.1376	-0.7952	0.0385	0.1844	-0.6549	0.0055	0.4953	1.2932	-0.9163	-1.373	-0.8172	-0.8117	0.7264	-0.5916
0.1706	-0.2119	0.4017	-0.0248	-0.2036	0.1706	0.3274	-0.4403	0.0825	0.0963	-0.82	-0.0138	0.1293	-0.6714	0.1046	0.6164	1.3098	-0.9823	-1.3785	-0.864	-0.8475	0.7347	-0.6411
0.1596	-0.2394	0.3412	-0.1073	-0.2669	0.1183	0.2834	-0.4898	0.0303	0.0275	-0.8833	-0.066	0.0963	-0.6714	0.1761	0.6741	1.3043	-1.0263	-1.3648	-0.8998	-0.8888	0.7512	-0.7017
0.1706	-0.2586	0.3274	-0.1458	-0.3109	0.0963	0.2559	-0.5283	0.011	-0.0083	-0.908	-0.0908	0.0495	-0.6521	0.2531	0.7374	1.2685	-1.0814	-1.34	-0.919	-0.9053	0.7347	-0.7787
0.1816	-0.2504	0.3137	-0.1816	-0.3522	0.0413	0.2064	-0.5751	-0.0055	-0.0385	-0.9218	-0.1128	0.0138	-0.6219	0.3109	0.7429	1.241	-1.0704	-1.3098	-0.941	-0.941	0.6879	-0.82
0.2119	-0.2256	0.2779	-0.1926	-0.3577	0.022	0.2064	-0.5888	-0.0193	-0.0881	-0.9273	-0.1376	-0.0055	-0.5943	0.366	0.7484	1.1859	-1.0704	-1.2767	-0.9603	-0.952	0.6576	-0.9025
0.2559	-0.1733	0.2917	-0.1733	-0.3825	0.0138	0.2064	-0.5943	-0.0138	-0.0963	-0.9108	-0.1623	-0.0248	-0.5861	0.4127	0.7182	1.1226	-1.0869	-1.2024	-0.952	-0.9438	0.6053	-0.9603
0.2807	-0.1486	0.2642	-0.1899	-0.3742	0	0.1899	-0.6384	-0.0413	-0.1266	-0.9438	-0.2009	-0.0413	-0.5503	0.465	0.6851	1.0759	-1.0869	-1.1529	-0.9713	-0.952	0.5063	-1.0318
0.3274	-0.0798	0.2697	-0.1568	-0.3357	0	0.2009	-0.6081	-0.022	-0.1238	-0.9163	-0.1761	-0.011	-0.509	0.4485	0.6026	0.9906	-1.0676	-1.0896	-0.9465	-0.9273	0.454	-1.0869
0.3577	0.011	0.2889	-0.1513	-0.3274	-0.0138	0.2174	-0.6053	0	-0.1376	-0.886	-0.1899	-0.022	-0.4705	0.4485	0.509	0.9163	-1.0208	-1.0098	-0.9355	-0.8998	0.366	-1.1337
0.4348	0.1018	0.2999	-0.0743	-0.2724	0	0.2366	-0.5668	0.0028	-0.1293	-0.842	-0.1761	-0.0138	-0.454	0.454	0.4292	0.8557	-0.9851	-0.8888	-0.9025	-0.8392	0.2642	-1.1942
0.4788	0.1789	0.3302	-0.0385	-0.2201	0.0248	0.2586	-0.5586	0.011	-0.1238	-0.809	-0.1733	-0.0138	-0.4182	0.454	0.3137	0.8172	-0.9355	-0.809	-0.8723	-0.7952	0.1733	-1.2355
0.5448	0.2917	0.3577	0.0138	-0.1733	0.0055	0.3054	-0.5063	0.0193	-0.1156	-0.7457	-0.1568	0.022	-0.4182	0.4815	0.1981	0.7897	-0.8833	-0.6714	-0.8255	-0.7182	0.0743	-1.3235
0.5943	0.4155	0.3907	0.066	-0.0963	0.055	0.3302	-0.4458	0.0633	-0.1101	-0.6796	-0.1486	0.0358	-0.4155	0.4733	0.0743	0.8062	-0.864	-0.5641	-0.8035	-0.6329	-0.0303	-1.384
0.6549	0.5256	0.421	0.1293	-0.0248	0.077	0.3329	-0.4017	0.0798	-0.1073	-0.5916	-0.1293	0.0413	-0.4292	0.5118	-0.0688	0.8337	-0.8117	-0.4155	-0.7567	-0.5668	-0.1073	-1.4611
0.7072	0.6466	0.4623	0.1981	0.055	0.1073	0.388	-0.3027	0.1211	-0.0688	-0.5063	-0.1183	0.066	-0.4705	0.5586	-0.1789	0.9025	-0.7649	-0.2724	-0.7347	-0.443	-0.1954	-1.5271
0.7842	0.7759	0.5035	0.2724	0.1458	0.1623	0.4458	-0.2119	0.1733	-0.0495	-0.4292	-0.0798	0.1101	-0.5063	0.6053	-0.3137	0.9988	-0.7209	-0.1293	-0.7209	-0.3357	-0.2394	-1.5904
0.842	0.875	0.5476	0.3495	0.2036	0.1761	0.4595	-0.1596	0.1981	-0.0193	-0.3495	-0.055	0.1266	-0.5586	0.6549	-0.3907	1.0814	-0.6989	0.0165	-0.6934	-0.2119	-0.2642	-1.6565
0.8612	0.9465	0.5476	0.4017	0.2559	0.2064	0.5063	-0.1046	0.2229	-0.022	-0.2531	-0.0275	0.1266	-0.6081	0.6824	-0.5118	1.1887	-0.6769	0.1073	-0.6714	-0.1238	-0.2752	-1.7307
0.9163	1.0236	0.5888	0.4733	0.3495	0.2531	0.5338	-0.0303	0.2724	0.022	-0.1623	-0.0028	0.1871	-0.6549	0.7099	-0.5888	1.285	-0.6164	0.2394	-0.6136	0.011	-0.2394	-1.8133
0.9218	1.0814	0.5971	0.509	0.3687	0.2504	0.5558	0.0385	0.2862	0.0248	-0.066	0.022	0.2091	-0.7072	0.7457	-0.6631	1.3868	-0.5888	0.3605	-0.5888	0.0991	-0.1789	-1.8793
0.9108	1.1061	0.6053	0.5448	0.3907	0.2614	0.5558	0.0853	0.3247	0.044	0.0028	0.0578	0.2174	-0.7512	0.7319	-0.7099	1.4666	-0.5283	0.4925	-0.5723	0.2064	-0.0881	-1.9399
0.9328	1.1364	0.6026	0.5613	0.454	0.2917	0.5778	0.1844	0.3742	0.1046	0.0853	0.077	0.2586	-0.7787	0.7815	-0.7429	1.5326	-0.4788	0.5751	-0.5173	0.2944	0.0358	-1.9701
0.9163	1.1557	0.6164	0.6109	0.498	0.3082	0.6109	0.2531	0.421	0.1183	0.1926	0.1458	0.3192	-0.787	0.7787	-0.7622	1.5601	-0.4265	0.6604	-0.4513	0.3962	0.1816	-2.0114
0.8805	1.1667	0.6384	0.6053	0.5366	0.3522	0.6246	0.3082	0.4623	0.1376	0.2972	0.2146	0.3852	-0.8007	0.7952	-0.7594	1.5739	-0.3687	0.7539	-0.3687	0.4705	0.3439	-2.0499
0.8778	1.1942	0.6549	0.6164	0.5971	0.3797	0.6631	0.3825	0.5063	0.2064	0.3962	0.2889	0.4458	-0.7952	0.8172	-0.7319	1.5657	-0.2834	0.82	-0.2889	0.5833	0.5228	-2.0582
0.8612	1.2134	0.6851	0.6769	0.6631	0.4292	0.7154	0.487	0.5971	0.2642	0.4898	0.3715	0.5145	-0.7815	0.8667	-0.6521	1.5271	-0.1954	0.908	-0.2036	0.6714	0.6906	-2.0444
0.864	1.2327	0.6824	0.6906	0.7099	0.465	0.7347	0.5311	0.6521	0.3247	0.6053	0.4513	0.5806	-0.7429	0.9135	-0.5613	1.4748	-0.0963	0.9493	-0.0881	0.7374	0.875	-2.0609
0.809	1.1997	0.6989	0.6824	0.7594	0.5063	0.7622	0.6136	0.7154	0.355	0.6769	0.498	0.6301	-0.7099	0.9328	-0.4788	1.4143	-0.022	0.9906	0.0055	0.7842	1.0318	-2.0279
0.787	1.2134	0.6851	0.6962	0.7594	0.5311	0.7759	0.6521	0.7622	0.421	0.7512	0.5806	0.6989	-0.6796	0.9576	-0.3164	1.3318	0.066	1.0126	0.1211	0.8475	1.1529	-1.9921
0.7484	1.1859	0.6879	0.7072	0.787	0.5668	0.8255	0.7017	0.8475	0.4788	0.8035	0.6411	0.7594	-0.6301	1.0566	-0.1321	1.2217	0.1733	1.0291	0.2229	0.8778	1.241	-1.9509
0.7072	1.1199	0.6686	0.7044	0.7842	0.6026	0.864	0.7649	0.8805	0.5366	0.8667	0.7154	0.8365	-0.5696	1.1199	0.0825	1.1061	0.2724	1.0456	0.3384	0.908	1.285	-1.9124
0.6824	1.0704	0.6686	0.6796	0.7842	0.6164	0.8778	0.7704	0.9328	0.5861	0.908	0.7704	0.8833	-0.5118	1.1612	0.2999	0.9878	0.3825	1.0291	0.432	0.9218	1.3153	-1.8326
0.6053	0.9741	0.6494	0.6741	0.7677	0.6494	0.9135	0.787	0.9603	0.6301	0.9548	0.82	0.941	-0.4623	1.2024	0.5613	0.8943	0.4485	1.0649	0.5531	0.93	1.296	-1.7307
0.5723	0.8943	0.6109	0.6549	0.7374	0.6576	0.9493	0.787	0.9961	0.6714	0.9988	0.8778	1.0098	-0.4045	1.241	0.8172	0.787	0.5668	1.0649	0.6576	0.93	1.2822	-1.6344
0.5118	0.8282	0.5971	0.6494	0.7182	0.6989	0.9878	0.8007	1.0181	0.7402	1.0071	0.919	1.0759	-0.3439	1.2685	1.0539	0.6686	0.6686	1.0731	0.7457	0.9273	1.2272	-1.5491
0.4513	0.7347	0.5366	0.6246	0.6714	0.6934	1.0016	0.8227	1.0566	0.7897	1.0208	0.9603	1.1254	-0.2834	1.3263	1.2602	0.5503	0.7677	1.0731	0.8475	0.9328	1.1667	-1.4363
0.377	0.6219	0.509	0.6219	0.6164	0.6879	1.0291	0.8172	1.0676	0.8227	1.0373	1.0016	1.1914	-0.2394	1.318	1.4281	0.443	0.864	1.0731	0.8915	0.9355	1.1034	-1.34
0.3164	0.4815	0.4403	0.5696	0.5668	0.6604	1.0539	0.8035	1.0621	0.8475	1.0373	1.0181	1.2079	-0.1844	1.3235	1.5491	0.3384	0.9245	1.0814	0.9465	0.9328	1.0318	-1.23
0.2091	0.3715	0.3742	0.5696	0.4815	0.6356	1.0896	0.7594	1.0456	0.8723	1.0126	1.0043	1.2327	-0.1238	1.2905	1.6344	0.2394	1.0098	1.0649	0.9878	0.9025	0.952	-1.1309
0.1101	0.2449	0.3027	0.5613	0.399	0.6109	1.0951	0.7402	1.0318	0.8943	0.9933	1.0126	1.2657	-0.0688	1.2547	1.6427	0.1293	1.0924	1.0759	1.0098	0.8695	0.8667	-1.0676
0.0055	0.0743	0.2064	0.5256	0.3137	0.5366	1.0951	0.6824	0.9768	0.8998	0.93	0.9768	1.2547	-0.022	1.1777	1.5904	0.0413	1.1612	1.0318	1.0236	0.8145	0.7457	-1.0263
-0.0908	-0.077	0.1018	0.487	0.1733	0.4292	1.1034	0.6081	0.919	0.9163	0.875	0.9493	1.2767	0.011	1.1089	1.4969	-0.0303	1.1997	1.0071	1.0291	0.7594	0.6246	-0.9465
-0.2174	-0.2531	-0.0358	0.4623	0.0936	0.3467	1.0869	0.5421	0.8502	0.9053	0.809	0.9025	1.2767	0.0468	1.0098	1.3345	-0.1101	1.2685	0.9658	1.0291	0.7127	0.4788	-0.8778
-0.3467	-0.4237	-0.1761	0.41	-0.0523	0.2174	1.0566	0.4513	0.7787	0.8778	0.7374	0.8612	1.2795	0.1073	0.8695	1.1226	-0.1926	1.3483	0.9245	1.0126	0.6549	0.3247	-0.8255
-0.4485	-0.5668	-0.2999	0.377	-0.1789	0.1128	1.0236	0.3825	0.6934	0.8695	0.6741	0.8062	1.2575	0.1513	0.7347	0.8723	-0.2834	1.4336	0.8778	1.0291	0.6191	0.1513	-0.7649
-0.6081	-0.7457	-0.4568	0.3274	-0.2807	-0.0083	0.9851	0.2642	0.5806	0.8392	0.5998	0.7402	1.2492	0.1899	0.5696	0.6164	-0.3632	1.4831	0.831	1.0016	0.5888	-0.0495	-0.6934
-0.7154	-0.93	-0.6053	0.2834	-0.4127	-0.1541	0.9383	0.1706	0.4733	0.8117	0.5476	0.6962	1.2547	0.2091	0.3742	0.2972	-0.4237	1.5546	0.798	1.0016	0.5421	-0.2449	-0.6576
-0.864	-1.0869	-0.7842	0.2229	-0.5531	-0.3164	0.8502	0.0633	0.3632	0.7759	0.476	0.6576	1.2437	0.2339	0.1733	-0.0413	-0.4595	1.6317	0.7127	0.9961	0.5145	-0.4595	-0.6026
-0.9796	-1.2382	-0.941	0.1789	-0.6714	-0.4568	0.798	-0.0028	0.2504	0.7512	0.443	0.6164	1.2355	0.2366	-0.0385	-0.355	-0.4788	1.6895	0.6714	1.0126	0.5145	-0.6604	-0.5613
-1.1199	-1.3675	-1.1116	0.1018	-0.7787	-0.6109	0.7457	-0.066	0.1844	0.7292	0.4403	0.5943	1.2767	0.2311	-0.2504	-0.6769	-0.476	1.7528	0.6246	1.0401	0.5916	-0.875	-0.509
-1.252	-1.4969	-1.2575	0.066	-0.8612	-0.7292	0.7017	-0.0936	0.1073	0.7044	0.443	0.6109	1.307	0.2256	-0.4513	-0.9851	-0.4595	1.8381	0.5723	1.0208	0.6356	-1.0731	-0.476
-1.3675	-1.5877	-1.3868	0.022	-0.9273	-0.8557	0.6549	-0.1348	0.0413	0.7237	0.4815	0.6329	1.3785	0.2284	-0.6466	-1.2712	-0.4403	1.9316	0.5503	1.0759	0.7347	-1.2492	-0.4045
-1.4941	-1.7087	-1.5519	-0.0578	-0.9823	-0.9878	0.5916	-0.1486	-0.011	0.6824	0.5311	0.6796	1.4473	0.2091	-0.875	-1.5546	-0.4155	2.0004	0.5448	1.1144	0.8392	-1.3923	-0.3467
-1.6289	-1.8023	-1.7225	-0.1596	-1.0401	-1.1226	0.4953	-0.1541	-0.0633	0.6769	0.6081	0.6989	1.4941	0.1789	-1.1226	-1.7995	-0.3605	2.0527	0.498	1.1144	0.9686	-1.4969	-0.2752
-1.7968	-1.8848	-1.8821	-0.2724	-1.0924	-1.2382	0.4265	-0.1458	-0.1101	0.6659	0.7182	0.7897	1.5794	0.1678	-1.3675	-2.0224	-0.3109	2.1435	0.4733	1.1722	1.1337	-1.5959	-0.1733
-1.9784	-1.9784	-2.0637	-0.4292	-1.1337	-1.4006	0.3137	-0.1458	-0.1651	0.6411	0.7952	0.8502	1.6537	0.1321	-1.5959	-2.1875	-0.2476	2.1848	0.421	1.1942	1.2877	-1.6454	-0.0743
-2.1627	-2.0829	-2.2591	-0.5778	-1.1557	-1.5244	0.1733	-0.1266	-0.2091	0.5943	0.9383	0.9438	1.739	0.077	-1.8271	-2.3636	-0.1706	2.2508	0.4155	1.219	1.4638	-1.6675	0.0165
-2.3884	-2.1875	-2.4434	-0.7732	-1.2079	-1.684	0.0715	-0.1183	-0.2697	0.5586	1.0401	1.0126	1.805	0.0358	-2.0252	-2.4792	-0.1073	2.3141	0.3797	1.2492	1.6317	-1.6482	0.0991
-2.6305	-2.3003	-2.6883	-0.9658	-1.2602	-1.8463	-0.0963	-0.0991	-0.3247	0.4953	1.1667	1.0896	1.8546	0.0083	-2.2783	-2.6113	-0.022	2.3554	0.3329	1.2575	1.8078	-1.5877	0.1789
-2.9084	-2.4737	-2.9414	-1.2355	-1.3483	-2.0334	-0.3357	-0.1238	-0.421	0.3907	1.2602	1.1529	1.8986	-0.0413	-2.5067	-2.7433	0.055	2.3719	0.2614	1.2107	1.9866	-1.5024	0.2586
-3.2111	-2.6415	-3.2221	-1.5134	-1.4391	-2.248	-0.5173	-0.1293	-0.5063	0.3054	1.3593	1.2024	1.9619	-0.0633	-2.7406	-2.8506	0.1156	2.3994	0.1954	1.1914	2.149	-1.3703	0.3412
-3.5138	-2.8176	-3.4808	-1.8078	-1.5106	-2.4296	-0.7127	-0.1513	-0.5998	0.2091	1.4556	1.274	1.9977	-0.0963	-2.9937	-2.958	0.1706	2.4076	0.1128	1.1254	2.3141	-1.219	0.399
-3.866	-3.0267	-3.7752	-2.1242	-1.6427	-2.6333	-0.9603	-0.1871	-0.6851	0.0743	1.5409	1.3125	2.0307	-0.1348	-3.2194	-3.079	0.2449	2.4104	0.0385	1.0676	2.4682	-1.0429	0.4485
-4.1769	-3.2414	-4.0751	-2.4269	-1.739	-2.8369	-1.1859	-0.2586	-0.798	-0.0165	1.6454	1.3923	2.0857	-0.1761	-3.4422	-3.1506	0.3082	2.4241	-0.0413	0.9961	2.6002	-0.8475	0.4925
-4.5346	-3.4808	-4.375	-2.7598	-1.8711	-3.0405	-1.4198	-0.2834	-0.8723	-0.1266	1.7555	1.4336	2.1352	-0.2036	-3.6651	-3.2799	0.3825	2.4186	-0.1486	0.9163	2.7516	-0.6411	0.5008
-4.818	-3.6514	-4.5979	-3.0075	-1.9591	-3.1973	-1.6097	-0.2972	-0.93	-0.1899	1.8683	1.5244	2.204	-0.2476	-3.8275	-3.3377	0.4568	2.4544	-0.1816	0.8475	2.9194	-0.4513	0.5283
-5.129	-3.877	-4.8593	-3.3019	-2.0637	-3.3597	-1.794	-0.3274	-0.9988	-0.2642	1.9591	1.6014	2.3031	-0.2834	-4.0091	-3.423	0.5421	2.4682	-0.2944	0.7704	3.0515	-0.2531	0.5338
-5.3959	-4.0448	-5.0849	-3.5578	-2.1682	-3.5055	-1.9536	-0.3632	-1.0456	-0.3302	2.0774	1.6785	2.3664	-0.3082	-4.1521	-3.467	0.5998	2.5094	-0.3522	0.6934	3.2139	-0.0991	0.5421
-5.6518	-4.2292	-5.2775	-3.7559	-2.2673	-3.6128	-2.0967	-0.3357	-1.0456	-0.3467	2.2013	1.772	2.4792	-0.3439	-4.2842	-3.511	0.6714	2.57	-0.3962	0.6411	3.3404	0.044	0.5338
-5.8911	-4.4245	-5.4234	-3.9513	-2.3526	-3.6981	-2.2068	-0.3439	-1.0731	-0.3467	2.3416	1.8766	2.5892	-0.3605	-4.4218	-3.5385	0.7182	2.6525	-0.476	0.6219	3.5055	0.1403	0.5035
-6.048	-4.5814	-5.5747	-4.1109	-2.4434	-3.7889	-2.2811	-0.3715	-1.1061	-0.3687	2.4599	1.9509	2.7048	-0.3962	-4.5346	-3.5661	0.787	2.6938	-0.5173	0.5861	3.6238	0.2064	0.4815
-6.2268	-4.7492	-5.715	-4.2347	-2.5287	-3.833	-2.3388	-0.3687	-1.0869	-0.3495	2.5727	2.0389	2.8094	-0.432	-4.6584	-3.5853	0.8447	2.7351	-0.5998	0.5338	3.7999	0.2504	0.4595
-6.3369	-4.8648	-5.7673	-4.3475	-2.5975	-3.877	-2.3939	-0.3439	-1.0759	-0.3577	2.6608	2.1215	2.8919	-0.476	-4.7245	-3.6486	0.919	2.7901	-0.6439	0.4623	3.9238	0.2504	0.4403
-6.4387	-4.9859	-5.8471	-4.4163	-2.6635	-3.9017	-2.3966	-0.3467	-1.0759	-0.3192	2.7681	2.171	2.9937	-0.5118	-4.8318	-3.6679	0.9878	2.8396	-0.6906	0.4375	4.0586	0.2449	0.388
-6.5158	-5.0959	-5.8746	-4.4383	-2.7241	-3.9183	-2.4296	-0.3439	-1.0704	-0.2999	2.8589	2.2233	3.035	-0.5448	-4.8896	-3.7477	1.0566	2.8754	-0.7347	0.3797	4.1714	0.2064	0.3412
-6.5433	-5.1702	-5.8939	-4.4411	-2.7543	-3.8935	-2.3939	-0.3439	-1.0539	-0.2642	2.9304	2.2838	3.1258	-0.5751	-4.9831	-3.8302	1.1144	2.8837	-0.7539	0.3495	4.2815	0.1623	0.2889
-6.59	-5.25	-5.9021	-4.4603	-2.8094	-3.9155	-2.3746	-0.3742	-1.0704	-0.2559	2.9717	2.2673	3.1341	-0.6081	-5.0382	-3.9183	1.1804	2.8892	-0.8035	0.2944	4.3392	0.0963	0.2256
-6.5983	-5.3463	-5.8911	-4.4686	-2.8727	-3.9183	-2.3636	-0.3962	-1.0979	-0.2559	3.002	2.248	3.123	-0.6521	-5.1069	-4.0531	1.2602	2.8589	-0.8365	0.2229	4.375	0.0358	0.1541
-6.6038	-5.4041	-5.8691	-4.4411	-2.9084	-3.9238	-2.3168	-0.432	-1.1281	-0.2779	3.002	2.1985	3.0873	-0.6686	-5.1565	-4.1852	1.3153	2.8424	-0.8998	0.1678	4.408	-0.0385	0.1211
-6.6066	-5.4729	-5.8719	-4.419	-2.991	-3.9348	-2.3196	-0.5008	-1.1997	-0.3109	2.958	2.138	3.0295	-0.6962	-5.1895	-4.3365	1.3703	2.8011	-0.9355	0.0991	4.3833	-0.1046	0.0578
-6.6011	-5.572	-5.8361	-4.3998	-3.0543	-3.9513	-2.3168	-0.5751	-1.2437	-0.3412	2.8644	2.0224	2.9359	-0.7099	-5.2143	-4.4906	1.4006	2.7433	-0.9933	-0.0083	4.331	-0.1816	0.0468
-6.5433	-5.6352	-5.8086	-4.364	-3.112	-3.9485	-2.2921	-0.6466	-1.3483	-0.399	2.8204	1.8876	2.8314	-0.7154	-5.2032	-4.6584	1.4061	2.6498	-1.0401	-0.077	4.2815	-0.2586	0.011
-6.5515	-5.7068	-5.7783	-4.3282	-3.2194	-4.0118	-2.3003	-0.7402	-1.4391	-0.4843	2.669	1.7335	2.6938	-0.7127	-5.1922	-4.807	1.3978	2.5562	-1.0841	-0.1651	4.1769	-0.3302	-0.0138
-6.5268	-5.8031	-5.7893	-4.2952	-3.3212	-4.0778	-2.3196	-0.875	-1.6152	-0.5806	2.5177	1.5106	2.5122	-0.7017	-5.1675	-4.9804	1.3813	2.4324	-1.1364	-0.2449	4.0641	-0.4017	-0.0138
-6.491	-5.8884	-5.7701	-4.2787	-3.434	-4.1274	-2.3499	-1.0071	-1.761	-0.6796	2.3416	1.285	2.3086	-0.6989	-5.129	-5.1207	1.3648	2.3086	-1.1722	-0.3412	3.9238	-0.4925	0.011
-6.4497	-5.9462	-5.726	-4.2677	-3.5523	-4.1962	-2.3884	-1.1392	-1.9124	-0.8117	2.1517	1.0456	2.0885	-0.6686	-5.0299	-5.206	1.3208	2.1297	-1.2272	-0.4017	3.7779	-0.5861	0.0523
-6.4332	-6.0177	-5.7288	-4.2595	-3.6348	-4.2512	-2.4324	-1.296	-2.094	-0.9576	1.9261	0.7677	1.8656	-0.6604	-4.9529	-5.2803	1.2822	1.9646	-1.241	-0.5421	3.5798	-0.6851	0.0825
-6.3589	-5.9957	-5.6738	-4.2595	-3.7064	-4.3145	-2.4984	-1.4418	-2.2646	-1.1364	1.6922	0.4898	1.6014	-0.6219	-4.8896	-5.3106	1.2162	1.7528	-1.296	-0.6081	3.3789	-0.7759	0.1266
-6.3094	-5.9985	-5.6518	-4.2567	-3.7587	-4.3585	-2.5535	-1.5877	-2.4462	-1.2685	1.4611	0.2366	1.3483	-0.6053	-4.8015	-5.2885	1.1529	1.5657	-1.3455	-0.6906	3.2028	-0.8805	0.2091
-6.2626	-5.9792	-5.605	-4.2567	-3.7972	-4.3943	-2.5975	-1.7087	-2.5892	-1.3951	1.2052	-0.0358	1.0869	-0.5558	-4.6667	-5.1922	1.0594	1.3785	-1.4088	-0.7484	2.9717	-0.9823	0.2752
-6.1993	-5.8939	-5.5554	-4.2457	-3.8164	-4.4053	-2.6553	-1.8298	-2.7433	-1.5546	0.9713	-0.3302	0.8117	-0.5145	-4.5566	-5.0657	0.9796	1.1749	-1.4528	-0.8255	2.7378	-1.0951	0.3439
-6.114	-5.8031	-5.4729	-4.2292	-3.7862	-4.3998	-2.6993	-1.9206	-2.8644	-1.6785	0.7457	-0.5558	0.5696	-0.4595	-4.4548	-4.8978	0.875	0.9741	-1.5106	-0.886	2.4709	-1.1969	0.4045
-6.0095	-5.6875	-5.3959	-4.2154	-3.7504	-4.4053	-2.7406	-1.9977	-2.9827	-1.805	0.5173	-0.809	0.3082	-0.4155	-4.3282	-4.6722	0.7952	0.7622	-1.5601	-0.9658	2.2178	-1.296	0.465
-5.8829	-5.5637	-5.2803	-4.2044	-3.7009	-4.3695	-2.7901	-2.0747	-3.0515	-1.9151	0.3137	-1.0236	0.0963	-0.355	-4.1934	-4.4245	0.6879	0.5641	-1.5987	-0.9878	1.9921	-1.3923	0.5421
-5.7536	-5.4124	-5.1235	-4.1411	-3.6266	-4.2732	-2.7874	-2.0857	-3.09	-1.9729	0.1073	-1.2024	-0.0991	-0.2972	-4.0558	-4.1576	0.5696	0.3797	-1.6537	-1.0401	1.7473	-1.4693	0.5998
-5.5912	-5.2363	-4.9969	-4.0806	-3.522	-4.2044	-2.7736	-2.116	-3.1368	-2.0664	-0.0578	-1.3565	-0.2642	-0.2586	-3.9595	-3.8797	0.4678	0.1623	-1.6647	-1.0676	1.5134	-1.5051	0.6301
-5.4151	-5.0629	-4.8098	-4.0063	-3.3872	-4.0916	-2.7626	-2.0885	-3.1093	-2.0857	-0.2009	-1.4693	-0.4072	-0.1926	-3.8164	-3.5633	0.3577	0.0413	-1.695	-1.0731	1.2685	-1.5409	0.6521
-5.2473	-4.8841	-4.6309	-3.932	-3.2661	-3.9513	-2.7378	-2.0774	-3.09	-2.1105	-0.3439	-1.5712	-0.5448	-0.1513	-3.7036	-3.3019	0.2834	-0.1706	-1.7087	-1.1337	1.0484	-1.5271	0.6466
-5.0244	-4.6392	-4.4218	-3.8275	-3.0928	-3.7642	-2.6718	-2.0059	-3.0047	-2.0967	-0.4237	-1.6152	-0.6439	-0.1128	-3.6128	-3.035	0.1899	-0.3687	-1.7032	-1.1281	0.8365	-1.4859	0.6219
-4.796	-4.4053	-4.1494	-3.7009	-2.8947	-3.5633	-2.5892	-1.9151	-2.8864	-2.0664	-0.465	-1.6069	-0.6769	-0.0853	-3.4725	-2.7571	0.1293	-0.5338	-1.662	-1.1337	0.6494	-1.4226	0.5861
-4.5126	-4.1109	-3.8715	-3.5468	-2.6553	-3.3184	-2.4902	-1.7693	-2.7241	-1.9839	-0.476	-1.5684	-0.7127	-0.0605	-3.3294	-2.5342	0.077	-0.7017	-1.5684	-1.1502	0.509	-1.3098	0.5613
-4.2127	-3.7724	-3.5523	-3.3514	-2.3554	-3.035	-2.3361	-1.5767	-2.4874	-1.8738	-0.4127	-1.4528	-0.6466	-0.0385	-3.2028	-2.3471	0.033	-0.8502	-1.4666	-1.1474	0.4072	-1.1722	0.4843
-3.8797	-3.39	-3.1533	-3.1368	-1.9949	-2.6911	-2.1462	-1.3345	-2.2013	-1.7032	-0.3192	-1.2657	-0.5751	-0.022	-3.0377	-2.171	0.011	-0.9851	-1.318	-1.1281	0.3219	-0.9823	0.41
-3.5138	-2.9827	-2.7736	-2.8837	-1.6454	-2.3196	-1.9536	-1.0704	-1.8931	-1.5244	-0.1706	-1.0346	-0.4513	-0.0275	-2.8727	-2.0032	0.011	-1.1447	-1.1529	-1.0841	0.2586	-0.7842	0.3137
-3.123	-2.5122	-2.3416	-2.6002	-1.1914	-1.8821	-1.7115	-0.7209	-1.4831	-1.2602	0.0468	-0.7622	-0.2724	-0.0165	-2.6745	-1.8381	0	-1.2217	-0.9135	-1.0126	0.2834	-0.5613	0.1899
-2.7351	-2.0802	-1.8876	-2.3031	-0.7952	-1.4748	-1.4363	-0.3687	-1.0979	-1.0401	0.2642	-0.4568	-0.1183	-0.0248	-2.4654	-1.761	0.055	-1.351	-0.7072	-0.9713	0.2504	-0.3164	0.0908
-2.2921	-1.5904	-1.4033	-1.9619	-0.3219	-0.9961	-1.1639	0.0413	-0.6219	-0.7319	0.5641	-0.0688	0.1321	-0.0495	-2.248	-1.6372	0.0743	-1.4198	-0.4513	-0.8667	0.3137	-0.044	-0.0303
-1.8628	-1.0924	-0.9383	-1.6042	0.1651	-0.487	-0.7952	0.4513	-0.1321	-0.4182	0.886	0.3522	0.3962	-0.066	-1.9811	-1.5051	0.1156	-1.5024	-0.1651	-0.7567	0.3907	0.2449	-0.1596
-1.3565	-0.5723	-0.4017	-1.2107	0.7017	0.0523	-0.4292	0.9245	0.4485	-0.0413	1.2575	0.8447	0.7209	-0.066	-1.7445	-1.3593	0.1348	-1.5244	0.1403	-0.6026	0.5338	0.5283	-0.2669
-0.897	-0.0495	0.1073	-0.82	1.252	0.6109	-0.055	1.4116	1.0071	0.3495	1.6427	1.296	1.0401	-0.1073	-1.4556	-1.2024	0.1954	-1.5849	0.4403	-0.4733	0.6851	0.7759	-0.3962
-0.3962	0.498	0.6631	-0.3825	1.7913	1.2052	0.366	1.9261	1.5959	0.7649	2.0692	1.8408	1.4116	-0.1266	-1.1529	-1.0401	0.2311	-1.5519	0.7815	-0.2944	0.8447	1.0511	-0.498
0.1211	1.0704	1.219	0.0963	2.3499	1.7885	0.8172	2.4517	2.2453	1.1997	2.5672	2.4241	1.8271	-0.1513	-0.8227	-0.853	0.2724	-1.5464	1.1419	-0.0908	1.0484	1.3015	-0.5861
0.6384	1.5904	1.7803	0.5531	2.9304	2.3939	1.2712	3.002	2.8616	1.651	3.0157	3.0075	2.2535	-0.1871	-0.4458	-0.6246	0.3192	-1.5024	1.5024	0.0991	1.241	1.5161	-0.6604
1.1447	2.1572	2.3444	1.0429	3.511	2.9965	1.7418	3.5523	3.511	2.116	3.5165	3.5881	2.6635	-0.2009	-0.0991	-0.399	0.3577	-1.4611	1.8683	0.2862	1.4831	1.7418	-0.7237
1.6565	2.6883	2.9139	1.5657	4.1081	3.6514	2.248	4.1054	4.1604	2.6113	4.0311	4.2072	3.1203	-0.2009	0.2917	-0.0743	0.3825	-1.4088	2.2591	0.5063	1.7005	1.9261	-0.7649
2.1682	3.2056	3.4973	2.0719	4.6419	4.2429	2.7351	4.6529	4.807	3.0845	4.5566	4.8125	3.5358	-0.2284	0.6934	0.2229	0.4182	-1.3318	2.6085	0.7099	1.9536	2.0857	-0.7952
2.7021	3.7477	4.0558	2.581	5.1895	4.8483	3.2551	5.206	5.4619	3.5606	5.0794	5.4481	3.9981	-0.2421	1.0896	0.5861	0.454	-1.2465	3.0047	0.9218	2.2068	2.2233	-0.7787
3.1891	4.2374	4.5951	3.0873	5.7343	5.4289	3.7339	5.7205	6.0672	4.0531	5.5665	6.0287	4.4245	-0.2586	1.5271	0.9878	0.4705	-1.1529	3.3707	1.1364	2.4654	2.3251	-0.7567
3.6624	4.7162	5.1345	3.6128	6.2516	6.0177	4.2484	6.2461	6.7249	4.5209	6.092	6.6258	4.8731	-0.2697	1.9481	1.3868	0.498	-1.0401	3.7724	1.3373	2.7241	2.4076	-0.7622
4.1384	5.1647	5.6518	4.0861	6.7634	6.579	4.7245	6.7496	7.3137	4.9694	6.6093	7.2064	5.2913	-0.2642	2.3746	1.816	0.4953	-0.9025	4.1219	1.5629	2.9992	2.4599	-0.7374
4.5649	5.616	6.1415	4.5704	7.2174	7.1073	5.1977	7.2202	7.8888	5.4124	7.0936	7.7815	5.6985	-0.2669	2.7791	2.2343	0.4898	-0.7594	4.4823	1.7638	3.2579	2.5177	-0.7264
4.9694	5.9957	6.5955	5.0106	7.6659	7.6246	5.6463	7.6907	8.4501	5.8444	7.5944	8.3263	6.0975	-0.2504	3.2111	2.6635	0.4595	-0.5888	4.7933	1.9784	3.544	2.5535	-0.7017
5.3326	6.4057	7.0165	5.4454	8.0814	8.0814	6.0397	8.1144	8.9867	6.2131	8.0071	8.8133	6.4772	-0.2339	3.5936	3.057	0.4403	-0.4237	5.1042	2.1682	3.8082	2.5947	-0.6824
5.6545	6.7579	7.4155	5.8279	8.4804	8.5051	6.4057	8.5299	9.4517	6.568	8.4611	9.2949	6.8184	-0.2339	4.0173	3.4505	0.41	-0.2559	5.3738	2.3774	4.0861	2.6498	-0.6384
5.9517	7.0661	7.7402	6.1553	8.8408	8.9014	6.7524	8.8711	9.8837	6.9147	8.8601	9.7351	7.1459	-0.2064	4.364	3.7779	0.3632	-0.0523	5.6105	2.559	4.3558	2.7048	-0.6274
6.1746	7.3605	8.0484	6.4607	9.171	9.2426	7.0496	9.2371	10.2909	7.2064	9.2536	10.1506	7.4595	-0.1706	4.6749	4.0723	0.3027	0.1266	5.8306	2.7213	4.6144	2.7984	-0.6274
6.3809	7.5806	8.3043	6.6974	9.4324	9.5425	7.3192	9.5397	10.6486	7.4706	9.625	10.5276	7.7375	-0.1458	4.9473	4.3392	0.2531	0.3137	6.015	2.8809	4.8731	2.8782	-0.6109
6.535	7.7595	8.4996	6.89	9.6773	9.7764	7.5063	9.8232	10.9513	7.6797	9.9525	10.833	7.9631	-0.1156	5.2088	4.5181	0.1844	0.5035	6.1801	3.0047	5.1069	2.9937	-0.5943
6.5955	7.886	8.6317	7.0386	9.8452	9.9827	7.6659	10.0433	11.2072	7.8503	10.2276	11.1137	8.1805	-0.0743	5.3628	4.6887	0.1183	0.6879	6.2791	3.1286	5.3408	3.0928	-0.5696
6.6313	7.9631	8.7253	7.1349	9.958	10.1093	7.809	10.2194	11.4246	8.0209	10.489	11.3585	8.3868	-0.0358	5.4977	4.8373	0.0413	0.9053	6.3919	3.2276	5.5582	3.1753	-0.5448
6.6368	7.9906	8.7831	7.2147	10.0378	10.2194	7.8888	10.379	11.6227	8.1392	10.7257	11.5732	8.5574	0.0055	5.605	4.9446	-0.0385	1.0676	6.436	3.3514	5.7673	3.2524	-0.5228
6.6286	7.9383	8.7913	7.2367	10.068	10.2717	7.9658	10.4973	11.763	8.263	10.9238	11.7575	8.739	0.0605	5.6573	5.0354	-0.1238	1.2822	6.4827	3.456	5.9764	3.3047	-0.4925
6.5185	7.8778	8.7363	7.2064	10.0405	10.2689	7.9741	10.5331	11.8208	8.3098	11.0834	11.8758	8.8353	0.077	5.6793	5.1014	-0.1871	1.4721	6.5047	3.4973	6.1525	3.3542	-0.4925
6.4194	7.765	8.6537	7.1404	9.9938	10.2634	7.9686	10.5826	11.8841	8.3731	11.221	11.9887	8.9674	0.1238	5.6463	5.1537	-0.2697	1.6922	6.4855	3.5936	6.3066	3.3652	-0.465
6.3121	7.6604	8.5932	7.0908	9.9607	10.2276	7.9521	10.6184	11.9281	8.4336	11.353	12.0905	9.105	0.1678	5.594	5.184	-0.3439	1.9013	6.5158	3.6431	6.491	3.3817	-0.4705
6.158	7.5063	8.4529	6.9588	9.8727	10.1368	7.9136	10.6294	11.9309	8.4226	11.4548	12.1565	9.2123	0.2009	5.5224	5.2005	-0.421	2.1077	6.4882	3.7036	6.6341	3.3789	-0.454
5.9819	7.322	8.3043	6.8102	9.7819	10.0295	7.82	10.6101	11.8924	8.4391	11.5401	12.1978	9.2866	0.2394	5.3986	5.184	-0.4843	2.3168	6.447	3.7504	6.7827	3.3955	-0.4568
5.7591	7.1541	8.1254	6.6478	9.6856	9.9167	7.7292	10.5743	11.8373	8.4171	11.5952	12.1868	9.3499	0.2559	5.217	5.1179	-0.5393	2.4902	6.3754	3.7669	6.9065	3.412	-0.4485
5.5554	6.945	7.9246	6.4772	9.5618	9.7956	7.6356	10.5	11.7658	8.3951	11.6475	12.1813	9.4297	0.3027	5.0354	5.0161	-0.6081	2.7158	6.2929	3.8385	7.0303	3.434	-0.4348
5.3161	6.7524	7.7017	6.2984	9.4269	9.6168	7.4953	10.4395	11.6585	8.3676	11.6612	12.1538	9.471	0.3192	4.807	4.8731	-0.6576	2.9029	6.2103	3.8192	7.1761	3.478	-0.4045
5.0519	6.5103	7.4678	6.0755	9.2618	9.4434	7.377	10.3405	11.5319	8.3483	11.6557	12.0905	9.515	0.3439	4.5594	4.6392	-0.6989	3.0983	6.1003	3.855	7.2724	3.5275	-0.3935
4.796	6.2599	7.2367	5.8829	9.0995	9.2563	7.2394	10.2359	11.4108	8.318	11.642	12.0299	9.548	0.366	4.3392	4.4135	-0.7402	3.2909	5.9902	3.8577	7.3577	3.5771	-0.3742
4.5236	5.993	6.978	5.6655	8.9124	9.0472	7.0963	10.1148	11.2677	8.274	11.6227	11.9611	9.5755	0.3825	4.0861	4.1384	-0.7704	3.4753	5.8636	3.888	7.432	3.6156	-0.3522
4.2512	5.7205	6.7359	5.4316	8.7363	8.8463	6.945	9.9938	11.1081	8.23	11.5897	11.8676	9.603	0.3797	3.8137	3.8164	-0.7594	3.6238	5.7068	3.8742	7.5036	3.6541	-0.3412
3.9925	5.4784	6.4745	5.2253	8.5684	8.6675	6.8239	9.8672	10.9486	8.1832	11.5677	11.7823	9.6333	0.3742	3.5716	3.4918	-0.7512	3.8137	5.561	3.888	7.5861	3.6789	-0.3384
3.7422	5.2748	6.2626	5.0354	8.3703	8.4694	6.7029	9.7213	10.8	8.1612	11.4934	11.6942	9.6553	0.3577	3.3404	3.1753	-0.7044	3.9595	5.4206	3.899	7.6687	3.7009	-0.3027
3.5055	5.0437	6.0067	4.8538	8.2575	8.296	6.5735	9.6085	10.6321	8.1282	11.4493	11.5787	9.6416	0.3137	3.1093	2.8259	-0.6384	4.1026	5.2555	3.8962	7.732	3.7064	-0.2999
3.2689	4.8676	5.7728	4.6777	8.0759	8.0924	6.4745	9.5012	10.4863	8.0759	11.4108	11.4961	9.6691	0.2779	2.9029	2.5507	-0.5696	4.265	5.1592	3.9017	7.8062	3.7174	-0.3164
3.035	4.6639	5.5499	4.5181	7.9246	7.9053	6.3424	9.3636	10.3074	8.0374	11.342	11.3888	9.6581	0.2256	2.6773	2.237	-0.4595	4.364	5.0354	3.9128	7.8558	3.7119	-0.3054
2.8259	4.5071	5.3546	4.3503	7.8117	7.7485	6.2709	9.2536	10.1671	7.9989	11.2815	11.2705	9.6498	0.1541	2.4874	1.9261	-0.3412	4.4741	4.8731	3.8825	7.897	3.7036	-0.3247
2.614	4.342	5.129	4.1907	7.6494	7.5393	6.1223	9.1132	9.969	7.9273	11.2072	11.1577	9.625	0.0853	2.3278	1.6895	-0.1981	4.5539	4.7437	3.844	7.9521	3.6816	-0.3109
2.3939	4.1824	4.9088	4.0586	7.5146	7.377	6.0645	9.0059	9.8177	7.8805	11.1247	11.0476	9.614	0.022	2.1545	1.4583	-0.066	4.6227	4.6254	3.822	8.0236	3.6376	-0.3302
2.215	4.0668	4.7382	3.9513	7.3935	7.2229	5.9682	8.8766	9.6691	7.853	11.0339	10.9265	9.5975	-0.0523	2.0582	1.3043	0.0688	4.7052	4.5319	3.7669	8.0787	3.5743	-0.3274
2.0527	3.9375	4.5539	3.866	7.2532	7.0551	5.9159	8.7638	9.5232	7.82	10.9568	10.822	9.5865	-0.1211	1.9729	1.1914	0.2119	4.785	4.4135	3.7311	8.0814	3.4835	-0.3274
1.9013	3.8054	4.3805	3.7724	7.1046	6.8955	5.8719	8.6317	9.3306	7.7815	10.8495	10.6872	9.537	-0.1733	1.9179	1.1364	0.3357	4.8428	4.2952	3.6981	8.1254	3.39	-0.3164
1.7335	3.6789	4.2099	3.6514	6.9588	6.7249	5.7976	8.4749	9.171	7.7457	10.7477	10.5413	9.4847	-0.2449	1.8793	1.1006	0.4568	4.8923	4.2044	3.6211	8.1419	3.2744	-0.3302
1.5767	3.533	4.0201	3.5661	6.8074	6.5735	5.7371	8.307	8.9867	7.6742	10.6156	10.412	9.4599	-0.3109	1.8546	1.0896	0.5888	4.8923	4.0806	3.5771	8.1364	3.1451	-0.3274
1.4611	3.4477	3.8825	3.5	6.6561	6.3727	5.6738	8.1392	8.8216	7.6109	10.467	10.2662	9.3691	-0.355	1.805	1.1199	0.6906	4.9363	3.9843	3.5275	8.1007	3.0295	-0.3192
1.3318	3.3432	3.7311	3.4312	6.5295	6.2406	5.6077	8.0016	8.6647	7.5724	10.3515	10.1368	9.3251	-0.4045	1.816	1.1667	0.7759	4.9776	3.921	3.4642	8.1034	2.9249	-0.3027
1.2217	3.2579	3.5716	3.3652	6.3974	6.1058	5.5665	7.8393	8.5162	7.5228	10.2029	9.9717	9.2563	-0.443	1.7803	1.2217	0.8585	4.9776	3.8027	3.4257	8.0374	2.8066	-0.3219
1.1226	3.1946	3.4395	3.3102	6.2599	5.9572	5.5142	7.6852	8.329	7.4458	10.0763	9.8177	9.193	-0.465	1.7665	1.285	0.9245	5.0244	3.7119	3.39	7.9906	2.7378	-0.3384
1.0181	3.112	3.3212	3.2414	6.1333	5.8251	5.4564	7.5228	8.164	7.377	9.947	9.6553	9.1132	-0.5145	1.7115	1.3675	0.9906	5.0326	3.6266	3.3652	7.9658	2.6855	-0.3247
0.9135	3.0322	3.1588	3.2111	5.9764	5.6545	5.4041	7.3742	8.0071	7.3357	9.8066	9.482	9.0335	-0.5256	1.6867	1.3951	1.0291	5.0712	3.5413	3.3597	7.9136	2.658	-0.355
0.842	2.9855	3.0598	3.1561	5.8966	5.5444	5.3793	7.2284	7.8448	7.2642	9.6663	9.3196	8.9399	-0.5531	1.6124	1.4253	1.0649	5.0877	3.4285	3.3322	7.831	2.6718	-0.3715
0.7677	2.9414	2.9387	3.1175	5.7646	5.4344	5.3243	7.1046	7.7292	7.2229	9.5342	9.1765	8.8711	-0.5476	1.5354	1.4363	1.0649	5.1537	3.3542	3.3624	7.7842	2.7186	-0.3907
0.7017	2.9084	2.8479	3.09	5.6738	5.2913	5.2693	6.9835	7.5669	7.1679	9.4159	9.0142	8.7913	-0.5476	1.4941	1.4776	1.0594	5.2115	3.2936	3.3844	7.743	2.7461	-0.4017
0.6439	2.8672	2.7681	3.0625	5.572	5.1675	5.25	6.8652	7.4348	7.0963	9.2756	8.8518	8.7253	-0.5338	1.3923	1.4886	1.0429	5.2638	3.2194	3.4092	7.7127	2.8094	-0.4045
0.6109	2.8396	2.6828	3.046	5.4977	5.0657	5.2115	6.7579	7.3055	7.0771	9.1903	8.7253	8.6592	-0.5338	1.3318	1.4859	1.0429	5.3546	3.1671	3.478	7.6659	2.8672	-0.4458
0.5751	2.8314	2.6443	3.046	5.3986	4.9804	5.1867	6.6451	7.1899	7.0193	9.1022	8.5767	8.6097	-0.5311	1.2932	1.5216	1.0346	5.4261	3.1065	3.5413	7.6301	2.9002	-0.4568
0.5668	2.8506	2.581	3.079	5.3353	4.8648	5.1702	6.5818	7.0908	6.9835	8.9949	8.4556	8.5354	-0.5393	1.23	1.5354	1.0539	5.5224	3.0405	3.6046	7.5916	2.9222	-0.487
0.5723	2.8451	2.5727	3.079	5.2885	4.7988	5.1922	6.491	6.978	6.9643	8.9096	8.3208	8.5024	-0.5476	1.1942	1.5574	1.0731	5.6352	3.002	3.6954	7.5806	2.9277	-0.5008
0.5943	2.8699	2.559	3.101	5.2775	4.741	5.1675	6.4194	6.8982	6.9367	8.8106	8.208	8.4529	-0.5778	1.1584	1.5877	1.0951	5.7398	2.9965	3.7587	7.5641	2.9057	-0.4953
0.6109	2.9222	2.5342	3.1203	5.2253	4.6502	5.1565	6.3314	6.7772	6.89	8.6895	8.0621	8.3703	-0.5916	1.1199	1.6289	1.1392	5.8224	2.9525	3.8275	7.5311	2.8534	-0.498
0.6631	2.9277	2.5232	3.1313	5.2363	4.6337	5.1812	6.2956	6.7194	6.879	8.6097	7.9631	8.3346	-0.6191	1.1006	1.6344	1.1942	5.9297	2.9277	3.9238	7.5311	2.7956	-0.4925
0.6659	2.9304	2.5067	3.1341	5.1895	4.5346	5.173	6.2186	6.6011	6.8267	8.4474	7.8007	8.2327	-0.6576	1.0649	1.6317	1.2795	6.0095	2.8947	3.9513	7.5008	2.6993	-0.4815
0.6714	2.9469	2.4792	3.1588	5.14	4.4328	5.1592	6.1195	6.4635	6.7579	8.3318	7.6246	8.1474	-0.6962	1.0594	1.6207	1.3538	6.0645	2.8809	3.9981	7.4761	2.592	-0.4843
0.6989	2.9277	2.4489	3.1341	5.0849	4.3503	5.1152	6.026	6.3121	6.6891	8.186	7.4375	8.0099	-0.7374	1.0621	1.5794	1.4363	6.092	2.8396	4.0393	7.421	2.4792	-0.4843
0.6879	2.8947	2.3664	3.1203	5.0106	4.2154	5.0712	5.9049	6.1525	6.6011	8.0099	7.2284	7.8805	-0.7759	1.0484	1.5491	1.5189	6.125	2.8259	4.0421	7.3853	2.3444	-0.465
0.6466	2.8204	2.248	3.079	4.8978	4.0558	5.0024	5.7453	5.9434	6.4332	7.8062	6.9643	7.6797	-0.82	1.0181	1.4473	1.6124	6.1113	2.7653	4.0283	7.3137	2.1985	-0.487
0.6219	2.7653	2.1627	3.0295	4.7823	3.8935	4.8923	5.5747	5.7343	6.2984	7.5751	6.7249	7.4816	-0.875	1.0291	1.34	1.6895	6.081	2.7241	4.0063	7.2394	2.0499	-0.5173
0.5641	2.6663	2.0527	2.9525	4.6199	3.7091	4.7988	5.3849	5.4757	6.103	7.3357	6.4194	7.2422	-0.9163	1.0346	1.1364	1.772	5.993	2.636	3.9375	7.1184	1.9234	-0.5998
0.4953	2.5617	1.9124	2.8616	4.4521	3.478	4.6584	5.1812	5.2253	5.9187	7.0633	6.103	6.989	-0.9493	0.9933	0.8833	1.8573	5.8911	2.5755	3.833	7.0055	1.7968	-0.6741
0.4182	2.4462	1.7363	2.7626	4.2897	3.2744	4.5181	4.9611	4.9171	5.6875	6.8019	5.7866	6.7056	-0.9878	0.9686	0.6549	1.9426	5.7536	2.4819	3.7284	6.879	1.662	-0.7677
0.2779	2.2866	1.5546	2.6443	4.0999	3.035	4.353	4.741	4.6254	5.4454	6.4882	5.4591	6.4057	-1.0263	0.9163	0.3439	2.0169	5.605	2.3801	3.6101	6.7359	1.5546	-0.8943
0.1706	2.1242	1.3538	2.5177	3.8797	2.7681	4.1852	4.5043	4.3145	5.2005	6.1993	5.1262	6.1195	-1.0539	0.8667	0.066	2.0802	5.4509	2.2893	3.4945	6.5983	1.4473	-1.0291
0.0358	1.9866	1.1529	2.3636	3.7064	2.5067	3.9733	4.3007	4.0173	4.9556	5.9049	4.7768	5.8224	-1.0951	0.8475	-0.2174	2.16	5.2858	2.1958	3.3322	6.4497	1.3648	-1.1832
-0.1018	1.8298	0.9328	2.2095	3.5303	2.2535	3.7834	4.0613	3.6981	4.6832	5.583	4.4301	5.5004	-1.1392	0.787	-0.4815	2.2205	5.0877	2.0747	3.1781	6.3149	1.2767	-1.3455
-0.2421	1.7142	0.7402	2.0774	3.3487	2.0032	3.6018	3.8715	3.4037	4.4438	5.2885	4.1081	5.2225	-1.1804	0.7457	-0.7347	2.3168	4.9391	1.9921	3.0708	6.1636	1.2052	-1.4886
-0.3522	1.5657	0.5558	1.9371	3.1781	1.7473	3.4065	3.6761	3.1286	4.1962	5.0519	3.8027	4.9418	-1.2107	0.7512	-0.9328	2.3856	4.7768	1.9124	2.9497	6.059	1.1226	-1.6372
-0.5256	1.4198	0.3384	1.7418	3.0322	1.5161	3.1781	3.4945	2.8506	3.954	4.807	3.5193	4.6777	-1.2575	0.7264	-1.1144	2.4654	4.6034	1.8518	2.8204	5.9379	1.0346	-1.7748
-0.6301	1.2905	0.1513	1.6042	2.8754	1.2795	3.0212	3.3294	2.603	3.7697	4.5786	3.2496	4.4466	-1.2822	0.6879	-1.2272	2.5342	4.4438	1.7885	2.7461	5.8444	0.9548	-1.8931
-0.7952	1.1722	-0.0495	1.4583	2.7516	1.0511	2.8011	3.1643	2.3554	3.533	4.342	2.991	4.2292	-1.329	0.6411	-1.3538	2.6058	4.3062	1.739	2.636	5.7316	0.8723	-2.0307
-0.9328	1.0153	-0.2476	1.3015	2.5837	0.82	2.6223	2.9827	2.1022	3.3294	4.1301	2.7461	3.9981	-1.3593	0.6274	-1.4308	2.6855	4.1521	1.6757	2.5452	5.6297	0.7732	-2.0967
-1.0731	0.8833	-0.432	1.1667	2.4407	0.5971	2.4572	2.8314	1.8903	3.1258	3.9458	2.5122	3.8027	-1.384	0.5641	-1.4226	2.7296	4.0338	1.6399	2.4682	5.5665	0.6796	-2.171
-1.2245	0.7319	-0.6301	1.0098	2.2893	0.3907	2.2811	2.6828	1.6977	2.9635	3.7532	2.3031	3.6348	-1.4088	0.5256	-1.3951	2.7763	3.9128	1.5959	2.3994	5.4922	0.5971	-2.2095
-1.362	0.5833	-0.8007	0.8557	2.127	0.1899	2.1187	2.537	1.4914	2.8066	3.5963	2.1407	3.5028	-1.4336	0.4595	-1.3263	2.8176	3.7972	1.5987	2.3196	5.4344	0.5366	-2.2343
-1.5326	0.3852	-1.0043	0.6962	1.9454	-0.044	1.9646	2.4076	1.3235	2.6553	3.4505	1.9811	3.3487	-1.4446	0.4127	-1.23	2.8644	3.6899	1.5959	2.237	5.3931	0.5008	-2.2425
-1.684	0.2201	-1.1997	0.5806	1.7995	-0.2256	1.805	2.237	1.1474	2.5287	3.3184	1.8408	3.2166	-1.4721	0.3412	-1.0924	2.8919	3.5881	1.5987	2.1435	5.3078	0.5008	-2.2728
-1.8793	0.0028	-1.4088	0.4017	1.6179	-0.4127	1.6537	2.1187	0.9961	2.3994	3.2139	1.7252	3.1093	-1.4941	0.2889	-0.9328	2.9497	3.4697	1.5794	2.0554	5.2555	0.4898	-2.2701
-2.0582	-0.1926	-1.6207	0.2504	1.4528	-0.6081	1.5244	2.0114	0.8667	2.2591	3.1341	1.6234	3.0102	-1.5216	0.2091	-0.7842	3.0047	3.3652	1.5794	1.9536	5.25	0.4925	-2.2591
-2.2343	-0.3687	-1.7858	0.1266	1.3373	-0.7209	1.3951	1.9454	0.8035	2.1875	3.0515	1.5409	2.9414	-1.5409	0.1018	-0.6329	3.0433	3.2469	1.5629	1.8546	5.228	0.5118	-2.2591
-2.4214	-0.5421	-1.9426	-0.011	1.2024	-0.8612	1.2905	1.8491	0.7072	2.1132	3.0405	1.5189	2.8782	-1.5712	0.0248	-0.4292	3.0873	3.1478	1.5712	1.761	5.2308	0.5311	-2.2535
-2.5782	-0.6714	-2.0747	-0.1073	1.1171	-0.9576	1.2024	1.8078	0.6769	2.0829	3.0267	1.5106	2.8561	-1.5877	-0.022	-0.2256	3.1478	3.057	1.5822	1.6812	5.2418	0.5393	-2.2535
-2.7213	-0.8255	-2.2095	-0.2366	1.0346	-1.0318	1.1226	1.8078	0.6741	2.0389	3.057	1.5326	2.8754	-1.6262	-0.0908	-0.0275	3.1946	2.9882	1.6344	1.6262	5.2858	0.5366	-2.2508
-2.8479	-0.9465	-2.3168	-0.3302	0.9576	-1.0979	1.0621	1.8023	0.7182	2.0334	3.0928	1.5987	2.8947	-1.6399	-0.1486	0.1596	3.2359	2.9249	1.651	1.5436	5.3161	0.5311	-2.237
-2.9827	-1.0676	-2.3939	-0.4072	0.9108	-1.1392	1.0153	1.8243	0.7292	2.0499	3.1671	1.6867	2.9359	-1.673	-0.2421	0.3082	3.2964	2.8782	1.6867	1.5216	5.3491	0.509	-2.2343
-3.057	-1.1392	-2.4709	-0.4623	0.8778	-1.1447	0.9988	1.8628	0.8145	2.0774	3.2441	1.7913	3.0185	-1.7032	-0.2999	0.4788	3.3514	2.8396	1.739	1.4831	5.4014	0.4678	-2.2315
-3.1616	-1.2272	-2.5507	-0.5448	0.8557	-1.1502	0.9548	1.8958	0.8915	2.1215	3.3349	1.9261	3.0928	-1.739	-0.388	0.6109	3.4092	2.8121	1.7583	1.4886	5.4316	0.4265	-2.2453
-3.2551	-1.3263	-2.5755	-0.5503	0.842	-1.1392	0.9548	1.9371	1.0153	2.1848	3.4312	2.0554	3.1918	-1.7528	-0.454	0.7264	3.4697	2.7846	1.8023	1.4914	5.4757	0.3357	-2.2453
-3.2854	-1.3483	-2.5727	-0.5668	0.8282	-1.0951	0.9631	2.0362	1.1392	2.2618	3.5606	2.2178	3.3294	-1.7693	-0.5228	0.8337	3.5	2.8176	1.8353	1.5051	5.5224	0.2449	-2.2591
-3.3487	-1.3785	-2.5672	-0.5861	0.842	-1.0511	0.9603	2.1105	1.2657	2.3306	3.6514	2.3856	3.4587	-1.794	-0.6109	0.886	3.5385	2.8176	1.8683	1.5244	5.5499	0.1431	-2.2673
-3.3239	-1.4116	-2.5287	-0.5723	0.8695	-0.9713	1.0071	2.182	1.4583	2.4627	3.8137	2.559	3.6073	-1.8078	-0.6714	0.9603	3.5633	2.8754	1.9234	1.5574	5.605	0.0138	-2.2728
-3.3487	-1.3978	-2.5039	-0.5366	0.9355	-0.8805	1.0484	2.2728	1.6262	2.5837	3.9705	2.7571	3.7697	-1.8078	-0.7182	1.0071	3.5743	2.9139	1.9454	1.6014	5.616	-0.1018	-2.3223
-3.3184	-1.3703	-2.4076	-0.476	0.9906	-0.7759	1.1281	2.4076	1.8243	2.7103	4.1164	2.9745	3.9265	-1.8078	-0.7567	1.0484	3.5908	2.9745	1.9784	1.6757	5.6545	-0.2366	-2.3554
-3.2551	-1.3125	-2.3306	-0.4348	1.0814	-0.6521	1.2162	2.5287	2.0362	2.8727	4.2732	3.1863	4.1054	-1.8215	-0.7842	1.0429	3.5908	3.035	2.0252	1.7032	5.6765	-0.3522	-2.3801
-3.2194	-1.2987	-2.248	-0.377	1.1502	-0.5393	1.2767	2.6333	2.2123	2.9882	4.4108	3.3982	4.2787	-1.8271	-0.8365	1.0016	3.6156	3.0928	2.0554	1.7583	5.7178	-0.4485	-2.4407
-3.1368	-1.1969	-2.138	-0.2917	1.2657	-0.3935	1.3675	2.7681	2.4517	3.1478	4.5676	3.6514	4.4768	-1.8353	-0.8337	0.9273	3.6211	3.1368	2.0719	1.8215	5.7371	-0.5668	-2.5094
-3.0488	-1.1006	-2.0169	-0.2284	1.3675	-0.2449	1.4501	2.8809	2.6443	3.2716	4.7135	3.8632	4.6447	-1.8436	-0.8007	0.8337	3.6321	3.1781	2.105	1.8491	5.7646	-0.6879	-2.57
-2.9827	-1.0456	-1.9206	-0.1541	1.4831	-0.0908	1.5464	3.0102	2.8616	3.4175	4.8538	4.0668	4.829	-1.8271	-0.7567	0.7237	3.6073	3.2359	2.1187	1.8876	5.7811	-0.8062	-2.658
-2.8864	-0.9328	-1.794	-0.0991	1.5849	0.0303	1.6042	3.1286	3.0405	3.5661	4.9804	4.276	4.9941	-1.8133	-0.7429	0.5833	3.5798	3.2854	2.1215	1.9096	5.7866	-0.9218	-2.6993
-2.7984	-0.8502	-1.6867	-0.0385	1.695	0.1568	1.6867	3.2386	3.2331	3.6734	5.0932	4.4631	5.1785	-1.794	-0.6411	0.432	3.5248	3.3432	2.1242	1.9399	5.7838	-1.0126	-2.7571
-2.7213	-0.7759	-1.5932	0.0083	1.794	0.2862	1.7528	3.3569	3.401	3.7917	5.2005	4.6419	5.3188	-1.7555	-0.6053	0.2421	3.4615	3.3734	2.094	1.9674	5.7426	-1.1061	-2.8286
-2.6388	-0.6576	-1.4721	0.0715	1.9124	0.432	1.8188	3.4587	3.5771	3.91	5.3216	4.8428	5.4729	-1.7087	-0.5145	0.066	3.3707	3.4835	2.0885	2.0059	5.7426	-1.1942	-2.8947
-2.5122	-0.5723	-1.3565	0.1293	2.0059	0.5531	1.8986	3.5385	3.7394	4.0256	5.4206	5.0161	5.6545	-1.684	-0.4237	-0.1403	3.3047	3.5385	2.0664	2.0609	5.7316	-1.2547	-2.9057
-2.4296	-0.4898	-1.2795	0.1596	2.0885	0.6741	1.9316	3.6183	3.866	4.1054	5.4839	5.14	5.7893	-1.6317	-0.3219	-0.3192	3.2304	3.5963	2.0224	2.0857	5.6958	-1.3263	-2.9249
-2.3306	-0.421	-1.1914	0.2036	2.1462	0.7512	1.9784	3.6458	3.9815	4.2099	5.5554	5.2693	5.8939	-1.5987	-0.1954	-0.4953	3.1561	3.6514	2.0252	2.0967	5.638	-1.3868	-2.9607
-2.2508	-0.3439	-1.0814	0.2366	2.226	0.8667	2.0362	3.7174	4.1191	4.32	5.5885	5.3876	6.0315	-1.5684	-0.0715	-0.6274	3.079	3.7009	2.0169	2.1435	5.6105	-1.4556	-2.9469
-2.204	-0.2972	-1.0208	0.2449	2.2398	0.9328	2.0692	3.7036	4.1631	4.3668	5.6297	5.4564	6.103	-1.5299	0.0358	-0.7594	3.013	3.7504	1.9866	2.1655	5.5417	-1.5189	-2.9387
-2.1352	-0.2807	-0.9851	0.2504	2.2535	1.0126	2.0802	3.7284	4.2374	4.4273	5.616	5.5059	6.1966	-1.4941	0.1348	-0.9135	2.9332	3.7532	1.9234	2.182	5.4702	-1.5822	-2.9222
-2.116	-0.2752	-0.9465	0.2614	2.2178	1.0318	2.1022	3.6926	4.2567	4.4521	5.6105	5.5417	6.2433	-1.4501	0.2201	-1.0401	2.8616	3.7697	1.8628	2.1765	5.3711	-1.6152	-2.8837
-2.0829	-0.2697	-0.9135	0.2531	2.1903	1.0511	2.1215	3.6458	4.2622	4.4768	5.5637	5.5444	6.2819	-1.4033	0.2531	-1.1309	2.7681	3.7752	1.8243	2.1655	5.2803	-1.662	-2.8589
-2.1187	-0.3137	-0.93	0.2229	2.0857	1.0401	2.0802	3.5661	4.2237	4.4411	5.4867	5.5114	6.2819	-1.3703	0.2256	-1.2795	2.6938	3.7394	1.7418	2.1462	5.1372	-1.6647	-2.8204
-2.1105	-0.3687	-0.9273	0.1954	2.0224	1.0621	2.0967	3.4808	4.1934	4.4658	5.4289	5.4894	6.2984	-1.3208	0.2119	-1.3648	2.5865	3.7229	1.6785	2.1407	5.0134	-1.6757	-2.7819
-2.1627	-0.41	-0.9686	0.1623	1.8931	1.0318	2.1022	3.3652	4.1466	4.4631	5.3298	5.4536	6.3039	-1.2657	0.1348	-1.4363	2.4957	3.6871	1.5491	2.1132	4.8703	-1.684	-2.7186
-2.204	-0.498	-0.9961	0.1513	1.8243	0.9878	2.0885	3.2744	4.1081	4.4768	5.2418	5.4069	6.3121	-1.2079	0.0523	-1.4941	2.3746	3.6926	1.4363	2.1022	4.708	-1.6702	-2.6718
-2.2756	-0.5256	-1.0318	0.1321	1.7032	0.9768	2.0719	3.1698	4.0393	4.4961	5.1317	5.3326	6.3094	-1.1529	-0.0413	-1.5354	2.248	3.6541	1.3235	2.0829	4.5456	-1.6675	-2.5947
-2.3086	-0.5971	-1.0566	0.1073	1.6179	0.9631	2.0912	3.0735	3.976	4.5043	5.0602	5.2638	6.3149	-1.0759	-0.1541	-1.5244	2.1077	3.6706	1.2162	2.0802	4.408	-1.6482	-2.5039
-2.3609	-0.6576	-1.0924	0.1183	1.5079	0.9245	2.1022	2.98	3.9238	4.5264	4.9446	5.2032	6.3314	-0.9988	-0.2504	-1.4556	1.9619	3.6871	1.0951	2.0829	4.2402	-1.6262	-2.4214
-2.4021	-0.6631	-1.0896	0.1458	1.4308	0.9108	2.1545	2.8809	3.844	4.5291	4.8455	5.1317	6.3452	-0.9273	-0.3632	-1.4143	1.8078	3.7091	1.0153	2.0995	4.0999	-1.6152	-2.3499
-2.4324	-0.7264	-1.1089	0.1403	1.3593	0.9135	2.204	2.8066	3.8109	4.5951	4.7575	5.0684	6.3644	-0.8447	-0.4733	-1.3208	1.6565	3.7284	0.886	2.1132	3.932	-1.5794	-2.2783
-2.4874	-0.7952	-1.1419	0.1733	1.274	0.9053	2.2425	2.6993	3.7422	4.6419	4.6667	5.0024	6.3919	-0.7732	-0.6191	-1.263	1.5079	3.7559	0.7539	2.1242	3.7779	-1.5519	-2.2123
-2.5562	-0.8447	-1.1419	0.2119	1.2052	0.9025	2.3223	2.6223	3.6899	4.6997	4.5704	4.9198	6.4002	-0.7017	-0.7484	-1.2079	1.362	3.7972	0.6631	2.1435	3.6431	-1.5189	-2.1435
-2.5837	-0.8805	-1.1639	0.2531	1.1392	0.9218	2.3856	2.548	3.6486	4.7602	4.4988	4.8868	6.447	-0.6384	-0.8667	-1.1309	1.219	3.844	0.5668	2.1352	3.522	-1.5134	-2.0912
-2.592	-0.919	-1.1226	0.3522	1.0676	0.9245	2.5012	2.4984	3.6073	4.8263	4.4273	4.8153	6.4827	-0.5558	-0.9631	-1.0869	1.0704	3.9045	0.4733	2.1682	3.412	-1.4969	-2.0582
-2.6195	-0.9851	-1.1061	0.4265	1.0181	0.9823	2.6058	2.4186	3.5853	4.9033	4.342	4.7465	6.4855	-0.498	-1.0869	-1.0649	0.9603	3.9485	0.3412	2.182	3.2661	-1.4859	-2.0224
-2.6002	-1.0043	-1.0759	0.5448	0.9796	1.0208	2.7296	2.3966	3.5798	4.9969	4.3255	4.73	6.557	-0.4348	-1.1612	-1.0373	0.842	4.0228	0.2697	2.215	3.1753	-1.4969	-2.0032
-2.5782	-1.0291	-1.0373	0.6631	0.9548	1.0594	2.8451	2.3609	3.5881	5.1014	4.2732	4.6942	6.5928	-0.3907	-1.2272	-1.0346	0.7594	4.0889	0.1651	2.2893	3.0983	-1.5189	-1.9784
-2.5315	-1.0043	-0.9548	0.831	0.9713	1.1667	3.0102	2.3609	3.6238	5.2363	4.2677	4.708	6.6698	-0.3467	-1.2712	-0.9768	0.6741	4.1879	0.0963	2.3691	3.057	-1.5491	-1.9536
-2.4379	-0.9576	-0.8117	1.0126	1.0153	1.2877	3.2001	2.4186	3.7146	5.3986	4.32	4.7465	6.7854	-0.3027	-1.2987	-0.952	0.5668	4.3062	0.0825	2.4874	3.068	-1.5822	-1.9289
-2.3333	-0.8667	-0.6659	1.2024	1.1006	1.4336	3.39	2.4902	3.7944	5.572	4.364	4.7878	6.8845	-0.2752	-1.2767	-0.8778	0.5118	4.3915	0.0303	2.5782	3.0735	-1.6207	-1.9124
-2.1765	-0.7264	-0.498	1.4611	1.2465	1.6344	3.5908	2.6085	3.9513	5.7756	4.4548	4.8896	7.0468	-0.2229	-1.241	-0.8117	0.4127	4.5621	0.0248	2.7571	3.112	-1.6427	-1.8986
-2.0444	-0.6191	-0.3384	1.6647	1.351	1.7913	3.8164	2.7213	4.0668	5.9627	4.5951	4.9969	7.1981	-0.1789	-1.1694	-0.6659	0.3219	4.7107	0.022	2.9304	3.2056	-1.684	-1.8491
-1.8793	-0.4403	-0.1238	1.9179	1.5381	2.0142	4.0393	2.8672	4.254	6.1883	4.7162	5.1455	7.3522	-0.1183	-1.1034	-0.5696	0.2146	4.8731	0.0495	3.112	3.2826	-1.7115	-1.8353
-1.739	-0.2724	0.0963	2.1572	1.728	2.2398	4.2787	3.0653	4.4466	6.3617	4.8621	5.2968	7.5311	-0.077	-1.0236	-0.4265	0.1183	5.0161	0.0743	3.3102	3.3569	-1.717	-1.7995
-1.5657	-0.1376	0.2779	2.4021	1.9096	2.4572	4.5043	3.2276	4.6529	6.6066	5.0299	5.4839	7.7209	-0.0028	-0.93	-0.2944	-0.022	5.1922	0.1403	3.5193	3.456	-1.6867	-1.7555
-1.3868	0.022	0.498	2.6278	2.0774	2.6828	4.741	3.4147	4.8621	6.8377	5.217	5.6573	7.9191	0.0578	-0.8502	-0.1348	-0.1348	5.3711	0.1871	3.7339	3.5413	-1.6592	-1.7087
-1.219	0.1926	0.7044	2.8561	2.2591	2.8782	4.9446	3.6128	5.0767	7.0578	5.3821	5.8444	8.0924	0.1073	-0.7732	-0.0523	-0.2559	5.5169	0.2862	3.9155	3.6624	-1.5987	-1.6702
-1.0566	0.3439	0.8915	3.0708	2.4654	3.112	5.1757	3.8054	5.3188	7.2669	5.583	6.0425	8.2933	0.1733	-0.6549	0.0936	-0.3605	5.6765	0.3302	4.1136	3.7587	-1.5271	-1.6317
-0.8888	0.4953	1.1061	3.3102	2.636	3.3377	5.3986	3.9898	5.5499	7.5256	5.7976	6.2654	8.4886	0.2119	-0.5723	0.1844	-0.4458	5.8389	0.421	4.3392	3.8742	-1.4281	-1.5904
-0.7127	0.6521	1.3125	3.5055	2.8039	3.5633	5.605	4.1852	5.7756	7.7154	5.9874	6.48	8.6702	0.2449	-0.4788	0.3027	-0.5063	5.9874	0.5063	4.5374	3.9953	-1.3373	-1.5712
-0.5641	0.787	1.4886	3.6816	2.9662	3.7779	5.7921	4.375	6.015	7.9163	6.1608	6.6864	8.8408	0.2669	-0.4072	0.3962	-0.5641	6.1305	0.5971	4.719	4.1109	-1.2437	-1.5381
-0.4182	0.9163	1.6977	3.855	3.1203	3.9981	5.9764	4.5814	6.2488	8.1227	6.3644	6.9202	9.0307	0.2834	-0.3357	0.5008	-0.5916	6.2488	0.6962	4.9006	4.2182	-1.1309	-1.5271
-0.2697	1.0621	1.8793	4.0118	3.3074	4.2044	6.1498	4.752	6.4745	8.3153	6.5515	7.1266	9.1738	0.2972	-0.2284	0.6081	-0.6164	6.3809	0.8035	5.0877	4.3448	-1.0153	-1.4914
-0.1541	1.1557	2.0307	4.1411	3.4532	4.4163	6.3231	4.9336	6.7001	8.5079	6.7496	7.377	9.3691	0.3164	-0.1541	0.7072	-0.6301	6.5047	0.9053	5.2473	4.4438	-0.919	-1.4721
-0.0165	1.2822	2.1958	4.2264	3.6073	4.6144	6.458	5.1317	6.9175	8.6702	6.934	7.5696	9.5205	0.3164	-0.044	0.7732	-0.6301	6.6093	1.0236	5.3959	4.5649	-0.8227	-1.4281
0.0991	1.3868	2.3361	4.3227	3.7697	4.8125	6.59	5.2996	7.1734	8.8491	7.1294	7.809	9.6691	0.2944	0.0578	0.8695	-0.6191	6.7001	1.1584	5.5307	4.7245	-0.7374	-1.3868
0.2036	1.5024	2.5122	4.4521	3.9293	4.9996	6.7194	5.4949	7.4045	8.9784	7.311	8.0539	9.8204	0.2972	0.1761	0.9218	-0.5888	6.7992	1.2602	5.66	4.8153	-0.6962	-1.34
0.3109	1.5822	2.636	4.4988	4.0971	5.195	6.8432	5.6573	7.6246	9.1435	7.5201	8.2603	9.9855	0.2614	0.2779	0.9548	-0.5476	6.8982	1.3896	5.7783	4.9446	-0.6686	-1.318
0.41	1.695	2.7763	4.5759	4.2319	5.3821	6.9725	5.8444	7.8503	9.2866	7.7099	8.5107	10.1533	0.2449	0.4072	1.0043	-0.4788	7	1.5024	5.8829	5.0602	-0.6549	-1.2905
0.5145	1.8078	2.9332	4.6447	4.4025	5.5747	7.0991	6.0342	8.1034	9.4379	7.9163	8.7693	10.3322	0.2036	0.5256	1.0236	-0.4182	7.0853	1.651	5.9874	5.2005	-0.6659	-1.2685
0.6026	1.9041	3.0433	4.6942	4.5731	5.7866	7.1981	6.2076	8.3373	9.603	8.1089	9.0004	10.4698	0.1596	0.6246	1.0153	-0.3247	7.1734	1.8188	6.0865	5.3353	-0.6741	-1.2355
0.6934	1.9784	3.1451	4.7657	4.7107	5.9324	7.3055	6.3782	8.5464	9.7736	8.2933	9.2371	10.6294	0.1073	0.6879	0.9741	-0.2201	7.2449	1.9068	6.1828	5.4757	-0.6906	-1.2134
0.7402	2.0527	3.2496	4.8263	4.8593	6.092	7.4293	6.5515	8.7693	9.9332	8.4914	9.4847	10.8275	0.0468	0.7512	0.9493	-0.1128	7.3495	2.0472	6.2819	5.594	-0.7319	-1.2134
0.8282	2.1215	3.3459	4.9033	4.9886	6.2599	7.5476	6.7084	9.0059	10.1066	8.6592	9.7186	11.0008	0.0055	0.8062	0.875	-0.0165	7.4788	2.1765	6.3507	5.7371	-0.7237	-1.2079
0.8447	2.1572	3.434	4.9473	5.0822	6.3864	7.6577	6.8569	9.2041	10.2249	8.8326	9.925	11.1522	-0.066	0.8227	0.8062	0.0963	7.5586	2.3058	6.4194	5.8251	-0.7457	-1.2134
0.8915	2.1848	3.489	4.9529	5.2005	6.5295	7.7485	6.9863	9.3719	10.368	8.9647	10.1341	11.309	-0.0963	0.8145	0.7072	0.1899	7.6549	2.4049	6.4827	5.9407	-0.7429	-1.1942
0.9025	2.204	3.5385	5.0106	5.2885	6.6506	7.8338	7.1046	9.5673	10.5276	9.1243	10.3542	11.4851	-0.1238	0.8255	0.5998	0.2586	7.7457	2.5315	6.546	6.0397	-0.7539	-1.1612
0.9108	2.1793	3.5963	5.0299	5.3601	6.7469	7.8998	7.2119	9.7324	10.6376	9.2178	10.5221	11.5924	-0.1623	0.7759	0.4568	0.3109	7.8283	2.6168	6.5845	6.1195	-0.7402	-1.1392
0.8805	2.1848	3.6073	5.0326	5.4316	6.8404	7.9576	7.2862	9.8672	10.7367	9.3279	10.6789	11.7245	-0.1926	0.6879	0.2862	0.3495	7.9026	2.6745	6.6341	6.1773	-0.7237	-1.1226
0.8778	2.1738	3.6403	5.0547	5.4949	6.9312	8.0071	7.377	10.0323	10.8467	9.4517	10.8523	11.8538	-0.1816	0.6191	0.1238	0.3467	7.9658	2.7681	6.6753	6.2103	-0.6741	-1.0924
0.8392	2.1215	3.6321	5.0602	5.5417	7.0358	8.0676	7.4293	10.1699	10.9403	9.5122	10.9981	11.9776	-0.1844	0.5421	-0.055	0.3467	8.0676	2.8314	6.7029	6.2599	-0.6411	-1.0676
0.7897	2.1022	3.6651	5.0409	5.5775	7.1101	8.0897	7.5146	10.2937	11.0339	9.559	11.1274	12.0932	-0.1651	0.4292	-0.2311	0.3054	8.1282	2.8754	6.7056	6.2709	-0.5723	-1.0373
0.7787	2.0829	3.6706	5.0409	5.6352	7.1981	8.1557	7.5393	10.4313	11.1192	9.6416	11.2815	12.2253	-0.1596	0.3109	-0.4403	0.2724	8.2107	2.9525	6.7414	6.3094	-0.4953	-0.9851
0.6989	2.0362	3.6789	5.0409	5.6655	7.2779	8.1695	7.5806	10.5441	11.1824	9.6938	11.3916	12.2886	-0.1156	0.1733	-0.6219	0.2229	8.263	2.9607	6.7772	6.2929	-0.3935	-0.9493
0.6411	1.9977	3.7091	5.0326	5.704	7.377	8.2272	7.6604	10.6982	11.276	9.7324	11.5099	12.3876	-0.0798	0.0908	-0.7539	0.1458	8.3373	2.991	6.7772	6.2736	-0.2972	-0.9025
0.6026	1.9756	3.7256	5.0271	5.7205	7.454	8.2685	7.6659	10.822	11.3338	9.7709	11.6227	12.4509	-0.0358	-0.0468	-0.9273	0.0688	8.3813	3.0267	6.7937	6.2654	-0.1844	-0.8585
0.5586	1.9316	3.7587	5.0299	5.7536	7.5559	8.263	7.7072	10.9348	11.3888	9.7901	11.741	12.539	-0.0055	-0.1816	-1.0539	-0.0193	8.4364	3.0488	6.7964	6.2461	-0.0825	-0.8007
0.5393	1.9426	3.8082	5.0602	5.8224	7.6824	8.3401	7.7705	11.0834	11.4741	9.8122	11.8676	12.6078	0.0413	-0.3082	-1.2107	-0.1046	8.4666	3.057	6.8129	6.2131	0.0578	-0.7539
0.5421	1.9977	3.8852	5.0959	5.8856	7.8173	8.3951	7.8255	11.2622	11.5594	9.8479	11.9832	12.6931	0.0853	-0.3797	-1.2795	-0.1844	8.4914	3.0818	6.8487	6.1911	0.1348	-0.7154
0.5751	1.9866	3.9788	5.1647	5.9434	7.9493	8.4749	7.8833	11.4163	11.6254	9.8837	12.107	12.7811	0.1376	-0.4733	-1.3483	-0.2697	8.5189	3.0928	6.8817	6.1553	0.2339	-0.6604
0.6136	2.0499	4.1164	5.2665	6.0095	8.1007	8.5464	7.9383	11.5649	11.7355	9.8947	12.2253	12.8609	0.1513	-0.5531	-1.4143	-0.3329	8.5519	3.1093	6.9147	6.0948	0.2999	-0.6109
0.6989	2.116	4.2595	5.3683	6.114	8.2878	8.6702	8.0209	11.7493	11.8181	9.947	12.3629	12.938	0.2009	-0.6466	-1.4391	-0.3935	8.5382	3.112	6.9753	6.0645	0.3577	-0.5861
0.7952	2.2398	4.4218	5.5142	6.1966	8.4529	8.7858	8.0704	11.9281	11.9446	9.958	12.4757	13.0205	0.2339	-0.6934	-1.4473	-0.4623	8.5849	3.1258	7.011	6.0095	0.3935	-0.5531
0.8888	2.3471	4.6227	5.649	6.3176	8.673	8.8986	8.1364	12.1125	12.0382	9.9855	12.5913	13.1141	0.2531	-0.7815	-1.4666	-0.5283	8.6152	3.1396	7.0743	5.9544	0.4292	-0.498
1.0401	2.4957	4.8373	5.8416	6.4442	8.8656	9.0417	8.23	12.3188	12.1675	10.013	12.7343	13.2324	0.2972	-0.7704	-1.4391	-0.6109	8.6372	3.1478	7.1404	5.9324	0.4182	-0.454
1.1969	2.6663	5.0739	6.048	6.5983	9.1353	9.2206	8.3428	12.5252	12.3161	10.0736	12.8692	13.3287	0.3495	-0.7732	-1.4281	-0.6989	8.6702	3.1478	7.2092	5.9021	0.4045	-0.4155
1.3813	2.8341	5.3078	6.2488	6.7386	9.3526	9.3967	8.4336	12.7178	12.4592	10.1011	12.9902	13.4167	0.4045	-0.7787	-1.351	-0.8145	8.684	3.1533	7.2697	5.8719	0.3687	-0.3605
1.5767	3.0488	5.5912	6.4827	6.8845	9.5975	9.581	8.5272	12.9214	12.6133	10.1258	13.1196	13.5213	0.4348	-0.7759	-1.296	-0.9053	8.7363	3.1451	7.3247	5.8169	0.3192	-0.3109
1.805	3.2469	5.8774	6.7441	7.0468	9.8534	9.7929	8.629	13.1306	12.7646	10.1946	13.2489	13.6396	0.4898	-0.7429	-1.2382	-1.0071	8.7721	3.1396	7.4128	5.7783	0.2531	-0.2449
2.0197	3.4697	6.1801	7.0028	7.2257	10.1231	10.0213	8.7335	13.3287	12.9435	10.2442	13.3865	13.7304	0.5393	-0.7237	-1.2024	-1.1089	8.8078	3.1396	7.4788	5.7563	0.2064	-0.2146
2.2893	3.7174	6.48	7.3055	7.41	10.4258	10.2524	8.8546	13.5543	13.1113	10.3157	13.5433	13.8515	0.5916	-0.6466	-1.1337	-1.1832	8.8601	3.1588	7.5806	5.726	0.1541	-0.1789
2.5452	3.965	6.8322	7.6081	7.6109	10.7174	10.5056	8.9894	13.8019	13.3149	10.3927	13.7001	13.9946	0.6329	-0.5778	-1.0401	-1.2905	8.9179	3.1753	7.6604	5.7233	0.1211	-0.1183
2.8259	4.2264	7.1816	7.9328	7.809	11.0311	10.7367	9.1463	14.0413	13.4993	10.489	13.8652	14.1376	0.6851	-0.5035	-0.9851	-1.373	8.9894	3.1918	7.754	5.726	0.1073	-0.1018
3.1093	4.4961	7.5256	8.23	8.0209	11.3613	11.0201	9.2921	14.2945	13.6946	10.6266	14.0551	14.2862	0.7319	-0.399	-0.9135	-1.4666	9.039	3.2469	7.8723	5.7536	0.1211	-0.055
3.3982	4.7712	7.886	8.5574	8.23	11.6695	11.2567	9.4737	14.5669	13.912	10.7422	14.2257	14.4348	0.7649	-0.3467	-0.8502	-1.5464	9.138	3.2936	7.9961	5.7756	0.1651	-0.0358
3.6844	5.0519	8.2658	8.9014	8.4281	11.9832	11.5374	9.6361	14.7925	14.1156	10.8743	14.4128	14.5972	0.7952	-0.2476	-0.7594	-1.6042	9.1985	3.3762	8.0897	5.7976	0.2009	0.0028
4.0063	5.3243	8.6152	9.2068	8.6482	12.3023	11.8208	9.8094	15.0677	14.3468	11.0228	14.5917	14.765	0.8475	-0.1623	-0.6879	-1.6922	9.3224	3.4367	8.2217	5.8581	0.2807	0.0413
4.2815	5.5857	8.9757	9.5122	8.8821	12.6133	12.0822	9.9827	15.3098	14.5284	11.1604	14.7595	14.9136	0.864	-0.0991	-0.6384	-1.7363	9.3967	3.5193	8.307	5.8966	0.3577	0.0605
4.5814	5.8691	9.3196	9.8287	9.1215	12.9352	12.2968	10.1616	15.5217	14.7237	11.3228	14.9163	15.0649	0.8888	-0.0743	-0.5696	-1.7885	9.4655	3.5716	8.4281	5.9269	0.4595	0.1101
4.8621	6.1333	9.6526	10.0901	9.3444	13.2214	12.5307	10.3377	15.7446	14.9218	11.4741	15.0704	15.1998	0.9245	-0.0165	-0.4843	-1.8326	9.5673	3.6403	8.5299	5.9764	0.5696	0.1348
5.1482	6.4167	9.9965	10.3762	9.57	13.502	12.7674	10.5248	15.9592	15.0924	11.6309	15.2465	15.3566	0.9355	-0.0055	-0.4127	-1.8793	9.6333	3.6954	8.6207	6.0507	0.6906	0.1761
5.4344	6.6616	10.3047	10.6376	9.8122	13.7772	12.9985	10.6982	16.1766	15.2961	11.7988	15.3841	15.4859	0.9658	0.0303	-0.3522	-1.9151	9.7158	3.7917	8.7253	6.1058	0.809	0.2284
5.6848	6.912	10.6019	10.8908	10.035	14.0661	13.2159	10.9018	16.3747	15.4722	11.9749	15.5272	15.6097	0.9658	0.033	-0.2999	-1.9289	9.7984	3.8577	8.8078	6.1801	0.9355	0.2669
5.9434	7.1266	10.8715	11.1054	10.1891	14.2835	13.425	11.0339	16.5508	15.6235	12.1235	15.651	15.7198	0.9686	0.0275	-0.2421	-1.9261	9.8424	3.9623	8.9014	6.2461	1.0731	0.3054
6.1801	7.3275	11.1494	11.3503	10.3845	14.5394	13.6093	11.1934	16.7351	15.7858	12.2556	15.7473	15.8381	0.9631	0.033	-0.1266	-1.9179	9.8864	4.0091	8.9564	6.2929	1.1887	0.3522
6.4057	7.5228	11.3971	11.5346	10.5578	14.7485	13.813	11.342	16.8947	15.9344	12.4179	15.8684	15.9482	0.952	0.0028	-0.0798	-1.9013	9.9525	4.0889	9.0224	6.3589	1.329	0.421
6.6066	7.7099	11.6392	11.7438	10.7009	14.9494	13.967	11.4961	17.0406	16.094	12.5802	16.0032	16.0693	0.9548	-0.033	-0.0358	-1.9013	10.0213	4.1824	9.0692	6.4415	1.4391	0.465
6.8129	7.8613	11.8511	11.9034	10.8578	15.1475	14.1349	11.6309	17.1836	16.2068	12.7123	16.094	16.1931	0.952	-0.0715	0.0138	-1.8876	10.0653	4.2457	9.1408	6.491	1.5684	0.5063
6.989	8.0071	12.0437	12.0712	10.9623	15.2933	14.2642	11.7438	17.2992	16.3279	12.8582	16.1738	16.2619	0.9465	-0.1128	0.033	-1.8903	10.1176	4.3255	9.1848	6.5213	1.662	0.5696
7.1514	8.1529	12.2253	12.2005	11.0724	15.4639	14.3935	11.8703	17.4175	16.4517	12.9655	16.2536	16.3609	0.941	-0.1458	0.044	-1.8986	10.1781	4.397	9.2508	6.5543	1.7885	0.6053
7.2862	8.296	12.3794	12.3381	11.1797	15.596	14.5339	11.9942	17.5193	16.5563	13.1168	16.3307	16.471	0.9631	-0.1954	0.0523	-1.9041	10.2552	4.4548	9.3141	6.6093	1.8683	0.6521
7.4375	8.4391	12.5527	12.4482	11.2595	15.7391	14.6412	12.1042	17.6129	16.6801	13.2214	16.4242	16.5728	0.9548	-0.2256	0.0083	-1.9179	10.3487	4.5236	9.3994	6.6616	1.9426	0.7044
7.6026	8.5904	12.7123	12.5857	11.3943	15.8739	14.754	12.2225	17.7285	16.8067	13.3589	16.4958	16.6691	0.9823	-0.2586	-0.0275	-1.9591	10.4423	4.5841	9.5095	6.7166	2.0114	0.7429
7.732	8.7225	12.8251	12.671	11.4686	15.9702	14.8833	12.3464	17.7917	16.903	13.4938	16.5645	16.7874	0.9933	-0.2586	-0.0908	-1.9977	10.5881	4.6364	9.6443	6.7524	2.0527	0.7512
7.8695	8.8904	12.9737	12.7729	11.5787	16.094	14.9879	12.4537	17.8715	17.0213	13.6038	16.6113	16.9002	1.0181	-0.2669	-0.1789	-2.0417	10.7174	4.73	9.7654	6.8377	2.0885	0.7952
8.0209	9.0335	13.1003	12.8802	11.664	16.1931	15.0732	12.5362	17.9403	17.1039	13.6946	16.6636	16.9828	1.0429	-0.2889	-0.2531	-2.0747	10.866	4.7685	9.8754	6.8762	2.0967	0.8117
8.1337	9.1628	13.2131	12.971	11.741	16.2949	15.1695	12.6105	17.9706	17.1781	13.7689	16.6856	17.0791	1.0539	-0.2972	-0.366	-2.1022	11.0146	4.8345	10.0185	6.9505	2.1022	0.8117
8.2493	9.3004	13.3204	13.0453	11.8236	16.3307	15.2383	12.6766	18.0064	17.2359	13.8212	16.7104	17.1506	1.0786	-0.2752	-0.454	-2.138	11.1797	4.8978	10.1396	7.0083	2.0857	0.8255
8.3593	9.4379	13.403	13.103	11.8566	16.3774	15.252	12.7261	18.0009	17.2827	13.8707	16.6801	17.1781	1.0731	-0.3054	-0.5778	-2.1462	11.3008	4.9418	10.2552	7.0578	2.0774	0.809
8.4364	9.504	13.4442	13.1251	11.8758	16.3774	15.2823	12.7233	17.9321	17.2772	13.8597	16.6168	17.1809	1.0676	-0.3137	-0.6906	-2.138	11.4026	4.9886	10.3322	7.0633	2.0499	0.7897
8.4969	9.5508	13.4883	13.1608	11.9034	16.3719	15.2851	12.7041	17.877	17.2827	13.8515	16.5425	17.1947	1.0676	-0.3274	-0.8035	-2.138	11.4851	5.0189	10.3817	7.0798	2.0362	0.7594
8.5079	9.5728	13.4828	13.1663	11.8786	16.3417	15.2465	12.6683	17.7945	17.2249	13.7909	16.449	17.1726	1.0621	-0.3577	-0.9328	-2.1215	11.5677	5.0216	10.434	7.1018	2.0059	0.7264
8.5299	9.6003	13.4718	13.1416	11.8098	16.2371	15.1832	12.6023	17.6707	17.1699	13.7056	16.3279	17.1066	1.0373	-0.377	-1.0649	-2.0857	11.5567	5.0437	10.4092	7.1046	1.9866	0.6879
8.5299	9.5838	13.4635	13.1636	11.7933	16.1903	15.164	12.5582	17.5579	17.0928	13.6286	16.2041	17.0598	1.0208	-0.3935	-1.1612	-2.0499	11.5869	5.0547	10.423	7.1073	1.9646	0.6356
8.5327	9.5893	13.4305	13.1361	11.719	16.105	15.0979	12.4647	17.412	17.0213	13.5433	16.0638	17.0186	1.0098	-0.4155	-1.2712	-2.0142	11.6254	5.0767	10.3707	7.1294	1.9399	0.5613
8.4969	9.5673	13.3837	13.0838	11.6365	15.9867	15.0044	12.3574	17.2497	16.9277	13.4195	15.8849	16.9002	0.9741	-0.41	-1.3648	-1.9646	11.5814	5.1069	10.3074	7.1651	1.9151	0.5283
8.4584	9.5205	13.2957	13.0673	11.5732	15.8849	14.9494	12.2693	17.0956	16.8122	13.3259	15.7556	16.8369	0.9493	-0.4237	-1.4583	-1.9096	11.5979	5.0932	10.2689	7.2036	1.8876	0.4595
8.3951	9.4875	13.2406	13.0233	11.4934	15.7583	14.8613	12.1648	16.914	16.7104	13.2241	15.563	16.7351	0.9025	-0.465	-1.5519	-1.8243	11.5649	5.1152	10.2029	7.2312	1.8463	0.4292
8.307	9.4434	13.1443	12.971	11.3971	15.6042	14.7347	12.0244	16.6966	16.5535	13.103	15.3814	16.6196	0.853	-0.5173	-1.6482	-1.7252	11.5264	5.1262	10.1231	7.2532	1.8326	0.3852
8.2107	9.3664	13.026	12.9049	11.2953	15.4336	14.6439	11.8896	16.515	16.4462	12.9627	15.197	16.504	0.8255	-0.5668	-1.739	-1.6427	11.5346	5.1152	10.0378	7.2779	1.8078	0.3247
8.1227	9.2949	12.9022	12.8196	11.1687	15.2768	14.5119	11.7328	16.2976	16.2784	12.7976	14.9769	16.3774	0.7594	-0.6164	-1.8215	-1.5299	11.5016	5.1179	9.936	7.2972	1.7858	0.3027
8.0071	9.2096	12.7453	12.7068	11.0449	15.0787	14.3605	11.5704	16.0555	16.1078	12.6435	14.7678	16.2536	0.6962	-0.7127	-1.9068	-1.4171	11.4604	5.1097	9.8424	7.3192	1.7913	0.2531
7.864	9.1105	12.5913	12.6078	10.9238	14.8833	14.1982	11.3833	15.7941	15.9097	12.4399	14.5284	16.1023	0.6466	-0.787	-2.0114	-1.3043	11.4053	5.1014	9.7489	7.3302	1.7748	0.2201
7.6989	8.9812	12.3601	12.4482	10.7394	14.6494	14.0248	11.1769	15.5134	15.7171	12.2363	14.245	15.9179	0.5723	-0.908	-2.105	-1.1722	11.3833	5.0547	9.6388	7.3275	1.7858	0.1816
7.5503	8.8546	12.1923	12.3243	10.5633	14.3963	13.857	10.9623	15.241	15.5217	12.0382	13.9615	15.7391	0.52	-0.9906	-2.2178	-1.0676	11.3503	5.0326	9.5425	7.3275	1.7693	0.1376
7.333	8.6702	11.9776	12.1427	10.3377	14.1294	13.6506	10.7422	14.9356	15.2685	11.8126	13.6589	15.5465	0.4678	-1.1034	-2.3141	-0.952	11.298	5.0079	9.4352	7.3165	1.7638	0.077
7.1294	8.4859	11.7107	11.9529	10.1478	13.8817	13.4608	10.4863	14.6137	15.0457	11.5842	13.3672	15.3649	0.4265	-1.2079	-2.4186	-0.864	11.2677	4.9556	9.3526	7.2889	1.7638	0.0495
6.9092	8.2795	11.4714	11.7438	9.9222	13.6038	13.2324	10.2552	14.3	14.8035	11.3365	13.0673	15.1612	0.3935	-1.329	-2.5645	-0.7897	11.243	4.8923	9.2453	7.2642	1.7638	0.011
6.6423	8.0511	11.1797	11.4934	9.6388	13.2847	12.9682	9.9662	13.9505	14.5256	11.0641	12.7178	14.9439	0.3577	-1.4226	-2.7158	-0.7237	11.1824	4.7905	9.1518	7.2009	1.783	-0.044
6.3837	7.7925	10.9018	11.232	9.3884	12.9957	12.7288	9.7021	13.6203	14.278	10.8055	12.4041	14.7375	0.3302	-1.5491	-2.8837	-0.6934	11.1384	4.6942	9.05	7.1541	1.8133	-0.0936
6.0948	7.5531	10.5881	10.9623	9.1077	12.6628	12.4537	9.4214	13.2516	14.0221	10.5551	12.0327	14.5091	0.3467	-1.695	-3.0185	-0.6769	11.0916	4.5924	8.9537	7.0661	1.8408	-0.1266
5.8113	7.322	10.2717	10.6651	8.8518	12.3601	12.1868	9.16	12.8884	13.7414	10.2799	11.73	14.3	0.3412	-1.8078	-3.1726	-0.6934	11.0614	4.4631	8.8601	7.0083	1.8683	-0.1486
5.5417	7.0963	9.9717	10.379	8.5932	12.0657	11.9171	8.9261	12.5802	13.4938	10.0488	11.4328	14.1239	0.3605	-1.9234	-3.2689	-0.7374	11.0504	4.3558	8.7996	6.9257	1.8766	-0.1761
5.239	6.8267	9.6305	10.0598	8.2988	11.73	11.6117	8.6427	12.2143	13.2104	9.7654	11.0916	13.8845	0.3742	-2.0417	-3.401	-0.7732	10.9953	4.1989	8.7308	6.8047	1.8848	-0.1899
4.9363	6.5598	9.3526	9.7544	8.0154	11.4191	11.353	8.3813	11.8924	12.96	9.5315	10.8	13.6864	0.4017	-2.1407	-3.4697	-0.82	10.9898	4.0613	8.6923	6.7139	1.8491	-0.2064
4.6557	6.2681	9.028	9.4269	7.754	11.1081	11.0669	8.1144	11.5622	12.7041	9.2728	10.478	13.4745	0.4375	-2.2646	-3.533	-0.8805	10.9678	3.921	8.6317	6.5763	1.805	-0.2064
4.364	6.0232	8.7225	9.094	7.4733	10.7917	10.8027	7.8338	11.21	12.4399	9.028	10.2166	13.2984	0.4815	-2.3388	-3.533	-0.9603	10.9568	3.7614	8.6207	6.4194	1.7335	-0.1954
4.0723	5.7288	8.4226	8.7748	7.1651	10.4698	10.5606	7.5641	10.8715	12.2033	8.7886	9.903	13.0865	0.5256	-2.4379	-3.5413	-1.0539	10.9541	3.6073	8.5904	6.2791	1.6675	-0.1733
3.7779	5.4344	8.0897	8.4474	6.868	10.1671	10.2772	7.3082	10.5743	11.9804	8.5244	9.625	12.8829	0.5833	-2.5452	-3.5468	-1.1694	10.9403	3.4422	8.5794	6.114	1.6042	-0.1486
3.4863	5.1042	7.7705	8.1227	6.5268	9.8232	9.9938	7.011	10.2139	11.7052	8.263	9.3444	12.6876	0.6439	-2.6718	-3.555	-1.2712	10.9431	3.2221	8.5657	5.9324	1.5299	-0.1266
3.2083	4.7933	7.465	7.7897	6.2241	9.5177	9.7406	6.7249	9.8837	11.4741	8.0126	9.0527	12.4812	0.6989	-2.7598	-3.4945	-1.4088	10.9513	3.0488	8.5657	5.7316	1.4693	-0.0715
2.9112	4.5016	7.1376	7.4871	5.8966	9.2013	9.4682	6.458	9.5535	11.2292	7.7375	8.75	12.2666	0.7594	-2.8782	-3.4532	-1.5464	10.9513	2.8506	8.5767	5.5059	1.4006	-0.0083
2.6195	4.1824	6.8267	7.1706	5.5857	8.9096	9.2261	6.1608	9.2261	10.9898	7.4843	8.4914	12.0685	0.8365	-3.002	-3.3679	-1.684	10.9486	2.6058	8.5739	5.3051	1.318	0.1156
2.3746	3.9073	6.5433	6.9092	5.2885	8.629	8.9949	5.9104	8.9399	10.789	7.2504	8.2603	11.8868	0.8943	-3.101	-3.3212	-1.805	10.9816	2.4049	8.5904	5.1097	1.2382	0.2064
2.1022	3.6101	6.2544	6.6286	4.9996	8.3593	8.7528	5.6518	8.6427	10.5551	6.9753	7.9768	11.6612	0.9631	-3.1918	-3.2496	-1.9234	10.9375	2.182	8.5712	4.8593	1.1804	0.3109
1.8601	3.3404	5.9819	6.3947	4.741	8.0979	8.5602	5.4179	8.3731	10.3625	6.7221	7.7292	11.4631	1.0071	-3.3047	-3.1753	-2.0417	10.9348	1.9756	8.5684	4.6419	1.1034	0.432
1.6399	3.0598	5.7205	6.1801	4.4603	7.8585	8.3703	5.1702	8.1117	10.1478	6.4965	7.4898	11.2705	1.0731	-3.3955	-3.0873	-2.1407	10.9073	1.739	8.5684	4.3888	1.0346	0.5723
1.4473	2.7791	5.4922	5.9874	4.2017	7.6191	8.2025	4.9391	7.875	9.9827	6.2709	7.2724	11.0751	1.1309	-3.5	-3.0212	-2.2563	10.8578	1.4914	8.5794	4.1604	0.941	0.6851
1.252	2.5012	5.272	5.8251	3.932	7.399	8.0594	4.7492	7.6742	9.8094	6.0342	7.0551	10.8688	1.1777	-3.5578	-2.958	-2.3719	10.7945	1.263	8.5574	3.91	0.8337	0.8145
1.0841	2.248	5.0712	5.682	3.6981	7.1899	7.9218	4.5181	7.4678	9.6278	5.8169	6.8817	10.6927	1.2437	-3.6431	-2.8699	-2.4847	10.7147	1.0456	8.5354	3.6569	0.7264	0.9218
0.9355	1.9977	4.8923	5.5857	3.4725	7.022	7.776	4.331	7.2889	9.4902	5.5802	6.7056	10.5138	1.2932	-3.7009	-2.8286	-2.5865	10.6046	0.8035	8.4996	3.4065	0.6053	1.0373
0.8007	1.7913	4.7245	5.5197	3.2331	6.8625	7.7017	4.1246	7.1101	9.3196	5.3656	6.524	10.3294	1.3373	-3.7394	-2.8176	-2.6745	10.5111	0.5421	8.4611	3.1286	0.4623	1.1584
0.7072	1.5574	4.5731	5.4481	3.0405	6.7221	7.5999	3.9348	6.9753	9.2178	5.1812	6.3644	10.1589	1.3868	-3.7807	-2.7874	-2.7708	10.3955	0.3274	8.4529	2.8919	0.3302	1.2657
0.6274	1.3951	4.4686	5.4426	2.8699	6.6286	7.5476	3.8082	6.8982	9.1188	5.0271	6.2544	10.0158	1.4308	-3.7834	-2.7763	-2.8644	10.2662	0.1403	8.4061	2.669	0.1844	1.3565
0.5833	1.2245	4.386	5.4509	2.7158	6.5433	7.5256	3.6596	6.7992	9.061	4.8758	6.1525	9.8947	1.4666	-3.7834	-2.8149	-2.9359	10.1396	-0.066	8.3786	2.4599	0.033	1.4666
0.5806	1.1254	4.32	5.4784	2.6058	6.4772	7.5091	3.5633	6.7717	9.0114	4.6997	6.0645	9.7709	1.4996	-3.7779	-2.8506	-2.991	10.0185	-0.2504	8.3401	2.2453	-0.0936	1.5629
0.5723	1.0511	4.2897	5.5582	2.5149	6.458	7.5311	3.489	6.7469	8.9784	4.5951	5.9902	9.6663	1.5244	-3.7367	-2.9057	-3.0515	9.8837	-0.4045	8.296	2.0774	-0.2421	1.651
0.5806	0.9548	4.265	5.605	2.3994	6.4057	7.5393	3.3734	6.7056	8.9316	4.4686	5.9242	9.5508	1.5409	-3.7697	-3.0377	-3.0818	9.7434	-0.5806	8.2437	1.8683	-0.355	1.7363
0.6219	0.919	4.2677	5.6848	2.3664	6.425	7.5779	3.3047	6.7001	8.9592	4.375	5.8829	9.4655	1.5657	-3.7504	-3.1478	-3.1148	9.5783	-0.7347	8.1942	1.684	-0.4815	1.794
0.6494	0.8723	4.276	5.7756	2.3031	6.4332	7.6026	3.2441	6.7194	8.9399	4.254	5.8141	9.3802	1.5657	-3.7229	-3.2799	-3.1341	9.4379	-0.8612	8.1337	1.5024	-0.5943	1.8546
0.7154	0.8227	4.2925	5.8746	2.2315	6.4415	7.6659	3.1836	6.7276	8.9619	4.1549	5.7646	9.2921	1.5794	-3.7284	-3.4587	-3.1423	9.2646	-0.9906	8.0649	1.3373	-0.7044	1.9316
0.8062	0.8475	4.3448	5.9874	2.226	6.4992	7.7347	3.1698	6.7854	8.9702	4.0944	5.7838	9.2481	1.5849	-3.6679	-3.5908	-3.1671	9.1325	-1.0511	8.0099	1.2134	-0.831	1.9646
0.8723	0.853	4.3668	6.0893	2.193	6.5268	7.7925	3.1368	6.8184	8.9784	4.0338	5.7756	9.182	1.5904	-3.6651	-3.7669	-3.1836	8.9454	-1.1061	7.9328	1.0621	-0.9218	2.0004
0.9576	0.8557	4.4245	6.1966	2.1848	6.6011	7.8475	3.1313	6.8872	9.0087	3.9733	5.7673	9.1325	1.5932	-3.6293	-3.921	-3.1781	8.7858	-1.1914	7.875	0.9135	-1.0153	2.0224
1.0594	0.897	4.5181	6.2874	2.2178	6.6864	7.8998	3.1423	6.989	9.0445	3.9513	5.8224	9.1105	1.5822	-3.5963	-4.0916	-3.1808	8.6372	-1.219	7.8007	0.8145	-1.0841	2.0389
1.1859	0.9658	4.6199	6.4167	2.2783	6.7882	8.0044	3.1891	7.1018	9.0912	3.9513	5.8774	9.1077	1.5987	-3.5963	-4.2347	-3.1781	8.4969	-1.2107	7.754	0.7319	-1.1392	2.0334
1.3125	1.0814	4.7355	6.546	2.3416	6.901	8.0731	3.2496	7.2119	9.1655	3.976	5.9572	9.1353	1.5904	-3.5468	-4.353	-3.1506	8.3621	-1.1942	7.6962	0.6576	-1.1804	2.0142
1.4556	1.1667	4.851	6.6423	2.4131	7.0028	8.164	3.3322	7.3522	9.2178	4.0311	6.0535	9.1655	1.5657	-3.5606	-4.4713	-3.1175	8.2162	-1.1419	7.6329	0.6494	-1.1914	2.0389
1.5849	1.329	4.9969	6.7854	2.5535	7.1761	8.2603	3.4615	7.5118	9.3279	4.1054	6.1966	9.2288	1.5546	-3.5523	-4.5649	-3.0955	8.1227	-1.0456	7.5531	0.6439	-1.1667	2.0169
1.739	1.4831	5.1317	6.8817	2.6993	7.3027	8.3456	3.5853	7.6962	9.3967	4.2017	6.3231	9.2811	1.5299	-3.5881	-4.6584	-3.0488	8.0016	-0.9631	7.4926	0.6549	-1.1144	2.0004
1.8683	1.6454	5.2775	6.989	2.8341	7.443	8.4309	3.7036	7.8475	9.4985	4.3007	6.48	9.3416	1.5189	-3.5716	-4.7245	-3.0185	7.8723	-0.8475	7.4238	0.6962	-1.0759	1.9591
2.0032	1.8188	5.4261	7.1046	3.0047	7.5999	8.5162	3.8605	8.0181	9.5645	4.419	6.6286	9.4214	1.4969	-3.6156	-4.7988	-2.9745	7.7567	-0.7319	7.3495	0.7539	-0.9851	1.9399
2.1242	1.9949	5.5554	7.1816	3.1671	7.7375	8.5904	4.0173	8.186	9.6581	4.5511	6.7854	9.5122	1.4776	-3.6266	-4.7988	-2.9332	7.6632	-0.5806	7.2779	0.809	-0.8998	1.8876
2.2508	2.16	5.7123	7.2669	3.3349	7.9053	8.6813	4.1824	8.3538	9.7296	4.6749	6.9395	9.5645	1.4391	-3.6679	-4.8153	-2.8672	7.5503	-0.4375	7.2036	0.875	-0.7952	1.8271
2.3444	2.3554	5.8113	7.333	3.5138	8.0126	8.739	4.3172	8.5051	9.8204	4.8235	7.1101	9.6608	1.4061	-3.6954	-4.818	-2.7874	7.4375	-0.2862	7.1128	0.9713	-0.6686	1.7528
2.4489	2.5012	5.9489	7.3742	3.6761	8.1337	8.7968	4.4961	8.6702	9.8864	4.9666	7.2779	9.7213	1.3593	-3.7284	-4.7575	-2.7076	7.3385	-0.1211	7	1.0759	-0.5503	1.6757
2.5122	2.6498	6.0287	7.4018	3.8054	8.2272	8.8298	4.6309	8.8161	9.9305	5.1014	7.421	9.7929	1.307	-3.7587	-4.7217	-2.5975	7.2394	0.0358	6.901	1.1639	-0.4265	1.5877
2.5562	2.7708	6.1003	7.4183	3.9348	8.3428	8.8491	4.7657	8.9261	9.9717	5.2088	7.5641	9.8314	1.241	-3.822	-4.6832	-2.4792	7.1651	0.1733	6.8129	1.2602	-0.2944	1.4859
2.5975	2.8616	6.1746	7.3935	4.0613	8.4116	8.8711	4.8978	9.0335	10.0213	5.3711	7.7099	9.9167	1.1969	-3.8412	-4.5896	-2.3691	7.0936	0.3329	6.7221	1.3593	-0.1733	1.3951
2.614	2.9497	6.1883	7.344	4.2017	8.4969	8.8684	5.0161	9.1573	10.068	5.5059	7.8365	9.9662	1.1254	-3.8825	-4.5154	-2.2453	7.0165	0.5228	6.6368	1.4831	-0.0303	1.3098
2.636	3.0295	6.2378	7.2862	4.309	8.5547	8.8518	5.1482	9.2701	10.1038	5.6242	7.9823	10.0323	1.0649	-3.899	-4.4548	-2.0995	6.9863	0.6741	6.5708	1.5849	0.1073	1.2134
2.6223	3.1203	6.2323	7.2477	4.4521	8.6097	8.8463	5.2885	9.3829	10.1258	5.7811	8.1254	10.1176	0.9851	-3.888	-4.3833	-1.9619	6.9615	0.8557	6.4937	1.7307	0.2449	1.1281
2.6085	3.2028	6.2709	7.1431	4.5429	8.6592	8.8381	5.4234	9.504	10.1699	5.9324	8.2823	10.1891	0.919	-3.888	-4.3117	-1.8381	6.9367	1.0208	6.4882	1.8656	0.3935	1.0346
2.57	3.2139	6.2406	7.0551	4.6694	8.7088	8.7831	5.5224	9.5948	10.1699	6.0727	8.4061	10.2276	0.8557	-3.866	-4.265	-1.7142	6.9092	1.2162	6.425	1.9784	0.5503	0.9273
2.4957	3.2854	6.2186	6.9367	4.752	8.7308	8.7335	5.6655	9.6773	10.1726	6.2158	8.5464	10.2992	0.8007	-3.8385	-4.1852	-1.5959	6.8955	1.3758	6.3919	2.105	0.7044	0.842
2.4434	3.2854	6.158	6.8184	4.8345	8.75	8.673	5.7756	9.7929	10.1919	6.3617	8.6978	10.357	0.7457	-3.8275	-4.1384	-1.4886	6.8982	1.5189	6.3809	2.237	0.8392	0.7374
2.3801	3.3019	6.1415	6.6726	4.9418	8.7941	8.64	5.8911	9.8947	10.2139	6.5213	8.8574	10.423	0.6851	-3.7697	-4.0558	-1.384	6.9147	1.7307	6.3589	2.3829	0.9465	0.6301
2.3168	3.3157	6.1058	6.5405	5.0437	8.8243	8.5657	6.0397	10.0048	10.2359	6.6726	8.9867	10.4945	0.6301	-3.7229	-3.9898	-1.274	6.9257	1.8986	6.3369	2.537	1.0566	0.5118
2.2508	3.3377	6.0562	6.3809	5.1345	8.8491	8.5217	6.1636	10.1093	10.2359	6.8542	9.1518	10.5743	0.5778	-3.6541	-3.9073	-1.1612	6.945	2.0885	6.3204	2.7268	1.1392	0.4182
2.1875	3.3487	6.0315	6.2819	5.2308	8.8794	8.4639	6.3094	10.2497	10.2744	7.0028	9.3416	10.6569	0.5118	-3.5771	-3.7944	-1.0291	7.0083	2.3003	6.3204	2.9002	1.1749	0.3027
2.1352	3.3707	5.9819	6.125	5.3463	8.9371	8.3978	6.4387	10.3707	10.2634	7.1651	9.4682	10.7092	0.4265	-3.5193	-3.6816	-0.8778	7.0083	2.4874	6.2984	3.0598	1.2052	0.1871
2.0912	3.3679	5.9544	6.004	5.4344	8.9702	8.3456	6.5955	10.5028	10.2827	7.3357	9.6223	10.7725	0.3522	-3.445	-3.5771	-0.7127	7.0248	2.6883	6.2819	3.2606	1.2052	0.066
2.0719	3.4202	5.9379	5.9132	5.5692	9.0527	8.3235	6.7469	10.6074	10.3019	7.5201	9.7874	10.8357	0.2697	-3.3734	-3.4422	-0.5338	7.0771	2.8892	6.3011	3.4615	1.1694	-0.0688
2.0362	3.4395	5.9242	5.8058	5.6875	9.0967	8.285	6.8955	10.7284	10.2937	7.6659	9.9002	10.8605	0.1706	-3.2771	-3.3019	-0.3439	7.0798	3.068	6.2791	3.6651	1.1144	-0.1899
1.9921	3.478	5.9021	5.7013	5.7921	9.1243	8.2327	7	10.8192	10.2909	7.8255	10.0075	10.8578	0.0715	-3.2028	-3.2083	-0.1431	7.1018	3.2854	6.2488	3.866	1.0373	-0.3164
1.9839	3.5248	5.8994	5.6105	5.9352	9.1985	8.1887	7.1624	10.9375	10.2634	7.9658	10.0983	10.8412	-0.0358	-3.1451	-3.1258	0.0578	7.0606	3.4587	6.2186	4.0751	0.9631	-0.443
1.9536	3.5468	5.8609	5.5059	6.048	9.2288	8.1392	7.2807	11.0091	10.2249	8.0704	10.1589	10.811	-0.1321	-3.0433	-3.0735	0.2559	6.9973	3.6156	6.1553	4.2622	0.8695	-0.5888
1.9206	3.5908	5.8636	5.4564	6.1718	9.2563	8.0759	7.4375	11.0834	10.1478	8.1942	10.2111	10.7339	-0.2284	-2.991	-3.0653	0.4458	6.9092	3.7697	6.0783	4.4548	0.7842	-0.7347
1.9041	3.6624	5.8609	5.3793	6.2874	9.2921	8.0319	7.5421	11.1439	10.0818	8.3015	10.2331	10.6651	-0.3219	-2.9167	-3.0873	0.6274	6.7854	3.921	6.004	4.6309	0.6851	-0.8943
1.8793	3.7174	5.8416	5.2803	6.4277	9.3526	7.9796	7.6687	11.2072	9.9938	8.3896	10.2909	10.5716	-0.4017	-2.8754	-3.09	0.7842	6.6891	4.0586	5.9352	4.8263	0.5998	-1.0346
1.8793	3.7532	5.8389	5.228	6.5405	9.3691	7.9163	7.7512	11.2375	9.9057	8.4941	10.2964	10.4615	-0.4898	-2.8039	-3.1451	0.9465	6.5268	4.1989	5.8279	4.9721	0.5173	-1.1859
1.8518	3.7972	5.8306	5.1757	6.6258	9.4104	7.8613	7.8998	11.3008	9.8287	8.607	10.3239	10.3735	-0.5668	-2.7708	-3.2359	1.0979	6.4029	4.342	5.7536	5.129	0.4678	-1.3428
1.8353	3.8164	5.8169	5.1345	6.6891	9.4214	7.8007	7.9576	11.342	9.7324	8.6482	10.3212	10.2662	-0.6466	-2.7158	-3.2881	1.2547	6.2516	4.4658	5.6352	5.2748	0.4155	-1.5161
1.8023	3.8522	5.8196	5.1042	6.7717	9.4517	7.765	8.0346	11.353	9.6663	8.7308	10.3432	10.1699	-0.7127	-2.68	-3.4367	1.4033	6.1278	4.6006	5.5554	5.4014	0.4017	-1.6785
1.7528	3.8247	5.7921	5.0409	6.8184	9.4682	7.7017	8.0814	11.3585	9.5535	8.7748	10.3405	10.0598	-0.7952	-2.6498	-3.5688	1.5574	5.9462	4.719	5.4371	5.5087	0.4182	-1.8326
1.717	3.8192	5.7838	5.0437	6.8625	9.4875	7.6549	8.1777	11.4191	9.4847	8.8216	10.3157	9.9195	-0.8585	-2.6113	-3.7064	1.6867	5.8003	4.8345	5.3656	5.6297	0.454	-1.9921
1.6482	3.7807	5.7426	4.9831	6.868	9.4875	7.6136	8.197	11.4108	9.3774	8.8574	10.3019	9.7626	-0.9218	-2.5947	-3.8577	1.8215	5.5995	4.9391	5.2583	5.7068	0.5311	-2.1352
1.5794	3.7532	5.7508	4.9776	6.8955	9.504	7.5338	8.2548	11.4218	9.2921	8.8821	10.2717	9.6361	-1.0071	-2.5425	-4.0036	1.9646	5.4261	5.0519	5.1702	5.7866	0.6219	-2.2728
1.5106	3.6844	5.6683	4.9171	6.8817	9.471	7.4678	8.2685	11.4246	9.171	8.9014	10.2249	9.4765	-1.0841	-2.5507	-4.1659	2.1215	5.2115	5.1345	5.0602	5.8251	0.7127	-2.4269
1.4831	3.6431	5.6628	4.9198	6.923	9.493	7.4183	8.274	11.4191	9.072	8.9371	10.2029	9.3361	-1.1474	-2.5287	-4.2925	2.2535	5.0134	5.2583	4.9584	5.9021	0.8117	-2.5562
1.384	3.5578	5.6242	4.8813	6.879	9.4902	7.3742	8.2575	11.4081	8.9894	8.9564	10.1864	9.2151	-1.2245	-2.5452	-4.4356	2.3966	4.8125	5.3436	4.8428	5.9517	0.9108	-2.6745
1.3208	3.4863	5.605	4.8731	6.868	9.471	7.3247	8.2768	11.3916	8.9124	8.9784	10.1423	9.083	-1.2822	-2.526	-4.5291	2.5177	4.6254	5.4481	4.7355	6.0177	0.9768	-2.7874
1.23	3.401	5.5499	4.8318	6.8514	9.4655	7.2394	8.2768	11.3806	8.8243	8.9922	10.0983	8.9316	-1.3455	-2.5232	-4.6667	2.6388	4.4245	5.5224	4.6089	6.0672	1.0456	-2.9002
1.1529	3.3377	5.5362	4.818	6.8322	9.4407	7.2229	8.296	11.3998	8.7473	9.05	10.0818	8.8243	-1.3923	-2.4682	-4.7245	2.7378	4.2567	5.616	4.5401	6.136	1.0539	-2.9882
1.1144	3.2744	5.5169	4.785	6.8212	9.4269	7.1816	8.3125	11.3998	8.7005	9.083	10.0625	8.7225	-1.4363	-2.4599	-4.7905	2.8204	4.0668	5.7013	4.4301	6.2158	1.0621	-3.0653
1.0181	3.1753	5.4646	4.7382	6.8074	9.4297	7.1294	8.307	11.3751	8.662	9.116	10.0405	8.6372	-1.4886	-2.4186	-4.8345	2.9304	3.9183	5.7398	4.3392	6.2709	1.0236	-3.1286
0.941	3.1148	5.4344	4.6942	6.7744	9.4214	7.1128	8.3263	11.3861	8.618	9.1985	10.0433	8.5739	-1.5436	-2.3691	-4.829	3.0157	3.7862	5.8361	4.2622	6.3754	0.9796	-3.1808
0.8695	3.0515	5.3986	4.6667	6.7992	9.4159	7.0908	8.3731	11.4136	8.5932	9.2618	10.0543	8.5382	-1.5822	-2.3223	-4.8263	3.1148	3.6816	5.9021	4.1962	6.4772	0.919	-3.2221
0.8557	2.9745	5.3904	4.6447	6.7717	9.4407	7.1184	8.4033	11.4328	8.6152	9.3526	10.1066	8.5409	-1.6179	-2.237	-4.7465	3.2001	3.6211	5.9682	4.1521	6.5735	0.853	-3.2276
0.8172	2.9249	5.3518	4.6062	6.7606	9.4214	7.1101	8.4639	11.4741	8.6125	9.4655	10.1396	8.5382	-1.6812	-2.1875	-4.6804	3.3129	3.5661	6.026	4.0889	6.6698	0.809	-3.2744
0.7567	2.8699	5.3436	4.5951	6.7827	9.4352	7.1184	8.5409	11.5374	8.6675	9.5893	10.2194	8.5629	-1.7197	-2.1215	-4.6062	3.3927	3.5413	6.1085	4.0778	6.8239	0.7594	-3.2551
0.6989	2.7956	5.3051	4.5621	6.7689	9.4297	7.1349	8.5904	11.5924	8.7088	9.7021	10.2937	8.6042	-1.7803	-2.0719	-4.5346	3.4973	3.5275	6.1278	4.0448	6.9533	0.7347	-3.2469
0.6494	2.7351	5.2775	4.5154	6.7772	9.4297	7.1514	8.6675	11.6254	8.7583	9.8177	10.3652	8.6482	-1.8326	-2.0499	-4.4218	3.6073	3.555	6.1773	4.0311	7.1018	0.7182	-3.2194
0.6274	2.6663	5.2308	4.4823	6.7744	9.4187	7.1899	8.695	11.6502	8.8243	9.958	10.4285	8.706	-1.8766	-2.0362	-4.3117	3.7146	3.5633	6.2323	4.0118	7.2532	0.6962	-3.2001
0.5641	2.5837	5.1757	4.4411	6.7689	9.4214	7.1926	8.739	11.6997	8.8574	10.0736	10.5028	8.7968	-1.9289	-1.9894	-4.2209	3.8275	3.6128	6.2929	3.9925	7.432	0.7072	-3.1781
0.52	2.5149	5.14	4.4273	6.7606	9.4214	7.2229	8.8298	11.741	8.9344	10.2111	10.6184	8.8931	-2.0004	-1.9977	-4.0999	3.9348	3.6844	6.3534	4.0173	7.5779	0.7209	-3.1726
0.4843	2.4517	5.0959	4.3888	6.7551	9.4104	7.2422	8.8711	11.7988	8.9922	10.3652	10.6954	8.9894	-2.0719	-1.9949	-4.0091	4.0421	3.7752	6.425	4.0531	7.7237	0.7594	-3.1341
0.454	2.3609	5.0409	4.331	6.7276	9.3774	7.2724	8.9096	11.8208	9.0637	10.4615	10.7697	9.0912	-2.0857	-2.0279	-3.8825	4.1191	3.877	6.4745	4.0916	7.8833	0.7952	-3.123
0.377	2.2563	4.9831	4.2787	6.6864	9.3554	7.2559	8.9206	11.8291	9.0967	10.5743	10.8247	9.1875	-2.1352	-2.0582	-3.7972	4.2044	4.0091	6.5378	4.1219	8.0154	0.8447	-3.1258
0.3412	2.182	4.9253	4.2595	6.6643	9.3059	7.2834	8.9619	11.8318	9.1518	10.6569	10.8688	9.2646	-2.171	-2.0554	-3.6761	4.2622	4.1164	6.5983	4.1879	8.164	0.886	-3.0983
0.2972	2.094	4.8648	4.2457	6.6148	9.2894	7.2917	8.9674	11.8346	9.2151	10.7697	10.9541	9.3939	-2.182	-2.116	-3.5716	4.298	4.2457	6.6616	4.2457	8.2795	0.919	-3.0818
0.2531	2.0444	4.796	4.1934	6.5983	9.2894	7.2917	8.9922	11.8566	9.2783	10.8357	11.0118	9.5177	-2.1985	-2.16	-3.522	4.331	4.3833	6.7166	4.3172	8.3951	0.9576	-3.0625
0.2394	1.9894	4.7547	4.2209	6.579	9.2673	7.3165	9.0087	11.8648	9.3141	10.9018	11.0751	9.6305	-2.1903	-2.215	-3.4395	4.3227	4.5291	6.7882	4.375	8.5051	0.9438	-3.0433
0.2174	1.9289	4.708	4.1907	6.5405	9.2343	7.3165	8.9867	11.8483	9.3691	10.9816	11.1109	9.7158	-2.1848	-2.2673	-3.4065	4.3007	4.6667	6.8514	4.4411	8.6097	0.9465	-3.0267
0.1899	1.9068	4.6694	4.2154	6.502	9.2316	7.3632	8.9839	11.8621	9.4297	11.0284	11.1769	9.8562	-2.149	-2.3223	-3.401	4.2402	4.8125	6.8817	4.5154	8.7033	0.9273	-2.9965
0.1926	1.9013	4.6502	4.2484	6.4855	9.2261	7.3742	8.9977	11.8676	9.4875	11.0999	11.2402	9.9938	-2.1105	-2.3911	-3.4312	4.1576	4.9941	6.9312	4.5951	8.7693	0.9108	-2.969
0.2091	1.9124	4.6309	4.2705	6.4855	9.2261	7.4183	8.9839	11.8346	9.5645	11.1467	11.2953	10.1121	-2.0499	-2.4489	-3.4808	4.0421	5.1675	6.9478	4.6749	8.8326	0.8833	-2.9304
0.1458	1.9151	4.5896	4.3062	6.447	9.193	7.4293	8.9482	11.8153	9.614	11.1302	11.3255	10.2221	-1.9894	-2.5452	-3.544	3.9403	5.2996	6.9395	4.7052	8.8739	0.8667	-2.9139
0.1596	1.9151	4.5566	4.3365	6.4139	9.171	7.4706	8.9261	11.7933	9.6498	11.1384	11.3585	10.3625	-1.9124	-2.6113	-3.6266	3.7779	5.4729	6.945	4.785	8.9124	0.8612	-2.8616
0.1596	1.9344	4.5429	4.3998	6.3974	9.1655	7.4788	8.8849	11.7603	9.7131	11.1357	11.3888	10.4725	-1.8271	-2.7241	-3.7146	3.5881	5.6352	6.912	4.8565	8.9344	0.8695	-2.8094
0.1733	1.9564	4.5264	4.4493	6.3837	9.1325	7.4953	8.8271	11.7107	9.7434	11.1026	11.3888	10.5551	-1.7142	-2.7984	-3.8247	3.3927	5.7701	6.8597	4.9446	8.9014	0.886	-2.7543
0.1844	1.9839	4.5126	4.5016	6.3479	9.0967	7.5559	8.7886	11.653	9.8011	11.0559	11.3806	10.6596	-1.6042	-2.8864	-3.8962	3.1533	5.9572	6.8102	5.0684	8.8849	0.9218	-2.68
0.1954	2.0169	4.4851	4.5566	6.3176	9.0747	7.5861	8.7335	11.6062	9.8727	11.0146	11.3916	10.789	-1.5024	-2.9717	-4.0256	2.9194	6.1305	6.7551	5.162	8.8684	0.9658	-2.6058
0.1899	2.0389	4.4741	4.6089	6.2791	9.028	7.5999	8.6427	11.5512	9.8975	10.9348	11.3751	10.8743	-1.3593	-3.0488	-4.1054	2.6773	6.2901	6.6671	5.2803	8.7858	1.0263	-2.5149
0.2174	2.0719	4.4466	4.6419	6.2681	9.0059	7.6274	8.5822	11.5016	9.9607	10.866	11.3861	10.9596	-1.2217	-3.123	-4.1989	2.4241	6.4607	6.5818	5.4041	8.7445	1.1034	-2.4186
0.2311	2.0802	4.4438	4.6942	6.2268	8.9702	7.6494	8.5217	11.4383	10.0075	10.778	11.3668	11.0641	-1.1034	-3.1808	-4.3117	2.171	6.6451	6.4827	5.5114	8.6757	1.2024	-2.3333
0.2284	2.0857	4.4135	4.697	6.1718	8.8876	7.6494	8.4364	11.364	10.0295	10.6789	11.331	11.1357	-0.9741	-3.2139	-4.3723	1.9013	6.7551	6.3919	5.6105	8.5822	1.3125	-2.2425
0.1954	2.0362	4.3503	4.6887	6.092	8.8188	7.6687	8.329	11.2787	10.0791	10.5633	11.2925	11.1797	-0.8447	-3.2909	-4.4851	1.662	6.8817	6.2351	5.715	8.4391	1.4391	-2.1435
0.1678	2.0059	4.2815	4.6915	6.0205	8.7418	7.6604	8.2107	11.1797	10.0818	10.4505	11.232	11.2265	-0.7209	-3.3212	-4.5594	1.4033	7.0028	6.1278	5.8086	8.3318	1.5712	-2.0692
0.0743	1.9316	4.2017	4.6612	5.8994	8.6207	7.6301	8.0704	11.0724	10.0791	10.3074	11.1632	11.2677	-0.6136	-3.3872	-4.6612	1.1859	7.0991	5.9957	5.8609	8.175	1.695	-1.9977
0.033	1.8271	4.1164	4.6419	5.7783	8.5189	7.6356	7.9246	10.9596	10.0763	10.1478	11.0806	11.2595	-0.498	-3.4477	-4.7107	0.9768	7.1569	5.8279	5.9297	8.0346	1.8271	-1.9206
-0.0523	1.728	4.0036	4.5924	5.6352	8.3868	7.5779	7.787	10.8055	10.046	9.9855	10.9981	11.2457	-0.41	-3.4697	-4.7465	0.7925	7.1816	5.6765	5.993	7.8448	1.9344	-1.8738
-0.1486	1.5959	3.8935	4.5236	5.4757	8.2465	7.5283	7.6219	10.6844	10.0048	9.8094	10.9073	11.2265	-0.3274	-3.4863	-4.7685	0.6466	7.1871	5.5032	6.0315	7.6604	2.0444	-1.7995
-0.2091	1.4776	3.7779	4.4713	5.3078	8.1034	7.4733	7.4513	10.5413	9.936	9.6168	10.7504	11.1494	-0.2669	-3.5055	-4.7355	0.5173	7.1926	5.3408	6.0315	7.4513	2.1242	-1.7445
-0.3274	1.3373	3.6514	4.397	5.1565	7.9576	7.4458	7.2642	10.401	9.8589	9.4214	10.6129	11.1081	-0.2091	-3.4808	-4.6722	0.3935	7.1596	5.184	6.0232	7.2614	2.2013	-1.6757
-0.4072	1.1639	3.4945	4.3145	4.9804	7.8338	7.3385	7.0606	10.2331	9.7709	9.2261	10.4808	10.9926	-0.1541	-3.4863	-4.5621	0.3082	7.0826	4.9941	6.0205	7.0633	2.248	-1.6124
-0.5145	0.9768	3.3624	4.2182	4.7823	7.6549	7.2477	6.8597	10.0515	9.6498	8.9839	10.3294	10.8825	-0.1238	-3.4725	-4.4768	0.2421	6.9835	4.8125	5.9874	6.8322	2.3003	-1.5767
-0.6439	0.8392	3.1946	4.1136	4.5924	7.4761	7.1486	6.6533	9.8534	9.5205	8.7418	10.1286	10.7037	-0.0991	-3.434	-4.3448	0.1789	6.8514	4.6337	5.9269	6.6011	2.3361	-1.5464
-0.7567	0.6576	3.035	3.9925	4.3888	7.3027	7	6.4415	9.6746	9.3499	8.4804	9.9277	10.5358	-0.077	-3.3955	-4.1852	0.1211	6.6919	4.4356	5.8664	6.3727	2.3636	-1.4804
-0.886	0.4953	2.8506	3.8467	4.1659	7.1073	6.868	6.1993	9.4489	9.1518	8.2245	9.7021	10.3184	-0.0303	-3.3294	-4.0118	0.044	6.5295	4.2237	5.7838	6.114	2.3526	-1.4473
-1.0071	0.3522	2.6745	3.7422	3.9898	6.912	6.7056	5.993	9.2123	8.9564	7.9246	9.4269	10.0515	0.0083	-3.2551	-3.8275	-0.033	6.3204	3.9953	5.6573	5.8471	2.3526	-1.3868
-1.1419	0.1789	2.4737	3.5853	3.7917	6.7276	6.5213	5.7481	8.9647	8.7308	7.6274	9.16	9.7599	0.055	-3.1588	-3.6376	-0.1321	6.0865	3.7862	5.5389	5.5637	2.3444	-1.329
-1.2437	0.0468	2.2866	3.4367	3.5991	6.5185	6.3699	5.5087	8.7143	8.4749	7.3192	8.8656	9.4517	0.1128	-3.0488	-3.434	-0.2531	5.8581	3.5495	5.4371	5.2996	2.2838	-1.2492
-1.3593	-0.0936	2.1242	3.3019	3.4092	6.3011	6.1938	5.2913	8.4749	8.2135	7.0358	8.5932	9.1353	0.1816	-2.9084	-3.2414	-0.366	5.627	3.3377	5.3106	5.0079	2.2233	-1.1887
-1.4611	-0.1871	1.9454	3.1643	3.2276	6.1195	6.0067	5.0629	8.23	7.9631	6.7249	8.296	8.8023	0.2421	-2.7323	-3.0405	-0.4953	5.3738	3.1341	5.1565	4.7245	2.1627	-1.1474
-1.5519	-0.2972	1.794	3.024	3.0598	5.9352	5.8251	4.8758	7.9906	7.7182	6.4222	7.9768	8.4776	0.2999	-2.5865	-2.8534	-0.6081	5.1179	2.9304	5.0271	4.4466	2.1022	-1.0676
-1.6042	-0.3357	1.6647	2.9304	2.9249	5.7756	5.6765	4.6804	7.7705	7.4871	6.1388	7.7182	8.1612	0.3439	-2.4104	-2.6663	-0.7127	4.8648	2.7763	4.8758	4.1852	2.0224	-1.0126
-1.662	-0.3715	1.5409	2.8121	2.7901	5.5995	5.5059	4.5016	7.5421	7.2257	5.8361	7.4155	7.8145	0.399	-2.2068	-2.4902	-0.809	4.6117	2.592	4.7355	3.9073	1.9536	-0.9548
-1.6977	-0.4045	1.4198	2.7103	2.6745	5.4591	5.3876	4.3558	7.3632	7.0303	5.5857	7.1404	7.5173	0.443	-2.0334	-2.3361	-0.9025	4.4108	2.4599	4.6089	3.6679	1.9179	-0.8998
-1.7252	-0.3962	1.3373	2.6278	2.5645	5.3161	5.1895	4.1411	7.1321	6.7744	5.294	6.8514	7.1651	0.4788	-1.8958	-2.2453	-0.9576	4.1411	2.3058	4.4548	3.4065	1.9096	-0.8557
-1.75	-0.4072	1.2437	2.5149	2.4517	5.1867	5.0574	3.9843	6.9395	6.5515	5.0602	6.5708	6.8597	0.4898	-1.7555	-2.16	-1.0016	3.9073	2.171	4.3392	3.1478	1.9013	-0.8365
-1.7638	-0.432	1.1914	2.4186	2.3884	5.0987	4.9143	3.844	6.7854	6.3507	4.8125	6.3259	6.5653	0.5311	-1.6262	-2.0967	-1.0814	3.7091	2.0912	4.2209	2.9139	1.9344	-0.8337
-1.7913	-0.4182	1.0896	2.2921	2.2425	4.9556	4.7685	3.6624	6.579	6.114	4.5346	6.0095	6.2571	0.5476	-1.5106	-2.0802	-1.1199	3.4835	1.9646	4.0751	2.6773	1.9921	-0.842
-1.8243	-0.432	1.0291	2.193	2.1517	4.8648	4.6062	3.5413	6.3919	5.9187	4.276	5.7591	5.9407	0.5751	-1.4638	-2.0499	-1.1667	3.2551	1.8408	3.9183	2.4131	2.0885	-0.8805
-1.8408	-0.465	0.9686	2.0664	2.0802	4.7437	4.4713	3.3624	6.2131	5.6985	4.0228	5.4619	5.638	0.5998	-1.4171	-2.0774	-1.219	3.035	1.6812	3.8192	2.1572	2.2123	-0.9108
-1.8628	-0.487	0.8805	1.9454	1.9481	4.6062	4.3172	3.2111	6.004	5.4922	3.7642	5.1675	5.3271	0.6136	-1.3951	-2.0637	-1.252	2.8314	1.5491	3.6926	1.9068	2.3526	-0.9493
-1.8903	-0.509	0.8337	1.8188	1.8601	4.4961	4.1604	3.0515	5.8086	5.2665	3.4918	4.8978	5.0409	0.6164	-1.3896	-2.1077	-1.2795	2.6195	1.4226	3.6018	1.6592	2.526	-1.0016
-1.9426	-0.5393	0.7567	1.7197	1.7913	4.397	4.0393	2.9057	5.6352	5.0877	3.2304	4.5814	4.741	0.6219	-1.3785	-2.16	-1.2877	2.4186	1.285	3.4918	1.4088	2.7186	-1.0869
-2.0087	-0.5503	0.6549	1.5739	1.6812	4.2595	3.8852	2.7323	5.4619	4.8951	2.9525	4.2705	4.4383	0.6411	-1.3785	-2.1655	-1.3015	2.2398	1.1612	3.3955	1.1392	2.9414	-1.1584
-2.0747	-0.5723	0.5696	1.4693	1.5877	4.1742	3.7532	2.6113	5.272	4.7135	2.6938	3.9788	4.1742	0.6274	-1.3978	-2.2233	-1.2822	2.0719	1.0539	3.3047	0.8943	3.1863	-1.2272
-2.138	-0.6246	0.4953	1.34	1.5189	4.0834	3.6596	2.4379	5.0822	4.5869	2.4131	3.7036	3.9403	0.6136	-1.4143	-2.2756	-1.2492	1.9206	0.9218	3.2304	0.6466	3.4587	-1.329
-2.2013	-0.6824	0.4348	1.2437	1.3978	3.965	3.5716	2.2838	4.9308	4.4603	2.193	3.423	3.7174	0.5778	-1.4281	-2.3251	-1.1969	1.8188	0.8227	3.1561	0.4237	3.7587	-1.4006
-2.2701	-0.7209	0.3742	1.1419	1.285	3.8687	3.4615	2.127	4.7712	4.342	1.9399	3.1863	3.5275	0.5558	-1.4363	-2.3444	-1.1419	1.7032	0.7319	3.1038	0.1926	4.0503	-1.4831
-2.3581	-0.8255	0.2862	1.0401	1.1804	3.7917	3.3872	1.9619	4.6364	4.2374	1.7252	2.9469	3.3597	0.5035	-1.4528	-2.4076	-1.0318	1.6344	0.6494	3.057	-0.0303	4.3503	-1.5601
-2.4682	-0.8915	0.1954	0.9438	1.0456	3.6871	3.2881	1.783	4.5098	4.1439	1.4748	2.7213	3.1808	0.454	-1.4556	-2.4159	-0.93	1.5409	0.5778	3.0212	-0.2146	4.6502	-1.6234
-2.5727	-0.9713	0.1183	0.8447	0.9273	3.6376	3.2579	1.6647	4.4108	4.0999	1.274	2.5342	3.0598	0.3935	-1.4556	-2.4159	-0.8117	1.4859	0.5035	2.9992	-0.4127	4.9198	-1.6785
-2.636	-1.0291	0.066	0.82	0.8447	3.5743	3.2276	1.5436	4.3365	4.0696	1.0869	2.3499	2.9552	0.3384	-1.4418	-2.3994	-0.6879	1.4528	0.454	2.991	-0.5586	5.184	-1.7555
-2.7213	-1.0869	0.0165	0.7815	0.7347	3.544	3.2056	1.4281	4.276	4.0751	0.9135	2.2288	2.9194	0.2807	-1.3923	-2.3361	-0.5861	1.4446	0.3962	3.0102	-0.7072	5.4261	-1.7913
-2.7653	-1.1694	-0.0303	0.7649	0.6631	3.5138	3.2166	1.3263	4.2374	4.0889	0.7925	2.1215	2.8699	0.2256	-1.3263	-2.2921	-0.487	1.4556	0.3715	3.0405	-0.8145	5.6463	-1.8436
-2.8341	-1.2272	-0.0743	0.7732	0.5586	3.4918	3.2551	1.241	4.2292	4.1191	0.6604	2.0417	2.8727	0.1761	-1.2712	-2.2425	-0.3715	1.4886	0.3687	3.068	-0.919	5.8444	-1.9124
-2.9029	-1.2932	-0.1046	0.787	0.4733	3.4697	3.2826	1.1337	4.1934	4.1797	0.5613	1.9646	2.8644	0.1238	-1.2134	-2.1517	-0.2724	1.5216	0.366	3.0928	-0.9906	6.0095	-1.9316
-2.9332	-1.3648	-0.1403	0.8062	0.4265	3.478	3.3212	1.0731	4.1852	4.2237	0.498	1.9124	2.8782	0.0963	-1.1337	-2.094	-0.2009	1.5657	0.3687	3.1396	-1.0676	6.1498	-1.9784
-2.98	-1.4253	-0.1541	0.8695	0.3687	3.4808	3.3872	1.0126	4.1879	4.3117	0.421	1.9041	2.9194	0.0743	-1.0566	-2.0499	-0.1458	1.651	0.3742	3.1753	-1.0786	6.2654	-2.0334
-3.0433	-1.4941	-0.1844	0.8915	0.3247	3.4725	3.4367	0.9576	4.1989	4.3805	0.3495	1.8628	2.958	0.033	-0.9961	-2.0004	-0.0798	1.6812	0.3742	3.2028	-1.1226	6.3424	-2.0637
-3.0955	-1.5326	-0.1954	0.9355	0.2944	3.4835	3.4945	0.919	4.2017	4.4411	0.3164	1.8903	3.0157	0.0193	-0.93	-1.9619	-0.0468	1.7528	0.3935	3.2469	-1.1116	6.4029	-2.0967
-3.123	-1.5767	-0.2146	0.9823	0.2421	3.5138	3.5495	0.9135	4.2595	4.5291	0.3247	1.9096	3.0845	0.0028	-0.9135	-1.9179	-0.022	1.8188	0.4182	3.3019	-1.0731	6.4717	-2.1435
-3.1368	-1.6069	-0.2201	1.0676	0.2311	3.5138	3.6046	0.9108	4.287	4.6199	0.3219	1.9454	3.1643	-0.0055	-0.8447	-1.8986	0.0055	1.8766	0.4403	3.3129	-0.9851	6.4992	-2.171
-3.1918	-1.6592	-0.2284	1.1171	0.2174	3.5275	3.6734	0.8805	4.3062	4.6915	0.3797	1.9839	3.2551	-0.011	-0.7925	-1.8215	0.0165	1.9784	0.465	3.3707	-0.9355	6.5268	-2.1985
-3.2028	-1.684	-0.2339	1.1804	0.2119	3.555	3.7477	0.8998	4.3448	4.774	0.4403	2.0582	3.3652	-0.0275	-0.7374	-1.7693	0.044	2.0417	0.5338	3.39	-0.8007	6.568	-2.2535
-3.2496	-1.7142	-0.2449	1.2382	0.2036	3.5743	3.8054	0.9328	4.4108	4.8731	0.487	2.1325	3.4697	-0.044	-0.7127	-1.706	0.077	2.1545	0.5751	3.39	-0.6576	6.59	-2.2673
-3.3019	-1.7665	-0.2559	1.2932	0.2091	3.5991	3.8742	0.9933	4.4686	4.9529	0.5998	2.2398	3.6073	-0.0743	-0.6659	-1.662	0.1293	2.248	0.6466	3.4092	-0.4953	6.6258	-2.2976
-3.3267	-1.7555	-0.2642	1.3565	0.2449	3.6431	3.9403	1.0621	4.5621	5.0657	0.7429	2.3884	3.7477	-0.0853	-0.6164	-1.5767	0.1844	2.3609	0.7347	3.4257	-0.2972	6.6148	-2.2976
-3.3294	-1.7638	-0.2642	1.3923	0.2862	3.6706	4.0118	1.1694	4.6584	5.1675	0.9218	2.526	3.8907	-0.1293	-0.5806	-1.5051	0.2394	2.4737	0.8475	3.4505	-0.0523	6.6341	-2.3306
-3.3872	-1.7555	-0.2697	1.4446	0.3357	3.6734	4.0366	1.2575	4.7245	5.2473	1.1006	2.6443	4.0256	-0.1678	-0.5641	-1.4666	0.3137	2.5892	0.9603	3.4422	0.1678	6.6478	-2.3333
-3.4202	-1.7638	-0.2889	1.4638	0.3852	3.6981	4.0834	1.3593	4.8235	5.3271	1.2987	2.8176	4.1824	-0.1844	-0.5421	-1.3813	0.366	2.68	1.0786	3.467	0.399	6.6423	-2.3251
-3.4697	-1.7968	-0.3329	1.4501	0.4182	3.7201	4.0834	1.4721	4.8923	5.3904	1.5161	2.9717	4.32	-0.2256	-0.5641	-1.3868	0.4458	2.7653	1.2024	3.4697	0.6631	6.6506	-2.3086
-3.5165	-1.7858	-0.3495	1.4473	0.476	3.7394	4.1329	1.6179	5.0134	5.4702	1.761	3.1726	4.4878	-0.2779	-0.6384	-1.3758	0.5311	2.8589	1.3483	3.4697	0.9493	6.6561	-2.2701
-3.555	-1.816	-0.3715	1.4088	0.5228	3.7449	4.1219	1.728	5.0932	5.5252	1.9977	3.3432	4.6227	-0.3219	-0.6604	-1.4088	0.6301	2.9194	1.4391	3.5	1.2245	6.6533	-2.2398
-3.6348	-1.8656	-0.4017	1.3951	0.5448	3.7284	4.1136	1.8463	5.162	5.5582	2.237	3.511	4.7382	-0.3742	-0.7649	-1.4336	0.7347	2.9772	1.5877	3.4835	1.4804	6.6396	-2.182
-3.6816	-1.9151	-0.4678	1.3345	0.5613	3.7229	4.0999	1.9729	5.2253	5.6022	2.4792	3.6679	4.8455	-0.4127	-0.8612	-1.4914	0.8337	3.0488	1.7115	3.5083	1.7583	6.6286	-2.1627
-3.7339	-1.9784	-0.4925	1.285	0.5778	3.7064	4.0586	2.0912	5.2968	5.638	2.7433	3.8247	4.9749	-0.4733	-0.9603	-1.5519	0.9273	3.0845	1.8931	3.4918	2.0472	6.6121	-2.1077
-3.7779	-2.0197	-0.5503	1.2547	0.6164	3.7091	4.0338	2.204	5.3463	5.6435	3.0212	3.9953	5.0739	-0.52	-1.0594	-1.6262	1.0291	3.1451	2.0307	3.5028	2.3388	6.6121	-2.0719
-3.8247	-2.0747	-0.5833	1.2217	0.6494	3.7064	4.0091	2.3306	5.4316	5.6573	3.2661	4.1549	5.1565	-0.5558	-1.1639	-1.695	1.1089	3.1836	2.1903	3.5275	2.6223	6.6011	-2.0499
-3.8522	-2.1297	-0.6329	1.1777	0.6411	3.6679	3.9595	2.4517	5.4729	5.6435	3.5303	4.32	5.261	-0.6109	-1.2932	-1.7418	1.2052	3.2001	2.3333	3.5193	2.9029	6.6121	-2.0279
-3.888	-2.1848	-0.6686	1.1447	0.6741	3.6486	3.9348	2.5892	5.5554	5.6793	3.8082	4.4713	5.3408	-0.6494	-1.373	-1.8215	1.2795	3.2249	2.4957	3.5028	3.2056	6.6038	-2.0004
-3.9073	-2.2205	-0.6906	1.1254	0.7154	3.6514	3.9073	2.6993	5.6215	5.6793	4.0393	4.6062	5.4261	-0.6934	-1.4528	-1.9151	1.3648	3.2331	2.6113	3.5028	3.478	6.6286	-1.9756
-3.8687	-2.226	-0.6824	1.1419	0.7677	3.6514	3.8797	2.8286	5.715	5.6765	4.298	4.774	5.4894	-0.7182	-1.5161	-1.9564	1.4116	3.2551	2.7653	3.4835	3.7311	6.6368	-1.9784
-3.8825	-2.2178	-0.6879	1.1226	0.8282	3.6596	3.8605	2.9442	5.7508	5.6683	4.5456	4.9253	5.5472	-0.7374	-1.6207	-2.0499	1.4391	3.2606	2.9222	3.4505	3.9815	6.6864	-1.9729
-3.8632	-2.2178	-0.6934	1.1254	0.8557	3.6569	3.8302	3.079	5.8169	5.6765	4.7685	5.0409	5.5775	-0.7429	-1.6702	-2.1132	1.4446	3.2716	3.0433	3.4395	4.2264	6.7194	-1.9454
-3.8715	-2.2178	-0.6824	1.1171	0.9438	3.6734	3.7999	3.1918	5.8884	5.649	4.9776	5.162	5.6215	-0.7319	-1.783	-2.2095	1.4391	3.2221	3.1423	3.4065	4.4273	6.7744	-1.9481
-3.8522	-2.1682	-0.6851	1.1392	1.0016	3.6514	3.7642	3.2881	5.9297	5.616	5.162	5.2638	5.6435	-0.7072	-1.8491	-2.2811	1.3896	3.1891	3.2111	3.3872	4.5869	6.8707	-1.9426
-3.8137	-2.1242	-0.6714	1.1254	1.0814	3.6431	3.7477	3.3927	5.9682	5.5912	5.3573	5.3766	5.6848	-0.6769	-1.9289	-2.3636	1.3345	3.2166	3.3074	3.3707	4.7657	6.9533	-1.9261
-3.7807	-2.0389	-0.6191	1.1584	1.1887	3.6844	3.7229	3.5083	6.0232	5.572	5.5169	5.4729	5.7178	-0.6384	-1.9949	-2.4241	1.2575	3.1918	3.3652	3.3707	4.8978	7.0606	-1.9041
-3.7559	-1.9866	-0.6053	1.1502	1.274	3.6981	3.6844	3.5826	6.0617	5.5582	5.6463	5.5637	5.7288	-0.6026	-2.0802	-2.4874	1.1777	3.1698	3.4037	3.39	5.0079	7.1926	-1.8793
-3.7311	-1.8903	-0.5833	1.1612	1.3648	3.7064	3.6624	3.6624	6.114	5.5114	5.7453	5.627	5.7123	-0.5751	-2.1462	-2.5535	1.1199	3.1588	3.4257	3.39	5.0877	7.3302	-1.8436
-3.7009	-1.7995	-0.5503	1.1804	1.4308	3.7174	3.6596	3.7394	6.1195	5.4702	5.8554	5.6683	5.704	-0.5338	-2.182	-2.5315	1.0456	3.1561	3.4312	3.4202	5.1592	7.4706	-1.8078
-3.6156	-1.7225	-0.509	1.1914	1.5464	3.7284	3.6293	3.7999	6.1718	5.4591	5.9489	5.7426	5.7205	-0.487	-2.2398	-2.5287	0.9548	3.1781	3.445	3.456	5.2115	7.6439	-1.7473
-3.6128	-1.6399	-0.454	1.1969	1.6152	3.7311	3.6128	3.8522	6.1773	5.4096	5.9985	5.7673	5.6903	-0.454	-2.3003	-2.5342	0.886	3.1753	3.434	3.4973	5.2253	7.8255	-1.6977
-3.5743	-1.5601	-0.4182	1.1887	1.706	3.7559	3.6183	3.866	6.1993	5.3793	6.026	5.7921	5.6985	-0.421	-2.3223	-2.5342	0.8007	3.2221	3.4175	3.5275	5.228	8.0154	-1.6537
-3.533	-1.4748	-0.3907	1.2107	1.7473	3.7669	3.6128	3.8825	6.1856	5.3436	6.0315	5.8113	5.6655	-0.3605	-2.3581	-2.537	0.6989	3.2634	3.3982	3.5743	5.2198	8.2162	-1.5959
-3.5028	-1.4088	-0.3412	1.2052	1.8078	3.7972	3.6211	3.9238	6.2158	5.3326	6.015	5.8113	5.6738	-0.3192	-2.3554	-2.5177	0.6136	3.3019	3.3569	3.6514	5.1867	8.3978	-1.5299
-3.4642	-1.3648	-0.3082	1.1942	1.8078	3.7889	3.6238	3.91	6.1911	5.294	5.9792	5.7948	5.6407	-0.2724	-2.3581	-2.4874	0.5311	3.3514	3.2826	3.6871	5.1207	8.5574	-1.4528
-3.4092	-1.3153	-0.2531	1.1997	1.8463	3.8247	3.6514	3.899	6.1773	5.2748	5.9352	5.8113	5.66	-0.2256	-2.3471	-2.4599	0.4237	3.4147	3.2331	3.7779	5.0657	8.717	-1.4116
-3.3652	-1.241	-0.2091	1.2217	1.8821	3.8825	3.7064	3.877	6.1938	5.3023	5.8966	5.8279	5.682	-0.1678	-2.3058	-2.3994	0.3274	3.4725	3.1726	3.866	4.9859	8.8684	-1.3318
-3.3102	-1.1749	-0.1376	1.2712	1.8793	3.9045	3.7477	3.866	6.2131	5.3078	5.8664	5.8526	5.715	-0.1348	-2.2618	-2.3058	0.2256	3.5661	3.1203	3.965	4.9006	8.9812	-1.2795
-3.1918	-1.1006	-0.0303	1.3538	1.9316	3.9898	3.8302	3.855	6.2709	5.3986	5.8334	5.9104	5.7921	-0.066	-2.1765	-2.2095	0.1101	3.6871	3.0928	4.0641	4.8345	9.0775	-1.2052
-3.1203	-0.9933	0.0743	1.4226	1.9371	4.0696	3.9155	3.8302	6.2901	5.4399	5.7591	5.9187	5.8471	-0.0193	-2.0692	-2.0637	0.0165	3.7724	3.035	4.1521	4.7107	9.1655	-1.1639
-2.9882	-0.875	0.2091	1.5134	1.9949	4.1879	4.0036	3.8192	6.3589	5.5059	5.6985	5.9572	5.9021	0.0358	-1.9454	-1.8683	-0.0908	3.8907	2.9855	4.265	4.6309	9.2261	-1.0924
-2.8369	-0.787	0.3302	1.6234	2.0142	4.2732	4.1219	3.8054	6.3947	5.5857	5.6655	6.004	5.9654	0.0825	-1.8601	-1.7197	-0.1844	3.9953	2.9194	4.3668	4.5236	9.2949	-1.0263
-2.7351	-0.7099	0.4788	1.739	2.0389	4.3585	4.2319	3.7862	6.4607	5.6985	5.5802	6.0315	6.048	0.1458	-1.7528	-1.5381	-0.2862	4.0834	2.8589	4.4576	4.408	9.3747	-0.9741
-2.6113	-0.6191	0.5833	1.8133	2.0444	4.4356	4.331	3.7422	6.502	5.7701	5.5114	6.037	6.114	0.1844	-1.6399	-1.3098	-0.3935	4.1714	2.8231	4.5484	4.2732	9.4352	-0.8888
-2.4847	-0.5503	0.7127	1.9371	2.0389	4.5401	4.4356	3.6954	6.5433	5.8664	5.4124	6.0645	6.1608	0.2476	-1.5161	-1.1474	-0.5008	4.2677	2.7433	4.6337	4.1466	9.4902	-0.8227
-2.3388	-0.487	0.8172	2.0362	2.0114	4.5841	4.5401	3.6266	6.535	5.9021	5.2638	6.0122	6.1966	0.2972	-1.4061	-0.9053	-0.6109	4.2925	2.658	4.6832	3.9925	9.5508	-0.7237
-2.2535	-0.4568	0.9273	2.1435	1.9756	4.6502	4.6062	3.5743	6.5488	5.9627	5.162	5.9874	6.2186	0.3715	-1.2905	-0.7099	-0.7429	4.3695	2.5397	4.752	3.8164	9.6195	-0.6191
-2.1325	-0.443	1.0043	2.1903	1.9261	4.6832	4.6804	3.4532	6.5213	6.0012	4.9721	5.9352	6.2351	0.4237	-1.1309	-0.498	-0.8557	4.3448	2.4241	4.7657	3.6073	9.6718	-0.5283
-2.0362	-0.4375	1.0704	2.2701	1.8463	4.6832	4.7382	3.3267	6.4717	6.0315	4.7905	5.8334	6.2131	0.487	-0.9796	-0.2752	-0.9851	4.3558	2.2921	4.785	3.39	9.7241	-0.3907
-1.9674	-0.432	1.1171	2.3333	1.7638	4.6915	4.7795	3.2056	6.3892	6.059	4.6006	5.7536	6.1993	0.5531	-0.831	-0.0633	-1.1199	4.3392	2.171	4.796	3.1451	9.7654	-0.2752
-1.8931	-0.4348	1.1612	2.3691	1.6565	4.6584	4.7878	3.0377	6.2901	6.0452	4.3613	5.6242	6.1278	0.6136	-0.6686	0.1568	-1.2575	4.298	2.0059	4.7795	2.9304	9.8204	-0.1321
-1.8271	-0.4788	1.1584	2.4296	1.5519	4.6172	4.7823	2.9002	6.1718	6.0232	4.1356	5.4702	6.0342	0.6851	-0.509	0.3302	-1.3951	4.2402	1.8436	4.7657	2.6745	9.8644	-0.0055
-1.7555	-0.4953	1.1859	2.4489	1.4611	4.5814	4.8318	2.7598	6.07	5.9902	3.9348	5.3271	6.0122	0.7732	-0.3274	0.5421	-1.5657	4.2154	1.7252	4.7437	2.4434	9.9112	0.1046
-1.7142	-0.5558	1.1942	2.4874	1.3373	4.5319	4.7988	2.5865	5.9434	5.9682	3.7009	5.1592	5.9187	0.8255	-0.1623	0.7154	-1.695	4.1742	1.5601	4.7465	2.1875	9.9552	0.2146
-1.6234	-0.5641	1.2355	2.5287	1.241	4.4961	4.8318	2.4627	5.8471	5.9352	3.4725	5.0244	5.8636	0.9273	0.0495	0.8888	-1.8628	4.1521	1.4171	4.7355	1.9399	9.9883	0.2972
-1.5849	-0.6053	1.2162	2.548	1.1089	4.4273	4.8235	2.3031	5.7123	5.8911	3.2524	4.8565	5.7673	0.9823	0.2009	1.0098	-1.9949	4.0806	1.285	4.7025	1.684	10.0543	0.3852
-1.5271	-0.6466	1.2217	2.5535	1.0071	4.3695	4.807	2.1517	5.5802	5.8499	3.0295	4.697	5.6875	1.0539	0.3522	1.1281	-2.1325	4.0421	1.1144	4.6777	1.4446	10.1258	0.4568
-1.4446	-0.6659	1.2547	2.6195	0.9355	4.3365	4.8455	2.0389	5.4977	5.8279	2.8259	4.5649	5.616	1.1337	0.5118	1.2024	-2.2673	3.9953	0.9768	4.6584	1.2327	10.2249	0.4925
-1.362	-0.6906	1.2685	2.6608	0.8282	4.2842	4.8565	1.8958	5.3821	5.7921	2.6195	4.4053	5.5389	1.1639	0.6631	1.2492	-2.3636	3.954	0.864	4.6254	1.0153	10.3432	0.5586
-1.2932	-0.6879	1.3263	2.7296	0.7539	4.2374	4.8841	1.7555	5.2528	5.7481	2.4324	4.2622	5.4674	1.2217	0.8392	1.2822	-2.4572	3.888	0.7429	4.6172	0.7815	10.467	0.5916
-1.2134	-0.7154	1.3098	2.7653	0.6769	4.1934	4.8868	1.6317	5.1565	5.704	2.215	4.0889	5.3463	1.2602	0.9906	1.2465	-2.5425	3.8164	0.5998	4.5676	0.5723	10.6239	0.6026
-1.1364	-0.7539	1.351	2.8286	0.5751	4.1494	4.9006	1.4886	5.0326	5.6848	2.0032	3.932	5.261	1.3125	1.1089	1.219	-2.6305	3.8192	0.4815	4.5621	0.3715	10.7752	0.6301
-1.0429	-0.7759	1.384	2.9167	0.4843	4.1164	4.9171	1.3565	4.9473	5.6325	1.7995	3.7559	5.1317	1.3538	1.2547	1.1749	-2.7158	3.7229	0.3577	4.5236	0.1733	10.9348	0.6191
-0.9741	-0.8255	1.3923	2.958	0.3742	4.0641	4.9308	1.2024	4.818	5.594	1.5877	3.5661	5.0134	1.3951	1.3896	1.1116	-2.7846	3.6789	0.1926	4.5126	-0.055	11.0861	0.6081
