"FZ"	"FC3"	"FCZ"	"FC4"	"C3"	"CZ"	"C4"	"CP3"	"CPZ"	"CP4"	"P3"	"PZ"	"P4"	"OZ"	"FP1"	"FP2"	"A2"	"P8"	"TP7"	"TP8"	"P7"	"VEOG"	"HEOG"
2.1252	1.738	2.3471	1.8382	1.8084	2.1603	1.7082	1.7922	1.9546	1.4538	1.5323	1.7137	1.424	0.046	0.9015	1.8544	-0.1245	0.5983	1.1208	0.2599	0.8311	-0.7201	1.0098
2.0385	1.7164	2.2957	1.7461	1.7813	2.0873	1.6785	1.7299	1.8923	1.3996	1.4565	1.6433	1.3563	0.0027	0.8257	1.6731	-0.0162	0.5469	0.9827	0.2247	0.804	-0.5929	0.9421
1.9817	1.7001	2.2226	1.6785	1.7272	2.0142	1.627	1.6731	1.8138	1.3617	1.4186	1.5756	1.3184	-0.0487	0.7364	1.4998	0.0541	0.5604	0.8988	0.2112	0.7851	-0.4494	0.9313
1.8978	1.6595	2.1387	1.5675	1.6758	1.9546	1.5621	1.6027	1.7489	1.3103	1.3319	1.5296	1.2832	-0.0731	0.6254	1.2778	0.1272	0.5333	0.7959	0.222	0.7526	-0.3086	0.8853
1.7949	1.6243	2.0494	1.4863	1.6243	1.8788	1.5052	1.5242	1.692	1.3076	1.2886	1.5052	1.2616	-0.0975	0.5496	1.1127	0.1678	0.5658	0.7039	0.2274	0.7174	-0.1733	0.8284
1.7001	1.5675	1.9492	1.3509	1.5323	1.7868	1.4484	1.4456	1.5945	1.2372	1.2237	1.4294	1.2074	-0.1164	0.4061	0.8961	0.2112	0.5766	0.6335	0.2436	0.6768	-0.0379	0.7743
1.5945	1.5187	1.8301	1.2101	1.47	1.6893	1.3644	1.3834	1.5242	1.202	1.1993	1.378	1.1749	-0.1245	0.3167	0.7445	0.2166	0.5658	0.5604	0.2924	0.6741	0.065	0.7445
1.4863	1.4429	1.7326	1.0856	1.405	1.5864	1.2507	1.3157	1.4077	1.1397	1.1181	1.3292	1.1181	-0.1218	0.2274	0.5983	0.2166	0.582	0.4765	0.3086	0.6362	0.157	0.6687
1.3807	1.3861	1.6027	0.9313	1.3374	1.489	1.1668	1.2507	1.3401	1.0802	1.0748	1.2589	1.0639	-0.1327	0.157	0.4711	0.2193	0.5577	0.4142	0.3276	0.6037	0.2247	0.6064
1.2805	1.2832	1.489	0.8176	1.2561	1.3807	1.0693	1.1668	1.2724	0.999	1.0044	1.1641	1.0044	-0.1137	0.0704	0.3953	0.2003	0.555	0.3655	0.3465	0.5712	0.2545	0.555
1.1803	1.1993	1.3698	0.6714	1.1776	1.2643	0.9556	1.091	1.1695	0.9232	0.9611	1.1018	0.9232	-0.1029	0.0108	0.3222	0.1787	0.5062	0.3032	0.333	0.5523	0.2626	0.4765
1.0558	1.0937	1.2318	0.5469	1.0666	1.1424	0.8338	0.9854	1.0504	0.8176	0.8825	1.0017	0.823	-0.1002	-0.0054	0.3303	0.1706	0.444	0.2328	0.3222	0.49	0.2436	0.4142
0.98	0.9963	1.137	0.4223	0.9827	1.045	0.7445	0.934	0.9502	0.7255	0.8446	0.9394	0.7364	-0.0893	-0.0027	0.3492	0.1462	0.4007	0.203	0.3086	0.5117	0.1651	0.3357
0.915	0.8717	1.0071	0.3546	0.9177	0.9611	0.6118	0.8798	0.8663	0.6633	0.8067	0.8825	0.6551	-0.0839	0.0027	0.398	0.1408	0.3384	0.1516	0.2951	0.4954	0.0731	0.2491
0.8365	0.7851	0.9259	0.2897	0.8284	0.8825	0.5279	0.823	0.7878	0.5496	0.7661	0.823	0.5929	-0.0731	0.0569	0.4954	0.1245	0.3113	0.1218	0.2761	0.4927	-0.0596	0.176
0.7905	0.7039	0.8555	0.2355	0.7391	0.8013	0.4413	0.758	0.6849	0.444	0.712	0.7553	0.4819	-0.0785	0.092	0.6037	0.1354	0.2464	0.1083	0.2491	0.4819	-0.2274	0.0866
0.7797	0.6118	0.7905	0.2274	0.693	0.7282	0.3655	0.693	0.6308	0.379	0.693	0.6822	0.425	-0.0677	0.1597	0.7255	0.1164	0.2193	0.1218	0.2464	0.4927	-0.4061	0.0244
0.7472	0.5387	0.7147	0.222	0.6281	0.666	0.3059	0.6579	0.555	0.2924	0.6524	0.6172	0.3357	-0.065	0.2247	0.8636	0.1137	0.1543	0.1489	0.2166	0.4738	-0.5983	-0.0217
0.7553	0.5171	0.6958	0.2139	0.5929	0.6254	0.2247	0.6064	0.4819	0.2247	0.6091	0.5496	0.2572	-0.065	0.314	0.9908	0.1137	0.111	0.1624	0.2166	0.4765	-0.8338	-0.0812
0.7499	0.4792	0.6741	0.268	0.5306	0.5929	0.2085	0.5793	0.4332	0.1651	0.5631	0.4927	0.2112	-0.0541	0.4088	1.1343	0.0948	0.0704	0.2355	0.222	0.4629	-1.0504	-0.1218
0.7391	0.4277	0.5956	0.2545	0.4738	0.5062	0.1083	0.5252	0.3384	0.0487	0.4846	0.4007	0.0975	-0.0623	0.4873	1.2291	0.0812	-0.019	0.2301	0.1624	0.4034	-1.267	-0.1489
0.7147	0.3817	0.5658	0.2761	0.4142	0.4494	0.0298	0.4359	0.2599	-0.0298	0.4115	0.3113	-0.0135	-0.0433	0.5523	1.3211	0.0731	-0.0785	0.2355	0.1408	0.3601	-1.4727	-0.1516
0.7039	0.3249	0.5198	0.2653	0.3601	0.3871	-0.0541	0.3844	0.1706	-0.1245	0.3546	0.2003	-0.1056	-0.046	0.601	1.3834	0.065	-0.1462	0.2274	0.0839	0.2978	-1.6568	-0.1489
0.6795	0.2788	0.4738	0.268	0.2951	0.3249	-0.092	0.3249	0.1002	-0.1922	0.2707	0.1272	-0.1949	-0.0217	0.6308	1.4077	0.0352	-0.2193	0.2003	0.0487	0.222	-1.8057	-0.1408
0.6606	0.2328	0.4169	0.2328	0.2491	0.2653	-0.1868	0.2518	0.019	-0.2951	0.2003	0.0406	-0.3005	-0.0217	0.693	1.4023	0.0244	-0.2924	0.176	-0.0054	0.1706	-1.914	-0.1354
0.6443	0.2166	0.3763	0.2274	0.1922	0.1949	-0.222	0.2085	-0.046	-0.3574	0.1218	-0.0352	-0.3925	-0.019	0.7066	1.3292	0.0108	-0.3492	0.1327	-0.0704	0.1191	-1.9681	-0.1083
0.6254	0.2382	0.3384	0.2166	0.1733	0.1462	-0.2734	0.1678	-0.0839	-0.4034	0.0839	-0.1137	-0.4332	-0.0135	0.7201	1.2155	-0.0027	-0.3871	0.1272	-0.1002	0.0812	-1.9844	-0.0731
0.5848	0.2247	0.3249	0.1841	0.176	0.1056	-0.3167	0.1516	-0.1651	-0.4467	0.0785	-0.1651	-0.4792	-0.0054	0.7282	1.0693	-0.0054	-0.4386	0.0785	-0.1543	0.0812	-1.9438	-0.0623
0.5848	0.2599	0.2978	0.1949	0.1895	0.0785	-0.2978	0.1083	-0.1868	-0.4683	0.046	-0.1733	-0.5035	0.0054	0.7228	0.8988	-0.019	-0.4169	0.0866	-0.1976	0.065	-1.8842	-0.0162
0.5306	0.2464	0.2707	0.1651	0.1787	0.0569	-0.3195	0.0975	-0.2301	-0.4711	0.0217	-0.2247	-0.5279	-0.0217	0.7012	0.6985	0.0108	-0.4521	0.0758	-0.2409	0.0379	-1.7976	0.0027
0.4873	0.2464	0.2355	0.1435	0.1678	0	-0.3276	0.1002	-0.2274	-0.4575	0.0135	-0.2545	-0.5252	-0.0244	0.6579	0.4521	0.0217	-0.4602	0.0731	-0.2653	0.0271	-1.6731	-0.0108
0.444	0.2085	0.1949	0.1218	0.176	-0.0244	-0.314	0.0785	-0.2572	-0.4521	0.0054	-0.2409	-0.5117	-0.0487	0.582	0.2328	0.0569	-0.4548	0.0541	-0.2978	0.0487	-1.5621	0.0081
0.4088	0.1922	0.1543	0.1029	0.1462	-0.0596	-0.2978	0.065	-0.2653	-0.4332	-0.0325	-0.2599	-0.5117	-0.046	0.5035	0.0054	0.0704	-0.4359	0.0406	-0.3492	0.0487	-1.4348	0.0054
0.333	0.1651	0.1299	0.0975	0.1489	-0.0623	-0.2599	0.0623	-0.2626	-0.4007	-0.0217	-0.2815	-0.4873	-0.0569	0.4169	-0.2301	0.0785	-0.4034	0.0379	-0.3871	0.0569	-1.3211	0.0135
0.2761	0.1435	0.0975	0.1029	0.1354	-0.0785	-0.2166	0.046	-0.2572	-0.3682	-0.0433	-0.2924	-0.4819	-0.0487	0.333	-0.4467	0.0866	-0.3871	0.0379	-0.4196	0.0677	-1.2074	0.0135
0.2382	0.1218	0.0731	0.1462	0.1056	-0.0731	-0.1678	0.0217	-0.2436	-0.3059	-0.0406	-0.2761	-0.425	-0.0623	0.2166	-0.6199	0.0948	-0.3519	0.0596	-0.4846	0.0839	-1.0964	0
0.1814	0.0975	0.0623	0.1976	0.0948	-0.0948	-0.0731	0.0271	-0.2436	-0.2382	-0.0596	-0.2734	-0.3871	-0.0569	0.0839	-0.823	0.092	-0.3438	0.0325	-0.5225	0.0677	-0.9935	0.0027
0.1462	0.0758	0.0271	0.2301	0.0704	-0.0975	0.0027	-0.0081	-0.2274	-0.176	-0.0812	-0.268	-0.3465	-0.065	-0.046	-0.934	0.092	-0.3032	0.0406	-0.5983	0.0812	-0.8934	0
0.1056	0.046	0.0325	0.2978	0.0677	-0.1218	0.0866	-0.0217	-0.2112	-0.1056	-0.0839	-0.2788	-0.3059	-0.0541	-0.2003	-1.0342	0.0839	-0.2653	0.0352	-0.6118	0.0623	-0.7526	-0.0352
0.0541	0.0027	0.0027	0.3086	0.0379	-0.1056	0.1462	-0.0569	-0.2247	-0.046	-0.0948	-0.2626	-0.268	-0.0433	-0.333	-1.1018	0.065	-0.2139	0.0514	-0.6497	0.065	-0.6064	-0.046
-0.0352	-0.0758	-0.0514	0.3059	-0.019	-0.1489	0.1895	-0.1029	-0.2247	-0.0108	-0.1435	-0.268	-0.2355	-0.0569	-0.4683	-1.1451	0.0948	-0.1733	0.019	-0.6714	0.0406	-0.4386	-0.0677
-0.0596	-0.1245	-0.1056	0.2626	-0.0298	-0.1733	0.222	-0.1191	-0.2166	0.019	-0.1624	-0.2626	-0.2085	-0.0487	-0.6254	-1.1614	0.0948	-0.1327	0.0108	-0.6795	0.0352	-0.2626	-0.0948
-0.176	-0.2003	-0.1733	0.2003	-0.0812	-0.222	0.2436	-0.157	-0.2572	0.0596	-0.1895	-0.268	-0.1624	-0.0541	-0.758	-1.1506	0.0839	-0.1056	0.0054	-0.6497	0.0244	-0.0785	-0.1083
-0.2328	-0.2734	-0.2301	0.1597	-0.1354	-0.2572	0.203	-0.1922	-0.2815	0.0731	-0.2247	-0.2951	-0.1327	-0.065	-0.8825	-1.11	0.0948	-0.065	-0.0541	-0.6443	0	0.1164	-0.1354
-0.2897	-0.3682	-0.3059	0.0704	-0.1678	-0.2924	0.1543	-0.2355	-0.2843	0.065	-0.2464	-0.3086	-0.1164	-0.0514	-0.9692	-1.0991	0.0785	-0.019	-0.0758	-0.6145	-0.0217	0.2843	-0.1245
-0.4061	-0.4738	-0.4061	-0.0623	-0.2085	-0.3519	0.092	-0.2788	-0.3546	0.0569	-0.2815	-0.3222	-0.0948	-0.0433	-1.0639	-1.0802	0.0541	-0.0054	-0.1056	-0.5631	-0.0433	0.4765	-0.1191
-0.4792	-0.5658	-0.4846	-0.1651	-0.2761	-0.4088	0.0406	-0.3303	-0.3682	0.046	-0.3222	-0.3384	-0.0812	-0.0217	-1.091	-1.0693	0.0162	0.0244	-0.1327	-0.5144	-0.0623	0.6335	-0.1164
-0.5766	-0.6497	-0.5631	-0.3249	-0.3465	-0.4629	-0.065	-0.4007	-0.4088	-0.0027	-0.3574	-0.3709	-0.111	-0.0054	-1.1289	-1.0639	-0.0054	0.019	-0.1787	-0.4792	-0.0975	0.758	-0.0839
-0.6985	-0.758	-0.6633	-0.4629	-0.4521	-0.5631	-0.157	-0.4683	-0.49	-0.0514	-0.4332	-0.4223	-0.1489	0.0108	-1.1424	-1.0666	-0.046	0.0298	-0.2057	-0.4115	-0.1354	0.8853	-0.0812
-0.7986	-0.8419	-0.7499	-0.6199	-0.4981	-0.6064	-0.2707	-0.5279	-0.5171	-0.1083	-0.4683	-0.4386	-0.157	0.019	-1.1154	-1.0964	-0.0758	0.0569	-0.2355	-0.3222	-0.1651	0.9881	-0.0433
-0.8853	-0.9421	-0.8419	-0.7499	-0.5929	-0.6876	-0.3763	-0.5956	-0.5983	-0.1814	-0.5279	-0.5225	-0.1841	0.0325	-1.0829	-1.1289	-0.0975	0.046	-0.3086	-0.2572	-0.203	1.0693	-0.0108
-0.9556	-1.0017	-0.915	-0.8907	-0.6741	-0.7526	-0.5008	-0.6308	-0.6362	-0.2572	-0.5685	-0.5604	-0.2247	0.0569	-1.0585	-1.1451	-0.1354	0.0487	-0.379	-0.1678	-0.2545	1.1506	0.0108
-1.0639	-1.0477	-0.98	-1.0152	-0.7418	-0.823	-0.6091	-0.7309	-0.7039	-0.3411	-0.6254	-0.6172	-0.2761	0.065	-0.98	-1.1424	-0.1516	-0.0027	-0.4575	-0.1218	-0.3005	1.1966	0.0433
-1.0991	-1.0964	-1.0423	-1.0883	-0.7824	-0.8744	-0.7012	-0.7337	-0.7499	-0.4088	-0.6497	-0.6362	-0.3005	0.0975	-0.8609	-1.137	-0.2193	0	-0.5631	-0.0162	-0.3384	1.2264	0.0704
-1.1749	-1.1208	-1.1018	-1.1939	-0.8338	-0.9259	-0.8067	-0.8203	-0.8067	-0.4981	-0.7012	-0.6876	-0.3601	0.1056	-0.7607	-1.1506	-0.2409	-0.0217	-0.6633	0.0514	-0.3601	1.2616	0.0866
-1.2101	-1.1181	-1.1154	-1.2724	-0.8907	-0.9502	-0.8717	-0.8501	-0.8338	-0.5496	-0.7472	-0.7364	-0.4142	0.1435	-0.6091	-1.1018	-0.3032	-0.0433	-0.7201	0.1354	-0.4007	1.2561	0.1002
-1.2345	-1.1154	-1.1506	-1.3157	-0.9177	-0.9963	-0.9529	-0.8907	-0.8717	-0.6579	-0.7932	-0.7932	-0.4792	0.1841	-0.4467	-1.0666	-0.3546	-0.0866	-0.7716	0.1678	-0.4386	1.2589	0.092
-1.2318	-1.1018	-1.1451	-1.3292	-0.9259	-1.0342	-1.0125	-0.9421	-0.915	-0.7066	-0.8419	-0.8311	-0.5414	0.1868	-0.3032	-1.0477	-0.4034	-0.157	-0.804	0.2112	-0.4711	1.2426	0.0758
-1.2426	-1.0856	-1.156	-1.3455	-0.9611	-1.0396	-1.0612	-0.9638	-0.9529	-0.7661	-0.888	-0.8825	-0.6281	0.2112	-0.157	-0.9448	-0.4548	-0.1868	-0.8419	0.222	-0.5008	1.1749	0.0569
-1.2209	-1.0477	-1.1451	-1.3455	-0.9556	-1.0585	-1.0883	-0.9935	-0.9854	-0.8257	-0.9259	-0.9015	-0.6524	0.2409	0.019	-0.8663	-0.49	-0.2409	-0.8446	0.222	-0.5414	1.0937	0.0325
-1.2291	-1.0071	-1.156	-1.3103	-0.9854	-1.0748	-1.1235	-1.0179	-1.0206	-0.915	-0.98	-0.98	-0.7499	0.2409	0.1435	-0.7391	-0.4927	-0.3438	-0.8338	0.2166	-0.5929	0.9556	-0.019
-1.1587	-0.9286	-1.1045	-1.2209	-0.9367	-1.0585	-1.0883	-0.9963	-1.0017	-0.9204	-0.9935	-0.9773	-0.7553	0.2653	0.2978	-0.5902	-0.5225	-0.3601	-0.7851	0.2003	-0.6037	0.7959	-0.0487
-1.0937	-0.869	-1.0775	-1.156	-0.8798	-1.0477	-1.0883	-0.9746	-1.0071	-0.9313	-0.9881	-0.9719	-0.7986	0.2572	0.3817	-0.4494	-0.5198	-0.4196	-0.7688	0.1678	-0.6524	0.5983	-0.092
-1.0477	-0.7743	-1.0206	-1.0991	-0.8419	-1.0098	-1.0504	-0.9367	-0.9963	-0.9204	-0.98	-0.9529	-0.8176	0.2545	0.4602	-0.2843	-0.4954	-0.4386	-0.712	0.1624	-0.6443	0.3655	-0.1516
-0.9827	-0.6849	-0.9611	-0.9719	-0.7661	-0.9611	-0.9854	-0.8853	-0.9584	-0.9232	-0.9529	-0.9367	-0.8067	0.222	0.5387	-0.1516	-0.4656	-0.4738	-0.6254	0.1218	-0.6416	0.1272	-0.203
-0.915	-0.582	-0.8853	-0.8988	-0.6903	-0.9232	-0.9394	-0.8501	-0.9286	-0.9096	-0.9502	-0.915	-0.8446	0.203	0.5306	0.0244	-0.4115	-0.4873	-0.5983	0.0948	-0.6579	-0.1462	-0.2382
-0.8257	-0.5035	-0.8203	-0.7661	-0.6091	-0.8771	-0.8663	-0.7986	-0.8798	-0.8501	-0.9123	-0.8771	-0.8284	0.176	0.5523	0.1949	-0.3682	-0.4927	-0.5171	0.0866	-0.6118	-0.4169	-0.2924
-0.7418	-0.3817	-0.7607	-0.6903	-0.536	-0.7986	-0.7824	-0.7093	-0.8122	-0.8095	-0.8555	-0.8284	-0.7797	0.1381	0.5414	0.379	-0.287	-0.4656	-0.4602	0.0596	-0.6037	-0.7012	-0.3357
-0.647	-0.2897	-0.6633	-0.555	-0.425	-0.7445	-0.7039	-0.6335	-0.7472	-0.7228	-0.8013	-0.7743	-0.7391	0.0948	0.4954	0.5685	-0.2085	-0.4656	-0.3817	0.0541	-0.5631	-0.9584	-0.3709
-0.5414	-0.1814	-0.5766	-0.4304	-0.3303	-0.6633	-0.5604	-0.5658	-0.6741	-0.6416	-0.7499	-0.712	-0.6849	0.046	0.4981	0.7607	-0.1381	-0.4467	-0.2924	0.0514	-0.5225	-1.2074	-0.4223
-0.4088	-0.046	-0.4602	-0.268	-0.2274	-0.555	-0.4413	-0.444	-0.5577	-0.5171	-0.6606	-0.5983	-0.582	0.0081	0.4873	0.9638	-0.065	-0.3682	-0.1841	0.0704	-0.4738	-1.4267	-0.4575
-0.3032	0.046	-0.3682	-0.0975	-0.1245	-0.4413	-0.3005	-0.3574	-0.444	-0.3709	-0.5441	-0.4792	-0.4629	-0.0217	0.4738	1.1424	0.0027	-0.287	-0.1083	0.0893	-0.4223	-1.6027	-0.4792
-0.1868	0.1191	-0.2518	0.046	-0.0623	-0.3546	-0.1597	-0.2599	-0.3465	-0.2464	-0.4494	-0.3898	-0.379	-0.0569	0.4683	1.2751	0.0731	-0.203	-0.019	0.1381	-0.3709	-1.7353	-0.509
-0.0677	0.2491	-0.1462	0.2112	0.0271	-0.2436	-0.0325	-0.1462	-0.2301	-0.092	-0.3574	-0.287	-0.2409	-0.065	0.4629	1.3942	0.1083	-0.1218	0.0487	0.1868	-0.2978	-1.8138	-0.5387
0.0244	0.2978	-0.065	0.3574	0.0975	-0.1272	0.1272	-0.0839	-0.1191	0.0352	-0.2545	-0.1787	-0.1381	-0.0893	0.4846	1.4456	0.1354	-0.0244	0.157	0.2518	-0.2274	-1.8409	-0.5523
0.1381	0.3574	0.0162	0.4494	0.1624	-0.0487	0.2112	0.0108	-0.0135	0.1435	-0.1814	-0.0731	-0.0217	-0.0785	0.4629	1.4538	0.1489	0.0487	0.2626	0.2734	-0.1868	-1.8111	-0.5577
0.1678	0.3871	0.0514	0.5252	0.1949	0.0162	0.2951	0.0541	0.0596	0.2436	-0.0948	0	0.0677	-0.0893	0.4413	1.3969	0.1489	0.1381	0.3195	0.3303	-0.1435	-1.7326	-0.5469
0.222	0.4034	0.0785	0.5387	0.2003	0.0541	0.3574	0.0866	0.1137	0.2843	-0.0569	0.0677	0.1381	-0.0866	0.4332	1.3428	0.1435	0.1814	0.3628	0.3574	-0.1029	-1.6297	-0.5198
0.2464	0.4061	0.092	0.5171	0.1787	0.0677	0.3682	0.1056	0.1462	0.3736	0.0081	0.1029	0.1868	-0.065	0.3925	1.2182	0.111	0.2328	0.4521	0.3898	-0.0758	-1.4565	-0.5008
0.2436	0.3953	0.0839	0.4954	0.1706	0.092	0.3925	0.1272	0.1895	0.3925	0.0271	0.1381	0.2409	-0.0487	0.3276	1.0558	0.0758	0.268	0.5035	0.3953	-0.0541	-1.2589	-0.4521
0.2003	0.3682	0.0704	0.4602	0.1191	0.0677	0.3682	0.1083	0.1868	0.3898	0.0379	0.1489	0.2545	-0.0244	0.2464	0.8853	0.0271	0.2843	0.5144	0.3817	-0.0704	-1.026	-0.3844
0.1435	0.2897	-0.019	0.3519	0.0623	0.046	0.2978	0.0731	0.1706	0.3574	0.0379	0.1733	0.2572	-0.0081	0.1354	0.6876	0.0027	0.3113	0.4954	0.3844	-0.0839	-0.7418	-0.287
0.046	0.1841	-0.111	0.2355	-0.0325	-0.0406	0.2518	-0.0135	0.1191	0.3086	0.0054	0.1164	0.2166	-0.019	-0.0162	0.4169	-0.0135	0.2978	0.4602	0.333	-0.1137	-0.4115	-0.2166
-0.0379	0.1299	-0.1733	0.1191	-0.1083	-0.0812	0.1895	-0.046	0.0975	0.2761	-0.0108	0.1083	0.2112	0.019	-0.1516	0.1651	-0.0433	0.3086	0.4088	0.3249	-0.1245	-0.0541	-0.1381
-0.176	0.0298	-0.2707	0.019	-0.2166	-0.1354	0.1272	-0.1191	0.046	0.203	-0.0596	0.0487	0.1814	0.0108	-0.2815	-0.0758	-0.0433	0.287	0.3519	0.2815	-0.1733	0.3303	-0.0785
-0.2897	-0.0623	-0.3655	-0.0677	-0.3059	-0.2112	0.0758	-0.1624	0.0298	0.1516	-0.0704	0.0406	0.1597	0.0108	-0.4359	-0.3574	-0.0514	0.3005	0.3113	0.2301	-0.1895	0.7391	-0.046
-0.4142	-0.1733	-0.4629	-0.1787	-0.3925	-0.2545	-0.0081	-0.222	-0.0298	0.1083	-0.1218	0	0.1164	0.0027	-0.5875	-0.6579	-0.0379	0.2626	0.2436	0.1624	-0.2491	1.1479	-0.0081
-0.5469	-0.2924	-0.5631	-0.2545	-0.5008	-0.3357	-0.0596	-0.3005	-0.065	0.0704	-0.1354	-0.0162	0.1083	0	-0.7147	-0.8636	-0.0244	0.2707	0.2057	0.1489	-0.2572	1.535	0.019
-0.6416	-0.3953	-0.6281	-0.3195	-0.5631	-0.3655	-0.111	-0.3357	-0.092	0.0081	-0.1435	-0.0487	0.0948	-0.0135	-0.823	-1.0937	-0.0027	0.2815	0.1327	0.1137	-0.2843	1.914	0.0569
-0.7255	-0.4954	-0.7012	-0.3438	-0.6362	-0.4061	-0.1299	-0.3709	-0.1056	-0.019	-0.1706	-0.0541	0.0866	-0.0325	-0.869	-1.2589	0.0108	0.2653	0.0893	0.065	-0.2491	2.228	0.0596
-0.7797	-0.5766	-0.7337	-0.4007	-0.6985	-0.4359	-0.157	-0.3817	-0.1191	-0.0325	-0.1624	-0.0677	0.0569	-0.0406	-0.9204	-1.3942	0.0541	0.2247	0.0433	0.0244	-0.2626	2.515	0.0596
-0.8149	-0.6633	-0.7634	-0.3953	-0.7553	-0.4386	-0.1868	-0.4196	-0.1083	-0.0541	-0.1435	-0.065	0.0541	-0.065	-0.9286	-1.4863	0.1002	0.2247	-0.0162	-0.0081	-0.2572	2.7207	0.0433
-0.8149	-0.7337	-0.7661	-0.3925	-0.7797	-0.4142	-0.1841	-0.4115	-0.0975	-0.0596	-0.1354	-0.0514	0.0975	-0.0839	-0.8582	-1.5242	0.1327	0.2409	-0.0596	-0.0596	-0.2355	2.8642	0.0244
-0.8203	-0.7797	-0.758	-0.3736	-0.7797	-0.4169	-0.1787	-0.4196	-0.0731	-0.0433	-0.0893	-0.0217	0.1245	-0.0948	-0.758	-1.489	0.1597	0.2409	-0.0948	-0.092	-0.1868	2.9211	0.0271
-0.8176	-0.8284	-0.7364	-0.3546	-0.8013	-0.3709	-0.1408	-0.379	-0.0352	-0.0054	-0.0596	0.0108	0.1841	-0.111	-0.6524	-1.4023	0.1814	0.2355	-0.1164	-0.1327	-0.1381	2.9319	0.0379
-0.7743	-0.8582	-0.7066	-0.2951	-0.7959	-0.3438	-0.1245	-0.3411	0.0081	0.0054	-0.0027	0.0325	0.203	-0.1137	-0.509	-1.2778	0.2085	0.2139	-0.1651	-0.1868	-0.0596	2.8615	0.0081
-0.7445	-0.8934	-0.6768	-0.2788	-0.7553	-0.3005	-0.1029	-0.333	0.0433	0.0271	0.0379	0.0704	0.2274	-0.1327	-0.3492	-1.137	0.2328	0.222	-0.203	-0.1922	-0.0081	2.7451	-0.0054
-0.7174	-0.8907	-0.6199	-0.2274	-0.7526	-0.2626	-0.0677	-0.268	0.0975	0.046	0.1029	0.0839	0.2626	-0.1327	-0.1922	-0.9069	0.2301	0.2166	-0.2409	-0.2057	0.0487	2.5881	-0.0162
-0.693	-0.8907	-0.5604	-0.1922	-0.7255	-0.2112	-0.065	-0.2382	0.1327	0.0487	0.1408	0.1218	0.2626	-0.1299	-0.0541	-0.7201	0.2274	0.1841	-0.2951	-0.2193	0.0893	2.4311	-0.0271
-0.6741	-0.8582	-0.5144	-0.2085	-0.6687	-0.1976	-0.0812	-0.203	0.1624	0.0541	0.1868	0.1543	0.2788	-0.1191	0.111	-0.509	0.2085	0.157	-0.3438	-0.2193	0.1462	2.2145	-0.0298
-0.6362	-0.8419	-0.4683	-0.1922	-0.6199	-0.1408	-0.0812	-0.1624	0.222	0.0569	0.2355	0.1787	0.3032	-0.1029	0.2436	-0.2653	0.1814	0.1381	-0.3655	-0.2003	0.1733	1.9952	-0.0217
-0.5902	-0.7851	-0.4359	-0.1814	-0.5712	-0.1164	-0.0839	-0.1272	0.2301	0.0081	0.2653	0.1949	0.268	-0.0893	0.3709	-0.0406	0.1678	0.1056	-0.425	-0.1949	0.1787	1.7651	-0.0271
-0.5658	-0.7391	-0.3871	-0.1841	-0.5225	-0.0433	-0.092	-0.0758	0.2599	0.0271	0.2815	0.2274	0.2843	-0.0839	0.4954	0.1868	0.1354	0.0812	-0.4548	-0.1841	0.2139	1.5566	-0.0081
-0.536	-0.6849	-0.3438	-0.1678	-0.4115	-0.0298	-0.0893	-0.0081	0.3059	0.0162	0.3574	0.2545	0.2924	-0.0731	0.5848	0.4088	0.1164	0.0812	-0.4683	-0.1462	0.2355	1.3617	0.0054
-0.4927	-0.5739	-0.2734	-0.157	-0.3005	0.0135	-0.1083	0.0623	0.3519	0.0054	0.3898	0.2815	0.2707	-0.0541	0.6633	0.6254	0.0704	0.0758	-0.4683	-0.1272	0.2491	1.1858	0.0271
-0.4521	-0.4683	-0.2057	-0.157	-0.1949	0.0704	-0.1299	0.1164	0.3925	-0.0027	0.4494	0.3303	0.2626	-0.019	0.7418	0.7959	0.0298	0.0785	-0.4521	-0.0731	0.2815	1.0531	0.0569
-0.3871	-0.3655	-0.1489	-0.1272	-0.0812	0.1164	-0.1083	0.1868	0.4304	-0.0135	0.4927	0.3709	0.2761	0.0108	0.7851	0.9908	-0.0162	0.0866	-0.4386	-0.0352	0.3303	0.9746	0.1137
-0.3628	-0.268	-0.0866	-0.1299	-0.0108	0.157	-0.1137	0.2436	0.4629	-0.0108	0.509	0.3574	0.2328	0.0162	0.804	1.1072	-0.0541	0.0623	-0.4196	-0.0298	0.3384	0.9611	0.1272
-0.333	-0.2057	-0.0758	-0.1462	0.0839	0.1841	-0.1543	0.2978	0.4981	-0.0162	0.5306	0.3925	0.2247	0.0352	0.8013	1.1506	-0.0893	0.0569	-0.3546	0.0081	0.3682	0.9854	0.1651
-0.3195	-0.1489	-0.046	-0.1651	0.1651	0.1922	-0.1381	0.3303	0.5252	-0.0217	0.5739	0.4196	0.2112	0.0514	0.7797	1.2101	-0.1245	0.1002	-0.3357	0.0379	0.3763	1.0396	0.1976
-0.3113	-0.092	-0.019	-0.2085	0.222	0.2247	-0.1435	0.379	0.5441	-0.0325	0.582	0.4494	0.1949	0.0758	0.7201	1.1641	-0.1543	0.1029	-0.3086	0.0352	0.3817	1.1479	0.222
-0.3411	-0.065	-0.0217	-0.2166	0.268	0.2057	-0.1895	0.3844	0.5306	-0.0541	0.6037	0.4304	0.1462	0.0596	0.6281	1.0856	-0.157	0.1029	-0.2761	0.0406	0.3736	1.2832	0.2464
-0.3871	-0.0541	-0.0244	-0.2707	0.3086	0.1922	-0.1949	0.4169	0.5198	-0.0839	0.5658	0.4223	0.1056	0.065	0.5577	0.9854	-0.1706	0.0866	-0.2518	0.0569	0.3655	1.4159	0.2409
-0.4196	-0.0623	-0.0487	-0.3086	0.3005	0.1787	-0.2301	0.425	0.5035	-0.1083	0.5793	0.4007	0.0704	0.0812	0.4575	0.8446	-0.1814	0.0812	-0.2247	0.0758	0.3682	1.5566	0.2464
-0.4819	-0.0677	-0.0893	-0.3628	0.3059	0.1272	-0.2355	0.4007	0.4765	-0.1435	0.5523	0.4088	0.0108	0.0812	0.3871	0.6633	-0.1868	0.0677	-0.2112	0.0866	0.3384	1.6785	0.2382
-0.5387	-0.1137	-0.1462	-0.4548	0.287	0.092	-0.2924	0.3411	0.4277	-0.176	0.4846	0.3546	-0.0487	0.0839	0.287	0.4846	-0.1814	0.0623	-0.2247	0.111	0.3113	1.7705	0.268
-0.6091	-0.1381	-0.1922	-0.5252	0.2464	0.0352	-0.333	0.314	0.3844	-0.2274	0.4277	0.3195	-0.1164	0.0731	0.1976	0.2761	-0.1733	0.0081	-0.2166	0.1002	0.2545	1.8544	0.2815
-0.6795	-0.203	-0.2599	-0.5929	0.1922	-0.0271	-0.3682	0.2572	0.3249	-0.2572	0.3709	0.2734	-0.1895	0.0623	0.1137	0.0731	-0.1543	-0.0379	-0.1868	0.0704	0.203	1.868	0.287
-0.7228	-0.2247	-0.3032	-0.6064	0.1543	-0.0785	-0.4142	0.2085	0.287	-0.2924	0.333	0.2328	-0.2653	0.0623	0.065	-0.1218	-0.1462	-0.0704	-0.2301	0.0623	0.1381	1.8626	0.3005
-0.777	-0.2599	-0.3601	-0.6524	0.1056	-0.1245	-0.444	0.1543	0.2328	-0.3519	0.2626	0.203	-0.3113	0.0569	0.0298	-0.2815	-0.1299	-0.1029	-0.2166	0.0325	0.0839	1.8057	0.3032
-0.7905	-0.3167	-0.4061	-0.6199	0.0541	-0.176	-0.4413	0.0975	0.1597	-0.3817	0.1949	0.1462	-0.3817	0.0406	0.019	-0.4359	-0.111	-0.1651	-0.2734	0.0217	0.0217	1.6947	0.3113
-0.869	-0.3871	-0.4765	-0.5793	-0.0162	-0.2247	-0.5008	0.0162	0.1083	-0.4575	0.1002	0.0704	-0.4602	0.0298	-0.0027	-0.555	-0.0758	-0.2112	-0.2978	-0.0325	-0.0514	1.5566	0.287
-0.8853	-0.4223	-0.5225	-0.5496	-0.0487	-0.287	-0.4927	-0.0487	0.0569	-0.5008	0.046	0.0244	-0.509	0.0162	0.0054	-0.6281	-0.0487	-0.2518	-0.3303	-0.0596	-0.1164	1.3834	0.2518
-0.915	-0.4846	-0.5793	-0.5117	-0.1029	-0.3167	-0.5117	-0.1299	-0.019	-0.5387	-0.0298	-0.0487	-0.5929	0.0054	0.0027	-0.6822	-0.0352	-0.3195	-0.3574	-0.1137	-0.1814	1.2155	0.2328
-0.9286	-0.5414	-0.6199	-0.4629	-0.111	-0.3546	-0.5252	-0.1597	-0.0785	-0.601	-0.0866	-0.0839	-0.6443	0	0.0081	-0.6849	-0.0298	-0.3574	-0.379	-0.1381	-0.2355	1.0369	0.2382
-0.9421	-0.5793	-0.6497	-0.4223	-0.1462	-0.3871	-0.5631	-0.1814	-0.1435	-0.647	-0.1543	-0.1272	-0.693	-0.0027	0.0162	-0.6687	-0.0162	-0.4115	-0.3898	-0.1949	-0.287	0.8555	0.1922
-0.9313	-0.5929	-0.6876	-0.4088	-0.1516	-0.4088	-0.5766	-0.2382	-0.1841	-0.693	-0.2003	-0.2003	-0.7526	-0.0054	0.0081	-0.6606	-0.0217	-0.444	-0.3925	-0.2193	-0.314	0.6849	0.1624
-0.9611	-0.6335	-0.7255	-0.4061	-0.1327	-0.4196	-0.6227	-0.2599	-0.2274	-0.7364	-0.2247	-0.2464	-0.7824	0.0108	-0.0162	-0.6281	-0.0352	-0.4765	-0.3844	-0.2436	-0.3384	0.536	0.1895
-0.9584	-0.6308	-0.7607	-0.4304	-0.1218	-0.4386	-0.6633	-0.268	-0.2843	-0.7851	-0.2328	-0.2572	-0.8257	0.0081	-0.0677	-0.6254	-0.0623	-0.5225	-0.3953	-0.2734	-0.3628	0.4304	0.2003
-0.9665	-0.6335	-0.7743	-0.4413	-0.1029	-0.4548	-0.7066	-0.2518	-0.3086	-0.8338	-0.2599	-0.2951	-0.8501	0.0162	-0.1191	-0.5875	-0.0785	-0.5469	-0.3953	-0.3303	-0.3492	0.3411	0.2518
-1.0071	-0.6389	-0.804	-0.4738	-0.0893	-0.4494	-0.7607	-0.268	-0.3113	-0.8446	-0.2355	-0.2951	-0.8934	0.0379	-0.1841	-0.582	-0.1056	-0.5685	-0.4115	-0.3898	-0.3438	0.287	0.268
-0.9448	-0.6145	-0.7878	-0.4602	-0.0325	-0.4277	-0.7688	-0.2355	-0.3249	-0.8284	-0.2247	-0.2815	-0.8636	0.0487	-0.2464	-0.5766	-0.1354	-0.5712	-0.3844	-0.4277	-0.3086	0.2707	0.314
-0.9584	-0.5793	-0.7716	-0.4467	-0.0271	-0.4061	-0.7797	-0.2193	-0.3059	-0.8419	-0.2085	-0.3086	-0.9042	0.046	-0.3059	-0.5333	-0.1245	-0.6037	-0.3871	-0.4792	-0.2788	0.2653	0.3411
-0.934	-0.5604	-0.7445	-0.4359	0.019	-0.3844	-0.7526	-0.1922	-0.2924	-0.7797	-0.176	-0.268	-0.8446	0.0379	-0.4034	-0.5712	-0.0975	-0.5766	-0.3763	-0.5144	-0.2301	0.3249	0.3601
-0.8961	-0.5144	-0.7228	-0.3871	0.0758	-0.3384	-0.7066	-0.1408	-0.2815	-0.7337	-0.1354	-0.2518	-0.8176	0.0271	-0.4548	-0.601	-0.0731	-0.5604	-0.3519	-0.5469	-0.1922	0.3844	0.3736
-0.8446	-0.4521	-0.6524	-0.3411	0.1354	-0.2707	-0.6497	-0.1056	-0.2193	-0.6741	-0.1002	-0.2057	-0.758	0.0081	-0.5441	-0.6551	-0.0352	-0.5333	-0.3032	-0.5577	-0.0975	0.4738	0.3384
-0.8446	-0.4304	-0.6281	-0.3059	0.1462	-0.2518	-0.6091	-0.0839	-0.1895	-0.6227	-0.0541	-0.1895	-0.7309	-0.019	-0.6281	-0.7309	0.0271	-0.5117	-0.2599	-0.5902	-0.0677	0.6037	0.3086
-0.7634	-0.3682	-0.536	-0.2491	0.1814	-0.1895	-0.5387	-0.046	-0.1462	-0.5198	-0.0108	-0.1624	-0.6714	-0.0569	-0.7039	-0.7661	0.0893	-0.5198	-0.1814	-0.5929	-0.0054	0.7553	0.2599
-0.7337	-0.3465	-0.5117	-0.2166	0.2003	-0.1381	-0.4738	-0.0487	-0.1137	-0.4711	0.0027	-0.1381	-0.6524	-0.0975	-0.804	-0.8474	0.1435	-0.4873	-0.1272	-0.5929	0.0081	0.9286	0.2139
-0.7066	-0.3438	-0.4548	-0.1868	0.2057	-0.1137	-0.4494	-0.0406	-0.0948	-0.425	0.0244	-0.1354	-0.5956	-0.1137	-0.8825	-0.9123	0.1976	-0.4765	-0.0758	-0.5875	0.0541	1.1045	0.1733
-0.6822	-0.3167	-0.4304	-0.1949	0.1868	-0.0758	-0.4061	-0.0162	-0.0866	-0.3601	0.0298	-0.1164	-0.5604	-0.1435	-0.9313	-0.9827	0.2382	-0.4656	-0.0162	-0.5766	0.0812	1.2886	0.1002
-0.6714	-0.3113	-0.3898	-0.1678	0.1787	-0.0623	-0.3655	-0.0352	-0.0731	-0.3059	0.046	-0.1056	-0.5333	-0.1272	-0.9746	-1.0342	0.2301	-0.4277	0.0623	-0.5766	0.1083	1.4727	0.0433
-0.6497	-0.3086	-0.3655	-0.1895	0.1733	-0.046	-0.3574	-0.0298	-0.0514	-0.2626	0.0433	-0.111	-0.5225	-0.1245	-0.98	-1.0558	0.2301	-0.4386	0.1083	-0.5875	0.1137	1.6595	-0.0108
-0.6741	-0.3249	-0.3601	-0.2382	0.1327	-0.019	-0.3384	-0.0623	-0.0704	-0.2328	0.0541	-0.0866	-0.4765	-0.1029	-0.9746	-1.0585	0.1895	-0.3844	0.1327	-0.5523	0.1191	1.8409	-0.0352
-0.7066	-0.3736	-0.3628	-0.287	0.065	-0.0433	-0.3574	-0.111	-0.0785	-0.2436	0.0271	-0.1137	-0.4873	-0.092	-0.9502	-1.045	0.1489	-0.4142	0.111	-0.555	0.0975	1.9898	-0.0677
-0.7174	-0.3817	-0.3628	-0.3059	0.0325	-0.0433	-0.3492	-0.1354	-0.1029	-0.203	0.0027	-0.1245	-0.4656	-0.0487	-0.8528	-0.9638	0.0704	-0.3925	0.1029	-0.5252	0.0812	2.1387	-0.0731
-0.7364	-0.4359	-0.3655	-0.3546	-0.0406	-0.0731	-0.3871	-0.1678	-0.1029	-0.203	0.0027	-0.1299	-0.4683	-0.0027	-0.7905	-0.8825	-0.0217	-0.3817	0.0785	-0.5035	0.0541	2.2741	-0.0785
-0.7932	-0.4765	-0.3682	-0.3871	-0.0975	-0.0839	-0.4007	-0.2193	-0.1381	-0.1922	-0.0487	-0.1597	-0.4765	0.0352	-0.647	-0.7418	-0.0975	-0.3763	0.0379	-0.49	0.0352	2.3769	-0.0623
-0.8095	-0.5035	-0.3844	-0.4413	-0.1516	-0.1002	-0.4223	-0.2626	-0.1543	-0.2301	-0.0596	-0.176	-0.4873	0.0812	-0.5225	-0.6091	-0.1814	-0.3736	-0.0352	-0.4629	-0.0325	2.4608	-0.065
-0.8663	-0.5414	-0.4034	-0.49	-0.2057	-0.1191	-0.4467	-0.3195	-0.203	-0.2409	-0.1245	-0.2193	-0.4954	0.111	-0.379	-0.4169	-0.2464	-0.3682	-0.1164	-0.4602	-0.0812	2.5312	-0.0596
-0.9123	-0.5658	-0.4304	-0.4954	-0.2436	-0.1408	-0.4494	-0.3411	-0.203	-0.2436	-0.1516	-0.2166	-0.4981	0.1462	-0.203	-0.2274	-0.3222	-0.3492	-0.1787	-0.4277	-0.1002	2.5773	-0.0379
-0.9665	-0.6227	-0.4738	-0.5225	-0.3249	-0.1624	-0.4575	-0.4034	-0.2518	-0.2653	-0.1624	-0.2436	-0.5252	0.1733	-0.0325	-0.0514	-0.3682	-0.3655	-0.2815	-0.4277	-0.1597	2.5989	-0.0433
-0.9963	-0.6335	-0.4819	-0.4981	-0.3628	-0.1841	-0.4521	-0.4088	-0.2382	-0.2734	-0.203	-0.2355	-0.509	0.2112	0.1733	0.1489	-0.4196	-0.3465	-0.3222	-0.3925	-0.203	2.5989	-0.0135
-0.9935	-0.6714	-0.4981	-0.5062	-0.3871	-0.1868	-0.4575	-0.4413	-0.2545	-0.2491	-0.1841	-0.222	-0.5035	0.222	0.4034	0.379	-0.4467	-0.3167	-0.3709	-0.3655	-0.2112	2.58	-0.0081
-1.0314	-0.6687	-0.5008	-0.4927	-0.4223	-0.1814	-0.4521	-0.4683	-0.2707	-0.2707	-0.2085	-0.2328	-0.5252	0.2193	0.6172	0.582	-0.4656	-0.3113	-0.4223	-0.3655	-0.2761	2.561	-0.0054
-1.0098	-0.6497	-0.4765	-0.4765	-0.398	-0.176	-0.4007	-0.4629	-0.2436	-0.2491	-0.1841	-0.2193	-0.4927	0.222	0.8663	0.8203	-0.4738	-0.2734	-0.4386	-0.3005	-0.268	2.5258	0.0027
-0.9908	-0.6254	-0.4711	-0.4602	-0.4061	-0.1543	-0.379	-0.4521	-0.2355	-0.2491	-0.203	-0.2193	-0.5008	0.222	1.1208	1.0612	-0.4629	-0.2626	-0.4629	-0.2843	-0.3303	2.469	0.0325
-0.9665	-0.582	-0.4359	-0.4304	-0.3546	-0.1435	-0.3763	-0.444	-0.222	-0.2464	-0.1976	-0.2085	-0.5008	0.203	1.3807	1.2589	-0.4386	-0.2436	-0.4819	-0.2301	-0.3276	2.3905	0.0108
-0.8853	-0.4954	-0.3844	-0.4115	-0.3195	-0.0893	-0.3357	-0.4088	-0.1841	-0.2274	-0.2139	-0.1922	-0.4738	0.2057	1.6189	1.5079	-0.4332	-0.2301	-0.4413	-0.203	-0.3438	2.2903	0.0108
-0.8149	-0.425	-0.3222	-0.398	-0.268	-0.0677	-0.3032	-0.3871	-0.1841	-0.2328	-0.1841	-0.1787	-0.4792	0.203	1.8219	1.692	-0.4115	-0.203	-0.4304	-0.1191	-0.3574	2.1928	-0.0108
-0.7201	-0.3574	-0.2761	-0.3519	-0.222	-0.0162	-0.2843	-0.3492	-0.1489	-0.2355	-0.1922	-0.1706	-0.4792	0.203	1.979	1.8842	-0.4007	-0.1895	-0.4169	-0.0975	-0.379	2.0764	-0.0108
-0.6199	-0.2518	-0.1787	-0.3113	-0.1624	0.0271	-0.268	-0.3249	-0.1299	-0.2139	-0.203	-0.1624	-0.4575	0.2003	2.136	2.0656	-0.3925	-0.157	-0.4277	-0.0487	-0.4196	1.9302	-0.0162
-0.4873	-0.1868	-0.1299	-0.2788	-0.1137	0.0866	-0.2464	-0.2843	-0.1272	-0.2247	-0.222	-0.176	-0.4846	0.1868	2.2443	2.201	-0.379	-0.1462	-0.3953	-0.0108	-0.4738	1.8057	-0.0027
-0.4034	-0.092	-0.0514	-0.2382	-0.065	0.1164	-0.2464	-0.2897	-0.1164	-0.2409	-0.2518	-0.1922	-0.509	0.1706	2.3201	2.2876	-0.3655	-0.157	-0.4007	0.0406	-0.5252	1.6703	-0.0108
-0.3249	-0.0325	0.0135	-0.2112	-0.0217	0.1489	-0.2653	-0.2978	-0.1137	-0.2599	-0.2951	-0.222	-0.5225	0.1624	2.339	2.3634	-0.3411	-0.157	-0.4277	0.0487	-0.582	1.5621	0.0108
-0.2409	0.0081	0.0406	-0.1841	0.0135	0.1624	-0.2951	-0.3249	-0.1489	-0.2978	-0.3492	-0.2924	-0.5739	0.1516	2.2984	2.3823	-0.3167	-0.1678	-0.4467	0.0677	-0.647	1.4565	0.0271
-0.1733	0.0812	0.0975	-0.1841	0.0406	0.1733	-0.3113	-0.3249	-0.1841	-0.3492	-0.3898	-0.3546	-0.6633	0.1435	2.228	2.3688	-0.2951	-0.2139	-0.4873	0.0948	-0.7093	1.3617	0.0433
-0.1327	0.1191	0.1218	-0.2085	0.046	0.157	-0.3465	-0.3601	-0.2355	-0.4061	-0.4738	-0.4304	-0.7309	0.1218	2.1441	2.3092	-0.2653	-0.2436	-0.5414	0.0514	-0.8149	1.3022	0.0758
-0.1408	0.111	0.0731	-0.2761	0.019	0.092	-0.4467	-0.4304	-0.3438	-0.5171	-0.5793	-0.582	-0.8555	0.1218	2.0331	2.2064	-0.2464	-0.3167	-0.6281	0.0379	-0.9015	1.2318	0.0948
-0.157	0.065	0.0135	-0.398	-0.0135	0.0244	-0.555	-0.5171	-0.4738	-0.6687	-0.7337	-0.7499	-1.0179	0.1029	1.9005	2.0927	-0.2139	-0.3953	-0.6985	-0.0352	-1.0044	1.1668	0.1056
-0.2139	0.0379	-0.0514	-0.509	-0.0866	-0.0785	-0.693	-0.6199	-0.6145	-0.8095	-0.8825	-0.9096	-1.1668	0.092	1.7326	1.9573	-0.1976	-0.509	-0.7553	-0.0866	-1.1018	1.1343	0.1381
-0.2978	-0.0569	-0.1543	-0.6551	-0.1949	-0.222	-0.8365	-0.7553	-0.7986	-1.0017	-1.0369	-1.1072	-1.3536	0.0812	1.5458	1.7922	-0.1787	-0.6389	-0.8555	-0.1949	-1.2264	1.1018	0.1489
-0.4223	-0.1706	-0.2843	-0.8095	-0.3032	-0.3601	-1.0098	-0.8825	-0.9584	-1.1722	-1.2047	-1.3292	-1.5458	0.0866	1.3888	1.6135	-0.176	-0.7634	-0.9556	-0.2897	-1.3401	1.0748	0.1706
-0.5577	-0.3655	-0.4656	-1.0179	-0.4792	-0.5469	-1.2209	-1.0883	-1.2209	-1.3834	-1.4213	-1.5864	-1.7732	0.0731	1.1993	1.4294	-0.1651	-0.9313	-1.091	-0.4061	-1.4863	1.0666	0.1435
-0.6903	-0.5171	-0.6389	-1.1885	-0.6687	-0.7634	-1.4132	-1.2778	-1.4511	-1.6189	-1.6568	-1.8219	-1.9871	0.0866	1.0071	1.2507	-0.1787	-1.0802	-1.1966	-0.5035	-1.6541	1.0179	0.1408
-0.8771	-0.7282	-0.8392	-1.3726	-0.8934	-0.9746	-1.6243	-1.4917	-1.7001	-1.8219	-1.8707	-2.1035	-2.228	0.0948	0.7878	1.0585	-0.2003	-1.2724	-1.3238	-0.6254	-1.8219	0.999	0.1191
-1.0693	-0.9773	-1.0612	-1.5296	-1.1235	-1.2264	-1.8192	-1.7326	-1.9736	-2.0575	-2.0954	-2.3634	-2.4554	0.0975	0.5739	0.8555	-0.2355	-1.4538	-1.4619	-0.7634	-1.9871	0.9529	0.0866
-1.2832	-1.2237	-1.3076	-1.711	-1.3617	-1.4592	-2.0358	-1.9681	-2.228	-2.2984	-2.3363	-2.626	-2.7018	0.1299	0.3682	0.693	-0.2707	-1.6081	-1.5918	-0.8825	-2.1522	0.888	0.0271
-1.4808	-1.4808	-1.5377	-1.8409	-1.6108	-1.6839	-2.2091	-2.1901	-2.4825	-2.515	-2.5258	-2.8859	-2.8723	0.1543	0.1543	0.49	-0.3086	-1.7543	-1.7434	-0.98	-2.3092	0.8203	-0.0298
-1.692	-1.7516	-1.784	-2.0169	-1.868	-1.9357	-2.4094	-2.4257	-2.737	-2.7099	-2.7586	-3.1133	-3.0808	0.1597	-0.0271	0.3086	-0.3384	-1.8761	-1.868	-1.0991	-2.4365	0.7174	-0.0893
-1.9221	-2.0304	-2.0223	-2.1279	-2.1143	-2.1495	-2.5935	-2.6368	-2.9806	-2.9021	-2.9238	-3.3272	-3.2324	0.1949	-0.2247	0.1299	-0.398	-1.9681	-2.006	-1.202	-2.5339	0.582	-0.1543
-2.1631	-2.2768	-2.2632	-2.2903	-2.3634	-2.3715	-2.7505	-2.8534	-3.1756	-3.0591	-3.0808	-3.4842	-3.3596	0.2193	-0.4034	-0.0352	-0.4359	-2.0439	-2.1712	-1.3238	-2.6125	0.425	-0.2301
-2.385	-2.4879	-2.5015	-2.4446	-2.5908	-2.5746	-2.9238	-3.0077	-3.3786	-3.2324	-3.2026	-3.6358	-3.4544	0.2409	-0.5766	-0.1949	-0.4846	-2.0873	-2.3255	-1.4321	-2.6612	0.2409	-0.268
-2.6043	-2.718	-2.7343	-2.5637	-2.8101	-2.7938	-3.0808	-3.1539	-3.5383	-3.3678	-3.2838	-3.7414	-3.5275	0.2518	-0.7309	-0.3574	-0.5144	-2.1306	-2.5015	-1.5458	-2.6774	0.0217	-0.3249
-2.829	-2.9319	-2.9779	-2.7099	-2.9725	-2.9644	-3.227	-3.2784	-3.6656	-3.4788	-3.3082	-3.8063	-3.5708	0.2815	-0.8446	-0.509	-0.5658	-2.1279	-2.6531	-1.5891	-2.6558	-0.2139	-0.3465
-3.0321	-3.0943	-3.1728	-2.8344	-3.1431	-3.1025	-3.3596	-3.3732	-3.7847	-3.5789	-3.3217	-3.8524	-3.5898	0.3005	-0.9692	-0.6714	-0.5983	-2.1035	-2.8182	-1.7001	-2.6179	-0.4629	-0.3628
-3.2703	-3.2811	-3.3813	-2.959	-3.2893	-3.2432	-3.4923	-3.4625	-3.8632	-3.6683	-3.2974	-3.8388	-3.5816	0.3059	-1.0883	-0.8582	-0.6254	-2.0466	-2.9617	-1.7678	-2.561	-0.693	-0.3817
-3.4463	-3.4517	-3.5925	-3.1133	-3.4436	-3.3786	-3.5979	-3.5356	-3.9254	-3.7278	-3.2514	-3.8226	-3.5221	0.3113	-1.1966	-1.045	-0.6497	-1.979	-3.0943	-1.8382	-2.4825	-0.9259	-0.3925
-3.6628	-3.6114	-3.8009	-3.2324	-3.5762	-3.5221	-3.7332	-3.5925	-3.9769	-3.7847	-3.1837	-3.7766	-3.4652	0.333	-1.2968	-1.2318	-0.6849	-1.8842	-3.1512	-1.8842	-2.3878	-1.1181	-0.3709
-3.8605	-3.7766	-4.0094	-3.3975	-3.7062	-3.6547	-3.828	-3.6412	-4.0121	-3.8334	-3.0997	-3.6926	-3.3867	0.3492	-1.4348	-1.4565	-0.7012	-1.7895	-3.2107	-1.9384	-2.2876	-1.2832	-0.3763
-4.0689	-3.9742	-4.2368	-3.5843	-3.8659	-3.7982	-3.9661	-3.7007	-4.0635	-3.8903	-3.0294	-3.6087	-3.2974	0.3628	-1.5648	-1.6649	-0.7228	-1.7137	-3.2324	-1.9871	-2.201	-1.3996	-0.3628
-4.2557	-4.1339	-4.4534	-3.7522	-4.0012	-3.9146	-4.0771	-3.7657	-4.0933	-3.9309	-2.9563	-3.514	-3.2162	0.3682	-1.7461	-1.9032	-0.7553	-1.6081	-3.2378	-2.0656	-2.1062	-1.47	-0.3303
-4.4913	-4.3261	-4.6618	-3.9173	-4.1529	-4.0581	-4.2151	-3.8117	-4.1068	-3.9769	-2.8669	-3.4192	-3.1079	0.3844	-1.9492	-2.1712	-0.7634	-1.5106	-3.2297	-2.1197	-2.0115	-1.4808	-0.3086
-4.6916	-4.5021	-4.8973	-4.1231	-4.3099	-4.1935	-4.3396	-3.874	-4.1501	-4.0229	-2.7857	-3.3326	-3.0348	0.3817	-2.182	-2.4744	-0.7797	-1.424	-3.2053	-2.1874	-1.9059	-1.4321	-0.2788
-4.8784	-4.6672	-5.076	-4.3072	-4.4209	-4.3153	-4.4561	-3.9173	-4.1583	-4.05	-2.6801	-3.2351	-2.913	0.3871	-2.4663	-2.7613	-0.7851	-1.2913	-3.1566	-2.2605	-1.8111	-1.3265	-0.2409
-5.0408	-4.8161	-5.2303	-4.4804	-4.5237	-4.4046	-4.5427	-3.9444	-4.1474	-4.0419	-2.561	-3.1133	-2.7857	0.3898	-2.7316	-3.0267	-0.7851	-1.1668	-3.1349	-2.3201	-1.6974	-1.1993	-0.2193
-5.2114	-4.9461	-5.3982	-4.6401	-4.6022	-4.4831	-4.6239	-3.9579	-4.1122	-4.0419	-2.4392	-2.959	-2.6504	0.3817	-3.0104	-3.2784	-0.7743	-1.0233	-3.0889	-2.3634	-1.6054	-1.0287	-0.1949
-5.3792	-5.0868	-5.5525	-4.7782	-4.6916	-4.5562	-4.6997	-3.9688	-4.1014	-4.0256	-2.312	-2.8101	-2.5042	0.3709	-3.2947	-3.5383	-0.7499	-0.8771	-3.0483	-2.4338	-1.4511	-0.8419	-0.1543
-5.4875	-5.1626	-5.6418	-4.8838	-4.7105	-4.5995	-4.7295	-3.9227	-4.0391	-3.9661	-2.1712	-2.6395	-2.3255	0.3682	-3.5898	-3.7711	-0.7337	-0.7174	-2.9888	-2.4311	-1.2968	-0.5956	-0.1489
-5.5931	-5.2303	-5.7257	-4.9704	-4.7403	-4.6022	-4.762	-3.8713	-3.9471	-3.8984	-2.0006	-2.45	-2.1739	0.3438	-3.8875	-3.9579	-0.6958	-0.5604	-2.8859	-2.4257	-1.1262	-0.3411	-0.1381
-5.6933	-5.3115	-5.8178	-5.0895	-4.7457	-4.6293	-4.8107	-3.8442	-3.8794	-3.8469	-1.8436	-2.312	-2.025	0.314	-4.207	-4.1474	-0.6443	-0.3763	-2.7992	-2.4311	-0.9719	-0.0812	-0.1191
-5.7745	-5.3603	-5.8611	-5.1816	-4.762	-4.6374	-4.8188	-3.8063	-3.7657	-3.7441	-1.6812	-2.136	-1.8626	0.2734	-4.5048	-4.3369	-0.5658	-0.2382	-2.7072	-2.404	-0.8176	0.2193	-0.1299
-5.8313	-5.3765	-5.8773	-5.1951	-4.7268	-4.6131	-4.7918	-3.7386	-3.6845	-3.6412	-1.5296	-1.9627	-1.6758	0.2436	-4.7945	-4.4858	-0.5008	-0.0677	-2.58	-2.3444	-0.647	0.5117	-0.1299
-5.8773	-5.3819	-5.853	-5.2087	-4.7214	-4.5643	-4.7566	-3.671	-3.5925	-3.5356	-1.3698	-1.8165	-1.5269	0.1976	-5.0679	-4.605	-0.4034	0.0812	-2.4284	-2.293	-0.5198	0.804	-0.1381
-5.8882	-5.3928	-5.8638	-5.233	-4.6835	-4.5075	-4.7241	-3.5952	-3.4842	-3.4652	-1.2345	-1.6703	-1.3671	0.1381	-5.3169	-4.7105	-0.2924	0.2057	-2.3147	-2.2443	-0.3763	1.0991	-0.1678
-5.8773	-5.3549	-5.7745	-5.1762	-4.6293	-4.4344	-4.6699	-3.5329	-3.3705	-3.3407	-1.1154	-1.5214	-1.2507	0.0785	-5.5687	-4.8215	-0.1733	0.3574	-2.1847	-2.1603	-0.2355	1.405	-0.2003
-5.8476	-5.3251	-5.7149	-5.1112	-4.5833	-4.3478	-4.6239	-3.4571	-3.2757	-3.2405	-0.9719	-1.405	-1.1451	0.0135	-5.7745	-4.9109	-0.0487	0.4413	-2.0548	-2.1224	-0.111	1.6947	-0.2166
-5.7853	-5.2574	-5.6066	-5.03	-4.4967	-4.2855	-4.54	-3.3948	-3.1674	-3.1756	-0.8744	-1.2913	-1.0612	-0.0541	-5.9342	-4.965	0.0812	0.5144	-1.9357	-2.0656	0.0108	1.9492	-0.2274
-5.7095	-5.1735	-5.4983	-4.919	-4.4317	-4.1989	-4.4344	-3.3055	-3.0781	-3.0997	-0.7716	-1.2182	-0.999	-0.1137	-6.0479	-5.0137	0.2112	0.5441	-1.803	-2.0385	0.1354	2.1847	-0.2193
-5.6418	-5.1031	-5.4036	-4.8405	-4.3721	-4.1258	-4.3938	-3.2405	-3.0131	-3.0646	-0.6822	-1.1587	-0.9719	-0.1868	-6.167	-5.0516	0.3519	0.5469	-1.6785	-2.0142	0.2464	2.3769	-0.2301
-5.5687	-5.0056	-5.279	-4.7187	-4.2882	-4.0391	-4.3126	-3.1647	-2.9184	-2.9888	-0.6227	-1.0937	-0.9611	-0.2409	-6.2239	-5.0327	0.4792	0.5225	-1.5702	-2.0033	0.3465	2.515	-0.2572
-5.4821	-4.9055	-5.1464	-4.6266	-4.1989	-3.9227	-4.2774	-3.1079	-2.8696	-2.9563	-0.5252	-1.0612	-0.9746	-0.3005	-6.213	-4.9975	0.5875	0.4575	-1.4538	-2.0115	0.4223	2.5908	-0.2382
-5.3928	-4.808	-5.0327	-4.5319	-4.1339	-3.8632	-4.2043	-3.0267	-2.8074	-2.9346	-0.49	-1.0369	-0.9881	-0.3574	-6.1887	-4.9244	0.6903	0.398	-1.3347	-2.0006	0.5252	2.5989	-0.2545
-5.2899	-4.7241	-4.9082	-4.4209	-4.0527	-3.7793	-4.1177	-2.959	-2.7451	-2.8994	-0.4169	-1.0314	-1.0152	-0.398	-6.1129	-4.8405	0.758	0.3059	-1.2209	-2.0331	0.6064	2.5502	-0.2545
-5.141	-4.5941	-4.7484	-4.272	-3.9579	-3.6547	-4.0283	-2.9075	-2.6855	-2.8723	-0.3709	-1.0071	-1.0531	-0.4386	-5.9992	-4.6916	0.8392	0.2247	-1.1235	-2.0385	0.6849	2.4175	-0.2599
-5.0029	-4.4858	-4.5806	-4.115	-3.8821	-3.5383	-3.8875	-2.8182	-2.626	-2.7938	-0.3411	-1.0044	-1.1072	-0.4738	-5.8584	-4.5075	0.9042	0.1002	-1.0314	-2.0521	0.7526	2.2362	-0.2978
-4.8378	-4.3775	-4.4236	-3.9498	-3.7955	-3.4273	-3.7657	-2.7478	-2.5664	-2.7451	-0.2761	-1.0098	-1.137	-0.4846	-5.6824	-4.3072	0.9448	-0.0271	-0.9827	-2.0494	0.8122	2.025	-0.3411
-4.6645	-4.2016	-4.2287	-3.7495	-3.6466	-3.2622	-3.606	-2.6449	-2.469	-2.672	-0.2274	-0.9827	-1.1749	-0.5062	-5.4631	-4.0771	0.9881	-0.1299	-0.888	-2.0494	0.8636	1.7813	-0.3601
-4.4398	-4.0202	-4.004	-3.514	-3.5031	-3.1106	-3.4246	-2.5367	-2.3715	-2.5908	-0.1949	-0.9719	-1.2155	-0.5035	-5.233	-3.828	0.9935	-0.2599	-0.8257	-2.0385	0.9204	1.5269	-0.3709
-4.2232	-3.8388	-3.8145	-3.3326	-3.3515	-2.9752	-3.292	-2.4446	-2.3065	-2.515	-0.1787	-0.9746	-1.2697	-0.509	-4.965	-3.5627	1.0098	-0.3817	-0.758	-2.006	0.934	1.267	-0.3871
-3.9958	-3.5843	-3.5654	-3.1377	-3.1701	-2.783	-3.1052	-2.312	-2.2091	-2.4365	-0.1489	-0.9827	-1.2968	-0.5035	-4.6347	-3.2811	0.9881	-0.5062	-0.6958	-1.9384	0.9475	1.0504	-0.3925
-3.7224	-3.384	-3.3244	-2.9157	-3.0077	-2.5881	-2.9346	-2.1901	-2.1035	-2.3526	-0.1191	-0.9719	-1.3374	-0.5008	-4.3072	-2.986	0.9638	-0.6172	-0.6199	-1.8815	0.9556	0.8501	-0.3384
-3.4571	-3.1512	-3.0564	-2.7343	-2.8101	-2.4148	-2.7641	-2.0818	-1.9871	-2.2741	-0.1083	-0.9773	-1.3861	-0.4765	-3.9417	-2.6828	0.9232	-0.7364	-0.582	-1.803	0.9529	0.6903	-0.333
-3.1864	-2.9102	-2.7884	-2.5123	-2.607	-2.2226	-2.6016	-1.9465	-1.8842	-2.1983	-0.1327	-0.9665	-1.4429	-0.4548	-3.587	-2.3688	0.8798	-0.8663	-0.5469	-1.7137	0.9123	0.6118	-0.2924
-2.9157	-2.6558	-2.5069	-2.2984	-2.4013	-1.9844	-2.4121	-1.8111	-1.7407	-2.0602	-0.1218	-0.9638	-1.47	-0.425	-3.1864	-2.0439	0.8311	-0.9475	-0.509	-1.5783	0.8419	0.5739	-0.2491
-2.6125	-2.4148	-2.2226	-2.1252	-2.1983	-1.7759	-2.2443	-1.6974	-1.6352	-1.9871	-0.1218	-0.9584	-1.5052	-0.3898	-2.8344	-1.757	0.7634	-1.0748	-0.4954	-1.4944	0.7905	0.6145	-0.1976
-2.3417	-2.1739	-1.9627	-1.9329	-1.9979	-1.5675	-2.0954	-1.5648	-1.5106	-1.8653	-0.1543	-0.9665	-1.5539	-0.3682	-2.4879	-1.4727	0.7039	-1.2047	-0.4954	-1.3969	0.6876	0.7066	-0.1272
-2.0981	-1.9573	-1.6785	-1.7705	-1.7922	-1.3509	-1.9248	-1.4267	-1.3834	-1.7786	-0.1733	-0.9475	-1.5756	-0.3384	-2.1495	-1.202	0.6416	-1.3265	-0.5414	-1.2995	0.5929	0.8717	-0.0785
-1.8057	-1.7245	-1.3915	-1.5675	-1.5783	-1.1181	-1.7353	-1.3184	-1.2453	-1.6541	-0.2328	-0.934	-1.6162	-0.2951	-1.7976	-0.9204	0.5658	-1.4565	-0.555	-1.1803	0.4846	1.0802	0.0027
-1.5404	-1.5242	-1.1397	-1.3726	-1.3807	-0.8825	-1.5377	-1.2155	-1.0937	-1.5242	-0.2355	-0.9286	-1.6324	-0.2545	-1.4727	-0.666	0.4765	-1.5783	-0.6118	-1.0802	0.3844	1.3455	0.0704
-1.2778	-1.2778	-0.8555	-1.183	-1.183	-0.6687	-1.3617	-1.0856	-0.934	-1.378	-0.2761	-0.8961	-1.6379	-0.1976	-1.137	-0.4034	0.3736	-1.6812	-0.6443	-0.9773	0.2382	1.6839	0.1624
-1.0396	-1.0856	-0.5739	-0.9908	-0.98	-0.4223	-1.183	-0.9692	-0.7743	-1.248	-0.2978	-0.8446	-1.6324	-0.1489	-0.8446	-0.1435	0.287	-1.7705	-0.6876	-0.8988	0.0975	2.071	0.2545
-0.7851	-0.8798	-0.3113	-0.7932	-0.7634	-0.1597	-0.9773	-0.8446	-0.6145	-1.0883	-0.3113	-0.7851	-1.6081	-0.1083	-0.5496	0.1002	0.1895	-1.8842	-0.7472	-0.804	-0.046	2.4933	0.3357
-0.4954	-0.6579	-0.0217	-0.5658	-0.5414	0.1002	-0.7337	-0.6822	-0.3898	-0.8961	-0.2653	-0.6768	-1.5296	-0.0487	-0.2382	0.3546	0.0785	-1.9302	-0.758	-0.6714	-0.1706	2.9373	0.4034
-0.2301	-0.4088	0.2788	-0.3492	-0.3005	0.3871	-0.5171	-0.5225	-0.1489	-0.7147	-0.287	-0.5739	-1.47	0.0027	0.0271	0.6118	-0.0244	-1.979	-0.7797	-0.5414	-0.3005	3.4084	0.4981
0.065	-0.1868	0.6172	-0.0758	-0.0704	0.6876	-0.2328	-0.3546	0.1029	-0.4954	-0.2328	-0.4521	-1.3671	0.0514	0.2924	0.9232	-0.1056	-1.9979	-0.8067	-0.398	-0.4223	3.8957	0.5712
0.3709	0.0839	0.9746	0.2166	0.2057	1.0179	0.0623	-0.1489	0.3898	-0.2328	-0.1651	-0.2815	-1.2318	0.0893	0.5739	1.2101	-0.2003	-2.0006	-0.8392	-0.222	-0.4927	4.364	0.6443
0.7066	0.4007	1.359	0.5252	0.5008	1.3942	0.379	0.0596	0.7093	0.0352	-0.0812	-0.0785	-1.0531	0.1354	0.8609	1.5593	-0.2815	-1.9708	-0.8744	-0.0379	-0.601	4.8378	0.7228
1.0287	0.7039	1.7299	0.8555	0.7878	1.738	0.7066	0.2897	1.0125	0.314	0.0325	0.1272	-0.8853	0.203	1.137	1.8734	-0.4034	-1.9357	-0.8744	0.1354	-0.6985	5.3115	0.758
1.3969	1.0206	2.0981	1.2182	1.1208	2.1143	1.0721	0.5387	1.3509	0.6227	0.1435	0.3682	-0.6849	0.2464	1.4619	2.2551	-0.5144	-1.8788	-0.8907	0.3546	-0.7418	5.742	0.8149
1.7705	1.3698	2.5177	1.5756	1.4592	2.5015	1.4348	0.8122	1.6974	0.934	0.314	0.6416	-0.4359	0.314	1.7922	2.6531	-0.6416	-1.8165	-0.8771	0.5441	-0.7905	6.1318	0.8501
2.1116	1.711	2.9048	1.9275	1.7597	2.8913	1.784	1.0639	2.0439	1.2318	0.4738	0.8934	-0.2464	0.3601	2.0873	3.0402	-0.7472	-1.7326	-0.8501	0.7337	-0.8474	6.4865	0.9042
2.5069	2.0683	3.3082	2.3228	2.1279	3.2865	2.1522	1.3211	2.3661	1.5296	0.6227	1.1479	0.0081	0.4115	2.4392	3.4463	-0.8284	-1.6406	-0.8176	0.9259	-0.8934	6.7545	0.9123
2.8967	2.404	3.6926	2.7126	2.4419	3.6439	2.5502	1.5891	2.7343	1.868	0.8067	1.4105	0.2761	0.4521	2.7911	3.8821	-0.915	-1.5214	-0.7445	1.1127	-0.8744	6.9521	0.9042
3.2703	2.7613	4.0771	3.116	2.783	4.0148	2.9021	1.8626	3.0727	2.1955	1.0017	1.7516	0.5279	0.4765	3.1214	4.3099	-0.98	-1.4105	-0.6849	1.313	-0.8501	7.0658	0.8853
3.6439	3.1214	4.475	3.5329	3.0808	4.3613	3.292	2.1252	3.4111	2.5069	1.1668	2.0439	0.8013	0.5008	3.4165	4.7836	-1.0206	-1.2778	-0.6524	1.4646	-0.8446	7.0956	0.8474
4.0202	3.4381	4.8405	3.9336	3.3596	4.6943	3.671	2.3661	3.7332	2.8317	1.3536	2.3174	1.0693	0.5198	3.7197	5.2222	-1.0423	-1.137	-0.6037	1.627	-0.8311	7.0631	0.8095
4.3586	3.782	5.1951	4.3451	3.6628	5.0327	4.0094	2.5908	4.0337	3.1106	1.5377	2.5908	1.3319	0.5144	3.9661	5.696	-1.045	-0.9746	-0.5441	1.7489	-0.8122	6.9629	0.7418
4.7268	4.0798	5.5416	4.7349	3.939	5.3386	4.3451	2.8209	4.3261	3.4002	1.7245	2.8372	1.5729	0.5062	4.2584	6.1426	-1.0342	-0.8365	-0.4386	1.8978	-0.7688	6.7978	0.6768
5.0489	4.3992	5.8611	5.1112	4.1908	5.6147	4.6591	3.0131	4.586	3.6656	1.8869	3.1079	1.8382	0.5144	4.5156	6.5704	-1.0206	-0.6741	-0.333	1.9979	-0.7472	6.6083	0.601
5.3332	4.6835	6.167	5.4252	4.4371	5.8746	4.9055	3.1999	4.8188	3.8903	2.0439	3.3596	2.0521	0.4711	4.6862	6.9061	-0.9611	-0.536	-0.2301	2.1197	-0.7526	6.3836	0.5117
5.6012	4.9515	6.4215	5.7339	4.6726	6.121	5.122	3.3515	5.0462	4.1014	2.1631	3.5762	2.2307	0.4413	4.8648	7.2255	-0.9042	-0.4196	-0.1191	2.1685	-0.7445	6.1372	0.4413
5.8421	5.187	6.6299	5.9477	4.8621	6.2997	5.3034	3.4733	5.2222	4.2449	2.2686	3.7441	2.3986	0.4223	5.0381	7.4908	-0.8474	-0.2978	-0.0027	2.2362	-0.7797	5.8909	0.3303
6.0777	5.4334	6.8573	6.1535	5.0489	6.4621	5.4442	3.5979	5.39	4.3911	2.3878	3.92	2.5529	0.3844	5.1599	7.6749	-0.7986	-0.1895	0.1462	2.2849	-0.7851	5.6554	0.2572
6.232	5.612	7.0062	6.3159	5.2032	6.5758	5.4956	3.6764	5.5092	4.475	2.4581	4.0364	2.6179	0.379	5.2303	7.8211	-0.7743	-0.1462	0.2707	2.3147	-0.8122	5.4469	0.2057
6.3917	5.7934	7.1389	6.4215	5.3224	6.6787	5.5606	3.7441	5.5985	4.5292	2.5204	4.1529	2.7316	0.379	5.3197	7.9023	-0.758	-0.0704	0.3817	2.339	-0.8338	5.2601	0.1706
6.5189	5.9315	7.2282	6.481	5.3982	6.7518	5.566	3.8009	5.6445	4.5508	2.5394	4.2341	2.7884	0.379	5.3197	7.9132	-0.7445	-0.0162	0.49	2.358	-0.8609	5.0923	0.1272
6.6029	6.0506	7.3176	6.5352	5.4686	6.7951	5.5416	3.8172	5.6824	4.5373	2.5746	4.2855	2.8236	0.3736	5.3278	7.878	-0.7743	-0.0027	0.582	2.3471	-0.8988	4.9569	0.0839
6.657	6.1183	7.3501	6.5352	5.501	6.814	5.5308	3.8172	5.7149	4.5346	2.5718	4.3234	2.8399	0.4142	5.2926	7.7778	-0.8095	0.0217	0.6308	2.3255	-0.9421	4.8621	0.046
6.6895	6.1616	7.3338	6.5568	5.474	6.7843	5.4713	3.7684	5.6608	4.4885	2.5637	4.3234	2.8344	0.4223	5.1897	7.61	-0.8663	0.0135	0.6741	2.3065	-0.9746	4.7999	-0.019
6.6949	6.1616	7.2959	6.5352	5.4279	6.7355	5.3819	3.7035	5.6012	4.4127	2.515	4.3017	2.802	0.4494	5.0841	7.4286	-0.9286	0.0081	0.7066	2.2578	-1.0369	4.743	-0.0596
6.6597	6.0912	7.2255	6.4621	5.3115	6.6191	5.279	3.5843	5.4848	4.2882	2.4419	4.2422	2.7343	0.4981	4.9406	7.1985	-0.999	-0.0352	0.693	2.1983	-1.0991	4.697	-0.1299
6.5514	5.9883	7.1172	6.3673	5.1518	6.4892	5.1572	3.4381	5.363	4.1772	2.3417	4.161	2.6531	0.5414	4.7863	6.9277	-1.091	-0.0758	0.6903	2.136	-1.1858	4.6753	-0.2085
6.4459	5.8259	6.9467	6.2807	4.9704	6.3349	5.0273	3.2865	5.1951	4.0256	2.2443	4.0554	2.5664	0.5929	4.5914	6.6218	-1.1776	-0.1299	0.6335	2.0331	-1.2697	4.6537	-0.2761
6.2915	5.677	6.7734	6.1535	4.7728	6.1454	4.8621	3.116	5.0327	3.8605	2.0954	3.9119	2.4311	0.6308	4.3857	6.3132	-1.2616	-0.1922	0.5739	1.9438	-1.3644	4.6537	-0.3465
6.0939	5.4415	6.5596	5.9667	4.5508	5.9234	4.6699	2.9021	4.8053	3.6656	1.9573	3.7874	2.293	0.6741	4.1799	5.9829	-1.3509	-0.268	0.4792	1.8165	-1.4646	4.6537	-0.4277
5.8611	5.2601	6.3457	5.7853	4.3234	5.6905	4.4642	2.6774	4.6104	3.4896	1.8247	3.6114	2.1441	0.7147	3.9688	5.6418	-1.4321	-0.379	0.3871	1.6703	-1.5864	4.651	-0.4602
5.6608	5.0246	6.0777	5.5633	4.0879	5.4442	4.2666	2.4798	4.3586	3.2649	1.6514	3.4517	1.9844	0.7607	3.7359	5.3197	-1.5242	-0.4494	0.268	1.5431	-1.7001	4.6591	-0.509
5.4225	4.8107	5.8394	5.363	3.8361	5.2141	4.05	2.2551	4.1177	3.0754	1.4808	3.2865	1.8192	0.8149	3.5735	5.0246	-1.6162	-0.536	0.1245	1.3671	-1.784	4.6374	-0.5604
5.1789	4.5535	5.5606	5.1274	3.6168	4.9677	3.8199	2.0412	3.92	2.8588	1.3726	3.1079	1.6731	0.8284	3.3678	4.7376	-1.6839	-0.6118	-0.0162	1.2264	-1.9086	4.6158	-0.582
4.9109	4.3261	5.3088	4.9082	3.3732	4.7349	3.6114	1.8247	3.6466	2.6531	1.2074	2.94	1.5133	0.869	3.2189	4.4967	-1.7516	-0.7066	-0.176	1.0585	-2.0087	4.5833	-0.5956
4.6618	4.0879	5.0327	4.7132	3.1404	4.475	3.3948	1.6243	3.4354	2.4392	1.045	2.7668	1.3617	0.8988	3.0835	4.2476	-1.8057	-0.8122	-0.3384	0.8825	-2.1089	4.5454	-0.6118
4.3992	3.8253	4.7701	4.4696	2.8723	4.2124	3.181	1.4132	3.2135	2.2389	0.934	2.6043	1.2074	0.9286	2.9211	4.0364	-1.8517	-0.869	-0.4819	0.7066	-2.1874	4.5021	-0.6254
4.1258	3.5843	4.5102	4.2314	2.6395	3.9823	2.9481	1.2182	2.986	2.0385	0.8013	2.45	1.0639	0.9529	2.8426	3.8334	-1.8896	-0.9773	-0.647	0.5414	-2.2713	4.4615	-0.6199
3.8199	3.2974	4.2124	3.9742	2.3661	3.7197	2.7099	1.0017	2.7532	1.8138	0.6633	2.247	0.8744	0.9448	2.6991	3.6249	-1.9059	-1.0991	-0.804	0.3465	-2.358	4.4155	-0.6335
3.5491	3.0104	3.8984	3.7251	2.1387	3.4706	2.4825	0.823	2.5231	1.5729	0.536	2.09	0.7255	0.9692	2.5827	3.4381	-1.9248	-1.156	-0.9584	0.1814	-2.4392	4.3775	-0.6308
3.2568	2.7207	3.6222	3.449	1.9221	3.2162	2.2551	0.6281	2.3174	1.3861	0.4386	1.9248	0.5766	0.9665	2.4446	3.2811	-1.9329	-1.2589	-1.11	0.0379	-2.4879	4.3288	-0.6172
2.9563	2.4663	3.3272	3.1972	1.7028	2.9752	2.0087	0.4711	2.0818	1.1885	0.3438	1.757	0.4169	0.9529	2.3282	3.1377	-1.9113	-1.3319	-1.2697	-0.0975	-2.5691	4.2666	-0.6145
2.672	2.1983	3.0321	2.8805	1.4863	2.7234	1.7218	0.3086	1.8734	0.9854	0.2409	1.5864	0.2491	0.9448	2.2145	2.9915	-1.8869	-1.4484	-1.4321	-0.2274	-2.626	4.2151	-0.582
2.385	1.9654	2.7451	2.6125	1.2859	2.4744	1.5133	0.1624	1.6866	0.8122	0.1597	1.4673	0.1299	0.9096	2.1035	2.8994	-1.8328	-1.5052	-1.5729	-0.3682	-2.6937	4.1474	-0.5685
2.1197	1.7461	2.4879	2.3282	1.1343	2.293	1.294	0.0731	1.5242	0.6551	0.1056	1.3482	0.0244	0.8934	1.9817	2.8317	-1.7895	-1.5458	-1.7191	-0.4332	-2.7072	4.0798	-0.5523
1.8436	1.5621	2.2307	2.0656	1.0179	2.0954	1.0802	-0.0054	1.3536	0.49	0.0731	1.2237	-0.0839	0.8446	1.8653	2.7857	-1.7082	-1.6	-1.8192	-0.5279	-2.7532	4.0148	-0.5008
1.6162	1.3996	2.0196	1.849	0.934	1.9329	0.9394	-0.0569	1.2507	0.3898	0.0406	1.156	-0.1299	0.7959	1.7489	2.7749	-1.6081	-1.6216	-1.8869	-0.6064	-2.7505	3.9471	-0.4683
1.3942	1.2724	1.8274	1.6243	0.8528	1.7868	0.7905	-0.0758	1.1587	0.314	0.0758	1.1072	-0.1787	0.7364	1.6649	2.7451	-1.4808	-1.6243	-1.9275	-0.6443	-2.7262	3.8848	-0.4413
1.1993	1.156	1.6649	1.424	0.8095	1.6758	0.6903	-0.0623	1.1208	0.2545	0.1597	1.0991	-0.1814	0.666	1.6216	2.783	-1.3401	-1.5945	-1.9627	-0.6741	-2.672	3.828	-0.4223
1.0125	1.0531	1.5079	1.2643	0.7905	1.5837	0.601	-0.0352	1.0721	0.2166	0.2057	1.1018	-0.1787	0.6037	1.5242	2.8263	-1.1885	-1.5593	-1.96	-0.6876	-2.5746	3.7955	-0.4061
0.8582	0.9935	1.3996	1.1641	0.823	1.5323	0.6037	0.0271	1.091	0.2328	0.3384	1.1587	-0.1083	0.5117	1.5052	2.8832	-1.0314	-1.4944	-1.9627	-0.6579	-2.4798	3.7738	-0.3898
0.7553	0.9556	1.3319	1.0802	0.8582	1.516	0.5902	0.1083	1.1343	0.268	0.4819	1.2372	-0.0352	0.4548	1.4944	2.9346	-0.8988	-1.3915	-1.9519	-0.6118	-2.3174	3.763	-0.3709
0.6714	0.9177	1.3022	1.0314	0.934	1.5296	0.6254	0.2436	1.2182	0.3195	0.6497	1.3374	0.0758	0.379	1.4186	2.9806	-0.7716	-1.2913	-1.9194	-0.5441	-2.1658	3.8172	-0.3628
0.6172	0.9448	1.2886	0.9881	1.0287	1.5756	0.6768	0.3817	1.2995	0.425	0.8663	1.4727	0.2085	0.3276	1.4159	3.0618	-0.6606	-1.137	-1.8382	-0.4792	-1.9627	3.8686	-0.3492
0.601	0.9719	1.3103	1.0071	1.1506	1.6216	0.8122	0.5956	1.4727	0.582	1.0856	1.6568	0.4034	0.2843	1.378	3.1052	-0.5929	-0.9665	-1.7597	-0.3682	-1.7434	3.9309	-0.3519
0.6064	1.045	1.3509	1.0287	1.3076	1.7461	0.9367	0.7851	1.6054	0.7255	1.3238	1.8301	0.5956	0.2788	1.3644	3.1539	-0.5577	-0.7688	-1.6812	-0.2247	-1.5133	4.0229	-0.3167
0.5983	1.1045	1.3915	1.0287	1.4727	1.8138	1.0585	1.0017	1.757	0.8663	1.5621	2.0142	0.7905	0.2707	1.3103	3.1539	-0.5306	-0.5658	-1.5756	-0.1029	-1.2968	4.1312	-0.2951
0.6199	1.1966	1.4673	1.0477	1.6243	1.9248	1.1479	1.1993	1.9167	1.0179	1.8274	2.2199	1.0098	0.2626	1.2643	3.1431	-0.5441	-0.3492	-1.4375	0.046	-1.0531	4.2449	-0.2653
0.6199	1.2697	1.5214	1.0504	1.7895	2.0358	1.2697	1.4077	2.09	1.1858	2.0521	2.3634	1.2074	0.2843	1.2101	3.1214	-0.5875	-0.1272	-1.2995	0.1868	-0.8284	4.3559	-0.2436
0.6281	1.3455	1.5783	1.0504	1.9465	2.1252	1.3455	1.6108	2.228	1.3049	2.2795	2.561	1.3942	0.3276	1.1154	3.0754	-0.6606	0.0948	-1.1776	0.3438	-0.6172	4.4534	-0.2193
0.6416	1.4159	1.6189	1.0423	2.071	2.2037	1.4023	1.7813	2.3553	1.4294	2.4825	2.7045	1.5756	0.3682	1.0287	3.0077	-0.7526	0.3032	-1.0233	0.4954	-0.379	4.5481	-0.2274
0.6443	1.489	1.6595	1.0369	2.2226	2.312	1.4835	1.9763	2.4879	1.5296	2.7018	2.8534	1.7299	0.425	0.9394	2.9509	-0.8528	0.5198	-0.8798	0.6389	-0.1733	4.6185	-0.1949
0.6524	1.5214	1.7001	1.045	2.3255	2.3553	1.5133	2.1441	2.5989	1.6297	2.913	2.9996	1.8896	0.4765	0.8284	2.8263	-0.9665	0.7228	-0.7499	0.7553	0.0081	4.6889	-0.1841
0.6389	1.5783	1.7434	1.0477	2.4148	2.4148	1.535	2.3092	2.737	1.7245	3.0862	3.1485	2.0629	0.5496	0.7066	2.718	-1.0937	0.9286	-0.5983	0.8853	0.2166	4.743	-0.1922
0.6308	1.6243	1.7678	1.0856	2.5258	2.4906	1.6	2.4527	2.8372	1.803	3.2838	3.2811	2.2091	0.6064	0.5983	2.5827	-1.2101	1.1208	-0.4115	0.9827	0.425	4.7728	-0.2057
0.6768	1.6568	1.8165	1.0964	2.6531	2.5583	1.6433	2.607	2.9644	1.9167	3.4625	3.4354	2.3959	0.6579	0.4846	2.4446	-1.3184	1.3428	-0.2409	1.091	0.6037	4.7918	-0.2274
0.7066	1.7218	1.8598	1.2101	2.7559	2.6395	1.6974	2.7776	3.0943	2.0169	3.6574	3.5925	2.5448	0.7012	0.3817	2.2876	-1.4186	1.5323	-0.0596	1.1587	0.8095	4.7999	-0.2599
0.7337	1.7922	1.9113	1.2805	2.8534	2.7532	1.7895	2.9427	3.2189	2.1035	3.8415	3.7359	2.7289	0.7526	0.3167	2.182	-1.5052	1.7245	0.1733	1.2805	0.9773	4.789	-0.2924
0.7878	1.8869	2.0087	1.424	2.9915	2.8453	1.8626	3.0997	3.3921	2.2497	4.0256	3.8903	2.913	0.7986	0.2166	2.0737	-1.5945	1.9465	0.3736	1.3753	1.1749	4.7566	-0.3222
0.8744	1.9627	2.09	1.5512	3.1052	2.9509	1.9952	3.2378	3.5329	2.3661	4.2043	4.0608	3.1052	0.8149	0.1516	1.9844	-1.6514	2.117	0.601	1.4402	1.3509	4.7132	-0.3601
0.934	2.0575	2.182	1.7272	3.2432	3.0808	2.136	3.43	3.698	2.4933	4.3884	4.2395	3.3028	0.8582	0.0893	1.9302	-1.7082	2.3147	0.8311	1.535	1.5323	4.6699	-0.3925
1.0504	2.1576	2.2768	1.9113	3.3326	3.1945	2.2307	3.5762	3.8524	2.6449	4.5914	4.3911	3.4815	0.8744	0.0514	1.9113	-1.7516	2.4717	1.0612	1.6379	1.711	4.6347	-0.4223
1.1018	2.2172	2.3309	2.0277	3.449	3.292	2.3499	3.7224	3.9715	2.7857	4.7322	4.5292	3.6439	0.8853	-0.0108	1.914	-1.7624	2.6287	1.2453	1.7001	1.8869	4.6185	-0.4304
1.1397	2.2632	2.3661	2.136	3.5491	3.3705	2.4284	3.8442	4.0879	2.9265	4.9136	4.6699	3.7982	0.8934	-0.0487	1.9221	-1.7678	2.7938	1.4294	1.7407	2.0169	4.6104	-0.4467
1.1858	2.3309	2.4148	2.228	3.6466	3.4381	2.5177	3.9985	4.2232	3.0456	5.0435	4.789	3.9661	0.8825	-0.111	1.9194	-1.7624	2.9292	1.6243	1.8274	2.1847	4.6537	-0.4467
1.1993	2.358	2.4202	2.2957	3.6926	3.4869	2.5773	4.0933	4.3207	3.1322	5.1545	4.8676	4.0852	0.8474	-0.1597	1.9952	-1.7137	3.0158	1.7624	1.8544	2.3201	4.697	-0.4332
1.2155	2.4229	2.4554	2.3769	3.8388	3.5762	2.6585	4.2097	4.4073	3.2405	5.3088	4.9921	4.2097	0.8446	-0.1868	2.0602	-1.6866	3.1295	1.8896	1.914	2.4798	4.8053	-0.4061
1.1858	2.4473	2.4392	2.385	3.9011	3.6033	2.7126	4.3288	4.4588	3.3461	5.4415	5.0841	4.3369	0.8013	-0.2409	2.1062	-1.6081	3.1918	2.0087	1.9492	2.6179	4.9244	-0.4142
1.1858	2.4636	2.4392	2.4067	3.9688	3.6277	2.7668	4.4127	4.54	3.4273	5.5444	5.1437	4.4155	0.7553	-0.3005	2.1631	-1.5106	3.2514	2.117	1.9384	2.7586	5.0787	-0.4223
1.1316	2.4879	2.4175	2.404	4.0094	3.6304	2.8155	4.4885	4.5995	3.5112	5.6526	5.2141	4.5021	0.6985	-0.3519	2.2389	-1.3969	3.3136	2.2118	1.9573	2.8859	5.2357	-0.425
1.0639	2.4636	2.3769	2.3769	4.0473	3.6547	2.8317	4.5806	4.651	3.606	5.7501	5.2899	4.6022	0.6254	-0.4359	2.2443	-1.2859	3.3569	2.3282	1.9492	3.0294	5.4469	-0.4602
1.0098	2.4473	2.3092	2.3174	4.0337	3.6304	2.8669	4.6293	4.6753	3.6656	5.8178	5.3278	4.651	0.5712	-0.4765	2.2686	-1.1424	3.4057	2.3905	1.9384	3.1431	5.6337	-0.4873
0.915	2.3986	2.2362	2.2253	4.0635	3.6304	2.8507	4.6699	4.6862	3.7224	5.8719	5.3305	4.6943	0.4927	-0.5333	2.2686	-0.9854	3.4165	2.469	1.8869	3.2189	5.853	-0.5414
0.8311	2.3444	2.1522	2.1224	4.0473	3.5762	2.8372	4.6808	4.6808	3.7603	5.9017	5.3386	4.7322	0.4007	-0.555	2.2632	-0.8284	3.4381	2.5231	1.8409	3.292	6.0614	-0.5956
0.7526	2.2849	2.0927	1.9898	4.004	3.5627	2.8236	4.6916	4.678	3.7982	5.9125	5.363	4.7539	0.3249	-0.5658	2.2199	-0.6687	3.4381	2.5691	1.8111	3.3326	6.2672	-0.666
0.6903	2.2172	2.0385	1.9032	3.9552	3.5356	2.7749	4.6835	4.6726	3.8063	5.9477	5.3413	4.7539	0.2572	-0.5496	2.1901	-0.5252	3.4273	2.6097	1.7597	3.3894	6.4567	-0.7147
0.582	2.1739	1.9654	1.8138	3.9336	3.5085	2.7586	4.6862	4.6591	3.8253	5.9315	5.3386	4.7809	0.1895	-0.5631	2.1197	-0.3953	3.4138	2.6341	1.7137	3.4327	6.6543	-0.7688
0.5441	2.1116	1.9194	1.7028	3.874	3.4544	2.7207	4.6672	4.6429	3.8496	5.9369	5.3115	4.7484	0.1272	-0.5171	2.071	-0.2653	3.3813	2.6558	1.6622	3.4544	6.8086	-0.8203
0.4602	2.0629	1.8328	1.6	3.8226	3.4002	2.6693	4.6645	4.605	3.809	5.9261	5.2736	4.7268	0.0487	-0.5062	1.9817	-0.1381	3.3407	2.6747	1.5891	3.4869	6.9386	-0.8392
0.3844	1.9627	1.7299	1.4673	3.7928	3.3894	2.6097	4.6185	4.5454	3.7955	5.9017	5.2195	4.678	-0.0027	-0.5144	1.9005	-0.0054	3.2676	2.6368	1.5133	3.4706	7.0496	-0.9367
0.3492	1.868	1.6866	1.3726	3.7278	3.3244	2.5475	4.5968	4.4913	3.7468	5.8421	5.1735	4.6266	-0.065	-0.4927	1.8598	0.1083	3.1891	2.6152	1.4565	3.4896	7.1091	-0.9881
0.2355	1.7786	1.5945	1.2237	3.6547	3.2649	2.4906	4.5454	4.4561	3.7197	5.8449	5.1112	4.5616	-0.1245	-0.4846	1.7786	0.222	3.0997	2.5854	1.3888	3.495	7.166	-1.0531
0.1868	1.6731	1.5106	1.11	3.5735	3.1999	2.4148	4.5129	4.4182	3.6845	5.788	5.0814	4.5156	-0.1706	-0.4277	1.7759	0.3276	3.0104	2.5339	1.3292	3.495	7.1795	-1.137
0.1191	1.5891	1.4348	0.999	3.5058	3.1701	2.3444	4.4669	4.3938	3.6547	5.7636	5.0029	4.4534	-0.2274	-0.379	1.784	0.4304	2.959	2.5394	1.267	3.5004	7.1876	-1.1966
0.0487	1.5052	1.3726	0.8555	3.4977	3.1268	2.2713	4.4561	4.3586	3.6141	5.7312	4.9704	4.429	-0.287	-0.3249	1.7949	0.5198	2.8751	2.5069	1.2182	3.5112	7.1768	-1.2724
-0.0162	1.4267	1.2968	0.7851	3.4381	3.0781	2.228	4.4425	4.318	3.5762	5.7176	4.9244	4.3369	-0.333	-0.2626	1.8247	0.6227	2.7803	2.5096	1.1533	3.4923	7.1822	-1.3238
-0.0596	1.3834	1.2778	0.7174	3.4436	3.0835	2.1955	4.4344	4.3315	3.5925	5.7122	4.9352	4.3234	-0.3628	-0.1868	1.9032	0.6849	2.7207	2.515	1.156	3.5627	7.1741	-1.3644
-0.0758	1.3861	1.2724	0.6551	3.449	3.1052	2.1983	4.4615	4.364	3.5789	5.7014	4.9244	4.3126	-0.3844	-0.0975	2.0006	0.7418	2.6774	2.5312	1.1695	3.5925	7.1876	-1.3671
-0.1083	1.3455	1.2507	0.647	3.449	3.097	2.1983	4.4831	4.3775	3.6006	5.7014	4.9298	4.2693	-0.4061	0.0108	2.09	0.7878	2.607	2.5421	1.1451	3.5979	7.2174	-1.3996
-0.0975	1.3428	1.2643	0.666	3.4869	3.1377	2.2199	4.5237	4.4425	3.6114	5.696	4.9434	4.2693	-0.4142	0.1137	2.1955	0.8095	2.561	2.6016	1.156	3.6439	7.2634	-1.4105
-0.0839	1.3374	1.294	0.7093	3.5112	3.2053	2.2713	4.5698	4.494	3.6466	5.7122	4.9704	4.2557	-0.4223	0.2247	2.3147	0.804	2.4852	2.6179	1.137	3.652	7.3095	-1.424
-0.0514	1.3644	1.3455	0.777	3.5627	3.2541	2.3499	4.6293	4.5508	3.7332	5.7284	5.0219	4.2828	-0.4061	0.3709	2.4771	0.7688	2.4311	2.6422	1.1424	3.6818	7.3853	-1.424
0.019	1.3861	1.3942	0.8961	3.6628	3.3434	2.4608	4.6889	4.6591	3.8117	5.7636	5.0923	4.2963	-0.3763	0.4927	2.6314	0.7174	2.3986	2.6801	1.137	3.717	7.4773	-1.4402
0.0677	1.424	1.4808	1.0179	3.6899	3.4084	2.5773	4.7755	4.7295	3.8848	5.7988	5.1274	4.3342	-0.3438	0.6335	2.7803	0.6579	2.3769	2.718	1.1506	3.7089	7.5585	-1.4402
0.2057	1.4781	1.5837	1.1722	3.8172	3.5573	2.7289	4.854	4.8567	4.004	5.8557	5.206	4.3803	-0.3005	0.8095	2.9996	0.5658	2.358	2.737	1.1479	3.7332	7.6208	-1.47
0.3195	1.5621	1.7001	1.3401	3.9119	3.6845	2.8832	4.9352	4.9704	4.1177	5.8909	5.2845	4.4371	-0.2572	0.9584	3.1728	0.5035	2.339	2.7776	1.1776	3.7359	7.7128	-1.4673
0.4873	1.6541	1.8382	1.5269	4.0202	3.8145	3.0321	5.0598	5.076	4.2205	5.9531	5.3738	4.4858	-0.2355	1.0477	3.3651	0.4332	2.3444	2.8615	1.2128	3.7197	7.7724	-1.4619
0.6443	1.7786	1.9925	1.7137	4.1772	3.9579	3.2189	5.1789	5.2466	4.3586	6.0181	5.4821	4.5643	-0.203	1.1966	3.541	0.3655	2.3905	2.94	1.267	3.7576	7.8184	-1.4484
0.8474	1.9465	2.228	1.9681	4.3721	4.1637	3.4192	5.3115	5.4117	4.521	6.1237	5.6256	4.6862	-0.1651	1.3428	3.7386	0.2951	2.4446	3.0402	1.3536	3.809	7.8536	-1.4077
1.0748	2.1549	2.4311	2.1955	4.5806	4.3532	3.6195	5.4983	5.5958	4.6889	6.2293	5.7582	4.7999	-0.1245	1.4727	3.893	0.2545	2.496	3.1377	1.47	3.8578	7.859	-1.3401
1.3022	2.3147	2.6179	2.4013	4.7674	4.5535	3.8009	5.6364	5.7772	4.854	6.3403	5.9044	4.9109	-0.1354	1.5891	4.0608	0.2355	2.5312	3.1972	1.5566	3.8984	7.8347	-1.2886
1.5566	2.5718	2.8642	2.6964	5.0137	4.7782	4.0391	5.834	5.991	5.0246	6.4729	6.0533	5.0354	-0.0893	1.692	4.2314	0.1976	2.6287	3.3163	1.692	3.9769	7.8049	-1.2209
1.7949	2.8101	3.1187	2.9617	5.2439	4.9975	4.253	6.0073	6.2184	5.2195	6.592	6.2049	5.1816	-0.111	1.7976	4.3911	0.1976	2.6855	3.3759	1.8274	4.05	7.7291	-1.1776
2.0575	3.0618	3.3678	3.2243	5.4631	5.2384	4.4777	6.2076	6.408	5.4171	6.7274	6.3673	5.2845	-0.1083	1.8707	4.5048	0.1949	2.7668	3.4354	1.9492	4.1068	7.6451	-1.1045
2.3065	3.2865	3.5979	3.5058	5.6905	5.4496	4.697	6.3809	6.611	5.5958	6.8573	6.5162	5.4225	-0.111	1.9573	4.6483	0.2166	2.8344	3.4652	2.1035	4.1393	7.5314	-1.0477
2.5583	3.5356	3.8496	3.7766	5.9234	5.6987	4.9163	6.565	6.8276	5.788	6.99	6.6678	5.5741	-0.1164	2.0656	4.7999	0.2112	2.9075	3.5167	2.2334	4.1908	7.4096	-1.026
2.8101	3.7657	4.096	4.0554	6.121	5.9369	5.1464	6.7409	7.0523	5.9938	7.082	6.8276	5.723	-0.1137	2.1387	4.9082	0.2057	2.986	3.5952	2.3553	4.188	7.2986	-1.0044
3.0564	4.0012	4.3505	4.3126	6.3376	6.1535	5.3819	6.9061	7.2743	6.2022	7.2228	7.0008	5.853	-0.1218	2.2199	5.0354	0.2274	3.0483	3.6547	2.4879	4.2151	7.1741	-0.98
3.2838	4.2016	4.5725	4.5481	6.5271	6.3592	5.5741	7.0604	7.4611	6.3944	7.3365	7.1524	6.01	-0.1327	2.3147	5.1274	0.222	3.1349	3.7035	2.6043	4.2395	7.0739	-0.9935
3.4788	4.4263	4.8107	4.7728	6.7085	6.5893	5.8313	7.2255	7.6858	6.6002	7.4583	7.3149	6.1535	-0.1245	2.3878	5.2141	0.2301	3.2243	3.8145	2.7641	4.253	6.9873	-0.9719
3.6737	4.5914	5.0137	4.9569	6.8573	6.7843	6.0452	7.3744	7.8671	6.7626	7.5098	7.4286	6.297	-0.1299	2.4392	5.252	0.2436	3.273	3.8659	2.8751	4.207	6.9413	-1.0098
3.8253	4.7376	5.1897	5.1572	7.0198	6.9819	6.2374	7.4854	8.0621	6.9413	7.6127	7.591	6.4242	-0.1381	2.4879	5.252	0.2491	3.3461	3.9444	2.9806	4.2016	6.944	-1.0369
3.9498	4.854	5.3359	5.3115	7.1389	7.1227	6.4025	7.5856	8.211	7.1281	7.6695	7.6939	6.5379	-0.1516	2.4744	5.1789	0.2707	3.3948	4.031	3.0727	4.1853	7.0062	-1.0693
4.0906	4.9515	5.4983	5.4902	7.2634	7.3122	6.6299	7.702	8.395	7.3013	7.7724	7.8211	6.6841	-0.157	2.4987	5.0923	0.2653	3.4815	4.096	3.1566	4.1637	7.1118	-1.0937
4.1989	5.076	5.6608	5.6635	7.3825	7.48	6.8546	7.8292	8.5791	7.4962	7.8753	7.9944	6.8411	-0.1408	2.4852	4.9569	0.2545	3.587	4.2259	3.2865	4.1745	7.2661	-1.1533
4.299	5.1653	5.7988	5.7745	7.5044	7.6316	7.0279	7.9294	8.7253	7.6451	7.9484	8.1	6.944	-0.1381	2.4581	4.7836	0.2436	3.6818	4.3153	3.3948	4.161	7.4638	-1.1912
4.3803	5.2953	5.9234	5.899	7.6262	7.7995	7.2066	8.0566	8.904	7.8211	8.0648	8.2651	7.147	-0.1137	2.4013	4.6022	0.1976	3.809	4.4073	3.5329	4.2124	7.6912	-1.248
4.4425	5.3982	6.0641	5.9965	7.7453	7.9646	7.3446	8.1568	9.08	7.989	8.1758	8.4221	7.2959	-0.0866	2.3905	4.4642	0.1597	3.939	4.4723	3.6493	4.1989	7.9294	-1.2724
4.475	5.5092	6.1697	6.0696	7.8671	8.1135	7.4908	8.2759	9.2397	8.1514	8.2813	8.5683	7.4665	-0.0623	2.3174	4.3045	0.1056	4.0446	4.5481	3.7901	4.2422	8.1676	-1.3211
4.54	5.6229	6.2915	6.1183	8.0214	8.2678	7.61	8.4167	9.4238	8.2813	8.4059	8.728	7.5829	-0.019	2.3228	4.2016	0.019	4.1799	4.6158	3.9282	4.2936	8.4032	-1.3455
4.5887	5.723	6.3755	6.1481	8.1189	8.3977	7.6966	8.5439	9.5889	8.3842	8.5277	8.8715	7.7318	0.019	2.2903	4.096	-0.0704	4.2963	4.6537	4.0662	4.3207	8.6252	-1.3644
4.5995	5.8259	6.4838	6.167	8.2543	8.5358	7.7399	8.6549	9.7162	8.4925	8.6658	9.0285	7.8698	0.0731	2.3147	4.0771	-0.1678	4.4425	4.6618	4.1935	4.3369	8.839	-1.3671
4.6645	5.9504	6.5948	6.186	8.3896	8.6712	7.8157	8.8228	9.8867	8.5818	8.7957	9.1747	8.0079	0.1327	2.3228	4.1177	-0.2761	4.5427	4.6537	4.3342	4.3911	9.0448	-1.3455
4.6564	6.0506	6.6787	6.1833	8.5087	8.8147	7.8428	8.95	10.0329	8.6982	8.9311	9.3155	8.1297	0.1895	2.339	4.1637	-0.3817	4.6672	4.6753	4.4561	4.4398	9.218	-1.2968
4.7105	6.1318	6.7978	6.2157	8.6658	8.9527	7.9186	9.0773	10.2089	8.774	9.0718	9.4481	8.2651	0.2382	2.3796	4.2801	-0.4954	4.7511	4.6808	4.5589	4.4561	9.3723	-1.2453
4.7782	6.2536	6.9169	6.2293	8.7876	9.0989	7.9673	9.218	10.3605	8.8661	9.1693	9.5916	8.3517	0.3005	2.3959	4.3992	-0.6091	4.8378	4.6672	4.6429	4.4967	9.486	-1.1966
4.7999	6.3322	6.9927	6.2645	8.885	9.2126	8.0052	9.329	10.4985	8.9419	9.2965	9.7324	8.4627	0.3574	2.4148	4.5589	-0.6958	4.9298	4.6889	4.7187	4.5129	9.5943	-1.1127
4.8459	6.4459	7.1227	6.3159	9.0096	9.3615	8.0729	9.459	10.6501	9.0231	9.3994	9.8623	8.5683	0.3953	2.4527	4.7241	-0.7932	5.0056	4.7078	4.7972	4.5427	9.6674	-1.0639
4.9488	6.5406	7.2499	6.3863	9.1287	9.4915	8.1297	9.6025	10.8045	9.1314	9.5212	9.9842	8.6576	0.4359	2.496	4.9109	-0.8771	5.0571	4.7322	4.873	4.5725	9.6972	-1.0044
4.9921	6.6272	7.369	6.4675	9.2641	9.6539	8.2164	9.7134	10.9588	9.2316	9.6187	10.0979	8.7389	0.4683	2.5367	5.076	-0.9421	5.141	4.7836	4.9515	4.6347	9.7026	-0.9556
5.0652	6.7057	7.4962	6.546	9.3859	9.792	8.284	9.8217	11.0995	9.3155	9.7432	10.2116	8.8228	0.4765	2.5637	5.2547	-0.9692	5.1789	4.8297	5.0246	4.678	9.6864	-0.9286
5.1951	6.8465	7.6506	6.6354	9.5131	9.93	8.3761	9.9625	11.2755	9.4211	9.8596	10.3415	8.9067	0.5008	2.6395	5.4415	-1.0017	5.2303	4.8892	5.1004	4.7539	9.6268	-0.9042
5.3224	6.9683	7.7886	6.7599	9.6783	10.106	8.4735	10.1114	11.4109	9.5321	9.9815	10.4985	9.0231	0.509	2.6991	5.5606	-1.0287	5.3088	4.9298	5.1599	4.854	9.5646	-0.8446
5.4252	7.1118	7.9565	6.8952	9.8434	10.2603	8.6035	10.2468	11.5787	9.6566	10.1168	10.6231	9.1016	0.509	2.6855	5.6716	-1.0369	5.3657	5.0002	5.2249	4.9542	9.4644	-0.804
5.5471	7.2472	8.1243	7.0414	10.0031	10.4336	8.7443	10.3848	11.7628	9.7757	10.2522	10.7666	9.218	0.509	2.7099	5.7366	-1.0369	5.4171	5.0571	5.279	5.0706	9.3805	-0.7364
5.6743	7.4123	8.2922	7.2174	10.1953	10.6122	8.8986	10.5473	11.9252	9.9354	10.4065	10.9182	9.3263	0.5008	2.7045	5.8042	-1.0233	5.4848	5.1193	5.3521	5.2032	9.2965	-0.693
5.7961	7.545	8.4546	7.3907	10.3659	10.7801	9.0745	10.7043	12.0877	10.0979	10.55	11.0562	9.4671	0.4873	2.6828	5.8584	-0.9854	5.5579	5.2005	5.3928	5.3088	9.1964	-0.6687
5.899	7.6614	8.6062	7.5802	10.5012	10.9344	9.2424	10.8288	12.2501	10.2441	10.6772	11.1943	9.5862	0.4467	2.6368	5.8394	-0.9096	5.5985	5.2628	5.4307	5.4252	9.1206	-0.6606
6.0479	7.7967	8.7984	7.7751	10.6664	11.1158	9.4644	10.9885	12.4694	10.42	10.8234	11.3703	9.7243	0.4304	2.5827	5.853	-0.869	5.6716	5.3169	5.4875	5.5904	9.0718	-0.6362
6.1562	7.9132	8.9311	7.9808	10.7909	11.2755	9.6701	11.1239	12.6047	10.5743	10.9669	11.5164	9.8651	0.4007	2.515	5.8476	-0.8122	5.7122	5.3684	5.4956	5.7095	9.0475	-0.6037
6.2753	7.9944	9.08	8.1541	10.929	11.4298	9.8461	11.262	12.7591	10.7259	11.086	11.6518	9.9733	0.3655	2.4365	5.807	-0.7445	5.7609	5.3873	5.501	5.7961	9.0556	-0.5685
6.3755	8.0702	9.2153	8.3057	11.0481	11.576	10.0112	11.3946	12.9025	10.8667	11.1943	11.7709	10.0898	0.3357	2.385	5.8124	-0.6876	5.7799	5.3738	5.4929	5.899	9.0691	-0.5577
6.481	8.1568	9.3615	8.46	11.151	11.6951	10.1926	11.4867	13.0379	10.9723	11.3053	11.8873	10.2007	0.3059	2.3363	5.7609	-0.6254	5.8124	5.3738	5.4902	5.9992	9.1152	-0.5441
6.5785	8.2191	9.4725	8.6089	11.2457	11.844	10.3307	11.595	13.157	11.0968	11.3892	11.9929	10.2765	0.2788	2.2849	5.7691	-0.5848	5.8232	5.3657	5.4713	6.0858	9.1855	-0.5198
6.6678	8.2732	9.5808	8.7307	11.3269	11.9252	10.4606	11.6599	13.2464	11.1808	11.4461	12.0714	10.3659	0.2572	2.2822	5.7339	-0.5279	5.8097	5.3386	5.4225	6.121	9.2749	-0.4927
6.7572	8.3355	9.6891	8.8499	11.4027	12.0416	10.5933	11.7466	13.3898	11.2945	11.5327	12.1689	10.439	0.2599	2.3309	5.7339	-0.5306	5.8151	5.3115	5.3819	6.1589	9.3615	-0.4683
6.8357	8.395	9.7865	8.9608	11.4515	12.1553	10.7097	11.8034	13.4359	11.3919	11.5679	12.2257	10.5012	0.2436	2.3526	5.7203	-0.509	5.8205	5.2953	5.3197	6.1833	9.486	-0.4602
6.9169	8.414	9.8867	9.08	11.5002	12.242	10.8451	11.8711	13.5198	11.4677	11.6274	12.2934	10.5608	0.2355	2.3878	5.7149	-0.5062	5.807	5.2899	5.2845	6.2049	9.6187	-0.4656
6.9711	8.4194	9.9625	9.1693	11.5354	12.3205	10.9371	11.8873	13.5766	11.5462	11.6274	12.3367	10.6068	0.2545	2.4473	5.7095	-0.5252	5.807	5.2818	5.252	6.232	9.7514	-0.4846
7.0523	8.4573	10.0627	9.2424	11.5787	12.4125	11.0183	11.9225	13.6308	11.6166	11.6437	12.3638	10.6366	0.2599	2.5015	5.7284	-0.536	5.788	5.279	5.2032	6.2049	9.9138	-0.5171
7.0848	8.4817	10.1277	9.3236	11.6139	12.4586	11.105	11.9523	13.6768	11.6897	11.6437	12.4125	10.6691	0.2897	2.5394	5.7501	-0.5848	5.7988	5.2709	5.1735	6.2157	10.0654	-0.5117
7.1281	8.4979	10.1656	9.3344	11.6139	12.5154	11.1645	11.9686	13.7012	11.6735	11.6626	12.4342	10.6745	0.3005	2.5908	5.7745	-0.6172	5.7745	5.2709	5.122	6.2103	10.2035	-0.5144
7.2012	8.5656	10.2847	9.413	11.6924	12.6129	11.2187	12.0146	13.7688	11.7493	11.6762	12.4775	10.7287	0.3303	2.6179	5.8638	-0.6687	5.7988	5.279	5.0787	6.2212	10.328	-0.5252
7.2661	8.6576	10.3794	9.4644	11.7574	12.7076	11.2782	12.0606	13.8311	11.7872	11.7087	12.51	10.7341	0.3438	2.691	5.9179	-0.6985	5.7826	5.2872	5.0354	6.2266	10.4471	-0.5144
7.3474	8.7389	10.4769	9.5429	11.8521	12.8024	11.3405	12.1147	13.8961	11.8386	11.7357	12.5804	10.7801	0.3601	2.7018	5.9883	-0.7309	5.7961	5.3142	5.0029	6.2591	10.531	-0.5198
7.4367	8.8444	10.5716	9.6458	11.9225	12.9161	11.4325	12.1553	13.9665	11.8576	11.7736	12.6047	10.7882	0.3709	2.7749	6.075	-0.7391	5.807	5.3711	4.9894	6.2509	10.6095	-0.5306
7.5612	8.9636	10.7205	9.7703	12.0525	13.0487	11.5219	12.2447	14.0531	11.9334	11.8332	12.6833	10.8369	0.3763	2.7992	6.1562	-0.7634	5.8178	5.4009	4.9515	6.2699	10.6935	-0.4954
7.6722	9.0854	10.8667	9.8813	12.1418	13.1733	11.6004	12.3015	14.1533	12.0037	11.8494	12.732	10.8721	0.3682	2.8317	6.2482	-0.7499	5.8259	5.4604	4.9109	6.2943	10.7503	-0.4873
7.8076	9.2262	11.0156	10.0248	12.2528	13.3113	11.7411	12.4017	14.2751	12.0877	11.9307	12.8294	10.9154	0.3546	2.8832	6.3322	-0.7364	5.8449	5.5335	4.9434	6.3132	10.8288	-0.4765
7.9565	9.3453	11.1618	10.1872	12.38	13.4548	11.863	12.4883	14.3915	12.1445	11.9848	12.8863	10.9561	0.3384	2.9102	6.4269	-0.693	5.834	5.5904	4.9596	6.3294	10.9046	-0.4954
8.0675	9.4725	11.3297	10.3307	12.4965	13.5875	11.974	12.575	14.4971	12.2014	11.9983	12.9404	10.9913	0.3113	2.9617	6.5298	-0.6443	5.8503	5.6689	5.0002	6.3484	10.9831	-0.4954
8.2028	9.5916	11.465	10.4931	12.5804	13.7228	12.085	12.621	14.5864	12.2609	12.0281	13	11.0102	0.287	2.9617	6.6272	-0.5658	5.8394	5.7312	4.9975	6.3457	11.0616	-0.5225
8.3165	9.7189	11.5977	10.6339	12.6724	13.8338	12.1797	12.6724	14.6785	12.3178	12.0606	13.0433	11.0156	0.2464	3.0023	6.7057	-0.5035	5.8178	5.7826	5.0516	6.3267	11.1374	-0.5198
8.414	9.7865	11.7357	10.7747	12.7536	13.9475	12.2988	12.7293	14.7461	12.353	12.0444	13.0704	11.0346	0.2003	3.0185	6.7599	-0.4196	5.7853	5.8205	5.0652	6.2699	11.2105	-0.5306
8.4979	9.8542	11.8359	10.9046	12.7861	14.0369	12.3692	12.7482	14.8057	12.3882	12.0579	13.0947	11.04	0.1706	3.0131	6.768	-0.3357	5.7501	5.8124	5.0787	6.2266	11.2701	-0.5658
8.5656	9.8786	11.9307	10.9533	12.8105	14.1018	12.4152	12.7428	14.8382	12.3692	12.0037	13.0947	10.9804	0.1191	3.005	6.768	-0.2518	5.6824	5.7799	5.0923	6.186	11.3324	-0.5929
8.59	9.9165	11.9875	11.0292	12.8051	14.1506	12.445	12.732	14.8436	12.3638	11.955	13.0839	10.9561	0.0812	2.9888	6.7166	-0.1841	5.631	5.7149	5.1112	6.1156	11.3919	-0.6172
8.6306	9.9598	12.0633	11.0752	12.8159	14.1722	12.4504	12.7049	14.8544	12.3449	11.8982	13.0379	10.9154	0.0433	2.9481	6.6272	-0.1029	5.5498	5.6202	5.1329	6.0425	11.4596	-0.6227
8.6522	9.9923	12.1039	11.0995	12.8024	14.2264	12.4748	12.6751	14.8598	12.3015	11.8521	12.9919	10.8694	0.0081	2.8859	6.5135	-0.019	5.5146	5.5308	5.1329	5.964	11.5273	-0.6199
8.6441	9.9977	12.1174	11.132	12.8024	14.2155	12.4342	12.6426	14.8274	12.2501	11.779	12.9513	10.7963	-0.0487	2.7884	6.3538	0.0623	5.4361	5.4117	5.1193	5.9179	11.6329	-0.6037
8.6143	10.0329	12.177	11.1591	12.8294	14.2534	12.4504	12.6047	14.8192	12.2284	11.7114	12.9242	10.753	-0.0731	2.7045	6.1968	0.1354	5.4198	5.3061	5.0868	5.8097	11.7303	-0.5577
8.636	10.0654	12.1824	11.197	12.8078	14.2724	12.4234	12.5831	14.7895	12.1987	11.6383	12.8782	10.6908	-0.1137	2.6368	6.0533	0.2057	5.3657	5.2141	5.0625	5.7312	11.844	-0.5496
8.617	10.0979	12.2122	11.178	12.8078	14.2832	12.4044	12.5479	14.7732	12.1851	11.576	12.8213	10.6691	-0.1381	2.5096	5.88	0.2626	5.3467	5.1437	5.0408	5.6581	11.9658	-0.4873
8.6035	10.1249	12.223	11.178	12.8051	14.2778	12.4098	12.5235	14.7543	12.1499	11.5273	12.8024	10.6312	-0.1543	2.4175	5.6851	0.3005	5.3088	5.076	5.0354	5.5823	12.1066	-0.4332
8.6116	10.1601	12.2474	11.1591	12.8294	14.2967	12.3909	12.4856	14.7543	12.1608	11.4677	12.7699	10.6068	-0.1489	2.3526	5.5444	0.314	5.3007	5.03	5.0164	5.5525	12.2474	-0.3763
8.6062	10.1764	12.2474	11.1077	12.797	14.2967	12.3638	12.445	14.7299	12.1526	11.3919	12.7266	10.5852	-0.176	2.228	5.3738	0.3303	5.2926	5.0083	5.03	5.4902	12.3746	-0.2897
8.6197	10.1818	12.2772	11.0995	12.8267	14.3238	12.3313	12.4234	14.7109	12.1391	11.3892	12.7076	10.5798	-0.1678	2.1143	5.2574	0.3249	5.279	5.0192	5.0381	5.4821	12.5208	-0.2464
8.6306	10.2007	12.2799	11.0535	12.8349	14.313	12.3151	12.4179	14.7055	12.131	11.3486	12.6833	10.5662	-0.1624	2.0169	5.1112	0.3086	5.2628	5.0056	5.0489	5.4334	12.6237	-0.1787
8.6658	10.1899	12.2934	11.0075	12.8159	14.3292	12.288	12.3882	14.6866	12.1337	11.3215	12.6535	10.55	-0.1516	1.914	4.9948	0.2707	5.2845	5.0435	5.0733	5.4225	12.732	-0.1218
8.682	10.1737	12.334	10.994	12.7915	14.3319	12.2745	12.3557	14.6568	12.131	11.2836	12.6318	10.5527	-0.1245	1.8084	4.9082	0.2085	5.2736	5.03	5.095	5.4307	12.8186	-0.0379
8.7172	10.1683	12.3449	10.9723	12.7726	14.3509	12.288	12.3449	14.6568	12.1445	11.2701	12.6318	10.5419	-0.065	1.7299	4.8026	0.1137	5.2872	5.0435	5.1247	5.4252	12.8782	0
8.7984	10.1439	12.3882	10.9994	12.7618	14.3671	12.3205	12.334	14.6649	12.1499	11.2755	12.6075	10.5283	-0.0054	1.6595	4.7674	-0.0108	5.3007	5.0273	5.1599	5.4631	12.908	0.0325
8.8417	10.0816	12.4125	11.0129	12.7103	14.3482	12.3178	12.288	14.6379	12.1851	11.2566	12.6047	10.5446	0.0758	1.5918	4.697	-0.1489	5.3142	5.0219	5.2141	5.4604	12.9323	0.0758
8.9013	10.0546	12.445	11.04	12.6833	14.3753	12.3286	12.2501	14.6406	12.1932	11.2268	12.5939	10.5175	0.1381	1.5621	4.6564	-0.3005	5.3224	5.0192	5.2493	5.474	12.9296	0.0785
8.9663	10.0112	12.4992	11.0589	12.6508	14.3753	12.3503	12.2122	14.627	12.1987	11.2349	12.575	10.55	0.2436	1.5323	4.6293	-0.4873	5.3494	5.0354	5.3007	5.52	12.9296	0.0893
9.0285	9.9896	12.5506	11.1131	12.621	14.4104	12.38	12.196	14.6216	12.2122	11.2187	12.5425	10.5148	0.3276	1.5566	4.6456	-0.6579	5.3467	5.0137	5.3061	5.5281	12.9188	0.0812
9.1016	9.9706	12.5723	11.1645	12.602	14.4159	12.4098	12.1716	14.581	12.2068	11.2214	12.5371	10.5419	0.4196	1.6054	4.6645	-0.8501	5.3928	4.984	5.3873	5.5795	12.9242	0.0623
9.1991	9.949	12.6345	11.2187	12.5696	14.4456	12.4288	12.1635	14.5972	12.2257	11.2132	12.5371	10.5229	0.4981	1.6216	4.7268	-1.0098	5.4144	4.9461	5.4523	5.6039	12.935	0.0271
9.283	9.9733	12.6968	11.2755	12.5696	14.4673	12.4423	12.1445	14.5918	12.2203	11.2214	12.5398	10.5446	0.5685	1.6893	4.8161	-1.1722	5.4631	4.9109	5.5173	5.6256	12.9675	-0.0081
9.3588	9.995	12.7563	11.3161	12.5506	14.489	12.4558	12.1472	14.6	12.2257	11.2268	12.5371	10.5391	0.6497	1.7678	4.9271	-1.313	5.5092	4.8567	5.5741	5.6662	13.0406	-0.046
9.4427	10.0194	12.8078	11.3703	12.5587	14.5025	12.4477	12.1174	14.5729	12.2366	11.2159	12.5344	10.5527	0.7201	1.8653	5.0056	-1.4348	5.5471	4.7945	5.6256	5.6743	13.1597	-0.0839
9.5023	10.0898	12.8809	11.4406	12.556	14.5377	12.4369	12.1202	14.581	12.2095	11.2078	12.5235	10.5608	0.7905	1.9898	5.1193	-1.5593	5.5823	4.7566	5.6851	5.6987	13.3086	-0.1164
9.5429	10.0979	12.9215	11.4488	12.5398	14.5242	12.4342	12.0877	14.5404	12.1716	11.197	12.5073	10.5473	0.8257	2.071	5.2168	-1.6433	5.6174	4.6916	5.6987	5.6662	13.509	-0.157
9.5943	10.1872	12.9919	11.465	12.5614	14.5539	12.4071	12.0687	14.5485	12.1581	11.1889	12.4883	10.531	0.869	2.1928	5.3359	-1.7272	5.6391	4.6537	5.723	5.6716	13.7445	-0.1895
9.6376	10.2332	13.0189	11.4434	12.5398	14.5242	12.3232	12.0335	14.5052	12.1012	11.1429	12.445	10.5012	0.9042	2.3147	5.4036	-1.7895	5.6662	4.6212	5.7122	5.6202	14.0071	-0.1814
9.6349	10.2603	13.0352	11.3973	12.5208	14.489	12.2474	11.9767	14.4348	12.0254	11.0833	12.3936	10.439	0.915	2.3932	5.4794	-1.8274	5.6716	4.5806	5.6905	5.5904	14.2886	-0.2247
9.6674	10.3361	13.092	11.3513	12.5019	14.4781	12.1635	11.9523	14.405	11.9442	11.0589	12.3557	10.4065	0.934	2.4879	5.5714	-1.8598	5.6445	4.5481	5.6608	5.5606	14.5918	-0.2274
9.6593	10.3794	13.092	11.289	12.5073	14.4808	12.085	11.9198	14.3536	11.8846	11.0102	12.3151	10.3496	0.9367	2.5204	5.6743	-1.868	5.6472	4.5075	5.6364	5.5444	14.8869	-0.2464
9.6404	10.393	13.1164	11.2159	12.4937	14.4159	11.9686	11.8819	14.3022	11.7682	10.9479	12.2663	10.3063	0.915	2.5583	5.7528	-1.8382	5.6229	4.4723	5.6066	5.5362	15.201	-0.2653
9.6485	10.4633	13.1678	11.1726	12.491	14.4267	11.8738	11.8657	14.2859	11.6843	10.9317	12.2203	10.2576	0.8988	2.5637	5.8503	-1.7922	5.6039	4.4182	5.5714	5.5119	15.4933	-0.2707
9.6349	10.4254	13.1489	11.1022	12.4477	14.3834	11.7384	11.798	14.2237	11.5679	10.8667	12.1662	10.1926	0.869	2.4933	5.8773	-1.7245	5.585	4.3857	5.4983	5.5146	15.8074	-0.2788
9.6241	10.4227	13.1733	11.021	12.4207	14.3725	11.6518	11.7736	14.183	11.4867	10.8559	12.1283	10.1574	0.8338	2.4608	5.9504	-1.6541	5.5741	4.3694	5.4577	5.501	16.0916	-0.2761
9.5754	10.393	13.1841	10.9317	12.3692	14.3265	11.5381	11.6951	14.1181	11.3621	10.7638	12.0606	10.0735	0.7878	2.4013	5.964	-1.5648	5.5281	4.3532	5.3792	5.4577	16.3515	-0.2626
9.5429	10.3524	13.157	10.8342	12.3097	14.2995	11.3973	11.6329	14.0775	11.262	10.6935	12.0092	10.0275	0.7309	2.3147	5.9802	-1.4754	5.4821	4.3667	5.3197	5.3982	16.587	-0.2626
9.4806	10.2522	13.1272	10.7422	12.242	14.248	11.2755	11.5489	13.9935	11.1483	10.6095	11.9225	9.9652	0.6876	2.182	5.9531	-1.3644	5.4198	4.3775	5.2601	5.3359	16.8144	-0.2626
9.4563	10.1818	13.1218	10.6447	12.1608	14.1966	11.1672	11.4758	13.9475	11.0589	10.5229	11.8711	9.8921	0.6443	2.1143	5.9586	-1.2886	5.3846	4.383	5.1951	5.2818	17.0012	-0.2382
9.3967	10.1033	13.1002	10.5879	12.0958	14.1587	11.0616	11.3892	13.8853	10.9452	10.4471	11.8115	9.8272	0.6118	1.9817	5.9071	-1.2291	5.3549	4.4019	5.1247	5.2303	17.1664	-0.2328
9.3561	10.0139	13.0677	10.4633	12.0092	14.0964	10.9371	11.308	13.7851	10.8505	10.3469	11.7384	9.7622	0.5929	1.8896	5.8936	-1.1749	5.2926	4.3559	5.0571	5.141	17.3045	-0.2139
9.3263	9.9327	13.046	10.3903	11.9469	14.0531	10.8613	11.2349	13.7309	10.7611	10.2414	11.6816	9.6999	0.5793	1.7868	5.8313	-1.156	5.2547	4.3099	4.9948	5.0814	17.429	-0.2112
9.2965	9.8678	13.0244	10.3361	11.8927	14.0017	10.7747	11.151	13.6741	10.6853	10.1385	11.6193	9.6566	0.5739	1.6785	5.7555	-1.1479	5.2168	4.2963	4.919	4.984	17.5292	-0.1678
9.2965	9.8353	13.0135	10.3172	11.8278	13.9773	10.7449	11.0833	13.6416	10.6447	10.087	11.5543	9.616	0.5875	1.5891	5.696	-1.1722	5.1762	4.2422	4.8432	4.8892	17.6347	-0.1056
9.329	9.7974	13.0081	10.3144	11.8088	13.98	10.7557	11.04	13.6199	10.6393	10.0112	11.5408	9.6025	0.601	1.4835	5.6066	-1.1966	5.1762	4.207	4.8188	4.8242	17.7566	-0.0704
9.3371	9.7649	13.0325	10.3686	11.7628	13.9583	10.7774	11.0048	13.5875	10.6447	9.9598	11.5327	9.5997	0.6091	1.3996	5.4983	-1.2155	5.1491	4.1339	4.7945	4.7755	17.9	-0.0379
9.4157	9.7865	13.0731	10.4715	11.7709	13.9962	10.8505	11.0021	13.6145	10.6826	9.9327	11.5516	9.6458	0.6199	1.2859	5.3846	-1.2453	5.1599	4.0798	4.7511	4.6997	18.0706	-0.0162
9.4888	9.8055	13.1218	10.5906	11.7845	14.0423	10.975	11.0048	13.6524	10.7422	9.9165	11.5679	9.6945	0.647	1.1803	5.2818	-1.2805	5.1816	4.0283	4.7457	4.651	18.279	0.0352
9.5646	9.884	13.1895	10.7503	11.8494	14.1316	11.1104	11.021	13.693	10.8315	9.9463	11.6274	9.7784	0.6579	1.0612	5.122	-1.3022	5.233	3.9742	4.7647	4.6185	18.5092	0.046
9.662	9.9246	13.2653	10.9263	11.89	14.1912	11.2484	11.0562	13.7472	10.9425	9.9409	11.6816	9.8488	0.6443	0.9204	4.9677	-1.3022	5.2682	3.9336	4.7647	4.6077	18.7772	0.1002
9.7459	9.9977	13.333	11.0698	11.9415	14.248	11.3865	11.0941	13.8257	11.0698	9.9733	11.7249	9.9409	0.6497	0.823	4.8486	-1.294	5.3142	3.8659	4.7918	4.5698	19.056	0.1002
9.8515	10.0925	13.4142	11.2322	11.9902	14.3346	11.5381	11.1429	13.9123	11.1943	10.0275	11.8359	10.0546	0.647	0.7039	4.6618	-1.294	5.3711	3.8496	4.8324	4.586	19.3728	0.1272
9.9544	10.1818	13.509	11.3973	12.0795	14.4619	11.6897	11.2132	14.0179	11.3324	10.087	11.9117	10.1845	0.647	0.6524	4.5292	-1.2913	5.4577	3.8388	4.8838	4.605	19.6868	0.157
10.0248	10.263	13.582	11.5273	12.1364	14.5377	11.8169	11.2701	14.0964	11.4813	10.1412	11.9929	10.309	0.6389	0.5685	4.3559	-1.2616	5.5416	3.7414	4.9136	4.651	20.0414	0.2003
10.1141	10.3605	13.6876	11.6518	12.2284	14.6162	11.9415	11.3513	14.2101	11.6274	10.2522	12.1147	10.4633	0.6145	0.4846	4.2611	-1.2399	5.6662	3.7007	4.9948	4.6943	20.3988	0.2409
10.1899	10.4038	13.7364	11.7655	12.2772	14.6893	12.0579	11.3973	14.2886	11.7601	10.3307	12.223	10.5987	0.5875	0.4494	4.142	-1.1912	5.7501	3.6114	5.0083	4.7701	20.748	0.2518
10.2684	10.4958	13.8311	11.8982	12.3476	14.7949	12.2014	11.4975	14.4159	11.9063	10.4309	12.3557	10.7638	0.5766	0.4304	4.0662	-1.1343	5.8692	3.5437	5.0544	4.8486	21.1216	0.2707
10.3659	10.5554	13.934	12.0281	12.4315	14.8896	12.3367	11.5435	14.5079	12.0471	10.5202	12.4883	10.9046	0.555	0.4142	4.0202	-1.1208	5.9938	3.4706	5.0814	4.9596	21.506	0.287
10.439	10.5825	14.0098	12.1553	12.4721	14.9763	12.4369	11.6085	14.6135	12.1797	10.6285	12.602	11.0508	0.5414	0.425	3.9823	-1.0802	6.1047	3.4138	5.122	5.0652	21.9121	0.287
10.4742	10.6149	14.0748	12.2555	12.5208	15.0466	12.5262	11.6681	14.692	12.2853	10.707	12.7103	11.1889	0.509	0.4683	3.985	-1.0233	6.2076	3.3461	5.1193	5.1302	22.3182	0.287
10.5337	10.661	14.1695	12.3449	12.556	15.0927	12.6129	11.7005	14.7624	12.3773	10.7828	12.7915	11.3134	0.4819	0.4359	3.9931	-0.9746	6.3186	3.3136	5.1247	5.233	22.7703	0.2951
10.5608	10.661	14.1939	12.4477	12.5858	15.1333	12.6643	11.7222	14.849	12.4586	10.8748	12.8863	11.4109	0.4656	0.4981	4.0202	-0.934	6.4161	3.2974	5.1166	5.3305	23.2305	0.2788
10.596	10.6799	14.2561	12.5019	12.6102	15.1928	12.7347	11.7466	14.8923	12.5208	10.9452	12.9756	11.5192	0.4467	0.5171	4.0446	-0.9123	6.5271	3.3055	5.1085	5.4713	23.7043	0.3222
10.5987	10.6556	14.2616	12.5289	12.602	15.1874	12.7347	11.7574	14.9275	12.5641	11.0454	13.0568	11.5814	0.4521	0.4981	4.0798	-0.8907	6.5893	3.3434	5.0868	5.5823	24.2159	0.314
10.5852	10.6258	14.2616	12.5154	12.5723	15.1712	12.7374	11.7439	14.9248	12.5804	11.0725	13.1056	11.6464	0.425	0.4629	4.0446	-0.8555	6.6516	3.4246	5.0516	5.696	24.752	0.3574
10.5419	10.5581	14.2291	12.4829	12.5289	15.1685	12.7103	11.7141	14.9546	12.5723	11.151	13.1651	11.7087	0.4359	0.4115	4.0094	-0.8609	6.722	3.4842	5.0462	5.8286	25.3042	0.3709
10.4661	10.5121	14.1885	12.4098	12.4667	15.1197	12.6643	11.6681	14.9329	12.5831	11.1672	13.176	11.7493	0.425	0.3276	3.9579	-0.8717	6.7518	3.5519	5.0246	5.9396	25.8728	0.4223
10.3578	10.4038	14.1181	12.2853	12.3719	15.0575	12.5452	11.6247	14.8923	12.5316	11.2024	13.1814	11.7547	0.4359	0.2057	3.874	-0.8771	6.8059	3.606	5.0029	6.0289	26.4629	0.4683
10.2522	10.2847	14.0152	12.1229	12.2826	14.979	12.4234	11.5571	14.849	12.5073	11.2268	13.1895	11.7601	0.4413	0.0406	3.7495	-0.8853	6.8032	3.6385	4.9813	6.1183	27.0531	0.5171
10.1439	10.1547	13.9394	11.9604	12.1824	14.9221	12.307	11.4948	14.8084	12.4504	11.2403	13.2112	11.779	0.4575	-0.1272	3.6033	-0.9123	6.833	3.6439	4.9975	6.1941	27.6351	0.555
10.0464	10.0708	13.8771	11.7845	12.1066	14.8328	12.1851	11.4542	14.7597	12.3828	11.2863	13.2328	11.7872	0.4602	-0.3113	3.4354	-0.9394	6.8682	3.6385	4.9948	6.2807	28.2091	0.6064
9.9327	9.9679	13.7905	11.5895	12.0173	14.7922	12.0308	11.3946	14.738	12.3259	11.289	13.2491	11.798	0.4629	-0.4792	3.2811	-0.9421	6.8709	3.6249	5.0029	6.3186	28.7478	0.6227
9.8488	9.8813	13.7255	11.4163	11.9469	14.7353	11.9171	11.3703	14.7461	12.2961	11.3215	13.2815	11.7953	0.4765	-0.6876	3.1512	-0.9394	6.8736	3.606	5.0354	6.3809	29.2784	0.6497
9.7622	9.8272	13.6795	11.2403	11.8955	14.7218	11.7953	11.3324	14.7191	12.242	11.3513	13.314	11.798	0.4765	-0.8555	2.9644	-0.9394	6.8871	3.6006	5.0652	6.4377	29.7765	0.647
9.7351	9.8109	13.6714	11.0995	11.8982	14.7326	11.6843	11.3324	14.7326	12.196	11.4055	13.3682	11.8305	0.4629	-1.0287	2.8561	-0.934	6.8844	3.6087	5.1112	6.4973	30.2368	0.6714
9.6701	9.7893	13.6795	10.9913	11.8413	14.7137	11.5841	11.3161	14.7434	12.1581	11.3973	13.3952	11.8305	0.4602	-1.1587	2.7613	-0.9367	6.8682	3.5898	5.1193	6.5081	30.6753	0.6849
9.6647	9.7947	13.6714	10.8505	11.8603	14.738	11.5056	11.3324	14.7651	12.1093	11.465	13.4331	11.8224	0.4711	-1.3319	2.6558	-0.9448	6.8357	3.5925	5.1681	6.5596	31.0489	0.6985
9.6864	9.838	13.7093	10.7882	11.909	14.7813	11.4298	11.373	14.7868	12.1012	11.5002	13.4981	11.8251	0.4819	-1.4294	2.5746	-0.9746	6.8059	3.6141	5.206	6.5596	31.3927	0.7174
9.681	9.8596	13.7336	10.7341	11.9307	14.8084	11.373	11.4082	14.8219	12.0687	11.5408	13.5469	11.8088	0.5198	-1.4944	2.5556	-1.0179	6.7572	3.6304	5.2222	6.5785	31.6905	0.7255
9.7162	9.8813	13.7715	10.6745	11.9794	14.8436	11.3134	11.4379	14.8328	12.0498	11.5868	13.5983	11.8142	0.5469	-1.6135	2.5177	-1.0829	6.7085	3.6656	5.2303	6.6029	31.9802	0.7688
9.708	9.9111	13.7959	10.6095	11.9821	14.8734	11.2295	11.4542	14.8436	11.9848	11.6058	13.6227	11.7899	0.5685	-1.6703	2.4852	-1.1262	6.6354	3.6872	5.2087	6.6002	32.2401	0.8013
9.6972	9.9219	13.8284	10.5581	11.9902	14.8977	11.1672	11.4704	14.8544	11.9307	11.6193	13.6281	11.7682	0.6064	-1.7434	2.469	-1.2047	6.5596	3.7305	5.2114	6.6191	32.4892	0.8474
9.7162	9.9273	13.8311	10.5256	11.9794	14.8815	11.1266	11.4813	14.8436	11.8873	11.6274	13.6443	11.706	0.6362	-1.7678	2.4608	-1.2751	6.4838	3.7549	5.1816	6.6056	32.7355	0.8555
9.6999	9.9598	13.8582	10.4985	12.0065	14.9113	11.0968	11.4921	14.8192	11.8413	11.6329	13.6308	11.6518	0.6849	-1.7976	2.4663	-1.3536	6.4134	3.7657	5.1681	6.5677	32.9792	0.8717
9.7107	9.9598	13.8636	10.5121	11.9929	14.9086	11.0616	11.4975	14.8247	11.8142	11.6112	13.6172	11.595	0.7093	-1.8138	2.4257	-1.4132	6.3294	3.7955	5.1329	6.5189	33.2607	0.8988
9.6999	9.9815	13.8798	10.4715	12.001	14.9059	11.0508	11.4867	14.8057	11.7655	11.6058	13.5983	11.5543	0.7309	-1.7895	2.3986	-1.4673	6.232	3.7766	5.1058	6.4892	33.5287	0.888
9.6783	10.0194	13.8853	10.4904	12.0498	14.9194	11.0643	11.5354	14.8057	11.7547	11.6274	13.6118	11.511	0.7472	-1.7651	2.385	-1.4971	6.1914	3.8226	5.0977	6.4865	33.8265	0.9042
9.6972	10.0898	13.9232	10.5419	12.1012	14.9492	11.1185	11.5787	14.8409	11.7763	11.6626	13.6308	11.5002	0.7634	-1.7245	2.4094	-1.5052	6.1616	3.8469	5.0679	6.5081	34.1243	0.8934
9.6999	10.1304	13.9583	10.5608	12.1581	14.9654	11.1293	11.6193	14.8544	11.752	11.6545	13.5929	11.4596	0.7418	-1.6731	2.404	-1.4673	6.0858	3.8605	5.0516	6.5027	34.4275	0.8609
9.7243	10.2143	13.9908	10.6068	12.2582	15.0331	11.1645	11.6951	14.8544	11.7655	11.6789	13.6254	11.419	0.7174	-1.5973	2.4365	-1.4186	6.0452	3.9065	5.0137	6.5298	34.7307	0.8609
9.7595	10.3253	14.0585	10.6826	12.3719	15.0656	11.2376	11.7709	14.9086	11.8007	11.7411	13.6308	11.3784	0.6768	-1.5269	2.4933	-1.3319	5.9775	3.9119	4.9515	6.5325	35.015	0.8474
9.8136	10.4633	14.1587	10.7747	12.51	15.1658	11.3107	11.8711	14.9546	11.8305	11.7655	13.6497	11.354	0.6254	-1.4565	2.5962	-1.2697	5.9423	3.9525	4.9082	6.565	35.2992	0.8284
9.8813	10.5689	14.2209	10.8451	12.6075	15.2307	11.3676	11.9577	15.025	11.8576	11.8088	13.6606	11.3297	0.5983	-1.3482	2.7153	-1.1776	5.9017	4.004	4.8648	6.592	35.5564	0.7932
9.9517	10.7016	14.3346	10.9642	12.7861	15.3147	11.4813	12.0633	15.0629	11.8765	11.8576	13.6633	11.2809	0.5496	-1.2453	2.8669	-1.0964	5.8584	4.05	4.808	6.6327	35.7892	0.7607
10.0437	10.8478	14.4456	11.0806	12.935	15.4338	11.576	12.1716	15.1252	11.9307	11.9279	13.6903	11.2647	0.4954	-1.1587	3.0212	-0.999	5.7988	4.1095	4.762	6.6922	36.0166	0.693
10.1493	10.9967	14.5783	11.178	13.065	15.5339	11.706	12.2663	15.182	11.9523	11.9442	13.712	11.197	0.4494	-1.0287	3.2216	-0.9015	5.7447	4.1799	4.6862	6.7085	36.2251	0.6579
10.282	11.1374	14.692	11.2999	13.2301	15.6368	11.7899	12.3665	15.2361	11.9713	12.0146	13.7066	11.1456	0.398	-0.9421	3.4409	-0.8013	5.6878	4.2611	4.6131	6.7355	36.393	0.6118
10.3875	11.3188	14.8382	11.4488	13.4142	15.7586	11.8873	12.5154	15.3309	12.0308	12.0877	13.7364	11.1239	0.3601	-0.8582	3.6872	-0.7201	5.6364	4.3721	4.5643	6.8005	36.5554	0.5387
10.5256	11.4813	14.9898	11.5787	13.6037	15.875	12.0146	12.6318	15.4094	12.0741	12.1472	13.7526	11.0752	0.3113	-0.7553	3.9173	-0.6254	5.6147	4.4723	4.5373	6.8546	36.6962	0.49
10.6583	11.7087	15.1631	11.752	13.8095	16.0294	12.1337	12.7861	15.5123	12.1256	12.2149	13.7905	11.0481	0.2707	-0.6524	4.161	-0.536	5.6039	4.605	4.5075	6.9169	36.8126	0.425
10.8126	11.8711	15.3174	11.9036	14.0233	16.1701	12.2826	12.9215	15.6043	12.2041	12.2961	13.8067	11.0319	0.2274	-0.555	4.3857	-0.4494	5.5931	4.716	4.5129	6.9819	36.9452	0.3628
10.9452	12.0823	15.4852	12.085	14.2264	16.3136	12.3963	13.092	15.7207	12.2718	12.3963	13.8501	11.0129	0.1895	-0.4927	4.6185	-0.3655	5.5904	4.8324	4.5454	7.0523	37.0562	0.3005
11.0752	12.2393	15.6368	12.2609	14.4429	16.4815	12.5479	13.2247	15.8182	12.3124	12.4694	13.8907	10.9994	0.1489	-0.4386	4.8188	-0.2924	5.5958	4.9677	4.5698	7.0902	37.1807	0.2491
11.2051	12.4775	15.8101	12.4342	14.6649	16.6466	12.6941	13.4115	15.9508	12.4125	12.5804	13.9746	11.0021	0.1083	-0.379	5.0164	-0.2247	5.6499	5.1166	4.6293	7.1903	37.2836	0.1678
11.3351	12.6589	16.0131	12.6454	14.8923	16.8253	12.8863	13.5712	16.116	12.5073	12.7049	14.0775	11.0671	0.0623	-0.3357	5.1518	-0.157	5.6824	5.2249	4.6997	7.2526	37.3946	0.1327
11.4325	12.7915	16.1268	12.797	15.1008	16.985	12.9838	13.7201	16.227	12.5885	12.7861	14.1343	11.0806	0.046	-0.3222	5.2682	-0.0893	5.7393	5.3521	4.7647	7.3095	37.5354	0.0839
11.5273	12.9296	16.292	12.9431	15.2713	17.1258	13.1191	13.8961	16.3786	12.6833	12.8917	14.248	11.1266	0.0027	-0.3113	5.3088	-0.0406	5.8097	5.4686	4.7918	7.3771	37.6735	0.0541
11.622	13.0514	16.4165	13.1056	15.4284	17.3045	13.2734	14.0369	16.5112	12.797	12.9973	14.3292	11.197	-0.0081	-0.3005	5.3386	-0.0135	5.88	5.5741	4.9027	7.4286	37.8413	0.0108
11.6572	13.1381	16.5194	13.2518	15.5475	17.41	13.3763	14.1479	16.6222	12.8728	13.0704	14.4104	11.2349	-0.0162	-0.3384	5.3007	0.0081	5.9315	5.6581	4.9921	7.48	38.02	-0.0244
11.7384	13.2139	16.6358	13.4007	15.6937	17.5643	13.5252	14.3157	16.7711	12.9756	13.1949	14.5106	11.3161	-0.0108	-0.3844	5.2168	-0.019	6.0046	5.7284	5.0516	7.5071	38.2609	-0.0596
11.752	13.2491	16.7062	13.5008	15.7641	17.678	13.6335	14.3996	16.8767	13.0514	13.2436	14.6	11.3811	0.0135	-0.4359	5.0841	-0.046	6.0668	5.7447	5.1058	7.5342	38.5235	-0.0406
11.779	13.3167	16.7955	13.601	15.8561	17.8107	13.7445	14.516	17.0012	13.1381	13.3194	14.6974	11.4569	0.0406	-0.5171	4.9406	-0.1164	6.1156	5.788	5.2005	7.5612	38.8051	-0.0433
11.7818	13.3167	16.8334	13.6768	15.9292	17.8973	13.8149	14.6297	17.1177	13.2112	13.3925	14.7813	11.4975	0.1056	-0.5929	4.7376	-0.203	6.1345	5.8124	5.2872	7.5612	39.1489	-0.0244
11.7845	13.3194	16.8957	13.7499	16.005	18.011	13.9259	14.7218	17.2124	13.2734	13.4602	14.8869	11.5895	0.1435	-0.6741	4.5481	-0.2978	6.1778	5.8124	5.3467	7.5693	39.49	0.0135
11.7547	13.2626	16.8875	13.7553	16.0185	18.0543	13.9746	14.7488	17.2936	13.3492	13.49	14.9519	11.6058	0.203	-0.7878	4.3045	-0.4061	6.1643	5.7555	5.3792	7.5396	39.8825	0.0217
11.687	13.2491	16.893	13.7418	16.0348	18.1139	14.0071	14.7976	17.3451	13.4007	13.5469	15.0142	11.6681	0.2599	-0.8636	4.0852	-0.5252	6.1697	5.6987	5.4361	7.499	40.2724	0.0514
11.6166	13.1976	16.8794	13.7093	16.0564	18.1762	14.0531	14.8436	17.3803	13.425	13.5658	15.0466	11.6978	0.3222	-0.9854	3.8226	-0.6443	6.1318	5.6283	5.4631	7.48	40.7136	0.0893
11.5273	13.1137	16.8523	13.6172	16.0375	18.1572	13.999	14.8544	17.4019	13.4169	13.5469	15.0791	11.6789	0.379	-1.0585	3.5681	-0.7418	6.056	5.5037	5.4442	7.4123	41.1685	0.1245
11.4217	13.0596	16.7847	13.5441	16.0267	18.1653	13.98	14.8517	17.4209	13.4142	13.5523	15.0845	11.6708	0.4169	-1.1776	3.2974	-0.8338	5.9856	5.3603	5.4469	7.3284	41.6449	0.1976
11.2863	13.0081	16.7332	13.4142	15.986	18.1464	13.9502	14.8463	17.3992	13.4061	13.5035	15.071	11.6356	0.444	-1.2589	3.0564	-0.8988	5.8855	5.2168	5.4063	7.2661	42.1322	0.2464
11.1753	12.935	16.6601	13.2978	15.9319	18.1112	13.8961	14.8084	17.3803	13.3709	13.4494	15.0412	11.5977	0.4683	-1.3211	2.8534	-0.9475	5.7799	5.1085	5.3494	7.1578	42.6412	0.314
11.0752	12.8809	16.6141	13.2003	15.9075	18.0841	13.8501	14.7949	17.364	13.3709	13.4142	15.0358	11.5787	0.4927	-1.3698	2.7234	-0.9908	5.7068	4.9677	5.3034	7.0604	43.1474	0.3953
10.9967	12.8484	16.587	13.1083	15.8723	18.0895	13.8528	14.7678	17.364	13.3871	13.3763	15.0142	11.5408	0.4927	-1.4077	2.6179	-0.9908	5.5823	4.8865	5.2547	6.9792	43.6726	0.4683
10.9398	12.8294	16.5329	13.0244	15.8561	18.076	13.8446	14.738	17.3748	13.4142	13.3194	15.0304	11.53	0.49	-1.3888	2.5881	-0.9854	5.5037	4.8107	5.1789	6.8898	44.168	0.5766
10.8938	12.8159	16.5194	12.9702	15.8399	18.1031	13.8744	14.7109	17.3992	13.4467	13.2707	15.025	11.5354	0.4765	-1.3211	2.6125	-0.9584	5.3765	4.7836	5.1518	6.8194	44.6608	0.6389
10.9019	12.7997	16.5356	12.9107	15.8155	18.1085	13.9015	14.6839	17.3667	13.4792	13.2193	15.0196	11.5435	0.4656	-1.2182	2.7532	-0.9475	5.3088	4.7539	5.076	6.7328	45.1318	0.7337
10.9398	12.843	16.5627	12.9431	15.8128	18.1545	13.9611	14.6351	17.4046	13.5523	13.1841	15.0304	11.5327	0.4548	-1.1045	2.9211	-0.9042	5.2114	4.7728	5.0544	6.6489	45.5812	0.8095
11.0102	12.8619	16.6006	12.9621	15.7776	18.1762	14.0423	14.6297	17.4398	13.6172	13.1245	15.0358	11.5679	0.4413	-0.9394	3.1837	-0.8853	5.1437	4.7782	5.0164	6.5812	46.0008	0.8474
11.0887	12.8917	16.6764	13.0108	15.7911	18.2439	14.137	14.6054	17.4804	13.6849	13.092	15.0629	11.5922	0.4277	-0.7743	3.449	-0.8609	5.0814	4.8107	5.0029	6.5217	46.4394	0.888
11.2105	12.9973	16.7711	13.1137	15.7965	18.3359	14.2697	14.6081	17.5373	13.8013	13.0623	15.117	11.641	0.4359	-0.5766	3.8145	-0.8717	5.0571	4.8513	4.9921	6.4729	46.8725	0.915
11.3297	13.0677	16.8632	13.2166	15.8263	18.4063	14.3807	14.5945	17.5725	13.8907	13.0081	15.1116	11.6843	0.4223	-0.3628	4.1583	-0.8474	4.9948	4.9082	4.984	6.4052	47.3003	0.8961
11.484	13.1543	16.9661	13.3222	15.8426	18.4685	14.5025	14.5864	17.6266	13.9773	12.9892	15.1576	11.7303	0.425	-0.1597	4.5075	-0.8528	4.9894	4.9434	5.0246	6.343	47.7578	0.8961
11.6356	13.2518	17.0825	13.4034	15.9129	18.5471	14.6081	14.5837	17.6753	14.0802	12.954	15.1901	11.7953	0.4142	0.0487	4.9055	-0.8419	4.9677	4.9758	5.0462	6.297	48.218	0.8717
11.7709	13.3573	17.1772	13.509	15.9644	18.6229	14.7299	14.6108	17.7403	14.1533	12.908	15.2253	11.8494	0.4142	0.2382	5.2357	-0.8419	5.0137	5.0246	5.0841	6.2455	48.7053	0.8771
11.9063	13.4738	17.2638	13.601	16.005	18.6905	14.8057	14.6189	17.7566	14.2237	12.889	15.2145	11.8846	0.4223	0.4548	5.5606	-0.8501	5.0029	5.0489	5.1247	6.1887	49.2386	0.888
12.0741	13.6037	17.3911	13.6985	16.0754	18.769	14.914	14.6297	17.7945	14.2859	12.8863	15.2443	11.9388	0.4169	0.6172	5.8963	-0.8501	5.0544	5.0814	5.1518	6.1481	49.7909	0.9015
12.2203	13.7472	17.4804	13.8095	16.1404	18.8557	15.0006	14.646	17.8351	14.3563	12.8484	15.2605	11.9848	0.4277	0.804	6.1751	-0.8717	5.1031	5.1058	5.206	6.1047	50.3811	0.9394
12.3963	13.8582	17.5833	13.9123	16.2107	18.8882	15.0845	14.673	17.8784	14.4132	12.8186	15.2659	12.0065	0.4413	0.9584	6.4377	-0.8988	5.1681	5.1247	5.2601	6.0858	51.0227	0.9719
12.5398	13.9692	17.6808	14.0233	16.2947	18.9748	15.1658	14.7218	17.9325	14.4511	12.8186	15.3201	12.0768	0.4548	1.0937	6.6272	-0.9259	5.2411	5.1058	5.3142	6.0723	51.7157	1.0314
12.6887	14.0775	17.789	14.1343	16.3515	19.0371	15.2199	14.7191	17.9623	14.4727	12.824	15.3336	12.0985	0.4711	1.2345	6.7815	-0.9584	5.3332	5.1193	5.363	6.075	52.4467	1.0721
12.8457	14.183	17.8838	14.2372	16.3948	19.0858	15.2849	14.7786	18.0029	14.5106	12.8213	15.3336	12.1256	0.4954	1.3374	6.9007	-0.9908	5.4063	5.1166	5.39	6.0452	53.2588	1.1533
13.0271	14.3076	18.0056	14.3942	16.495	19.186	15.3986	14.849	18.0381	14.5729	12.8349	15.3823	12.1797	0.5008	1.4538	6.9711	-1.0152	5.5146	5.1247	5.474	6.0993	54.1224	1.2264
13.2112	14.4565	18.1166	14.5485	16.5789	19.2293	15.4636	14.8842	18.0922	14.6135	12.8755	15.4554	12.2284	0.5117	1.5648	7.0117	-1.0504	5.5633	5.1437	5.5281	6.1372	55.0672	1.294
13.4061	14.6081	18.2574	14.7245	16.6899	19.3565	15.5664	14.9735	18.1653	14.6703	12.9431	15.5123	12.2745	0.5387	1.6866	7.0469	-1.0802	5.6608	5.2087	5.5741	6.1562	56.0716	1.3563
13.5658	14.7597	18.3873	14.8707	16.7955	19.4486	15.6937	15.0439	18.2547	14.7191	12.9892	15.5691	12.3313	0.5333	1.7516	7.0171	-1.0802	5.7312	5.2249	5.6202	6.2239	57.1735	1.3969
13.7418	14.868	18.4929	15.0358	16.8875	19.5298	15.7586	15.1116	18.298	14.7516	13.0379	15.5935	12.3746	0.536	1.8355	6.9738	-1.0802	5.7988	5.2736	5.6174	6.2699	58.3538	1.4402
13.9015	15.0196	18.6093	15.1576	16.985	19.6191	15.8507	15.2091	18.3467	14.8165	13.1137	15.6666	12.4017	0.5198	1.9221	6.9304	-1.0531	5.8611	5.3467	5.6337	6.3592	59.5991	1.4673
14.0693	15.1468	18.7203	15.3065	17.0879	19.7084	15.9508	15.2822	18.409	14.8544	13.203	15.7424	12.4342	0.5008	1.9763	6.8709	-1.0206	5.8855	5.4388	5.6635	6.4594	60.9094	1.4646
14.1966	15.2659	18.8097	15.4311	17.1935	19.7572	16.0321	15.3634	18.455	14.868	13.2843	15.7965	12.4396	0.49	2.0521	6.7951	-0.98	5.8936	5.4902	5.6689	6.5433	62.2792	1.4565
14.2832	15.3363	18.8692	15.5285	17.2638	19.8113	16.0646	15.4284	18.4875	14.8896	13.3655	15.8317	12.4477	0.4548	2.1062	6.722	-0.9259	5.8909	5.585	5.6581	6.6489	63.6816	1.4186
14.359	15.4121	18.9288	15.6152	17.3396	19.8357	16.0916	15.4987	18.5092	14.8815	13.4386	15.8453	12.4179	0.4304	2.136	6.6678	-0.8609	5.8476	5.6689	5.6662	6.7653	65.1462	1.3563
14.4294	15.4771	18.9531	15.6287	17.3911	19.8655	16.0808	15.561	18.52	14.8571	13.4792	15.8696	12.3746	0.3844	2.1766	6.5731	-0.7797	5.7988	5.7826	5.6472	6.8492	66.6378	1.3076
14.4835	15.5339	18.964	15.6585	17.4615	19.8763	16.0564	15.6287	18.5119	14.8192	13.555	15.8886	12.3313	0.3519	2.2064	6.5217	-0.7012	5.7772	5.8963	5.6174	6.9629	68.1512	1.2372
14.4835	15.5664	18.9586	15.6558	17.5102	19.8736	15.9996	15.6639	18.4767	14.7299	13.6064	15.8534	12.2528	0.2897	2.228	6.4459	-0.5929	5.7095	5.9965	5.5985	7.0685	69.697	1.1966
14.5431	15.6395	18.9613	15.6558	17.5725	19.8573	15.9265	15.7343	18.4794	14.692	13.6822	15.8696	12.1824	0.2599	2.2795	6.4134	-0.509	5.6472	6.102	5.585	7.1876	71.2157	1.1451
14.5539	15.6666	18.945	15.6043	17.5833	19.8222	15.8399	15.7289	18.455	14.5972	13.7012	15.8371	12.1147	0.2003	2.3038	6.3809	-0.4115	5.566	6.2022	5.5768	7.277	72.7615	1.0883
14.5539	15.6828	18.9288	15.5556	17.6158	19.7951	15.7641	15.7586	18.4198	14.5052	13.7661	15.8182	12.0362	0.1597	2.3471	6.3619	-0.3249	5.52	6.2807	5.566	7.3744	74.2938	1.0314
14.5945	15.6855	18.8963	15.58	17.6104	19.768	15.6747	15.802	18.3955	14.4321	13.8149	15.8128	11.974	0.1164	2.404	6.3646	-0.2572	5.4767	6.3701	5.5471	7.4448	75.8153	0.999
14.6406	15.6855	18.9423	15.561	17.6429	19.7572	15.6368	15.8344	18.3873	14.3915	13.8798	15.8155	11.9523	0.0893	2.4852	6.3809	-0.1949	5.474	6.4215	5.5795	7.5477	77.3313	0.9394
14.6866	15.6774	18.9179	15.5745	17.6266	19.7409	15.5475	15.8371	18.3684	14.3076	13.915	15.7992	11.8819	0.0677	2.5421	6.4188	-0.1327	5.4198	6.4459	5.5741	7.5721	78.8555	0.9177
14.7543	15.672	18.9667	15.6341	17.651	19.7491	15.5529	15.8723	18.3819	14.3022	13.9665	15.8209	11.8873	0.0569	2.5989	6.4702	-0.1191	5.4496	6.4973	5.5795	7.6451	80.385	0.8663
14.8382	15.6991	18.9829	15.6666	17.6537	19.7518	15.5258	15.9129	18.3982	14.2832	14.0558	15.875	11.89	0.0379	2.6639	6.5433	-0.1029	5.4279	6.5487	5.6174	7.7128	81.9227	0.8338
14.914	15.7289	19.0316	15.7234	17.7051	19.7788	15.5177	15.9942	18.4469	14.2616	14.1289	15.9048	11.8955	0.0352	2.7289	6.6299	-0.0893	5.4307	6.592	5.6391	7.7643	83.4875	0.8257
14.979	15.783	19.0398	15.7749	17.7593	19.787	15.5285	16.0185	18.4388	14.2805	14.1776	15.9319	11.8927	0.0352	2.7613	6.7301	-0.1002	5.4577	6.6191	5.6797	7.8265	85.1064	0.8311
15.0629	15.848	19.1156	15.8723	17.8107	19.8167	15.5394	16.0808	18.4658	14.2751	14.2399	15.9779	11.9063	0.0433	2.7749	6.8628	-0.1056	5.4523	6.6516	5.7149	7.8834	86.7361	0.8284
15.1333	15.8778	19.1453	15.9292	17.8567	19.8086	15.5285	16.1079	18.4496	14.2778	14.3076	15.9698	11.8982	0.0541	2.7397	6.9683	-0.1245	5.4252	6.6381	5.723	7.9023	88.4417	0.8501
15.1766	15.8859	19.1426	15.9752	17.8621	19.8249	15.5231	16.1241	18.4442	14.2209	14.3346	15.9779	11.8927	0.0541	2.7397	7.1227	-0.1408	5.4117	6.6191	5.7636	7.9294	90.1851	0.8934
15.1874	15.8967	19.1237	16.0158	17.8324	19.7897	15.5339	16.0997	18.4036	14.1966	14.3428	15.9373	11.8657	0.0812	2.7126	7.2878	-0.1516	5.4171	6.5948	5.7718	7.9294	91.98	0.9232
15.1793	15.8561	19.0723	16.0212	17.808	19.7301	15.4608	16.0483	18.3521	14.1397	14.3509	15.9048	11.8467	0.0812	2.6558	7.4069	-0.1706	5.3819	6.5162	5.7691	7.9294	93.829	0.9854
15.1224	15.8101	19.0208	15.9969	17.7078	19.6299	15.4284	15.9887	18.2574	14.0748	14.3022	15.829	11.7628	0.0839	2.626	7.5423	-0.176	5.3332	6.4296	5.7718	7.8726	95.7186	1.0314
15.0385	15.7126	18.9179	15.9319	17.6077	19.5325	15.339	15.8723	18.168	13.9935	14.2453	15.7613	11.6708	0.0893	2.5502	7.6208	-0.1922	5.2818	6.3349	5.7312	7.8157	97.6786	1.0883
14.9302	15.5935	18.7988	15.8209	17.5048	19.4079	15.2524	15.7641	18.0435	13.9177	14.1587	15.6503	11.595	0.092	2.4879	7.7291	-0.2003	5.2439	6.2401	5.7339	7.7805	99.682	1.1479
14.738	15.4527	18.6229	15.6801	17.3234	19.2536	15.1224	15.5881	17.8757	13.7688	14.0639	15.515	11.4921	0.0812	2.3607	7.7426	-0.1868	5.1653	6.1183	5.6797	7.6614	101.7638	1.2182
14.5485	15.274	18.4279	15.4554	17.1312	19.075	14.96	15.3932	17.697	13.6633	13.9421	15.3607	11.3973	0.0569	2.2524	7.7534	-0.157	5.0787	5.9504	5.6445	7.5206	103.8781	1.267
14.3157	15.0629	18.2087	15.2145	16.9146	18.8394	14.7705	15.201	17.5048	13.4819	13.777	15.2118	11.262	0.065	2.1008	7.7399	-0.1191	5.0327	5.8394	5.5687	7.388	106.0493	1.3482
14.0802	14.8463	18.0056	14.9681	16.6818	18.6039	14.6054	14.9952	17.3017	13.3628	13.6091	15.0439	11.1537	0.0433	1.9925	7.7318	-0.1056	4.9704	5.7068	5.5308	7.2445	108.2449	1.4213
13.8392	14.6189	17.789	14.6974	16.4409	18.4117	14.3996	14.7651	17.1068	13.2139	13.4656	14.8653	11.0643	0.0406	1.8328	7.702	-0.1083	4.9244	5.5795	5.4442	7.1064	110.4891	1.4998
13.5766	14.3644	17.5427	14.3861	16.181	18.1843	14.2074	14.5214	16.8902	13.0541	13.287	14.6947	10.929	0.0217	1.692	7.6343	-0.0677	4.8621	5.455	5.3386	6.9656	112.7442	1.5837
13.3222	14.1451	17.3153	14.1072	15.9346	17.9461	13.9962	14.3022	16.6764	12.9242	13.1164	14.535	10.8207	0.0244	1.581	7.591	-0.0704	4.8026	5.3494	5.2547	6.8438	114.9804	1.6676
13.0568	13.8961	17.0608	13.8067	15.6585	17.7159	13.804	14.0612	16.4571	12.7563	12.9459	14.3563	10.6989	0.0135	1.4484	7.5639	-0.0541	4.743	5.2303	5.1464	6.6949	117.2084	1.7624
12.7753	13.6118	16.7765	13.4873	15.3959	17.4642	13.5712	13.7932	16.2107	12.5885	12.7618	14.1614	10.5364	0.019	1.359	7.4854	-0.0596	4.6862	5.095	5.0354	6.5406	119.4202	1.8328
12.5046	13.3546	16.5546	13.1895	15.1495	17.2124	13.3601	13.5631	15.9752	12.4234	12.5614	13.98	10.4038	0.0217	1.2182	7.4421	-0.0623	4.5995	4.9867	4.9244	6.4296	121.6049	1.895
12.2203	13.065	16.2649	12.8755	14.8761	16.9227	13.1489	13.2951	15.7397	12.2366	12.353	13.7661	10.2549	0.0244	1.11	7.3365	-0.065	4.5481	4.9055	4.8107	6.2645	123.7463	1.9221
11.9171	12.7699	15.9617	12.5696	14.6	16.6358	12.9107	13.0325	15.4663	12.0606	12.1445	13.5631	10.1033	0.0271	1.0666	7.2932	-0.0758	4.4777	4.7728	4.6997	6.1372	125.8309	1.9681
11.6247	12.4369	15.6693	12.2555	14.2886	16.3569	12.6805	12.7563	15.1712	11.8494	11.9144	13.3167	9.9192	0.0379	1.0179	7.1985	-0.0839	4.3857	4.6699	4.5725	6.0046	127.8775	1.9817
11.3161	12.1472	15.3715	11.9442	14.0206	16.0781	12.4288	12.4829	14.9005	11.6464	11.6978	13.0975	9.7378	0.0433	0.9827	7.1741	-0.0975	4.3288	4.5589	4.4534	5.8638	129.824	1.9492
11.0102	11.8386	15.0385	11.6329	13.712	15.7695	12.1716	12.1878	14.6108	11.4271	11.4623	12.8484	9.5402	0.0514	0.9827	7.0929	-0.1218	4.2287	4.4236	4.3234	5.7366	131.719	1.9357
10.6853	11.53	14.7597	11.3188	13.4386	15.4852	11.9117	11.9225	14.3563	11.2105	11.2159	12.5993	9.3669	0.0758	1.0287	7.0414	-0.1543	4.1772	4.3072	4.1989	5.612	133.5275	1.9059
10.4119	11.2538	14.4538	11.04	13.2003	15.2226	11.6653	11.687	14.1154	11.0156	11.021	12.3828	9.2018	0.1002	1.1154	7.0306	-0.2112	4.0933	4.1908	4.0906	5.5037	135.2655	1.8734
10.171	11.0264	14.1803	10.7882	12.9594	14.96	11.4434	11.4434	13.8528	10.8234	10.8045	12.1797	9.0096	0.1191	1.1993	7.0279	-0.2436	4.0419	4.0689	3.9769	5.3738	136.9412	1.8192
9.9598	10.8288	13.9475	10.596	12.7536	14.7299	11.262	11.2241	13.6416	10.6447	10.6258	11.9875	8.8905	0.1516	1.3184	7.0604	-0.3086	4.0202	3.9715	3.9146	5.2899	138.5249	1.7922
9.7865	10.6637	13.7526	10.4363	12.5912	14.5323	11.0752	11.0779	13.4765	10.531	10.4742	11.8278	8.7389	0.1841	1.4917	7.1389	-0.3601	3.9688	3.8767	3.8496	5.1735	140.0437	1.7651
9.6295	10.5283	13.5766	10.2982	12.4423	14.359	10.9182	10.8938	13.2978	10.3578	10.2982	11.6464	8.6116	0.2112	1.6839	7.2093	-0.4332	3.9579	3.7874	3.8063	5.0841	141.4948	1.7055
9.5104	10.4011	13.4169	10.2007	12.3015	14.2074	10.7774	10.7503	13.1516	10.2386	10.1222	11.4948	8.506	0.222	1.8788	7.3013	-0.4575	3.9065	3.7035	3.7603	4.9867	142.8835	1.6514
9.4671	10.3226	13.2843	10.1087	12.177	14.072	10.6745	10.5933	13.0189	10.1439	10.0112	11.373	8.4086	0.2409	2.071	7.388	-0.49	3.8659	3.6439	3.7305	4.919	144.2047	1.5837
9.3805	10.2062	13.203	10.0464	12.0552	13.9421	10.5364	10.4661	12.8619	10.0302	9.8705	11.2268	8.284	0.2491	2.3065	7.4773	-0.5144	3.8415	3.5762	3.6953	4.8242	145.4771	1.4917
9.3534	10.171	13.0893	10.0004	11.9794	13.8555	10.439	10.3794	12.7563	9.949	9.7405	11.0995	8.1893	0.2545	2.4987	7.5666	-0.5225	3.8117	3.5437	3.6412	4.7674	146.7034	1.4077
9.3074	10.1006	12.9946	9.9354	11.8927	13.7418	10.3199	10.2468	12.6129	9.8299	9.6133	10.9561	8.0593	0.2545	2.6612	7.6045	-0.5035	3.763	3.4869	3.6141	4.7214	147.881	1.3184
9.2668	10.0762	12.9269	9.8894	11.8088	13.647	10.2441	10.1683	12.5235	9.7351	9.5185	10.8775	7.9673	0.2409	2.8209	7.6614	-0.49	3.7332	3.4761	3.6006	4.6618	149.0397	1.2264
9.2938	10.0627	12.8511	9.8596	11.7655	13.5685	10.171	10.0789	12.4125	9.6728	9.4265	10.7584	7.8942	0.2436	2.9427	7.6722	-0.4981	3.7035	3.4733	3.56	4.6401	150.1849	1.1506
9.2857	10.0681	12.8267	9.8705	11.7303	13.4954	10.1304	10.0383	12.3611	9.6052	9.3507	10.6664	7.7995	0.2464	3.0429	7.6749	-0.4954	3.6872	3.5167	3.5437	4.6104	151.2759	1.0477
9.2857	10.0167	12.7212	9.8407	11.6302	13.4169	10.0573	9.9354	12.2311	9.5077	9.2289	10.5446	7.6885	0.222	3.1133	7.6749	-0.4575	3.6466	3.5356	3.4815	4.6022	152.3615	0.9584
9.2938	10.0085	12.6724	9.8515	11.5841	13.3411	10.0302	9.8894	12.1391	9.4644	9.1639	10.4579	7.5991	0.222	3.1377	7.6397	-0.4413	3.6412	3.5573	3.4436	4.5698	153.4173	0.8555
9.2559	9.9733	12.6047	9.8488	11.5489	13.2707	9.9815	9.7865	12.0444	9.3994	9.0827	10.3415	7.5017	0.2003	3.1295	7.5639	-0.4088	3.6222	3.5952	3.3894	4.5373	154.4731	0.7499
9.2343	9.9354	12.5019	9.8461	11.4677	13.1976	9.9327	9.7026	11.9523	9.3047	8.9771	10.2197	7.4123	0.1624	3.0618	7.4881	-0.3655	3.5654	3.5898	3.3082	4.4858	155.5018	0.6389
9.2099	9.8975	12.4558	9.8515	11.3757	13.1029	9.9057	9.6079	11.8115	9.2424	8.8471	10.0925	7.3013	0.1381	3.0131	7.4204	-0.3222	3.5519	3.6385	3.2514	4.4506	156.5116	0.536
9.1612	9.8163	12.3367	9.8136	11.2701	12.9783	9.8975	9.5131	11.7168	9.1639	8.747	9.9733	7.1822	0.1245	2.9292	7.3257	-0.2951	3.4815	3.6466	3.227	4.4019	157.5241	0.4304
9.1152	9.7297	12.2311	9.7947	11.1537	12.8944	9.8326	9.4021	11.5598	9.061	8.6197	9.819	7.0414	0.1245	2.8209	7.1849	-0.2626	3.43	3.6168	3.1512	4.3072	158.5528	0.333
9.0448	9.6295	12.0985	9.7405	11.0292	12.7699	9.7757	9.2695	11.4163	8.969	8.4871	9.6593	6.925	0.0975	2.7045	7.0523	-0.2139	3.3596	3.6277	3.097	4.2178	159.5572	0.2274
8.9473	9.4969	11.974	9.6539	10.8775	12.621	9.7053	9.126	11.2376	8.8688	8.3138	9.4752	6.7599	0.0704	2.5529	6.9196	-0.176	3.2432	3.5789	3.0185	4.1231	160.5616	0.1408
8.8444	9.3832	11.8251	9.616	10.7395	12.4856	9.6783	8.9771	11.0995	8.7524	8.1731	9.3263	6.6083	0.0785	2.4121	6.7924	-0.1678	3.1647	3.541	2.9996	4.0121	161.5795	0.0569
8.747	9.2289	11.6843	9.5239	10.5662	12.3503	9.5646	8.8282	10.9154	8.6197	8.016	9.1422	6.4594	0.0731	2.2226	6.6056	-0.1543	3.0754	3.495	2.9373	3.9065	162.6164	-0.0487
8.6116	9.0989	11.5273	9.4292	10.393	12.196	9.4833	8.6576	10.7422	8.4952	7.8726	9.0015	6.3078	0.0677	2.0521	6.4134	-0.1489	2.9888	3.4354	2.9265	3.7955	163.6586	-0.1327
8.46	8.9284	11.3594	9.2749	10.2359	12.0254	9.3426	8.506	10.5608	8.3463	7.7209	8.8363	6.167	0.0569	1.8761	6.2157	-0.1299	2.8967	3.3542	2.8805	3.7197	164.7199	-0.203
8.3247	8.7497	11.1726	9.0881	10.0681	11.8603	9.1774	8.3653	10.3767	8.1893	7.5802	8.6387	5.964	0.0487	1.6974	6.01	-0.1137	2.8074	3.2622	2.8263	3.6006	165.7567	-0.2653
8.1731	8.6116	10.994	8.8932	9.9057	11.6897	9.0312	8.2055	10.2197	8.0485	7.4475	8.5115	5.8882	0.0514	1.5269	5.8286	-0.1354	2.7478	3.1864	2.8236	3.5627	166.7882	-0.3059
8.0187	8.4871	10.8478	8.6685	9.7595	11.5246	8.8986	8.0783	10.0573	7.9186	7.2959	8.368	5.7284	0.0677	1.3698	5.6689	-0.1408	2.6964	3.0943	2.7938	3.4733	167.7871	-0.3357
7.8644	8.3653	10.6772	8.479	9.6295	11.3648	8.7389	7.9565	9.9002	7.813	7.1903	8.2299	5.6391	0.0812	1.267	5.5362	-0.1733	2.6585	3.0131	2.7938	3.4354	168.7401	-0.3519
7.7291	8.2407	10.5175	8.2732	9.5131	11.2403	8.5954	7.8211	9.7757	7.683	7.0929	8.1324	5.5444	0.0839	1.1722	5.4036	-0.1949	2.6449	2.9265	2.8534	3.3948	169.6578	-0.3682
7.5721	8.1379	10.3767	8.0566	9.4211	11.0941	8.4519	7.7453	9.6539	7.5856	7.036	8.0485	5.4686	0.0948	1.1045	5.3034	-0.2112	2.6395	2.848	2.8886	3.3759	170.4943	-0.3492
7.4177	8.0025	10.2062	7.859	9.2911	10.9398	8.2949	7.6397	9.5348	7.4611	6.9521	7.9186	5.3846	0.111	1.045	5.206	-0.222	2.6233	2.7613	2.9265	3.3651	171.2848	-0.3709
7.277	7.8834	10.0789	7.6722	9.1774	10.8017	8.1568	7.5342	9.394	7.3528	6.8465	7.8265	5.2899	0.111	0.9881	5.1247	-0.2382	2.6233	2.6883	2.9996	3.3623	172.0266	-0.3411
7.1281	7.7886	9.9165	7.4854	9.1016	10.6447	8.0539	7.434	9.3128	7.2499	6.8303	7.7588	5.2357	0.1245	0.9692	5.0435	-0.2599	2.6666	2.6314	3.0754	3.3623	172.6736	-0.3113
6.9981	7.6749	9.7947	7.323	8.9852	10.5364	7.9077	7.3744	9.1801	7.1606	6.7653	7.6722	5.1816	0.1272	0.9394	4.9623	-0.2761	2.6666	2.6179	3.1404	3.4084	173.2476	-0.3032
6.8573	7.5693	9.681	7.1497	8.904	10.4146	7.8157	7.2959	9.1097	7.0712	6.6841	7.61	5.1274	0.1272	0.9367	4.9027	-0.2897	2.6801	2.58	3.227	3.3975	173.7348	-0.2599
6.7464	7.4583	9.5483	7.0062	8.8201	10.2901	7.6966	7.2282	8.996	6.9548	6.6516	7.5342	5.0625	0.1408	0.8988	4.8459	-0.3086	2.6747	2.5637	3.2974	3.4219	174.1355	-0.2274
6.6164	7.3501	9.4292	6.8546	8.7497	10.1683	7.5991	7.166	8.9229	6.8709	6.6164	7.4692	5.0083	0.1651	0.8907	4.7728	-0.3303	2.6666	2.5285	3.3461	3.4192	174.4333	-0.1976
6.5162	7.2878	9.3317	6.6949	8.6847	10.0708	7.4773	7.1227	8.8444	6.7951	6.5812	7.4042	4.9704	0.1814	0.9015	4.7647	-0.3682	2.6666	2.5312	3.3921	3.4436	174.6201	-0.1733
6.4161	7.1849	9.2207	6.5568	8.6089	9.9652	7.3961	7.0685	8.7768	6.7274	6.5677	7.3501	4.9406	0.2112	0.8744	4.7268	-0.4142	2.672	2.5529	3.4544	3.4896	174.7473	-0.1245
6.2943	7.0848	9.1016	6.4431	8.4979	9.8569	7.2932	6.9927	8.6793	6.6137	6.5054	7.2797	4.8703	0.222	0.8392	4.7105	-0.4386	2.6449	2.5123	3.4679	3.4869	174.7988	-0.0785
6.1833	6.9656	8.9852	6.3051	8.4384	9.7405	7.1957	6.9738	8.6279	6.5866	6.5108	7.2228	4.8513	0.2572	0.804	4.6835	-0.5062	2.6368	2.5096	3.4706	3.5112	174.7825	-0.046
6.0939	6.8898	8.9067	6.1995	8.3788	9.6539	7.1172	6.9034	8.5385	6.5217	6.4783	7.1822	4.8134	0.2897	0.7688	4.6483	-0.5523	2.6206	2.5312	3.4842	3.5546	174.6932	0.0379
5.9802	6.8032	8.7849	6.0966	8.3138	9.5483	7.0225	6.8628	8.4708	6.4377	6.4269	7.1145	4.7701	0.3113	0.7337	4.6158	-0.6416	2.5989	2.5583	3.4815	3.5437	174.5551	0.065
5.8719	6.6949	8.6739	5.9694	8.2489	9.4319	6.9277	6.8059	8.4059	6.3782	6.3863	7.0658	4.7376	0.3601	0.6985	4.5941	-0.7174	2.5664	2.5773	3.4869	3.5627	174.3575	0.1489
5.7691	6.6299	8.5629	5.834	8.1947	9.3426	6.8276	6.7518	8.2868	6.3105	6.3619	6.9954	4.697	0.4007	0.6389	4.5237	-0.7932	2.5421	2.5881	3.4517	3.5843	174.1057	0.2112
5.6391	6.5406	8.4411	5.7176	8.0972	9.2126	6.7301	6.6922	8.2137	6.2455	6.3105	6.9088	4.6483	0.4386	0.5577	4.429	-0.8744	2.5096	2.5854	3.4219	3.5789	173.8621	0.2761
5.52	6.4215	8.3111	5.6066	8.0214	9.0908	6.6327	6.6029	8.1108	6.1724	6.2536	6.8276	4.6158	0.4819	0.4954	4.3478	-0.9529	2.4798	2.5583	3.3894	3.5735	173.5345	0.3167
5.3846	6.3024	8.1785	5.4929	7.8996	8.9554	6.5352	6.5189	7.9944	6.1047	6.1697	6.7436	4.5643	0.5035	0.4007	4.2476	-1.026	2.469	2.5123	3.3569	3.5519	173.1907	0.3601
5.2276	6.1914	8.0485	5.3792	7.8157	8.7984	6.4513	6.4269	7.8726	6.0425	6.0993	6.6408	4.5373	0.5523	0.2653	4.0933	-1.0991	2.4419	2.4608	3.3217	3.5085	172.8279	0.4061
5.1031	6.0723	7.9132	5.2601	7.6939	8.6847	6.3673	6.324	7.7724	5.964	5.9938	6.5244	4.4885	0.5739	0.1624	3.9227	-1.1614	2.4121	2.3607	3.2757	3.4273	172.4408	0.4169
4.9542	5.9559	7.7751	5.1681	7.591	8.5521	6.278	6.213	7.656	5.9369	5.8611	6.3944	4.4371	0.6199	0.0541	3.7468	-1.2264	2.3986	2.3038	3.2216	3.3651	172.0347	0.4304
4.8107	5.8394	7.656	5.0462	7.4692	8.4302	6.186	6.0641	7.5206	5.8557	5.7203	6.278	4.3857	0.6389	-0.1137	3.5275	-1.2643	2.3715	2.2713	3.181	3.2622	171.6097	0.4521
4.6889	5.6933	7.4908	4.9352	7.3122	8.284	6.121	5.9531	7.388	5.8015	5.5931	6.1697	4.3315	0.6633	-0.268	3.2784	-1.3076	2.3471	2.201	3.1106	3.1431	171.1955	0.4575
4.5616	5.6012	7.3717	4.8242	7.1957	8.1487	6.0452	5.8097	7.2824	5.7366	5.4198	6.0289	4.2882	0.6579	-0.4467	3.0348	-1.3103	2.3228	2.1549	3.0239	3.0131	170.7353	0.444
4.4425	5.4794	7.277	4.7593	7.0766	8.035	6.0046	5.6797	7.1578	5.7149	5.279	5.9207	4.2584	0.6606	-0.6227	2.7559	-1.2968	2.2605	2.1089	2.9698	2.9021	170.2561	0.4034
4.3884	5.3792	7.1822	4.7457	6.9846	7.9511	6.0019	5.5633	7.0685	5.7041	5.1464	5.8259	4.2395	0.6497	-0.804	2.5042	-1.2913	2.2605	2.1143	2.9238	2.7722	169.7525	0.4034
4.3099	5.3169	7.1118	4.697	6.8925	7.8509	5.9613	5.455	6.9954	5.6878	5.03	5.742	4.1908	0.6281	-1.0017	2.2389	-1.2453	2.2334	2.1143	2.8615	2.6612	169.2084	0.3465
4.272	5.2411	7.0577	4.7187	6.8086	7.794	5.9748	5.344	6.9223	5.7203	4.9027	5.6689	4.1962	0.5983	-1.1803	1.9952	-1.202	2.1983	2.1197	2.8128	2.58	168.5912	0.314
4.2557	5.1681	7.0008	4.7268	6.7572	7.7182	6.0019	5.2628	6.8709	5.7041	4.7809	5.5931	4.1989	0.5766	-1.359	1.757	-1.1451	2.1955	2.1603	2.7668	2.4798	167.955	0.2626
4.2422	5.1356	6.9711	4.7539	6.7193	7.6939	6.0181	5.1735	6.814	5.7339	4.6862	5.5092	4.188	0.5144	-1.5214	1.5837	-1.0369	2.1766	2.2091	2.7234	2.3959	167.2592	0.2247
4.2557	5.0381	6.9548	4.7863	6.6299	7.6235	6.056	5.0733	6.7734	5.7203	4.5616	5.4686	4.1935	0.444	-1.6866	1.4105	-0.9015	2.136	2.2253	2.6774	2.3065	166.5039	0.1814
4.2828	5.0056	6.9142	4.8351	6.5948	7.5937	6.0641	5.0056	6.6976	5.7393	4.4831	5.3873	4.1583	0.3736	-1.8084	1.3184	-0.7472	2.0927	2.2849	2.6152	2.2632	165.7053	0.1164
4.3045	4.9596	6.9142	4.8567	6.5217	7.5477	6.0804	4.8838	6.6651	5.7474	4.3694	5.3115	4.1447	0.2951	-1.9086	1.2778	-0.5766	2.0575	2.2984	2.5583	2.1739	164.8552	0.0893
4.3153	4.9298	6.8844	4.9055	6.4513	7.5125	6.1156	4.8188	6.6137	5.7691	4.2855	5.252	4.1177	0.1922	-2.0006	1.2697	-0.3736	2.0142	2.3282	2.5285	2.1279	163.9321	0.0893
4.364	4.8811	6.8763	4.9623	6.389	7.4881	6.1264	4.743	6.5704	5.7934	4.1826	5.1951	4.1204	0.0812	-2.0575	1.313	-0.1678	1.9952	2.3499	2.4825	2.0764	162.99	0.0704
4.3911	4.8351	6.8817	5.011	6.3051	7.4475	6.1643	4.6401	6.5162	5.7853	4.096	5.1329	4.0933	-0.0325	-2.0845	1.3915	0.0406	1.9844	2.3336	2.4554	2.0006	161.9937	0.0866
4.4263	4.7809	6.8601	5.0164	6.2157	7.4123	6.1968	4.5264	6.4594	5.8042	3.9985	5.0625	4.0581	-0.1462	-2.0873	1.5079	0.2599	1.9681	2.293	2.4202	1.9546	160.9568	0.092
4.4209	4.7268	6.8303	5.0354	6.0912	7.3501	6.1589	4.4127	6.3971	5.7853	3.9011	4.984	4.0473	-0.2464	-2.0629	1.6758	0.4575	1.9465	2.2659	2.3932	1.8788	159.8902	0.1002
4.4561	4.6672	6.833	5.0895	6.0262	7.3176	6.1426	4.3478	6.4052	5.7853	3.8361	4.9596	4.0283	-0.3249	-1.9627	1.8571	0.6118	1.9708	2.2443	2.3905	1.8761	158.7775	0.1083
4.5021	4.605	6.8167	5.0923	5.9261	7.2797	6.1372	4.2747	6.3349	5.7745	3.7576	4.9136	4.0473	-0.379	-1.8815	2.071	0.7526	1.9708	2.2091	2.385	1.8788	157.6595	0.1354
4.5183	4.5698	6.8167	5.1139	5.853	7.2472	6.1183	4.2124	6.3132	5.8042	3.7116	4.8784	4.0175	-0.4359	-1.7489	2.3255	0.8528	2.006	2.1928	2.3878	1.8842	156.5251	0.157
4.5725	4.5237	6.814	5.1247	5.7663	7.2472	6.0912	4.1664	6.297	5.7988	3.6683	4.8432	4.0148	-0.4738	-1.6081	2.5935	0.9286	2.0629	2.1224	2.4121	1.8761	155.3665	0.1597
4.5968	4.5075	6.8357	5.1491	5.7474	7.2309	6.0696	4.1339	6.2888	5.8178	3.6683	4.8648	4.0364	-0.4846	-1.4538	2.8372	0.9529	2.0954	2.1495	2.4175	1.9275	154.1915	0.1841
4.6401	4.5048	6.8519	5.1437	5.7068	7.2309	6.056	4.096	6.2861	5.8313	3.6628	4.873	4.0716	-0.4765	-1.294	3.097	0.9367	2.1603	2.1468	2.4419	1.9952	153.0193	0.1922
4.7051	4.521	6.8817	5.1572	5.7149	7.2607	6.0452	4.1556	6.3132	5.8557	3.7035	4.8946	4.142	-0.4575	-1.1072	3.3732	0.8907	2.2389	2.1279	2.5339	2.0466	151.8038	0.222
4.7539	4.586	6.9332	5.1545	5.7636	7.2688	6.0668	4.161	6.3403	5.9207	3.7576	4.9379	4.1637	-0.4142	-0.9042	3.6547	0.7986	2.3363	2.1658	2.5637	2.1576	150.572	0.2355
4.8215	4.6537	6.9792	5.1572	5.7907	7.3176	6.0858	4.253	6.3917	5.9748	3.8145	4.9921	4.2611	-0.3709	-0.7147	3.9011	0.7147	2.4473	2.1793	2.6558	2.2416	149.3348	0.2518
4.9217	4.7863	7.0496	5.1951	5.9044	7.388	6.1075	4.3369	6.4513	6.0398	3.9038	5.0462	4.3234	-0.314	-0.5306	4.1177	0.601	2.5691	2.2389	2.7207	2.3634	148.0651	0.3086
5.0083	4.9027	7.1172	5.206	5.964	7.4475	6.1697	4.429	6.4973	6.1075	4.0067	5.1085	4.3884	-0.2491	-0.3438	4.3478	0.4954	2.6774	2.2876	2.7992	2.4798	146.79	0.3682
5.0868	5.0652	7.193	5.2168	6.0966	7.5152	6.1995	4.5427	6.5623	6.186	4.0906	5.1735	4.4723	-0.1922	-0.1814	4.54	0.3763	2.7722	2.4094	2.9265	2.6152	145.515	0.4277
5.1437	5.1708	7.2553	5.2411	6.1887	7.5721	6.2401	4.632	6.6299	6.2076	4.161	5.2114	4.5454	-0.1489	-0.0487	4.6564	0.287	2.8426	2.4581	3.0158	2.6964	144.2101	0.4711
5.2276	5.3386	7.3311	5.233	6.2943	7.637	6.2699	4.7376	6.6976	6.2618	4.2503	5.2682	4.5725	-0.092	0.0948	4.808	0.176	2.9238	2.5231	3.1241	2.8074	142.9296	0.5252
5.298	5.4334	7.3636	5.2845	6.3917	7.6939	6.324	4.8405	6.7112	6.2997	4.3396	5.2926	4.6239	-0.0514	0.2057	4.8838	0.0839	3.005	2.607	3.1999	2.8696	141.6463	0.5983
5.3657	5.5579	7.4232	5.3521	6.5	7.7561	6.3673	4.9271	6.7897	6.3565	4.4073	5.3467	4.651	0.0081	0.3086	4.9731	-0.0162	3.07	2.6585	3.2838	2.9238	140.3523	0.6443
5.4307	5.6608	7.48	5.4063	6.5731	7.7967	6.3998	5.0002	6.8167	6.3971	4.4696	5.3603	4.6835	0.0352	0.3628	5.0462	-0.0866	3.0835	2.7262	3.338	2.9969	139.061	0.6849
5.4848	5.7609	7.5369	5.4713	6.6597	7.8617	6.4621	5.0841	6.8655	6.4296	4.5237	5.4171	4.7051	0.0731	0.3736	5.0571	-0.1624	3.1295	2.7451	3.4057	3.0239	137.7778	0.7309
5.5525	5.8638	7.5721	5.5471	6.7382	7.8969	6.5027	5.1816	6.9088	6.4783	4.5995	5.4334	4.7132	0.1137	0.3709	5.076	-0.2247	3.1458	2.7586	3.4598	3.0862	136.5162	0.7797
5.5877	5.9477	7.61	5.6202	6.8411	7.9186	6.5893	5.2466	6.9521	6.5271	4.6537	5.4929	4.7566	0.1408	0.2978	5.0489	-0.2843	3.1647	2.7613	3.495	3.0862	135.2601	0.804
5.6554	6.056	7.6451	5.6878	6.9088	7.97	6.6651	5.3549	6.99	6.5731	4.7132	5.5254	4.7701	0.176	0.2653	5.0219	-0.3492	3.1647	2.7857	3.5546	3.1268	134.0283	0.8392
5.677	6.1372	7.6533	5.7691	7.009	7.9835	6.7301	5.4361	7.0171	6.5975	4.7701	5.5687	4.7863	0.1922	0.1949	4.9569	-0.3871	3.208	2.7505	3.5898	3.1539	132.783	0.8501
5.7176	6.2049	7.6912	5.7745	7.0685	8.0106	6.7491	5.5092	7.0523	6.6218	4.8215	5.585	4.789	0.1922	0.0785	4.9082	-0.4034	3.1972	2.7045	3.6277	3.1485	131.5972	0.8798
5.7474	6.2753	7.702	5.8178	7.1714	8.0377	6.7518	5.5687	7.0766	6.6245	4.8973	5.6147	4.808	0.1976	-0.0569	4.8107	-0.4169	3.2053	2.7234	3.6899	3.1728	130.425	0.9177
5.7474	6.3078	7.6749	5.7988	7.2337	8.0133	6.7653	5.6445	7.0902	6.6245	4.9542	5.6445	4.8053	0.2003	-0.1922	4.697	-0.4115	3.1864	2.7126	3.7278	3.1783	129.269	0.9394
5.7393	6.3809	7.6722	5.8015	7.2661	8.0106	6.7436	5.7068	7.082	6.592	4.9677	5.6283	4.7457	0.1868	-0.3438	4.5752	-0.3925	3.1377	2.6747	3.7251	3.1972	128.1536	0.9448
5.6824	6.389	7.5991	5.7257	7.2851	7.97	6.7003	5.7176	7.0496	6.5217	4.9894	5.6147	4.7132	0.1651	-0.5062	4.4209	-0.3411	3.1025	2.6476	3.7197	3.181	127.0356	0.98
5.6283	6.3755	7.5666	5.6662	7.2851	7.924	6.6299	5.7149	6.9954	6.4783	4.9867	5.5985	4.6456	0.1354	-0.6741	4.2638	-0.2788	3.0537	2.5989	3.7143	3.1837	125.9229	0.9935
5.5768	6.3565	7.5206	5.5931	7.2688	7.8726	6.5487	5.7122	6.9602	6.3971	5.0137	5.5525	4.5914	0.1137	-0.8149	4.1258	-0.2328	2.9996	2.515	3.7116	3.1864	124.813	0.999
5.5227	6.3294	7.4529	5.5065	7.2445	7.8211	6.4946	5.7393	6.9223	6.3376	5.0164	5.5281	4.5156	0.0704	-1.0179	3.9877	-0.1516	2.9319	2.4527	3.698	3.208	123.7247	0.999
5.4496	6.3078	7.4042	5.4334	7.2147	7.7995	6.4107	5.7122	6.8682	6.2591	5.0489	5.4983	4.4615	0.0541	-1.1479	3.8632	-0.111	2.8967	2.3986	3.671	3.2026	122.6337	0.9827
5.4036	6.2699	7.3419	5.3494	7.1497	7.7399	6.3186	5.6635	6.7924	6.1887	5.011	5.4658	4.3667	0.0162	-1.2426	3.7468	-0.0514	2.8263	2.3471	3.6385	3.2243	121.5372	0.9719
5.3278	6.2239	7.2716	5.2574	7.0983	7.683	6.2212	5.6581	6.7382	6.0912	4.9948	5.4144	4.3207	0	-1.3861	3.6628	-0.019	2.7532	2.2957	3.6006	3.1972	120.4354	0.9854
5.2628	6.1372	7.193	5.1356	7.0225	7.5991	6.0993	5.6229	6.6706	5.9775	4.9731	5.3549	4.2205	-0.0271	-1.489	3.587	0.0217	2.672	2.2578	3.5383	3.1972	119.3336	0.9827
5.2087	6.0831	7.1064	5.0354	6.9494	7.545	5.991	5.566	6.592	5.9017	4.9298	5.2682	4.1745	-0.0352	-1.5702	3.5898	0.0514	2.5908	2.2226	3.4842	3.1539	118.2182	0.9719
5.1545	6.0073	7.0902	4.9379	6.8763	7.4935	5.9179	5.4848	6.5244	5.8205	4.8784	5.2466	4.096	-0.0217	-1.6189	3.606	0.0379	2.5339	2.2226	3.4625	3.116	117.0974	0.9719
