"FZ"	"FC3"	"FCZ"	"FC4"	"C3"	"CZ"	"C4"	"CP3"	"CPZ"	"CP4"	"P3"	"PZ"	"P4"	"OZ"	"FP1"	"FP2"	"A2"	"P8"	"TP7"	"TP8"	"P7"
1.1607	1.0839	1.2489	1.0611	1.0611	1.0469	1.246	0.7283	0.8165	1.118	0.8108	0.697	1.0697	0.2162	-0.2731	-0.2617	-0.4353	1.2773	0.8677	1.2603	0.7937
1.1294	1.0526	1.229	1.0441	1.0384	1.0099	1.1892	0.7169	0.7738	1.0412	0.7823	0.6543	0.9985	0.1935	-0.2902	-0.2987	-0.3698	1.2233	0.8734	1.2034	0.7795
1.1436	1.0498	1.2517	1.0042	1.0355	1.0099	1.1152	0.7197	0.7596	0.9644	0.8023	0.6116	0.9274	0.1536	-0.2731	-0.2589	-0.3072	1.155	0.8904	1.1095	0.8051
1.1095	1.0412	1.192	0.9445	1.0099	0.9929	1.0298	0.7141	0.6998	0.8876	0.7681	0.5775	0.8364	0.1138	-0.2731	-0.2247	-0.2276	1.101	0.8876	1.0213	0.8108
1.0782	1.0298	1.1806	0.9047	0.99	0.9701	0.9644	0.6913	0.6856	0.8165	0.7681	0.5178	0.7539	0.0825	-0.2503	-0.1935	-0.1735	1.0128	0.8876	0.9132	0.8079
1.0839	0.9985	1.1635	0.8449	0.9957	0.9701	0.8819	0.7027	0.6458	0.7368	0.7624	0.4865	0.6401	0.0626	-0.2134	-0.1337	-0.1081	0.916	0.899	0.8193	0.8165
1.0611	0.9729	1.1522	0.7909	0.9644	0.9502	0.8136	0.7027	0.6145	0.6515	0.7596	0.4182	0.5661	0.0228	-0.1707	-0.0341	-0.0484	0.8051	0.916	0.7368	0.8392
1.0384	0.9587	1.1493	0.7311	0.9416	0.9416	0.697	0.6771	0.5747	0.5405	0.751	0.3641	0.4523	-0.0085	-0.1394	0.0398	0.0114	0.7027	0.8904	0.6287	0.8421
1.0526	0.9502	1.1351	0.6714	0.9473	0.9473	0.6657	0.6941	0.569	0.4609	0.7482	0.3357	0.4125	-0.0085	-0.0768	0.1707	0.0228	0.6031	0.9274	0.5405	0.8591
1.0498	0.916	1.1522	0.6372	0.9559	0.9303	0.6287	0.6885	0.5604	0.4097	0.7454	0.3016	0.3072	-0.0057	-0.0171	0.2873	0.0284	0.5263	0.9189	0.4552	0.8591
1.0241	0.9075	1.1436	0.6088	0.953	0.936	0.5775	0.6998	0.5491	0.3755	0.7454	0.2902	0.2617	-0.0028	0.0569	0.3869	0.037	0.4324	0.9445	0.3841	0.8762
1.0327	0.9018	1.1522	0.586	0.9559	0.9331	0.5576	0.7027	0.5377	0.3186	0.7397	0.2646	0.1963	-0.0057	0.1053	0.4779	0.0284	0.3755	0.9303	0.3186	0.8819
1.0014	0.8705	1.1408	0.5604	0.9502	0.936	0.5405	0.6998	0.532	0.3016	0.7368	0.256	0.1565	0	0.1508	0.5576	0	0.3158	0.9217	0.2845	0.8961
1.0071	0.8392	1.1522	0.5348	0.9303	0.9331	0.5235	0.6913	0.5206	0.2646	0.7368	0.2276	0.1223	0.0028	0.1963	0.6145	0.0028	0.2589	0.916	0.239	0.9047
0.9729	0.8051	1.1351	0.5434	0.9388	0.9331	0.5149	0.6885	0.5263	0.2674	0.7283	0.2247	0.1024	0.0028	0.2048	0.6173	0.0142	0.2247	0.9217	0.202	0.9217
0.9957	0.7966	1.1778	0.5547	0.936	0.9616	0.5263	0.6998	0.5377	0.3072	0.7425	0.2219	0.0711	0.0057	0.2674	0.6429	-0.0057	0.2219	0.9075	0.1991	0.9331
0.9701	0.7795	1.1692	0.5348	0.9189	0.9644	0.5462	0.697	0.5462	0.3101	0.7397	0.2276	0.0825	0.0028	0.2703	0.606	0.0057	0.2134	0.899	0.1878	0.9559
0.9274	0.7283	1.1522	0.5235	0.8904	0.9445	0.5519	0.6856	0.5405	0.293	0.7368	0.2276	0.0484	-0.0142	0.2304	0.5348	0.0171	0.1906	0.8876	0.1792	0.9587
0.9303	0.7226	1.1408	0.5519	0.8535	0.916	0.5633	0.6572	0.5348	0.3243	0.7425	0.2361	0.0569	-0.0142	0.202	0.4666	0.0199	0.1764	0.8904	0.1878	0.9786
0.8876	0.6572	1.1323	0.5832	0.8392	0.9189	0.586	0.6629	0.5348	0.33	0.7567	0.2276	0.0484	-0.0199	0.1565	0.4125	0.0541	0.1792	0.8535	0.1878	0.9701
0.8506	0.6401	1.0782	0.5462	0.8165	0.8904	0.5576	0.6486	0.5149	0.3129	0.7397	0.2532	0.0512	-0.0484	0.0939	0.2788	0.0996	0.1678	0.8079	0.1394	0.9673
0.8307	0.623	1.0697	0.5519	0.771	0.8648	0.5889	0.6287	0.5206	0.3272	0.7254	0.2361	0.0654	-0.0825	0.0284	0.2048	0.1735	0.1309	0.7823	0.1138	0.953
0.7795	0.5718	1.0213	0.5491	0.7254	0.8392	0.5775	0.5917	0.5121	0.3186	0.7084	0.2503	0.0427	-0.1081	-0.0228	0.128	0.2247	0.1166	0.7539	0.0996	0.9388
0.7112	0.5092	0.9502	0.5206	0.6657	0.7852	0.5377	0.5547	0.4779	0.293	0.66	0.2333	0.0341	-0.1508	-0.1337	-0.0199	0.3129	0.0853	0.6998	0.0768	0.8961
0.697	0.4893	0.9416	0.5263	0.6259	0.7795	0.5491	0.5434	0.5035	0.3072	0.6486	0.2447	0.0313	-0.1849	-0.1792	-0.0853	0.3613	0.0626	0.6629	0.0484	0.8677
0.6629	0.4722	0.8762	0.5064	0.6003	0.7425	0.5491	0.5092	0.495	0.2959	0.6173	0.2646	0.037	-0.1963	-0.2134	-0.1678	0.3983	0.037	0.6202	0.0171	0.8563
0.6372	0.4495	0.8478	0.4808	0.5604	0.7169	0.5377	0.4836	0.4865	0.3016	0.5946	0.276	0.0455	-0.2162	-0.3129	-0.2902	0.4466	0.0142	0.5832	-0.0284	0.8193
0.5946	0.4267	0.8307	0.495	0.5348	0.6941	0.5235	0.4722	0.4893	0.2987	0.6003	0.293	0.0654	-0.2304	-0.3471	-0.3414	0.4552	-0.0142	0.5348	-0.0455	0.7681
0.5491	0.3954	0.7681	0.4836	0.4922	0.6316	0.5263	0.4523	0.4808	0.2816	0.5661	0.3215	0.0683	-0.2503	-0.4353	-0.441	0.4779	-0.0484	0.4836	-0.0797	0.7311
0.5263	0.4068	0.734	0.4751	0.4523	0.606	0.532	0.4267	0.5007	0.276	0.5434	0.3414	0.091	-0.2304	-0.5035	-0.5092	0.4637	-0.0797	0.4637	-0.091	0.6856
0.4893	0.3812	0.7027	0.4666	0.441	0.5974	0.5121	0.3954	0.4893	0.2703	0.5235	0.3528	0.1166	-0.2304	-0.5832	-0.5889	0.4495	-0.0797	0.4267	-0.1109	0.6372
0.4182	0.3755	0.6629	0.4722	0.421	0.5547	0.5035	0.3784	0.4751	0.2845	0.5092	0.404	0.1394	-0.2134	-0.6486	-0.6629	0.404	-0.0797	0.4011	-0.1394	0.606
0.3841	0.3556	0.6202	0.4523	0.4011	0.5149	0.495	0.3641	0.4922	0.2959	0.4893	0.4239	0.1479	-0.1764	-0.7169	-0.7425	0.3471	-0.0825	0.3471	-0.1508	0.5491
0.33	0.3357	0.5547	0.4495	0.3556	0.4779	0.4779	0.3385	0.5035	0.3016	0.4637	0.4495	0.1678	-0.1366	-0.7738	-0.8108	0.2674	-0.0768	0.3016	-0.1536	0.4779
0.2845	0.2987	0.4979	0.4495	0.3129	0.4353	0.4523	0.3158	0.4637	0.3072	0.4495	0.4751	0.1963	-0.0882	-0.8563	-0.916	0.1906	-0.0882	0.2418	-0.1792	0.4353
0.2447	0.2589	0.4552	0.4353	0.256	0.3869	0.4296	0.2845	0.4779	0.293	0.4182	0.4722	0.1906	-0.0455	-0.9274	-0.9872	0.0996	-0.0768	0.1991	-0.1849	0.3442
0.1622	0.2162	0.3812	0.4097	0.2447	0.3727	0.3727	0.2503	0.4523	0.3016	0.3869	0.4779	0.2077	-0.0057	-1.0156	-1.0867	0.0171	-0.0569	0.1707	-0.1565	0.3272
0.0996	0.1735	0.3357	0.3869	0.2162	0.3072	0.3556	0.2304	0.441	0.2816	0.3528	0.4808	0.2162	0.037	-1.064	-1.1607	-0.0626	-0.0284	0.1024	-0.165	0.2816
0.0797	0.1508	0.2674	0.3585	0.1821	0.2788	0.3328	0.2048	0.4552	0.2959	0.3215	0.495	0.2503	0.0797	-1.101	-1.2119	-0.1422	-0.0455	0.0683	-0.1536	0.2048
0.0427	0.1252	0.2048	0.3272	0.1394	0.2475	0.2816	0.165	0.4182	0.2845	0.3016	0.4893	0.276	0.1024	-1.1408	-1.2375	-0.2077	-0.0171	0.0085	-0.1479	0.1735
0.0199	0.091	0.1565	0.2987	0.0654	0.1963	0.2589	0.1508	0.3897	0.2845	0.256	0.4893	0.2873	0.128	-1.101	-1.2176	-0.2503	-0.0057	-0.0028	-0.1337	0.1195
0.0028	0.0939	0.1422	0.293	0.0967	0.1878	0.2503	0.1479	0.3755	0.2845	0.2674	0.4865	0.3158	0.1422	-1.0071	-1.1522	-0.3016	0.0199	-0.0028	-0.0967	0.1081
0.0228	0.091	0.0996	0.2703	0.091	0.1593	0.239	0.1366	0.3698	0.2959	0.2617	0.4808	0.3471	0.1593	-0.9473	-1.0327	-0.3385	0.0825	0.0085	-0.0569	0.1024
0.0028	0.0484	0.0797	0.2333	0.0768	0.1394	0.1963	0.1166	0.3471	0.2959	0.2304	0.4466	0.3528	0.1849	-0.8506	-0.9132	-0.3641	0.091	0.0085	-0.0341	0.0768
-0.0142	0.0142	0.0341	0.2105	0.0569	0.0768	0.1792	0.1024	0.3243	0.2816	0.1906	0.4495	0.3528	0.1849	-0.7681	-0.7653	-0.367	0.1252	-0.0114	-0.0114	0.0541
-0.0171	-0.0256	-0.0199	0.1622	0.0256	0.0284	0.1422	0.0825	0.2845	0.2646	0.1508	0.4296	0.3556	0.1963	-0.6259	-0.606	-0.3869	0.1622	-0.0114	-0.0085	0.0142
-0.074	-0.0683	-0.0797	0.1309	-0.037	-0.0313	0.0996	0.0228	0.202	0.2134	0.091	0.3784	0.3414	0.202	-0.5206	-0.4779	-0.3926	0.1422	-0.0142	0.0057	-0.0171
-0.1081	-0.1109	-0.1394	0.0882	-0.0654	-0.0825	0.0541	-0.0142	0.1479	0.1935	0.0541	0.3385	0.3385	0.2077	-0.4153	-0.3158	-0.4068	0.165	-0.0142	0.0313	-0.0512
-0.165	-0.1593	-0.239	0.0313	-0.1337	-0.1821	0.0171	-0.0711	0.0768	0.1508	0.0085	0.2816	0.293	0.1935	-0.2987	-0.2077	-0.3897	0.1707	-0.0341	0.0427	-0.091
-0.2048	-0.2276	-0.2873	0.0171	-0.1935	-0.2447	-0.0484	-0.1166	0.0085	0.1195	-0.0398	0.2304	0.2987	0.202	-0.1849	-0.1024	-0.3926	0.1849	-0.0512	0.0541	-0.1195
-0.2731	-0.293	-0.3897	-0.0256	-0.2589	-0.3556	-0.0768	-0.1821	-0.0882	0.0683	-0.1422	0.1479	0.2418	0.1878	-0.0882	0	-0.3727	0.1792	-0.0228	0.0512	-0.1508
-0.2987	-0.3499	-0.4523	-0.0455	-0.293	-0.421	-0.1309	-0.2276	-0.1536	0.0313	-0.1906	0.0825	0.2304	0.1991	0.0398	0.074	-0.3841	0.2134	-0.0398	0.0512	-0.165
-0.3585	-0.3897	-0.5149	-0.0768	-0.3641	-0.4979	-0.1707	-0.2987	-0.2418	-0.0199	-0.2475	0.0142	0.202	0.202	0.1081	0.1622	-0.3812	0.2219	-0.0541	0.0683	-0.2191
-0.4097	-0.4353	-0.5747	-0.074	-0.4381	-0.5775	-0.2105	-0.3442	-0.3186	-0.0541	-0.2987	-0.0484	0.1622	0.1991	0.2105	0.2361	-0.3784	0.2219	-0.0711	0.0768	-0.2447
-0.4495	-0.4722	-0.6543	-0.0996	-0.4722	-0.6458	-0.2532	-0.4239	-0.421	-0.0882	-0.3926	-0.1479	0.1195	0.1906	0.2418	0.2845	-0.3812	0.2333	-0.0853	0.0768	-0.2532
-0.4979	-0.5263	-0.7368	-0.1508	-0.5832	-0.7169	-0.2987	-0.4893	-0.5035	-0.1536	-0.4552	-0.2589	0.0768	0.1878	0.3016	0.3215	-0.3641	0.2191	-0.1109	0.1109	-0.2845
-0.5121	-0.5832	-0.8079	-0.1622	-0.6657	-0.8165	-0.3585	-0.5434	-0.6088	-0.2077	-0.5519	-0.3243	0.0341	0.1735	0.3272	0.3215	-0.3442	0.1792	-0.1394	0.1166	-0.3385
-0.5462	-0.6031	-0.8563	-0.2048	-0.7141	-0.8961	-0.3983	-0.623	-0.6714	-0.2532	-0.5974	-0.4296	0.0028	0.1536	0.3585	0.3328	-0.3215	0.1849	-0.1622	0.0967	-0.3812
-0.569	-0.6828	-0.9246	-0.2333	-0.8079	-0.9673	-0.4694	-0.7169	-0.7766	-0.3016	-0.7055	-0.5491	-0.0711	0.1394	0.3442	0.3158	-0.2902	0.1451	-0.2418	0.0711	-0.4324
-0.6316	-0.7283	-0.9985	-0.3044	-0.8933	-1.0697	-0.5064	-0.8051	-0.9018	-0.3869	-0.7852	-0.6287	-0.1366	0.1195	0.3016	0.2845	-0.256	0.0882	-0.2959	0.0398	-0.4922
-0.6941	-0.788	-1.0867	-0.367	-1.0042	-1.1607	-0.6031	-0.8961	-0.99	-0.458	-0.8961	-0.751	-0.1849	0.1024	0.2646	0.202	-0.2077	0.0455	-0.3727	0.0199	-0.5747
-0.734	-0.8506	-1.1379	-0.404	-1.0554	-1.2119	-0.6202	-0.9616	-1.0725	-0.5178	-0.9786	-0.8279	-0.2646	0.0967	0.2134	0.1394	-0.1821	-0.0284	-0.4324	0.0085	-0.6116
-0.7937	-0.9217	-1.1948	-0.458	-1.1465	-1.2944	-0.7055	-1.0441	-1.1778	-0.5804	-1.0526	-0.9445	-0.3328	0.0711	0.1422	0.0683	-0.1394	-0.0683	-0.5007	-0.0313	-0.7112
-0.8677	-0.953	-1.2745	-0.5405	-1.2034	-1.3883	-0.7539	-1.118	-1.2546	-0.6572	-1.1209	-1.027	-0.4153	0.0569	0.1024	0.0256	-0.1109	-0.1337	-0.569	-0.0711	-0.7596
-0.9303	-1.0099	-1.3285	-0.6259	-1.2802	-1.4623	-0.8193	-1.2091	-1.3485	-0.7084	-1.2091	-1.118	-0.4979	0.0199	0.037	0.0085	-0.0512	-0.2105	-0.6486	-0.1081	-0.8335
-0.9872	-1.0554	-1.3627	-0.6885	-1.32	-1.4765	-0.8677	-1.2318	-1.3712	-0.7795	-1.2432	-1.192	-0.5348	0.0114	-0.0057	-0.0085	-0.0228	-0.2304	-0.6885	-0.1252	-0.8734
-1.0014	-1.0611	-1.4111	-0.7368	-1.3598	-1.5277	-0.9104	-1.2688	-1.431	-0.8079	-1.2717	-1.2233	-0.6031	-0.0171	-0.0228	0.0028	0.0142	-0.256	-0.7425	-0.1622	-0.9047
-1.0896	-1.1095	-1.4879	-0.8136	-1.4196	-1.5846	-0.9872	-1.3257	-1.4708	-0.8563	-1.3371	-1.2802	-0.6401	-0.0455	-0.0541	0.0341	0.0711	-0.3101	-0.7937	-0.202	-0.9644
-1.1095	-1.1152	-1.4879	-0.8335	-1.4367	-1.5675	-1.0099	-1.3456	-1.4822	-0.8904	-1.3342	-1.2916	-0.6856	-0.0512	-0.074	0.0797	0.1081	-0.33	-0.8449	-0.2191	-0.9872
-1.1294	-1.1209	-1.4793	-0.8819	-1.4253	-1.5931	-1.0185	-1.3627	-1.4879	-0.9132	-1.3456	-1.3001	-0.7311	-0.0654	-0.0256	0.1593	0.128	-0.3613	-0.8734	-0.239	-1.0156
-1.1749	-1.1493	-1.5192	-0.9075	-1.4623	-1.5846	-1.0554	-1.3741	-1.522	-0.9416	-1.3712	-1.3371	-0.771	-0.0768	-0.0057	0.1906	0.1764	-0.3926	-0.916	-0.2674	-1.0441
-1.1635	-1.1721	-1.5248	-0.9331	-1.4679	-1.5846	-1.0526	-1.3627	-1.5049	-0.9701	-1.3798	-1.3143	-0.8023	-0.0967	-0.0142	0.256	0.1935	-0.4495	-0.9445	-0.3129	-1.0611
-1.1977	-1.1664	-1.5334	-0.9758	-1.4566	-1.5817	-1.0839	-1.3684	-1.5135	-0.9957	-1.3798	-1.3257	-0.8307	-0.1138	0.0142	0.2617	0.239	-0.4779	-0.9587	-0.3328	-1.0754
-1.1863	-1.1892	-1.5334	-0.9673	-1.448	-1.5277	-1.0697	-1.357	-1.4651	-1.0099	-1.3627	-1.3172	-0.8648	-0.1366	0.0085	0.2589	0.2703	-0.5206	-0.9872	-0.367	-1.0896
-1.1977	-1.1806	-1.5163	-1.0042	-1.4338	-1.4879	-1.064	-1.3314	-1.4509	-1.0241	-1.3542	-1.2916	-0.8819	-0.1508	0.0085	0.2304	0.3129	-0.5491	-0.9985	-0.3926	-1.0867
-1.1692	-1.1692	-1.4623	-0.9644	-1.4082	-1.431	-1.0384	-1.3029	-1.4082	-1.0014	-1.3172	-1.2489	-0.8535	-0.1536	0.0284	0.1764	0.3101	-0.5804	-1.0327	-0.3983	-1.0839
-1.1579	-1.1607	-1.4566	-0.9843	-1.3798	-1.3741	-1.0185	-1.266	-1.3627	-0.9758	-1.3143	-1.2233	-0.8563	-0.1593	0.0228	0.0996	0.3357	-0.606	-1.0355	-0.4011	-1.0668
-1.1294	-1.155	-1.4111	-0.9303	-1.3342	-1.32	-0.9729	-1.2404	-1.3058	-0.953	-1.283	-1.1436	-0.8591	-0.1622	0.0256	0.0171	0.3186	-0.6145	-1.0412	-0.4353	-1.0697
-1.081	-1.0953	-1.3314	-0.8933	-1.2688	-1.2347	-0.8904	-1.1323	-1.1835	-0.899	-1.2091	-1.081	-0.8222	-0.1337	0.0569	-0.0484	0.2646	-0.6173	-1.0156	-0.4153	-1.0185
-1.0526	-1.0782	-1.2745	-0.8335	-1.1948	-1.1408	-0.8449	-1.0725	-1.1294	-0.8591	-1.1579	-1.0213	-0.7909	-0.0996	0.0541	-0.1593	0.2219	-0.6003	-1.0014	-0.3585	-0.9985
-1.0128	-1.0042	-1.2034	-0.771	-1.118	-1.0384	-0.7966	-0.9786	-1.0412	-0.8023	-1.064	-0.9445	-0.7596	-0.0939	0.0541	-0.2219	0.165	-0.6202	-0.9587	-0.3528	-0.9673
-0.9786	-0.9559	-1.1266	-0.7112	-1.0099	-0.9758	-0.7141	-0.9132	-0.9473	-0.734	-0.9929	-0.8335	-0.7112	-0.0541	0.091	-0.293	0.1138	-0.5917	-0.9416	-0.3385	-0.9246
-0.9303	-0.9189	-1.0469	-0.6828	-0.9274	-0.8677	-0.6572	-0.8051	-0.8421	-0.6828	-0.9075	-0.7596	-0.6742	-0.0398	0.1109	-0.3215	0.0626	-0.569	-0.9018	-0.3129	-0.8876
-0.8705	-0.8079	-0.9729	-0.6429	-0.8136	-0.7311	-0.5718	-0.6714	-0.7141	-0.623	-0.8108	-0.6344	-0.6173	-0.0142	0.1622	-0.3385	0.0114	-0.5462	-0.862	-0.3016	-0.8421
-0.8165	-0.7254	-0.862	-0.5576	-0.6856	-0.6287	-0.5121	-0.5547	-0.5747	-0.5291	-0.7027	-0.5291	-0.5804	0.0114	0.2333	-0.3186	-0.0284	-0.5206	-0.8108	-0.2646	-0.7966
-0.7596	-0.6344	-0.7624	-0.5462	-0.5576	-0.4865	-0.4495	-0.4153	-0.4637	-0.458	-0.6003	-0.4239	-0.5149	0.0313	0.293	-0.3044	-0.0597	-0.4922	-0.7596	-0.2418	-0.7454
-0.697	-0.5348	-0.6515	-0.4979	-0.441	-0.3613	-0.3841	-0.2987	-0.3101	-0.3755	-0.4523	-0.2845	-0.4438	0.0284	0.367	-0.2333	-0.0654	-0.4552	-0.7084	-0.2134	-0.6828
-0.6116	-0.4239	-0.5519	-0.4836	-0.3044	-0.2219	-0.3215	-0.1394	-0.1422	-0.2959	-0.3528	-0.1451	-0.3556	0.0228	0.4239	-0.1536	-0.0398	-0.4239	-0.6629	-0.2105	-0.6458
-0.5035	-0.3016	-0.4125	-0.4438	-0.1536	-0.0711	-0.2475	0.0142	0.0171	-0.2191	-0.2134	0.0171	-0.2959	0.0085	0.5291	-0.0484	-0.0228	-0.3897	-0.5832	-0.1906	-0.5889
-0.4068	-0.1536	-0.293	-0.4125	0	0.0654	-0.1878	0.1735	0.1707	-0.1366	-0.1024	0.1508	-0.1991	0	0.6372	0.0683	-0.0085	-0.3528	-0.5149	-0.1821	-0.5178
-0.293	-0.037	-0.1565	-0.3556	0.1821	0.2247	-0.1479	0.3272	0.3385	-0.0541	0.0455	0.2959	-0.1252	-0.0114	0.734	0.2162	0.0256	-0.3129	-0.4466	-0.2134	-0.4694
-0.1536	0.0996	-0.0028	-0.3499	0.3414	0.3869	-0.0541	0.4865	0.5064	0.0484	0.1849	0.4324	-0.0541	-0.0228	0.8392	0.3784	0.0484	-0.2959	-0.3499	-0.1906	-0.4097
-0.0398	0.239	0.1394	-0.2873	0.5007	0.5405	0	0.6486	0.6856	0.1252	0.3158	0.5832	0.0455	-0.0455	0.899	0.5263	0.0797	-0.2447	-0.2617	-0.1963	-0.3158
0.0825	0.3841	0.2873	-0.256	0.6714	0.7027	0.0825	0.8108	0.8478	0.2077	0.4666	0.7397	0.1479	-0.0455	1.0071	0.6998	0.0882	-0.202	-0.1764	-0.1878	-0.2304
0.2191	0.5291	0.4267	-0.2077	0.8051	0.8392	0.1394	0.9473	0.9758	0.2845	0.5946	0.8506	0.1991	-0.0626	1.0896	0.8478	0.1252	-0.1849	-0.0939	-0.2048	-0.1565
0.3272	0.6685	0.5718	-0.1792	0.9502	0.9587	0.2134	1.0725	1.1351	0.3641	0.7169	0.9786	0.293	-0.0853	1.1379	0.9815	0.1622	-0.165	-0.0057	-0.1991	-0.0654
0.4722	0.7852	0.7112	-0.128	1.1067	1.0981	0.2816	1.2204	1.2859	0.4552	0.8449	1.1095	0.3897	-0.0882	1.2261	1.1408	0.1963	-0.1166	0.0711	-0.1821	0.0171
0.5519	0.9132	0.8307	-0.091	1.2546	1.2432	0.3385	1.3257	1.4253	0.5178	0.9502	1.2347	0.4779	-0.1252	1.2944	1.2546	0.239	-0.074	0.128	-0.1849	0.1166
0.66	1.0327	0.9416	-0.0228	1.3741	1.3428	0.3897	1.4196	1.522	0.5917	1.0668	1.3513	0.5604	-0.1565	1.3257	1.3655	0.3129	-0.0398	0.2134	-0.1849	0.1878
0.7254	1.1351	1.027	0.0171	1.4879	1.4253	0.4523	1.4936	1.6017	0.6202	1.1436	1.4253	0.6145	-0.1991	1.3769	1.4537	0.3926	-0.0057	0.2902	-0.1622	0.2589
0.8079	1.2119	1.1123	0.037	1.6017	1.5135	0.4865	1.5874	1.7069	0.6856	1.2062	1.522	0.6828	-0.2304	1.4139	1.5021	0.4637	0.0085	0.3585	-0.1878	0.3414
0.8279	1.283	1.1607	0.0569	1.6642	1.5618	0.5092	1.6329	1.778	0.7283	1.2745	1.5704	0.7283	-0.2845	1.4196	1.5277	0.5633	0.0284	0.3926	-0.1963	0.3755
0.9104	1.3285	1.2148	0.0882	1.7496	1.6073	0.5604	1.6898	1.8321	0.7653	1.3314	1.6386	0.7567	-0.3243	1.4765	1.5334	0.6515	0.0256	0.4552	-0.1792	0.421
0.916	1.394	1.2517	0.1166	1.8008	1.6529	0.5547	1.7069	1.8805	0.7909	1.3598	1.6699	0.7596	-0.3869	1.4651	1.5078	0.751	0.0199	0.4751	-0.2134	0.4666
0.916	1.4111	1.266	0.1252	1.8264	1.6756	0.5832	1.7325	1.9231	0.825	1.3854	1.687	0.7539	-0.4097	1.4651	1.4623	0.8307	0.0085	0.4979	-0.2304	0.4722
0.9473	1.4566	1.2887	0.1223	1.8378	1.7098	0.5775	1.7297	1.9288	0.7937	1.394	1.7154	0.751	-0.4609	1.4423	1.4082	0.899	-0.0028	0.5035	-0.2361	0.4722
0.9217	1.431	1.2773	0.1195	1.8321	1.6898	0.5917	1.7183	1.9373	0.7994	1.3712	1.7041	0.7283	-0.4808	1.4253	1.3086	0.9473	-0.0455	0.5007	-0.2674	0.4694
0.8876	1.4196	1.2375	0.0967	1.8264	1.6785	0.5462	1.6813	1.9373	0.751	1.3456	1.6813	0.6799	-0.5064	1.3655	1.2062	0.9843	-0.0825	0.4637	-0.2902	0.4381
0.8819	1.3684	1.2119	0.0882	1.7809	1.6329	0.5348	1.6415	1.9203	0.7141	1.3229	1.6472	0.6287	-0.4979	1.2973	1.0782	0.9957	-0.1309	0.4068	-0.3072	0.367
0.8335	1.2916	1.155	0.0512	1.7411	1.6329	0.5121	1.596	1.8833	0.6828	1.2631	1.6187	0.5946	-0.4808	1.2347	0.9616	0.9786	-0.1622	0.3471	-0.3328	0.3186
0.7567	1.2005	1.1038	0.0313	1.7041	1.6045	0.4893	1.5647	1.8406	0.6458	1.2148	1.5789	0.5235	-0.4779	1.1209	0.8222	0.9502	-0.1963	0.2703	-0.3727	0.2873
0.6828	1.1522	1.0384	0	1.6301	1.5761	0.4722	1.5049	1.8122	0.6202	1.1721	1.5732	0.4893	-0.4637	0.99	0.6515	0.9104	-0.2276	0.1963	-0.3983	0.2105
0.6344	1.0412	0.9729	-0.0171	1.5675	1.5277	0.4267	1.4623	1.7837	0.5576	1.118	1.522	0.4523	-0.4239	0.8535	0.495	0.8478	-0.2503	0.1081	-0.421	0.1422
0.5291	0.9132	0.9246	-0.0626	1.4822	1.4822	0.404	1.3883	1.7411	0.5434	1.0725	1.4822	0.3698	-0.4068	0.6799	0.3044	0.8079	-0.293	0.0199	-0.4381	0.0882
0.4296	0.8165	0.8535	-0.091	1.4224	1.4566	0.3698	1.3086	1.7041	0.5149	1.0384	1.4537	0.3357	-0.3755	0.5149	0.1735	0.751	-0.3272	-0.0455	-0.4552	0.0142
0.3328	0.7283	0.7596	-0.1109	1.357	1.4224	0.3556	1.2631	1.6586	0.4722	0.99	1.4196	0.2959	-0.3328	0.3727	0.0142	0.6771	-0.3243	-0.1138	-0.4466	-0.0484
0.2589	0.6372	0.7254	-0.1223	1.3314	1.3883	0.3442	1.229	1.6557	0.4865	0.9587	1.3997	0.2532	-0.2873	0.1735	-0.1309	0.6003	-0.3272	-0.1622	-0.4637	-0.0967
0.1508	0.5633	0.6714	-0.1593	1.2631	1.3798	0.3471	1.1977	1.6273	0.4722	0.9331	1.3769	0.2219	-0.2617	0.0313	-0.2873	0.5178	-0.3442	-0.2134	-0.4182	-0.1508
0.0996	0.5007	0.5889	-0.1878	1.192	1.3285	0.3186	1.1522	1.6045	0.4438	0.9047	1.3456	0.1508	-0.2048	-0.1138	-0.3755	0.4239	-0.3528	-0.2503	-0.4495	-0.1878
0	0.4751	0.5377	-0.2304	1.1579	1.3001	0.2617	1.1152	1.5533	0.404	0.8705	1.3257	0.1195	-0.1593	-0.2589	-0.5263	0.33	-0.3755	-0.2902	-0.4609	-0.2532
-0.074	0.421	0.4808	-0.2731	1.118	1.2745	0.2475	1.0611	1.5277	0.3585	0.8307	1.2745	0.0541	-0.1081	-0.367	-0.6173	0.2447	-0.3926	-0.3385	-0.4552	-0.3186
-0.1678	0.3613	0.4125	-0.3158	1.0725	1.2517	0.2162	1.0384	1.4907	0.3471	0.8108	1.2375	0.0284	-0.0711	-0.4466	-0.6913	0.1622	-0.4381	-0.3641	-0.4779	-0.3442
-0.2589	0.2959	0.3528	-0.4068	1.0099	1.1635	0.165	0.9729	1.4423	0.2902	0.7738	1.1778	-0.037	-0.0541	-0.5235	-0.7766	0.1166	-0.4808	-0.404	-0.5235	-0.3926
-0.3385	0.2333	0.2788	-0.4637	0.9331	1.1123	0.1024	0.9189	1.3798	0.2105	0.7112	1.1038	-0.1223	-0.0313	-0.5832	-0.8848	0.0768	-0.5235	-0.4296	-0.5547	-0.4666
-0.4153	0.1821	0.2333	-0.5263	0.899	1.0611	0.0228	0.8506	1.3029	0.1337	0.6657	1.0412	-0.202	-0.0284	-0.6316	-0.9502	0.0654	-0.5946	-0.4751	-0.6259	-0.5035
-0.5007	0.1309	0.1479	-0.6145	0.8307	0.9872	-0.0398	0.8023	1.246	0.0569	0.6429	0.9644	-0.2589	-0.0256	-0.6828	-1.0241	0.0569	-0.6657	-0.5064	-0.6742	-0.5491
-0.5633	0.0569	0.0797	-0.6685	0.7567	0.9132	-0.1195	0.7482	1.1579	-0.0199	0.6031	0.9075	-0.3414	-0.037	-0.7311	-1.1152	0.0711	-0.7425	-0.5064	-0.7368	-0.5974
-0.66	-0.0085	0.0028	-0.771	0.7027	0.8279	-0.2134	0.6742	1.0697	-0.1252	0.5491	0.8279	-0.4438	-0.0484	-0.7681	-1.1977	0.1166	-0.8279	-0.5377	-0.8108	-0.6316
-0.7254	-0.0654	-0.0597	-0.8392	0.6173	0.7624	-0.2646	0.6458	1.0099	-0.1792	0.5377	0.7539	-0.5064	-0.0597	-0.8193	-1.2489	0.1309	-0.8734	-0.532	-0.8279	-0.6401
-0.8023	-0.1479	-0.1565	-0.9388	0.5604	0.7055	-0.3869	0.5547	0.9132	-0.2959	0.4865	0.6685	-0.6031	-0.0939	-0.862	-1.357	0.1906	-0.9673	-0.5434	-0.8876	-0.6515
-0.8762	-0.2105	-0.2191	-1.0014	0.4552	0.6088	-0.4324	0.5035	0.8392	-0.3897	0.4125	0.5889	-0.6828	-0.1109	-0.9502	-1.4253	0.2276	-1.0185	-0.569	-0.936	-0.6714
-0.9701	-0.2902	-0.2816	-1.081	0.3926	0.5149	-0.5178	0.4666	0.7653	-0.4751	0.3869	0.5235	-0.7624	-0.1309	-1.027	-1.5192	0.2788	-1.0953	-0.5832	-1.0014	-0.6742
-1.0327	-0.3613	-0.3499	-1.1266	0.3385	0.458	-0.5974	0.4125	0.6799	-0.5434	0.33	0.4523	-0.8478	-0.1622	-1.0896	-1.5988	0.3186	-1.1607	-0.5974	-1.0412	-0.6998
-1.1123	-0.4182	-0.4068	-1.2176	0.276	0.3841	-0.6629	0.3556	0.5747	-0.6259	0.2902	0.3755	-0.9274	-0.1821	-1.2119	-1.6927	0.3727	-1.2091	-0.6145	-1.1067	-0.7254
-1.155	-0.4296	-0.4808	-1.266	0.2105	0.3129	-0.734	0.3072	0.5206	-0.697	0.239	0.3072	-0.9872	-0.2105	-1.2574	-1.7467	0.4296	-1.2717	-0.606	-1.1237	-0.7368
-1.2119	-0.4865	-0.5007	-1.3257	0.1622	0.2731	-0.8023	0.2617	0.4666	-0.7738	0.1963	0.2532	-1.0327	-0.2532	-1.3627	-1.8065	0.5007	-1.32	-0.5946	-1.1436	-0.7653
-1.2574	-0.5121	-0.5405	-1.3598	0.1223	0.2105	-0.8478	0.2247	0.3812	-0.8079	0.1366	0.2219	-1.0839	-0.2788	-1.4054	-1.8264	0.5661	-1.3485	-0.5946	-1.1692	-0.7681
-1.266	-0.5405	-0.5633	-1.4167	0.1366	0.1622	-0.8819	0.202	0.3357	-0.8734	0.1252	0.1593	-1.1095	-0.3129	-1.4253	-1.8435	0.6173	-1.394	-0.569	-1.1863	-0.7596
-1.2859	-0.5377	-0.6003	-1.4395	0.1195	0.1508	-0.9189	0.2077	0.276	-0.899	0.0996	0.1138	-1.1436	-0.3471	-1.4196	-1.8292	0.6885	-1.394	-0.5519	-1.1778	-0.751
-1.3001	-0.5235	-0.5889	-1.4537	0.1394	0.1166	-0.9502	0.1991	0.2503	-0.9217	0.1024	0.1138	-1.1294	-0.3641	-1.3854	-1.778	0.7368	-1.4054	-0.4893	-1.1749	-0.7112
-1.3058	-0.495	-0.5946	-1.4793	0.1536	0.0825	-0.9587	0.1991	0.2105	-0.9729	0.0853	0.0654	-1.1465	-0.4011	-1.3741	-1.7524	0.8023	-1.4082	-0.4552	-1.1664	-0.6799
-1.3058	-0.4751	-0.6173	-1.5106	0.1536	0.0484	-0.99	0.1792	0.1195	-0.9872	0.0484	0.0484	-1.1436	-0.4239	-1.3314	-1.6984	0.8478	-1.4196	-0.4353	-1.1664	-0.6572
-1.3229	-0.458	-0.6287	-1.5305	0.1479	-0.0142	-1.0185	0.1565	0.0797	-1.0213	0.0313	0.0199	-1.1493	-0.4523	-1.2773	-1.6386	0.8876	-1.4054	-0.3926	-1.1522	-0.6202
-1.3371	-0.458	-0.6685	-1.5704	0.1166	-0.0569	-1.064	0.1109	-0.0284	-1.0469	-0.0199	-0.0569	-1.1778	-0.458	-1.2261	-1.5874	0.916	-1.3997	-0.3613	-1.1436	-0.6259
-1.3911	-0.4666	-0.7141	-1.6017	0.1053	-0.1622	-1.0924	0.0569	-0.1081	-1.0981	-0.0683	-0.1166	-1.1892	-0.4637	-1.1749	-1.559	0.9189	-1.3883	-0.3243	-1.101	-0.6259
-1.3655	-0.5064	-0.7653	-1.6045	0.0711	-0.2333	-1.1294	-0.0057	-0.2247	-1.1294	-0.1252	-0.2048	-1.2261	-0.4523	-1.1408	-1.5277	0.899	-1.3854	-0.3044	-1.0754	-0.606
-1.4623	-0.5718	-0.8563	-1.6557	0.0171	-0.3698	-1.2062	-0.0939	-0.3556	-1.1948	-0.2219	-0.3215	-1.2859	-0.4267	-1.1095	-1.5305	0.8648	-1.3883	-0.293	-1.1038	-0.6031
-1.5277	-0.6259	-0.9559	-1.7041	-0.0626	-0.4779	-1.246	-0.1878	-0.5206	-1.266	-0.3385	-0.4438	-1.3342	-0.4097	-1.0924	-1.5135	0.8222	-1.394	-0.2816	-1.1067	-0.6372
-1.596	-0.6941	-1.0498	-1.7496	-0.1536	-0.6202	-1.2887	-0.3044	-0.6515	-1.3285	-0.441	-0.5661	-1.3911	-0.3727	-1.0526	-1.5277	0.7482	-1.4025	-0.2987	-1.101	-0.6771
-1.6813	-0.7766	-1.1635	-1.8008	-0.2674	-0.7937	-1.3826	-0.4523	-0.825	-1.3997	-0.5718	-0.7197	-1.4936	-0.3414	-1.0526	-1.5248	0.6885	-1.4338	-0.3272	-1.1237	-0.734
-1.7809	-0.8848	-1.2859	-1.8634	-0.3727	-0.9473	-1.4509	-0.6116	-1.0185	-1.4992	-0.7311	-0.8904	-1.5846	-0.3186	-1.027	-1.522	0.606	-1.4423	-0.3755	-1.1436	-0.8193
-1.8691	-0.9985	-1.4367	-1.9373	-0.5092	-1.1123	-1.5192	-0.7738	-1.1835	-1.5931	-0.862	-1.0441	-1.6699	-0.2703	-1.0185	-1.5561	0.5064	-1.4679	-0.4239	-1.1408	-0.899
-1.9971	-1.1095	-1.596	-2.0198	-0.6685	-1.2944	-1.613	-0.9274	-1.3854	-1.6898	-1.0441	-1.2176	-1.7638	-0.2162	-1.0185	-1.5704	0.4182	-1.5021	-0.495	-1.1806	-1.0014
-2.1137	-1.2688	-1.7638	-2.1166	-0.8222	-1.4907	-1.6927	-1.1038	-1.5874	-1.778	-1.2261	-1.3968	-1.8548	-0.165	-1.0384	-1.5931	0.3158	-1.5305	-0.5804	-1.2204	-1.0896
-2.2332	-1.3997	-1.9317	-2.2076	-0.9957	-1.6671	-1.7894	-1.3115	-1.7866	-1.889	-1.4139	-1.5704	-1.9487	-0.1195	-1.0384	-1.6244	0.2247	-1.5419	-0.6856	-1.2631	-1.2119
-2.3555	-1.5334	-2.1024	-2.2787	-1.1379	-1.8179	-1.8662	-1.4537	-1.9373	-1.9715	-1.5476	-1.7354	-2.017	-0.0597	-1.0412	-1.6756	0.1337	-1.5476	-0.7482	-1.2717	-1.3001
-2.4494	-1.6273	-2.2133	-2.3783	-1.2944	-1.9829	-1.9345	-1.613	-2.1052	-2.0597	-1.6898	-1.8463	-2.0938	-0.0199	-1.064	-1.687	0.037	-1.5561	-0.8364	-1.2973	-1.3968
-2.549	-1.7695	-2.384	-2.458	-1.448	-2.1564	-1.9999	-1.7553	-2.2617	-2.145	-1.8292	-1.9942	-2.1422	0.0284	-1.0867	-1.7581	-0.0455	-1.5704	-0.9217	-1.32	-1.4936
-2.6457	-1.8605	-2.4978	-2.5433	-1.5761	-2.2474	-2.0568	-1.8805	-2.3954	-2.1991	-1.9772	-2.091	-2.1849	0.0711	-1.1123	-1.8008	-0.1479	-1.5732	-0.9815	-1.32	-1.5874
-2.6998	-1.9573	-2.6173	-2.5917	-1.6842	-2.3726	-2.1308	-2.0227	-2.5006	-2.2588	-2.0853	-2.1991	-2.2275	0.1024	-1.101	-1.8008	-0.2191	-1.5618	-1.0725	-1.32	-1.6671
-2.8079	-2.0625	-2.7424	-2.6599	-1.798	-2.4893	-2.182	-2.1308	-2.6144	-2.2986	-2.2161	-2.2588	-2.2531	0.1536	-1.1237	-1.8122	-0.2959	-1.522	-1.1493	-1.3257	-1.7382
-2.879	-2.1536	-2.8221	-2.7368	-1.8918	-2.5746	-2.2275	-2.2247	-2.6912	-2.3271	-2.3328	-2.3299	-2.256	0.1764	-1.1067	-1.8065	-0.3471	-1.4907	-1.2347	-1.3143	-1.8435
-2.9729	-2.2446	-2.9558	-2.805	-2.0056	-2.6656	-2.2674	-2.3328	-2.768	-2.3555	-2.4153	-2.4096	-2.2417	0.202	-1.1038	-1.7866	-0.3841	-1.5021	-1.3371	-1.3285	-1.9061
-3.081	-2.3442	-3.0611	-2.8648	-2.0881	-2.7424	-2.293	-2.4181	-2.8562	-2.3982	-2.5063	-2.4636	-2.2645	0.2105	-1.1237	-1.7524	-0.4153	-1.4537	-1.4054	-1.3229	-1.9829
-3.1777	-2.4181	-3.1464	-2.9359	-2.1763	-2.8449	-2.3328	-2.5205	-2.9274	-2.4295	-2.6116	-2.5262	-2.2844	0.2247	-1.1323	-1.7183	-0.4381	-1.4423	-1.4907	-1.3086	-2.0711
-3.2545	-2.5149	-3.246	-2.9843	-2.2503	-2.933	-2.3698	-2.5917	-2.9643	-2.4608	-2.6941	-2.5718	-2.2588	0.2304	-1.1436	-1.7041	-0.4694	-1.3798	-1.5846	-1.2773	-2.1536
-3.3541	-2.5831	-3.3399	-3.0611	-2.3271	-3.0127	-2.4324	-2.6656	-3.0326	-2.4921	-2.7794	-2.6372	-2.2617	0.239	-1.1323	-1.6728	-0.4893	-1.3342	-1.6842	-1.2745	-2.2389
-3.4679	-2.6827	-3.4508	-3.1322	-2.4238	-3.1151	-2.512	-2.7538	-3.1066	-2.5405	-2.8648	-2.7026	-2.293	0.2617	-1.155	-1.6586	-0.5206	-1.3229	-1.7695	-1.2717	-2.3413
-3.5817	-2.7908	-3.5504	-3.2289	-2.5063	-3.2033	-2.549	-2.8278	-3.1919	-2.5803	-2.97	-2.7567	-2.3072	0.2873	-1.1721	-1.6557	-0.5604	-1.2859	-1.8805	-1.2574	-2.438
-3.7125	-2.8619	-3.6784	-3.337	-2.5917	-3.3171	-2.6315	-2.9131	-3.2972	-2.6599	-3.0554	-2.8136	-2.3555	0.3016	-1.1721	-1.6159	-0.6003	-1.2688	-1.9914	-1.2717	-2.5149
-3.8548	-2.9757	-3.8036	-3.4309	-2.7026	-3.4537	-2.7225	-3.0241	-3.411	-2.7595	-3.1578	-2.9074	-2.4068	0.3243	-1.2489	-1.6358	-0.6344	-1.2745	-2.1024	-1.2973	-2.6372
-4.0084	-3.0952	-3.9572	-3.5845	-2.8363	-3.5987	-2.8733	-3.1293	-3.5248	-2.8562	-3.2659	-3.0184	-2.4523	0.3328	-1.3058	-1.6529	-0.6629	-1.266	-2.2133	-1.3342	-2.7396
-4.1706	-3.2346	-4.1421	-3.7808	-2.9786	-3.7865	-3.0412	-3.2858	-3.6955	-2.9985	-3.4167	-3.135	-2.5689	0.3499	-1.4025	-1.6927	-0.697	-1.32	-2.3612	-1.3997	-2.8619
-4.3327	-3.3882	-4.3213	-3.9544	-3.1436	-3.9714	-3.2147	-3.3968	-3.8861	-3.1749	-3.576	-3.2887	-2.677	0.367	-1.5049	-1.7382	-0.7368	-1.3513	-2.4779	-1.4736	-2.9956
-4.5034	-3.5475	-4.492	-4.1506	-3.3114	-4.1563	-3.3825	-3.5475	-4.0369	-3.3	-3.704	-3.4394	-2.7937	0.3954	-1.6045	-1.8122	-0.7937	-1.3655	-2.5917	-1.5476	-3.118
-4.6912	-3.7154	-4.7196	-4.3555	-3.4963	-4.3811	-3.5788	-3.7012	-4.236	-3.4878	-3.8462	-3.5788	-2.8875	0.4296	-1.7411	-1.9317	-0.8364	-1.3997	-2.7311	-1.6159	-3.2318
-4.8676	-3.8491	-4.9017	-4.5375	-3.6613	-4.5888	-3.7637	-3.8292	-4.4408	-3.6414	-3.9515	-3.7097	-2.9871	0.4523	-1.8605	-2.0483	-0.9047	-1.4025	-2.8477	-1.6785	-3.32
-5.0553	-4.0198	-5.1264	-4.7424	-3.8377	-4.8078	-3.9629	-3.9885	-4.6513	-3.8178	-4.0852	-3.8775	-3.0895	0.4865	-2.0284	-2.1877	-0.953	-1.4367	-2.9757	-1.7638	-3.4138
-5.2601	-4.2019	-5.3398	-4.9671	-4.0056	-5.024	-4.1592	-4.1137	-4.8277	-3.96	-4.1905	-4.0056	-3.1862	0.4979	-2.1763	-2.3783	-0.9957	-1.4395	-3.0753	-1.8236	-3.4821
-5.4536	-4.3754	-5.5816	-5.1663	-4.2161	-5.2715	-4.3697	-4.2588	-5.0326	-4.1108	-4.3014	-4.1592	-3.2801	0.5035	-2.3328	-2.5547	-0.9929	-1.4566	-3.172	-1.926	-3.539
-5.684	-4.5489	-5.8291	-5.4052	-4.401	-5.4963	-4.5774	-4.4238	-5.226	-4.2701	-4.3868	-4.2815	-3.3882	0.4779	-2.5461	-2.7937	-0.9786	-1.4879	-3.2972	-2.0284	-3.5902
-5.8974	-4.7367	-6.0311	-5.6072	-4.5973	-5.7324	-4.7538	-4.5546	-5.4451	-4.4067	-4.4835	-4.4152	-3.4508	0.4979	-2.7168	-3.0355	-0.9815	-1.4907	-3.3569	-2.1109	-3.6443
-6.0795	-4.8932	-6.2274	-5.8035	-4.7538	-5.9116	-4.9501	-4.6627	-5.5958	-4.5233	-4.5546	-4.5119	-3.4935	0.5007	-2.8847	-3.2175	-1.0042	-1.4879	-3.4281	-2.1792	-3.6585
-6.29	-5.0667	-6.455	-6.0027	-4.9074	-6.1421	-5.1378	-4.7794	-5.7864	-4.6713	-4.64	-4.6314	-3.5532	0.4893	-3.081	-3.4593	-0.99	-1.5078	-3.5162	-2.2674	-3.6869
-6.4635	-5.1976	-6.6257	-6.1904	-5.0496	-6.327	-5.2829	-4.8903	-5.9002	-4.7566	-4.6656	-4.6826	-3.6073	0.5064	-3.2318	-3.6414	-1.0128	-1.4936	-3.5447	-2.3242	-3.6699
-6.6627	-5.3682	-6.8248	-6.3782	-5.1947	-6.4834	-5.428	-4.9785	-6.0795	-4.859	-4.7026	-4.7424	-3.6414	0.5121	-3.4252	-3.8434	-1.0241	-1.4679	-3.5931	-2.421	-3.6642
-6.8277	-5.5105	-7.0183	-6.5688	-5.3085	-6.6541	-5.5873	-5.0496	-6.1876	-4.9501	-4.6969	-4.7794	-3.6443	0.5206	-3.6073	-4.0084	-1.0526	-1.4651	-3.6357	-2.4722	-3.6215
-6.9784	-5.6869	-7.1605	-6.7509	-5.4308	-6.7992	-5.7068	-5.135	-6.3042	-5.0155	-4.7026	-4.8277	-3.6414	0.5348	-3.7922	-4.2075	-1.0782	-1.4566	-3.6642	-2.5348	-3.5675
-7.1406	-5.8206	-7.2971	-6.8846	-5.5133	-6.9102	-5.8064	-5.1663	-6.3497	-5.0724	-4.657	-4.7964	-3.6016	0.5633	-3.9458	-4.3384	-1.1237	-1.4054	-3.6642	-2.5575	-3.465
-7.2658	-5.9429	-7.445	-7.0183	-5.6214	-6.9927	-5.9002	-5.1976	-6.4237	-5.0923	-4.5973	-4.7851	-3.5589	0.5718	-4.0994	-4.4778	-1.1436	-1.3399	-3.6727	-2.5945	-3.3712
-7.3909	-6.0652	-7.5474	-7.1378	-5.7039	-7.0723	-5.9913	-5.2232	-6.4578	-5.1293	-4.529	-4.7566	-3.4906	0.5775	-4.2673	-4.6257	-1.1721	-1.2688	-3.6841	-2.6315	-3.2631
-7.4706	-6.1819	-7.6214	-7.2146	-5.758	-7.1036	-6.0396	-5.2232	-6.4635	-5.1094	-4.4351	-4.6713	-3.4025	0.6003	-4.3811	-4.7651	-1.1948	-1.2034	-3.6642	-2.6315	-3.1521
-7.5503	-6.29	-7.6897	-7.3028	-5.8092	-7.1406	-6.0595	-5.2089	-6.4408	-5.1065	-4.3356	-4.5944	-3.2972	0.6145	-4.5375	-4.9102	-1.2148	-1.1067	-3.6386	-2.6258	-3.0212
-7.6384	-6.3867	-7.7437	-7.3426	-5.8405	-7.1491	-6.088	-5.1976	-6.4408	-5.0525	-4.2075	-4.4693	-3.172	0.623	-4.6542	-5.0354	-1.2261	-0.9872	-3.613	-2.6173	-2.8363
-7.684	-6.4607	-7.7778	-7.3739	-5.8633	-7.1178	-6.1278	-5.1463	-6.4009	-4.9984	-4.0425	-4.3441	-3.0269	0.6116	-4.7538	-5.1606	-1.229	-0.8791	-3.5504	-2.5803	-2.6628
-7.7096	-6.5318	-7.7807	-7.408	-5.8633	-7.1093	-6.0937	-5.0951	-6.3327	-4.9273	-3.8747	-4.1876	-2.8648	0.6088	-4.8334	-5.2687	-1.2176	-0.734	-3.485	-2.5376	-2.4523
-7.7693	-6.5915	-7.8063	-7.4279	-5.8547	-7.0894	-6.1136	-5.024	-6.2473	-4.8789	-3.7069	-4.0425	-2.7083	0.6116	-4.9358	-5.4251	-1.1977	-0.5946	-3.4281	-2.5149	-2.2503
-7.812	-6.6399	-7.812	-7.4507	-5.8291	-7.0467	-6.0937	-4.9472	-6.1705	-4.7993	-3.4935	-3.8605	-2.5262	0.6088	-5.024	-5.5674	-1.1977	-0.4267	-3.337	-2.4608	-1.9829
-7.8575	-6.694	-7.7949	-7.4535	-5.8263	-6.9841	-6.0823	-4.8533	-6.0652	-4.7168	-3.32	-3.7069	-2.3584	0.5832	-5.1236	-5.684	-1.1692	-0.2703	-3.2374	-2.3897	-1.7268
-7.8973	-6.7821	-7.8262	-7.4905	-5.8234	-6.9813	-6.0965	-4.8163	-6.0083	-4.6769	-3.1663	-3.5731	-2.1991	0.5633	-5.2317	-5.8377	-1.1152	-0.1166	-3.1806	-2.3584	-1.4736
-7.9457	-6.7992	-7.8347	-7.5047	-5.795	-6.9528	-6.1022	-4.7225	-5.9145	-4.6144	-2.9416	-3.4167	-2.0511	0.5348	-5.2971	-5.9543	-1.0782	0.0711	-3.0924	-2.3129	-1.2091
-8.0083	-6.8476	-7.8376	-7.5417	-5.7836	-6.9102	-6.1477	-4.64	-5.8405	-4.5518	-2.7481	-3.2716	-1.9032	0.5235	-5.4052	-6.0937	-1.0327	0.2447	-3.0241	-2.2474	-0.9502
-8.0908	-6.9102	-7.8831	-7.5787	-5.7751	-6.8959	-6.1677	-4.5632	-5.7864	-4.529	-2.5774	-3.1806	-1.7837	0.5007	-5.5076	-6.2502	-0.99	0.3755	-2.9501	-2.2446	-0.6799
-8.142	-6.9557	-7.9372	-7.6498	-5.7495	-6.8874	-6.2018	-4.5006	-5.7409	-4.5034	-2.4039	-3.0696	-1.6785	0.4779	-5.6129	-6.3924	-0.9416	0.5206	-2.8875	-2.2133	-0.4125
-8.179	-6.9813	-7.9514	-7.7124	-5.7466	-6.8959	-6.2615	-4.4636	-5.7182	-4.4949	-2.2474	-2.9956	-1.5704	0.458	-5.7352	-6.4977	-0.9018	0.6657	-2.8022	-2.1735	-0.1878
-8.27	-7.0353	-8.0225	-7.8006	-5.7694	-6.9159	-6.3184	-4.3896	-5.7068	-4.5091	-2.1223	-2.8989	-1.5248	0.4466	-5.8377	-6.6143	-0.8762	0.8023	-2.7424	-2.1649	0.0597
-8.3895	-7.0865	-8.0822	-7.9485	-5.8035	-6.9699	-6.4095	-4.3811	-5.7267	-4.5575	-2.0227	-2.9103	-1.4679	0.4239	-5.977	-6.7622	-0.8364	0.8876	-2.7112	-2.1792	0.2503
-8.4635	-7.1207	-8.1505	-8.0339	-5.8234	-7.0382	-6.5147	-4.3697	-5.7466	-4.6001	-1.9174	-2.8904	-1.4452	0.4182	-6.0908	-6.876	-0.8222	0.9786	-2.6713	-2.182	0.4609
-8.5744	-7.2146	-8.2586	-8.1619	-5.8604	-7.0951	-6.6228	-4.364	-5.8007	-4.6513	-1.8548	-2.9018	-1.4395	0.3983	-6.2473	-7.0353	-0.7937	1.0554	-2.6201	-2.1962	0.6116
-8.6882	-7.2601	-8.3582	-8.3041	-5.9031	-7.1747	-6.7423	-4.3526	-5.8547	-4.7367	-1.8093	-2.9274	-1.4594	0.3983	-6.3696	-7.1605	-0.7823	1.1095	-2.5974	-2.2332	0.7539
-8.8048	-7.3653	-8.4805	-8.4691	-5.9685	-7.28	-6.9016	-4.3925	-5.9458	-4.8562	-1.7723	-2.9899	-1.522	0.3897	-6.5176	-7.2999	-0.7681	1.1635	-2.5831	-2.2787	0.8961
-8.9642	-7.4592	-8.6057	-8.6512	-6.0738	-7.3966	-7.0467	-4.4323	-6.0624	-4.9785	-1.7667	-3.0611	-1.6045	0.3784	-6.6484	-7.4194	-0.7311	1.1692	-2.5831	-2.3356	0.9843
-9.095	-7.5759	-8.7735	-8.839	-6.1307	-7.519	-7.2231	-4.492	-6.1762	-5.1407	-1.8036	-3.1663	-1.7183	0.3698	-6.7992	-7.5616	-0.7226	1.1522	-2.6002	-2.4039	1.081
-9.2742	-7.684	-8.9016	-9.058	-6.2416	-7.6754	-7.3767	-4.5888	-6.3298	-5.3028	-1.8435	-3.2972	-1.8918	0.3528	-6.9699	-7.6697	-0.6913	1.0867	-2.64	-2.512	1.1095
-9.4449	-7.7778	-9.058	-9.2344	-6.3298	-7.8034	-7.5446	-4.6599	-6.4692	-5.4735	-1.9004	-3.4451	-2.0625	0.3442	-7.0951	-7.7665	-0.6885	1.0185	-2.6685	-2.6059	1.1351
-9.6071	-7.8831	-9.2003	-9.4449	-6.4095	-7.9428	-7.7323	-4.7282	-6.62	-5.6328	-1.9601	-3.5902	-2.2645	0.3357	-7.2259	-7.8603	-0.6856	0.9331	-2.7168	-2.7396	1.155
-9.7294	-7.977	-9.3482	-9.627	-6.4948	-8.0566	-7.9059	-4.8163	-6.7708	-5.8291	-2.0284	-3.7552	-2.458	0.3243	-7.3767	-7.9315	-0.6486	0.7681	-2.768	-2.9074	1.1408
-9.8745	-8.0481	-9.462	-9.8034	-6.5688	-8.1591	-8.0566	-4.8875	-6.8988	-6.014	-2.108	-3.8861	-2.677	0.2959	-7.4706	-8.0026	-0.5775	0.5946	-2.8022	-3.0924	1.1067
-9.9911	-8.1164	-9.5445	-9.9428	-6.6228	-8.2586	-8.1761	-4.9387	-7.0069	-6.1819	-2.1649	-4.0255	-2.8904	0.2503	-7.5616	-8.0652	-0.4836	0.404	-2.8449	-3.2517	1.0896
-10.0139	-8.0936	-9.5815	-10.0367	-6.5944	-8.2814	-8.2615	-4.9216	-7.0609	-6.2957	-2.1991	-4.1023	-3.0924	0.1935	-7.6214	-8.0709	-0.3812	0.1991	-2.8449	-3.4366	1.0839
-10.031	-8.0851	-9.5644	-10.0936	-6.5688	-8.2643	-8.3212	-4.9045	-7.1036	-6.4009	-2.2048	-4.1734	-3.2659	0.1309	-7.6584	-8.0965	-0.239	-0.0142	-2.8221	-3.6187	1.081
-9.9798	-8.0111	-9.5075	-10.1049	-6.4436	-8.1932	-8.3326	-4.7993	-7.0666	-6.4806	-2.1649	-4.1876	-3.4081	0.0427	-7.6669	-8.0851	-0.0597	-0.2418	-2.7652	-3.7808	1.1351
-9.9001	-7.8888	-9.4165	-10.0708	-6.3241	-8.105	-8.2928	-4.7026	-6.9955	-6.5176	-2.091	-4.1706	-3.5219	-0.0768	-7.6128	-8.051	0.1593	-0.4836	-2.6514	-3.9515	1.1892
-9.7835	-7.7466	-9.2543	-10.0111	-6.1563	-7.9428	-8.2359	-4.5603	-6.8959	-6.5318	-1.9857	-4.125	-3.6613	-0.2134	-7.5844	-8.0282	0.4296	-0.7596	-2.5718	-4.1222	1.2404
-9.6185	-7.5815	-9.0723	-9.9058	-5.9543	-7.7437	-8.1477	-4.3697	-6.7338	-6.509	-1.8691	-4.0397	-3.7381	-0.3528	-7.5332	-7.9713	0.7055	-1.0327	-2.4466	-4.2644	1.3086
-9.4165	-7.3483	-8.8617	-9.7465	-5.721	-7.519	-8.0225	-4.1364	-6.5346	-6.4465	-1.7154	-3.9117	-3.7837	-0.5007	-7.4621	-7.9286	0.99	-1.3086	-2.2816	-4.4465	1.4167
-9.2003	-7.1121	-8.5687	-9.5559	-5.4422	-7.2345	-7.849	-3.8719	-6.2928	-6.3753	-1.4879	-3.7495	-3.8121	-0.6543	-7.3767	-7.8461	1.2887	-1.596	-2.1024	-4.5859	1.5448
-8.9044	-6.8277	-8.2444	-9.3169	-5.1037	-6.913	-7.6128	-3.5817	-5.9856	-6.2274	-1.2603	-3.5475	-3.8121	-0.7994	-7.2373	-7.7494	1.5761	-1.8662	-1.8947	-4.7054	1.6699
-8.5772	-6.5005	-7.8803	-9.0609	-4.7481	-6.5176	-7.3796	-3.2289	-5.6442	-6.0681	-0.9758	-3.2773	-3.7524	-0.9331	-7.0666	-7.5929	1.8406	-2.1109	-1.6671	-4.805	1.8463
-8.2074	-6.1364	-7.4592	-8.7337	-4.3413	-6.1079	-7.078	-2.8477	-5.2488	-5.8377	-0.6572	-2.9814	-3.6756	-1.0725	-6.8618	-7.4194	2.128	-2.3726	-1.3798	-4.8789	2.0028
-7.8234	-5.7239	-7.0069	-8.3724	-3.8975	-5.6214	-6.7452	-2.4068	-4.8107	-5.5788	-0.3072	-2.6343	-3.5333	-1.2176	-6.6399	-7.2117	2.4068	-2.586	-1.0782	-4.9159	2.2446
-7.3511	-5.2801	-6.4721	-7.9741	-3.4224	-5.1435	-6.3583	-1.9487	-4.3441	-5.2744	0.0683	-2.2474	-3.374	-1.3513	-6.3696	-6.9727	2.6912	-2.8136	-0.7311	-4.9757	2.475
-6.8618	-4.7708	-5.9059	-7.4962	-2.879	-4.5831	-5.9458	-1.4452	-3.8036	-4.9273	0.5149	-1.8122	-3.1749	-1.5078	-6.0709	-6.6513	2.9843	-3.007	-0.3755	-4.97	2.7368
-6.3383	-4.2502	-5.3227	-7.0097	-2.3385	-4.0084	-5.482	-0.9331	-3.2403	-4.529	0.9815	-1.3712	-2.9587	-1.6557	-5.7637	-6.3327	3.2915	-3.1834	-0.0199	-4.9444	3.007
-5.7864	-3.6955	-4.6798	-6.4834	-1.761	-3.3939	-5.0013	-0.3926	-2.6429	-4.1222	1.4537	-0.8478	-2.6855	-1.8093	-5.4109	-5.9827	3.576	-3.3569	0.3499	-4.9159	3.3057
-5.1549	-3.0981	-3.9942	-5.9031	-1.1351	-2.7282	-4.5034	0.2077	-2.0028	-3.6756	1.9857	-0.33	-2.384	-1.9402	-5.0439	-5.6101	3.8406	-3.4793	0.771	-4.8363	3.6215
-4.5034	-2.4636	-3.2858	-5.2829	-0.5064	-2.0341	-3.9316	0.7966	-1.3229	-3.2033	2.5319	0.2589	-2.017	-2.0824	-4.657	-5.2118	4.1137	-3.6044	1.1948	-4.7509	3.9373
-3.8093	-1.778	-2.5461	-4.657	0.1906	-1.3172	-3.3541	1.4452	-0.6031	-2.6941	3.1151	0.8535	-1.6671	-2.1934	-4.2132	-4.7708	4.3526	-3.6841	1.6187	-4.6201	4.29
-3.0781	-1.081	-1.7866	-3.98	0.8848	-0.5604	-2.7282	2.091	0.1479	-2.1592	3.6898	1.485	-1.2517	-2.3072	-3.7637	-4.3128	4.5831	-3.7353	2.0739	-4.4835	4.657
-2.3641	-0.3698	-1.0014	-3.2631	1.5988	0.2162	-2.1166	2.7567	0.9075	-1.5903	4.3014	2.1621	-0.788	-2.4295	-3.2972	-3.8292	4.822	-3.7694	2.5319	-4.3043	5.0354
-1.6045	0.3357	-0.2048	-2.5774	2.3157	0.9929	-1.4822	3.4252	1.6785	-1.027	4.8988	2.7965	-0.3272	-2.549	-2.8022	-3.3086	5.0525	-3.7609	2.9757	-4.1393	5.4308
-0.8478	1.0469	0.606	-1.8577	3.0212	1.7752	-0.8421	4.0994	2.4836	-0.4381	5.5247	3.4821	0.1422	-2.6656	-2.3299	-2.8306	5.2658	-3.741	3.4337	-3.9288	5.8405
-0.1024	1.7667	1.4139	-1.1493	3.7097	2.5689	-0.2105	4.7594	3.2545	0.1565	6.1164	4.1706	0.6629	-2.7453	-1.8463	-2.3242	5.4564	-3.6699	3.8719	-3.6926	6.2018
0.6401	2.4466	2.1849	-0.441	4.4209	3.32	0.4153	5.4081	4.0312	0.7539	6.7423	4.8676	1.1749	-2.8363	-1.3627	-1.8292	5.6271	-3.5788	4.31	-3.4622	6.6171
1.357	3.1407	2.9359	0.2361	5.0695	4.0824	1.0213	6.0283	4.7907	1.3172	7.3312	5.5304	1.6785	-2.9018	-0.8705	-1.3314	5.7751	-3.4622	4.7111	-3.2147	6.9984
2.0455	3.7922	3.6756	0.8961	5.7182	4.7879	1.6102	6.6228	5.502	1.8634	7.8945	6.1762	2.1934	-2.9843	-0.404	-0.8648	5.9258	-3.3399	5.1293	-2.9643	7.371
2.6998	4.3669	4.3384	1.5135	6.3071	5.4365	2.1365	7.1776	6.2046	2.3982	8.398	6.7793	2.6742	-3.0412	0.0455	-0.4125	6.051	-3.1806	5.4991	-2.7282	7.7153
3.2943	4.9245	4.9757	2.1109	6.8646	6.0652	2.6486	7.6897	6.8646	2.8989	8.9044	7.371	3.1464	-3.1123	0.4495	-0.0341	6.1591	-3.0184	5.8519	-2.4693	8.0538
3.8349	5.4621	5.5617	2.6571	7.3796	6.657	3.1436	8.1818	7.4678	3.3854	9.3681	7.9372	3.6187	-3.1549	0.8421	0.3755	6.2502	-2.8221	6.1961	-2.2133	8.3895
4.3128	5.9031	6.0567	3.1265	7.8148	7.1605	3.5731	8.5972	8.0168	3.8235	9.7806	8.4407	4.0425	-3.2005	1.155	0.7027	6.3412	-2.6429	6.4521	-1.9914	8.6598
4.731	6.2928	6.5147	3.5418	8.2017	7.6242	3.9714	8.9698	8.5004	4.1933	10.1362	8.8788	4.438	-3.2346	1.4509	0.9644	6.418	-2.4836	6.6968	-1.778	8.9186
5.0752	6.6314	6.8988	3.8832	8.5602	7.9941	4.2986	9.2885	8.9243	4.5176	10.4236	9.3027	4.7708	-3.2602	1.7354	1.192	6.4578	-2.2844	6.9415	-1.5704	9.1206
5.4024	6.9187	7.2402	4.2275	8.8361	8.3383	4.5916	9.536	9.3027	4.8334	10.6967	9.6725	5.1122	-3.2801	1.9601	1.3684	6.492	-2.1024	7.1178	-1.3627	9.3112
5.63	7.1349	7.4934	4.455	9.0267	8.5915	4.7936	9.738	9.5786	5.0809	10.8873	9.9257	5.3569	-3.2972	2.1735	1.4964	6.5204	-1.9402	7.2402	-1.229	9.4506
5.8263	7.3483	7.6897	4.6485	9.2373	8.8077	4.9785	9.9058	9.8347	5.3142	11.0665	10.2074	5.6129	-3.283	2.3186	1.6216	6.5062	-1.761	7.3454	-1.0697	9.5758
5.9884	7.4934	7.8319	4.822	9.3596	8.9585	5.1378	10.0111	10.031	5.4849	11.1661	10.3951	5.8291	-3.2545	2.4693	1.7012	6.4493	-1.5761	7.3909	-0.9303	9.6526
6.0539	7.5389	7.903	4.8704	9.425	9.0552	5.2146	10.0594	10.1277	5.6015	11.2031	10.4975	5.9941	-3.2289	2.5575	1.7382	6.4038	-1.4338	7.4422	-0.7937	9.6782
6.1307	7.5815	7.9514	4.9102	9.4449	9.1149	5.2658	10.0765	10.2187	5.6983	11.223	10.5943	6.1022	-3.1948	2.6372	1.8207	6.3355	-1.2603	7.4365	-0.7084	9.6839
6.125	7.5645	7.9457	4.9159	9.4364	9.1035	5.2943	10.0452	10.2187	5.7551	11.1831	10.6142	6.2075	-3.1464	2.7026	1.8548	6.253	-1.118	7.3966	-0.5946	9.6555
6.1193	7.5389	7.8689	4.8732	9.3738	9.0353	5.2715	9.9798	10.213	5.7722	11.1063	10.6113	6.2644	-3.1322	2.7197	1.8918	6.1876	-0.9872	7.3682	-0.5235	9.6099
6.0482	7.4422	7.8006	4.7851	9.2998	8.9528	5.2061	9.8802	10.1675	5.7779	11.0011	10.5658	6.29	-3.0867	2.7709	1.9601	6.0937	-0.8478	7.2971	-0.4324	9.5246
5.9145	7.3227	7.6384	4.6457	9.1462	8.7991	5.1179	9.7123	10.0224	5.7125	10.8275	10.4435	6.2729	-3.0355	2.7624	2.0085	6.0368	-0.7311	7.1747	-0.3926	9.3966
5.7921	7.1719	7.482	4.5119	8.9784	8.6683	4.9984	9.5587	9.8688	5.6414	10.654	10.3069	6.2388	-3.0013	2.7794	2.091	5.9685	-0.5946	7.0865	-0.33	9.2316
5.6271	6.987	7.2942	4.3526	8.7963	8.4919	4.8619	9.3653	9.6725	5.5389	10.4463	10.1249	6.1876	-2.9871	2.7965	2.1507	5.9258	-0.4609	6.9557	-0.2873	9.0836
5.4166	6.785	7.0553	4.1222	8.5687	8.2387	4.7026	9.1064	9.4364	5.4223	10.1903	9.9058	6.0937	-2.9587	2.7851	2.2218	5.8746	-0.3727	6.8077	-0.2589	8.893
5.2004	6.5602	6.8134	3.9316	8.3184	8.0225	4.5119	8.839	9.186	5.2829	9.883	9.6611	5.9884	-2.9359	2.7908	2.3129	5.8177	-0.239	6.62	-0.2134	8.6683
4.9643	6.2871	6.5403	3.6841	8.031	7.7266	4.3071	8.5431	8.9044	5.1008	9.59	9.3767	5.832	-2.9018	2.7965	2.3698	5.7409	-0.1394	6.4265	-0.2077	8.4407
4.7139	5.9913	6.2587	3.4281	7.7295	7.4222	4.1051	8.2302	8.5602	4.9102	9.2572	9.0609	5.6783	-2.8591	2.788	2.4153	5.667	-0.0256	6.2075	-0.1849	8.1647
4.4323	5.6897	5.9486	3.1635	7.3938	7.1207	3.8832	7.866	8.216	4.7082	8.8816	8.7309	5.5076	-2.8107	2.7851	2.4466	5.5788	0.0711	5.9856	-0.1935	7.8945
4.0994	5.3597	5.5788	2.8762	7.0154	6.7622	3.5959	7.4877	7.8148	4.455	8.5033	8.3724	5.3	-2.7624	2.7311	2.4238	5.4906	0.1479	5.7096	-0.2048	7.5929
3.8007	5.0155	5.2232	2.5718	6.6171	6.4038	3.337	7.1121	7.4336	4.1933	8.1107	7.9656	5.0923	-2.7311	2.6912	2.4011	5.3967	0.2532	5.4621	-0.2276	7.2914
3.4565	4.657	4.8505	2.2446	6.2359	6.0311	3.044	6.7281	7.0183	3.943	7.7209	7.5759	4.8619	-2.6656	2.6429	2.3499	5.2971	0.3556	5.1862	-0.239	6.9984
3.1635	4.3299	4.5063	1.963	5.8604	5.6584	2.7766	6.3412	6.5887	3.6727	7.3084	7.1378	4.6201	-2.6144	2.5547	2.2873	5.1776	0.4381	4.9131	-0.2617	6.6797
2.8306	3.96	4.1023	1.6329	5.4707	5.2573	2.4693	5.9059	6.1534	3.374	6.8846	6.7224	4.3982	-2.5433	2.4352	2.1905	5.061	0.5092	4.6371	-0.3044	6.3554
2.4807	3.5902	3.7211	1.3086	5.0525	4.8761	2.1678	5.4707	5.7039	3.0668	6.4578	6.2871	4.145	-2.4807	2.3015	2.0341	4.9273	0.5946	4.3441	-0.3442	6.0311
2.1621	3.2175	3.3484	0.9644	4.6343	4.438	1.8548	5.0667	5.2402	2.7937	6.0226	5.8177	3.8576	-2.4153	2.1194	1.8662	4.7907	0.6885	4.0454	-0.3869	5.7182
1.8292	2.8477	2.9814	0.66	4.2559	4.0653	1.5533	4.6457	4.768	2.4779	5.593	5.3768	3.63	-2.3413	1.9516	1.7012	4.6229	0.7567	3.7495	-0.4296	5.428
1.5334	2.4893	2.6173	0.3215	3.8519	3.6585	1.2489	4.2275	4.3014	2.2019	5.1663	4.9188	3.3797	-2.2531	1.7553	1.4964	4.4579	0.8421	3.4764	-0.4495	5.1151
1.1892	2.1365	2.2247	0.0171	3.4337	3.2545	0.9388	3.8235	3.8406	1.9117	4.7765	4.4835	3.1037	-2.1649	1.5618	1.2802	4.29	0.9246	3.2005	-0.4722	4.805
0.8648	1.7894	1.8406	-0.3016	3.0326	2.8534	0.6458	3.4081	3.3996	1.613	4.3555	4.0425	2.879	-2.0853	1.3712	1.081	4.1279	1.0042	2.9074	-0.4979	4.492
0.532	1.4395	1.4566	-0.6401	2.64	2.4409	0.3556	2.9956	2.9302	1.3257	3.9373	3.613	2.6343	-2.0085	1.1379	0.8478	3.9544	1.0896	2.6258	-0.5064	4.1905
0.2162	1.0725	1.0981	-0.9559	2.2161	2.0284	0.0484	2.586	2.4636	1.0611	3.5219	3.1806	2.4068	-1.9089	0.9274	0.6543	3.7751	1.1835	2.3129	-0.5348	3.8832
-0.1166	0.7254	0.7226	-1.2631	1.8179	1.6329	-0.2503	2.1849	2.0056	0.7937	3.1237	2.7453	2.1849	-1.815	0.7368	0.4808	3.5817	1.283	2.0028	-0.5547	3.5618
-0.4353	0.3926	0.367	-1.5561	1.4196	1.2091	-0.5348	1.7923	1.5647	0.5348	2.7339	2.2958	1.9686	-1.7126	0.4979	0.276	3.3882	1.3684	1.7012	-0.5547	3.2431
-0.7766	0.0228	-0.0171	-1.9004	1.027	0.8079	-0.8478	1.3883	1.1209	0.2731	2.3442	1.8947	1.7524	-1.6102	0.2788	0.0882	3.1806	1.4736	1.4224	-0.5718	2.9245
-1.0953	-0.2873	-0.3841	-2.2048	0.6173	0.3841	-1.1465	0.9758	0.6685	0.0171	1.9487	1.4623	1.5618	-1.5049	0.0654	-0.0683	2.9899	1.5476	1.1408	-0.5804	2.623
-1.3769	-0.6031	-0.7454	-2.5063	0.2617	-0.0341	-1.4054	0.606	0.2646	-0.2048	1.5761	1.0725	1.3513	-1.4082	-0.1053	-0.2048	2.7794	1.6756	0.8791	-0.5889	2.31
-1.7297	-0.9303	-1.1323	-2.7908	-0.1337	-0.4296	-1.6927	0.239	-0.1849	-0.4552	1.2062	0.6771	1.1522	-1.32	-0.3072	-0.4239	2.6059	1.7496	0.6031	-0.6145	2.054
-2.0597	-1.2347	-1.5192	-3.0895	-0.4865	-0.8478	-1.9743	-0.1223	-0.5946	-0.7141	0.8563	0.2674	0.9445	-1.2347	-0.4751	-0.5889	2.4352	1.815	0.3471	-0.6515	1.7439
-2.3499	-1.5448	-1.889	-3.3996	-0.8421	-1.2631	-2.2361	-0.458	-1.0042	-0.9303	0.5035	-0.1024	0.7937	-1.1806	-0.6344	-0.7909	2.3015	1.8662	0.0939	-0.6344	1.4936
-2.677	-1.8406	-2.2844	-3.6926	-1.1948	-1.6699	-2.4978	-0.8222	-1.4082	-1.1892	0.1792	-0.4694	0.6088	-1.0924	-0.7994	-0.99	2.1706	1.9459	-0.1593	-0.6742	1.229
-3.0298	-2.1223	-2.6656	-3.9913	-1.5419	-2.0711	-2.7652	-1.1408	-1.778	-1.4054	-0.1366	-0.8165	0.4438	-1.0412	-0.9388	-1.2119	2.054	1.9971	-0.3812	-0.6742	0.9786
-3.32	-2.4267	-3.0355	-4.2673	-1.8634	-2.4665	-3.0241	-1.4395	-2.1649	-1.613	-0.4353	-1.1863	0.2816	-0.99	-1.0611	-1.431	1.9459	2.0824	-0.5889	-0.6885	0.7397
-3.6528	-2.6855	-3.4138	-4.5375	-2.1905	-2.8562	-3.2801	-1.7695	-2.5661	-1.8264	-0.7539	-1.5106	0.1195	-0.9246	-1.1664	-1.6529	1.8321	2.1479	-0.8051	-0.6799	0.5064
-3.9771	-2.9587	-3.7865	-4.8533	-2.5177	-3.2289	-3.4935	-2.0682	-2.9387	-2.0028	-1.0241	-1.8349	-0.0142	-0.8734	-1.2432	-1.8577	1.724	2.2133	-1.0099	-0.6941	0.2873
-4.3043	-3.2204	-4.145	-5.1094	-2.8136	-3.6101	-3.7154	-2.3755	-3.2687	-2.1991	-1.3029	-2.1536	-0.1536	-0.7994	-1.3342	-2.0682	1.5874	2.3043	-1.2034	-0.6799	0.074
-4.6371	-3.4906	-4.5006	-5.3768	-3.1094	-3.9686	-3.9401	-2.6742	-3.6101	-2.3584	-1.5561	-2.4352	-0.2617	-0.7397	-1.431	-2.2901	1.4509	2.384	-1.4111	-0.6771	-0.1565
-4.9757	-3.7524	-4.8875	-5.647	-3.3996	-4.3356	-4.1194	-2.9188	-3.9629	-2.5234	-1.8093	-2.7396	-0.404	-0.6572	-1.5305	-2.4949	1.2859	2.4665	-1.6187	-0.66	-0.3499
-5.2971	-3.9885	-5.2431	-5.9116	-3.667	-4.6883	-4.3327	-3.1862	-4.2531	-2.6855	-2.0312	-2.9956	-0.5035	-0.5547	-1.5931	-2.6855	1.1038	2.5803	-1.8093	-0.623	-0.5405
-5.6101	-4.2132	-5.5873	-6.162	-3.9259	-5.0411	-4.5148	-3.4366	-4.5575	-2.7993	-2.2474	-3.2545	-0.6003	-0.458	-1.7154	-2.8904	0.9132	2.6827	-1.9999	-0.6003	-0.734
-5.9116	-4.4494	-5.8917	-6.3924	-4.1763	-5.3455	-4.6741	-3.6556	-4.8391	-2.9103	-2.4636	-3.465	-0.6771	-0.3442	-1.8179	-3.0668	0.697	2.7908	-2.1849	-0.5576	-0.9217
-6.2132	-4.6656	-6.2274	-6.6342	-4.4152	-5.647	-4.8334	-3.8719	-5.1094	-3.0412	-2.6543	-3.7097	-0.7567	-0.239	-1.9032	-3.2517	0.4751	2.8989	-2.3641	-0.5291	-1.0981
-6.5005	-4.8988	-6.5062	-6.8476	-4.6371	-5.9287	-4.9557	-4.1137	-5.354	-3.135	-2.879	-3.9174	-0.8108	-0.128	-2.0227	-3.4053	0.2475	3.0298	-2.5234	-0.4893	-1.2489
-6.7622	-5.1008	-6.785	-7.024	-4.8533	-6.2103	-5.1122	-4.3014	-5.6158	-3.2261	-3.0383	-4.1108	-0.8791	0	-2.1393	-3.5845	0.0199	3.1293	-2.7083	-0.4495	-1.3997
-7.024	-5.2857	-7.0553	-7.2345	-5.0326	-6.455	-5.2317	-4.4892	-5.8348	-3.3683	-3.1891	-4.2872	-0.9502	0.0967	-2.256	-3.7125	-0.2048	3.2346	-2.8818	-0.4267	-1.5419
-7.2658	-5.482	-7.3369	-7.4279	-5.2545	-6.7139	-5.3711	-4.6826	-6.0738	-3.465	-3.3399	-4.5034	-1.0042	0.2219	-2.3783	-3.8747	-0.4296	3.2858	-3.0639	-0.3897	-1.6813
-7.4962	-5.6783	-7.5474	-7.6072	-5.4138	-6.9102	-5.4735	-4.8249	-6.2644	-3.5475	-3.4906	-4.6457	-1.0611	0.3328	-2.5006	-3.997	-0.6543	3.3911	-3.1777	-0.3613	-1.7553
-7.6925	-5.8377	-7.7892	-7.7892	-5.593	-7.1491	-5.5816	-4.9927	-6.4351	-3.6613	-3.6187	-4.805	-1.155	0.441	-2.6087	-4.0966	-0.8762	3.4508	-3.3456	-0.3755	-1.8463
-7.8803	-6.0055	-7.9827	-7.9258	-5.7409	-7.3483	-5.6983	-5.1606	-6.6598	-3.7694	-3.741	-4.9614	-1.246	0.5434	-2.7538	-4.2019	-1.0782	3.485	-3.4793	-0.3585	-1.9459
-8.0538	-6.1534	-8.1733	-8.0396	-5.8746	-7.5104	-5.7836	-5.2658	-6.8191	-3.8519	-3.832	-5.098	-1.2944	0.6401	-2.8534	-4.2445	-1.283	3.5504	-3.6073	-0.3585	-2.0085
-8.1818	-6.2672	-8.3184	-8.1562	-5.9941	-7.6384	-5.8689	-5.3768	-6.9386	-3.9145	-3.8975	-5.1919	-1.3513	0.7482	-2.9444	-4.2531	-1.4765	3.5987	-3.6784	-0.33	-2.0426
-8.2985	-6.3611	-8.4407	-8.2387	-6.0965	-7.7807	-5.9258	-5.4564	-7.0723	-3.9999	-3.9515	-5.3114	-1.4054	0.8335	-3.007	-4.2303	-1.6415	3.6699	-3.7694	-0.2703	-2.0796
-8.3895	-6.4208	-8.5346	-8.3013	-6.1335	-7.9059	-5.9827	-5.5076	-7.1747	-4.0454	-3.9657	-5.3739	-1.4651	0.916	-3.0696	-4.2161	-1.8264	3.7154	-3.8121	-0.2447	-2.0568
-8.4919	-6.5005	-8.674	-8.3753	-6.2246	-8.014	-6.0311	-5.5731	-7.2828	-4.0909	-3.9885	-5.465	-1.4992	0.9872	-3.0952	-4.1649	-1.9686	3.7666	-3.8662	-0.2048	-2.0398
-8.5602	-6.5489	-8.7479	-8.4009	-6.2786	-8.1221	-6.0453	-5.6129	-7.3853	-4.1592	-3.9856	-5.5076	-1.5476	1.0668	-3.135	-4.0881	-2.0995	3.8121	-3.9003	-0.1849	-2.0142
-8.6313	-6.6058	-8.802	-8.4407	-6.327	-8.1875	-6.0965	-5.647	-7.4422	-4.199	-3.98	-5.5645	-1.596	1.1379	-3.1322	-4.0027	-2.2361	3.869	-3.9145	-0.1451	-1.9715
-8.6882	-6.6399	-8.8674	-8.472	-6.3639	-8.2643	-6.1221	-5.6613	-7.5389	-4.2417	-3.96	-5.6243	-1.6358	1.1778	-3.1578	-3.9145	-2.3157	3.8747	-3.9344	-0.1422	-1.9317
-8.7423	-6.6655	-8.9158	-8.5061	-6.3782	-8.3326	-6.1421	-5.6641	-7.5844	-4.29	-3.9487	-5.6613	-1.6842	1.2119	-3.135	-3.8007	-2.4124	3.8946	-3.9088	-0.128	-1.8605
-8.7821	-6.6826	-8.9585	-8.5317	-6.3981	-8.4009	-6.1819	-5.6897	-7.6555	-4.3441	-3.9174	-5.7096	-1.7581	1.2546	-3.1436	-3.7524	-2.4693	3.9259	-3.9259	-0.1252	-1.8292
-8.8134	-6.694	-8.9727	-8.5744	-6.3924	-8.4521	-6.2274	-5.6584	-7.7039	-4.3925	-3.9003	-5.7466	-1.7951	1.2887	-3.1237	-3.667	-2.5319	3.9145	-3.9174	-0.1366	-1.7553
-8.8248	-6.6854	-9.0068	-8.5772	-6.3952	-8.4748	-6.2473	-5.6698	-7.7579	-4.4124	-3.8434	-5.7523	-1.8548	1.2916	-3.0981	-3.5504	-2.5547	3.9231	-3.869	-0.1536	-1.6671
-8.839	-6.6797	-9.058	-8.6313	-6.3867	-8.5545	-6.2985	-5.6385	-7.7978	-4.475	-3.7894	-5.7694	-1.8947	1.3029	-3.0838	-3.5077	-2.5803	3.8946	-3.8519	-0.1707	-1.5817
-8.8617	-6.6456	-9.0694	-8.6541	-6.3526	-8.5915	-6.3298	-5.5816	-7.8404	-4.5347	-3.7125	-5.7808	-1.9487	1.3029	-3.0895	-3.4508	-2.5746	3.8719	-3.7979	-0.1935	-1.4822
-8.8816	-6.6257	-9.0836	-8.711	-6.344	-8.6484	-6.3952	-5.5333	-7.9002	-4.5831	-3.6528	-5.7722	-1.9942	1.2944	-3.0582	-3.4451	-2.5461	3.7979	-3.7723	-0.2532	-1.3854
-8.8987	-6.6171	-9.1035	-8.728	-6.3156	-8.6939	-6.4351	-5.4963	-7.9315	-4.6599	-3.5788	-5.795	-2.0625	1.266	-3.0525	-3.4537	-2.4921	3.7609	-3.6983	-0.2987	-1.2887
-8.9016	-6.62	-9.1491	-8.7764	-6.29	-8.7423	-6.5062	-5.4536	-7.9713	-4.731	-3.5077	-5.7836	-2.1336	1.2347	-3.0668	-3.465	-2.4295	3.6756	-3.63	-0.3556	-1.1721
-8.9073	-6.5944	-9.1462	-8.8361	-6.2701	-8.7935	-6.5688	-5.4138	-8.014	-4.8107	-3.448	-5.8035	-2.2105	1.2005	-3.0525	-3.4878	-2.3499	3.5987	-3.5561	-0.4239	-1.0526
-8.9243	-6.5688	-9.1747	-8.8731	-6.2502	-8.8361	-6.6484	-5.3739	-8.0623	-4.8818	-3.3797	-5.8007	-2.2617	1.1493	-3.0554	-3.5618	-2.273	3.5162	-3.4679	-0.4893	-0.9616
-8.9698	-6.5915	-9.2515	-8.9357	-6.2615	-8.9101	-6.7309	-5.3739	-8.1335	-4.9728	-3.3484	-5.8377	-2.3527	1.1095	-3.0639	-3.6329	-2.1792	3.4224	-3.411	-0.5633	-0.8819
-9.0154	-6.5887	-9.3084	-9.0011	-6.2758	-8.9926	-6.7964	-5.3341	-8.1989	-5.0695	-3.2972	-5.8519	-2.4295	1.0754	-3.0611	-3.7154	-2.0995	3.3456	-3.3313	-0.6202	-0.7766
-9.0751	-6.6314	-9.3795	-9.1007	-6.3071	-9.0979	-6.9215	-5.3512	-8.3013	-5.1919	-3.2915	-5.8604	-2.5177	1.0298	-3.0525	-3.8292	-2.0227	3.2289	-3.2801	-0.7027	-0.7254
-9.1149	-6.6285	-9.4478	-9.1804	-6.3184	-9.1946	-7.0097	-5.3711	-8.3554	-5.2857	-3.2801	-5.8917	-2.6144	0.9957	-3.0781	-3.9202	-1.9573	3.1265	-3.2374	-0.7909	-0.6515
-9.1747	-6.6541	-9.5246	-9.2486	-6.3412	-9.2856	-7.1264	-5.354	-8.4578	-5.4308	-3.2545	-5.9258	-2.7311	0.9673	-3.0611	-4.0255	-1.8975	3.0241	-3.1806	-0.8648	-0.623
-9.2657	-6.711	-9.6128	-9.3624	-6.3867	-9.4079	-7.2857	-5.4109	-8.5659	-5.5788	-3.2716	-5.9884	-2.8733	0.936	-3.0696	-4.145	-1.8321	2.8818	-3.1606	-0.9616	-0.5747
-9.3482	-6.7793	-9.7209	-9.4876	-6.4294	-9.5274	-7.4336	-5.4593	-8.674	-5.7466	-3.3171	-6.0396	-3.0013	0.8819	-3.0639	-4.2758	-1.7411	2.7538	-3.1293	-1.0583	-0.5747
-9.4392	-6.839	-9.8176	-9.6071	-6.5005	-9.6583	-7.5645	-5.4991	-8.7565	-5.8945	-3.3427	-6.1051	-3.1493	0.8478	-3.0668	-4.3697	-1.6472	2.5917	-3.1208	-1.1692	-0.5775
-9.4705	-6.8561	-9.9257	-9.7294	-6.5375	-9.7294	-7.7096	-5.5247	-8.8333	-6.0539	-3.3598	-6.1477	-3.283	0.788	-3.0582	-4.4494	-1.5448	2.4665	-3.1009	-1.2574	-0.5462
-9.5104	-6.8618	-9.9769	-9.7977	-6.546	-9.8034	-7.8319	-5.5475	-8.9101	-6.2274	-3.3512	-6.1506	-3.3996	0.7454	-2.9985	-4.4949	-1.4566	2.3242	-3.0611	-1.3513	-0.5235
-9.5132	-6.8675	-9.9798	-9.866	-6.5489	-9.8432	-7.9542	-5.5674	-8.9499	-6.3583	-3.3626	-6.179	-3.4935	0.7084	-2.9131	-4.4835	-1.3741	2.2048	-3.0269	-1.4196	-0.5035
-9.5161	-6.8874	-10.0281	-9.9712	-6.5745	-9.8944	-8.0965	-5.5674	-8.9926	-6.492	-3.3626	-6.1904	-3.6443	0.6515	-2.8591	-4.4636	-1.2603	2.0511	-2.9814	-1.5305	-0.4722
-9.4904	-6.8732	-10.0509	-10.0224	-6.5716	-9.92	-8.1761	-5.5873	-9.0239	-6.6371	-3.3683	-6.162	-3.7381	0.5974	-2.7737	-4.4408	-1.1465	1.9032	-2.9473	-1.6159	-0.4324
-9.4848	-6.8703	-10.0651	-10.085	-6.5773	-9.957	-8.3098	-5.5816	-9.041	-6.7651	-3.3712	-6.1677	-3.8605	0.5291	-2.6571	-4.3754	-1.0213	1.7667	-2.9103	-1.6984	-0.3869
-9.4279	-6.8163	-10.0224	-10.1249	-6.5261	-9.9257	-8.361	-5.5304	-9.0154	-6.8646	-3.3143	-6.1307	-3.9572	0.4751	-2.5518	-4.2787	-0.9104	1.6244	-2.8648	-1.778	-0.3385
-9.388	-6.7793	-10.0395	-10.1732	-6.5147	-9.9399	-8.4748	-5.5219	-9.0353	-6.9984	-3.3086	-6.0937	-4.0539	0.3926	-2.3897	-4.1962	-0.7795	1.4793	-2.7993	-1.8691	-0.2788
-9.3169	-6.7509	-10.0111	-10.2102	-6.4863	-9.9286	-8.5516	-5.4963	-9.0097	-7.1008	-3.2773	-6.0681	-4.1706	0.3272	-2.2787	-4.1194	-0.6458	1.3314	-2.7538	-1.9573	-0.2162
-9.2401	-6.6826	-9.9485	-10.2187	-6.4294	-9.8802	-8.5943	-5.4308	-8.9642	-7.189	-3.2005	-6.0027	-4.2588	0.2816	-2.1251	-3.9714	-0.5405	1.1977	-2.6827	-2.0455	-0.128
-9.1661	-6.6371	-9.903	-10.25	-6.3611	-9.8432	-8.6683	-5.3825	-8.93	-7.2686	-3.1379	-5.9315	-4.3583	0.2219	-1.9971	-3.9003	-0.421	1.0697	-2.64	-2.1251	-0.0597
-9.0751	-6.546	-9.8233	-10.2244	-6.29	-9.7721	-8.7195	-5.2943	-8.8532	-7.317	-3.0668	-5.8092	-4.4038	0.165	-1.8719	-3.7865	-0.3129	0.9473	-2.5689	-2.1763	0.0284
-8.9926	-6.4493	-9.7323	-10.1988	-6.1876	-9.7237	-8.7366	-5.2089	-8.7792	-7.4023	-2.9814	-5.7068	-4.4607	0.1081	-1.7183	-3.6784	-0.2219	0.8222	-2.4836	-2.2474	0.1337
-8.8959	-6.3753	-9.6412	-10.1846	-6.0681	-9.6441	-8.7423	-5.1122	-8.6683	-7.408	-2.8705	-5.5987	-4.4863	0.0626	-1.5761	-3.576	-0.128	0.734	-2.3925	-2.3015	0.2276
-8.7707	-6.2473	-9.5303	-10.1419	-5.9571	-9.5161	-8.7593	-4.9785	-8.563	-7.4422	-2.7368	-5.4337	-4.5119	0.0313	-1.4452	-3.4138	-0.0541	0.6429	-2.293	-2.3584	0.3556
-8.6313	-6.088	-9.3795	-10.0708	-5.8035	-9.371	-8.7166	-4.8306	-8.4037	-7.4336	-2.6144	-5.2601	-4.5091	0.0028	-1.2916	-3.2574	0.0114	0.5718	-2.1934	-2.3954	0.4637
-8.4947	-5.9429	-9.2486	-10.0082	-5.6584	-9.2486	-8.7053	-4.6997	-8.2472	-7.4308	-2.4722	-5.0866	-4.4807	-0.0341	-1.1607	-3.1208	0.0797	0.495	-2.0881	-2.4409	0.5946
-8.3582	-5.7751	-9.0808	-9.9143	-5.4906	-9.1092	-8.6484	-4.5319	-8.0822	-7.3909	-2.2816	-4.8619	-4.4266	-0.0683	-1.0355	-2.9615	0.1479	0.4353	-1.9715	-2.4523	0.734
-8.179	-5.593	-8.9243	-9.8091	-5.3	-8.9329	-8.5829	-4.3356	-7.8803	-7.3426	-2.0853	-4.6257	-4.3725	-0.1053	-0.8961	-2.7766	0.2077	0.404	-1.8662	-2.4864	0.8762
-8.0083	-5.3967	-8.7565	-9.6924	-5.1094	-8.7593	-8.5175	-4.1393	-7.6754	-7.2715	-1.889	-4.4067	-4.29	-0.1451	-0.7539	-2.5945	0.2816	0.3613	-1.724	-2.5006	1.027
-7.849	-5.2289	-8.5772	-9.6014	-4.9358	-8.5915	-8.4407	-3.9515	-7.4706	-7.1918	-1.6842	-4.1677	-4.1933	-0.1849	-0.623	-2.4096	0.3641	0.3186	-1.6045	-2.5149	1.192
-7.6783	-5.0269	-8.4066	-9.4904	-4.7481	-8.3923	-8.3497	-3.7467	-7.2487	-7.115	-1.4907	-3.9259	-4.0824	-0.2219	-0.5149	-2.2332	0.4324	0.2788	-1.4736	-2.5405	1.3428
-7.499	-4.8419	-8.2188	-9.3738	-4.5518	-8.1903	-8.2501	-3.5504	-7.0069	-6.9927	-1.2773	-3.6727	-3.96	-0.256	-0.3954	-2.0398	0.5092	0.2674	-1.3513	-2.5376	1.485
-7.3369	-4.6798	-8.0623	-9.2657	-4.3925	-8.014	-8.142	-3.3712	-6.8077	-6.8846	-1.0981	-3.4281	-3.8434	-0.293	-0.2731	-1.8577	0.5775	0.2503	-1.2176	-2.5405	1.6386
-7.1747	-4.5233	-7.8916	-9.132	-4.2246	-7.8461	-8.0652	-3.1862	-6.5773	-6.8021	-0.8677	-3.1635	-3.7097	-0.3357	-0.1508	-1.6955	0.6572	0.2333	-1.0867	-2.5234	1.778
-7.0325	-4.3526	-7.7409	-9.0068	-4.0596	-7.6754	-7.9343	-2.9899	-6.3554	-6.6655	-0.6429	-2.9131	-3.5675	-0.3698	-0.0256	-1.5504	0.7226	0.2361	-0.9502	-2.5063	1.9373
-6.8988	-4.2189	-7.5986	-8.8788	-3.9487	-7.5161	-7.8091	-2.8278	-6.1563	-6.5176	-0.4836	-2.677	-3.4366	-0.4068	0.0797	-1.4082	0.8222	0.2418	-0.8591	-2.4893	2.0654
-6.7793	-4.0938	-7.4535	-8.7679	-3.8292	-7.3739	-7.6897	-2.6429	-5.9571	-6.3924	-0.3129	-2.4124	-3.2801	-0.458	0.1935	-1.2916	0.9132	0.2617	-0.7425	-2.4807	2.2048
-6.6541	-3.9714	-7.3227	-8.6484	-3.6983	-7.2231	-7.5929	-2.4949	-5.7466	-6.2416	-0.1195	-2.1877	-3.1436	-0.5178	0.3272	-1.1835	1.0241	0.2617	-0.6259	-2.4722	2.3356
-6.5517	-3.8747	-7.2288	-8.5175	-3.6101	-7.1121	-7.4478	-2.3584	-5.5304	-6.1164	0.0341	-1.9829	-3.007	-0.5832	0.4153	-1.0697	1.155	0.239	-0.5377	-2.4636	2.4437
-6.455	-3.7609	-7.1093	-8.3724	-3.5191	-6.9927	-7.3284	-2.2417	-5.3455	-5.977	0.202	-1.7411	-2.8648	-0.6429	0.5121	-0.99	1.2717	0.2475	-0.4381	-2.4466	2.5547
-6.3184	-3.6898	-6.987	-8.2273	-3.4081	-6.8675	-7.1861	-2.0824	-5.1776	-5.8206	0.3328	-1.5419	-2.7055	-0.697	0.6088	-0.9104	1.394	0.2361	-0.3528	-2.4068	2.6486
-6.2388	-3.6073	-6.876	-8.1221	-3.3541	-6.7509	-7.0609	-2.0085	-4.9956	-5.6641	0.4609	-1.3456	-2.5689	-0.7482	0.7141	-0.8023	1.4907	0.1991	-0.2646	-2.4096	2.7481
-6.1591	-3.5248	-6.7793	-7.9997	-3.2801	-6.657	-6.9244	-1.9032	-4.8419	-5.5418	0.5491	-1.1465	-2.4437	-0.8051	0.7795	-0.7482	1.6073	0.1622	-0.2048	-2.421	2.8079
-6.0453	-3.4508	-6.6712	-7.8461	-3.2204	-6.5489	-6.7821	-1.798	-4.6912	-5.3882	0.6344	-0.9729	-2.3157	-0.8563	0.8506	-0.6913	1.7098	0.1309	-0.128	-2.4124	2.8562
-5.9458	-3.3797	-6.5858	-7.7181	-3.1464	-6.4521	-6.657	-1.7268	-4.5461	-5.2829	0.7254	-0.8222	-2.2133	-0.9189	0.9104	-0.6458	1.8292	0.0797	-0.0597	-2.421	2.9359
-5.8377	-3.2687	-6.4664	-7.5673	-3.0867	-6.3412	-6.4891	-1.6244	-4.3811	-5.1264	0.8364	-0.6344	-2.0682	-0.9729	0.9587	-0.5804	1.9203	0.037	0.0171	-2.4068	3.007
-5.7239	-3.1891	-6.3526	-7.408	-3.0326	-6.2274	-6.3497	-1.5448	-4.2502	-4.9813	0.9189	-0.495	-1.9402	-1.0128	0.9843	-0.5377	2.0198	-0.0028	0.0996	-2.3868	3.0867
-5.6015	-3.1151	-6.2587	-7.2601	-2.9928	-6.1506	-6.2046	-1.4594	-4.108	-4.8334	1.0099	-0.3414	-1.8321	-1.0611	1.0014	-0.5064	2.1024	-0.0768	0.1565	-2.3868	3.1436
-5.4792	-3.0212	-6.1307	-7.0865	-2.8932	-6.0396	-6.051	-1.3485	-3.9856	-4.6969	1.081	-0.1849	-1.7012	-1.101	1.0241	-0.4808	2.1849	-0.1309	0.2475	-2.3641	3.2346
-5.3455	-2.9274	-5.9913	-6.9045	-2.8193	-5.9173	-5.8832	-1.266	-3.8292	-4.5461	1.1806	-0.0512	-1.5874	-1.1294	1.0583	-0.4438	2.2531	-0.1878	0.3272	-2.3299	3.3057
-5.2175	-2.8363	-5.8775	-6.7423	-2.7339	-5.8064	-5.7096	-1.1806	-3.7211	-4.4095	1.246	0.0882	-1.4679	-1.1721	1.0668	-0.4296	2.3442	-0.2191	0.4182	-2.3015	3.3882
-5.0667	-2.714	-5.7637	-6.6001	-2.6799	-5.6983	-5.5446	-1.0782	-3.5902	-4.2616	1.3399	0.2304	-1.3456	-1.2375	1.0953	-0.4068	2.4466	-0.2503	0.532	-2.2674	3.4821
-4.9586	-2.6201	-5.6527	-6.4436	-2.5774	-5.593	-5.4109	-0.99	-3.4622	-4.1137	1.4395	0.3499	-1.2432	-1.3029	1.1209	-0.3471	2.5718	-0.3072	0.6088	-2.2588	3.5589
-4.8277	-2.5205	-5.5446	-6.2672	-2.5063	-5.4991	-5.263	-0.8819	-3.3683	-3.9913	1.5135	0.4694	-1.1294	-1.357	1.1379	-0.3328	2.6998	-0.3471	0.7112	-2.2417	3.6187
-4.6826	-2.4039	-5.4394	-6.1221	-2.4068	-5.4308	-5.1236	-0.8023	-3.2602	-3.8462	1.613	0.586	-1.0298	-1.4111	1.2148	-0.2788	2.8193	-0.404	0.8051	-2.2019	3.7182
-4.5717	-2.3186	-5.337	-5.9685	-2.3271	-5.3313	-4.987	-0.7112	-3.1521	-3.7296	1.6756	0.6885	-0.9559	-1.4936	1.2574	-0.2361	2.9672	-0.4381	0.9189	-2.1706	3.7894
-4.4664	-2.2389	-5.2345	-5.832	-2.2361	-5.2402	-4.8619	-0.6372	-3.0724	-3.6187	1.7667	0.7681	-0.8961	-1.5846	1.2745	-0.1764	3.1293	-0.5035	1.0014	-2.182	3.8605
-4.3612	-2.1308	-5.1463	-5.7068	-2.1365	-5.172	-4.7367	-0.5462	-2.9444	-3.5219	1.8492	0.8734	-0.7966	-1.6472	1.3229	-0.1195	3.2574	-0.5661	1.1209	-2.1564	3.9401
-4.2957	-2.0739	-5.0838	-5.6015	-2.0739	-5.1293	-4.6599	-0.4523	-2.8619	-3.4025	1.9317	0.9673	-0.7539	-1.7211	1.3798	-0.0882	3.3996	-0.6259	1.2091	-2.1792	3.9828
-4.2246	-1.9686	-5.0013	-5.4906	-1.9601	-5.0525	-4.5632	-0.3528	-2.751	-3.3114	2.0369	1.0611	-0.697	-1.7866	1.4082	-0.0256	3.5418	-0.6913	1.3143	-2.1706	4.0482
-4.1506	-1.8918	-4.9472	-5.3967	-1.8662	-4.9956	-4.5063	-0.2646	-2.6884	-3.2062	2.1024	1.1095	-0.6572	-1.8577	1.448	0	3.6869	-0.7937	1.3826	-2.1991	4.1023
-4.0824	-1.8093	-4.8903	-5.3114	-1.7667	-4.9444	-4.3925	-0.1821	-2.5746	-3.1094	2.2218	1.2204	-0.5775	-1.9203	1.4879	0.0541	3.8036	-0.8307	1.4822	-2.1934	4.1819
-3.9885	-1.7098	-4.8078	-5.2146	-1.6557	-4.8562	-4.2787	-0.0711	-2.475	-3.0042	2.3385	1.3172	-0.5149	-1.9686	1.5362	0.091	3.9202	-0.899	1.5903	-2.1706	4.2616
-3.8775	-1.5988	-4.7282	-5.0951	-1.5362	-4.7367	-4.162	0.0484	-2.3129	-2.8762	2.4722	1.4566	-0.4182	-2.0369	1.6301	0.1394	4.0255	-0.899	1.7183	-2.1735	4.3612
-3.8036	-1.5334	-4.64	-5.0326	-1.4167	-4.6684	-4.0938	0.1735	-2.1962	-2.7624	2.586	1.5618	-0.3556	-2.091	1.6614	0.1963	4.1478	-0.9388	1.815	-2.1592	4.4266
-3.6983	-1.4054	-4.5603	-4.933	-1.3029	-4.5347	-3.9657	0.3072	-2.0597	-2.6372	2.7311	1.6898	-0.2674	-2.1507	1.7354	0.2247	4.2559	-0.9985	1.9373	-2.1422	4.5148
-3.6272	-1.3371	-4.455	-4.8391	-1.1778	-4.4323	-3.8719	0.441	-1.9203	-2.4949	2.8562	1.8264	-0.1394	-2.1877	1.7809	0.239	4.3526	-0.9957	2.054	-2.108	4.6058
-3.5333	-1.2603	-4.3583	-4.7566	-1.064	-4.3185	-3.7694	0.5576	-1.7695	-2.4011	2.9558	1.9516	-0.0825	-2.2332	1.8207	0.2788	4.4522	-1.0185	2.1564	-2.0711	4.6826
-3.4394	-1.1237	-4.2445	-4.6428	-0.9331	-4.2104	-3.6556	0.7254	-1.6273	-2.2531	3.1237	2.1223	0.0484	-2.2844	1.8776	0.3129	4.5148	-0.9786	2.2844	-2.0142	4.7737
-3.3313	-1.0526	-4.1307	-4.5717	-0.8193	-4.0938	-3.5561	0.8165	-1.4964	-2.1052	3.2403	2.2446	0.1536	-2.3129	1.9345	0.3385	4.5888	-0.9502	2.3584	-1.9573	4.8704
-3.2801	-0.9331	-4.0539	-4.5006	-0.7112	-3.9856	-3.4309	0.9502	-1.3542	-1.9829	3.3655	2.3755	0.2703	-2.347	1.9743	0.3385	4.6542	-0.9246	2.4608	-1.889	4.9501
-3.1919	-0.8535	-3.9259	-4.4095	-0.6088	-3.869	-3.337	1.0697	-1.2005	-1.8179	3.5106	2.5092	0.3926	-2.3783	2.0369	0.3641	4.694	-0.8791	2.6002	-1.8122	5.061
-3.1407	-0.7823	-3.8519	-4.3213	-0.5434	-3.7609	-3.2403	1.1806	-1.0754	-1.7126	3.6044	2.6457	0.5121	-2.3755	2.0625	0.3528	4.7139	-0.8023	2.6457	-1.7354	5.1207
-3.1066	-0.7254	-3.778	-4.2815	-0.458	-3.6955	-3.1549	1.2603	-0.9786	-1.5874	3.7154	2.7709	0.6202	-2.3954	2.0739	0.3272	4.7424	-0.7368	2.7538	-1.65	5.1862
-3.0554	-0.6657	-3.7154	-4.2218	-0.404	-3.6073	-3.0668	1.3342	-0.8904	-1.4623	3.7637	2.8363	0.7027	-2.3982	2.0682	0.3101	4.7538	-0.6771	2.7794	-1.5647	5.226
-3.0554	-0.6202	-3.6727	-4.1763	-0.3784	-3.5532	-3.0127	1.4054	-0.8023	-1.3741	3.8434	2.9359	0.7937	-2.3982	2.0398	0.2532	4.7424	-0.6145	2.8249	-1.4907	5.2886
-3.0269	-0.5946	-3.613	-4.1194	-0.3243	-3.4764	-2.9074	1.4708	-0.7084	-1.2574	3.9202	3.0383	0.9274	-2.3811	1.9715	0.1764	4.7338	-0.5149	2.8932	-1.3741	5.3512
-3.0212	-0.5604	-3.6073	-4.1023	-0.293	-3.4252	-2.8306	1.5135	-0.6344	-1.1579	3.997	3.1322	1.0298	-2.3669	1.9203	0.1024	4.6969	-0.4466	2.933	-1.2688	5.4166
-3.0184	-0.5462	-3.5703	-4.0482	-0.2589	-3.3882	-2.788	1.5789	-0.586	-1.0554	4.071	3.2005	1.1465	-2.3499	1.8321	0.0199	4.6656	-0.3385	2.9615	-1.1721	5.4621
-3.0042	-0.5092	-3.5362	-4.0056	-0.2333	-3.337	-2.6941	1.65	-0.5206	-0.9644	4.1421	3.2943	1.2603	-2.3129	1.7581	-0.0797	4.6144	-0.2361	2.9985	-1.0526	5.519
-2.9729	-0.4893	-3.5305	-3.9515	-0.2247	-3.283	-2.6116	1.7098	-0.4495	-0.8421	4.2303	3.3712	1.3883	-2.2759	1.6927	-0.1792	4.529	-0.1081	3.0468	-0.9075	5.6158
-2.9843	-0.4865	-3.5191	-3.9259	-0.2333	-3.2574	-2.5547	1.7723	-0.3983	-0.7596	4.2929	3.4537	1.4907	-2.2531	1.5504	-0.3186	4.4607	0	3.0753	-0.8023	5.6926
-2.9899	-0.5178	-3.5248	-3.906	-0.2276	-3.2147	-2.4978	1.798	-0.3556	-0.6828	4.3498	3.485	1.5903	-2.2019	1.4679	-0.4324	4.3754	0.0768	3.0781	-0.6657	5.7608
-3.0042	-0.5178	-3.5333	-3.8662	-0.2162	-3.2005	-2.4409	1.8378	-0.3215	-0.6145	4.4152	3.5788	1.7012	-2.1649	1.3598	-0.5604	4.2957	0.2077	3.0981	-0.5377	5.832
-3.0212	-0.5462	-3.5418	-3.8263	-0.1991	-3.1806	-2.3755	1.8662	-0.2788	-0.5235	4.4636	3.6244	1.7837	-2.1194	1.2347	-0.6856	4.2075	0.3186	3.1208	-0.4324	5.9031
-3.0639	-0.5775	-3.5561	-3.7808	-0.2219	-3.1578	-2.31	1.9117	-0.239	-0.4267	4.5375	3.6756	1.9117	-2.0739	1.1095	-0.7937	4.1137	0.4296	3.1237	-0.3044	5.9998
-3.0952	-0.5917	-3.5817	-3.7438	-0.2532	-3.1606	-2.256	1.9203	-0.2219	-0.3442	4.5944	3.7154	1.9886	-2.0312	1.0128	-0.862	4.0397	0.5348	3.135	-0.1792	6.0482
-3.1066	-0.6202	-3.6016	-3.6898	-0.2418	-3.1521	-2.2076	1.9516	-0.1935	-0.2589	4.6428	3.778	2.1137	-1.9971	0.9246	-0.9388	3.9686	0.6458	3.1464	-0.037	6.1136
-3.1493	-0.66	-3.6357	-3.6642	-0.2646	-3.1151	-2.1365	1.98	-0.1508	-0.165	4.7026	3.8605	2.219	-1.9601	0.8136	-0.9701	3.8775	0.7596	3.1521	0.0882	6.2189
-3.1663	-0.6885	-3.6528	-3.6073	-0.2674	-3.1066	-2.0597	2.0255	-0.1138	-0.0683	4.7395	3.8975	2.2986	-1.9203	0.7169	-0.9929	3.8206	0.8961	3.1549	0.2219	6.2758
-3.2062	-0.7112	-3.6642	-3.576	-0.276	-3.1037	-1.9942	2.0227	-0.0797	-0.0028	4.8107	3.9515	2.3897	-1.9004	0.6629	-0.9929	3.7723	0.9985	3.1578	0.3499	6.3469
-3.2118	-0.7539	-3.7069	-3.5248	-0.2902	-3.0981	-1.9544	2.0426	-0.0284	0.0797	4.859	4.0113	2.4608	-1.8748	0.5775	-0.99	3.7182	1.101	3.1692	0.458	6.4038
-3.2403	-0.7653	-3.7239	-3.4793	-0.2731	-3.0497	-1.8805	2.0625	0.0085	0.1764	4.8846	4.0482	2.5433	-1.8719	0.5263	-0.9502	3.6926	1.2261	3.1606	0.5547	6.4635
-3.2318	-0.7681	-3.7069	-3.4309	-0.2731	-3.0042	-1.7894	2.1194	0.0797	0.2589	4.9245	4.1194	2.6571	-1.8577	0.4865	-0.8819	3.6756	1.3143	3.1834	0.66	6.5062
-3.2574	-0.7937	-3.7211	-3.3626	-0.256	-2.953	-1.7354	2.1536	0.1479	0.3357	4.987	4.199	2.7282	-1.8463	0.4523	-0.8108	3.6727	1.4253	3.1862	0.771	6.5688
-3.2631	-0.8051	-3.7154	-3.3427	-0.2219	-2.9018	-1.65	2.1735	0.2247	0.4267	5.0269	4.2787	2.8306	-1.8292	0.4438	-0.7283	3.6585	1.5419	3.209	0.8819	6.6058
-3.2488	-0.8023	-3.6784	-3.2744	-0.202	-2.8477	-1.5789	2.2218	0.3158	0.5121	5.0582	4.3526	2.9131	-1.8378	0.4438	-0.6629	3.65	1.6358	3.2033	0.9673	6.6371
-3.246	-0.8079	-3.6955	-3.2346	-0.1849	-2.7937	-1.5049	2.256	0.4011	0.5889	5.0951	4.4266	3.0298	-1.8435	0.4637	-0.5917	3.65	1.7183	3.2118	1.0412	6.6911
-3.1891	-0.8079	-3.65	-3.1464	-0.1195	-2.6941	-1.4196	2.3186	0.5064	0.6885	5.1634	4.5319	3.118	-1.8292	0.4495	-0.4779	3.6329	1.8548	3.2374	1.1408	6.7423
-3.1862	-0.8279	-3.6187	-3.0895	-0.1337	-2.6201	-1.3627	2.3385	0.5747	0.7454	5.1748	4.5944	3.1919	-1.8378	0.4466	-0.421	3.6272	1.9288	3.2232	1.2204	6.7167
-3.1606	-0.8136	-3.5874	-3.0156	-0.0996	-2.5405	-1.2859	2.3726	0.6771	0.8449	5.1947	4.6741	3.2858	-1.8264	0.4495	-0.3613	3.613	2.0056	3.2175	1.2916	6.7309
-3.1293	-0.825	-3.5675	-2.953	-0.0853	-2.4636	-1.2204	2.4096	0.7539	0.9047	5.1947	4.7196	3.3683	-1.8179	0.441	-0.3357	3.6016	2.0967	3.1806	1.3542	6.7224
-3.118	-0.8193	-3.5362	-2.9103	-0.0768	-2.4153	-1.1692	2.3954	0.8136	0.9729	5.1947	4.7737	3.4281	-1.7951	0.4239	-0.293	3.5675	2.1678	3.1578	1.4054	6.7082
-3.0895	-0.7852	-3.485	-2.8363	-0.0626	-2.3129	-1.0725	2.4409	0.9303	1.0668	5.2203	4.859	3.5134	-1.7752	0.4267	-0.2617	3.5219	2.2816	3.1578	1.5163	6.7224
-3.0298	-0.751	-3.4053	-2.7567	0	-2.2048	-1.0128	2.4693	1.0355	1.1379	5.2289	4.9472	3.5987	-1.7581	0.441	-0.239	3.4878	2.347	3.118	1.5846	6.6911
-2.9985	-0.7681	-3.3882	-2.7112	-0.0085	-2.1393	-0.9388	2.4636	1.101	1.2176	5.2203	4.9842	3.6556	-1.7382	0.404	-0.2276	3.4451	2.4124	3.0639	1.6244	6.6399
-2.9587	-0.7283	-3.3143	-2.6315	0.0427	-2.0341	-0.8705	2.4893	1.1892	1.3001	5.2004	5.0326	3.7353	-1.7126	0.4068	-0.1906	3.3882	2.4921	3.0184	1.6842	6.5887
-2.916	-0.7368	-3.2318	-2.5575	0.0455	-1.9601	-0.8023	2.4949	1.266	1.357	5.1776	5.0895	3.7865	-1.6728	0.4239	-0.1735	3.3143	2.5348	2.9786	1.7411	6.5233
-2.8562	-0.6998	-3.1806	-2.4779	0.074	-1.8577	-0.7169	2.5063	1.3826	1.4253	5.1606	5.152	3.8406	-1.6386	0.4097	-0.1109	3.2517	2.5888	2.9274	1.7667	6.4493
-2.7737	-0.6714	-3.0924	-2.4039	0.0996	-1.7638	-0.6429	2.5092	1.4367	1.485	5.1207	5.1919	3.8918	-1.6216	0.4353	-0.0797	3.209	2.6002	2.8562	1.8093	6.3725
-2.6912	-0.6173	-2.9729	-2.3043	0.1536	-1.6273	-0.5547	2.5632	1.5561	1.5817	5.1094	5.2573	3.9373	-1.6073	0.4637	-0.0398	3.1777	2.6315	2.8022	1.8463	6.3184
-2.5746	-0.5917	-2.8619	-2.2019	0.202	-1.5163	-0.4637	2.5974	1.6614	1.6557	5.098	5.3227	3.9828	-1.6073	0.495	0.0057	3.1862	2.6429	2.7396	1.8748	6.2644
-2.5006	-0.532	-2.751	-2.108	0.2418	-1.3741	-0.367	2.6457	1.7752	1.7325	5.0951	5.3768	4.0198	-1.6187	0.5149	0.0142	3.1919	2.64	2.7026	1.8634	6.2046
-2.3811	-0.4836	-2.6201	-2.0028	0.3016	-1.2148	-0.2674	2.7083	1.8805	1.7951	5.0923	5.4422	4.0795	-1.6301	0.5462	0.0313	3.209	2.6457	2.6486	1.889	6.1421
-2.2844	-0.4324	-2.4636	-1.8861	0.3727	-1.0754	-0.1735	2.7424	2.0255	1.8748	5.0895	5.502	4.1307	-1.6329	0.5718	0.0768	3.2318	2.6514	2.6258	1.9231	6.0709
-2.1194	-0.3499	-2.3072	-1.7524	0.4637	-0.8933	-0.0484	2.8278	2.1621	1.9743	5.0923	5.5845	4.1734	-1.6329	0.5974	0.0996	3.2488	2.6315	2.5604	1.9544	6.0197
-1.9772	-0.239	-2.1024	-1.6045	0.5917	-0.7112	0.0683	2.9131	2.3356	2.091	5.172	5.7011	4.2417	-1.6386	0.6742	0.1536	3.2488	2.6571	2.549	1.9658	6.0027
-1.8008	-0.1451	-1.8748	-1.4395	0.697	-0.4979	0.2105	3.0383	2.5006	2.2218	5.2203	5.8092	4.327	-1.6329	0.7397	0.2105	3.2431	2.6884	2.5234	2.0028	5.9827
-1.6244	-0.0114	-1.6443	-1.2347	0.8421	-0.2532	0.404	3.1663	2.7112	2.3726	5.3085	5.9628	4.4209	-1.6301	0.8193	0.2703	3.2374	2.7538	2.5291	2.0853	5.9941
-1.4281	0.1337	-1.4054	-1.0355	0.9985	-0.0199	0.569	3.3143	2.9473	2.5006	5.3853	6.1193	4.5375	-1.6415	0.9018	0.3101	3.246	2.7993	2.5205	2.1564	5.9657
-1.2119	0.2987	-1.1351	-0.8136	1.1579	0.2475	0.7681	3.448	3.1578	2.6543	5.4593	6.2814	4.657	-1.6159	0.9985	0.3499	3.2175	2.8477	2.5177	2.2105	5.9799
-1.0128	0.4637	-0.8506	-0.5832	1.3314	0.5064	0.99	3.6044	3.3882	2.8505	5.5702	6.4521	4.7851	-1.6159	1.0697	0.3897	3.2033	2.9217	2.5234	2.293	5.9628
-0.7966	0.6202	-0.5974	-0.3528	1.5049	0.7738	1.1607	3.7581	3.6215	2.9985	5.6584	6.6143	4.8932	-1.596	1.1323	0.4182	3.1806	2.9871	2.5092	2.3584	5.9543
-0.6202	0.7909	-0.3442	-0.1422	1.6386	1.0241	1.357	3.8975	3.8434	3.1493	5.7551	6.7736	5.0155	-1.5789	1.192	0.3983	3.1521	3.0497	2.4921	2.4238	5.9486
-0.4239	0.9502	-0.0654	0.0654	1.798	1.2688	1.5391	4.0283	4.0824	3.3171	5.812	6.95	5.1321	-1.559	1.2261	0.3926	3.1009	3.1066	2.4693	2.5006	5.9401
-0.2503	1.0668	0.1394	0.2902	1.9288	1.5021	1.6898	4.1336	4.2758	3.4537	5.8746	7.0752	5.2089	-1.5448	1.2489	0.3471	3.0668	3.1663	2.4039	2.5547	5.9002
-0.1109	1.2148	0.367	0.4694	2.0682	1.7411	1.8634	4.2246	4.492	3.5788	5.9401	7.2117	5.317	-1.522	1.2717	0.33	3.0184	3.2204	2.3555	2.6201	5.8576
0.0711	1.3542	0.5804	0.6543	2.2019	1.9686	2.0255	4.3469	4.7111	3.6955	5.9856	7.3511	5.4081	-1.5021	1.2717	0.3357	2.9672	3.2744	2.3015	2.6884	5.8092
0.2276	1.4793	0.8079	0.8279	2.3385	2.1678	2.1678	4.4437	4.8903	3.8007	6.014	7.4422	5.4764	-1.4907	1.2745	0.33	2.9416	3.3143	2.2361	2.6827	5.7495
0.367	1.6073	0.9872	0.9872	2.4665	2.3868	2.2901	4.5546	5.0809	3.9088	6.0709	7.5787	5.5731	-1.4679	1.2347	0.33	2.9046	3.3683	2.1763	2.7396	5.7039
0.5263	1.7496	1.2005	1.155	2.5803	2.6059	2.458	4.6513	5.2715	4.0369	6.1278	7.7295	5.6584	-1.448	1.2375	0.3385	2.8562	3.4451	2.145	2.7993	5.6698
0.6685	1.9061	1.394	1.3058	2.714	2.8107	2.5888	4.7538	5.4536	4.1364	6.1762	7.8518	5.7779	-1.4054	1.1977	0.3698	2.8022	3.5333	2.108	2.842	5.6243
0.8165	2.0312	1.596	1.4452	2.842	3.0156	2.7396	4.859	5.6442	4.2644	6.2274	7.9713	5.8633	-1.3769	1.1465	0.4068	2.7396	3.6044	2.0654	2.8762	5.5816
0.9388	2.1877	1.798	1.596	2.9814	3.1749	2.8562	4.9757	5.8405	4.3868	6.2786	8.1107	5.9742	-1.3399	1.0981	0.4324	2.6599	3.7012	2.017	2.9103	5.5361
1.0498	2.2958	1.9573	1.7126	3.1123	3.3911	2.9416	5.0638	6.0027	4.4892	6.3383	8.2359	6.0595	-1.3058	1.0384	0.4438	2.586	3.8007	1.963	2.953	5.4991
1.155	2.3868	2.1137	1.8179	3.2204	3.5788	3.0696	5.1435	6.1876	4.5831	6.3981	8.344	6.1335	-1.246	0.9985	0.4779	2.4807	3.8576	1.9231	2.9843	5.4536
1.2233	2.4978	2.2674	1.9231	3.3285	3.7552	3.1777	5.2374	6.3355	4.6684	6.4436	8.4606	6.2217	-1.2034	0.9445	0.4836	2.3783	3.9344	1.8691	3.0383	5.3939
1.3115	2.5888	2.4238	2.0142	3.4224	3.943	3.283	5.3142	6.492	4.7651	6.4721	8.5886	6.3213	-1.1522	0.8961	0.495	2.2844	4.0113	1.8349	3.0753	5.3256
1.3712	2.6912	2.5689	2.0853	3.5447	4.0966	3.3712	5.3967	6.6427	4.859	6.5176	8.6683	6.381	-1.1123	0.825	0.4637	2.1905	4.0653	1.7667	3.0724	5.2886
1.4623	2.7737	2.7197	2.1763	3.6528	4.2673	3.4878	5.482	6.8021	4.9557	6.5546	8.7735	6.4607	-1.0725	0.7624	0.4466	2.1137	4.1194	1.7411	3.0781	5.2459
1.5192	2.8591	2.8619	2.2503	3.7552	4.4408	3.5646	5.5532	6.9272	5.0183	6.5802	8.8589	6.4948	-1.0469	0.7055	0.4353	2.0682	4.162	1.6756	3.081	5.1947
1.596	2.9587	3.007	2.3442	3.869	4.6087	3.667	5.6641	7.0922	5.0951	6.6399	8.9755	6.5688	-1.0298	0.6685	0.4068	2.0369	4.1933	1.6699	3.0867	5.189
1.6699	3.0554	3.1606	2.4096	3.98	4.7907	3.7637	5.7324	7.2288	5.1776	6.6911	9.0523	6.6143	-1.0241	0.6202	0.4011	2.0255	4.2019	1.6415	3.0838	5.1577
1.7411	3.1464	3.2972	2.4893	4.0824	4.9557	3.8775	5.8007	7.3625	5.2459	6.7423	9.1491	6.6712	-1.0156	0.5718	0.3983	2.0198	4.2303	1.6159	3.0838	5.1378
1.8122	3.2346	3.4081	2.5718	4.1848	5.1236	3.9714	5.923	7.4905	5.3284	6.8021	9.2287	6.7139	-1.0185	0.5291	0.3897	2.0255	4.2417	1.5931	3.0724	5.098
1.8463	3.2887	3.5248	2.6514	4.2616	5.2516	4.0795	5.9998	7.6271	5.3939	6.8646	9.3198	6.7736	-1.0213	0.4666	0.3442	2.0312	4.236	1.5561	3.0582	5.0781
1.8947	3.3285	3.63	2.6998	4.3583	5.3711	4.1364	6.0709	7.7323	5.4593	6.9159	9.3909	6.8077	-1.0355	0.4324	0.2959	2.0597	4.2388	1.522	3.0326	5.0553
1.9317	3.3712	3.7182	2.7595	4.4095	5.5133	4.2132	6.1335	7.866	5.5333	6.9955	9.4734	6.8504	-1.0441	0.367	0.256	2.0711	4.2531	1.5192	3.0241	5.0468
1.9402	3.3911	3.7694	2.7851	4.4465	5.5901	4.273	6.1677	7.9258	5.5674	7.0296	9.5189	6.9045	-1.0441	0.2731	0.1678	2.0881	4.2417	1.4736	2.9956	5.0354
1.9459	3.3768	3.8292	2.8136	4.475	5.6584	4.3014	6.2246	8.0054	5.6214	7.0695	9.573	6.9471	-1.064	0.2077	0.1109	2.1109	4.2417	1.431	2.9786	5.0326
1.8833	3.3057	3.8093	2.7993	4.4522	5.7039	4.2986	6.2246	8.0197	5.6442	7.0723	9.6042	6.9841	-1.0782	0.0939	0	2.1422	4.2388	1.3854	2.9274	4.9785
1.8349	3.2346	3.7808	2.7823	4.438	5.7295	4.3071	6.2018	8.0339	5.667	7.0723	9.6156	7.0126	-1.0924	-0.0085	-0.0996	2.1678	4.2388	1.3342	2.9188	4.9614
1.7553	3.1493	3.7182	2.7453	4.364	5.6954	4.3043	6.1989	8.0282	5.6641	7.0894	9.6185	7.0524	-1.1067	-0.1081	-0.2191	2.1991	4.2588	1.2688	2.8875	4.9273
1.6529	3.0326	3.6471	2.6998	4.2872	5.6527	4.2701	6.1477	8.0111	5.6869	7.078	9.6355	7.0951	-1.1067	-0.239	-0.3328	2.2247	4.2929	1.2119	2.8648	4.8903
1.5362	2.9018	3.5589	2.6258	4.1962	5.5987	4.2417	6.0994	7.9628	5.7068	7.078	9.6355	7.1406	-1.1209	-0.3983	-0.5007	2.2474	4.3469	1.1436	2.8534	4.8875
1.3798	2.7339	3.4281	2.5348	4.0852	5.5219	4.1819	6.0425	7.9315	5.7011	7.0752	9.6327	7.1861	-1.1436	-0.5491	-0.6572	2.2759	4.401	1.0953	2.8278	4.8619
1.229	2.5689	3.2801	2.4267	3.9572	5.4081	4.1051	5.9628	7.8547	5.6897	7.0382	9.6071	7.2316	-1.1607	-0.6771	-0.8023	2.31	4.4494	1.0128	2.8164	4.8391
1.0526	2.4039	3.0895	2.3385	3.8121	5.2744	4.0169	5.8775	7.775	5.6897	7.0154	9.5786	7.2715	-1.1749	-0.8193	-0.9616	2.3328	4.529	0.936	2.8022	4.7993
0.8791	2.2133	2.9018	2.1934	3.6699	5.1549	3.9288	5.7779	7.7124	5.684	6.9984	9.5559	7.3141	-1.1892	-0.9559	-1.1351	2.3527	4.5888	0.8591	2.7794	4.7794
0.6913	1.9971	2.7026	2.0767	3.4906	5.0326	3.8349	5.684	7.6072	5.6556	6.9727	9.536	7.3682	-1.1892	-1.081	-1.3001	2.3669	4.6627	0.7738	2.7567	4.7651
0.4893	1.8036	2.512	1.9288	3.3598	4.9102	3.7694	5.6101	7.5417	5.6726	6.9784	9.5303	7.4478	-1.2005	-1.2091	-1.4537	2.3612	4.7367	0.734	2.7538	4.7623
0.3186	1.6216	2.3328	1.815	3.2118	4.7851	3.6613	5.5333	7.4905	5.6499	6.9557	9.5303	7.5218	-1.1892	-1.32	-1.5874	2.3385	4.8107	0.6771	2.7481	4.7367
0.1138	1.4338	2.1422	1.6898	3.0668	4.6912	3.6101	5.4593	7.4137	5.6613	6.9585	9.5217	7.6015	-1.1721	-1.4623	-1.761	2.3299	4.9045	0.6031	2.7538	4.7538
-0.074	1.2546	1.9288	1.5561	2.9274	4.5489	3.5191	5.3939	7.3284	5.6755	6.9614	9.5104	7.6726	-1.1806	-1.5931	-1.9658	2.3157	4.9586	0.5434	2.7282	4.7509
-0.2475	1.0583	1.7524	1.4594	2.788	4.4494	3.465	5.354	7.2828	5.6869	6.9671	9.5388	7.7466	-1.1379	-1.7496	-2.1735	2.2645	5.0638	0.5121	2.7396	4.7851
-0.4296	0.8648	1.5732	1.3257	2.6543	4.327	3.3996	5.2943	7.2231	5.6783	6.9813	9.5417	7.8404	-1.1436	-1.8947	-2.3783	2.2446	5.1065	0.4808	2.7225	4.8078
-0.6202	0.6885	1.3542	1.2091	2.5291	4.2104	3.3285	5.2431	7.1406	5.6783	7.004	9.5445	7.8973	-1.1266	-2.0682	-2.6258	2.2275	5.1862	0.4523	2.7026	4.8391
-0.8307	0.495	1.1863	1.0754	2.3897	4.1279	3.2602	5.1947	7.1065	5.6812	6.9898	9.5246	7.9485	-1.1123	-2.2531	-2.8705	2.2105	5.2516	0.4324	2.6884	4.8732
-1.0355	0.33	1.0071	0.9872	2.2787	4.0169	3.2033	5.172	7.0609	5.6783	7.0353	9.5559	8.031	-1.0924	-2.4153	-3.1151	2.1792	5.3341	0.4296	2.7026	4.8988
-1.2261	0.1678	0.8535	0.8563	2.1649	3.906	3.1322	5.1264	7.0154	5.6926	7.0154	9.5303	8.0737	-1.101	-2.6087	-3.3683	2.1763	5.3853	0.421	2.6998	4.9301
-1.4167	-0.0057	0.6629	0.7539	2.0597	3.8263	3.0554	5.0838	6.9557	5.684	7.0296	9.5047	8.0965	-1.0981	-2.8022	-3.6187	2.1735	5.4223	0.421	2.6685	4.9643
-1.6159	-0.165	0.4922	0.6259	1.9516	3.7552	2.97	5.024	6.8959	5.6414	7.0154	9.4876	8.1164	-1.1038	-2.9956	-3.8462	2.1792	5.4536	0.3954	2.6599	4.9501
-1.778	-0.2873	0.3556	0.532	1.8605	3.6926	2.9274	5.0326	6.859	5.6414	7.041	9.4791	8.1647	-1.0867	-3.2147	-4.0795	2.1763	5.5333	0.4068	2.6685	4.9927
-1.9686	-0.3954	0.2361	0.404	1.7923	3.6158	2.8562	4.9813	6.8163	5.6158	7.0496	9.4677	8.1847	-1.0924	-3.4309	-4.2445	2.1934	5.5731	0.404	2.6571	5.0041
-2.1052	-0.4694	0.1024	0.3129	1.7553	3.5731	2.8022	4.9671	6.785	5.6158	7.0439	9.4506	8.2103	-1.1123	-3.6101	-4.3953	2.2218	5.5873	0.4495	2.6457	5.0183
-2.256	-0.5576	0.0341	0.2333	1.7325	3.5532	2.7737	4.987	6.8049	5.6385	7.0894	9.4876	8.2387	-1.1436	-3.7581	-4.5119	2.256	5.647	0.5121	2.6628	5.0866
-2.3413	-0.5633	-0.0256	0.1536	1.7467	3.5561	2.7339	5.0496	6.8191	5.6556	7.152	9.5303	8.2785	-1.1664	-3.9145	-4.6087	2.2986	5.6584	0.5462	2.6656	5.1463
-2.3954	-0.5747	-0.037	0.1195	1.7951	3.5788	2.7311	5.1037	6.8561	5.6897	7.2373	9.5559	8.3326	-1.192	-4.0482	-4.64	2.3442	5.7153	0.6116	2.6599	5.2118
-2.4295	-0.5405	-0.037	0.0711	1.8492	3.6272	2.7225	5.2061	6.9272	5.7182	7.3198	9.6099	8.3781	-1.2091	-4.1535	-4.6485	2.3868	5.7438	0.7112	2.6685	5.3
-2.438	-0.4808	-0.0114	0.0541	1.9373	3.6898	2.7112	5.2914	7.0126	5.7495	7.4194	9.6725	8.4151	-1.2347	-4.2332	-4.6087	2.4494	5.758	0.8165	2.6713	5.391
-2.384	-0.3954	0.074	0.0654	2.0796	3.7979	2.7937	5.4337	7.115	5.7921	7.5531	9.7692	8.4663	-1.2603	-4.3014	-4.5575	2.4893	5.7864	0.9388	2.677	5.519
-2.3271	-0.256	0.1935	0.1109	2.2161	3.9145	2.8249	5.5958	7.2487	5.8576	7.7067	9.8859	8.5317	-1.2973	-4.3071	-4.475	2.5632	5.8064	1.0754	2.6969	5.6499
-2.2076	-0.1138	0.3072	0.1451	2.3925	4.0568	2.8762	5.7466	7.3881	5.9344	7.8916	10.0367	8.6142	-1.3342	-4.3213	-4.4095	2.6343	5.7836	1.2261	2.7055	5.795
-2.1166	0.0427	0.4865	0.2333	2.6002	4.2275	2.9587	5.9486	7.5759	6.0283	8.0993	10.1931	8.7081	-1.3741	-4.3384	-4.2957	2.7197	5.7921	1.3826	2.7282	5.9514
-1.98	0.2304	0.6401	0.2674	2.7965	4.3725	3.0156	6.1335	7.7238	6.0738	8.2529	10.3411	8.7536	-1.4367	-4.3242	-4.1933	2.842	5.7694	1.5419	2.7339	6.0766
-1.8179	0.4296	0.8193	0.3613	3.0156	4.5745	3.1094	6.3469	7.9144	6.2103	8.472	10.5174	8.8361	-1.4822	-4.3071	-4.0625	2.9359	5.7722	1.7268	2.7453	6.2701
-1.6358	0.6486	1.0355	0.4666	3.2574	4.7737	3.2147	6.5346	8.1249	6.2957	8.674	10.6938	8.9101	-1.5476	-4.2701	-3.9487	3.0383	5.7438	1.9061	2.7624	6.418
-1.4452	0.8449	1.2688	0.5775	3.4793	4.9757	3.3114	6.7252	8.2928	6.3839	8.876	10.8674	8.9727	-1.5789	-4.2075	-3.7808	3.135	5.7182	2.0625	2.7766	6.5574
-1.2688	1.0611	1.4879	0.7055	3.7239	5.2061	3.4366	6.9471	8.5004	6.5033	9.0922	11.0693	9.058	-1.6301	-4.1307	-3.6414	3.2175	5.6869	2.2446	2.7823	6.7224
-1.0498	1.2717	1.7211	0.8535	3.9487	5.4251	3.5561	7.1634	8.7252	6.6058	9.2657	11.2372	9.1035	-1.6756	-4.0625	-3.5162	3.3171	5.6214	2.4011	2.7993	6.8533
-0.8819	1.4879	1.9573	0.9957	4.1734	5.6527	3.667	7.3739	8.9414	6.6826	9.4506	11.4164	9.169	-1.7154	-3.9544	-3.3882	3.3911	5.5816	2.5774	2.7937	6.9955
-0.6543	1.6955	2.2133	1.1209	4.3896	5.8405	3.778	7.5588	9.1462	6.7793	9.6412	11.59	9.2003	-1.7496	-3.8804	-3.283	3.4736	5.4906	2.7168	2.7766	7.0979
-0.4353	1.9146	2.4608	1.2688	4.6229	6.0965	3.8889	7.7437	9.3425	6.876	9.8148	11.7635	9.2429	-1.7837	-3.7694	-3.1606	3.5248	5.4195	2.8733	2.768	7.2032
-0.2276	2.0995	2.6941	1.4025	4.8192	6.327	3.9828	7.9286	9.5417	6.9358	9.9911	11.9256	9.2742	-1.8207	-3.6585	-3.0781	3.5959	5.3142	3.007	2.7282	7.3056
-0.0228	2.3271	2.953	1.5504	5.0354	6.5432	4.0824	8.1249	9.7266	7.0069	10.1192	12.0679	9.2998	-1.8577	-3.5618	-2.9729	3.6756	5.1862	3.1237	2.6912	7.3796
0.1821	2.5319	3.1948	1.6813	5.2431	6.7423	4.1819	8.2985	9.9314	7.0524	10.2699	12.2244	9.3112	-1.8975	-3.4736	-2.8875	3.7552	5.0695	3.2574	2.6258	7.4763
0.3784	2.6799	3.4281	1.7923	5.3995	6.9358	4.2303	8.4407	10.0623	7.0922	10.4036	12.3353	9.3027	-1.943	-3.3569	-2.8193	3.8491	4.9102	3.3768	2.5461	7.5503
0.5576	2.8306	3.6414	1.8634	5.5589	7.1207	4.2844	8.5801	10.2017	7.1008	10.526	12.4235	9.2543	-1.9971	-3.2431	-2.7453	3.9487	4.7338	3.4963	2.4608	7.6328
0.7795	3.0127	3.8519	1.9886	5.7523	7.3028	4.3555	8.7366	10.3581	7.1491	10.6312	12.5401	9.2429	-2.0483	-3.1237	-2.7055	4.0425	4.6001	3.6329	2.384	7.7209
0.9786	3.1777	4.0653	2.0796	5.8974	7.4535	4.3868	8.8845	10.5004	7.1577	10.7365	12.6113	9.2088	-2.091	-2.9843	-2.6286	4.145	4.3982	3.7524	2.2759	7.7778
1.1749	3.3313	4.2246	2.1706	6.0624	7.5958	4.4266	9.0125	10.5886	7.1577	10.8247	12.7051	9.1604	-2.1564	-2.8676	-2.5461	4.273	4.2388	3.8804	2.1877	7.849
1.3314	3.4821	4.4124	2.2304	6.2046	7.7295	4.4664	9.1462	10.7166	7.1548	10.9356	12.7905	9.1121	-2.2076	-2.7026	-2.4523	4.3725	4.0681	4.0255	2.0881	7.9457
1.4936	3.5959	4.5973	2.3129	6.3184	7.8347	4.5034	9.2629	10.7792	7.1491	11.0039	12.8047	9.0467	-2.2759	-2.5661	-2.3954	4.5233	3.9031	4.1364	1.9573	8.0282
1.6586	3.7125	4.7481	2.3811	6.4208	7.9514	4.5375	9.3823	10.8873	7.1463	11.0637	12.873	8.9727	-2.3527	-2.3897	-2.293	4.6627	3.7182	4.2844	1.8492	8.1107
1.7837	3.8178	4.8647	2.4324	6.5375	8.0339	4.5262	9.4677	10.9356	7.1178	11.1206	12.8901	8.8873	-2.4324	-2.2133	-2.145	4.8277	3.539	4.3868	1.7439	8.1847
1.9004	3.9231	5.007	2.4722	6.6228	8.1192	4.5575	9.5758	11.0238	7.0979	11.1888	12.8986	8.7991	-2.5149	-2.0881	-2.0682	4.9956	3.3683	4.5034	1.6415	8.2586
2.0426	4.034	5.0838	2.5006	6.7224	8.1903	4.5688	9.6469	11.0551	7.0752	11.2258	12.9213	8.7195	-2.6087	-1.9402	-1.9317	5.1691	3.1976	4.6172	1.5192	8.3468
2.1109	4.0767	5.1549	2.5461	6.7935	8.2387	4.5802	9.7436	11.0807	7.024	11.2941	12.9157	8.6057	-2.6685	-1.8179	-1.8378	5.317	3.0241	4.7395	1.4082	8.4208
2.1962	4.1506	5.2175	2.5547	6.9016	8.2643	4.5632	9.8091	11.0836	6.9841	11.3112	12.9071	8.4947	-2.7624	-1.7154	-1.7069	5.4735	2.8505	4.8391	1.3029	8.4891
2.2816	4.2388	5.2943	2.5746	6.9756	8.3184	4.5461	9.8973	11.1319	6.95	11.3794	12.9185	8.4208	-2.8392	-1.5789	-1.5931	5.6186	2.6941	4.9728	1.2091	8.5744
2.3214	4.3014	5.3426	2.603	7.0467	8.3497	4.5461	9.9769	11.1632	6.9159	11.3851	12.8986	8.3155	-2.9074	-1.448	-1.4964	5.7608	2.5177	5.0496	1.1038	8.6285
2.4039	4.3811	5.3825	2.5888	7.1434	8.3667	4.5603	10.031	11.2059	6.8646	11.425	12.8673	8.2017	-2.9814	-1.3655	-1.3883	5.9202	2.3669	5.172	1.0071	8.6996
2.4494	4.4408	5.4251	2.6201	7.2288	8.4122	4.5518	10.1106	11.2457	6.8419	11.4733	12.8758	8.1164	-3.0525	-1.2773	-1.32	6.0539	2.2019	5.2886	0.9132	8.7764
2.4978	4.5205	5.4764	2.603	7.2914	8.4549	4.5461	10.1675	11.2941	6.785	11.5103	12.8474	8.0111	-3.1066	-1.1635	-1.2091	6.1904	2.0483	5.3853	0.8364	8.8304
2.5433	4.5831	5.5133	2.6116	7.3853	8.5147	4.5688	10.25	11.3396	6.7509	11.5558	12.8531	7.9428	-3.1749	-1.0554	-1.1351	6.2928	1.8947	5.5162	0.7539	8.9016
2.6002	4.6713	5.5361	2.6002	7.4621	8.5516	4.5802	10.324	11.388	6.7139	11.5928	12.8758	7.8547	-3.2289	-0.9786	-1.1038	6.4066	1.7638	5.6015	0.6657	8.9471
2.6286	4.7168	5.5389	2.6087	7.5275	8.5943	4.5688	10.3809	11.442	6.7025	11.6326	12.8701	7.7579	-3.3	-0.9189	-1.0185	6.5147	1.6102	5.7011	0.586	9.0011
2.677	4.7794	5.5617	2.6173	7.6242	8.674	4.603	10.4577	11.4932	6.694	11.6725	12.8872	7.6726	-3.3399	-0.8335	-0.9701	6.6115	1.4822	5.795	0.5064	9.0552
2.6713	4.8249	5.593	2.603	7.6641	8.7024	4.6058	10.5118	11.5387	6.6797	11.6981	12.8673	7.5901	-3.3825	-0.7937	-0.936	6.7025	1.357	5.9059	0.4495	9.1121
2.6912	4.8789	5.6044	2.6002	7.7466	8.7764	4.6286	10.5829	11.6099	6.6399	11.735	12.8787	7.4962	-3.4224	-0.7596	-0.9502	6.7793	1.2062	5.9657	0.3841	9.1292
2.6941	4.9131	5.6015	2.5718	7.7921	8.802	4.6286	10.6227	11.6582	6.6257	11.7635	12.8787	7.408	-3.4679	-0.7368	-0.9701	6.876	1.081	6.0396	0.3243	9.169
2.6941	4.9728	5.63	2.5774	7.8717	8.8504	4.6371	10.691	11.7094	6.6086	11.7919	12.8758	7.3141	-3.5077	-0.7027	-0.9957	6.9471	0.9729	6.1193	0.256	9.1974
2.7197	5.0411	5.6613	2.5689	7.9457	8.9158	4.6513	10.7564	11.7635	6.6058	11.8147	12.8844	7.243	-3.5362	-0.6742	-0.9957	7.0211	0.8648	6.1904	0.2219	9.223
2.7282	5.1207	5.6954	2.5718	8.0453	8.9869	4.6883	10.8332	11.8488	6.6257	11.8403	12.9157	7.1747	-3.5703	-0.5974	-0.9644	7.0837	0.7454	6.2615	0.1849	9.2458
2.768	5.2004	5.7409	2.623	8.1192	9.0836	4.7111	10.9186	11.9171	6.6427	11.8773	12.9299	7.1093	-3.6016	-0.5547	-0.9416	7.1434	0.6173	6.3213	0.1366	9.2657
2.8107	5.2658	5.7779	2.6315	8.2273	9.1775	4.7452	10.9868	11.9939	6.6513	11.9	12.9384	7.0382	-3.6244	-0.5092	-0.9104	7.1946	0.5149	6.4009	0.0996	9.2572
2.8363	5.3739	5.8263	2.6543	8.3155	9.2657	4.768	11.0466	12.0736	6.6513	11.9228	12.9583	6.9756	-3.6642	-0.441	-0.8933	7.2544	0.3983	6.4721	0.037	9.2543
2.9018	5.4337	5.9088	2.7026	8.3838	9.3653	4.7964	11.1376	12.1475	6.657	11.9598	12.9896	6.9102	-3.6869	-0.3784	-0.8734	7.317	0.2703	6.5318	0.0028	9.2202
2.9814	5.5446	5.9685	2.7311	8.4805	9.4762	4.859	11.2002	12.2386	6.7025	11.9569	13.0209	6.8675	-3.7239	-0.2646	-0.8193	7.3938	0.1764	6.6029	-0.0256	9.2117
3.0497	5.6414	6.0595	2.7993	8.5972	9.6099	4.9131	11.2969	12.3438	6.7082	11.9968	13.0579	6.8419	-3.7552	-0.1735	-0.7852	7.4507	0.0427	6.6712	-0.0797	9.186
3.1749	5.7864	6.1904	2.9131	8.7366	9.7436	5.0041	11.405	12.4662	6.7736	12.0394	13.1176	6.839	-3.7751	-0.0597	-0.7454	7.4934	-0.0427	6.7395	-0.0939	9.1832
3.3086	5.9258	6.2985	3.0013	8.8788	9.883	5.098	11.5245	12.5999	6.8163	12.0679	13.1859	6.8163	-3.8121	0.0626	-0.6998	7.5503	-0.1366	6.8305	-0.1337	9.1889
3.4508	6.0595	6.4408	3.1009	9.0011	10.0822	5.1919	11.6469	12.7421	6.8959	12.1333	13.2627	6.8277	-3.8406	0.165	-0.6828	7.61	-0.2219	6.8874	-0.165	9.169
3.6244	6.2274	6.62	3.2318	9.2003	10.2813	5.2772	11.7834	12.8986	6.9927	12.2073	13.368	6.8675	-3.8605	0.2959	-0.5889	7.6527	-0.2788	6.9841	-0.1479	9.1718
3.7751	6.4095	6.8077	3.4053	9.3454	10.4605	5.4109	11.9313	13.0835	7.0894	12.3012	13.5017	6.8902	-3.8747	0.4068	-0.5377	7.7067	-0.3215	7.0666	-0.1309	9.1604
3.9828	6.6143	7.0154	3.5703	9.5616	10.7194	5.5816	12.0878	13.2798	7.2345	12.432	13.6582	6.9813	-3.9259	0.5178	-0.4779	7.775	-0.3328	7.1719	-0.0939	9.2003
4.2019	6.8248	7.2373	3.7723	9.755	10.9726	5.7694	12.2955	13.533	7.4052	12.5714	13.8146	7.0865	-3.9401	0.66	-0.367	7.8319	-0.33	7.2828	-0.0341	9.2458
4.4209	7.0581	7.499	4.0198	10.0196	11.2514	5.9372	12.5202	13.7634	7.5673	12.7222	14.0195	7.2032	-3.98	0.7937	-0.2418	7.9059	-0.3072	7.4137	0.0398	9.3027
4.657	7.2715	7.7352	4.2388	10.2443	11.5387	6.1762	12.7307	14.0166	7.7437	12.8787	14.2271	7.3397	-4.0312	0.9246	-0.1024	8.0026	-0.276	7.5303	0.1166	9.3795
4.933	7.5446	8.014	4.5006	10.4833	11.8346	6.4208	12.9526	14.2983	7.9628	13.0437	14.469	7.5104	-4.0681	1.064	0.0341	8.0908	-0.2219	7.6783	0.2134	9.4535
5.152	7.7864	8.2643	4.7623	10.7308	12.1219	6.6513	13.166	14.5714	8.1647	13.2314	14.688	7.6527	-4.1165	1.2233	0.1678	8.1875	-0.1565	7.7892	0.293	9.5303
5.4138	8.0424	8.5573	5.0382	11.0011	12.4519	6.8732	13.4021	14.8672	8.3866	13.4078	14.9213	7.8148	-4.1706	1.3684	0.3585	8.27	-0.0996	7.9116	0.404	9.59
5.6556	8.2672	8.8048	5.3028	11.2429	12.7563	7.1264	13.6183	15.1432	8.5829	13.5842	15.1603	7.9798	-4.2047	1.5334	0.5576	8.3383	-0.0313	8.0083	0.4836	9.6412
5.886	8.509	9.0808	5.5731	11.479	13.0494	7.3597	13.8516	15.4277	8.8105	13.7805	15.4021	8.1591	-4.2332	1.6785	0.734	8.3866	0.0313	8.105	0.5889	9.7266
6.1449	8.728	9.3596	5.8547	11.718	13.3879	7.6072	14.065	15.7036	9.0154	13.937	15.6183	8.3411	-4.2588	1.8548	0.9673	8.4464	0.1166	8.1847	0.7141	9.7749
6.3725	8.9528	9.6014	6.1364	11.9456	13.6752	7.8689	14.2556	15.9739	9.2429	14.0934	15.843	8.5317	-4.2673	2.0142	1.1749	8.4777	0.1991	8.2757	0.8108	9.8489
6.6171	9.1718	9.8688	6.418	12.1675	13.9626	8.142	14.4348	16.2328	9.499	14.2471	16.0422	8.7195	-4.2929	2.1592	1.394	8.5289	0.3044	8.3354	0.936	9.9257
6.8874	9.4023	10.1448	6.7139	12.3922	14.2385	8.4122	14.6425	16.4945	9.7123	14.4291	16.2555	8.9186	-4.3071	2.3072	1.6358	8.5602	0.4125	8.4208	1.0697	9.9997
7.1292	9.6441	10.4236	7.0183	12.617	14.5486	8.711	14.8473	16.7562	10.0054	14.5827	16.5229	9.1576	-4.3242	2.4409	1.8463	8.5716	0.532	8.4976	1.2261	10.0537
7.3682	9.8432	10.6938	7.3284	12.8104	14.8103	8.9784	15.0066	16.9781	10.2301	14.725	16.7221	9.3681	-4.3128	2.5974	2.0398	8.5516	0.6998	8.5516	1.3883	10.1163
7.6242	10.0367	10.9669	7.6271	13.0124	15.0863	9.2742	15.2086	17.2541	10.5146	14.8729	16.9383	9.6099	-4.2815	2.7168	2.2361	8.5033	0.8791	8.6085	1.5504	10.1818
7.849	10.2187	11.2258	7.9485	13.2001	15.3509	9.5701	15.3736	17.4873	10.7706	15.0152	17.1261	9.8404	-4.2502	2.8335	2.4068	8.435	1.0469	8.6398	1.7268	10.2586
8.0851	10.4093	11.4705	8.2302	13.3651	15.6012	9.8546	15.5159	17.7121	11.021	15.1375	17.311	10.0651	-4.2019	2.9786	2.5661	8.3411	1.2148	8.6768	1.9117	10.3012
8.3269	10.5943	11.7294	8.5374	13.5358	15.8544	10.1135	15.6581	17.934	11.3055	15.2627	17.4817	10.2899	-4.1649	3.0924	2.7254	8.2387	1.4025	8.7024	2.1109	10.3382
8.5374	10.7422	11.9256	8.8077	13.6639	16.0564	10.4065	15.7406	18.1388	11.5501	15.3395	17.6495	10.5374	-4.0909	3.209	2.9046	8.0993	1.5931	8.7166	2.3186	10.3752
8.7195	10.9043	12.1532	9.1035	13.8089	16.2726	10.6768	15.8601	18.3152	11.8033	15.4163	17.806	10.728	-4.0226	3.3086	3.0298	7.9656	1.7837	8.7223	2.4978	10.3724
8.9385	11.0124	12.3552	9.3482	13.9341	16.449	10.9271	15.9284	18.4973	12.0423	15.4959	17.9539	10.9186	-3.9373	3.3882	3.1692	7.8006	1.9573	8.7053	2.6713	10.3809
9.1121	11.1348	12.5686	9.6071	14.0308	16.6623	11.1775	16.0109	18.6993	12.2784	15.5528	18.0734	11.1149	-3.8576	3.4764	3.2972	7.6384	2.1365	8.6967	2.8392	10.378
9.2742	11.26	12.7763	9.8631	14.1276	16.8444	11.442	16.082	18.8643	12.5117	15.624	18.2099	11.3112	-3.7666	3.5504	3.4138	7.4564	2.2958	8.691	3.0326	10.378
9.4307	11.3595	12.9327	10.0651	14.2129	17.0009	11.6668	16.1332	19.0406	12.7279	15.6439	18.3209	11.4961	-3.6699	3.6187	3.539	7.28	2.4836	8.637	3.2062	10.3553
9.6014	11.4875	13.1376	10.3012	14.3182	17.2171	11.9285	16.2072	19.2227	12.9583	15.6894	18.4546	11.7037	-3.5902	3.7325	3.6386	7.1008	2.6315	8.6341	3.3683	10.3524
9.7636	11.6013	13.3054	10.5174	14.4064	17.3565	12.1703	16.2612	19.3763	13.1973	15.7406	18.5769	11.8944	-3.4878	3.8377	3.7637	6.9159	2.8079	8.6313	3.5618	10.3325
9.8774	11.6952	13.442	10.6995	14.486	17.513	12.378	16.3096	19.5271	13.3908	15.7662	18.6765	12.0594	-3.3939	3.9458	3.8662	6.7281	2.9615	8.5659	3.7125	10.3268
9.994	11.7976	13.5757	10.8844	14.5714	17.6808	12.6056	16.3608	19.6779	13.6098	15.7918	18.7789	12.2215	-3.3228	4.0539	3.9259	6.5688	3.1094	8.5573	3.8918	10.3155
10.1049	11.8858	13.7094	11.0608	14.634	17.8259	12.8047	16.3665	19.8173	13.8004	15.8203	18.8529	12.415	-3.2261	4.1393	4.0255	6.4038	3.2716	8.5488	4.0369	10.2813
10.1818	11.9541	13.789	11.1917	14.6596	17.9084	12.9811	16.3892	19.9368	13.9683	15.8146	18.9354	12.5458	-3.1663	4.2132	4.0795	6.2814	3.4025	8.5033	4.1677	10.2472
10.2159	11.9712	13.8687	11.2998	14.7051	18.008	13.1319	16.4006	20.0733	14.1389	15.8345	19.0122	12.6966	-3.0895	4.2787	4.1336	6.1534	3.5504	8.435	4.2929	10.1988
10.2614	12.011	13.9199	11.4193	14.7136	18.0933	13.2912	16.412	20.17	14.284	15.8402	19.0719	12.8246	-3.0383	4.3299	4.1506	6.0396	3.667	8.3952	4.4067	10.1903
10.2842	12.048	13.9654	11.5046	14.7193	18.173	13.3936	16.4177	20.2838	14.4234	15.826	19.1317	12.9413	-2.9814	4.3754	4.1421	5.9344	3.8036	8.3582	4.5375	10.1448
10.2614	12.0338	13.9768	11.5473	14.7193	18.2355	13.5074	16.4148	20.3635	14.5344	15.8146	19.1886	13.0494	-2.9643	4.3811	4.145	5.8661	3.9231	8.307	4.6428	10.0879
10.2159	12.0195	13.9853	11.5729	14.7307	18.2839	13.587	16.4006	20.4147	14.6425	15.8032	19.2085	13.129	-2.9302	4.3583	4.1108	5.8177	4.0255	8.2729	4.731	10.0424
10.1874	12.011	13.9967	11.5843	14.7136	18.3152	13.6383	16.3835	20.4887	14.7307	15.7861	19.254	13.2087	-2.9131	4.3384	4.0653	5.7722	4.0994	8.2131	4.805	10.031
10.1021	11.9541	13.954	11.5558	14.6795	18.3294	13.6752	16.3636	20.52	14.8018	15.7691	19.2711	13.2741	-2.8989	4.2986	3.9942	5.7523	4.1876	8.1676	4.859	9.9826
10.0224	11.9171	13.8943	11.5018	14.6453	18.3266	13.7037	16.3352	20.5598	14.8331	15.7321	19.291	13.2912	-2.8989	4.2417	3.9373	5.7324	4.2502	8.1249	4.9074	9.9399
9.9314	11.8488	13.8545	11.4534	14.6084	18.3124	13.6752	16.3124	20.5484	14.8445	15.6752	19.2711	13.3083	-2.8989	4.1848	3.8491	5.7438	4.2844	8.0595	4.9444	9.883
9.8119	11.7578	13.7634	11.3538	14.5628	18.2896	13.6269	16.2783	20.5598	14.8473	15.6382	19.2483	13.3168	-2.9103	4.1023	3.7552	5.7694	4.2929	8.014	4.9358	9.8318
9.6896	11.7094	13.6582	11.2258	14.4946	18.2498	13.5529	16.2498	20.5171	14.8075	15.6126	19.2227	13.2713	-2.9188	4.0141	3.6955	5.8263	4.3213	7.9685	4.9387	9.8062
9.59	11.6497	13.6041	11.149	14.4832	18.2156	13.5102	16.2328	20.5114	14.7904	15.5699	19.18	13.2656	-2.9672	3.9771	3.6556	5.8718	4.3299	7.9428	4.9074	9.8005
9.462	11.5814	13.4704	10.9925	14.3978	18.1673	13.422	16.2072	20.4574	14.7421	15.5159	19.1175	13.2172	-2.9871	3.9031	3.5817	5.9287	4.3043	7.8916	4.8789	9.755
9.3198	11.4961	13.3424	10.8332	14.3267	18.0762	13.3026	16.1759	20.3834	14.6738	15.4647	19.0549	13.129	-3.0099	3.8007	3.4764	5.9714	4.2502	7.8433	4.7993	9.738
9.1832	11.4164	13.2229	10.6768	14.2613	18.0023	13.203	16.119	20.3094	14.56	15.3964	18.9866	13.0323	-3.0326	3.7211	3.4252	5.9941	4.1791	7.7892	4.7424	9.701
8.9869	11.2713	13.0607	10.4748	14.1589	17.8686	13.0323	16.0422	20.1985	14.432	15.3196	18.8557	12.9242	-3.0525	3.6101	3.3171	6.0311	4.1108	7.7067	4.6286	9.6555
8.8219	11.1319	12.8815	10.2728	14.0223	17.7149	12.8673	15.9255	20.0534	14.267	15.2115	18.7277	12.7876	-3.0412	3.502	3.2062	6.0425	4.0084	7.6413	4.5233	9.5616
8.6256	10.9982	12.6795	10.0651	13.9114	17.5869	12.6938	15.8117	19.9083	14.1247	15.1176	18.6111	12.6426	-3.0611	3.3626	3.0639	6.0681	3.9316	7.5588	4.4238	9.5189
8.4208	10.8503	12.4946	9.866	13.7663	17.4048	12.5259	15.715	19.7746	13.9654	15.0152	18.4802	12.4946	-3.0639	3.2261	2.8875	6.0766	3.8349	7.4649	4.3071	9.4563
8.2416	10.6796	12.2869	9.6526	13.6155	17.2342	12.3125	15.6012	19.5812	13.7634	14.9099	18.318	12.304	-3.0924	3.1094	2.7368	6.125	3.7154	7.3682	4.1962	9.3823
8.014	10.4918	12.0679	9.4307	13.459	17.0578	12.1077	15.4675	19.3877	13.5814	14.7933	18.136	12.1134	-3.0895	2.9615	2.5831	6.1421	3.6044	7.2515	4.0596	9.3055
7.7978	10.3126	11.8574	9.2543	13.3139	16.8814	11.9313	15.3253	19.2284	13.4135	14.6909	17.988	11.9484	-3.0781	2.8335	2.3726	6.125	3.502	7.1577	3.9344	9.2401
7.573	10.1277	11.6326	9.0751	13.1404	16.6481	11.7663	15.1659	19.0293	13.2001	14.5827	17.8401	11.7663	-3.0924	2.7055	2.1962	6.1335	3.4224	7.0496	3.8064	9.1519
7.3938	9.9399	11.4221	8.9215	12.9811	16.4689	11.5928	15.0493	18.8415	13.0238	14.4433	17.6637	11.5843	-3.0611	2.5689	2.0028	6.0795	3.3171	6.9244	3.7154	9.0808
7.1804	9.7522	11.2031	8.7536	12.7962	16.2356	11.3994	14.8928	18.6367	12.8218	14.3068	17.4902	11.405	-3.044	2.4551	1.7752	6.0482	3.2289	6.822	3.5817	9.0068
6.9756	9.5417	11.0011	8.6142	12.6056	16.0308	11.2201	14.7477	18.4404	12.6283	14.2186	17.328	11.2258	-3.0241	2.3271	1.5931	5.9941	3.1578	6.7281	3.485	8.9158
6.7423	9.3653	10.7877	8.4322	12.4377	15.8174	11.0437	14.597	18.227	12.4519	14.0621	17.146	11.0466	-2.9899	2.1877	1.3854	5.9429	3.0781	6.5972	3.374	8.8304
6.5688	9.1178	10.5687	8.2956	12.2585	15.5927	10.8702	14.432	18.008	12.2528	13.937	16.9696	10.8674	-2.9672	2.0853	1.229	5.8746	2.9956	6.492	3.2801	8.7366
6.3611	8.9186	10.3155	8.1534	12.0508	15.3651	10.6995	14.2613	17.8088	12.0537	13.8061	16.7847	10.6938	-2.933	1.9999	1.0839	5.8092	2.9387	6.3526	3.1777	8.6484
6.1705	8.6939	10.0907	7.9827	11.8431	15.1176	10.4975	14.0906	17.5784	11.8403	13.6667	16.5969	10.5061	-2.8847	1.8719	0.9388	5.7267	2.8648	6.2274	3.0838	8.5545
5.9714	8.5118	9.8973	7.8518	11.6781	14.9355	10.3382	13.9313	17.3479	11.6611	13.5472	16.4234	10.3354	-2.8392	1.8207	0.8705	5.6328	2.8164	6.125	2.9956	8.4976
5.812	8.307	9.6839	7.7181	11.4733	14.6909	10.1675	13.8004	17.1431	11.5018	13.4192	16.2356	10.1761	-2.805	1.7667	0.7852	5.5503	2.7709	6.0283	2.933	8.4122
5.6556	8.1192	9.4848	7.5759	11.3168	14.5031	10.0281	13.6354	16.9497	11.3168	13.2912	16.0791	10.031	-2.7567	1.7126	0.7681	5.4678	2.7595	5.9315	2.8619	8.3411
5.4934	7.9485	9.2913	7.4478	11.1405	14.2812	9.8517	13.4875	16.7392	11.1518	13.1945	15.9028	9.8745	-2.7225	1.6927	0.7795	5.3967	2.7083	5.8149	2.7965	8.2785
5.3682	7.7778	9.1064	7.3084	10.9783	14.1105	9.7038	13.3595	16.5485	10.9868	13.1034	15.7178	9.7436	-2.6656	1.6898	0.8392	5.2943	2.7112	5.7295	2.7567	8.2216
5.2345	7.6299	8.9499	7.2231	10.8446	13.9256	9.5673	13.2457	16.3722	10.856	12.9868	15.5614	9.6128	-2.6116	1.6927	0.8677	5.1862	2.7055	5.6641	2.7225	8.179
5.0866	7.4905	8.7707	7.1036	10.6853	13.7435	9.4279	13.092	16.1929	10.708	12.8957	15.4134	9.4648	-2.5632	1.6984	0.9132	5.0838	2.7168	5.5788	2.6827	8.1164
4.9927	7.354	8.6256	6.9984	10.5487	13.5842	9.3084	12.9583	16.0222	10.5687	12.7905	15.2598	9.3624	-2.5006	1.724	0.9957	4.9643	2.714	5.5162	2.6742	8.0595
4.8619	7.2259	8.4834	6.9102	10.4093	13.4249	9.1775	12.8246	15.8601	10.4378	12.7222	15.1119	9.2373	-2.4523	1.7069	1.0469	4.8533	2.7282	5.4593	2.6514	8.0111
4.7907	7.1463	8.3696	6.8191	10.324	13.3054	9.0922	12.7279	15.7321	10.3382	12.6369	14.9782	9.1377	-2.3954	1.7667	1.0924	4.7538	2.7453	5.3967	2.6486	7.9514
4.6741	7.0268	8.2302	6.7395	10.2045	13.1461	8.9784	12.6141	15.5728	10.2045	12.5344	14.8132	9.0154	-2.347	1.7524	1.0867	4.657	2.7368	5.337	2.6457	7.8746
4.5916	6.9329	8.142	6.6541	10.1021	13.0437	8.8845	12.5003	15.4504	10.1163	12.4434	14.6681	8.8987	-2.3015	1.7951	1.1522	4.5774	2.7538	5.2601	2.6429	7.7921
4.5518	6.8817	8.0396	6.5802	10.0054	12.9299	8.8048	12.3751	15.3196	10.0253	12.3182	14.5315	8.8105	-2.2645	1.8065	1.1664	4.4892	2.7396	5.2089	2.6457	7.7067
4.4835	6.8277	7.9741	6.546	9.9229	12.8388	8.7366	12.2813	15.2058	9.9399	12.1988	14.4177	8.7138	-2.2275	1.8236	1.1778	4.4067	2.7311	5.1577	2.6514	7.6185
4.4522	6.7992	7.9343	6.4749	9.8717	12.782	8.6939	12.1902	15.1403	9.8944	12.1191	14.3011	8.674	-2.1849	1.8236	1.1749	4.3356	2.7595	5.1492	2.6628	7.5503
4.4266	6.7565	7.8831	6.4578	9.7835	12.7222	8.6683	12.0963	15.0521	9.8261	11.9882	14.1816	8.5943	-2.1592	1.8435	1.1892	4.2701	2.7737	5.1008	2.6656	7.4649
4.4294	6.7594	7.8717	6.4607	9.7465	12.671	8.6427	12.0138	14.9583	9.7892	11.8972	14.0764	8.5204	-2.1251	1.852	1.2005	4.2104	2.7908	5.0923	2.6827	7.4052
4.455	6.7651	7.8717	6.4721	9.7123	12.6312	8.6142	11.9484	14.9014	9.7436	11.8033	13.9626	8.4635	-2.1052	1.9117	1.2062	4.1848	2.8022	5.0724	2.7055	7.3511
4.492	6.7964	7.9002	6.4863	9.6981	12.6141	8.6142	11.8716	14.8672	9.7351	11.7322	13.9028	8.4435	-2.0995	1.9573	1.1977	4.145	2.8392	5.0951	2.7481	7.3084
4.4977	6.7821	7.8945	6.4891	9.6526	12.5686	8.6085	11.8033	14.7847	9.7095	11.6127	13.8061	8.4094	-2.0967	1.9886	1.1948	4.1506	2.8534	5.0951	2.8022	7.2345
4.5461	6.8021	7.9116	6.5176	9.6298	12.5458	8.5801	11.735	14.7136	9.6924	11.5075	13.7037	8.3554	-2.091	2.0426	1.2062	4.1592	2.8818	5.0923	2.8079	7.1861
4.5546	6.7793	7.8859	6.5204	9.5616	12.4918	8.5716	11.6326	14.651	9.6526	11.3994	13.5757	8.3241	-2.1024	2.0625	1.2005	4.1706	2.8961	5.0752	2.8363	7.1093
4.5717	6.7821	7.8774	6.5233	9.5161	12.4178	8.546	11.5245	14.5799	9.6213	11.2685	13.4676	8.2757	-2.1166	2.0995	1.1664	4.2132	2.9103	5.0695	2.8648	7.0553
4.5575	6.7366	7.8433	6.5033	9.4478	12.3609	8.5317	11.4136	14.469	9.5815	11.1149	13.3054	8.2017	-2.1422	2.0967	1.1948	4.2644	2.9188	5.0269	2.8505	6.9614
4.5375	6.657	7.812	6.4749	9.3539	12.2585	8.5061	11.2713	14.3552	9.5303	10.9897	13.1461	8.1221	-2.1735	2.1052	1.1892	4.327	2.916	4.9956	2.8904	6.8703
4.5119	6.6171	7.7352	6.4578	9.2458	12.1561	8.4635	11.1376	14.2357	9.4734	10.8247	12.9982	8.068	-2.2019	2.0853	1.2119	4.3953	2.933	4.97	2.9046	6.7622
4.4494	6.5403	7.684	6.4123	9.1434	12.0423	8.4265	10.9954	14.119	9.4307	10.6312	12.8502	7.9855	-2.2446	2.0767	1.2517	4.4607	2.9217	4.9131	2.9302	6.6712
4.4294	6.4379	7.6015	6.3725	9.0011	11.9342	8.3724	10.8304	13.9853	9.3795	10.4662	12.6767	7.9087	-2.2787	2.0455	1.2688	4.5176	2.9245	4.859	2.933	6.5716
4.3327	6.3355	7.4934	6.327	8.839	11.7606	8.3269	10.654	13.8232	9.297	10.2785	12.4804	7.8177	-2.3157	1.9999	1.2887	4.5916	2.8762	4.7623	2.9359	6.4351
4.3043	6.2359	7.408	6.3156	8.7053	11.6298	8.2985	10.5032	13.6895	9.2458	10.1049	12.3239	7.7466	-2.3328	1.9942	1.3229	4.6229	2.8875	4.7054	2.9501	6.3383
4.2275	6.1136	7.3084	6.2644	8.526	11.4904	8.233	10.324	13.5358	9.1804	9.9143	12.139	7.6697	-2.3527	1.9601	1.3883	4.6713	2.8619	4.6286	2.953	6.2189
4.1706	6.0283	7.2003	6.2274	8.381	11.3368	8.2017	10.1704	13.3822	9.1206	9.7209	11.9541	7.5901	-2.3783	1.9061	1.4822	4.7082	2.842	4.5375	2.9387	6.1108
4.1194	5.9145	7.0837	6.1933	8.2558	11.1974	8.1847	9.9997	13.2428	9.0694	9.5587	11.772	7.4934	-2.3868	1.9061	1.5732	4.7168	2.8079	4.4522	2.9501	5.9657
4.0482	5.7551	6.9671	6.1307	8.0367	11.0096	8.1022	9.8119	13.0636	8.9784	9.3454	11.57	7.4137	-2.3726	1.8776	1.6642	4.7054	2.7737	4.3413	2.9643	5.8234
3.9544	5.647	6.8476	6.0852	7.8603	10.8787	8.0481	9.6555	12.8872	8.8959	9.1604	11.3937	7.2914	-2.3413	1.8207	1.7752	4.6457	2.7311	4.236	2.9188	5.6897
3.8861	5.4792	6.7452	6.0283	7.6925	10.7109	7.9884	9.4592	12.7165	8.8162	8.9642	11.186	7.2117	-2.2958	1.7866	1.8378	4.5518	2.6742	4.1137	2.933	5.556
3.7979	5.3483	6.5972	5.9543	7.5076	10.5317	7.9258	9.2799	12.5572	8.7195	8.7565	10.9925	7.1036	-2.256	1.7467	1.9373	4.4579	2.623	4.0027	2.9131	5.3995
3.7097	5.2004	6.4749	5.9145	7.3141	10.3496	7.8774	9.0808	12.3581	8.6285	8.5687	10.8133	6.9984	-2.1905	1.6529	1.9999	4.3356	2.5689	3.8605	2.8818	5.2545
3.6073	5.0155	6.344	5.8377	7.1093	10.1704	7.8148	8.9101	12.1675	8.5204	8.3753	10.617	6.8902	-2.128	1.5988	2.0654	4.2161	2.5205	3.7325	2.8676	5.1065
3.5077	4.8505	6.1904	5.7864	6.9187	10.0082	7.7323	8.728	12.0195	8.4492	8.2046	10.4492	6.7679	-2.0654	1.5732	2.1365	4.0852	2.4779	3.5931	2.8477	4.9813
3.3996	4.6798	6.0197	5.7182	6.711	9.8119	7.6726	8.5516	11.8232	8.3468	8.014	10.2415	6.6371	-1.9942	1.4822	2.1365	3.96	2.4295	3.4537	2.8306	4.8107
3.2403	4.5034	5.8462	5.6214	6.5147	9.6327	7.5588	8.3696	11.6156	8.216	7.8347	10.0594	6.509	-1.9345	1.4367	2.1763	3.8349	2.3641	3.3029	2.7766	4.6627
3.1322	4.3185	5.6926	5.5759	6.3412	9.4648	7.4791	8.196	11.4449	8.1164	7.6897	9.8887	6.4095	-1.8975	1.3598	2.1479	3.7239	2.3157	3.1806	2.7311	4.529
2.9615	4.1706	5.5076	5.4764	6.1648	9.2856	7.3938	8.0197	11.277	7.9912	7.5076	9.7038	6.2558	-1.8349	1.3399	2.1052	3.63	2.2588	3.0184	2.6941	4.3811
2.8562	4.0141	5.3455	5.4052	6.0169	9.1434	7.3198	7.866	11.1234	7.8888	7.3597	9.5616	6.1534	-1.778	1.2944	2.0995	3.539	2.2503	2.8932	2.677	4.2332
2.7311	3.8918	5.2118	5.337	5.8945	8.9983	7.2601	7.7522	11.0124	7.8234	7.2686	9.4535	6.0965	-1.7268	1.2717	2.0796	3.4309	2.2076	2.7823	2.6628	4.1563
2.6429	3.7808	5.0866	5.2801	5.7751	8.8703	7.1946	7.6754	10.8674	7.7323	7.1463	9.3169	5.9941	-1.687	1.283	2.0426	3.3456	2.1962	2.6884	2.623	4.0596
2.5234	3.704	4.9444	5.2061	5.6954	8.7508	7.1434	7.5645	10.782	7.6641	7.0837	9.2344	5.9372	-1.6642	1.2802	2.0369	3.2744	2.1592	2.5974	2.5803	3.9828
2.4238	3.6158	4.8078	5.135	5.5901	8.6427	7.0609	7.499	10.6824	7.5901	7.0211	9.1292	5.8832	-1.6159	1.3257	1.9971	3.2147	2.1308	2.5376	2.586	3.9202
2.3385	3.5362	4.7111	5.0781	5.4963	8.5659	6.987	7.4165	10.6227	7.5474	6.9386	9.0666	5.8206	-1.5817	1.3058	1.9402	3.1606	2.1365	2.4722	2.5632	3.8548
2.2503	3.4565	4.6229	5.0041	5.4251	8.4777	6.9585	7.3909	10.5658	7.4848	6.913	9.021	5.7921	-1.5704	1.3342	1.9231	3.1151	2.1194	2.4181	2.5319	3.8263
2.1649	3.3768	4.5034	4.9216	5.3654	8.3923	6.8874	7.3511	10.4776	7.4109	6.859	8.9357	5.7466	-1.5391	1.3229	1.8634	3.0611	2.1024	2.3669	2.5149	3.7666
2.0881	3.337	4.4238	4.8533	5.3199	8.3326	6.8419	7.3255	10.4321	7.3853	6.8504	8.9243	5.7523	-1.5106	1.3655	1.815	3.0013	2.0967	2.3157	2.5006	3.7495
2.0085	3.2887	4.3327	4.805	5.2943	8.2501	6.8163	7.3113	10.3752	7.3397	6.8334	8.8845	5.7239	-1.4736	1.3542	1.7553	2.9302	2.1024	2.2901	2.4893	3.7296
1.9601	3.246	4.2502	4.7481	5.2687	8.2188	6.7509	7.3141	10.3496	7.3084	6.8305	8.876	5.7352	-1.4281	1.3712	1.7012	2.8363	2.1393	2.2531	2.4836	3.6926
1.8918	3.2062	4.1819	4.6741	5.2345	8.1647	6.7167	7.3056	10.3268	7.3084	6.8447	8.8333	5.721	-1.3911	1.3741	1.6244	2.7652	2.1393	2.2247	2.4807	3.704
1.8378	3.1976	4.1393	4.6286	5.2402	8.1164	6.6826	7.3227	10.2984	7.2743	6.839	8.8162	5.7381	-1.3314	1.3598	1.5874	2.6685	2.2133	2.2105	2.5035	3.6926
1.7667	3.1436	4.0824	4.5745	5.1919	8.0794	6.6456	7.317	10.2842	7.243	6.8504	8.8191	5.7381	-1.3001	1.3371	1.5192	2.5888	2.2361	2.1763	2.5006	3.6727
1.7268	3.118	4.0369	4.5319	5.1691	8.031	6.62	7.3426	10.2699	7.2345	6.8533	8.8134	5.7239	-1.2688	1.3229	1.4964	2.5177	2.2759	2.1507	2.5149	3.667
1.6671	3.1151	3.9856	4.4778	5.1606	7.9997	6.5489	7.3198	10.2472	7.2146	6.8646	8.7679	5.7239	-1.2261	1.3086	1.485	2.4437	2.3015	2.1536	2.5092	3.6471
1.6187	3.0867	3.9629	4.4351	5.1577	7.9741	6.5119	7.3426	10.2472	7.1861	6.8675	8.7764	5.7096	-1.2062	1.283	1.4623	2.3925	2.3385	2.1336	2.5149	3.6386
1.5988	3.0838	3.8889	4.4067	5.135	7.9315	6.4607	7.3028	10.213	7.1463	6.859	8.7622	5.6783	-1.1892	1.2802	1.4537	2.3612	2.3413	2.1024	2.4893	3.5987
1.5675	3.0724	3.9003	4.3811	5.1463	7.9343	6.4578	7.2942	10.2216	7.1235	6.8504	8.7451	5.6584	-1.1721	1.3399	1.4907	2.3299	2.3442	2.0881	2.4722	3.576
1.5561	3.0696	3.8747	4.3327	5.1634	7.9087	6.3896	7.3198	10.213	7.0809	6.8561	8.7423	5.6186	-1.1664	1.3456	1.5277	2.3186	2.3328	2.1137	2.4466	3.5561
1.5618	3.1094	3.8804	4.3157	5.152	7.9059	6.3639	7.3312	10.1874	7.0524	6.8504	8.7195	5.6015	-1.1749	1.4167	1.613	2.3271	2.293	2.0767	2.421	3.5447
1.5732	3.1663	3.9145	4.327	5.189	7.9116	6.3469	7.3454	10.2159	7.0069	6.876	8.7053	5.5617	-1.1749	1.4423	1.6614	2.3385	2.273	2.1109	2.4011	3.5333
1.613	3.1777	3.943	4.3413	5.2032	7.9542	6.3526	7.3739	10.2187	6.9841	6.8902	8.691	5.5617	-1.1835	1.5163	1.7581	2.3584	2.2531	2.1422	2.3783	3.5191
1.6898	3.2631	4.0226	4.3982	5.2801	7.9798	6.3639	7.408	10.2557	6.9756	6.9244	8.6996	5.5276	-1.2091	1.6102	1.8577	2.3954	2.2247	2.2048	2.347	3.5589
1.7467	3.3512	4.0909	4.4181	5.317	8.0225	6.344	7.4336	10.2443	6.95	6.9301	8.6711	5.4536	-1.2375	1.6699	1.9032	2.4636	2.1479	2.2531	2.3129	3.5646
1.8378	3.4366	4.1734	4.492	5.3995	8.0822	6.3725	7.4877	10.2756	6.9386	6.9727	8.6854	5.4195	-1.266	1.778	2.0198	2.5177	2.0796	2.3157	2.2816	3.5845
1.9288	3.5106	4.2616	4.5347	5.4365	8.1192	6.3668	7.5133	10.2699	6.9102	6.9841	8.6569	5.3882	-1.2916	1.8349	2.0938	2.5746	2.017	2.3868	2.2446	3.6073
1.9999	3.6073	4.3782	4.6485	5.4963	8.1932	6.4009	7.5531	10.2842	6.8931	6.9927	8.6398	5.337	-1.3342	1.9004	2.1934	2.6429	1.9516	2.475	2.2218	3.63
2.1251	3.6812	4.4778	4.7253	5.5674	8.2387	6.4379	7.573	10.2813	6.8874	7.0183	8.6171	5.2914	-1.3513	1.9942	2.2617	2.6827	1.9004	2.5433	2.1991	3.6556
2.2105	3.815	4.5745	4.7879	5.6357	8.2985	6.4692	7.61	10.2557	6.8646	7.0126	8.5772	5.2402	-1.3741	2.0711	2.3299	2.7339	1.8406	2.6144	2.1763	3.6471
2.293	3.906	4.6769	4.8647	5.6926	8.3497	6.4721	7.6271	10.2472	6.8077	7.0183	8.546	5.1776	-1.3997	2.128	2.3925	2.8022	1.7524	2.6742	2.1223	3.6585
2.3897	4.0369	4.8078	4.97	5.7779	8.4265	6.5062	7.6754	10.2614	6.8134	7.0496	8.5289	5.1606	-1.4224	2.2361	2.4949	2.8306	1.7126	2.7709	2.1166	3.7211
2.5092	4.1677	4.9159	5.0695	5.8689	8.4862	6.5659	7.7181	10.2443	6.8049	7.0723	8.5061	5.1037	-1.4594	2.3271	2.5604	2.8875	1.6614	2.8562	2.0995	3.7467
2.6002	4.273	5.0212	5.1435	5.9401	8.5289	6.6001	7.7494	10.2386	6.7878	7.0695	8.472	5.0638	-1.4822	2.3868	2.6201	2.9387	1.6329	2.9245	2.1024	3.7467
2.7481	4.4323	5.1691	5.2459	6.0567	8.6199	6.6683	7.8205	10.2842	6.8163	7.1093	8.4834	5.0496	-1.4936	2.4665	2.7055	2.97	1.596	3.0099	2.108	3.7979
2.8904	4.5688	5.3057	5.391	6.1506	8.711	6.7082	7.8945	10.3098	6.839	7.1349	8.4805	5.0041	-1.5078	2.5803	2.8136	2.9871	1.5248	3.0981	2.1052	3.8292
3.0326	4.7566	5.4707	5.5304	6.2758	8.8191	6.7878	7.9741	10.361	6.859	7.189	8.4834	4.9956	-1.5078	2.6742	2.9103	3.0013	1.5362	3.2062	2.1109	3.8975
3.1663	4.896	5.6186	5.63	6.3839	8.9186	6.8703	8.0253	10.3951	6.8817	7.2174	8.4947	4.9927	-1.5248	2.7652	2.9871	3.0355	1.5021	3.3143	2.108	3.9572
3.3086	5.061	5.7466	5.721	6.4749	9.0239	6.9471	8.0766	10.4264	6.8988	7.2174	8.4834	4.9785	-1.5192	2.8875	3.0639	3.0468	1.4566	3.3854	2.1052	3.9828
3.4537	5.1776	5.8576	5.8263	6.583	9.0808	7.0012	8.1192	10.4463	6.8959	7.2459	8.4748	4.9358	-1.5362	2.953	3.1663	3.0668	1.431	3.4736	2.0739	4.0113
3.5504	5.3199	5.9543	5.9145	6.6541	9.1377	7.0496	8.1761	10.4435	6.8846	7.2771	8.4635	4.9045	-1.5362	3.0668	3.2147	3.0611	1.3712	3.5447	2.0682	4.0226
3.6841	5.4507	6.051	5.9856	6.7338	9.2088	7.0951	8.2416	10.4605	6.8846	7.2828	8.4578	4.8932	-1.5419	3.1692	3.3057	3.0554	1.2916	3.6158	2.0284	4.0454
3.7894	5.5418	6.1392	6.0453	6.7793	9.2429	7.115	8.2729	10.452	6.8618	7.2771	8.4265	4.8363	-1.5391	3.2517	3.3882	3.0497	1.2318	3.6699	1.9886	4.0681
3.8832	5.6328	6.1933	6.1051	6.8248	9.2942	7.152	8.3013	10.4406	6.8533	7.2686	8.398	4.8021	-1.5192	3.3626	3.5077	3.0184	1.1607	3.7296	1.9231	4.0596
3.9487	5.6869	6.2331	6.1534	6.8703	9.297	7.152	8.3013	10.4264	6.8277	7.2572	8.344	4.7481	-1.5248	3.4508	3.6244	3.0241	1.0725	3.7609	1.8548	4.0653
4.0169	5.7551	6.2729	6.1733	6.9073	9.3084	7.1605	8.3013	10.3923	6.8106	7.2402	8.2899	4.6883	-1.5135	3.5276	3.7296	3.0269	1.0042	3.795	1.8292	4.0226
4.0653	5.7921	6.2615	6.1961	6.913	9.2771	7.1463	8.2956	10.3667	6.7537	7.2003	8.2273	4.6115	-1.5334	3.5788	3.8377	3.0468	0.9246	3.832	1.7411	4.0283
4.0994	5.8291	6.2729	6.1933	6.9301	9.2856	7.1491	8.2899	10.3468	6.7423	7.189	8.1847	4.5489	-1.5362	3.6585	3.9743	3.0554	0.8762	3.8633	1.6671	4.0283
4.1535	5.8519	6.2814	6.2132	6.9386	9.2657	7.1292	8.2814	10.2955	6.6911	7.1548	8.1022	4.475	-1.5561	3.7381	4.1194	3.0838	0.8222	3.8975	1.6358	4.0169
4.1592	5.8689	6.2587	6.1933	6.9187	9.2486	7.0979	8.2672	10.2557	6.6427	7.1178	8.0709	4.3953	-1.5732	3.7979	4.2218	3.1123	0.7482	3.8889	1.5476	3.9942
4.1933	5.8832	6.2388	6.1677	6.9215	9.2117	7.0752	8.2558	10.2159	6.5915	7.078	7.9941	4.3384	-1.5675	3.8804	4.364	3.1237	0.6685	3.8775	1.485	3.9686
4.1592	5.8547	6.2018	6.1136	6.8618	9.1491	7.0154	8.196	10.1419	6.5005	7.0097	7.903	4.2388	-1.5789	3.9145	4.4721	3.1464	0.6003	3.8576	1.3798	3.9117
4.1535	5.8149	6.1392	6.0396	6.7992	9.1007	6.9443	8.1477	10.0651	6.4465	6.9528	7.8148	4.1478	-1.5874	3.9515	4.5518	3.1635	0.5149	3.8178	1.283	3.8747
4.1336	5.7921	6.0908	5.9714	6.7452	9.0182	6.859	8.0908	9.9826	6.3554	6.9045	7.7608	4.0482	-1.5761	3.9856	4.6343	3.1436	0.4324	3.7837	1.1892	3.8462
4.0681	5.7438	6.0055	5.8689	6.6883	8.9414	6.7765	8.031	9.8916	6.2558	6.8021	7.6584	3.9686	-1.5874	4.0084	4.6883	3.1493	0.3442	3.7609	1.0754	3.8007
3.9942	5.6783	5.8974	5.7381	6.5887	8.8504	6.6541	7.9599	9.7749	6.1421	6.7167	7.5616	3.8662	-1.5846	4.0113	4.6969	3.1549	0.2361	3.6869	0.9559	3.7325
3.9088	5.5759	5.7978	5.5958	6.4834	8.7166	6.4948	7.8575	9.6811	6.0226	6.6399	7.4507	3.7637	-1.6045	4.0084	4.6883	3.1749	0.1309	3.6215	0.8335	3.6841
3.8178	5.4735	5.7096	5.4564	6.4095	8.637	6.3469	7.7864	9.5559	5.9088	6.5517	7.3682	3.6556	-1.5988	3.9856	4.6513	3.1948	0.0427	3.5703	0.7112	3.6528
3.7239	5.3882	5.5617	5.2886	6.3042	8.509	6.2359	7.6697	9.4478	5.795	6.4891	7.2629	3.576	-1.6273	3.9515	4.603	3.2261	-0.0028	3.4935	0.6145	3.5959
3.6187	5.2943	5.4735	5.1264	6.2018	8.398	6.0795	7.5958	9.3511	5.6926	6.3924	7.1634	3.4935	-1.6301	3.943	4.5745	3.2374	-0.0996	3.4736	0.5178	3.5931
3.4935	5.1663	5.3426	4.97	6.1108	8.2757	5.9315	7.4962	9.223	5.5731	6.3156	7.0752	3.4451	-1.6301	3.9145	4.5119	3.2517	-0.1337	3.3996	0.421	3.5646
3.3655	5.0838	5.189	4.768	5.9799	8.1391	5.7893	7.4023	9.0779	5.428	6.2388	6.95	3.3569	-1.6472	3.9003	4.4181	3.2716	-0.1849	3.3541	0.3556	3.5162
3.246	4.9927	5.0838	4.6144	5.9173	7.9884	5.6499	7.317	8.9698	5.354	6.1563	6.876	3.2972	-1.65	3.8576	4.3413	3.2773	-0.1821	3.3029	0.2902	3.5305
3.1237	4.9017	4.9358	4.4522	5.8007	7.8689	5.519	7.2402	8.8361	5.2374	6.0852	6.748	3.2346	-1.6614	3.8235	4.2559	3.2887	-0.1991	3.2431	0.2276	3.4878
2.9956	4.7907	4.8135	4.2957	5.7182	7.7266	5.3654	7.1321	8.7081	5.1207	6.0112	6.6513	3.1834	-1.6443	3.7808	4.1336	3.2631	-0.2105	3.1948	0.1622	3.465
2.8449	4.7026	4.6769	4.1307	5.6186	7.5815	5.2459	7.041	8.5744	5.024	5.9315	6.5546	3.118	-1.6329	3.741	4.0226	3.2488	-0.1906	3.1606	0.1195	3.4366
2.7368	4.64	4.5375	3.9515	5.5247	7.4706	5.1065	6.9642	8.4891	4.9415	5.8832	6.492	3.0781	-1.6216	3.6955	3.9003	3.2175	-0.1935	3.1123	0.0455	3.4508
2.6315	4.5489	4.4294	3.8491	5.4422	7.3454	4.9842	6.8817	8.3753	4.8334	5.8234	6.3924	3.0326	-1.6073	3.6244	3.7325	3.1806	-0.1963	3.0952	-0.0114	3.4593
2.4949	4.4607	4.29	3.7154	5.3597	7.2345	4.8505	6.8248	8.2444	4.768	5.7466	6.3071	2.9786	-1.5874	3.5731	3.5817	3.1606	-0.1935	3.0639	-0.074	3.4252
2.3954	4.401	4.1905	3.5788	5.3	7.115	4.7651	6.7565	8.1591	4.6883	5.6897	6.2274	2.9501	-1.5817	3.5219	3.411	3.1464	-0.1991	3.0582	-0.1166	3.4053
2.3271	4.3555	4.1165	3.4565	5.2345	7.0382	4.6713	6.7224	8.0908	4.6087	5.6812	6.1705	2.9103	-1.5647	3.4537	3.2318	3.1066	-0.1906	3.0326	-0.1906	3.411
2.2474	4.3071	4.0312	3.4025	5.1833	6.9727	4.5831	6.6854	8.0396	4.5973	5.6357	6.1307	2.9074	-1.5391	3.4224	3.0781	3.0582	-0.1963	3.0383	-0.2105	3.4025
2.2019	4.2787	3.9686	3.2773	5.1264	6.9016	4.5006	6.6171	7.977	4.5404	5.6214	6.0908	2.8904	-1.522	3.3541	2.9103	3.0156	-0.1849	3.0468	-0.2674	3.4053
2.1336	4.236	3.8975	3.2118	5.0895	6.8476	4.4607	6.5887	7.94	4.5091	5.5958	6.0539	2.8904	-1.5049	3.3171	2.805	2.9899	-0.1764	3.0668	-0.3129	3.3939
2.0682	4.1933	3.8178	3.1493	5.0411	6.785	4.401	6.5574	7.8888	4.4579	5.5503	6.014	2.8989	-1.485	3.283	2.7112	2.9416	-0.1735	3.0696	-0.3585	3.3854
2.0113	4.162	3.7438	3.0525	4.9984	6.7281	4.31	6.5147	7.849	4.4323	5.5503	5.9913	2.8932	-1.4765	3.246	2.623	2.9245	-0.1678	3.0611	-0.3954	3.3683
1.9174	4.0795	3.667	2.9615	4.9188	6.6968	4.236	6.4749	7.7892	4.3811	5.5162	5.9543	2.8705	-1.4623	3.1976	2.5547	2.916	-0.1963	3.0326	-0.441	3.3171
1.8492	4.0397	3.5874	2.879	4.8761	6.62	4.1734	6.418	7.7494	4.3555	5.4707	5.8832	2.8392	-1.4793	3.1862	2.5006	2.9245	-0.1906	3.0156	-0.4979	3.3029
1.8065	3.9743	3.5134	2.7993	4.8419	6.5745	4.1307	6.3696	7.7153	4.31	5.4308	5.8576	2.8363	-1.485	3.1663	2.5035	2.9387	-0.1963	2.9985	-0.5491	3.2517
1.6842	3.906	3.4252	2.7168	4.7594	6.5005	4.0568	6.3156	7.6384	4.2787	5.3682	5.8064	2.8306	-1.5021	3.1521	2.5291	2.9899	-0.2077	2.9786	-0.5917	3.2033
1.6244	3.8519	3.3512	2.6144	4.6912	6.4351	4.0084	6.2587	7.5958	4.2417	5.3455	5.7523	2.8306	-1.5419	3.1606	2.5547	3.0468	-0.2219	2.9814	-0.6515	3.1692
1.5362	3.7865	3.283	2.5348	4.6513	6.3782	3.9515	6.2075	7.5332	4.2019	5.2687	5.7011	2.7965	-1.5675	3.1521	2.603	3.118	-0.2447	2.9387	-0.6771	3.1037
1.4623	3.7524	3.2232	2.4893	4.6115	6.3184	3.9231	6.1477	7.4962	4.1819	5.2345	5.6812	2.805	-1.613	3.1948	2.6827	3.1948	-0.2447	2.9444	-0.7169	3.0298
1.3997	3.7211	3.1521	2.4011	4.5603	6.2786	3.8434	6.1022	7.4564	4.1364	5.189	5.6186	2.7908	-1.6472	3.2431	2.7823	3.2716	-0.2418	2.9217	-0.7482	2.9899
1.3598	3.704	3.1037	2.3385	4.5347	6.2331	3.832	6.0339	7.3767	4.1108	5.1492	5.5873	2.7965	-1.6756	3.2801	2.8961	3.3427	-0.2418	2.9188	-0.7738	2.97
1.2944	3.6841	3.0468	2.2787	4.475	6.1677	3.7666	5.9799	7.3397	4.0625	5.0923	5.5333	2.7851	-1.7211	3.3456	3.0127	3.4195	-0.2646	2.9018	-0.8222	2.8989
1.2489	3.6556	2.97	2.2247	4.4294	6.1136	3.6955	5.923	7.2743	4.0084	5.0212	5.4735	2.7453	-1.7581	3.3911	3.1293	3.5049	-0.3129	2.8762	-0.8392	2.8449
1.2005	3.6414	2.916	2.1393	4.4067	6.0453	3.6471	5.8519	7.1946	3.9686	4.9671	5.4024	2.7225	-1.7923	3.4565	3.2545	3.5589	-0.3158	2.8733	-0.8791	2.7851
1.1835	3.6272	2.8904	2.0967	4.364	6.0283	3.6101	5.8092	7.1548	3.9145	4.9358	5.3682	2.7168	-1.8065	3.5106	3.3598	3.5845	-0.3528	2.8648	-0.9018	2.7282
1.1692	3.63	2.8534	2.0483	4.3213	5.9315	3.5475	5.7523	7.0581	3.8548	4.859	5.2886	2.677	-1.8236	3.5703	3.4679	3.6158	-0.3869	2.8562	-0.953	2.6685
1.1408	3.6044	2.7965	1.963	4.29	5.8718	3.4593	5.6584	6.9699	3.7637	4.7822	5.1976	2.6059	-1.8435	3.63	3.539	3.6699	-0.4523	2.8164	-1.0042	2.5774
1.1266	3.6101	2.7368	1.9174	4.2303	5.8092	3.3968	5.5816	6.8846	3.7154	4.7139	5.1293	2.5575	-1.8719	3.6443	3.5987	3.7239	-0.495	2.8022	-1.0327	2.512
1.1493	3.6272	2.7083	1.8918	4.1876	5.7495	3.3512	5.5503	6.8248	3.6585	4.6599	5.0667	2.5092	-1.9089	3.704	3.667	3.7808	-0.532	2.788	-1.0782	2.4893
1.1522	3.65	2.6827	1.8122	4.1734	5.6954	3.2915	5.5048	6.7537	3.5845	4.6115	4.9813	2.4409	-1.9288	3.7154	3.7154	3.8519	-0.5775	2.7851	-1.1152	2.438
1.1493	3.6926	2.6628	1.8036	4.1563	5.6527	3.2346	5.4593	6.6854	3.5077	4.566	4.9102	2.3925	-1.9743	3.7666	3.7211	3.9145	-0.6259	2.805	-1.155	2.3897
1.1607	3.6955	2.6372	1.7524	4.1336	5.5873	3.1692	5.4052	6.5489	3.4337	4.5148	4.805	2.3043	-1.9971	3.7894	3.7381	3.9885	-0.66	2.7908	-1.1948	2.3385
1.1664	3.741	2.6343	1.724	4.1393	5.5702	3.1237	5.3739	6.4948	3.3541	4.4835	4.7367	2.2389	-2.0426	3.8406	3.7381	4.0511	-0.6913	2.8107	-1.2176	2.31
1.1721	3.7837	2.6173	1.6813	4.1194	5.4963	3.0781	5.3313	6.3782	3.2773	4.4238	4.6343	2.1592	-2.0682	3.8719	3.7524	4.1279	-0.7454	2.8193	-1.2603	2.2617
1.1863	3.795	2.603	1.6699	4.1108	5.4507	2.9956	5.3028	6.2729	3.1663	4.3725	4.5319	2.0597	-2.1166	3.9288	3.7694	4.1962	-0.8307	2.8107	-1.3029	2.256
1.2148	3.8747	2.6258	1.6529	4.1336	5.4251	2.9558	5.317	6.2018	3.1293	4.3697	4.4778	2.0113	-2.1251	3.9544	3.7837	4.2417	-0.8677	2.8705	-1.3285	2.2446
1.2347	3.9088	2.6087	1.6415	4.108	5.3654	2.8989	5.2772	6.1164	3.0212	4.31	4.3896	1.8918	-2.1536	4.0539	3.7865	4.2929	-0.9473	2.8847	-1.3911	2.2133
1.246	3.9316	2.6173	1.596	4.1137	5.354	2.8449	5.2658	6.0311	2.9103	4.2844	4.2986	1.8036	-2.182	4.0653	3.7609	4.3498	-1.0128	2.9046	-1.4367	2.1934
1.266	3.9771	2.64	1.5817	4.1165	5.2801	2.7851	5.2459	5.9571	2.8278	4.236	4.2104	1.6756	-2.2105	4.1336	3.7894	4.3982	-1.1323	2.9245	-1.4992	2.1735
1.3143	4.0625	2.6457	1.5561	4.1307	5.2744	2.7624	5.2488	5.8889	2.751	4.2388	4.145	1.5931	-2.2218	4.2218	3.7979	4.4209	-1.1721	2.9501	-1.5448	2.182
1.32	4.0539	2.64	1.5049	4.1137	5.2089	2.6514	5.2289	5.8064	2.6372	4.2047	4.0511	1.4879	-2.2503	4.2388	3.8007	4.4721	-1.266	2.9587	-1.6216	2.1308
1.3598	4.1023	2.6286	1.522	4.125	5.1976	2.623	5.2317	5.7722	2.5917	4.1876	3.9999	1.3911	-2.2588	4.3242	3.8576	4.4892	-1.3513	2.9672	-1.6614	2.1137
1.3741	4.1108	2.64	1.4879	4.1279	5.1577	2.5518	5.2146	5.7153	2.4949	4.1649	3.9344	1.3143	-2.273	4.3754	3.9088	4.5091	-1.4395	2.9558	-1.7211	2.0739
1.4082	4.1364	2.6343	1.485	4.108	5.1151	2.4921	5.2061	5.6584	2.4267	4.1649	3.8633	1.2432	-2.2816	4.455	3.9544	4.5233	-1.5277	2.9501	-1.7667	2.0483
1.4139	4.125	2.6201	1.4623	4.0795	5.1008	2.4153	5.189	5.5873	2.3555	4.125	3.8121	1.1579	-2.2844	4.4863	3.9771	4.5432	-1.5903	2.9444	-1.815	1.9886
