"FZ"	"FC3"	"FCZ"	"FC4"	"C3"	"CZ"	"C4"	"CP3"	"CPZ"	"CP4"	"P3"	"PZ"	"P4"	"OZ"	"FP1"	"FP2"	"A2"	"P8"	"TP7"	"TP8"	"P7"	"VEOG"	"HEOG"
2.0836	1.7682	2.6653	1.8839	2.1386	2.9142	2.1212	2.0981	3.1225	2.2167	2.6392	2.9576	2.2688	0.3733	-1.036	-0.0984	-0.7437	1.3978	1.2704	1.2473	2.5872	-6.9367	1.0881
2.0055	1.6669	2.5351	1.8261	2.0402	2.8158	2.046	2.0315	3.0386	2.1415	2.5495	2.8823	2.2138	0.382	-0.9752	-0.1447	-0.7582	1.392	1.2502	1.2386	2.5351	-6.8412	1.0505
1.9389	1.6119	2.4569	1.7537	1.9563	2.7	1.9852	1.9534	2.9489	2.0547	2.5061	2.7955	2.1154	0.4051	-0.8769	-0.1302	-0.7929	1.4007	1.2531	1.2125	2.4974	-6.792	0.9868
1.8781	1.5193	2.373	1.6958	1.8666	2.6074	1.8897	1.8781	2.8794	1.9447	2.4396	2.6827	2.0228	0.4167	-0.7379	-0.0868	-0.8306	1.3746	1.2212	1.2068	2.4164	-6.7804	0.9289
1.8029	1.418	2.292	1.609	1.7769	2.4917	1.8029	1.7855	2.729	1.8695	2.3354	2.5756	1.91	0.4283	-0.6019	-0.055	-0.8508	1.3312	1.1749	1.1373	2.3209	-6.8123	0.8711
1.7161	1.337	2.1704	1.5106	1.6814	2.3672	1.7045	1.6727	2.6103	1.7335	2.2428	2.4454	1.8087	0.4428	-0.4312	-0.0232	-0.8711	1.2675	1.1026	1.0621	2.2167	-6.8586	0.8045
1.638	1.2299	2.0865	1.4296	1.5598	2.2196	1.6119	1.5656	2.4685	1.5916	2.1126	2.3064	1.6322	0.4341	-0.2344	-0.0174	-0.8653	1.1807	1.0042	0.9839	2.0807	-6.9627	0.7177
1.5656	1.1576	1.965	1.3601	1.4441	2.0836	1.5077	1.4498	2.3151	1.4759	1.9939	2.1415	1.473	0.4312	-0.081	-0.0203	-0.8624	1.1084	0.9058	0.9058	1.9563	-7.0611	0.6656
1.4817	1.0418	1.8145	1.2617	1.3283	1.9071	1.392	1.3109	2.1386	1.2791	1.8492	1.9447	1.2965	0.4225	0.0695	-0.055	-0.8334	0.9608	0.7987	0.7871	1.7798	-7.1595	0.6077
1.363	0.9579	1.6871	1.1749	1.1894	1.7682	1.2444	1.1952	1.9852	1.1431	1.7161	1.7826	1.1489	0.4051	0.2576	-0.1013	-0.8074	0.8682	0.6916	0.6772	1.6177	-7.2811	0.5325
1.282	0.874	1.5656	1.0794	1.0534	1.638	1.1431	1.0707	1.829	0.9666	1.5425	1.638	0.9492	0.382	0.4051	-0.1273	-0.7611	0.764	0.5412	0.5672	1.4354	-7.4055	0.4949
1.227	0.7987	1.473	1.0187	0.9637	1.4788	1.01	0.9434	1.6553	0.8074	1.4064	1.4383	0.7756	0.3531	0.5585	-0.1736	-0.7032	0.6453	0.4486	0.4514	1.2675	-7.5357	0.4399
1.172	0.7495	1.3746	0.9405	0.8566	1.3572	0.9261	0.8508	1.5135	0.6656	1.2762	1.2791	0.6135	0.3299	0.6714	-0.1968	-0.6396	0.5296	0.3154	0.3299	1.117	-7.6804	0.4109
1.1199	0.6772	1.2936	0.8884	0.7669	1.227	0.8219	0.7351	1.363	0.5122	1.1402	1.0997	0.4341	0.2981	0.7524	-0.217	-0.5788	0.437	0.1997	0.2199	0.9492	-7.8309	0.3762
1.0852	0.6338	1.1865	0.8132	0.6251	1.0997	0.7003	0.6164	1.2125	0.3733	1.0013	0.9261	0.2547	0.2576	0.7929	-0.2489	-0.5064	0.3357	0.0579	0.0984	0.7958	-7.9727	0.3473
1.0563	0.5614	1.0968	0.7495	0.5441	0.9868	0.6222	0.5064	1.0823	0.2373	0.8479	0.7582	0.1158	0.2228	0.79	-0.272	-0.4428	0.246	-0.055	-0.0116	0.6598	-8.1116	0.3068
1.0187	0.5122	0.9926	0.6859	0.4283	0.8971	0.5209	0.4225	0.9608	0.1302	0.7495	0.6193	-0.0174	0.1939	0.7756	-0.2894	-0.3791	0.1244	-0.1678	-0.1042	0.5238	-8.1984	0.2749
0.9579	0.4428	0.9174	0.6222	0.3299	0.7698	0.4283	0.3125	0.7987	-0.0058	0.6106	0.4457	-0.1765	0.1534	0.6974	-0.3125	-0.2923	0.0405	-0.2778	-0.2084	0.3675	-8.2824	0.2576
0.9434	0.3907	0.8363	0.5643	0.2518	0.6945	0.3502	0.217	0.6945	-0.1071	0.5093	0.2894	-0.3096	0.1042	0.6106	-0.3154	-0.2257	-0.0666	-0.3386	-0.3068	0.2286	-8.3055	0.2286
0.8682	0.3154	0.7553	0.492	0.1707	0.6164	0.2923	0.1389	0.5846	-0.2315	0.3965	0.1852	-0.4254	0.0955	0.4486	-0.3675	-0.1736	-0.1187	-0.4341	-0.3704	0.1302	-8.2505	0.1997
0.7785	0.2923	0.6424	0.4283	0.0955	0.5093	0.2084	0.081	0.4717	-0.3212	0.3183	0.0579	-0.5151	0.055	0.2055	-0.4399	-0.1158	-0.2055	-0.5035	-0.4717	0.0434	-8.1029	0.1823
0.6801	0.2286	0.5527	0.3386	-0.0087	0.4225	0.1013	-0.0029	0.3646	-0.4167	0.217	-0.0868	-0.6396	0.0376	0	-0.4862	-0.0695	-0.301	-0.5412	-0.5643	-0.0463	-7.9119	0.1765
0.5585	0.136	0.4399	0.2344	-0.0868	0.3299	0.0232	-0.0839	0.272	-0.5035	0.1215	-0.2228	-0.7351	0.0058	-0.2286	-0.5469	-0.0058	-0.3588	-0.5498	-0.6135	-0.1302	-7.6573	0.1505
0.4659	0.0723	0.3444	0.1736	-0.1273	0.2431	-0.0434	-0.0955	0.1852	-0.5759	0.0521	-0.3183	-0.8277	-0.0289	-0.4312	-0.5846	0.0405	-0.4341	-0.5817	-0.6656	-0.1505	-7.3245	0.1592
0.3415	0.0174	0.2489	0.0781	-0.1621	0.1736	-0.1215	-0.1592	0.1013	-0.6251	-0.0029	-0.4196	-0.8913	-0.0405	-0.6222	-0.6019	0.081	-0.5035	-0.5701	-0.6916	-0.2141	-6.9367	0.1447
0.2055	-0.081	0.1678	-0.0203	-0.1997	0.1244	-0.1852	-0.1765	0.0521	-0.709	-0.055	-0.4949	-0.9579	-0.0492	-0.7929	-0.6077	0.1187	-0.5296	-0.5469	-0.7293	-0.2518	-6.4824	0.1389
0.0839	-0.1215	0.081	-0.0897	-0.2373	0.0781	-0.2431	-0.1968	-0.0145	-0.7495	-0.11	-0.5701	-0.9955	-0.081	-0.9405	-0.6077	0.1505	-0.5846	-0.5556	-0.7495	-0.2402	-6.0222	0.1273
-0.0376	-0.1968	0.0087	-0.1997	-0.2489	0.0289	-0.3096	-0.217	-0.0839	-0.8045	-0.1418	-0.6396	-1.0563	-0.0955	-1.0592	-0.5701	0.1997	-0.6077	-0.5412	-0.7727	-0.246	-5.536	0.1013
-0.1505	-0.2865	-0.0695	-0.2749	-0.2778	-0.0145	-0.3704	-0.2199	-0.1158	-0.8479	-0.1794	-0.6801	-1.0621	-0.11	-1.1199	-0.5354	0.2257	-0.6367	-0.4862	-0.7929	-0.2402	-5.0238	0.081
-0.272	-0.327	-0.1389	-0.327	-0.2865	-0.026	-0.4109	-0.2141	-0.1678	-0.8248	-0.1939	-0.7206	-1.0881	-0.1071	-1.1373	-0.4572	0.2402	-0.6801	-0.4572	-0.7871	-0.2257	-4.5145	0.0521
-0.3444	-0.3617	-0.2026	-0.3646	-0.272	-0.0579	-0.437	-0.2113	-0.1968	-0.8682	-0.2228	-0.7495	-1.0736	-0.1331	-1.172	-0.408	0.2489	-0.6685	-0.3791	-0.7698	-0.2141	-4.0283	0.0405
-0.4225	-0.4254	-0.2547	-0.4167	-0.2633	-0.0752	-0.463	-0.2084	-0.2199	-0.8653	-0.2257	-0.79	-1.0765	-0.1273	-1.172	-0.3125	0.2576	-0.6685	-0.3154	-0.7582	-0.1534	-3.5595	0.0347
-0.4949	-0.4659	-0.2923	-0.4833	-0.2576	-0.081	-0.4949	-0.1997	-0.2315	-0.845	-0.246	-0.7958	-1.0505	-0.1215	-1.172	-0.246	0.2633	-0.6627	-0.2431	-0.7437	-0.1215	-3.1081	0.0116
-0.5614	-0.5006	-0.3241	-0.5064	-0.2518	-0.0868	-0.492	-0.1678	-0.246	-0.8392	-0.2518	-0.8016	-1.0273	-0.1331	-1.1691	-0.1939	0.2662	-0.6888	-0.1823	-0.7322	-0.0695	-2.6971	0.0203
-0.599	-0.5238	-0.3473	-0.518	-0.2633	-0.081	-0.4804	-0.1678	-0.2199	-0.7987	-0.2605	-0.7958	-0.9984	-0.1187	-1.1836	-0.2026	0.2605	-0.6859	-0.1042	-0.683	-0.0289	-2.3151	0.0087
-0.6309	-0.5556	-0.3733	-0.5093	-0.2431	-0.0839	-0.4833	-0.1389	-0.2257	-0.7611	-0.2576	-0.7842	-0.9318	-0.1187	-1.1691	-0.1736	0.2576	-0.6396	-0.0376	-0.6627	0.026	-1.9939	-0.0058
-0.6656	-0.5672	-0.356	-0.4978	-0.2084	-0.081	-0.4543	-0.1563	-0.2141	-0.7119	-0.2605	-0.7814	-0.8711	-0.1129	-1.1634	-0.2315	0.2489	-0.6222	0.0145	-0.6135	0.055	-1.6987	-0.0058
-0.6888	-0.5875	-0.3675	-0.5006	-0.2228	-0.0666	-0.4283	-0.1563	-0.217	-0.6511	-0.2576	-0.7379	-0.7842	-0.1244	-1.1749	-0.272	0.2576	-0.5846	0.0608	-0.5759	0.0868	-1.4701	-0.0029
-0.6685	-0.6338	-0.3791	-0.4862	-0.217	-0.0579	-0.4051	-0.1389	-0.1997	-0.5643	-0.246	-0.7032	-0.6801	-0.11	-1.1199	-0.3154	0.246	-0.5093	0.0839	-0.492	0.1331	-1.2646	0.0058
-0.6685	-0.6482	-0.3907	-0.4457	-0.217	-0.0579	-0.356	-0.1389	-0.1939	-0.4978	-0.2576	-0.654	-0.6164	-0.1129	-1.0679	-0.3328	0.2373	-0.4659	0.1273	-0.4486	0.1447	-1.1142	0.0058
-0.6569	-0.6511	-0.3646	-0.4167	-0.2228	-0.0637	-0.3154	-0.1273	-0.1997	-0.4196	-0.2402	-0.6222	-0.4891	-0.11	-0.9724	-0.3675	0.2257	-0.4109	0.136	-0.408	0.165	-0.9521	0.0232
-0.6453	-0.6916	-0.3675	-0.4341	-0.2431	-0.0868	-0.272	-0.1592	-0.1621	-0.3328	-0.2373	-0.5701	-0.3762	-0.0955	-0.8797	-0.3849	0.2141	-0.3646	0.1187	-0.327	0.1823	-0.819	0.0289
-0.6251	-0.6888	-0.3849	-0.3878	-0.246	-0.0637	-0.2344	-0.1476	-0.1765	-0.2633	-0.2489	-0.5267	-0.2981	-0.0839	-0.79	-0.408	0.2055	-0.2836	0.136	-0.2923	0.1736	-0.6598	0.0289
-0.6251	-0.7003	-0.3704	-0.3617	-0.2489	-0.0926	-0.1968	-0.1418	-0.1881	-0.1736	-0.2547	-0.4775	-0.2026	-0.0897	-0.6511	-0.4109	0.1852	-0.2228	0.136	-0.2402	0.1823	-0.5238	0.0376
-0.6077	-0.709	-0.3936	-0.3357	-0.2431	-0.1302	-0.1621	-0.1505	-0.1621	-0.0781	-0.2257	-0.4341	-0.081	-0.0637	-0.518	-0.3907	0.1505	-0.1505	0.1447	-0.165	0.1997	-0.3646	0.0521
-0.6019	-0.7061	-0.3878	-0.3096	-0.2286	-0.136	-0.1302	-0.136	-0.1563	-0.0232	-0.2402	-0.3415	0.0145	-0.0579	-0.3791	-0.3733	0.136	-0.0781	0.1736	-0.1302	0.1852	-0.217	0.0695
-0.5875	-0.7119	-0.3994	-0.3386	-0.2402	-0.1678	-0.1273	-0.1273	-0.1939	0.0347	-0.2055	-0.3039	0.1215	-0.0434	-0.2084	-0.3704	0.11	0.0116	0.1736	-0.0752	0.1881	-0.0434	0.0781
-0.5846	-0.7293	-0.4283	-0.3386	-0.2518	-0.2373	-0.1129	-0.1621	-0.1968	0.0723	-0.2373	-0.2518	0.2026	-0.0376	-0.0695	-0.3675	0.1013	0.0695	0.1794	-0.0318	0.1534	0.1302	0.0868
-0.5672	-0.7177	-0.4457	-0.327	-0.272	-0.2605	-0.0897	-0.165	-0.2141	0.1302	-0.2199	-0.2199	0.2923	-0.0289	0.1244	-0.3502	0.0839	0.1621	0.1968	0.0376	0.1447	0.2691	0.0984
-0.5556	-0.6656	-0.4486	-0.3212	-0.2894	-0.3154	-0.0897	-0.1707	-0.246	0.191	-0.2026	-0.1736	0.3878	-0.0145	0.3183	-0.3386	0.0579	0.2373	0.2113	0.0839	0.1505	0.4399	0.0926
-0.5556	-0.6685	-0.4949	-0.3502	-0.3068	-0.3531	-0.1071	-0.1621	-0.2836	0.2199	-0.2026	-0.1621	0.4109	-0.0203	0.5209	-0.3444	0.0579	0.2633	0.1997	0.1129	0.1158	0.5961	0.1042
-0.5296	-0.6511	-0.5006	-0.327	-0.3328	-0.4051	-0.0926	-0.1939	-0.3183	0.2518	-0.2055	-0.1129	0.4862	-0.0174	0.7061	-0.327	0.0492	0.3588	0.191	0.1707	0.0579	0.7524	0.1071
-0.5354	-0.6453	-0.5354	-0.3531	-0.3473	-0.4543	-0.1273	-0.217	-0.3444	0.2547	-0.2518	-0.1158	0.5469	-0.0174	0.8624	-0.3357	0.0521	0.3907	0.1389	0.1736	0	0.9318	0.1129
-0.5354	-0.6367	-0.5498	-0.3791	-0.3704	-0.492	-0.1302	-0.2431	-0.3849	0.2894	-0.2518	-0.0926	0.5701	-0.0347	1.0129	-0.2691	0.0666	0.4428	0.1244	0.2084	-0.0637	1.0881	0.1129
-0.5238	-0.628	-0.5788	-0.3704	-0.3878	-0.5412	-0.1563	-0.246	-0.4138	0.3039	-0.2547	-0.0868	0.599	-0.0174	1.172	-0.191	0.055	0.4833	0.0781	0.246	-0.1158	1.2733	0.1129
-0.4978	-0.6309	-0.6019	-0.4138	-0.4109	-0.573	-0.1794	-0.2633	-0.4804	0.2923	-0.3068	-0.1129	0.628	-0.0203	1.2936	-0.1302	0.0637	0.518	0.0521	0.2749	-0.2141	1.447	0.0897
-0.4804	-0.6077	-0.6019	-0.4167	-0.4428	-0.6164	-0.1852	-0.301	-0.5209	0.301	-0.3241	-0.081	0.6309	-0.0405	1.4007	-0.0984	0.0723	0.518	0.0318	0.2952	-0.2749	1.6553	0.0521
-0.4659	-0.5904	-0.6164	-0.4399	-0.4862	-0.6569	-0.1968	-0.3154	-0.5354	0.3154	-0.3646	-0.1013	0.6482	-0.0318	1.418	-0.0839	0.0868	0.5469	-0.0058	0.3299	-0.3502	1.8781	0.0029
-0.4862	-0.5961	-0.6743	-0.4833	-0.4949	-0.6888	-0.2113	-0.3531	-0.5875	0.2865	-0.4196	-0.1302	0.6338	-0.0492	1.4238	-0.1244	0.1244	0.5441	-0.0723	0.3704	-0.463	2.1183	-0.0318
-0.5006	-0.5846	-0.683	-0.5093	-0.518	-0.7235	-0.246	-0.3531	-0.6077	0.2576	-0.4196	-0.0984	0.654	-0.0666	1.4354	-0.1881	0.1418	0.5556	-0.0955	0.3907	-0.5238	2.3701	-0.0695
-0.5064	-0.5701	-0.6888	-0.5151	-0.5035	-0.7293	-0.2402	-0.382	-0.6453	0.2489	-0.4514	-0.1042	0.6453	-0.0637	1.3978	-0.2141	0.1447	0.5412	-0.1187	0.4254	-0.5817	2.6074	-0.1129
-0.5093	-0.5325	-0.7148	-0.5527	-0.5238	-0.7756	-0.2836	-0.408	-0.6801	0.2113	-0.4775	-0.11	0.6309	-0.0781	1.3515	-0.3039	0.1707	0.5325	-0.1765	0.4312	-0.6569	2.8418	-0.1447
-0.5035	-0.4891	-0.7206	-0.5614	-0.5035	-0.7698	-0.2807	-0.4196	-0.6974	0.2228	-0.492	-0.081	0.6424	-0.0897	1.2965	-0.3473	0.1852	0.5122	-0.2026	0.4486	-0.7032	3.0618	-0.1765
-0.4833	-0.4717	-0.7264	-0.573	-0.5122	-0.7987	-0.2981	-0.4196	-0.7119	0.2026	-0.5267	-0.11	0.6077	-0.1042	1.1749	-0.4023	0.217	0.4746	-0.2344	0.4399	-0.7669	3.2383	-0.2344
-0.4746	-0.4138	-0.7379	-0.5585	-0.4891	-0.7842	-0.3183	-0.4312	-0.7148	0.1823	-0.5238	-0.1013	0.5788	-0.0984	1.0592	-0.4138	0.2141	0.4717	-0.217	0.4601	-0.7987	3.3627	-0.2489
-0.4746	-0.3994	-0.6974	-0.5643	-0.4659	-0.7871	-0.3241	-0.4341	-0.7322	0.165	-0.5354	-0.0926	0.5585	-0.1071	0.9	-0.4023	0.2315	0.4254	-0.2547	0.4514	-0.8363	3.4582	-0.2605
-0.4167	-0.3386	-0.6714	-0.5238	-0.4659	-0.7785	-0.3241	-0.4341	-0.7322	0.1447	-0.573	-0.0926	0.5325	-0.0926	0.7929	-0.3241	0.2084	0.4051	-0.2691	0.4514	-0.8971	3.5161	-0.2923
-0.408	-0.2923	-0.6685	-0.5093	-0.4283	-0.7466	-0.3299	-0.4167	-0.7177	0.1418	-0.5672	-0.0955	0.4891	-0.0984	0.5643	-0.2576	0.2084	0.3878	-0.2778	0.437	-0.8971	3.5942	-0.3154
-0.3617	-0.2344	-0.6367	-0.4746	-0.4196	-0.7466	-0.3039	-0.4457	-0.7408	0.1302	-0.5933	-0.0897	0.4572	-0.0868	0.356	-0.1476	0.1939	0.3357	-0.3096	0.4196	-0.9463	3.655	-0.3096
-0.3386	-0.2431	-0.6048	-0.4543	-0.4109	-0.7235	-0.3212	-0.4659	-0.7437	0.0926	-0.599	-0.1187	0.4196	-0.0868	0.1621	-0.0318	0.1852	0.2576	-0.3415	0.3849	-0.9839	3.7476	-0.3357
-0.3386	-0.1881	-0.5875	-0.4254	-0.4225	-0.7206	-0.3096	-0.4862	-0.7524	0.0608	-0.6193	-0.1331	0.3415	-0.0723	-0.0579	0.11	0.1592	0.1997	-0.3791	0.3675	-1.01	3.8865	-0.356
-0.3357	-0.1968	-0.5904	-0.4254	-0.4283	-0.7003	-0.3154	-0.5035	-0.7871	0.0434	-0.654	-0.165	0.2865	-0.0695	-0.2576	0.2547	0.1447	0.1187	-0.4051	0.3154	-1.0736	4.0775	-0.3531
-0.3617	-0.2315	-0.628	-0.4283	-0.4457	-0.7206	-0.3617	-0.5672	-0.7929	0.0203	-0.7119	-0.2055	0.2113	-0.055	-0.4717	0.3849	0.1244	0.0463	-0.4746	0.246	-1.0939	4.3061	-0.3617
-0.408	-0.2286	-0.6396	-0.4399	-0.4717	-0.7235	-0.3965	-0.5643	-0.8016	-0.0608	-0.7379	-0.2518	0.1331	-0.0434	-0.6569	0.5267	0.0926	-0.0347	-0.4978	0.2055	-1.1662	4.5897	-0.3617
-0.4283	-0.2373	-0.6424	-0.4486	-0.4746	-0.7119	-0.4138	-0.6048	-0.819	-0.0955	-0.7727	-0.2865	0.0521	-0.0318	-0.7611	0.6569	0.0637	-0.1187	-0.5267	0.1389	-1.1807	4.8704	-0.3733
-0.4746	-0.2576	-0.6598	-0.463	-0.4891	-0.7351	-0.4399	-0.6193	-0.8566	-0.1331	-0.7871	-0.3357	-0.0174	-0.026	-0.8682	0.7871	0.0463	-0.191	-0.573	0.081	-1.2415	5.1743	-0.3617
-0.4891	-0.2373	-0.6685	-0.4572	-0.4833	-0.7408	-0.4659	-0.6511	-0.874	-0.1765	-0.8421	-0.382	-0.0926	-0.0203	-0.9029	0.8884	0.0463	-0.272	-0.6135	0.0145	-1.2849	5.4521	-0.3241
-0.5383	-0.2778	-0.683	-0.492	-0.4862	-0.7698	-0.4978	-0.6656	-0.8884	-0.2431	-0.8682	-0.4572	-0.1794	-0.0318	-0.9376	0.9781	0.055	-0.3646	-0.6511	-0.0463	-1.3023	5.7155	-0.3183
-0.518	-0.2344	-0.6859	-0.4688	-0.4775	-0.7524	-0.5006	-0.6656	-0.8913	-0.2836	-0.8826	-0.463	-0.272	-0.0463	-0.9608	1.0418	0.0897	-0.4341	-0.6859	-0.1129	-1.2936	5.9499	-0.301
-0.5354	-0.2113	-0.6859	-0.4688	-0.4775	-0.7351	-0.5209	-0.6656	-0.8913	-0.3125	-0.8797	-0.4891	-0.3241	-0.0637	-0.9752	1.0592	0.1158	-0.5064	-0.6888	-0.1621	-1.3109	6.164	-0.2691
-0.5209	-0.1968	-0.6916	-0.4775	-0.4659	-0.7379	-0.5383	-0.6511	-0.8884	-0.3357	-0.8769	-0.5383	-0.3878	-0.0781	-0.9926	1.0736	0.165	-0.5614	-0.7032	-0.2286	-1.3023	6.3348	-0.2576
-0.5006	-0.1765	-0.683	-0.4659	-0.4312	-0.7437	-0.5325	-0.6164	-0.8971	-0.3733	-0.8479	-0.5556	-0.4457	-0.0926	-0.9695	1.0331	0.2026	-0.5933	-0.6656	-0.2576	-1.282	6.4679	-0.2228
-0.4717	-0.1013	-0.6309	-0.4225	-0.4051	-0.7351	-0.5267	-0.5817	-0.874	-0.3907	-0.8219	-0.5875	-0.5093	-0.1042	-0.9087	1.0215	0.2141	-0.6077	-0.6251	-0.2981	-1.2212	6.5576	-0.2402
-0.4283	-0.0434	-0.5961	-0.3733	-0.3415	-0.7032	-0.518	-0.5441	-0.8421	-0.3936	-0.7987	-0.5846	-0.5383	-0.11	-0.845	0.9666	0.2344	-0.6396	-0.5527	-0.3068	-1.1778	6.6068	-0.2373
-0.3849	0.0087	-0.573	-0.3328	-0.3039	-0.7032	-0.5006	-0.4804	-0.8248	-0.4138	-0.7582	-0.5846	-0.5788	-0.11	-0.7177	0.9174	0.2257	-0.6338	-0.4833	-0.2981	-1.0939	6.6299	-0.2344
-0.327	0.0723	-0.5325	-0.2778	-0.2633	-0.6714	-0.4688	-0.4486	-0.7958	-0.3994	-0.7177	-0.6019	-0.6135	-0.1013	-0.5643	0.8797	0.2228	-0.6106	-0.4514	-0.2981	-1.0187	6.6357	-0.246
-0.301	0.1244	-0.5122	-0.217	-0.2257	-0.6974	-0.4486	-0.4138	-0.7929	-0.3994	-0.6916	-0.6048	-0.6396	-0.0926	-0.3617	0.8248	0.2055	-0.6077	-0.3588	-0.2836	-0.9579	6.6386	-0.2633
-0.2662	0.1881	-0.4746	-0.165	-0.2026	-0.6859	-0.437	-0.3704	-0.8045	-0.4312	-0.6396	-0.6106	-0.6801	-0.0984	-0.1939	0.7669	0.1997	-0.5961	-0.3096	-0.3068	-0.8624	6.6473	-0.2662
-0.1997	0.2402	-0.4399	-0.1042	-0.165	-0.6743	-0.4138	-0.3183	-0.7756	-0.4138	-0.6164	-0.6222	-0.6743	-0.0666	0.0579	0.7061	0.1447	-0.5585	-0.2141	-0.2489	-0.7437	6.6849	-0.2691
-0.1794	0.2836	-0.4254	-0.0463	-0.1273	-0.6569	-0.3646	-0.2547	-0.7495	-0.4138	-0.5643	-0.6367	-0.6945	-0.055	0.2315	0.6424	0.1215	-0.5469	-0.136	-0.2286	-0.6396	6.7428	-0.2894
-0.1592	0.2981	-0.3965	-0.0145	-0.1013	-0.6743	-0.3588	-0.2199	-0.7061	-0.4023	-0.5151	-0.6482	-0.7061	-0.0463	0.4399	0.5904	0.1042	-0.4862	-0.0405	-0.217	-0.518	6.8152	-0.3212
-0.1563	0.3299	-0.382	0.0521	-0.1013	-0.6598	-0.3154	-0.1852	-0.6916	-0.3791	-0.4601	-0.6396	-0.6656	-0.0376	0.6019	0.5643	0.0839	-0.4428	0.0637	-0.165	-0.3791	6.902	-0.3299
-0.1505	0.3473	-0.3733	0.0781	-0.0637	-0.6569	-0.3212	-0.1302	-0.6888	-0.3994	-0.4225	-0.6193	-0.7003	-0.0347	0.7437	0.5209	0.0926	-0.3907	0.1765	-0.1447	-0.2489	6.9946	-0.3849
-0.1244	0.3646	-0.3473	0.1331	-0.0521	-0.6453	-0.301	-0.1013	-0.6309	-0.3994	-0.3646	-0.6106	-0.7061	-0.0492	0.8942	0.5064	0.1129	-0.3762	0.2836	-0.1071	-0.0955	7.0872	-0.4254
-0.1302	0.382	-0.3473	0.1447	-0.0232	-0.6251	-0.2691	-0.0434	-0.6019	-0.3646	-0.2981	-0.6019	-0.6916	-0.0521	1.0042	0.4543	0.136	-0.3415	0.3994	-0.0839	0.0752	7.1856	-0.492
-0.1505	0.356	-0.3154	0.1852	-0.026	-0.6251	-0.2576	-0.0174	-0.5672	-0.3733	-0.2662	-0.5788	-0.6888	-0.0868	1.1055	0.4341	0.1765	-0.3328	0.5441	-0.0752	0.2344	7.2608	-0.5672
-0.1244	0.382	-0.2836	0.2055	0	-0.6019	-0.2431	0.0289	-0.5469	-0.3762	-0.2026	-0.573	-0.7003	-0.1071	1.1807	0.437	0.2315	-0.3068	0.6482	-0.0434	0.3791	7.2955	-0.6453
-0.1418	0.3588	-0.2894	0.2055	-0.0145	-0.5961	-0.2431	0.0492	-0.518	-0.3733	-0.1592	-0.5556	-0.7032	-0.1534	1.2531	0.408	0.3212	-0.2691	0.7351	-0.0521	0.5296	7.2984	-0.7582
-0.1302	0.3531	-0.2576	0.2286	0	-0.5846	-0.2547	0.0752	-0.5093	-0.4023	-0.1187	-0.5614	-0.7032	-0.2026	1.3052	0.3704	0.4051	-0.2807	0.8595	-0.0463	0.6974	7.2811	-0.819
-0.0897	0.3762	-0.2141	0.2807	0.0174	-0.5643	-0.217	0.1013	-0.463	-0.3965	-0.0608	-0.5441	-0.6859	-0.246	1.3746	0.3617	0.5035	-0.2633	0.9666	-0.0463	0.8508	7.2261	-0.9087
-0.1013	0.3849	-0.2084	0.2836	0.0318	-0.5238	-0.2315	0.1215	-0.4051	-0.3936	0	-0.5296	-0.6945	-0.3125	1.3978	0.3617	0.5961	-0.2402	1.0968	-0.0463	0.9955	7.148	-0.9955
-0.0926	0.356	-0.1765	0.3068	0.0405	-0.5122	-0.217	0.1534	-0.3878	-0.3936	0.0347	-0.5151	-0.6859	-0.3531	1.447	0.408	0.6974	-0.2228	1.1952	-0.0608	1.1518	7.064	-1.1142
-0.0752	0.3444	-0.1621	0.2981	0.0145	-0.4833	-0.2431	0.1563	-0.3936	-0.4051	0.0897	-0.5064	-0.6685	-0.3849	1.4788	0.408	0.7929	-0.1881	1.2994	-0.0521	1.2965	6.9598	-1.1894
-0.0984	0.3096	-0.1707	0.3039	0.0145	-0.4949	-0.2633	0.1794	-0.3791	-0.4225	0.1187	-0.492	-0.6974	-0.4428	1.5164	0.4486	0.8913	-0.2055	1.3949	-0.081	1.4643	6.8412	-1.2675
-0.081	0.2952	-0.1592	0.3183	0.0232	-0.4833	-0.2807	0.1794	-0.3704	-0.4428	0.1794	-0.4949	-0.709	-0.4949	1.499	0.4775	0.9839	-0.2084	1.499	-0.1244	1.5801	6.7457	-1.3659
-0.0723	0.2807	-0.1476	0.2981	-0.0145	-0.4891	-0.2836	0.1881	-0.3617	-0.4746	0.1997	-0.5151	-0.7235	-0.5441	1.5135	0.5354	1.0765	-0.2286	1.6061	-0.1707	1.7219	6.6184	-1.4383
-0.0868	0.2315	-0.1678	0.2749	-0.026	-0.4978	-0.3357	0.1881	-0.382	-0.5064	0.2084	-0.5267	-0.7524	-0.5904	1.4643	0.5614	1.1807	-0.2662	1.6929	-0.217	1.8434	6.5229	-1.5251
-0.1013	0.2402	-0.1505	0.2576	-0.0463	-0.4949	-0.3473	0.1968	-0.3936	-0.5441	0.2315	-0.5643	-0.7669	-0.6309	1.4527	0.6164	1.282	-0.2894	1.7537	-0.2894	1.9708	6.4042	-1.5859
-0.0868	0.2286	-0.1707	0.2576	-0.081	-0.4804	-0.4023	0.1997	-0.3994	-0.5817	0.2749	-0.5585	-0.7929	-0.683	1.3978	0.6511	1.3659	-0.3386	1.855	-0.3444	2.0923	6.3174	-1.6582
-0.1129	0.2373	-0.136	0.2489	-0.0347	-0.4978	-0.4167	0.217	-0.4023	-0.6164	0.3125	-0.573	-0.8161	-0.7293	1.3717	0.6685	1.4498	-0.356	1.9563	-0.3907	2.2081	6.2219	-1.7132
-0.0897	0.2315	-0.1621	0.2199	-0.0405	-0.4486	-0.4341	0.246	-0.3762	-0.654	0.3415	-0.5875	-0.8363	-0.7727	1.2617	0.6627	1.5367	-0.3849	1.9968	-0.408	2.318	6.1264	-1.7479
-0.0579	0.2286	-0.1302	0.2373	-0.0434	-0.4254	-0.4572	0.2749	-0.3733	-0.6656	0.4225	-0.5759	-0.8797	-0.8074	1.1865	0.6656	1.6206	-0.4514	2.0807	-0.4862	2.428	6.028	-1.8058
-0.0608	0.2373	-0.11	0.2199	-0.0145	-0.4341	-0.4833	0.2662	-0.3791	-0.7322	0.4051	-0.6019	-0.9	-0.8595	1.0707	0.628	1.7132	-0.4688	2.127	-0.5035	2.5032	5.9007	-1.8376
-0.026	0.272	-0.1071	0.2431	0	-0.3994	-0.4804	0.2865	-0.3936	-0.7582	0.4543	-0.5961	-0.9347	-0.8971	0.9752	0.6135	1.7913	-0.5325	2.1502	-0.5614	2.5785	5.7618	-1.8608
-0.0029	0.2923	-0.081	0.217	0.026	-0.3704	-0.5325	0.3154	-0.382	-0.7727	0.4717	-0.6338	-0.9984	-0.9463	0.8595	0.573	1.8839	-0.5846	2.1936	-0.6251	2.645	5.6113	-1.8897
0.0116	0.3096	-0.0666	0.2026	0.0405	-0.3791	-0.573	0.3154	-0.3907	-0.8306	0.4833	-0.6598	-1.036	-0.9926	0.7408	0.5354	1.9563	-0.6309	2.2283	-0.6801	2.6971	5.4203	-1.8984
0.0463	0.3444	-0.026	0.217	0.0608	-0.3502	-0.5961	0.3299	-0.3762	-0.8624	0.5006	-0.6453	-1.0852	-1.0244	0.6974	0.4659	2.0286	-0.654	2.2196	-0.7322	2.7579	5.2148	-1.936
0.1215	0.3994	0.026	0.2228	0.1187	-0.2894	-0.6077	0.3646	-0.3907	-0.8797	0.5093	-0.6569	-1.1084	-1.0331	0.6482	0.408	2.0663	-0.6916	2.2659	-0.7582	2.7868	5.0036	-1.9158
0.1563	0.4601	0.0695	0.2113	0.1505	-0.2894	-0.628	0.3733	-0.3936	-0.9434	0.4978	-0.6916	-1.172	-1.0736	0.6135	0.3154	2.1183	-0.7351	2.2572	-0.8103	2.7695	4.8039	-1.9331
0.1678	0.4746	0.1158	0.1823	0.1505	-0.2489	-0.6598	0.3617	-0.4023	-0.9926	0.4775	-0.7553	-1.2386	-1.0881	0.5875	0.1997	2.1675	-0.7698	2.2515	-0.845	2.7579	4.5666	-1.9158
0.2199	0.5267	0.1476	0.1881	0.2026	-0.2055	-0.6598	0.382	-0.4051	-1.0302	0.4978	-0.7756	-1.2994	-1.0881	0.654	0.1042	2.1762	-0.8103	2.2746	-0.8797	2.7579	4.3553	-1.9273
0.2315	0.573	0.2055	0.1447	0.2286	-0.1852	-0.7119	0.3762	-0.4341	-1.065	0.4543	-0.8334	-1.3572	-1.0968	0.683	-0.0232	2.1936	-0.8306	2.2457	-0.9261	2.729	4.1151	-1.8984
0.2662	0.5759	0.2257	0.1331	0.2431	-0.1678	-0.7408	0.3849	-0.4486	-1.1315	0.4254	-0.8769	-1.4209	-1.1055	0.7842	-0.0897	2.1936	-0.8537	2.2746	-0.9463	2.7116	3.8807	-1.8579
0.3183	0.6396	0.2807	0.1389	0.2836	-0.1331	-0.7524	0.4051	-0.4717	-1.146	0.4051	-0.9116	-1.4672	-1.0939	0.8682	-0.1678	2.1762	-0.8537	2.2225	-0.9376	2.6855	3.6579	-1.8058
0.3502	0.6453	0.3125	0.136	0.3154	-0.1013	-0.7669	0.4023	-0.5151	-1.201	0.3531	-0.9926	-1.5482	-1.0707	0.9347	-0.217	2.1473	-0.8682	2.1704	-0.9492	2.6132	3.4756	-1.7826
0.3878	0.6743	0.3704	0.1534	0.2981	-0.0839	-0.8103	0.3791	-0.5296	-1.2502	0.3125	-1.065	-1.5974	-1.0707	1.0215	-0.2547	2.0981	-0.8682	2.1415	-0.9666	2.5466	3.2962	-1.7161
0.4399	0.6859	0.3907	0.1476	0.3154	-0.0637	-0.8045	0.3473	-0.5498	-1.2849	0.2431	-1.1431	-1.6727	-1.0187	1.0707	-0.246	2.0431	-0.8855	2.0605	-0.955	2.4367	3.163	-1.6871
0.4804	0.7119	0.4312	0.1707	0.2865	-0.0318	-0.8277	0.301	-0.5933	-1.3283	0.1736	-1.1807	-1.7392	-0.9839	1.1199	-0.2344	1.965	-0.8971	1.9823	-0.9579	2.347	3.0646	-1.638
0.5151	0.6974	0.4428	0.1592	0.2576	-0.0376	-0.8566	0.2489	-0.6424	-1.392	0.0492	-1.2762	-1.8405	-0.9463	1.1344	-0.1707	1.9013	-0.9434	1.8984	-0.9752	2.2052	2.9952	-1.5945
0.5064	0.6916	0.4486	0.1736	0.2518	-0.0289	-0.8913	0.1678	-0.6974	-1.418	-0.026	-1.363	-1.9042	-0.9203	1.1576	-0.0984	1.8347	-0.9695	1.8029	-0.9752	2.0807	2.9634	-1.5309
0.5151	0.6598	0.4312	0.165	0.1736	-0.0405	-0.9058	0.1187	-0.7727	-1.473	-0.1302	-1.4846	-2.0026	-0.8769	1.1373	-0.0203	1.7595	-0.9897	1.7016	-0.9752	1.9273	2.9749	-1.4904
0.518	0.6453	0.4225	0.1765	0.136	-0.0492	-0.9058	0.0405	-0.8016	-1.4962	-0.2286	-1.5743	-2.0605	-0.8421	1.1228	0.0781	1.6814	-1.0013	1.583	-0.955	1.7942	2.9952	-1.4383
0.5296	0.6511	0.4486	0.2113	0.1071	-0.0463	-0.9116	-0.0203	-0.8537	-1.5077	-0.327	-1.6466	-2.1183	-0.8074	1.1315	0.2286	1.6032	-1.01	1.4846	-0.9203	1.6322	3.0328	-1.3949
0.5643	0.6193	0.4138	0.2315	0.081	-0.0434	-0.8711	-0.0666	-0.8913	-1.5048	-0.3936	-1.7277	-2.1415	-0.7582	1.1199	0.3878	1.5222	-1.0013	1.3659	-0.8942	1.4962	3.0965	-1.3225
0.5527	0.6019	0.4196	0.2662	0.0492	-0.0145	-0.8797	-0.1158	-0.9	-1.4904	-0.4862	-1.7769	-2.1704	-0.7264	1.1547	0.5933	1.447	-0.9955	1.2878	-0.8363	1.3688	3.1312	-1.2878
0.6019	0.5585	0.4138	0.2778	0.0145	0	-0.8653	-0.165	-0.9434	-1.4701	-0.5759	-1.8318	-2.1878	-0.6859	1.1691	0.7756	1.3833	-0.9376	1.1923	-0.7929	1.227	3.1833	-1.2241
0.6048	0.5441	0.4399	0.3328	-0.026	0.0203	-0.8219	-0.191	-0.9289	-1.447	-0.6193	-1.8781	-2.2138	-0.6367	1.2154	0.9868	1.2936	-0.9347	1.1055	-0.7293	1.1113	3.247	-1.1778
0.6338	0.5325	0.4051	0.3531	-0.0608	0.026	-0.8074	-0.2633	-0.9492	-1.4122	-0.683	-1.9216	-2.1965	-0.6077	1.2965	1.2241	1.2097	-0.9	1.0534	-0.6714	1.0013	3.2991	-1.1228
0.6251	0.4891	0.4225	0.4051	-0.1013	0.0579	-0.7177	-0.2633	-0.9492	-1.3572	-0.7293	-1.9476	-2.1936	-0.5672	1.3949	1.4441	1.1373	-0.8797	0.9955	-0.6077	0.9174	3.3338	-1.0881
0.6656	0.492	0.4543	0.4457	-0.0955	0.0695	-0.6859	-0.3039	-0.9463	-1.3109	-0.7871	-1.9534	-2.1502	-0.5354	1.554	1.6698	1.065	-0.8508	0.9637	-0.5441	0.8566	3.3483	-1.0273
0.6945	0.4775	0.4428	0.4862	-0.1215	0.0752	-0.6453	-0.3328	-0.9347	-1.2617	-0.8103	-1.9794	-2.1183	-0.5035	1.7016	1.9042	1.0071	-0.8248	0.9232	-0.4746	0.7871	3.3483	-0.9926
0.7177	0.4775	0.4601	0.518	-0.1215	0.1244	-0.599	-0.3039	-0.9087	-1.1778	-0.8074	-1.9736	-2.0576	-0.4833	1.8897	2.1154	0.9579	-0.7814	0.9289	-0.408	0.7293	3.3048	-0.9695
0.7466	0.4775	0.4601	0.5383	-0.1476	0.1215	-0.5643	-0.3096	-0.9174	-1.1315	-0.8392	-1.9765	-2.0055	-0.463	2.0894	2.3556	0.9261	-0.7408	0.9405	-0.3531	0.6974	3.2614	-0.9116
0.7958	0.5093	0.5006	0.5788	-0.1302	0.1765	-0.4688	-0.3039	-0.8884	-1.0534	-0.8392	-1.9563	-1.9447	-0.4341	2.2428	2.5409	0.8913	-0.6916	1.0071	-0.2749	0.7235	3.2036	-0.8826
0.8103	0.5064	0.5209	0.599	-0.11	0.2199	-0.4341	-0.2749	-0.8392	-0.9579	-0.7871	-1.9302	-1.8724	-0.4341	2.4106	2.7087	0.874	-0.6424	1.0736	-0.2141	0.7437	3.1457	-0.8306
0.8653	0.5759	0.5614	0.6396	-0.0752	0.2489	-0.3704	-0.2286	-0.7987	-0.8711	-0.7669	-1.8955	-1.7942	-0.4225	2.564	2.9171	0.8421	-0.5672	1.1199	-0.1273	0.7987	3.0878	-0.8016
0.9116	0.6048	0.5904	0.6772	-0.0579	0.2605	-0.3039	-0.217	-0.7727	-0.7785	-0.7148	-1.8318	-1.6987	-0.4196	2.6479	3.027	0.8277	-0.4746	1.2299	-0.0463	0.8711	3.0415	-0.7785
0.9521	0.6077	0.6251	0.6627	-0.0145	0.3096	-0.246	-0.1678	-0.7264	-0.6945	-0.6685	-1.8	-1.6061	-0.3965	2.6769	3.111	0.8248	-0.3936	1.2907	0.0174	0.9434	3.0183	-0.7351
0.9781	0.6424	0.6627	0.6801	0.0029	0.3415	-0.217	-0.136	-0.6888	-0.6164	-0.6077	-1.7277	-1.4817	-0.4138	2.6913	3.1746	0.8334	-0.3125	1.3312	0.0984	1.0187	2.9923	-0.6859
1.0158	0.6743	0.6916	0.6859	0.0434	0.3473	-0.1852	-0.0839	-0.6743	-0.5354	-0.5469	-1.664	-1.3862	-0.4341	2.6711	3.218	0.8624	-0.2257	1.4209	0.136	1.0939	2.9286	-0.6598
1.0418	0.7032	0.7148	0.7177	0.0579	0.3704	-0.1505	-0.0289	-0.6338	-0.4833	-0.4891	-1.609	-1.2849	-0.4428	2.6421	3.2614	0.8855	-0.1563	1.5048	0.2055	1.1778	2.8563	-0.6222
1.0997	0.7351	0.709	0.7032	0.0984	0.3675	-0.1129	-0.0058	-0.5961	-0.3878	-0.4225	-1.5569	-1.2183	-0.4601	2.5524	3.2759	0.9145	-0.0521	1.554	0.2489	1.2617	2.7521	-0.599
1.1344	0.7553	0.7495	0.6656	0.1389	0.3704	-0.0868	0.0579	-0.5846	-0.3531	-0.3444	-1.499	-1.1055	-0.4775	2.4772	3.3193	0.955	0.0058	1.6061	0.2894	1.3196	2.5785	-0.5412
1.1691	0.7814	0.7842	0.6743	0.1707	0.3675	-0.0723	0.1129	-0.5412	-0.3096	-0.272	-1.4585	-1.036	-0.4949	2.3672	3.3569	0.9839	0.0637	1.6756	0.3212	1.4267	2.3672	-0.5296
1.2299	0.8479	0.8161	0.6801	0.2257	0.3965	-0.055	0.1678	-0.5325	-0.2489	-0.1823	-1.3978	-0.9608	-0.4833	2.2341	3.3569	0.981	0.1447	1.7537	0.356	1.5077	2.1357	-0.4804
1.2878	0.8826	0.8566	0.6801	0.2691	0.4023	-0.0318	0.2228	-0.5209	-0.191	-0.1071	-1.363	-0.8682	-0.4949	2.1241	3.3338	0.9926	0.1621	1.8	0.3849	1.6032	1.8666	-0.4399
1.3399	0.9174	0.8855	0.6974	0.3068	0.3762	-0.0116	0.2981	-0.4804	-0.165	-0.026	-1.3138	-0.8016	-0.4949	2.0055	3.2962	0.9955	0.2344	1.8434	0.4023	1.7074	1.5859	-0.3936
1.3862	0.9897	0.9145	0.7032	0.3386	0.3994	0.0289	0.3386	-0.4543	-0.165	0.0232	-1.2704	-0.7553	-0.5035	1.855	3.2065	0.9955	0.2778	1.8868	0.3907	1.774	1.308	-0.3531
1.4296	1.0187	0.9608	0.7351	0.3878	0.3878	0.0492	0.4023	-0.4514	-0.1042	0.1042	-1.2299	-0.709	-0.4978	1.7306	3.1081	0.9926	0.3154	1.9129	0.4225	1.8203	1.0621	-0.3212
1.4962	1.0563	0.9781	0.7495	0.4167	0.3965	0.0781	0.4572	-0.4341	-0.0839	0.1678	-1.2068	-0.6685	-0.4891	1.5656	2.9489	0.9781	0.3444	1.9244	0.4312	1.91	0.8508	-0.2749
1.5135	1.0823	1.0129	0.7987	0.4399	0.3733	0.0723	0.4891	-0.4428	-0.0897	0.2055	-1.2125	-0.628	-0.4804	1.4383	2.7637	0.9579	0.3646	1.91	0.4341	1.9418	0.6656	-0.2431
1.554	1.0823	1.0447	0.8074	0.4514	0.3704	0.1273	0.5035	-0.4601	-0.0492	0.2315	-1.2039	-0.6135	-0.4717	1.3341	2.564	0.9405	0.3907	1.9331	0.4457	1.9852	0.5064	-0.2228
1.609	1.1431	1.0881	0.8826	0.5035	0.3617	0.1678	0.5441	-0.4312	-0.0203	0.272	-1.1778	-0.6164	-0.4543	1.2212	2.3151	0.9087	0.4138	1.9476	0.4804	2.0315	0.4225	-0.217
1.6466	1.1547	1.1055	0.9087	0.5064	0.3849	0.1881	0.5817	-0.437	-0.0203	0.301	-1.1923	-0.6193	-0.4399	1.1894	2.0576	0.8711	0.382	1.9389	0.4688	2.072	0.3849	-0.2228
1.6814	1.2039	1.1518	0.9955	0.5498	0.3704	0.2113	0.6077	-0.4283	-0.0174	0.3444	-1.1778	-0.5961	-0.3994	1.1257	1.8	0.8161	0.4051	1.9621	0.4688	2.1154	0.3907	-0.2257
1.7045	1.2097	1.1836	1.0071	0.6164	0.3994	0.2431	0.6338	-0.4312	-0.0145	0.3965	-1.1894	-0.6164	-0.3878	1.1315	1.5396	0.7698	0.4051	1.9447	0.4428	2.1328	0.4688	-0.2344
1.7248	1.2502	1.1865	1.0997	0.6251	0.4051	0.2923	0.6859	-0.4196	-0.0174	0.4196	-1.1894	-0.6048	-0.3531	1.1518	1.2878	0.7119	0.4254	1.9505	0.4543	2.1617	0.5904	-0.2518
1.7479	1.256	1.2241	1.1199	0.654	0.4225	0.2981	0.7177	-0.4138	0.0058	0.437	-1.1691	-0.6164	-0.3183	1.2154	1.0852	0.6396	0.4196	1.9679	0.4804	2.2023	0.7611	-0.2836
1.7595	1.2878	1.2299	1.1778	0.6772	0.437	0.3299	0.7235	-0.4254	0.0087	0.4746	-1.1778	-0.6222	-0.2749	1.2675	0.9492	0.5556	0.4399	1.965	0.492	2.2428	0.955	-0.2923
1.7682	1.2936	1.2415	1.2039	0.7003	0.4225	0.3588	0.7611	-0.4254	-0.0289	0.4891	-1.1836	-0.6511	-0.2373	1.4035	0.8277	0.4717	0.4688	1.9534	0.5093	2.2746	1.1605	-0.3039
1.7219	1.2646	1.2154	1.1836	0.6859	0.382	0.3212	0.7553	-0.4775	-0.0695	0.4862	-1.2097	-0.7003	-0.2084	1.5396	0.7582	0.4138	0.4688	1.9534	0.4804	2.2978	1.3746	-0.3241
1.6958	1.2646	1.1605	1.2154	0.6511	0.3357	0.3039	0.7177	-0.5035	-0.1158	0.492	-1.2791	-0.7379	-0.1736	1.6814	0.7032	0.3415	0.4833	1.936	0.5122	2.3064	1.6003	-0.3125
1.6553	1.227	1.0881	1.1778	0.6193	0.2865	0.2691	0.7032	-0.5846	-0.1765	0.4862	-1.2878	-0.7669	-0.1389	1.8666	0.6801	0.2749	0.4891	1.9331	0.5151	2.318	1.8318	-0.3212
1.5656	1.1836	1.0158	1.1749	0.573	0.2228	0.2113	0.709	-0.6222	-0.2315	0.4949	-1.2965	-0.8132	-0.0984	2.0431	0.7206	0.2026	0.5354	1.9244	0.5267	2.3788	2.0315	-0.3068
1.4962	1.0881	0.8971	1.0823	0.492	0.11	0.1302	0.6569	-0.7032	-0.3241	0.4688	-1.3804	-0.8884	-0.0781	2.2023	0.7206	0.1563	0.5469	1.8868	0.5122	2.3788	2.2659	-0.301
1.3775	1.0042	0.7727	1.0129	0.4167	-0.0289	0.0405	0.5817	-0.7929	-0.4254	0.4601	-1.4238	-0.9695	-0.0434	2.3296	0.7264	0.0955	0.5614	1.8405	0.5296	2.3817	2.5322	-0.2981
1.2299	0.8942	0.6367	0.9116	0.3299	-0.1389	-0.055	0.5325	-0.874	-0.5035	0.4023	-1.4933	-1.0244	-0.0145	2.4251	0.7437	0.0521	0.5875	1.8087	0.5064	2.373	2.8158	-0.2605
1.0679	0.7524	0.4428	0.79	0.2055	-0.327	-0.2055	0.4457	-1.0013	-0.6482	0.3415	-1.6003	-1.1373	-0.0232	2.4917	0.7379	0.0405	0.5759	1.7421	0.4746	2.3527	3.1225	-0.2807
0.8884	0.599	0.2373	0.6338	0.081	-0.4833	-0.3386	0.3502	-1.1344	-0.7929	0.2807	-1.6756	-1.2357	0.0058	2.5148	0.7669	0.0058	0.5614	1.664	0.4543	2.2804	3.4611	-0.2344
0.6714	0.437	0.0289	0.4688	-0.0347	-0.6656	-0.5209	0.2547	-1.2704	-0.9116	0.1968	-1.7711	-1.3601	0.0145	2.5148	0.8074	0.0029	0.518	1.5945	0.3994	2.2428	3.8373	-0.2315
0.4399	0.2199	-0.2113	0.2749	-0.2055	-0.8711	-0.6888	0.1534	-1.3949	-1.0765	0.1273	-1.8724	-1.4817	0.0087	2.4945	0.8421	-0.0087	0.463	1.5048	0.3241	2.1849	4.2251	-0.217
0.1678	0.0174	-0.4428	0.0637	-0.3241	-1.0621	-0.8392	0.055	-1.528	-1.2328	0.0666	-1.9679	-1.5801	0.0029	2.4193	0.8219	-0.0116	0.4196	1.447	0.2576	2.1212	4.6303	-0.2113
-0.1129	-0.2084	-0.7032	-0.1476	-0.492	-1.2704	-1.0534	-0.0521	-1.664	-1.3775	-0.0203	-2.0663	-1.7074	0.0145	2.3788	0.8537	-0.0145	0.3444	1.3572	0.1678	2.0634	4.9978	-0.2084
-0.3965	-0.4399	-0.9637	-0.3733	-0.6251	-1.4498	-1.2328	-0.1476	-1.7884	-1.5309	-0.0781	-2.1328	-1.8174	0.0116	2.2862	0.8277	-0.0289	0.2315	1.308	0.081	2.0171	5.3682	-0.2257
-0.6801	-0.6714	-1.2125	-0.6164	-0.7611	-1.6322	-1.4064	-0.2547	-1.91	-1.6698	-0.1678	-2.2109	-1.9273	0.0347	2.1444	0.7611	-0.0434	0.1331	1.2386	-0.026	1.936	5.6692	-0.2141
-0.9521	-0.9145	-1.4383	-0.8363	-0.8826	-1.7711	-1.6148	-0.3675	-1.9997	-1.8347	-0.2026	-2.2717	-2.0315	0.0376	2.0171	0.6627	-0.0608	0.0376	1.1894	-0.1447	1.8724	5.8891	-0.2402
-1.2039	-1.1199	-1.6582	-1.0331	-0.9752	-1.9244	-1.774	-0.4543	-2.0865	-1.9302	-0.2373	-2.2978	-2.1241	0.0492	1.8637	0.5643	-0.0868	-0.0752	1.1373	-0.2518	1.8261	5.9904	-0.2315
-1.4498	-1.3023	-1.8666	-1.256	-1.0997	-2.0431	-1.9273	-0.4978	-2.1473	-2.046	-0.2691	-2.3325	-2.2167	0.0608	1.6698	0.4688	-0.1071	-0.1563	1.0621	-0.382	1.774	5.9557	-0.2286
-1.6553	-1.4701	-2.0547	-1.4064	-1.1518	-2.1212	-2.0923	-0.5354	-2.1907	-2.1386	-0.246	-2.2804	-2.2138	0.0695	1.4325	0.3849	-0.1273	-0.2633	1.0389	-0.4717	1.7537	5.7676	-0.217
-1.8434	-1.5888	-2.1849	-1.5945	-1.201	-2.2196	-2.2052	-0.5759	-2.2312	-2.2312	-0.2257	-2.2746	-2.2486	0.0666	1.1605	0.327	-0.1187	-0.327	1.0215	-0.5383	1.7392	5.4145	-0.2315
-1.9708	-1.7016	-2.347	-1.7016	-1.2328	-2.2659	-2.3325	-0.5701	-2.2167	-2.2601	-0.1534	-2.1849	-2.2109	0.0868	0.8248	0.3039	-0.1244	-0.327	1.0158	-0.6077	1.7855	4.8994	-0.2228
-2.0981	-1.7826	-2.4656	-1.8521	-1.2733	-2.3441	-2.4425	-0.5585	-2.2052	-2.3267	-0.0955	-2.1126	-2.1733	0.0492	0.4891	0.3241	-0.0897	-0.3675	1.0013	-0.6859	1.7884	4.2193	-0.217
-2.1849	-1.8232	-2.5698	-1.9621	-1.2675	-2.3759	-2.5466	-0.5296	-2.1994	-2.3354	0.0347	-2.0084	-2.1183	0.0289	0.0839	0.3675	-0.0434	-0.3791	1.01	-0.7466	1.8666	3.4235	-0.2084
-2.2486	-1.8695	-2.6508	-2.101	-1.2675	-2.4251	-2.6219	-0.5209	-2.2023	-2.3527	0.1187	-1.8839	-2.0489	0	-0.2778	0.4312	0	-0.3588	1.01	-0.8016	1.936	2.5119	-0.2257
-2.3267	-1.8839	-2.755	-2.1936	-1.2936	-2.4714	-2.7174	-0.4891	-2.1849	-2.347	0.2605	-1.7595	-1.9302	-0.0232	-0.6888	0.4949	0.0434	-0.3241	1.0418	-0.8363	2.0489	1.5338	-0.2055
-2.3614	-1.91	-2.8389	-2.3093	-1.3109	-2.5235	-2.7984	-0.4659	-2.1704	-2.3585	0.3878	-1.6351	-1.8405	-0.0492	-1.0679	0.5238	0.0926	-0.246	1.0592	-0.874	2.1502	0.5006	-0.1968
-2.4251	-1.9013	-2.9228	-2.4425	-1.3167	-2.6045	-2.8939	-0.408	-2.1502	-2.3122	0.5585	-1.4672	-1.6958	-0.0752	-1.4672	0.5469	0.1302	-0.0926	1.1026	-0.8508	2.2891	-0.573	-0.1997
-2.4569	-1.91	-3.0675	-2.5466	-1.3746	-2.7029	-2.9836	-0.3878	-2.1589	-2.3267	0.6801	-1.3341	-1.5685	-0.0955	-1.8405	0.5672	0.1823	0.026	1.1228	-0.8566	2.428	-1.6582	-0.1823
-2.5061	-1.9736	-3.1746	-2.6971	-1.4007	-2.7926	-3.1023	-0.3415	-2.1617	-2.2891	0.8479	-1.1894	-1.3978	-0.1013	-2.2138	0.5556	0.191	0.2141	1.1778	-0.8363	2.59	-2.7232	-0.1707
-2.564	-1.9852	-3.3019	-2.8216	-1.4701	-2.9228	-3.1978	-0.3617	-2.2023	-2.2688	0.9579	-1.065	-1.2675	-0.1042	-2.538	0.5209	0.1939	0.408	1.1894	-0.7814	2.7434	-3.7679	-0.1447
-2.6248	-2.0663	-3.4409	-2.9894	-1.5396	-3.0733	-3.3222	-0.3675	-2.2428	-2.2775	1.0736	-0.9695	-1.0881	-0.0984	-2.8216	0.4804	0.1852	0.628	1.2125	-0.7322	2.8939	-4.7634	-0.1158
-2.7579	-2.1704	-3.6637	-3.1804	-1.7248	-3.2441	-3.4727	-0.4196	-2.3643	-2.3036	1.1749	-0.8682	-0.9926	-0.0839	-3.0675	0.408	0.165	0.8363	1.2328	-0.6916	3.0155	-5.6547	-0.1244
-2.9171	-2.2775	-3.8894	-3.3888	-1.8521	-3.464	-3.6579	-0.4833	-2.4714	-2.3499	1.2328	-0.8045	-0.874	-0.0608	-3.2846	0.2807	0.1215	1.0592	1.2183	-0.6569	3.1312	-6.4245	-0.0839
-3.082	-2.4338	-4.1238	-3.6232	-2.0228	-3.6666	-3.8229	-0.5556	-2.5756	-2.3817	1.2936	-0.7437	-0.7495	-0.0289	-3.4814	0.1476	0.0579	1.2704	1.1952	-0.6222	3.2267	-7.0727	-0.055
-3.3338	-2.6392	-4.4161	-3.8836	-2.2081	-3.9473	-4.0544	-0.683	-2.7463	-2.4945	1.3023	-0.7264	-0.7177	0	-3.6434	-0.0781	-0.0058	1.499	1.1344	-0.5875	3.2933	-7.5705	-0.0434
-3.5566	-2.8447	-4.7113	-4.1643	-2.4627	-4.2106	-4.2656	-0.8045	-2.9055	-2.5524	1.3023	-0.7437	-0.6656	0.0579	-3.7476	-0.2865	-0.11	1.7103	1.0968	-0.5556	3.3454	-7.9467	-0.0347
-3.8576	-3.1196	-5.0643	-4.4798	-2.755	-4.5232	-4.5348	-1.0042	-3.1544	-2.6653	1.2589	-0.7756	-0.6367	0.1071	-3.8489	-0.5701	-0.1881	1.9216	0.9868	-0.5296	3.383	-8.1869	-0.0232
-4.1412	-3.3888	-5.3942	-4.7663	-3.027	-4.8097	-4.7663	-1.1431	-3.3454	-2.7926	1.201	-0.8074	-0.628	0.1447	-3.8952	-0.8653	-0.2865	2.0952	0.8884	-0.5267	3.4177	-8.32	-0.0029
-4.4769	-3.6926	-5.756	-5.0672	-3.2846	-5.1106	-5.0036	-1.337	-3.5537	-2.9373	1.1778	-0.8653	-0.5788	0.1881	-3.8807	-1.2212	-0.3936	2.2862	0.7727	-0.5093	3.4264	-8.3518	0
-4.8097	-4.011	-6.1148	-5.3769	-3.6087	-5.4232	-5.2582	-1.5367	-3.7997	-3.082	1.0736	-0.955	-0.6222	0.2489	-3.872	-1.5974	-0.4891	2.4743	0.599	-0.5064	3.4032	-8.2853	-0.0029
-5.1454	-4.3322	-6.4332	-5.646	-3.8692	-5.7213	-5.5245	-1.719	-4.0052	-3.1804	0.9752	-1.0244	-0.6222	0.2952	-3.8055	-2.0055	-0.599	2.674	0.4457	-0.4833	3.4148	-8.1579	0.0058
-5.4695	-4.6563	-6.7804	-5.9036	-4.1614	-6.0106	-5.727	-1.9273	-4.2396	-3.3106	0.8855	-1.0765	-0.6309	0.3473	-3.7302	-2.4222	-0.6945	2.8505	0.2749	-0.4804	3.3425	-7.9785	-0.0058
-5.7618	-4.9573	-7.0872	-6.1438	-4.445	-6.2885	-5.9151	-2.1386	-4.4161	-3.4438	0.79	-1.1431	-0.6424	0.3936	-3.6203	-2.8794	-0.79	2.9778	0.0897	-0.4659	3.3048	-7.7412	-0.0232
-6.0396	-5.238	-7.3534	-6.3203	-4.6766	-6.5316	-6.109	-2.3007	-4.6158	-3.5335	0.7003	-1.2068	-0.6627	0.437	-3.4987	-3.3251	-0.8826	3.1428	-0.0521	-0.463	3.2499	-7.4981	-0.0289
-6.3348	-5.5332	-7.5965	-6.4939	-4.9081	-6.7602	-6.2508	-2.4569	-4.7807	-3.6203	0.6164	-1.2704	-0.6338	0.4891	-3.3656	-3.7476	-0.9608	3.2759	-0.2257	-0.4543	3.2267	-7.2261	-0.0637
-6.5605	-5.7965	-7.8222	-6.6531	-5.1425	-6.9714	-6.3521	-2.6306	-4.9399	-3.7129	0.5296	-1.3052	-0.6511	0.5209	-3.2383	-4.147	-1.0158	3.3656	-0.3733	-0.4601	3.1804	-6.9714	-0.0781
-6.7573	-6.0512	-8.0045	-6.7573	-5.3016	-7.1248	-6.4476	-2.7434	-5.0296	-3.7389	0.463	-1.3138	-0.6367	0.5672	-3.1196	-4.4885	-1.0939	3.5045	-0.5209	-0.4428	3.1167	-6.7168	-0.1071
-6.9078	-6.2393	-8.0885	-6.8123	-5.4492	-7.2521	-6.4939	-2.8476	-5.1049	-3.7621	0.4138	-1.3341	-0.6106	0.5817	-3.0126	-4.7402	-1.1489	3.5711	-0.6222	-0.4688	3.0965	-6.5055	-0.1418
-7.0496	-6.3955	-8.2071	-6.8094	-5.5563	-7.3418	-6.5055	-2.9489	-5.1627	-3.7852	0.356	-1.3515	-0.5788	0.5904	-2.9547	-4.9659	-1.1691	3.6376	-0.7582	-0.463	3.0444	-6.3087	-0.1881
-7.1624	-6.5142	-8.2216	-6.7862	-5.62	-7.4142	-6.4939	-2.9605	-5.1859	-3.7766	0.3444	-1.308	-0.5354	0.6019	-2.8765	-5.0962	-1.1865	3.6695	-0.7987	-0.4572	3.0386	-6.1698	-0.2141
-7.1798	-6.5923	-8.2129	-6.7283	-5.6894	-7.4316	-6.4476	-3.0241	-5.1714	-3.7476	0.3096	-1.2994	-0.5209	0.5961	-2.8187	-5.1338	-1.1662	3.6637	-0.8653	-0.4543	3.0328	-6.0743	-0.2778
-7.1769	-6.6444	-8.1261	-6.6328	-5.6576	-7.3939	-6.3695	-3.0299	-5.1135	-3.7013	0.2691	-1.2531	-0.4717	0.5585	-2.7463	-5.0643	-1.1199	3.6376	-0.8942	-0.5093	3.0415	-6.0512	-0.3299
-7.0988	-6.6068	-8.0074	-6.4824	-5.6315	-7.3303	-6.2508	-3.0299	-5.0499	-3.6319	0.301	-1.1952	-0.4486	0.5412	-2.6508	-4.8647	-1.0707	3.574	-0.9058	-0.5325	3.0618	-6.1004	-0.4109
-7.009	-6.546	-7.857	-6.3087	-5.5332	-7.2319	-6.1033	-2.9576	-4.9341	-3.5624	0.3415	-1.146	-0.408	0.5093	-2.5409	-4.6187	-0.9897	3.4756	-0.845	-0.5585	3.0762	-6.219	-0.4688
-6.8644	-6.4592	-7.6833	-6.1467	-5.429	-7.0988	-5.9672	-2.9084	-4.8184	-3.4901	0.3415	-1.0765	-0.3762	0.4457	-2.4222	-4.3032	-0.8884	3.3483	-0.8277	-0.6482	3.1196	-6.3984	-0.5296
-6.6849	-6.3174	-7.4402	-5.9383	-5.2901	-6.928	-5.7762	-2.8476	-4.6939	-3.4148	0.382	-1.036	-0.3415	0.3965	-2.3093	-3.9126	-0.7698	3.1949	-0.7756	-0.7003	3.1862	-6.6502	-0.5904
-6.4679	-6.1206	-7.1769	-5.701	-5.1309	-6.7312	-5.5997	-2.7492	-4.5463	-3.3367	0.4023	-0.9897	-0.3183	0.3183	-2.1849	-3.4901	-0.6511	2.9691	-0.6945	-0.7814	3.2296	-6.9251	-0.6424
-6.2479	-5.9065	-6.9107	-5.4608	-4.9457	-6.546	-5.4087	-2.6392	-4.4277	-3.2585	0.4572	-0.9666	-0.3502	0.2576	-2.0431	-3.0589	-0.5267	2.7261	-0.5817	-0.8971	3.2875	-7.2435	-0.7032
-5.9991	-5.6721	-6.6097	-5.2322	-4.7692	-6.3261	-5.209	-2.5235	-4.2685	-3.192	0.4572	-0.9232	-0.3675	0.2113	-1.9071	-2.6364	-0.3965	2.4888	-0.4688	-0.9724	3.3454	-7.5531	-0.7669
-5.7126	-5.4174	-6.2827	-5.0094	-4.5579	-6.1004	-5.047	-2.4367	-4.147	-3.1544	0.4543	-0.9203	-0.437	0.1244	-1.7421	-2.1878	-0.2691	2.1502	-0.382	-1.1026	3.3801	-7.8859	-0.8248
-5.4579	-5.1454	-5.9672	-4.7663	-4.3206	-5.8688	-4.8589	-2.3354	-3.982	-3.0878	0.4775	-0.9232	-0.4891	0.0637	-1.6148	-1.7653	-0.1302	1.8376	-0.2633	-1.256	3.4351	-8.2187	-0.8797
-5.1541	-4.8618	-5.646	-4.5521	-4.1412	-5.6258	-4.691	-2.2283	-3.8547	-3.056	0.463	-0.9666	-0.5788	0	-1.5048	-1.392	0.0116	1.4672	-0.1273	-1.3659	3.4669	-8.5515	-0.9521
-4.8531	-4.5521	-5.2495	-4.2888	-3.9039	-5.3595	-4.5029	-2.1212	-3.7042	-2.9749	0.4833	-0.9492	-0.6396	-0.0666	-1.3746	-0.9955	0.136	1.0881	0.0347	-1.4875	3.5161	-8.9132	-0.9868
-4.5261	-4.254	-4.9486	-4.0862	-3.7042	-5.1425	-4.338	-2.0228	-3.6174	-2.9749	0.4399	-1.0129	-0.8103	-0.1389	-1.2704	-0.6569	0.3039	0.6916	0.1621	-1.6611	3.519	-9.2837	-1.0592
-4.2164	-3.9589	-4.6071	-3.8634	-3.5045	-4.9081	-4.1846	-1.9679	-3.4872	-2.9576	0.3617	-1.0823	-0.9289	-0.2228	-1.1228	-0.3473	0.4746	0.2547	0.2749	-1.8203	3.4987	-9.6483	-1.0997
-3.8663	-3.6232	-4.228	-3.6347	-3.2788	-4.6505	-4.0254	-1.8666	-3.383	-2.9749	0.3039	-1.1518	-1.0736	-0.3096	-0.9521	-0.0376	0.6309	-0.2113	0.408	-1.9621	3.4727	-10.0216	-1.1634
-3.5421	-3.3193	-3.9097	-3.464	-3.082	-4.4219	-3.8894	-1.8203	-3.2875	-2.9778	0.1968	-1.2733	-1.2704	-0.3994	-0.7785	0.2315	0.8103	-0.6656	0.5325	-2.1357	3.4206	-10.3862	-1.2328
-3.2122	-3.0126	-3.5798	-3.2817	-2.9084	-4.1875	-3.7794	-1.7971	-3.218	-2.9952	0.0897	-1.363	-1.4556	-0.4862	-0.5875	0.4978	0.9897	-1.1547	0.6338	-2.3093	3.3309	-10.7335	-1.3167
-2.8997	-2.6913	-3.2296	-3.0878	-2.7376	-3.9791	-3.6695	-1.7566	-3.1573	-3.0531	-0.0405	-1.4875	-1.6524	-0.5933	-0.3299	0.764	1.1807	-1.6553	0.6945	-2.4888	3.2354	-11.0837	-1.3717
-2.5929	-2.4106	-2.9228	-2.9315	-2.5727	-3.7563	-3.5537	-1.745	-3.1023	-3.1138	-0.1939	-1.6235	-1.8839	-0.6859	-0.0666	0.9637	1.3688	-2.1415	0.7842	-2.6913	3.1167	-11.4078	-1.4325
-2.3007	-2.1473	-2.619	-2.8042	-2.4019	-3.5595	-3.4727	-1.7277	-3.0444	-3.1891	-0.3531	-1.7653	-2.1473	-0.7727	0.1592	1.1605	1.5627	-2.6479	0.845	-2.8592	2.9807	-11.7232	-1.5222
-2.0142	-1.8926	-2.3614	-2.6711	-2.2833	-3.3801	-3.4351	-1.7392	-3.0299	-3.2759	-0.5267	-1.9273	-2.4135	-0.8855	0.3704	1.3312	1.7826	-3.1515	0.9029	-3.056	2.81	-12.0242	-1.6119
-1.7566	-1.6611	-2.0923	-2.5582	-2.1675	-3.2412	-3.3483	-1.7682	-3.027	-3.3714	-0.7148	-2.0836	-2.6595	-1.0042	0.6193	1.5338	1.991	-3.629	0.9405	-3.2817	2.6392	-12.3194	-1.6756
-1.5251	-1.4585	-1.8839	-2.4685	-2.0691	-3.0791	-3.3396	-1.8463	-3.0126	-3.4843	-0.9145	-2.2891	-2.9576	-1.1113	0.7871	1.6466	2.2081	-4.1238	0.9521	-3.4756	2.454	-12.5827	-1.7566
-1.2965	-1.2386	-1.6814	-2.3585	-1.965	-2.9576	-3.3106	-1.881	-3.0155	-3.5884	-1.1055	-2.4251	-3.2267	-1.2068	0.9637	1.7566	2.4019	-4.5521	0.9781	-3.6782	2.2601	-12.794	-1.8232
-1.0852	-1.1084	-1.499	-2.3267	-1.91	-2.8563	-3.2991	-1.936	-3.0183	-3.7129	-1.363	-2.6335	-3.5103	-1.3196	1.1142	1.8492	2.6161	-5.0007	0.9781	-3.8778	2.0489	-12.9618	-1.8984
-0.9347	-0.9376	-1.3572	-2.2544	-1.8579	-2.7463	-3.2875	-1.991	-3.0444	-3.8518	-1.5511	-2.8013	-3.7968	-1.4209	1.2531	1.8868	2.8158	-5.3885	1.0244	-4.0602	1.8926	-13.0891	-1.9968
-0.7698	-0.8248	-1.2386	-2.2081	-1.8116	-2.674	-3.2933	-2.0431	-3.0675	-3.9589	-1.7769	-2.9894	-4.0833	-1.5251	1.3978	1.9071	3.027	-5.7415	1.0013	-4.2425	1.6871	-13.1875	-2.072
-0.6453	-0.7293	-1.1431	-2.1849	-1.7682	-2.6364	-3.2904	-2.1241	-3.1254	-4.0833	-1.9708	-3.1283	-4.3148	-1.6235	1.5019	1.91	3.2151	-6.0598	1.0302	-4.393	1.499	-13.2165	-2.1733
-0.5296	-0.6569	-1.0823	-2.1589	-1.7798	-2.5814	-3.3077	-2.237	-3.1457	-4.2048	-2.2052	-3.3106	-4.5811	-1.719	1.6264	1.9071	3.4032	-6.3608	1.0187	-4.5492	1.3167	-13.1846	-2.2544
-0.4688	-0.6106	-1.0563	-2.1675	-1.774	-2.5843	-3.328	-2.2949	-3.2238	-4.3206	-2.428	-3.4727	-4.8241	-1.8058	1.6611	1.8724	3.5827	-6.5779	1.0013	-4.6737	1.117	-13.1007	-2.3556
-0.4283	-0.5875	-1.0389	-2.1415	-1.7913	-2.5669	-3.354	-2.3672	-3.2325	-4.4016	-2.6074	-3.6203	-5.0036	-1.8724	1.7421	1.8666	3.7129	-6.7457	0.9984	-4.7663	0.9926	-12.9734	-2.4135
-0.3965	-0.6135	-1.0592	-2.1791	-1.8145	-2.5785	-3.3656	-2.4627	-3.2933	-4.5232	-2.8013	-3.7708	-5.2293	-1.9418	1.7653	1.8116	3.8547	-6.8875	0.9695	-4.8589	0.8045	-12.7708	-2.483
-0.4457	-0.6106	-1.0707	-2.2052	-1.8579	-2.5872	-3.4003	-2.5322	-3.3454	-4.5955	-2.972	-3.8923	-5.4029	-1.9823	1.7884	1.774	3.9328	-6.9425	0.9203	-4.9428	0.654	-12.5451	-2.5235
-0.463	-0.6569	-1.1373	-2.2196	-1.9129	-2.5987	-3.4206	-2.6132	-3.4061	-4.6823	-3.1544	-3.9994	-5.5505	-2.0113	1.8145	1.7161	3.9994	-6.9888	0.8595	-4.9833	0.4804	-12.2702	-2.5698
-0.5006	-0.7003	-1.172	-2.2515	-1.9621	-2.6161	-3.4495	-2.6769	-3.4611	-4.7576	-3.3193	-4.1151	-5.7213	-2.0576	1.8	1.664	4.0688	-7.0033	0.7987	-5.0267	0.3328	-11.9721	-2.6045
-0.5354	-0.7495	-1.2328	-2.2572	-2.0315	-2.6508	-3.4582	-2.781	-3.5248	-4.8241	-3.4785	-4.2077	-5.8254	-2.0576	1.8029	1.6524	4.0804	-6.9512	0.6801	-5.0325	0.1794	-11.6711	-2.6045
-0.628	-0.8219	-1.2994	-2.2775	-2.0981	-2.6827	-3.4669	-2.8534	-3.5827	-4.8965	-3.6261	-4.3061	-5.9499	-2.0402	1.8145	1.6727	4.0515	-6.8644	0.6106	-5.0354	0.0203	-11.3731	-2.619
-0.6801	-0.874	-1.3601	-2.2659	-2.1646	-2.7203	-3.4929	-2.9402	-3.629	-4.9196	-3.7563	-4.3872	-6.0164	-2.0228	1.8261	1.6843	4.011	-6.7457	0.5122	-5.018	-0.1273	-11.0692	-2.6103
-0.7611	-0.9724	-1.4354	-2.318	-2.2688	-2.755	-3.5074	-3.0444	-3.6897	-4.9862	-3.9241	-4.4682	-6.1148	-1.9852	1.8347	1.6843	3.9415	-6.5952	0.3791	-4.9631	-0.3039	-10.7798	-2.59
-0.8161	-1.0158	-1.5193	-2.3122	-2.3585	-2.8042	-3.4814	-3.1312	-3.7621	-5.0296	-4.0486	-4.5695	-6.1698	-1.9418	1.8579	1.745	3.846	-6.4158	0.2691	-4.9196	-0.4688	-10.4817	-2.5669
-0.9145	-1.1026	-1.5888	-2.292	-2.4309	-2.8447	-3.4872	-3.2065	-3.8286	-5.018	-4.1643	-4.6418	-6.1988	-1.8695	1.8926	1.7826	3.7158	-6.2161	0.1042	-4.8328	-0.6309	-10.201	-2.5235
-0.9926	-1.1749	-1.6235	-2.292	-2.5235	-2.891	-3.4901	-3.3077	-3.8952	-5.0643	-4.2714	-4.6852	-6.2016	-1.7884	1.9534	1.8724	3.5537	-5.9499	-0.0608	-4.7315	-0.7669	-9.9522	-2.5032
-1.0389	-1.2125	-1.7074	-2.2428	-2.59	-2.9286	-3.4669	-3.3714	-3.9704	-5.0528	-4.3814	-4.7489	-6.1843	-1.6756	2.0518	1.9129	3.3454	-5.6547	-0.2286	-4.5984	-0.9203	-9.712	-2.4396
-1.0968	-1.3109	-1.7595	-2.2457	-2.6971	-2.9952	-3.4669	-3.4698	-4.0659	-5.0643	-4.4798	-4.8039	-6.1611	-1.5945	2.1183	1.9071	3.1486	-5.3624	-0.3965	-4.4798	-1.0852	-9.4891	-2.4106
-1.1344	-1.3457	-1.7769	-2.1936	-2.7463	-3.0357	-3.4351	-3.5219	-4.118	-5.0614	-4.5376	-4.8589	-6.1177	-1.4556	2.2138	1.9418	2.9113	-5.0267	-0.5498	-4.3177	-1.2154	-9.2952	-2.3701
-1.1344	-1.4007	-1.7826	-2.1299	-2.81	-3.0502	-3.3917	-3.5682	-4.173	-5.0296	-4.5492	-4.8531	-6.0164	-1.3399	2.3267	1.9244	2.6537	-4.6534	-0.7119	-4.1643	-1.337	-9.1361	-2.3151
-1.1605	-1.4151	-1.8	-2.0778	-2.8592	-3.0936	-3.3222	-3.5971	-4.2569	-4.9746	-4.5753	-4.8791	-5.9123	-1.2097	2.4714	1.9187	2.3875	-4.2569	-0.8682	-3.9647	-1.4296	-9.0174	-2.2688
-1.146	-1.4672	-1.7826	-2.0055	-2.9026	-3.1196	-3.2672	-3.629	-4.2975	-4.9081	-4.5955	-4.8618	-5.756	-1.065	2.5843	1.9042	2.1212	-3.8373	-1.0013	-3.7737	-1.5164	-8.9074	-2.237
-1.1199	-1.4441	-1.7595	-1.8868	-2.9113	-3.111	-3.1949	-3.6261	-4.3351	-4.8068	-4.5376	-4.8213	-5.5737	-0.9347	2.755	1.9013	1.8463	-3.3888	-1.0968	-3.5306	-1.5338	-8.864	-2.1733
-1.0939	-1.4441	-1.6987	-1.7798	-2.891	-3.1052	-3.0791	-3.6203	-4.3669	-4.7055	-4.4885	-4.7807	-5.4058	-0.8074	2.9142	1.9071	1.5974	-2.9576	-1.2068	-3.328	-1.5714	-8.8148	-2.1531
-1.01	-1.3978	-1.6119	-1.6466	-2.8765	-3.0531	-2.972	-3.574	-4.3524	-4.5724	-4.4016	-4.72	-5.1656	-0.6743	3.1023	1.9244	1.3283	-2.483	-1.2675	-3.0444	-1.5627	-8.7917	-2.1183
-0.9318	-1.3717	-1.528	-1.5251	-2.8331	-3.027	-2.8302	-3.4929	-4.3264	-4.4219	-4.2888	-4.6216	-4.9341	-0.5527	3.2962	1.9794	1.0736	-2.0084	-1.3167	-2.7637	-1.5396	-8.8206	-2.0778
-0.8392	-1.2849	-1.4122	-1.3804	-2.7782	-2.9981	-2.6971	-3.438	-4.3148	-4.2656	-4.173	-4.5261	-4.6766	-0.437	3.519	2.0691	0.8479	-1.554	-1.337	-2.5293	-1.4759	-8.8669	-2.0373
-0.7408	-1.2183	-1.308	-1.256	-2.7203	-2.9807	-2.5698	-3.4032	-4.3119	-4.1209	-4.0573	-4.445	-4.4248	-0.2952	3.7216	2.2081	0.6164	-1.0707	-1.3746	-2.2254	-1.4296	-8.9248	-2.0199
-0.6309	-1.1402	-1.2125	-1.1489	-2.6682	-2.946	-2.4338	-3.2933	-4.2569	-3.9357	-3.9184	-4.3351	-4.1557	-0.1852	3.9357	2.3672	0.3849	-0.5701	-1.3891	-1.9244	-1.337	-9.0116	-2.0113
-0.5296	-1.065	-1.1026	-1.0273	-2.5843	-2.9084	-2.3064	-3.2296	-4.2627	-3.7823	-3.7823	-4.2743	-3.9241	-0.0955	4.147	2.5698	0.1881	-0.1244	-1.3804	-1.69	-1.2386	-9.1361	-2.0113
-0.4138	-0.9984	-0.9984	-0.9289	-2.5061	-2.9026	-2.1878	-3.1573	-4.2309	-3.5971	-3.6319	-4.1528	-3.6434	0.0116	4.3843	2.8013	-0.0174	0.3588	-1.3978	-1.4093	-1.1605	-9.2866	-2.0026
-0.3415	-0.9405	-0.9579	-0.8392	-2.4714	-2.8968	-2.101	-3.0878	-4.2569	-3.4438	-3.5537	-4.1036	-3.4119	0.0897	4.5348	3.0299	-0.1505	0.7987	-1.4209	-1.1576	-1.0852	-9.4631	-1.9997
-0.2894	-0.9116	-0.8913	-0.764	-2.4396	-2.8794	-1.9881	-3.0473	-4.2483	-3.2817	-3.4119	-4.0573	-3.1746	0.165	4.7055	3.2643	-0.3096	1.2415	-1.4151	-0.8942	-1.0071	-9.6772	-2.0113
-0.1968	-0.845	-0.8479	-0.6916	-2.3933	-2.9113	-1.9216	-2.9923	-4.2685	-3.163	-3.3048	-4.0081	-2.972	0.2199	4.8502	3.4958	-0.4486	1.6495	-1.4267	-0.6569	-0.8942	-9.8798	-2.0026
-0.1418	-0.8074	-0.7871	-0.6424	-2.3817	-2.9315	-1.8521	-2.9691	-4.2917	-3.0589	-3.2209	-3.9907	-2.7666	0.2865	4.9283	3.6782	-0.5527	2.0634	-1.4556	-0.4167	-0.8277	-10.1287	-2.0199
-0.1158	-0.8479	-0.7929	-0.6453	-2.4077	-2.9836	-1.8174	-2.946	-4.3553	-2.9402	-3.1601	-3.9936	-2.59	0.3357	4.9312	3.8113	-0.6569	2.4714	-1.4759	-0.1881	-0.7235	-10.4065	-2.0315
-0.081	-0.8392	-0.8016	-0.599	-2.399	-3.0502	-1.7884	-2.9286	-4.3785	-2.8245	-3.0675	-3.9618	-2.4019	0.3965	4.8733	3.9039	-0.7611	2.865	-1.4875	0.0347	-0.6627	-10.6785	-2.0547
-0.0347	-0.8074	-0.8103	-0.5383	-2.4077	-3.0965	-1.7277	-2.9315	-4.4074	-2.7145	-2.9981	-3.9589	-2.2109	0.437	4.7576	3.9328	-0.874	3.2643	-1.4672	0.2373	-0.5846	-10.9969	-2.0257
0	-0.7929	-0.8161	-0.5412	-2.4048	-3.1486	-1.7045	-2.9026	-4.4335	-2.5987	-2.8968	-3.9241	-2.0113	0.5035	4.6303	3.8981	-0.9955	3.6695	-1.4846	0.4746	-0.4514	-11.3412	-2.0402
0.0203	-0.8392	-0.8334	-0.5643	-2.4135	-3.218	-1.6843	-2.8881	-4.4682	-2.4974	-2.8245	-3.9126	-1.8174	0.5585	4.4045	3.8171	-1.1026	4.0949	-1.4904	0.7032	-0.3502	-11.674	-2.0257
0.0492	-0.8277	-0.874	-0.5441	-2.428	-3.2499	-1.6611	-2.8592	-4.4913	-2.373	-2.6971	-3.8807	-1.6408	0.6164	4.1701	3.6984	-1.2241	4.5	-1.4643	0.9174	-0.2141	-12.0213	-2.0199
0.0492	-0.8306	-0.9174	-0.5672	-2.4425	-3.3454	-1.6524	-2.8476	-4.5463	-2.2775	-2.6219	-3.846	-1.4151	0.6685	3.9212	3.5508	-1.308	4.8849	-1.4209	1.1315	-0.081	-12.3686	-2.0199
0.0463	-0.8537	-0.9984	-0.6106	-2.4425	-3.4003	-1.6611	-2.8302	-4.5782	-2.1994	-2.5148	-3.8142	-1.2473	0.709	3.6261	3.4003	-1.3978	5.3132	-1.4151	1.3283	0.0608	-12.6985	-2.0257
0.0145	-0.8971	-1.0736	-0.6598	-2.4656	-3.4814	-1.6987	-2.7839	-4.6158	-2.0749	-2.4048	-3.791	-1.0389	0.7437	3.3656	3.2441	-1.4759	5.6778	-1.3688	1.5193	0.2286	-13.0081	-2.0373
-0.0695	-0.9463	-1.1952	-0.7495	-2.4801	-3.5798	-1.7508	-2.7897	-4.6968	-2.0315	-2.3064	-3.7852	-0.8942	0.7727	3.0328	3.0907	-1.5338	6.0859	-1.3225	1.6987	0.3675	-13.2859	-2.0691
-0.1563	-1.01	-1.2994	-0.845	-2.5061	-3.655	-1.7798	-2.7579	-4.72	-1.936	-2.1733	-3.7302	-0.6888	0.8103	2.81	2.9605	-1.609	6.465	-1.2502	1.8666	0.5556	-13.5666	-2.0923
-0.2431	-1.0505	-1.4614	-0.9637	-2.5553	-3.7881	-1.8434	-2.7145	-4.7778	-1.8695	-2.1039	-3.7274	-0.5527	0.8392	2.5466	2.8331	-1.6524	6.847	-1.2299	2.0257	0.7177	-13.8242	-2.1241
-0.3704	-1.1605	-1.6264	-1.117	-2.6074	-3.9039	-1.9389	-2.7116	-4.8589	-1.8492	-2.0026	-3.6897	-0.3849	0.8537	2.2717	2.7232	-1.6843	7.2203	-1.1923	2.1675	0.9	-14.0731	-2.1357
-0.5441	-1.2733	-1.8376	-1.282	-2.6653	-4.0573	-2.0373	-2.7203	-4.9602	-1.8029	-1.9158	-3.7071	-0.246	0.8711	2.0113	2.5872	-1.7219	7.5965	-1.1489	2.2949	1.0563	-14.2843	-2.156
-0.7437	-1.4151	-2.0663	-1.4875	-2.7318	-4.2367	-2.182	-2.7521	-5.0643	-1.7942	-1.8405	-3.71	-0.1244	0.8913	1.7479	2.4251	-1.7508	7.9062	-1.1373	2.4338	1.2154	-14.4695	-2.182
-0.9752	-1.5859	-2.318	-1.7045	-2.8389	-4.4219	-2.3151	-2.7839	-5.183	-1.8029	-1.7537	-3.7621	-0.0289	0.9174	1.4614	2.2659	-1.8203	8.2447	-1.1026	2.5177	1.3486	-14.62	-2.1791
-1.2415	-1.7711	-2.6016	-1.9331	-2.9431	-4.6563	-2.483	-2.8273	-5.3422	-1.8058	-1.6987	-3.7939	0.0695	0.9579	1.1691	2.0489	-1.8839	8.5891	-1.0679	2.6248	1.499	-14.7097	-2.1762
-1.4904	-1.991	-2.8997	-2.1791	-3.0646	-4.8531	-2.6508	-2.8679	-5.4869	-1.8463	-1.638	-3.8286	0.1592	0.9839	0.8624	1.8174	-1.9534	8.919	-1.0823	2.7232	1.6495	-14.7676	-2.1646
-1.7855	-2.2225	-3.2383	-2.4309	-3.2209	-5.1251	-2.8389	-2.92	-5.6518	-1.8955	-1.6235	-3.8981	0.2228	1.0389	0.5672	1.5425	-2.0373	9.2431	-1.0794	2.7839	1.7653	-14.7503	-2.1675
-2.1039	-2.4396	-3.5421	-2.6942	-3.3598	-5.374	-3.0097	-2.9894	-5.811	-1.9244	-1.5511	-3.9675	0.2836	1.0823	0.2026	1.2704	-2.1415	9.5528	-1.0939	2.8534	1.8839	-14.6953	-2.1502
-2.4106	-2.7029	-3.8952	-2.9489	-3.5103	-5.62	-3.218	-3.0415	-5.9586	-1.9534	-1.5135	-4.011	0.3762	1.1257	-0.1447	0.9666	-2.2341	9.8595	-1.1113	2.946	1.9997	-14.5737	-2.1183
-2.7637	-2.9663	-4.2193	-3.2556	-3.6811	-5.8775	-3.3974	-3.0907	-6.1496	-2.0113	-1.4354	-4.063	0.4312	1.1981	-0.4486	0.6656	-2.3527	10.1895	-1.1373	3.0241	2.127	-14.4348	-2.1183
-3.0965	-3.2238	-4.5868	-3.5016	-3.8402	-6.1524	-3.574	-3.1399	-6.2885	-2.0431	-1.3833	-4.1238	0.4978	1.2415	-0.7611	0.3617	-2.454	10.4904	-1.1402	3.1023	2.2601	-14.267	-2.0952
-3.4351	-3.4843	-4.9225	-3.7418	-3.9762	-6.3637	-3.7534	-3.1804	-6.4447	-2.0807	-1.2965	-4.1701	0.5846	1.2907	-1.0563	0.0347	-2.5669	10.8087	-1.1315	3.1515	2.4135	-14.0673	-2.046
-3.7766	-3.7708	-5.2843	-4.0225	-4.1238	-6.6213	-3.956	-3.2036	-6.6039	-2.1386	-1.2386	-4.2048	0.6743	1.3457	-1.2646	-0.3328	-2.6798	11.1387	-1.1373	3.2383	2.5553	-13.8676	-2.0171
-4.1122	-4.0399	-5.6084	-4.2743	-4.2801	-6.8644	-4.1296	-3.2441	-6.7573	-2.1762	-1.1576	-4.2627	0.7495	1.418	-1.447	-0.6974	-2.8042	11.4743	-1.117	3.3309	2.729	-13.6592	-1.9621
-4.4566	-4.3148	-5.9209	-4.5463	-4.4364	-7.1074	-4.2917	-3.2759	-6.9135	-2.2109	-1.0794	-4.3177	0.8306	1.4701	-1.5627	-1.0505	-2.9026	11.7898	-1.1257	3.4032	2.8881	-13.4943	-1.8897
-4.7431	-4.529	-6.2537	-4.7286	-4.5753	-7.3187	-4.4508	-3.3251	-7.0467	-2.2196	-0.9984	-4.3524	0.9463	1.5222	-1.6466	-1.3601	-3.0212	12.1023	-1.0765	3.4901	3.0704	-13.3207	-1.8376
-5.0528	-4.7923	-6.5663	-4.9659	-4.7547	-7.5502	-4.6158	-3.3627	-7.2261	-2.2833	-0.9434	-4.4132	0.9984	1.5801	-1.6756	-1.6785	-3.1167	12.4351	-1.0794	3.5827	3.2441	-13.2281	-1.7711
-5.3508	-5.0441	-6.8499	-5.1656	-4.9139	-7.7875	-4.7605	-3.4003	-7.3824	-2.3441	-0.8942	-4.4856	1.0765	1.6408	-1.6814	-1.9447	-3.2325	12.7621	-1.0621	3.6811	3.4177	-13.1557	-1.6843
-5.6026	-5.2785	-7.1595	-5.3566	-5.0499	-8.0103	-4.9196	-3.4872	-7.556	-2.3499	-0.8595	-4.5753	1.1373	1.6785	-1.5945	-2.1415	-3.3222	13.0805	-1.0707	3.7679	3.5798	-13.1528	-1.6322
-5.8717	-5.4984	-7.4055	-5.5389	-5.2119	-8.2245	-5.0412	-3.5392	-7.6949	-2.399	-0.8074	-4.6708	1.2212	1.7277	-1.5164	-2.3036	-3.4264	13.3814	-1.0707	3.8518	3.7274	-13.1962	-1.528
-6.1061	-5.7473	-7.6978	-5.7299	-5.3798	-8.4357	-5.2119	-3.6203	-7.8888	-2.4569	-0.7871	-4.746	1.282	1.7971	-1.4672	-2.3614	-3.545	13.6969	-1.0939	3.9444	3.8807	-13.2946	-1.4672
-6.3319	-5.9846	-7.9264	-5.9296	-5.5303	-8.6557	-5.3306	-3.7013	-8.0537	-2.5177	-0.7756	-4.8618	1.3283	1.855	-1.363	-2.3904	-3.6666	14.0268	-1.1055	4.0428	4.0139	-13.4596	-1.3862
-6.5344	-6.2132	-8.1984	-6.1148	-5.7097	-8.8843	-5.4782	-3.7997	-8.239	-2.5843	-0.764	-4.9688	1.3775	1.91	-1.3109	-2.4714	-3.7708	14.322	-1.146	4.1585	4.1557	-13.6795	-1.3225
-6.7631	-6.4505	-8.4705	-6.274	-5.9065	-9.1245	-5.6315	-3.9241	-8.4676	-2.6595	-0.7785	-5.1106	1.3862	1.9765	-1.2907	-2.483	-3.8894	14.6374	-1.1836	4.2309	4.2656	-13.9255	-1.2183
-6.9685	-6.6849	-8.7107	-6.4621	-6.0917	-9.3531	-5.7936	-4.0081	-8.6615	-2.7492	-0.79	-5.2467	1.4238	2.0286	-1.3196	-2.5148	-3.9994	14.8978	-1.2125	4.3322	4.3901	-14.2062	-1.1431
-7.1624	-6.902	-8.9509	-6.6386	-6.2682	-9.5817	-5.9354	-4.1238	-8.8525	-2.8187	-0.7929	-5.374	1.4296	2.0865	-1.3746	-2.5582	-4.1267	15.167	-1.2328	4.3843	4.474	-14.4724	-1.0765
-7.3881	-7.119	-9.1968	-6.8007	-6.4621	-9.793	-6.0975	-4.2367	-9.0493	-2.9113	-0.8392	-5.4984	1.4267	2.1444	-1.4817	-2.6392	-4.2425	15.4419	-1.2646	4.4682	4.5897	-14.7734	-1.0042
-7.582	-7.3332	-9.4602	-7.0119	-6.6589	-10.0448	-6.2595	-4.393	-9.2634	-3.0183	-0.8942	-5.6518	1.4325	2.2023	-1.5974	-2.6682	-4.3467	15.6792	-1.3138	4.5174	4.691	-15.0888	-0.9463
-7.7557	-7.556	-9.657	-7.2029	-6.8325	-10.2618	-6.4418	-4.5029	-9.466	-3.1023	-0.9174	-5.7791	1.4556	2.2688	-1.69	-2.7579	-4.4682	15.9425	-1.3138	4.5666	4.8068	-15.4014	-0.9
-7.9756	-7.7644	-9.8972	-7.4055	-7.0235	-10.4933	-6.5865	-4.6418	-9.6685	-3.2122	-0.9521	-5.9267	1.4209	2.292	-1.8405	-2.9055	-4.5405	16.1596	-1.3543	4.6042	4.8878	-15.7168	-0.8595
-8.1203	-7.9525	-10.0997	-7.5763	-7.2029	-10.7219	-6.766	-4.7402	-9.8509	-3.3135	-0.9984	-6.0541	1.4151	2.3527	-1.9563	-3.0183	-4.6563	16.3766	-1.3543	4.6563	4.9862	-16.0554	-0.8219
-8.2997	-8.1319	-10.3081	-7.7991	-7.3881	-10.9245	-6.9367	-4.8647	-10.065	-3.4322	-1.0302	-6.1843	1.3746	2.3904	-2.1386	-3.1978	-4.7373	16.5763	-1.3949	4.6852	5.0846	-16.3853	-0.8334
-8.4357	-8.2766	-10.4904	-7.9611	-7.5444	-11.1184	-7.0959	-4.9717	-10.2647	-3.5219	-1.0823	-6.3232	1.3978	2.4396	-2.2775	-3.3801	-4.8299	16.776	-1.3775	4.7258	5.1685	-16.7499	-0.79
-8.6007	-8.4155	-10.6843	-8.1608	-7.7238	-11.3181	-7.2521	-5.1106	-10.4528	-3.6058	-1.146	-6.5084	1.3572	2.4685	-2.4396	-3.5913	-4.8936	16.9265	-1.4209	4.7605	5.2409	-17.1117	-0.7958
-8.7309	-8.5775	-10.8522	-8.3634	-7.8685	-11.5149	-7.4345	-5.209	-10.6496	-3.7187	-1.2154	-6.6126	1.3254	2.509	-2.6335	-3.8286	-4.9544	17.129	-1.4267	4.7981	5.3045	-17.4908	-0.8161
-8.864	-8.6701	-11.0316	-8.5139	-8.0219	-11.7203	-7.5763	-5.3277	-10.8261	-3.8084	-1.2617	-6.7544	1.3023	2.5293	-2.8273	-4.037	-4.9949	17.2708	-1.4498	4.8068	5.3827	-17.8757	-0.8508
-8.974	-8.7714	-11.185	-8.6846	-8.129	-11.8592	-7.7354	-5.4058	-10.9679	-3.9299	-1.2878	-6.8759	1.2762	2.5495	-3.0328	-4.2454	-5.0557	17.4271	-1.4238	4.8502	5.4521	-18.2577	-0.9
-9.11	-8.8583	-11.3441	-8.8496	-8.2968	-12.0358	-7.8772	-5.5447	-11.1502	-4.0023	-1.3543	-7.0293	1.2415	2.5582	-3.2643	-4.5116	-5.0586	17.5631	-1.447	4.8531	5.5187	-18.6078	-0.9434
-9.2316	-8.9856	-11.4946	-9.0145	-8.4068	-12.221	-8.019	-5.6229	-11.3123	-4.0862	-1.418	-7.1364	1.2299	2.5437	-3.4958	-4.7113	-5.047	17.6818	-1.4527	4.8704	5.591	-18.9638	-0.9666
-9.3792	-9.0608	-11.6364	-9.2026	-8.5399	-12.3744	-8.1666	-5.7328	-11.4772	-4.1614	-1.4846	-7.2666	1.1923	2.5437	-3.7794	-4.9139	-5.0354	17.8149	-1.4325	4.8647	5.6865	-19.2676	-1.0273
-9.5036	-9.1158	-11.7522	-9.3184	-8.647	-12.5133	-8.2853	-5.7965	-11.5872	-4.2425	-1.5164	-7.3534	1.1749	2.5322	-4.0167	-5.0528	-5.018	17.922	-1.4209	4.8762	5.7618	-19.5686	-1.0736
-9.6251	-9.1911	-11.8969	-9.492	-8.7309	-12.6174	-8.4155	-5.8573	-11.6653	-4.2801	-1.5367	-7.4258	1.1807	2.509	-4.3061	-5.1396	-4.9746	18.0319	-1.4209	4.8762	5.8486	-19.8435	-1.1373
-9.7149	-9.275	-11.9837	-9.6396	-8.8148	-12.7187	-8.5197	-5.9094	-11.7811	-4.3351	-1.554	-7.4634	1.1807	2.5061	-4.584	-5.2004	-4.9515	18.1593	-1.4354	4.8878	5.9557	-20.0779	-1.1518
-9.8451	-9.3386	-12.0879	-9.7554	-8.8959	-12.8027	-8.6123	-5.9557	-11.8361	-4.3727	-1.554	-7.5299	1.2097	2.4772	-4.8965	-5.1946	-4.911	18.2548	-1.3949	4.8791	6.0396	-20.3037	-1.1807
-9.9522	-9.3705	-12.1949	-9.8769	-8.9624	-12.8779	-8.702	-5.9817	-11.8737	-4.4045	-1.5714	-7.556	1.2183	2.483	-5.1772	-5.1917	-4.8849	18.3532	-1.4035	4.882	6.1409	-20.4889	-1.2097
-10.0361	-9.4428	-12.2673	-10.0071	-9.0203	-12.9242	-8.7917	-6.0309	-11.9229	-4.4132	-1.5309	-7.556	1.2502	2.4425	-5.4782	-5.1743	-4.8299	18.4081	-1.3804	4.882	6.2277	-20.6133	-1.2386
-10.1374	-9.4949	-12.3396	-10.12	-9.0782	-12.9821	-8.8669	-6.0627	-11.9142	-4.4219	-1.5193	-7.5763	1.2502	2.4222	-5.7444	-5.1512	-4.7836	18.4921	-1.3891	4.8647	6.3116	-20.7146	-1.2444
-10.2155	-9.5267	-12.3975	-10.2213	-9.1158	-12.9994	-8.9364	-6.028	-11.8998	-4.4248	-1.4672	-7.5328	1.2965	2.4048	-5.9701	-5.0875	-4.7518	18.5413	-1.3428	4.8531	6.4245	-20.7638	-1.2617
-10.2763	-9.547	-12.4293	-10.2994	-9.1361	-13.011	-8.974	-6.0396	-11.8853	-4.3872	-1.4296	-7.501	1.3283	2.3875	-6.1785	-5.0412	-4.7258	18.6136	-1.3196	4.8299	6.5373	-20.7812	-1.2617
-10.3457	-9.6049	-12.4756	-10.4007	-9.1419	-12.9908	-9.0261	-6.0396	-11.8563	-4.4132	-1.3688	-7.4576	1.3746	2.3701	-6.3521	-5.0094	-4.6968	18.6657	-1.2762	4.8097	6.6328	-20.7464	-1.2704
-10.3776	-9.5702	-12.4612	-10.4528	-9.1303	-12.9589	-9.0435	-6.002	-11.7869	-4.393	-1.2849	-7.4229	1.418	2.3759	-6.4476	-4.9602	-4.7026	18.7149	-1.2328	4.8328	6.7515	-20.7059	-1.256
-10.4036	-9.5846	-12.4583	-10.5078	-9.0898	-12.9445	-9.0666	-5.9701	-11.729	-4.3582	-1.2299	-7.3708	1.4846	2.3759	-6.5142	-4.8704	-4.6939	18.7612	-1.1691	4.8415	6.8441	-20.6712	-1.2415
-10.4094	-9.5644	-12.4293	-10.5396	-9.0753	-12.901	-9.0608	-5.9441	-11.6596	-4.3495	-1.1431	-7.2898	1.5251	2.3672	-6.5431	-4.8444	-4.6823	18.8133	-1.1055	4.827	6.9627	-20.6191	-1.227
-10.4065	-9.5557	-12.4178	-10.5917	-9.0232	-12.8403	-9.0869	-5.9209	-11.6017	-4.2772	-1.0794	-7.2203	1.554	2.3614	-6.5171	-4.7894	-4.6621	18.8567	-1.0534	4.8357	7.1017	-20.6017	-1.2097
-10.3833	-9.5036	-12.3512	-10.5801	-8.9711	-12.7303	-9.0521	-5.8283	-11.4888	-4.2454	-0.9781	-7.1393	1.6322	2.3499	-6.4563	-4.72	-4.6737	18.9001	-0.9289	4.856	7.2637	-20.5757	-1.1691
-10.3486	-9.4804	-12.2991	-10.5888	-8.9103	-12.6695	-9.0493	-5.7849	-11.3904	-4.1933	-0.8884	-7.0611	1.6611	2.347	-6.4361	-4.7026	-4.6476	18.9117	-0.8479	4.8704	7.3997	-20.5525	-1.1431
-10.3168	-9.4486	-12.2731	-10.5946	-8.8293	-12.5856	-9.0058	-5.7184	-11.2978	-4.147	-0.8277	-6.9454	1.7103	2.3412	-6.3782	-4.6794	-4.6389	18.958	-0.7235	4.9225	7.5213	-20.5323	-1.1286
-10.2734	-9.4023	-12.1805	-10.5888	-8.7714	-12.5075	-8.974	-5.6489	-11.2023	-4.1007	-0.7437	-6.8557	1.7711	2.3151	-6.3377	-4.6939	-4.5984	18.9638	-0.628	4.9341	7.6746	-20.5033	-1.0852
-10.2676	-9.3676	-12.1544	-10.5714	-8.7309	-12.4264	-8.9364	-5.5939	-11.0779	-4.0746	-0.6743	-6.7746	1.8174	2.3064	-6.3434	-4.7344	-4.5695	18.9522	-0.5325	4.9225	7.7933	-20.4426	-1.0881
-10.2329	-9.3502	-12.1023	-10.5743	-8.6875	-12.3628	-8.9017	-5.5274	-11.0113	-3.9907	-0.5759	-6.6907	1.8579	2.2949	-6.3203	-4.8155	-4.5434	18.9406	-0.4023	4.9457	7.9351	-20.3558	-1.1518
-10.2155	-9.3386	-12.0589	-10.5743	-8.6296	-12.276	-8.8727	-5.4869	-10.9216	-3.9965	-0.5296	-6.6097	1.8753	2.2688	-6.2943	-4.9167	-4.5087	18.9175	-0.3154	4.9254	8.0595	-20.2255	-1.1662
-10.2068	-9.3386	-12.0155	-10.6033	-8.592	-12.2152	-8.8525	-5.4058	-10.8637	-3.982	-0.4543	-6.52	1.9013	2.2544	-6.2653	-5.0672	-4.474	18.8799	-0.1765	4.8878	8.1955	-20.0258	-1.2444
-10.2155	-9.3213	-11.9866	-10.6149	-8.5428	-12.1428	-8.838	-5.3508	-10.7856	-3.9589	-0.3936	-6.4303	1.9273	2.2312	-6.1901	-5.2119	-4.4335	18.8249	-0.0637	4.8589	8.3142	-19.8146	-1.3341
-10.2271	-9.3097	-11.975	-10.6264	-8.4994	-12.0879	-8.8409	-5.2756	-10.7132	-3.9502	-0.301	-6.3521	1.9389	2.2283	-6.0859	-5.3971	-4.4045	18.7612	0.0376	4.8444	8.4705	-19.5397	-1.4325
-10.2473	-9.3068	-11.9576	-10.6467	-8.4415	-12.0068	-8.8177	-5.2293	-10.6554	-3.9386	-0.246	-6.2943	1.9244	2.1965	-5.9528	-5.5881	-4.3727	18.6802	0.191	4.8155	8.6152	-19.2242	-1.5801
-10.3023	-9.2981	-11.9663	-10.6872	-8.4097	-11.9808	-8.8409	-5.1627	-10.6496	-3.9589	-0.2257	-6.2711	1.9042	2.1733	-5.8196	-5.7936	-4.3119	18.5789	0.3039	4.7721	8.7454	-18.903	-1.7045
-10.2907	-9.2721	-11.9345	-10.7132	-8.3489	-11.9403	-8.8409	-5.1077	-10.5946	-3.9849	-0.1707	-6.2248	1.8347	2.156	-5.6258	-5.9846	-4.2714	18.4458	0.4283	4.7026	8.8611	-18.5644	-1.8724
-10.366	-9.2837	-11.9721	-10.7596	-8.3171	-11.8998	-8.8669	-5.0412	-10.6004	-4.011	-0.1418	-6.2161	1.7942	2.1097	-5.4319	-6.1843	-4.1991	18.304	0.518	4.6274	8.9682	-18.1998	-2.0257
-10.4325	-9.2894	-12.0068	-10.8145	-8.2968	-11.9026	-8.9248	-5.0122	-10.5917	-4.0746	-0.1215	-6.2537	1.6843	2.0836	-5.2264	-6.3666	-4.1296	18.168	0.6135	4.5463	9.0811	-17.8091	-2.2196
-10.4991	-9.3039	-12.0444	-10.8898	-8.2534	-11.9026	-8.9422	-4.9804	-10.6235	-4.1209	-0.1389	-6.2566	1.6206	2.0315	-5.0383	-6.5344	-4.0341	17.9914	0.7177	4.4479	9.1448	-17.3953	-2.399
-10.5714	-9.3155	-12.0705	-10.9708	-8.2013	-11.9345	-8.9885	-4.9717	-10.6293	-4.2396	-0.1563	-6.2856	1.5019	1.9823	-4.8762	-6.6878	-3.9241	17.7975	0.79	4.3293	9.2374	-16.9901	-2.619
-10.6322	-9.3097	-12.1371	-11.0229	-8.2042	-11.9345	-9.0782	-4.9023	-10.6554	-4.2946	-0.1418	-6.355	1.392	1.9244	-4.7171	-6.8325	-3.8113	17.5979	0.8653	4.2338	9.2866	-16.585	-2.81
-10.7364	-9.3242	-12.1718	-11.0981	-8.1637	-11.9692	-9.1534	-4.8791	-10.6669	-4.3958	-0.1592	-6.4187	1.2646	1.8637	-4.6071	-6.9541	-3.6897	17.3808	0.9405	4.1007	9.33	-16.1798	-3.0155
-10.7827	-9.3329	-12.221	-11.1647	-8.1261	-11.975	-9.1939	-4.8241	-10.7104	-4.4624	-0.1852	-6.4708	1.1257	1.7798	-4.5145	-7.0582	-3.5624	17.1609	0.9868	3.9675	9.356	-15.8181	-3.1978
-10.8608	-9.3357	-12.2615	-11.237	-8.1058	-12.0271	-9.2663	-4.8444	-10.7451	-4.5319	-0.2026	-6.5287	1.0042	1.7508	-4.4624	-7.1537	-3.4466	16.9901	1.0418	3.8663	9.3849	-15.4911	-3.4119
-10.9332	-9.356	-12.3136	-11.3152	-8.0769	-12.0271	-9.3415	-4.7865	-10.7422	-4.6274	-0.2141	-6.5692	0.8797	1.6756	-4.4364	-7.2058	-3.3135	16.7355	1.0968	3.7216	9.3763	-15.1757	-3.5884
-10.9853	-9.2981	-12.3396	-11.3383	-8.0422	-12.0416	-9.3821	-4.7547	-10.774	-4.6823	-0.246	-6.6473	0.764	1.6206	-4.474	-7.2492	-3.192	16.5011	1.1142	3.5884	9.3792	-14.9065	-3.7621
-11.0374	-9.2866	-12.3772	-11.402	-7.9959	-12.0473	-9.4081	-4.6852	-10.7538	-4.7258	-0.2315	-6.6415	0.6974	1.5627	-4.5174	-7.2521	-3.082	16.2985	1.1749	3.5306	9.3763	-14.6663	-3.9241
-11.0808	-9.2866	-12.3888	-11.4483	-7.9322	-12.0647	-9.4631	-4.6794	-10.7393	-4.7807	-0.2315	-6.6618	0.6048	1.5106	-4.6071	-7.2348	-2.9605	16.0699	1.2183	3.3859	9.3792	-14.4609	-4.0717
-11.0808	-9.246	-12.3888	-11.4743	-7.8917	-12.0271	-9.466	-4.5782	-10.6988	-4.7692	-0.2344	-6.6357	0.5267	1.4325	-4.7315	-7.1306	-2.8302	15.8644	1.2531	3.2614	9.3444	-14.2988	-4.2048
-11.0981	-9.1679	-12.383	-11.4541	-7.802	-12.0039	-9.4515	-4.529	-10.6438	-4.7778	-0.2055	-6.601	0.4891	1.3862	-4.8733	-7.0062	-2.7232	15.6445	1.282	3.1891	9.2952	-14.1657	-4.3148
-11.1039	-9.1476	-12.3599	-11.483	-7.7412	-11.9605	-9.4515	-4.445	-10.5686	-4.7431	-0.1852	-6.5663	0.4688	1.3312	-5.0325	-6.8528	-2.619	15.4853	1.3225	3.1081	9.2605	-14.0268	-4.3901
-11.0663	-9.084	-12.3165	-11.4338	-7.666	-11.8911	-9.4023	-4.3814	-10.4788	-4.6997	-0.1707	-6.5287	0.437	1.2704	-5.1743	-6.6705	-2.5351	15.2683	1.3572	3.0068	9.1939	-13.8908	-4.4856
-11.0432	-9.0232	-12.2991	-11.4194	-7.637	-11.8361	-9.3763	-4.3206	-10.4152	-4.6708	-0.1794	-6.5113	0.4196	1.2357	-5.3479	-6.4881	-2.4367	15.1178	1.3283	2.9402	9.1071	-13.7605	-4.5521
-11.0084	-8.9914	-12.2557	-11.3644	-7.5502	-11.7666	-9.3329	-4.2598	-10.311	-4.61	-0.1389	-6.4158	0.4312	1.201	-5.4579	-6.2827	-2.3701	14.9557	1.3543	2.9171	9.0377	-13.6245	-4.61
-10.9592	-8.9538	-12.2326	-11.3123	-7.4894	-11.729	-9.2866	-4.1875	-10.2213	-4.5232	-0.1158	-6.3521	0.463	1.1662	-5.5621	-6.1061	-2.2891	14.8197	1.3515	2.8708	8.9682	-13.4914	-4.6737
-10.9303	-8.9509	-12.1747	-11.2602	-7.4431	-11.6364	-9.1939	-4.1065	-10.1316	-4.4306	-0.0897	-6.2653	0.518	1.1257	-5.6605	-5.9383	-2.2196	14.7126	1.337	2.8505	8.8727	-13.3178	-4.7055
-10.8898	-8.9248	-12.1486	-11.1647	-7.4026	-11.5814	-9.1158	-4.0717	-10.0274	-4.3553	-0.0781	-6.193	0.5296	1.0794	-5.7039	-5.7733	-2.1357	14.5766	1.3023	2.8245	8.7599	-13.1326	-4.7749
-10.8348	-8.9277	-12.1023	-11.0952	-7.365	-11.5062	-9.0203	-4.0254	-9.9058	-4.2743	-0.0521	-6.0859	0.6048	1.0505	-5.7328	-5.6229	-2.0691	14.4811	1.3167	2.7984	8.6644	-12.901	-4.7894
-10.7856	-8.9364	-12.0358	-10.9911	-7.3129	-11.4078	-8.9017	-3.9357	-9.7698	-4.1528	0.0087	-5.9354	0.6772	1.0302	-5.7531	-5.536	-2.0199	14.403	1.2965	2.8302	8.5891	-12.629	-4.8299
-10.7393	-8.9711	-11.9981	-10.9187	-7.2869	-11.347	-8.7975	-3.9039	-9.6454	-4.0688	0.0463	-5.8254	0.7553	0.9955	-5.727	-5.5071	-1.9592	14.3017	1.2762	2.8158	8.4734	-12.2875	-4.8502
-10.6872	-8.9769	-11.9432	-10.8087	-7.2521	-11.2544	-8.7107	-3.82	-9.5065	-3.927	0.0984	-5.675	0.8624	0.9724	-5.6981	-5.4926	-1.9158	14.2612	1.2907	2.8476	8.4155	-11.9084	-4.882
-10.6149	-8.9885	-11.8621	-10.7017	-7.2058	-11.1387	-8.5775	-3.7476	-9.3473	-3.7852	0.1765	-5.4897	0.9463	0.9405	-5.6113	-5.4984	-1.8753	14.1773	1.2733	2.8765	8.346	-11.4541	-4.8965
-10.5599	-8.9827	-11.8014	-10.5483	-7.148	-11.0432	-8.4328	-3.6232	-9.1621	-3.6319	0.2691	-5.2987	1.0823	0.9376	-5.5447	-5.5505	-1.8434	14.0933	1.2791	2.891	8.2824	-10.9621	-4.9052
-10.5049	-9.0232	-11.7464	-10.4615	-7.1161	-10.9505	-8.32	-3.5653	-9.0174	-3.4843	0.3299	-5.1367	1.201	0.9232	-5.4984	-5.6489	-1.8087	14.047	1.2965	2.9228	8.21	-10.4065	-4.9167
-10.447	-9.0435	-11.674	-10.3341	-7.0727	-10.8435	-8.184	-3.5016	-8.8235	-3.3483	0.4341	-4.9139	1.3312	0.9029	-5.3914	-5.7386	-1.7826	13.9747	1.282	2.9576	8.1464	-9.8364	-4.9196
-10.3891	-9.0377	-11.593	-10.1981	-7.0177	-10.6872	-8.0624	-3.4032	-8.6325	-3.2093	0.5469	-4.7055	1.4556	0.8971	-5.2987	-5.8428	-1.7624	13.8676	1.2733	2.9865	8.074	-9.275	-4.9312
-10.2936	-9.0319	-11.4772	-10.0448	-6.9454	-10.5772	-7.9177	-3.3367	-8.4618	-3.0791	0.6396	-4.4856	1.5482	0.8711	-5.1801	-5.9412	-1.7335	13.7692	1.2502	2.9923	8.0045	-8.6991	-4.911
-10.1895	-9.0116	-11.3615	-9.9116	-6.8904	-10.4325	-7.7701	-3.2209	-8.2505	-2.9171	0.7466	-4.2772	1.6582	0.8769	-5.0614	-6.0656	-1.719	13.6708	1.2125	3.0299	7.9351	-8.1174	-4.8965
-10.0795	-8.9509	-11.2428	-9.7612	-6.8123	-10.3023	-7.6312	-3.1428	-8.0537	-2.8013	0.8363	-4.0544	1.7537	0.8537	-4.8936	-6.138	-1.69	13.529	1.2154	3.0444	7.8599	-7.5791	-4.8733
-9.955	-8.8727	-11.1068	-9.5933	-6.7254	-10.1403	-7.4721	-3.0473	-7.8541	-2.6392	0.9376	-3.8315	1.8434	0.845	-4.746	-6.1756	-1.6727	13.4248	1.201	3.0502	7.7817	-7.0727	-4.8878
-9.8132	-8.8062	-10.9621	-9.4457	-6.6386	-9.9753	-7.3158	-2.9547	-7.6804	-2.5177	1.0129	-3.6347	1.9505	0.8363	-4.5434	-6.2016	-1.6293	13.2801	1.1865	3.0733	7.6978	-6.5663	-4.8328
-9.6512	-8.6701	-10.7972	-9.2866	-6.5287	-9.8277	-7.1885	-2.8708	-7.4721	-2.3672	1.0881	-3.4409	2.0257	0.819	-4.3061	-6.1206	-1.6061	13.1586	1.1662	3.0907	7.6602	-6.109	-4.8415
-9.4718	-8.5544	-10.6149	-9.1245	-6.3753	-9.657	-7.0004	-2.7608	-7.2695	-2.2515	1.1402	-3.247	2.0981	0.7871	-4.0804	-6.0338	-1.5598	12.9879	1.1749	3.0791	7.5763	-5.6692	-4.8357
-9.2837	-8.3837	-10.4325	-8.948	-6.2537	-9.4949	-6.8383	-2.6884	-7.0553	-2.0952	1.2299	-3.0241	2.1762	0.7785	-3.82	-5.8775	-1.5251	12.8634	1.1662	3.0791	7.5068	-5.2467	-4.8357
-9.1187	-8.2187	-10.2763	-8.7975	-6.138	-9.3213	-6.6907	-2.5843	-6.8557	-1.9794	1.308	-2.8273	2.2254	0.7437	-3.5711	-5.7068	-1.4701	12.7216	1.1662	3.0646	7.4345	-4.8328	-4.8444
-8.9248	-8.0277	-10.0795	-8.6238	-5.9586	-9.1448	-6.5518	-2.4917	-6.656	-1.8781	1.3659	-2.6508	2.3036	0.7408	-3.3338	-5.4724	-1.4354	12.574	1.1634	3.0589	7.3708	-4.4364	-4.8386
-8.7338	-7.8164	-9.8827	-8.4531	-5.8052	-8.9711	-6.4042	-2.3846	-6.4679	-1.7711	1.4035	-2.4801	2.3441	0.6916	-3.0965	-5.264	-1.3891	12.4264	1.1749	3.027	7.284	-4.0196	-4.8589
-8.566	-7.6139	-9.7091	-8.3055	-5.6431	-8.8206	-6.2653	-2.2978	-6.2711	-1.6871	1.4759	-2.2949	2.4106	0.6945	-2.9084	-5.0267	-1.3515	12.2875	1.1778	3.027	7.2232	-3.6203	-4.8676
-8.3779	-7.3563	-9.4804	-8.1319	-5.4492	-8.6065	-6.1235	-2.1878	-6.0483	-1.6148	1.5425	-2.1068	2.4338	0.6656	-2.7261	-4.7605	-1.3167	12.1255	1.201	3.001	7.1624	-3.2412	-4.8502
-8.1869	-7.1277	-9.2894	-7.9843	-5.2553	-8.4039	-5.9788	-2.0634	-5.811	-1.4875	1.609	-1.8984	2.5003	0.6627	-2.6248	-4.5492	-1.2878	12.0097	1.2357	2.9663	7.148	-2.8447	-4.8589
-7.9959	-6.8672	-9.0666	-7.828	-5.0499	-8.1955	-5.811	-1.9447	-5.5795	-1.3891	1.7045	-1.6958	2.5756	0.654	-2.5409	-4.3177	-1.2646	11.8708	1.2762	2.9691	7.119	-2.4309	-4.8531
-7.8136	-6.601	-8.8554	-7.6631	-4.8126	-7.9843	-5.6692	-1.7682	-5.345	-1.282	1.8058	-1.5048	2.6711	0.6367	-2.5148	-4.1007	-1.2386	11.7753	1.3225	2.9778	7.0814	-2.0142	-4.856
-7.6197	-6.329	-8.5949	-7.4605	-4.5926	-7.747	-5.5042	-1.6408	-5.0875	-1.146	1.9042	-1.2762	2.7376	0.6164	-2.5437	-3.8952	-1.2183	11.6567	1.3688	2.9518	7.0467	-1.5801	-4.8647
-7.4345	-6.0656	-8.3721	-7.3245	-4.3467	-7.5126	-5.3537	-1.473	-4.8299	-1.036	2.0228	-1.0794	2.8216	0.6019	-2.5756	-3.6724	-1.201	11.5641	1.4209	2.9778	7.0409	-1.1547	-4.8762
-7.2463	-5.7994	-8.1203	-7.1508	-4.1065	-7.2724	-5.2061	-1.3023	-4.5753	-0.9145	2.1241	-0.8479	2.891	0.6019	-2.6624	-3.5016	-1.1749	11.4541	1.4846	2.9836	7.0409	-0.7003	-4.9081
-7.0467	-5.5216	-7.883	-6.9917	-3.8634	-7.0351	-5.0528	-1.1402	-4.3003	-0.7987	2.2515	-0.6656	2.9663	0.5933	-2.7463	-3.2556	-1.1518	11.3846	1.5106	2.9981	7.0293	-0.2691	-4.9428
-6.8441	-5.264	-7.6254	-6.8094	-3.6087	-6.8036	-4.8994	-0.9724	-4.0399	-0.6888	2.3527	-0.463	3.0473	0.573	-2.8042	-3.0097	-1.1286	11.266	1.5772	2.9836	7.0148	0.1563	-4.9804
-6.682	-5.0122	-7.3853	-6.6589	-3.3801	-6.5142	-4.7547	-0.8132	-3.8026	-0.5875	2.4309	-0.301	3.0965	0.5498	-2.9142	-2.7724	-1.0939	11.1502	1.6437	2.9605	6.983	0.5875	-5.0094
-6.4563	-4.7547	-7.1306	-6.4621	-3.1544	-6.2769	-4.5724	-0.6396	-3.5392	-0.4601	2.5409	-0.0955	3.1746	0.5643	-2.9489	-2.538	-1.091	11.075	1.6727	2.9605	6.9859	0.9695	-5.0151
-6.2943	-4.4971	-6.902	-6.2943	-2.891	-6.0367	-4.4335	-0.4949	-3.2788	-0.3704	2.6132	0.055	3.2383	0.5614	-2.9778	-2.2949	-1.091	10.9737	1.6929	2.9923	6.957	1.3688	-5.0296
-6.0685	-4.2425	-6.6386	-6.1177	-2.6508	-5.7907	-4.2685	-0.3386	-3.0675	-0.2691	2.7029	0.191	3.2441	0.5412	-2.946	-2.0663	-1.0736	10.8724	1.7363	2.9807	6.9396	1.7132	-5.0557
-5.866	-4.011	-6.3984	-5.9412	-2.4338	-5.5534	-4.0978	-0.1794	-2.8389	-0.165	2.7753	0.3357	3.3048	0.5527	-2.8534	-1.8405	-1.091	10.7711	1.7248	2.972	6.9049	2.0634	-5.0296
-5.675	-3.7823	-6.1438	-5.7386	-2.237	-5.3277	-3.9415	-0.0463	-2.6074	-0.0637	2.8187	0.4486	3.3483	0.5701	-2.729	-1.6408	-1.1228	10.6785	1.7363	2.9663	6.8846	2.428	-5.0209
-5.4377	-3.5566	-5.8949	-5.5389	-2.0142	-5.0701	-3.7447	0.1389	-2.3556	0.0666	2.9315	0.6048	3.3772	0.5875	-2.5669	-1.4238	-1.1489	10.583	1.7682	2.9778	6.8644	2.7897	-5.0122
-5.2553	-3.3917	-5.6634	-5.374	-1.8261	-4.8473	-3.5913	0.2633	-2.156	0.1534	2.9923	0.7003	3.4322	0.599	-2.4019	-1.282	-1.1691	10.4933	1.7769	2.9691	6.8557	3.2007	-5.0036
-5.0441	-3.1862	-5.429	-5.2061	-1.638	-4.6274	-3.4322	0.4225	-1.9331	0.2605	3.0646	0.8074	3.4611	0.6251	-2.1994	-1.1691	-1.2068	10.3949	1.8	2.9691	6.818	3.629	-4.9688
-4.9052	-3.0241	-5.2148	-5.0209	-1.4614	-4.4132	-3.2846	0.5527	-1.7421	0.3791	3.137	0.9203	3.4785	0.6396	-1.9794	-1.0679	-1.2473	10.337	1.7913	2.9749	6.8238	4.1036	-4.9659
-4.7026	-2.8447	-4.9862	-4.8097	-1.2531	-4.2164	-3.1023	0.7379	-1.5453	0.4775	3.2325	1.0215	3.5364	0.6685	-1.7595	-1.0505	-1.3023	10.2734	1.8261	2.9952	6.8065	4.6245	-4.9399
-4.5637	-2.7405	-4.8097	-4.6418	-1.1228	-4.011	-2.9402	0.8306	-1.3515	0.5759	3.2904	1.1055	3.5508	0.6801	-1.5714	-1.0881	-1.3167	10.1837	1.8405	3.001	6.8065	5.1801	-4.9196
-4.4161	-2.6045	-4.6187	-4.474	-0.9781	-3.8518	-2.7839	0.9839	-1.2097	0.6482	3.3685	1.1807	3.5769	0.6685	-1.3746	-1.2039	-1.3138	10.0882	1.8637	2.9807	6.8007	5.7444	-4.8907
-4.2772	-2.4888	-4.4624	-4.3177	-0.8248	-3.6347	-2.645	1.091	-1.0476	0.7322	3.4235	1.2675	3.5971	0.6772	-1.1518	-1.3399	-1.3312	9.9927	1.8521	2.9894	6.8238	6.3174	-4.8733
-4.173	-2.373	-4.2859	-4.1528	-0.6974	-3.464	-2.4974	1.1807	-0.9145	0.8074	3.4901	1.3428	3.6116	0.683	-0.9781	-1.4933	-1.337	9.9087	1.8724	2.9547	6.8094	6.8644	-4.8704
-4.0457	-2.263	-4.1325	-3.9936	-0.6019	-3.3048	-2.373	1.2878	-0.8074	0.8826	3.5219	1.3833	3.5971	0.6656	-0.8334	-1.6698	-1.3254	9.8248	1.8897	2.946	6.818	7.3766	-4.8733
-3.9415	-2.2023	-3.9965	-3.8373	-0.4775	-3.1601	-2.237	1.3833	-0.709	0.981	3.5913	1.4354	3.6319	0.683	-0.6772	-1.8724	-1.3341	9.8017	1.8926	2.9634	6.8296	7.8627	-4.8647
-3.7939	-2.101	-3.8344	-3.6521	-0.3791	-3.0444	-2.101	1.4441	-0.5961	1.036	3.6203	1.4441	3.6261	0.6743	-0.5701	-2.0199	-1.3399	9.7235	1.881	2.9836	6.8152	8.2939	-4.8473
-3.6955	-2.0286	-3.7158	-3.5306	-0.301	-2.8997	-1.991	1.5164	-0.5267	1.1142	3.6637	1.4846	3.6232	0.6888	-0.4891	-2.1791	-1.3515	9.6859	1.8695	2.972	6.8238	8.7136	-4.8502
-3.6145	-1.9736	-3.6261	-3.3656	-0.2518	-2.8013	-1.8753	1.5425	-0.4659	1.1518	3.6695	1.4846	3.6376	0.6859	-0.4254	-2.347	-1.3428	9.6483	1.8666	3.0126	6.8007	9.0435	-4.8213
-3.4698	-1.9071	-3.4756	-3.2036	-0.1621	-2.6884	-1.745	1.5945	-0.408	1.2212	3.6782	1.5222	3.6376	0.7061	-0.3415	-2.428	-1.3746	9.628	1.8376	3.001	6.8152	9.3242	-4.8184
-3.4003	-1.8579	-3.3656	-3.0733	-0.1389	-2.5785	-1.6669	1.5916	-0.3733	1.2531	3.6434	1.473	3.6579	0.7148	-0.2981	-2.5032	-1.3833	9.6165	1.7942	3.0183	6.7717	9.5615	-4.8184
-3.2991	-1.8232	-3.3048	-2.946	-0.0926	-2.5235	-1.5743	1.6061	-0.3907	1.2791	3.6087	1.4354	3.6145	0.7032	-0.2836	-2.6074	-1.3804	9.5991	1.7508	3.0068	6.7399	9.7727	-4.8068
-3.2325	-1.8232	-3.2296	-2.8447	-0.1187	-2.4627	-1.5048	1.583	-0.3907	1.308	3.5537	1.3833	3.5827	0.7177	-0.2141	-2.6306	-1.3949	9.6049	1.6929	3.0183	6.6936	9.9493	-4.8299
-3.1428	-1.7942	-3.1225	-2.7145	-0.0868	-2.3904	-1.4151	1.5569	-0.3762	1.3543	3.5335	1.3601	3.6174	0.7322	-0.1736	-2.645	-1.4151	9.6107	1.6553	3.0589	6.6618	10.094	-4.827
-3.0936	-1.7913	-3.0589	-2.6277	-0.0926	-2.3412	-1.3254	1.5453	-0.3907	1.3515	3.4843	1.3052	3.6174	0.7293	-0.1476	-2.6219	-1.4354	9.6222	1.6119	3.0589	6.627	10.2184	-4.8357
-3.0299	-1.7769	-3.0357	-2.5351	-0.11	-2.2891	-1.2907	1.5048	-0.3965	1.3659	3.438	1.2386	3.5942	0.7437	-0.1476	-2.5611	-1.4527	9.6194	1.5453	3.0762	6.5692	10.3313	-4.8357
-3.0155	-1.7942	-3.0039	-2.5003	-0.1592	-2.3093	-1.2675	1.4441	-0.4514	1.3399	3.3396	1.1662	3.5566	0.7351	-0.1505	-2.4888	-1.4585	9.6454	1.473	3.0675	6.5084	10.4007	-4.827
-2.9894	-1.8116	-2.9749	-2.4482	-0.1968	-2.2978	-1.2125	1.3775	-0.5093	1.3341	3.2817	1.0707	3.5335	0.7611	-0.1621	-2.3122	-1.5019	9.6425	1.4383	3.0646	6.4795	10.447	-4.8126
-3.0097	-1.8405	-2.9836	-2.428	-0.2431	-2.3064	-1.2125	1.2704	-0.5701	1.2878	3.1833	0.9695	3.4727	0.7727	-0.2257	-2.1791	-1.5106	9.6165	1.3572	3.0473	6.384	10.4731	-4.827
-3.0183	-1.8724	-2.9749	-2.4077	-0.2865	-2.3354	-1.2328	1.1952	-0.6569	1.227	3.0994	0.8479	3.3974	0.7871	-0.2981	-2.0113	-1.5396	9.602	1.2994	3.0299	6.3637	10.4933	-4.7807
-3.027	-1.8637	-2.9952	-2.4193	-0.3733	-2.3325	-1.2531	1.117	-0.7148	1.1489	2.9691	0.7206	3.2846	0.7929	-0.3531	-1.7826	-1.5656	9.5586	1.2444	2.9865	6.2885	10.4702	-4.8097
-3.056	-1.9187	-3.0299	-2.4251	-0.4399	-2.4135	-1.2907	1.0071	-0.8421	1.0563	2.8621	0.5643	3.1833	0.7987	-0.4688	-1.5974	-1.5772	9.5383	1.146	2.9257	6.2248	10.447	-4.801
-3.0791	-1.9534	-3.0386	-2.4511	-0.4949	-2.4193	-1.3457	0.9	-0.9145	0.9897	2.7376	0.4399	3.0994	0.8045	-0.5933	-1.4122	-1.5974	9.4689	1.065	2.8939	6.1669	10.4123	-4.7749
-3.1052	-1.9389	-3.0646	-2.4425	-0.5383	-2.4627	-1.3659	0.8045	-0.9984	0.8971	2.619	0.3212	3.001	0.8248	-0.7061	-1.2068	-1.6235	9.4255	0.9781	2.8592	6.0975	10.3341	-4.7489
-3.1601	-1.9708	-3.1254	-2.5177	-0.628	-2.5466	-1.4498	0.6569	-1.172	0.7727	2.4685	0.1244	2.8621	0.8219	-0.9116	-1.0302	-1.6235	9.3647	0.8682	2.7637	6.0367	10.2473	-4.7142
-3.1775	-1.9997	-3.1283	-2.5582	-0.7003	-2.5814	-1.5106	0.5469	-1.2589	0.6627	2.318	-0.0434	2.729	0.8392	-1.0997	-0.8769	-1.6553	9.3415	0.7669	2.7174	5.947	10.1316	-4.7142
-3.1833	-1.9852	-3.1688	-2.6277	-0.7495	-2.6161	-1.5743	0.4312	-1.3891	0.5614	2.1965	-0.1765	2.6132	0.8479	-1.3312	-0.7264	-1.6814	9.2779	0.6656	2.6624	5.8978	10.0129	-4.6968
-3.2383	-2.0199	-3.1978	-2.6913	-0.8392	-2.6913	-1.6495	0.3328	-1.5425	0.4543	2.0315	-0.327	2.5003	0.8595	-1.5367	-0.5961	-1.6958	9.2489	0.5585	2.6045	5.7907	9.8972	-4.6447
-3.2701	-2.0431	-3.2643	-2.7753	-0.9145	-2.7579	-1.7335	0.1968	-1.638	0.3415	1.9013	-0.4862	2.3817	0.8624	-1.7421	-0.5035	-1.7161	9.2316	0.4341	2.5437	5.7126	9.7785	-4.6303
-3.3164	-2.0807	-3.2962	-2.8476	-0.9781	-2.81	-1.8232	0.0666	-1.7653	0.2576	1.7682	-0.6598	2.3064	0.8711	-1.936	-0.4109	-1.7421	9.1997	0.3096	2.5032	5.6113	9.6512	-4.5897
-3.3772	-2.1241	-3.3714	-2.9547	-1.0968	-2.9142	-1.9129	-0.0666	-1.9187	0.1215	1.6206	-0.8016	2.1791	0.8884	-2.1039	-0.2923	-1.745	9.1737	0.1881	2.4367	5.5303	9.5325	-4.5637
-3.4148	-2.1617	-3.4409	-3.0241	-1.1894	-3.0068	-1.991	-0.2084	-2.0691	0.0232	1.4875	-0.9492	2.0489	0.9029	-2.2225	-0.2055	-1.7884	9.1737	0.0752	2.4106	5.429	9.4399	-4.5376
-3.4785	-2.2225	-3.5248	-3.1167	-1.2589	-3.1225	-2.0807	-0.3357	-2.237	-0.11	1.3486	-1.0997	1.9418	0.9174	-2.3122	-0.0984	-1.8087	9.1476	-0.0723	2.3962	5.319	9.3242	-4.4971
-3.5074	-2.2804	-3.6	-3.2036	-1.3775	-3.2065	-2.156	-0.4804	-2.3875	-0.2055	1.2039	-1.2473	1.8492	0.9376	-2.3643	0.0174	-1.8434	9.1419	-0.1707	2.3672	5.2438	9.2547	-4.4537
-3.5856	-2.3238	-3.6868	-3.2701	-1.4585	-3.3309	-2.2572	-0.6077	-2.538	-0.3039	1.0881	-1.3688	1.7479	0.9492	-2.3527	0.1794	-1.881	9.1505	-0.2431	2.3412	5.1164	9.1997	-4.4393
-3.6261	-2.4077	-3.765	-3.3569	-1.5511	-3.4322	-2.3238	-0.7061	-2.6913	-0.4225	0.9781	-1.5164	1.664	0.9637	-2.3064	0.3154	-1.9216	9.1419	-0.3415	2.3354	5.0412	9.1592	-4.419
-3.6695	-2.4685	-3.8489	-3.4264	-1.6351	-3.5335	-2.4019	-0.8016	-2.8476	-0.5122	0.8769	-1.609	1.6032	0.9897	-2.2109	0.463	-1.9823	9.1824	-0.408	2.3383	4.9631	9.165	-4.419
-3.7187	-2.5495	-3.9415	-3.4872	-1.719	-3.6608	-2.4685	-0.9029	-2.9923	-0.5933	0.7524	-1.7392	1.5164	1.0215	-2.1357	0.5788	-2.0199	9.1939	-0.4804	2.347	4.8676	9.1853	-4.4248
-3.7881	-2.645	-4.0283	-3.5711	-1.8116	-3.7534	-2.5293	-0.9984	-3.1486	-0.7119	0.6945	-1.8463	1.4035	1.0592	-1.991	0.654	-2.072	9.2142	-0.5672	2.3441	4.7836	9.2605	-4.4508
-3.8142	-2.7058	-4.1325	-3.6174	-1.8695	-3.8547	-2.5872	-1.091	-3.2904	-0.7669	0.6077	-1.9679	1.3428	1.0852	-1.8347	0.7293	-2.1357	9.2171	-0.5875	2.3701	4.6881	9.3705	-4.4711
-3.8692	-2.7782	-4.2193	-3.6695	-1.9302	-3.9618	-2.645	-1.1778	-3.4322	-0.8595	0.5064	-2.0576	1.2473	1.117	-1.6582	0.7987	-2.2109	9.2229	-0.6453	2.3788	4.6187	9.5007	-4.5087
-3.9618	-2.8852	-4.3235	-3.765	-2.0026	-4.0544	-2.7029	-1.2502	-3.5913	-0.9695	0.4341	-2.1878	1.146	1.1489	-1.5048	0.8016	-2.2572	9.2171	-0.6801	2.3527	4.5261	9.6657	-4.5261
-4.011	-2.9605	-4.4074	-3.8084	-2.0663	-4.1383	-2.7579	-1.3138	-3.7158	-1.0736	0.3762	-2.2949	1.0534	1.1807	-1.308	0.8566	-2.3383	9.1737	-0.7322	2.3701	4.445	9.8277	-4.5695
-4.0544	-3.0531	-4.4827	-3.8605	-2.127	-4.2396	-2.8302	-1.392	-3.8749	-1.1749	0.2894	-2.4106	0.9463	1.2299	-1.1113	0.8392	-2.4135	9.1505	-0.79	2.3788	4.3611	9.9811	-4.6216
-4.1267	-3.1573	-4.5608	-3.9068	-2.1907	-4.3409	-2.8939	-1.4614	-4.0167	-1.2994	0.1881	-2.5466	0.8363	1.2444	-0.9	0.7958	-2.4656	9.1013	-0.8103	2.3527	4.2801	10.0997	-4.6476
-4.1557	-3.2151	-4.5984	-3.9155	-2.2109	-4.3785	-2.9228	-1.5135	-4.1557	-1.3833	0.1215	-2.6479	0.7235	1.2965	-0.6772	0.7466	-2.5582	9.0348	-0.8132	2.347	4.2164	10.1489	-4.6881
-4.1701	-3.2672	-4.636	-3.9068	-2.237	-4.4306	-2.9663	-1.5627	-4.2714	-1.4962	0.0405	-2.7868	0.6135	1.3312	-0.4254	0.6656	-2.6074	8.9624	-0.8392	2.3151	4.1499	10.1229	-4.6968
-4.1962	-3.3222	-4.6505	-3.9184	-2.2688	-4.4769	-3.0039	-1.6119	-4.393	-1.6264	-0.0376	-2.9026	0.4833	1.3601	-0.2286	0.4746	-2.6653	8.8496	-0.8797	2.2862	4.0746	10.0448	-4.7026
-4.2222	-3.354	-4.6823	-3.9126	-2.3238	-4.5261	-3.0589	-1.6958	-4.5319	-1.7479	-0.1331	-3.056	0.3588	1.3688	-0.0434	0.2836	-2.7116	8.7193	-0.8884	2.237	3.9936	9.8595	-4.7084
-4.2106	-3.3859	-4.691	-3.9068	-2.3441	-4.6071	-3.1225	-1.6987	-4.6418	-1.8724	-0.2141	-3.1775	0.1997	1.3949	0.0984	0.026	-2.7521	8.6036	-0.8682	2.1936	3.9531	9.6194	-4.691
-4.2106	-3.4438	-4.7142	-3.9212	-2.3846	-4.6303	-3.1746	-1.7711	-4.7778	-2.0055	-0.2952	-3.2817	0.0695	1.4093	0.2228	-0.2633	-2.7782	8.4994	-0.8769	2.1241	3.9068	9.3068	-4.6939
-4.1817	-3.4495	-4.72	-3.9184	-2.4106	-4.6881	-3.2209	-1.8029	-4.8878	-2.1299	-0.3444	-3.4032	-0.0463	1.4296	0.3154	-0.5556	-2.81	8.375	-0.8624	2.1039	3.8807	8.9509	-4.6679
-4.173	-3.4756	-4.7344	-3.9241	-2.4598	-4.7402	-3.3048	-1.8666	-5.0267	-2.2572	-0.4225	-3.5537	-0.191	1.4441	0.3212	-0.8971	-2.8331	8.2592	-0.8653	2.0315	3.8634	8.5457	-4.6534
-4.1962	-3.5161	-4.7692	-3.9936	-2.5293	-4.8415	-3.4235	-1.965	-5.1714	-2.4396	-0.5122	-3.7129	-0.327	1.4412	0.2662	-1.256	-2.836	8.1464	-0.8566	1.9736	3.8344	8.129	-4.665
-4.2251	-3.574	-4.8415	-4.0659	-2.6335	-4.992	-3.5769	-2.0518	-5.3595	-2.6306	-0.6251	-3.8373	-0.5296	1.4267	0.1707	-1.6032	-2.8158	8.0103	-0.8682	1.8463	3.8229	7.7123	-4.6766
-4.2454	-3.6347	-4.9428	-4.1557	-2.7261	-5.1106	-3.7187	-2.1646	-5.5274	-2.81	-0.7293	-3.9907	-0.6656	1.4209	0.0289	-1.9505	-2.7868	7.8888	-0.8711	1.7826	3.8084	7.2782	-4.665
-4.3467	-3.736	-5.0383	-4.3148	-2.8389	-5.2669	-3.8836	-2.2601	-5.7155	-2.9663	-0.8248	-4.1585	-0.8074	1.4007	-0.165	-2.2659	-2.7579	7.7904	-0.8248	1.7103	3.8315	6.8672	-4.6679
-4.419	-3.8171	-5.1801	-4.4277	-2.9807	-5.4637	-4.0978	-2.3846	-5.8804	-3.1659	-0.9058	-4.3032	-0.9492	1.363	-0.3617	-2.5264	-2.6884	7.6978	-0.8363	1.6003	3.8576	6.4592	-4.7113
-4.5376	-3.9618	-5.3074	-4.6216	-3.1428	-5.646	-4.3032	-2.5206	-6.0917	-3.3859	-1.0244	-4.4711	-1.1199	1.3283	-0.5759	-2.7955	-2.6132	7.5965	-0.8363	1.5106	3.8518	6.0975	-4.7634
-4.6621	-4.0775	-5.5042	-4.8126	-3.2933	-5.8631	-4.5405	-2.6595	-6.2595	-3.5711	-1.1113	-4.6013	-1.2473	1.2849	-0.7871	-2.9952	-2.5264	7.5184	-0.8219	1.4007	3.8952	5.756	-4.8039
-4.8097	-4.2077	-5.701	-5.0325	-3.4438	-6.0512	-4.7518	-2.7637	-6.4274	-3.7679	-1.1836	-4.72	-1.3457	1.227	-1.0042	-3.2093	-2.4164	7.4373	-0.8016	1.3138	3.9444	5.4782	-4.8386
-4.9833	-4.3698	-5.892	-5.2872	-3.6029	-6.2914	-4.9833	-2.8852	-6.6039	-3.9299	-1.2415	-4.8155	-1.4527	1.1691	-1.1518	-3.3454	-2.3007	7.3679	-0.7611	1.2241	4.0081	5.209	-4.9312
-5.1598	-4.5029	-6.0888	-5.4955	-3.7476	-6.4621	-5.2293	-2.9634	-6.7457	-4.1238	-1.2704	-4.9139	-1.5627	1.1199	-1.2849	-3.4582	-2.182	7.2926	-0.7351	1.1142	4.0833	4.9775	-5.0296
-5.3335	-4.6331	-6.2711	-5.7213	-3.8576	-6.6531	-5.4405	-3.0646	-6.8586	-4.254	-1.2762	-4.9544	-1.5974	1.0476	-1.3717	-3.545	-2.0605	7.2348	-0.709	1.0187	4.1701	4.7923	-5.1164
-5.5332	-4.7518	-6.4447	-5.9788	-3.9733	-6.8123	-5.6402	-3.0965	-6.957	-4.3901	-1.2791	-4.9688	-1.6958	0.9666	-1.473	-3.6405	-1.9042	7.1393	-0.654	0.8711	4.2454	4.636	-5.2351
-5.6865	-4.8647	-6.5923	-6.2074	-4.0688	-6.9425	-5.837	-3.1341	-7.0062	-4.5145	-1.2357	-4.9573	-1.7132	0.9029	-1.4701	-3.6984	-1.774	7.064	-0.6135	0.7814	4.3524	4.5174	-5.3306
-5.8486	-4.9717	-6.7341	-6.4389	-4.1383	-7.0496	-6.0164	-3.1515	-7.0322	-4.6418	-1.1865	-4.9486	-1.7566	0.819	-1.4817	-3.7505	-1.6148	6.957	-0.5498	0.6396	4.4479	4.4364	-5.4579
-6.0106	-5.047	-6.8672	-6.627	-4.1759	-7.119	-6.1988	-3.1196	-7.0351	-4.7084	-1.1257	-4.8704	-1.7595	0.7437	-1.4556	-3.7939	-1.4556	6.8586	-0.518	0.5267	4.5348	4.3785	-5.5505
-6.138	-5.1077	-6.9338	-6.8036	-4.1962	-7.148	-6.3116	-3.0936	-6.9946	-4.7576	-1.036	-4.7634	-1.7363	0.6685	-1.4122	-3.7939	-1.308	6.7631	-0.4341	0.4109	4.6389	4.3351	-5.6836
-6.274	-5.1222	-7.0206	-6.9743	-4.2048	-7.1624	-6.4389	-3.027	-6.928	-4.7923	-0.9203	-4.6534	-1.7132	0.5961	-1.3167	-3.7592	-1.1489	6.6589	-0.3965	0.2894	4.7286	4.3119	-5.7589
-6.3463	-5.1454	-7.038	-7.1074	-4.1585	-7.174	-6.5171	-2.972	-6.847	-4.8213	-0.7929	-4.5203	-1.6524	0.5238	-1.2386	-3.6984	-1.0215	6.5663	-0.3444	0.1852	4.8184	4.3003	-5.8602
-6.4071	-5.1251	-7.0582	-7.2203	-4.1093	-7.1306	-6.5923	-2.8881	-6.7312	-4.827	-0.6656	-4.3611	-1.609	0.4514	-1.1199	-3.5884	-0.8797	6.4824	-0.3183	0.0839	4.9196	4.2656	-5.9528
-6.4679	-5.0817	-7.0409	-7.3071	-4.0515	-7.0467	-6.627	-2.8042	-6.6386	-4.8328	-0.5412	-4.1933	-1.5685	0.3878	-0.9955	-3.4409	-0.7466	6.3724	-0.246	-0.0347	5.0094	4.2569	-6.0425
-6.4939	-5.0499	-7.0148	-7.3766	-3.956	-6.9772	-6.656	-2.6884	-6.5113	-4.801	-0.4023	-4.0312	-1.4962	0.3241	-0.8653	-3.247	-0.6338	6.3	-0.2113	-0.1158	5.0817	4.202	-6.1322
-6.4997	-4.9659	-6.9425	-7.4142	-3.8778	-6.8846	-6.6473	-2.5785	-6.3406	-4.7489	-0.2605	-3.8518	-1.4412	0.2807	-0.7437	-3.0241	-0.5354	6.2161	-0.1823	-0.1939	5.1801	4.1441	-6.2479
-6.4852	-4.8762	-6.9049	-7.4171	-3.765	-6.792	-6.6242	-2.4511	-6.1872	-4.6997	-0.1331	-3.6753	-1.3688	0.2228	-0.5933	-2.7376	-0.4486	6.1524	-0.1302	-0.2749	5.2293	4.0515	-6.3232
-6.4389	-4.7981	-6.8354	-7.4316	-3.6695	-6.6531	-6.5807	-2.3296	-6.057	-4.6447	0.0174	-3.5248	-1.2646	0.191	-0.4514	-2.4569	-0.3675	6.0917	-0.0955	-0.3154	5.2843	3.9126	-6.4187
-6.3782	-4.6823	-6.7631	-7.4113	-3.5479	-6.546	-6.5431	-2.2052	-5.8891	-4.5608	0.1418	-3.3367	-1.1836	0.165	-0.3444	-2.2052	-0.301	6.0164	-0.055	-0.382	5.3364	3.7737	-6.4939
-6.3145	-4.5724	-6.6502	-7.365	-3.4235	-6.3984	-6.4534	-2.0981	-5.7213	-4.4711	0.2576	-3.1746	-1.091	0.136	-0.2344	-1.8868	-0.246	5.9586	-0.0347	-0.4109	5.3769	3.5798	-6.5489
-6.2074	-4.4595	-6.5489	-7.2984	-3.2933	-6.2682	-6.3811	-1.9794	-5.5563	-4.3756	0.382	-2.9807	-1.0013	0.1158	-0.165	-1.5801	-0.2084	5.9354	0	-0.4167	5.4116	3.3946	-6.601
-6.1264	-4.3148	-6.4476	-7.2058	-3.1544	-6.1438	-6.2566	-1.8347	-5.3942	-4.2309	0.5064	-2.8013	-0.8711	0.1013	-0.1042	-1.3167	-0.1736	5.8862	0.0087	-0.4341	5.4116	3.2036	-6.6473
-6.0078	-4.1701	-6.3434	-7.1017	-3.0068	-5.947	-6.1409	-1.6871	-5.1975	-4.0746	0.6367	-2.5987	-0.7524	0.0955	-0.0781	-0.9926	-0.1678	5.866	0.0695	-0.4225	5.4405	3.0097	-6.6907
-5.8804	-4.037	-6.2103	-6.9917	-2.8592	-5.8168	-6.002	-1.5569	-5.0151	-3.9328	0.7495	-2.399	-0.6164	0.0955	-0.055	-0.7119	-0.1765	5.8428	0.0926	-0.4051	5.4116	2.8245	-6.6994
-5.7589	-3.8778	-6.083	-6.8586	-2.7087	-5.6518	-5.8631	-1.4007	-4.7981	-3.765	0.8826	-2.1878	-0.4746	0.1042	-0.0781	-0.4833	-0.1968	5.8399	0.0926	-0.3704	5.3624	2.6479	-6.711
-5.6142	-3.6984	-5.9383	-6.7052	-2.5409	-5.4637	-5.6721	-1.2386	-4.6158	-3.6029	1.01	-1.9621	-0.3096	0.1129	-0.1447	-0.2228	-0.2228	5.8457	0.1129	-0.3299	5.319	2.4454	-6.7168
-5.455	-3.5277	-5.7705	-6.546	-2.3701	-5.2698	-5.5042	-1.091	-4.4016	-3.409	1.1402	-1.7566	-0.1563	0.1418	-0.1678	-0.0087	-0.2662	5.8746	0.1302	-0.2547	5.2698	2.2283	-6.711
-5.2727	-3.3338	-5.6113	-6.3579	-2.1762	-5.0557	-5.3016	-0.9289	-4.1585	-3.1949	1.2646	-1.528	0.0203	0.1534	-0.2315	0.1707	-0.3068	5.8573	0.1505	-0.191	5.1917	1.9736	-6.7023
-5.1077	-3.1544	-5.4174	-6.193	-1.991	-4.8647	-5.102	-0.7669	-3.9328	-3.0126	1.3775	-1.3312	0.1852	0.1881	-0.3299	0.2865	-0.3588	5.9065	0.165	-0.1302	5.0991	1.6814	-6.656
-4.9457	-2.9894	-5.2322	-5.9904	-1.8232	-4.6592	-4.9167	-0.6453	-3.7187	-2.8187	1.499	-1.117	0.3241	0.1939	-0.437	0.3588	-0.3965	5.8949	0.1418	-0.0723	4.9949	1.4007	-6.6415
-4.7431	-2.7695	-5.0296	-5.7965	-1.6322	-4.4508	-4.7026	-0.4688	-3.4987	-2.6277	1.5859	-0.9058	0.4862	0.2315	-0.5354	0.4167	-0.4688	5.9123	0.1418	0.0029	4.8849	1.0418	-6.601
-4.5463	-2.6161	-4.8618	-5.5968	-1.4788	-4.2569	-4.5232	-0.3386	-3.3193	-2.4454	1.6611	-0.7148	0.6164	0.2547	-0.6685	0.3907	-0.5151	5.9036	0.0839	0.055	4.7315	0.6685	-6.5489
-4.3351	-2.4106	-4.6592	-5.3827	-1.2878	-4.0341	-4.3293	-0.217	-3.0878	-2.2601	1.7363	-0.518	0.7177	0.2981	-0.79	0.3531	-0.5846	5.8891	0.0666	0.11	4.5695	0.2778	-6.4997
-4.1325	-2.2341	-4.4566	-5.1888	-1.1431	-3.8489	-4.1267	-0.0984	-2.9257	-2.1154	1.7769	-0.3733	0.8161	0.327	-0.9608	0.2662	-0.6367	5.866	0.0203	0.1678	4.3872	-0.136	-6.4303
-3.9068	-2.046	-4.2714	-5.0007	-0.9955	-3.6782	-3.9502	0.0029	-2.7434	-1.9592	1.8029	-0.2315	0.9	0.356	-1.0968	0.1621	-0.709	5.8139	-0.0347	0.2199	4.202	-0.5354	-6.3869
-3.71	-1.8781	-4.0717	-4.8213	-0.8566	-3.4843	-3.82	0.1013	-2.5785	-1.829	1.8318	-0.0839	0.9347	0.4023	-1.2212	0.0666	-0.7929	5.7415	-0.0695	0.272	4.0081	-0.9318	-6.3406
-3.5364	-1.7769	-3.9357	-4.691	-0.7611	-3.3627	-3.6839	0.1678	-2.4425	-1.7132	1.8145	0.0145	0.9579	0.4312	-1.3978	-0.0579	-0.8479	5.6373	-0.1505	0.246	3.7794	-1.2617	-6.2856
-3.3714	-1.6408	-3.791	-4.5492	-0.6482	-3.2065	-3.5653	0.2431	-2.3036	-1.6495	1.8116	0.0897	0.9579	0.4659	-1.4846	-0.136	-0.9232	5.5187	-0.2576	0.2315	3.5479	-1.5569	-6.2682
-3.2325	-1.5453	-3.6695	-4.4595	-0.573	-3.1023	-3.464	0.2691	-2.1878	-1.5743	1.7682	0.1707	0.9492	0.5267	-1.5598	-0.2518	-1.0158	5.3827	-0.3357	0.2431	3.3222	-1.7624	-6.2074
-3.1081	-1.4846	-3.5827	-4.3756	-0.518	-2.9778	-3.3917	0.3212	-2.0952	-1.5338	1.7335	0.2315	0.9261	0.5498	-1.609	-0.3646	-1.0881	5.2264	-0.3878	0.1852	3.0994	-1.8839	-6.1988
-3.056	-1.4267	-3.5045	-4.3524	-0.4775	-2.8823	-3.3511	0.3212	-2.0055	-1.5338	1.7045	0.272	0.8595	0.5846	-1.5945	-0.4572	-1.1518	5.0383	-0.4891	0.1389	2.8708	-1.9216	-6.193
-3.0183	-1.4093	-3.4553	-4.3467	-0.4457	-2.8158	-3.3193	0.3762	-1.9273	-1.5077	1.6322	0.327	0.7842	0.6135	-1.583	-0.5904	-1.2039	4.8676	-0.5788	0.0752	2.6364	-1.8868	-6.2161
-2.9952	-1.4354	-3.4524	-4.3814	-0.4457	-2.7724	-3.3193	0.356	-1.9129	-1.5367	1.5598	0.3415	0.7003	0.6222	-1.447	-0.6801	-1.2328	4.665	-0.6338	-0.0087	2.4425	-1.8029	-6.2248
-3.0386	-1.4614	-3.4582	-4.4277	-0.4688	-2.7434	-3.3425	0.3357	-1.8637	-1.583	1.4817	0.356	0.6077	0.6367	-1.3196	-0.7842	-1.2531	4.4306	-0.7293	-0.1129	2.2196	-1.6437	-6.2653
-3.0762	-1.4846	-3.4872	-4.5116	-0.4659	-2.7261	-3.4061	0.3299	-1.8666	-1.664	1.4151	0.356	0.4833	0.6424	-1.1344	-0.8971	-1.2473	4.1904	-0.819	-0.2402	2.0228	-1.4556	-6.3058
-3.1717	-1.5685	-3.5248	-4.5984	-0.518	-2.7232	-3.4553	0.2749	-1.8666	-1.7566	1.3196	0.3039	0.3646	0.6396	-0.9203	-0.9984	-1.2444	3.9444	-0.8942	-0.3531	1.8376	-1.2415	-6.355
-3.2585	-1.638	-3.5682	-4.7286	-0.5701	-2.7492	-3.5711	0.2315	-1.8984	-1.8666	1.2154	0.2865	0.2084	0.6309	-0.6801	-1.091	-1.2125	3.6955	-0.9637	-0.492	1.664	-1.0187	-6.3869
-3.3338	-1.7277	-3.6579	-4.8531	-0.6222	-2.8042	-3.6608	0.1823	-1.9331	-1.9852	1.0852	0.2199	0.0347	0.6135	-0.3936	-1.1634	-1.2039	3.4119	-1.0331	-0.6251	1.4759	-0.8016	-6.4418
-3.4756	-1.829	-3.7418	-4.9949	-0.709	-2.8794	-3.7823	0.0579	-2.0084	-2.1617	0.9029	0.1158	-0.1563	0.5846	-0.136	-1.282	-1.1402	3.1196	-1.117	-0.8016	1.3023	-0.6019	-6.4852
-3.6319	-1.9881	-3.8634	-5.1888	-0.8103	-2.9836	-3.9357	-0.0376	-2.1415	-2.3354	0.7437	-0.0376	-0.4051	0.5412	0.0897	-1.4064	-1.0505	2.7984	-1.2097	-0.9695	1.1026	-0.4312	-6.5287
-3.7708	-2.1039	-3.9733	-5.3798	-0.9579	-3.0762	-4.0891	-0.1736	-2.2688	-2.5524	0.5672	-0.1794	-0.6251	0.5064	0.3704	-1.5309	-0.9781	2.4656	-1.2849	-1.1576	0.9579	-0.2807	-6.5605
-3.9068	-2.2167	-4.0949	-5.5389	-1.0534	-3.1862	-4.2338	-0.2633	-2.3788	-2.755	0.3936	-0.3299	-0.8971	0.4457	0.5498	-1.6698	-0.8769	2.1733	-1.3515	-1.3515	0.7958	-0.1707	-6.6357
-4.0254	-2.3383	-4.2309	-5.7039	-1.172	-3.3135	-4.3727	-0.3733	-2.5119	-2.9489	0.2286	-0.4891	-1.1142	0.4023	0.7785	-1.774	-0.7785	1.8492	-1.4007	-1.4933	0.6627	-0.1042	-6.6676
-4.1499	-2.4627	-4.2917	-5.837	-1.2502	-3.409	-4.5203	-0.5006	-2.6421	-3.1341	0.0637	-0.6656	-1.3486	0.3473	0.9579	-1.8695	-0.6511	1.5453	-1.4498	-1.6669	0.5469	-0.11	-6.6878
-4.2338	-2.5293	-4.3958	-5.9672	-1.3399	-3.5335	-4.6418	-0.5904	-2.7695	-3.3251	-0.0955	-0.8103	-1.6061	0.272	1.0794	-1.9447	-0.5151	1.2328	-1.4788	-1.8174	0.4428	-0.1129	-6.7428
-4.3119	-2.59	-4.4393	-6.0512	-1.4093	-3.6232	-4.7605	-0.6396	-2.8765	-3.4987	-0.1997	-0.9521	-1.829	0.2084	1.1749	-2.0055	-0.3936	0.9579	-1.4556	-1.9708	0.4023	-0.1736	-6.7949
-4.338	-2.6219	-4.4711	-6.1467	-1.4151	-3.6782	-4.8386	-0.6888	-2.9402	-3.6174	-0.3212	-1.0621	-2.0315	0.1418	1.2646	-1.9794	-0.2576	0.7119	-1.4325	-2.0952	0.3791	-0.2894	-6.8354
-4.3438	-2.6392	-4.5116	-6.2132	-1.4238	-3.7476	-4.9283	-0.7264	-3.0126	-3.7708	-0.3878	-1.172	-2.2167	0.0637	1.2994	-1.9505	-0.1071	0.4312	-1.3717	-2.237	0.3791	-0.4283	-6.8846
-4.3206	-2.5785	-4.4856	-6.1988	-1.4122	-3.7331	-4.9341	-0.7148	-3.0357	-3.8865	-0.4312	-1.282	-2.3759	-0.0203	1.337	-1.8492	0.0492	0.1852	-1.2907	-2.3354	0.4254	-0.5933	-6.9164
-4.2454	-2.5466	-4.4161	-6.2016	-1.3572	-3.7302	-4.9341	-0.6511	-3.0328	-3.9733	-0.4775	-1.3254	-2.5148	-0.0926	1.3746	-1.719	0.1968	-0.0174	-1.1691	-2.4048	0.4833	-0.7814	-6.983
-4.1672	-2.4338	-4.3553	-6.1322	-1.2589	-3.7042	-4.911	-0.6135	-3.0212	-4.0312	-0.4659	-1.3688	-2.6508	-0.1534	1.3833	-1.5685	0.3473	-0.2026	-1.0534	-2.4743	0.5904	-0.9463	-7.0148
-4.0399	-2.3209	-4.254	-6.0627	-1.1923	-3.6405	-4.8936	-0.5672	-3.001	-4.0949	-0.4572	-1.3978	-2.7724	-0.2344	1.3572	-1.3543	0.5035	-0.4196	-0.9029	-2.5785	0.6974	-1.1228	-7.0553
-3.8894	-2.1675	-4.1499	-5.9586	-1.065	-3.574	-4.827	-0.4399	-2.9605	-4.1151	-0.4138	-1.3978	-2.8765	-0.327	1.3254	-1.1923	0.6772	-0.6106	-0.7408	-2.6306	0.7987	-1.2849	-7.1074
-3.7274	-2.0286	-4.0225	-5.8283	-0.9579	-3.4872	-4.746	-0.3473	-2.9228	-4.1643	-0.4225	-1.4441	-2.9807	-0.4196	1.2617	-0.9318	0.8566	-0.79	-0.6048	-2.6798	0.9087	-1.4412	-7.1364
-3.5508	-1.829	-3.8749	-5.6778	-0.8045	-3.3743	-4.665	-0.2402	-2.8302	-4.1528	-0.382	-1.4585	-3.0675	-0.5093	1.1865	-0.709	1.0302	-0.9926	-0.4341	-2.7232	1.0158	-1.554	-7.1885
-3.3077	-1.6495	-3.6811	-5.4984	-0.6627	-3.2759	-4.5261	-0.1389	-2.7492	-4.1296	-0.356	-1.4643	-3.1688	-0.6019	1.146	-0.4051	1.2097	-1.1402	-0.2749	-2.7579	1.1142	-1.6698	-7.2521
-3.0994	-1.473	-3.5161	-5.319	-0.4833	-3.1428	-4.4306	-0.0232	-2.674	-4.1383	-0.3531	-1.4904	-3.2354	-0.6945	1.0881	-0.1158	1.4007	-1.3196	-0.1158	-2.7926	1.201	-1.7479	-7.2898
-2.8563	-1.2589	-3.3511	-5.1049	-0.3473	-3.027	-4.2743	0.0752	-2.5958	-4.1209	-0.3357	-1.5135	-3.3135	-0.8103	1.0736	0.1997	1.609	-1.5135	0.0434	-2.8389	1.3023	-1.7711	-7.3592
-2.5958	-1.0447	-3.1283	-4.8994	-0.1678	-2.8563	-4.1383	0.1997	-2.4801	-4.0949	-0.2865	-1.5251	-3.3974	-0.9087	1.1084	0.5412	1.8058	-1.6553	0.2141	-2.865	1.3775	-1.8116	-7.3968
-2.3383	-0.8132	-2.8852	-4.6476	0.0289	-2.7116	-3.9647	0.3444	-2.373	-4.0283	-0.2576	-1.5251	-3.4756	-1.0013	1.1894	0.9289	2.0084	-1.8116	0.3849	-2.8823	1.4614	-1.7971	-7.4287
-2.0749	-0.5846	-2.6827	-4.3843	0.2084	-2.5524	-3.7881	0.4746	-2.2601	-3.9849	-0.2286	-1.5135	-3.5161	-1.1026	1.3196	1.3457	2.2023	-1.9881	0.5238	-2.8968	1.5367	-1.7682	-7.4663
-1.7942	-0.3675	-2.4714	-4.1354	0.3907	-2.373	-3.6116	0.6193	-2.101	-3.9155	-0.1852	-1.5019	-3.5884	-1.2039	1.5193	1.8058	2.3962	-2.1502	0.6627	-2.9402	1.6235	-1.69	-7.5213
-1.5627	-0.1273	-2.2457	-3.8923	0.5875	-2.2081	-3.4322	0.7727	-1.965	-3.8431	-0.11	-1.499	-3.6376	-1.2907	1.7566	2.2804	2.5698	-2.3296	0.7958	-2.9402	1.6871	-1.5656	-7.5791
-1.2936	0.0752	-2.0315	-3.629	0.7929	-2.0171	-3.2209	0.9289	-1.8116	-3.765	-0.0521	-1.4412	-3.6695	-1.363	2.0663	2.7492	2.7347	-2.4772	0.9347	-2.9923	1.7682	-1.4122	-7.6168
-1.0447	0.3068	-1.8029	-3.3946	0.9955	-1.8232	-3.0357	1.091	-1.6466	-3.6984	0.0029	-1.392	-3.71	-1.4498	2.3962	3.1978	2.9055	-2.6248	1.0852	-3.0068	1.8232	-1.2039	-7.6457
-0.7958	0.5498	-1.5511	-3.1254	1.2415	-1.6264	-2.8447	1.256	-1.4498	-3.574	0.0955	-1.3196	-3.7071	-1.5396	2.7376	3.6347	3.0646	-2.7753	1.2473	-3.0212	1.9129	-0.9174	-7.7007
-0.5325	0.7842	-1.308	-2.8534	1.4527	-1.418	-2.6219	1.4672	-1.2762	-3.4611	0.1939	-1.2299	-3.6984	-1.609	3.1341	4.0688	3.2093	-2.8881	1.3862	-3.0299	1.9939	-0.5961	-7.7325
-0.2894	1.0563	-1.0534	-2.5524	1.7103	-1.1865	-2.3962	1.6698	-1.036	-3.2991	0.3588	-1.0968	-3.6376	-1.6958	3.5161	4.4132	3.3483	-2.9923	1.5569	-3.0183	2.1039	-0.191	-7.7788
-0.0405	1.2907	-0.7842	-2.2891	1.9765	-0.9318	-2.1704	1.8839	-0.8248	-3.1717	0.4717	-0.9781	-3.6029	-1.7421	3.8634	4.691	3.4727	-3.0299	1.7219	-3.0068	2.2138	0.2518	-7.8164
0.2257	1.5656	-0.5527	-1.9997	2.2254	-0.7206	-1.9418	2.0865	-0.6048	-3.0126	0.6164	-0.8537	-3.5306	-1.7913	4.1701	4.9167	3.5856	-3.082	1.8666	-2.9489	2.2978	0.7669	-7.8685
0.4659	1.7971	-0.3039	-1.7045	2.4859	-0.4717	-1.7045	2.3122	-0.3704	-2.8563	0.7785	-0.7264	-3.4698	-1.8521	4.445	5.0933	3.6897	-3.1138	2.0431	-2.9286	2.4077	1.3196	-7.9119
0.6888	2.0344	-0.0434	-1.4267	2.729	-0.2373	-1.473	2.5351	-0.1447	-2.6827	0.9463	-0.5672	-3.3714	-1.9042	4.6852	5.1859	3.7823	-3.1138	2.1994	-2.8823	2.5235	1.9273	-7.964
0.9174	2.2399	0.191	-1.172	2.9749	-0.0116	-1.2646	2.7	0.0347	-2.5293	1.0563	-0.4486	-3.2875	-1.9389	4.8647	5.2409	3.8692	-3.1081	2.3383	-2.8476	2.6016	2.5669	-7.9988
1.117	2.4656	0.4023	-0.9058	3.2122	0.1823	-1.0592	2.8968	0.2373	-2.3904	1.2212	-0.3183	-3.2007	-1.9823	5.047	5.2206	3.9531	-3.082	2.4743	-2.7868	2.6827	3.2296	-8.0451
1.3052	2.6306	0.6077	-0.7003	3.4322	0.3733	-0.8624	3.0849	0.3965	-2.237	1.3486	-0.1939	-3.1196	-2.0402	5.1801	5.209	4.0399	-3.056	2.6132	-2.7637	2.7608	3.9097	-8.0885
1.4498	2.7868	0.7756	-0.4978	3.6145	0.5296	-0.6974	3.2036	0.5151	-2.1039	1.4441	-0.1013	-3.0386	-2.0778	5.2872	5.1483	4.1267	-3.0386	2.7261	-2.7145	2.8129	4.6158	-8.1348
1.5888	2.9257	0.9347	-0.2923	3.8026	0.6743	-0.5151	3.3396	0.654	-1.9621	1.5453	-0.0145	-2.9373	-2.101	5.3769	5.0933	4.1933	-2.9865	2.8302	-2.6682	2.8939	5.3132	-8.1955
1.7277	3.082	1.0736	-0.1215	3.9473	0.7958	-0.382	3.4756	0.7785	-1.8492	1.6177	0.081	-2.8563	-2.1444	5.4637	5.0267	4.2656	-2.9431	2.9286	-2.6277	2.9663	6.002	-8.2476
1.8608	3.1978	1.2125	0.026	4.1036	0.9289	-0.272	3.5769	0.8392	-1.7508	1.7219	0.1563	-2.7897	-2.1791	5.5476	4.9196	4.338	-2.9026	3.0155	-2.6045	3.0444	6.6618	-8.3026
1.9331	3.2991	1.2965	0.1389	4.2164	0.9897	-0.165	3.6753	0.8971	-1.6814	1.7855	0.2199	-2.7261	-2.2138	5.646	4.8444	4.393	-2.8505	3.1023	-2.5814	3.1023	7.3245	-8.346
2.0055	3.3946	1.3949	0.246	4.3467	1.0997	-0.0492	3.7389	0.981	-1.5685	1.8492	0.2633	-2.6421	-2.2312	5.7589	4.7692	4.4335	-2.81	3.1775	-2.5611	3.1746	7.9438	-8.375
2.0691	3.4987	1.4875	0.3646	4.4508	1.1778	0.0405	3.8489	0.9955	-1.4904	1.9331	0.3068	-2.5669	-2.2428	5.9065	4.6563	4.4595	-2.7695	3.2672	-2.5351	3.2614	8.537	-8.4126
2.1241	3.5711	1.5685	0.4514	4.5637	1.2386	0.1273	3.927	1.036	-1.3804	1.9997	0.3762	-2.483	-2.2572	6.0164	4.584	4.4856	-2.7145	3.3338	-2.5264	3.3627	9.0898	-8.4242
2.1907	3.6579	1.6032	0.5035	4.6303	1.2675	0.191	4.0023	1.0534	-1.3225	2.0576	0.4254	-2.4193	-2.2544	6.1727	4.5087	4.4769	-2.6769	3.4235	-2.5148	3.4264	9.5933	-8.4531
2.2486	3.7302	1.6785	0.5556	4.7142	1.3312	0.2605	4.0804	1.091	-1.2473	2.1328	0.4804	-2.3499	-2.2457	6.3319	4.4306	4.4711	-2.6479	3.4814	-2.538	3.5306	10.0563	-8.4936
2.3238	3.8084	1.7219	0.628	4.8155	1.3717	0.3154	4.1383	1.1055	-1.1894	2.182	0.5093	-2.2515	-2.2515	6.5084	4.4132	4.4682	-2.5872	3.5277	-2.509	3.6261	10.4586	-8.4647
2.3585	3.901	1.7363	0.6743	4.8647	1.3833	0.3357	4.1846	1.0794	-1.1691	2.2254	0.5383	-2.1907	-2.237	6.6734	4.3756	4.4595	-2.5727	3.5913	-2.5119	3.71	10.8261	-8.4589
2.4135	3.9791	1.7884	0.7061	4.9167	1.3978	0.3473	4.2569	1.0881	-1.1055	2.2862	0.5846	-2.1299	-2.2457	6.8499	4.3756	4.4624	-2.5264	3.6521	-2.5437	3.7968	11.156	-8.4734
2.4569	4.0283	1.7913	0.7235	4.9457	1.392	0.3675	4.2888	1.0765	-1.0852	2.3296	0.5875	-2.0952	-2.2544	6.9801	4.3843	4.4682	-2.5206	3.6926	-2.5553	3.872	11.4628	-8.4618
2.5177	4.0775	1.8087	0.7524	4.9949	1.3804	0.4051	4.3293	1.0447	-1.0621	2.3701	0.628	-2.0026	-2.2457	7.1827	4.4219	4.4711	-2.4974	3.7476	-2.5495	3.9502	11.7116	-8.4444
2.5756	4.1528	1.8116	0.7698	5.018	1.3891	0.4225	4.3669	1.0158	-1.036	2.399	0.628	-1.9592	-2.2544	7.2984	4.4595	4.4885	-2.483	3.7389	-2.564	4.0196	11.9605	-8.4213
2.6421	4.1846	1.8174	0.7785	5.0267	1.3428	0.4254	4.3727	0.9839	-1.0215	2.4222	0.6251	-1.9129	-2.263	7.4402	4.4942	4.5087	-2.5032	3.7621	-2.5987	4.0544	12.1834	-8.4386
2.6971	4.283	1.8261	0.819	5.0672	1.3428	0.4486	4.393	0.9781	-1.0129	2.483	0.6627	-1.8839	-2.2717	7.5473	4.5521	4.5203	-2.5032	3.7852	-2.6219	4.1151	12.4264	-8.4068
2.7724	4.3235	1.8261	0.8334	5.0557	1.2994	0.463	4.4306	0.981	-0.9897	2.5148	0.6859	-1.8058	-2.2949	7.6312	4.6245	4.5405	-2.509	3.7563	-2.6306	4.1846	12.6377	-8.3837
2.8129	4.3524	1.8145	0.8306	5.0499	1.2617	0.4688	4.4393	0.8884	-0.9897	2.5756	0.6974	-1.8058	-2.3036	7.6949	4.691	4.5695	-2.5351	3.7592	-2.6855	4.2048	12.8692	-8.3692
2.8794	4.3785	1.8261	0.8624	5.0412	1.2299	0.463	4.4595	0.9	-0.981	2.6161	0.7379	-1.7566	-2.318	7.7296	4.7692	4.5984	-2.59	3.7389	-2.7116	4.2367	13.0949	-8.3258
2.9142	4.419	1.8376	0.8769	5.047	1.2212	0.4659	4.4595	0.874	-0.955	2.6942	0.7842	-1.6756	-2.3267	7.7557	4.8936	4.6245	-2.6132	3.71	-2.7318	4.2656	13.3467	-8.2853
2.9749	4.4277	1.8405	0.8855	5.0122	1.1807	0.5064	4.4769	0.8769	-0.9289	2.7145	0.8132	-1.6466	-2.3499	7.7817	5.0151	4.6505	-2.6508	3.6724	-2.7897	4.3061	13.6303	-8.2621
3.0097	4.4537	1.829	0.9029	5.0296	1.2068	0.5035	4.4913	0.8624	-0.8971	2.7926	0.8537	-1.609	-2.3499	7.802	5.1917	4.6766	-2.7261	3.6376	-2.8216	4.3235	13.9342	-8.2187
3.056	4.4595	1.829	0.9405	5.0094	1.1894	0.5412	4.5203	0.8913	-0.8537	2.9026	0.9405	-1.528	-2.3672	7.8309	5.4145	4.691	-2.7868	3.6	-2.8476	4.3582	14.2467	-8.2042
3.0994	4.474	1.8492	0.9666	4.992	1.1605	0.599	4.5434	0.9029	-0.8016	2.9634	1.0071	-1.4759	-2.3643	7.857	5.6547	4.6823	-2.8273	3.5624	-2.8997	4.3872	14.62	-8.1753
3.1283	4.4942	1.8666	1.0273	4.9746	1.1807	0.6222	4.5203	0.9318	-0.764	3.0357	1.0881	-1.3804	-2.3585	7.8888	5.9123	4.6794	-2.891	3.5335	-2.9084	4.3727	15.0367	-8.129
3.1804	4.4971	1.8868	1.0707	4.9659	1.1952	0.6945	4.5811	0.9666	-0.6743	3.1544	1.1836	-1.2994	-2.3412	7.9119	6.2016	4.6447	-2.9286	3.5219	-2.9171	4.445	15.465	-8.1116
3.1949	4.4913	1.8868	1.1228	4.9891	1.2212	0.7669	4.61	1.0129	-0.5933	3.273	1.3109	-1.2154	-2.3267	7.9438	6.4852	4.6129	-2.9807	3.4901	-2.9026	4.474	15.9049	-8.0451
3.2412	4.5058	1.9071	1.1778	4.9862	1.2531	0.8306	4.6534	1.117	-0.4891	3.3801	1.392	-1.0852	-2.2891	7.9554	6.8296	4.5608	-3.0126	3.4843	-2.8679	4.5463	16.3679	-8.0161
3.2643	4.5029	1.9389	1.256	4.9862	1.2878	0.9174	4.6823	1.1778	-0.3704	3.5016	1.528	-0.9955	-2.2659	7.9611	7.1595	4.5029	-3.0675	3.4698	-2.8476	4.5868	16.8686	-7.9872
3.2962	4.5145	1.9881	1.3543	5.018	1.3138	1.0418	4.7605	1.2762	-0.246	3.6492	1.6524	-0.8769	-2.2283	7.9438	7.5155	4.4335	-3.0878	3.4785	-2.8071	4.6245	17.3663	-7.9467
3.3309	4.5203	2.0142	1.4325	5.0557	1.3775	1.1373	4.8241	1.363	-0.1244	3.765	1.7711	-0.7582	-2.1936	7.9033	7.8772	4.3611	-3.1138	3.4872	-2.7637	4.6679	17.8988	-7.9004
3.3685	4.5492	2.0547	1.5627	5.0759	1.4585	1.2733	4.8849	1.4817	0.0434	3.9039	1.9389	-0.6048	-2.156	7.8396	8.2042	4.2917	-3.1254	3.4872	-2.7	4.746	18.4139	-7.8454
3.3946	4.5608	2.0865	1.6524	5.1164	1.5714	1.4151	4.9602	1.6061	0.1968	4.0341	2.0749	-0.4514	-2.1183	7.7354	8.4792	4.2135	-3.1196	3.5045	-2.6248	4.7807	18.9725	-7.7788
3.4148	4.5811	2.156	1.7798	5.1627	1.6582	1.5685	5.0325	1.7363	0.3531	4.2164	2.2428	-0.3328	-2.0807	7.6312	8.7338	4.147	-3.163	3.5219	-2.5524	4.8444	19.5165	-7.7296
3.4553	4.5608	2.1907	1.8695	5.2032	1.7624	1.6987	5.128	1.91	0.5035	4.3553	2.3933	-0.1852	-2.0605	7.4402	8.8872	4.1007	-3.1804	3.5364	-2.4627	4.8791	20.0721	-7.6573
3.5161	4.6187	2.2891	2.0055	5.3132	1.9129	1.8955	5.2322	2.1126	0.7322	4.5521	2.6132	0.026	-2.0257	7.2926	8.9711	4.0283	-3.1688	3.5913	-2.3846	4.9631	20.6336	-7.5936
3.5566	4.6505	2.347	2.1183	5.3827	2.0286	2.072	5.3508	2.2949	0.9058	4.7171	2.8013	0.165	-2.0084	7.0901	9.0058	3.9965	-3.1978	3.6261	-2.2978	4.992	21.195	-7.5299
3.6261	4.691	2.4569	2.2515	5.4724	2.2081	2.2399	5.4521	2.5293	1.0939	4.882	3.0155	0.3212	-1.9939	6.9135	9.0029	3.9704	-3.2151	3.6463	-2.2138	5.0354	21.7361	-7.4721
3.6868	4.7286	2.5669	2.3759	5.5766	2.373	2.4338	5.5852	2.7261	1.282	5.0354	3.2238	0.5122	-1.9823	6.6849	8.9103	3.9444	-3.247	3.7042	-2.127	5.0846	22.2715	-7.3824
3.7418	4.7865	2.6566	2.5119	5.6807	2.538	2.6103	5.6865	2.9663	1.473	5.1946	3.4495	0.6685	-1.9736	6.5171	8.7946	3.9328	-3.2846	3.7534	-2.0663	5.1338	22.8127	-7.3505
3.8026	4.8531	2.7926	2.6248	5.7791	2.7724	2.7955	5.8312	3.1949	1.6871	5.374	3.6955	0.8161	-1.9794	6.3	8.6036	3.9241	-3.3019	3.791	-1.9794	5.1396	23.3278	-7.3129
3.8749	4.9167	2.9026	2.729	5.9151	2.9315	2.9778	5.9643	3.4466	1.8724	5.5447	3.901	0.955	-1.9794	6.1553	8.4126	3.9415	-3.3367	3.8257	-1.91	5.1598	23.8227	-7.2811
3.9733	4.992	3.0618	2.8737	6.0714	3.1399	3.1428	6.138	3.7158	2.0547	5.6952	4.092	1.1026	-1.9968	5.9962	8.21	3.9531	-3.3801	3.8518	-1.8463	5.1627	24.3175	-7.2435
4.0052	5.047	3.192	2.9605	6.1698	3.3338	3.3135	6.2393	3.9328	2.2167	5.8341	4.2888	1.227	-1.9968	5.837	7.9264	3.9733	-3.4351	3.8807	-1.7913	5.1627	24.8037	-7.2261
4.0602	5.1338	3.3048	3.0762	6.2971	3.5277	3.4756	6.3782	4.1499	2.373	5.9499	4.4566	1.3196	-2.0228	5.7589	7.7036	4.0225	-3.5277	3.8952	-1.7508	5.1309	25.287	-7.2116
4.1296	5.1627	3.4177	3.1312	6.4013	3.7071	3.5942	6.4766	4.3264	2.4627	6.028	4.5955	1.3659	-2.0547	5.6634	7.4373	4.0862	-3.6058	3.8865	-1.7219	5.0875	25.7645	-7.229
4.1412	5.2148	3.5277	3.2122	6.5113	3.8692	3.7216	6.5692	4.5261	2.5495	6.1004	4.7315	1.418	-2.072	5.5795	7.1856	4.1238	-3.6897	3.9097	-1.7306	5.0325	26.2593	-7.2521
4.1788	5.2177	3.6261	3.2528	6.6097	4.0167	3.8113	6.6676	4.7055	2.645	6.1496	4.8241	1.4412	-2.1039	5.5389	6.9685	4.1991	-3.7968	3.9212	-1.7479	4.9688	26.7484	-7.284
4.1759	5.2293	3.6955	3.2991	6.6907	4.147	3.8894	6.7399	4.856	2.6682	6.193	4.9081	1.447	-2.1386	5.5013	6.7399	4.2338	-3.9097	3.9328	-1.7566	4.911	27.2722	-7.3274
4.1412	5.2206	3.7476	3.3164	6.7689	4.2801	3.9473	6.8036	4.9688	2.6971	6.2219	4.9659	1.392	-2.1589	5.4811	6.5055	4.2888	-4.0139	3.9357	-1.7624	4.8241	27.7873	-7.3968
4.1325	5.2206	3.8344	3.3338	6.8383	4.3958	3.9762	6.8499	5.0614	2.6971	6.2132	5.0209	1.363	-2.1936	5.5216	6.3058	4.3495	-4.1412	3.9618	-1.8145	4.7431	28.314	-7.4547
4.1412	5.2177	3.8981	3.354	6.9164	4.4913	4.0283	6.928	5.1743	2.6827	6.2335	5.0672	1.2907	-2.2167	5.5679	6.138	4.3958	-4.2714	3.9936	-1.8463	4.6852	28.8175	-7.556
4.0862	5.2061	3.9386	3.3396	6.9656	4.6013	4.0283	6.983	5.2669	2.6595	6.193	5.0962	1.2183	-2.2399	5.6692	5.947	4.4566	-4.4132	3.9994	-1.9331	4.6303	29.3182	-7.6341
4.1122	5.1975	4.0081	3.3483	7.038	4.6852	4.037	7.0177	5.3537	2.6479	6.2016	5.0875	1.1402	-2.2746	5.7589	5.7965	4.5145	-4.5666	4.0515	-1.9534	4.5897	29.7841	-7.7209
4.0891	5.2206	4.0659	3.3483	7.1161	4.7923	4.0717	7.0872	5.4434	2.5987	6.1843	5.1309	1.036	-2.3122	5.9036	5.6981	4.5782	-4.6939	4.0949	-2.046	4.5232	30.2008	-7.8367
4.0544	5.2351	4.118	3.3627	7.1595	4.8676	4.0312	7.1161	5.5158	2.5351	6.1698	5.1251	0.9145	-2.347	6.0627	5.5881	4.6708	-4.8126	4.1296	-2.1154	4.474	30.5973	-7.9438
4.0862	5.2495	4.2048	3.3656	7.2695	4.9804	4.0486	7.1624	5.5852	2.4685	6.1409	5.1396	0.8045	-2.3875	6.2798	5.5158	4.746	-4.9399	4.173	-2.2023	4.4306	30.9503	-8.0364
4.118	5.2785	4.2772	3.3743	7.3332	5.0788	4.0602	7.2232	5.6663	2.4048	6.1119	5.1541	0.6772	-2.4338	6.5084	5.5187	4.8357	-5.0846	4.2077	-2.292	4.4219	31.2368	-8.1116
4.147	5.345	4.3669	3.409	7.4055	5.1859	4.0486	7.2608	5.7386	2.3267	6.0859	5.1512	0.5614	-2.4685	6.7428	5.4811	4.9196	-5.1917	4.2367	-2.3672	4.3814	31.5089	-8.1955
4.1875	5.3769	4.4653	3.4206	7.4663	5.2553	4.0225	7.2926	5.7994	2.2399	6.0454	5.1367	0.4341	-2.5264	6.9888	5.5389	5.0238	-5.2959	4.2656	-2.4396	4.3467	31.7114	-8.2708
4.2483	5.4521	4.5637	3.464	7.5502	5.3566	4.011	7.3274	5.8457	2.1589	5.973	5.1135	0.2923	-2.5814	7.2377	5.62	5.1135	-5.4405	4.309	-2.5235	4.3206	31.8561	-8.3402
4.3322	5.5332	4.6737	3.4901	7.6428	5.4608	3.9878	7.3592	5.918	2.0807	5.9123	5.1049	0.1534	-2.6277	7.5068	5.7589	5.2061	-5.5332	4.3293	-2.6045	4.2917	31.9574	-8.4039
4.4364	5.6402	4.7981	3.5479	7.7152	5.5418	4.0081	7.3853	5.9701	2.0026	5.8341	5.0672	0.0116	-2.6682	7.7644	5.9065	5.293	-5.6229	4.3698	-2.6653	4.2714	31.9979	-8.482
4.5232	5.6923	4.8762	3.5306	7.7441	5.6084	3.9647	7.3795	5.9701	1.8637	5.7299	4.9891	-0.165	-2.7203	8.0248	6.1033	5.4029	-5.7473	4.3814	-2.7666	4.2048	32.0008	-8.5168
4.6158	5.7676	5.0065	3.5769	7.8107	5.6952	3.9386	7.3737	5.9701	1.7798	5.5939	4.9254	-0.3183	-2.755	8.2824	6.3637	5.4897	-5.837	4.3843	-2.8389	4.1585	31.9516	-8.5775
4.72	5.8631	5.1164	3.5913	7.8512	5.7502	3.9126	7.3737	5.9875	1.6727	5.484	4.8328	-0.5035	-2.7984	8.5718	6.6878	5.5708	-5.9354	4.4103	-2.92	4.1093	31.8648	-8.6065
4.8184	5.9238	5.2293	3.6029	7.8888	5.8023	3.872	7.3332	5.9759	1.5482	5.3537	4.746	-0.6685	-2.8389	8.8496	6.9888	5.6547	-6.0483	4.3958	-3.0068	4.0196	31.7577	-8.6238
4.9602	6.028	5.3595	3.629	7.9148	5.837	3.8576	7.3071	5.9643	1.4383	5.209	4.636	-0.8392	-2.8737	9.1216	7.3679	5.7097	-6.1496	4.393	-3.0791	3.9675	31.6073	-8.673
5.0614	6.0888	5.455	3.655	7.9351	5.8775	3.8084	7.2637	5.9151	1.3283	5.0643	4.5232	-1.0187	-2.8852	9.3907	7.7123	5.7502	-6.2306	4.3467	-3.1775	3.8634	31.451	-8.702
5.2061	6.1872	5.591	3.7158	7.9496	5.9354	3.8026	7.229	5.8862	1.2386	4.9081	4.4103	-1.1605	-2.9055	9.6888	8.0509	5.7647	-6.329	4.338	-3.2354	3.7737	31.2774	-8.7309
5.3422	6.2682	5.7242	3.7274	7.964	5.9991	3.7737	7.1914	5.8775	1.1634	4.7605	4.3119	-1.3341	-2.9228	9.9406	8.3402	5.782	-6.4013	4.3177	-3.3164	3.6868	31.1182	-8.7628
5.4724	6.3463	5.8544	3.7621	7.9988	6.0454	3.7708	7.1508	5.8515	1.0679	4.6331	4.1817	-1.473	-2.92	10.23	8.6181	5.7849	-6.4766	4.3119	-3.3801	3.5711	30.9503	-8.8091
5.5939	6.41	5.9788	3.7823	8.0161	6.0772	3.7331	7.0843	5.8139	0.9724	4.4856	4.0746	-1.6003	-2.9228	10.4528	8.8322	5.8023	-6.5026	4.2888	-3.4322	3.4814	30.8085	-8.8264
5.727	6.5055	6.1061	3.8344	8.0451	6.1351	3.7505	7.0698	5.8225	0.9232	4.3814	3.9907	-1.7248	-2.9113	10.6959	9.0435	5.7849	-6.5489	4.2685	-3.4727	3.4032	30.6725	-8.8843
5.8428	6.5576	6.2248	3.8402	8.0335	6.1698	3.736	7.0264	5.7878	0.8769	4.2598	3.9126	-1.8174	-2.9113	10.8493	9.1939	5.7705	-6.5402	4.2714	-3.5248	3.3251	30.5973	-8.948
5.9643	6.6068	6.3319	3.8605	8.048	6.2045	3.7331	6.9656	5.756	0.8016	4.1354	3.7968	-1.8984	-2.8939	10.9969	9.3155	5.7589	-6.5431	4.2251	-3.545	3.2267	30.5192	-9.0001
6.0396	6.6647	6.4679	3.8981	8.0682	6.2393	3.7158	6.9367	5.727	0.7379	4.0081	3.7071	-1.965	-2.8852	11.0634	9.4139	5.7328	-6.4852	4.2135	-3.5364	3.1399	30.5221	-9.0493
6.1148	6.6734	6.5287	3.8807	8.0248	6.2451	3.6811	6.8412	5.6547	0.6627	3.8634	3.5798	-2.0691	-2.8737	11.0518	9.4399	5.7097	-6.4766	4.1817	-3.5827	3.0618	30.5944	-9.0927
6.1727	6.7052	6.6097	3.9039	8.0132	6.2479	3.655	6.7804	5.591	0.6164	3.7071	3.4495	-2.1617	-2.8563	11.0229	9.5239	5.6778	-6.4534	4.1412	-3.574	2.9605	30.7159	-9.1274
6.2306	6.6994	6.6734	3.8749	7.9785	6.2335	3.6058	6.6907	5.5042	0.5643	3.5479	3.3077	-2.2428	-2.8418	10.9332	9.5354	5.6547	-6.3637	4.1093	-3.5711	2.8823	30.9012	-9.165
6.2393	6.6734	6.7081	3.8286	7.9062	6.1843	3.5537	6.5634	5.4087	0.4862	3.3801	3.1283	-2.3441	-2.8273	10.7538	9.5788	5.6344	-6.3348	4.0544	-3.5942	2.7637	31.1211	-9.2171
6.1988	6.6328	6.6994	3.791	7.8338	6.1582	3.4872	6.4389	5.2785	0.3762	3.2238	2.9749	-2.4367	-2.8331	10.5975	9.6165	5.62	-6.2306	3.982	-3.6145	2.674	31.3931	-9.2663
6.2045	6.5779	6.6965	3.7158	7.7325	6.057	3.4206	6.3116	5.128	0.3068	3.0183	2.7868	-2.5495	-2.8302	10.3544	9.6483	5.6258	-6.2219	3.8981	-3.6145	2.5785	31.7346	-9.2952
6.1351	6.4939	6.656	3.6492	7.637	5.9846	3.3106	6.138	4.9631	0.2315	2.8302	2.5814	-2.6306	-2.8302	10.0621	9.683	5.6229	-6.1467	3.8373	-3.6376	2.4743	32.0963	-9.3242
6.0946	6.4158	6.5981	3.5624	7.5184	5.8833	3.2325	5.9904	4.8039	0.1187	2.6479	2.347	-2.7434	-2.8592	9.793	9.738	5.646	-6.1004	3.7881	-3.6666	2.4019	32.4725	-9.3763
6.0367	6.3608	6.575	3.4814	7.42	5.7907	3.1428	5.8486	4.6592	0.0289	2.4801	2.1589	-2.8505	-2.8563	9.4949	9.7669	5.6634	-6.0627	3.7245	-3.6955	2.3527	32.8806	-9.4255
5.9354	6.2364	6.4824	3.3974	7.2869	5.6778	3.0589	5.7155	4.4827	-0.055	2.347	1.9765	-2.9402	-2.8765	9.1592	9.8103	5.6952	-6.0106	3.6637	-3.7158	2.2746	33.2655	-9.4804
5.8746	6.1959	6.4303	3.3048	7.1971	5.591	2.972	5.5852	4.3293	-0.1678	2.182	1.7855	-3.0212	-2.8852	8.8988	9.8682	5.7242	-5.9528	3.6376	-3.7245	2.2601	33.633	-9.5152
5.7878	6.1177	6.3811	3.2296	7.1248	5.4811	2.8679	5.455	4.1412	-0.2228	2.0576	1.6003	-3.0849	-2.8997	8.6673	9.8943	5.7415	-5.9094	3.574	-3.7505	2.2052	33.9861	-9.5702
5.6952	6.0251	6.2653	3.1196	6.9946	5.3479	2.7724	5.3393	3.982	-0.327	1.9216	1.4209	-3.2122	-2.9344	8.3692	9.9001	5.7965	-5.8949	3.5277	-3.7852	2.1704	34.2986	-9.6454
5.6055	5.9701	6.1988	3.0183	6.9107	5.2495	2.6653	5.1859	3.8084	-0.4254	1.8174	1.2444	-3.2962	-2.9402	8.1348	9.8798	5.837	-5.8804	3.4785	-3.8402	2.1097	34.5793	-9.7062
5.5245	5.892	6.1235	2.9344	6.8267	5.1222	2.5669	5.0962	3.6637	-0.5238	1.6987	1.0823	-3.3714	-2.9489	7.8801	9.8538	5.8631	-5.8631	3.4785	-3.872	2.0894	34.8195	-9.7756
5.429	5.8341	6.0135	2.81	6.711	4.992	2.428	4.9631	3.4814	-0.6424	1.5685	0.8971	-3.4756	-2.9778	7.7123	9.7901	5.9036	-5.9209	3.409	-3.9155	2.0171	34.9874	-9.8393
5.345	5.7762	5.8891	2.6942	6.6242	4.8531	2.3238	4.8733	3.2962	-0.7524	1.4875	0.7379	-3.574	-2.9923	7.4489	9.7033	5.9354	-5.9151	3.3917	-3.9502	1.9852	35.1407	-9.8972
5.2669	5.6836	5.8081	2.5727	6.5084	4.6881	2.1646	4.7229	3.0994	-0.8826	1.3717	0.5267	-3.6839	-3.0097	7.3187	9.5557	5.9817	-5.9615	3.3367	-4.0052	1.9244	35.2478	-9.9724
5.1656	5.6373	5.6605	2.4685	6.4187	4.5463	2.0431	4.6129	2.92	-1.01	1.256	0.3357	-3.7881	-3.027	7.2	9.437	6.002	-5.9991	3.3367	-4.0486	1.8724	35.3404	-10.0476
5.0586	5.5418	5.5303	2.3296	6.2971	4.3698	1.8868	4.5087	2.7405	-1.1286	1.1373	0.1765	-3.9241	-3.0299	7.0843	9.2837	6.0164	-6.0483	3.2962	-4.0891	1.8232	35.4128	-10.12
4.9457	5.4637	5.3942	2.2196	6.2074	4.1962	1.7421	4.3814	2.5206	-1.2849	1.0389	-0.0232	-4.0283	-3.056	7.0177	9.1042	6.0454	-6.0859	3.2614	-4.1614	1.7826	35.4706	-10.1779
4.8184	5.3653	5.2264	2.0431	6.0627	3.9762	1.5888	4.254	2.2949	-1.4354	0.9376	-0.217	-4.1817	-3.0704	6.9396	8.9509	6.0801	-6.1496	3.2556	-4.2077	1.7132	35.5256	-10.2473
4.6968	5.2959	5.0643	1.9331	5.947	3.7939	1.4383	4.1412	2.101	-1.5598	0.8277	-0.408	-4.2888	-3.0849	6.9078	8.7483	6.1004	-6.1843	3.2499	-4.2656	1.6843	35.5661	-10.2907
4.5608	5.183	4.8965	1.7595	5.8196	3.5856	1.2878	4.0196	1.8781	-1.7016	0.7322	-0.573	-4.4132	-3.0936	6.8788	8.5775	6.138	-6.2566	3.2267	-4.2975	1.6466	35.6066	-10.3313
4.4045	5.0383	4.665	1.6003	5.6952	3.383	1.1286	3.9155	1.6756	-1.8376	0.6222	-0.7553	-4.4971	-3.111	6.8672	8.3837	6.164	-6.3	3.2093	-4.3409	1.609	35.6674	-10.4065
4.2801	4.9573	4.5116	1.4701	5.5621	3.1659	0.9724	3.7997	1.4962	-1.9823	0.5296	-0.9087	-4.6071	-3.1167	6.8991	8.2332	6.1756	-6.3319	3.2065	-4.3814	1.6003	35.7253	-10.447
4.0862	4.8068	4.2975	1.3109	5.4174	2.9663	0.8363	3.6984	1.2878	-2.127	0.4399	-1.0736	-4.7518	-3.1225	6.9743	8.1	6.1872	-6.4013	3.1978	-4.4016	1.5482	35.7745	-10.4991
3.9502	4.6823	4.1093	1.1691	5.3016	2.7666	0.6714	3.5856	1.091	-2.2486	0.3733	-1.2125	-4.8328	-3.1138	7.1074	7.9785	6.1698	-6.465	3.192	-4.4682	1.5251	35.8324	-10.5367
3.7823	4.5376	3.8894	0.9897	5.1425	2.5466	0.5441	3.4901	0.8971	-2.399	0.2633	-1.3891	-4.9573	-3.111	7.255	7.8888	6.164	-6.5402	3.163	-4.5434	1.5077	35.9192	-10.5483
3.6174	4.4248	3.7158	0.8566	5.0441	2.373	0.4341	3.409	0.7408	-2.4859	0.2084	-1.5164	-5.0325	-3.0878	7.4721	7.8367	6.1235	-6.6155	3.1746	-4.5782	1.4846	35.98	-10.5801
3.4698	4.2801	3.5248	0.7322	4.8733	2.182	0.3039	3.2933	0.5672	-2.6103	0.1215	-1.6322	-5.1541	-3.0704	7.7238	7.7933	6.0859	-6.7023	3.1052	-4.6389	1.4556	36.0494	-10.5772
3.354	4.1788	3.3598	0.6106	4.7663	2.0026	0.2084	3.2209	0.4051	-2.729	0.0637	-1.774	-5.2553	-3.0502	8.0451	7.8367	6.0396	-6.8238	3.111	-4.6968	1.4209	36.0899	-10.5888
3.2528	4.1007	3.2151	0.5354	4.6621	1.8666	0.1273	3.1746	0.272	-2.8129	-0.0289	-1.8926	-5.3335	-3.0126	8.3634	7.8656	5.9817	-6.9309	3.0733	-4.7605	1.3659	36.1333	-10.5512
3.1515	3.9936	3.0878	0.4399	4.5405	1.7363	0.0521	3.0704	0.1158	-2.9431	-0.1071	-2.0373	-5.4811	-2.9865	8.6817	7.9206	5.9325	-7.0727	2.9923	-4.8068	1.2849	36.1478	-10.5396
3.0878	3.9184	2.9865	0.3936	4.4566	1.6119	-0.0145	3.0039	0.0116	-3.0097	-0.1823	-2.1531	-5.5939	-2.9547	9.0319	8.0451	5.8573	-7.2261	2.9836	-4.8762	1.2212	36.1391	-10.5223
3.0618	3.8663	2.8939	0.3444	4.3727	1.499	-0.0492	2.9257	-0.1273	-3.1023	-0.272	-2.2688	-5.6923	-2.9228	9.3444	8.1464	5.7878	-7.3332	2.9113	-4.9167	1.1402	36.1391	-10.502
3.0791	3.8373	2.8505	0.3183	4.2917	1.4238	-0.0637	2.8621	-0.2055	-3.163	-0.3415	-2.3412	-5.8023	-2.8881	9.6743	8.291	5.7155	-7.4779	2.8621	-4.9659	1.036	36.0899	-10.4817
3.056	3.8055	2.7984	0.327	4.2193	1.308	-0.0781	2.81	-0.2923	-3.2412	-0.4428	-2.4656	-5.918	-2.8505	9.9464	8.4039	5.6576	-7.6399	2.8158	-5.0036	0.9145	36.0639	-10.4586
3.0791	3.8142	2.781	0.3502	4.147	1.256	-0.081	2.7492	-0.3994	-3.2933	-0.5441	-2.5669	-6.028	-2.8158	10.201	8.5139	5.5852	-7.7875	2.7463	-5.0383	0.79	36.0292	-10.421
3.0907	3.8113	2.7579	0.3415	4.0775	1.2068	-0.0897	2.6884	-0.4717	-3.3656	-0.6309	-2.6827	-6.1467	-2.7897	10.4615	8.6296	5.5332	-7.9467	2.6595	-5.0962	0.6482	36.0147	-10.4094
3.1486	3.8315	2.7666	0.3704	4.063	1.1489	-0.0637	2.6595	-0.5093	-3.4061	-0.7206	-2.7492	-6.219	-2.7579	10.6669	8.728	5.4608	-8.1029	2.6074	-5.073	0.5412	36.0031	-10.3949
3.192	3.8547	2.7724	0.408	4.0225	1.1199	-0.0579	2.6016	-0.5556	-3.4351	-0.7958	-2.8158	-6.3261	-2.7347	10.8637	8.812	5.4319	-8.2853	2.5322	-5.1569	0.408	36.0205	-10.3833
3.2614	3.8923	2.81	0.4601	4.0139	1.1026	0	2.5814	-0.5904	-3.4553	-0.8508	-2.8881	-6.4158	-2.7376	10.9911	8.8554	5.4116	-8.4502	2.4801	-5.2061	0.2778	36.0726	-10.366
3.3077	3.9618	2.8534	0.5296	4.0196	1.0823	0.0318	2.5814	-0.6251	-3.4756	-0.9029	-2.9402	-6.4968	-2.7232	11.101	8.9248	5.3914	-8.6238	2.4106	-5.2495	0.1389	36.1304	-10.3486
3.3656	4.0312	2.9084	0.5759	4.0341	1.117	0.0926	2.5814	-0.6019	-3.4727	-0.9463	-2.9894	-6.5721	-2.7087	11.1734	8.948	5.3769	-8.8033	2.3643	-5.2467	0.0203	36.2259	-10.3168
3.4611	4.1267	2.9778	0.6859	4.0717	1.1749	0.1765	2.6248	-0.5701	-3.4466	-0.9405	-2.9576	-6.5721	-2.7	11.2486	8.9856	5.3682	-8.9364	2.3325	-5.2669	-0.0781	36.3359	-10.2907
