"FZ"	"FC3"	"FCZ"	"FC4"	"C3"	"CZ"	"C4"	"CP3"	"CPZ"	"CP4"	"P3"	"PZ"	"P4"	"OZ"	"FP1"	"FP2"	"A2"	"P8"	"TP7"	"TP8"	"P7"	"VEOG"	"HEOG"
-0.6626	0.0663	-0.7376	-0.8569	0.3092	-0.8127	-1.1749	0.1104	-0.8878	-1.303	0.0928	-0.4196	-1.0424	-0.72	-1.2191	-1.3428	1.4576	-1.2147	0.3269	-1.4399	0.0265	-3.781	-3.6485
-0.6272	0.106	-0.7376	-0.8392	0.3534	-0.8304	-1.197	0.159	-0.8348	-1.2633	0.1855	-0.3622	-1.0071	-0.7156	-1.1705	-1.3825	1.4532	-1.1882	0.3666	-1.462	0.0663	-3.8119	-3.7147
-0.614	0.1767	-0.7023	-0.8392	0.4505	-0.7951	-1.1926	0.2606	-0.8127	-1.25	0.2474	-0.2915	-0.9762	-0.7332	-1.1705	-1.409	1.4576	-1.1926	0.4505	-1.4488	0.1723	-3.8693	-3.7721
-0.5786	0.2253	-0.6758	-0.8039	0.4947	-0.7686	-1.1793	0.318	-0.7597	-1.2147	0.3799	-0.2518	-0.9497	-0.7111	-1.1573	-1.493	1.4311	-1.1528	0.508	-1.462	0.2562	-3.9311	-3.8605
-0.5654	0.2959	-0.614	-0.7509	0.561	-0.7465	-1.1308	0.371	-0.7332	-1.1705	0.424	-0.1678	-0.8569	-0.7023	-1.1219	-1.5592	1.4002	-1.0954	0.53	-1.409	0.3269	-3.9665	-3.9179
-0.5345	0.3534	-0.5698	-0.7332	0.6361	-0.7023	-1.091	0.4196	-0.6493	-1.0954	0.4815	-0.0663	-0.7818	-0.6714	-1.1617	-1.6608	1.3516	-1.0292	0.5786	-1.3649	0.424	-3.993	-3.9974
-0.4991	0.3975	-0.5389	-0.6846	0.6449	-0.6361	-1.0336	0.4859	-0.5698	-1.0292	0.5742	0.0088	-0.6935	-0.6626	-1.1396	-1.8198	1.3163	-0.9762	0.5963	-1.3649	0.5035	-3.9886	-4.0504
-0.455	0.455	-0.4329	-0.6228	0.7156	-0.5565	-0.9673	0.5389	-0.5035	-0.9364	0.6537	0.106	-0.6405	-0.6095	-1.1528	-1.8861	1.2412	-0.8702	0.6405	-1.2854	0.5742	-3.9532	-4.099
-0.424	0.4991	-0.3887	-0.5698	0.7641	-0.4947	-0.9099	0.5919	-0.4152	-0.8657	0.7244	0.1899	-0.5521	-0.5875	-1.1484	-2.0451	1.1793	-0.7995	0.6626	-1.2103	0.667	-3.8605	-4.1299
-0.424	0.583	-0.3136	-0.4859	0.7818	-0.4019	-0.7951	0.6537	-0.3136	-0.7509	0.7995	0.2871	-0.424	-0.5389	-1.1838	-2.1688	1.091	-0.6714	0.6714	-1.1263	0.7421	-3.7324	-4.1608
-0.3975	0.6272	-0.2783	-0.4594	0.7995	-0.3269	-0.7244	0.6891	-0.2209	-0.6537	0.8481	0.3887	-0.3092	-0.5256	-1.2235	-2.2968	1.0247	-0.5698	0.7023	-1.0468	0.8216	-3.5822	-4.1387
-0.3313	0.667	-0.1811	-0.3931	0.8348	-0.2606	-0.6184	0.7288	-0.106	-0.5345	0.8967	0.4991	-0.212	-0.4903	-1.25	-2.4117	0.9717	-0.4638	0.7067	-0.9717	0.8878	-3.4232	-4.1343
-0.3313	0.6626	-0.1325	-0.3489	0.8392	-0.1988	-0.5389	0.7553	-0.0177	-0.4108	0.9408	0.6007	-0.1016	-0.4638	-1.2677	-2.4779	0.932	-0.3534	0.72	-0.9276	0.9673	-3.2377	-4.1387
-0.3092	0.6891	-0.1016	-0.3092	0.8481	-0.1104	-0.4461	0.7906	0.106	-0.2694	0.985	0.6758	-0.0088	-0.4329	-1.2942	-2.5663	0.8967	-0.2032	0.7597	-0.7951	1.0115	-3.0345	-4.1564
-0.3357	0.6935	-0.0486	-0.2959	0.8525	-0.0442	-0.3401	0.7818	0.1988	-0.1678	1.0115	0.7421	0.1325	-0.4329	-1.3119	-2.5884	0.8878	-0.1148	0.7862	-0.6979	1.038	-2.8136	-4.1608
-0.3224	0.6714	-0.0486	-0.2783	0.8392	-0.0088	-0.2739	0.7641	0.2518	-0.0751	1.0292	0.7951	0.2164	-0.455	-1.3339	-2.606	0.9232	-0.0177	0.7906	-0.6051	1.0998	-2.5928	-4.1476
-0.2959	0.6846	0.0309	-0.2209	0.8657	0.0795	-0.1811	0.7906	0.3445	0.0707	1.0424	0.8525	0.3092	-0.4505	-1.3339	-2.5972	0.9143	0.0972	0.8171	-0.4903	1.1617	-2.3366	-4.0902
-0.3004	0.7023	0.0486	-0.2253	0.8922	0.1325	-0.0883	0.7995	0.4196	0.1811	1.038	0.8878	0.4064	-0.4594	-1.3163	-2.5486	0.9408	0.2032	0.7906	-0.3843	1.2014	-2.0937	-3.9842
-0.265	0.7067	0.0972	-0.1767	0.9143	0.2032	0	0.7951	0.4947	0.3269	1.0468	0.9806	0.4991	-0.4903	-1.2633	-2.4868	0.9717	0.2959	0.8127	-0.2429	1.2544	-1.8419	-3.8781
-0.2518	0.6935	0.1148	-0.1413	0.9143	0.2297	0.0839	0.7906	0.5477	0.4064	1.0513	0.9938	0.5698	-0.5168	-1.2323	-2.394	1.038	0.3666	0.7951	-0.1325	1.2544	-1.6078	-3.7235
-0.2253	0.6714	0.1369	-0.1148	0.9187	0.2739	0.159	0.7553	0.6051	0.5035	1.0115	1.0203	0.6361	-0.5256	-1.1131	-2.235	1.0601	0.4196	0.7774	-0.0618	1.2589	-1.3737	-3.5645
-0.2429	0.6272	0.159	-0.1148	0.8834	0.2827	0.2297	0.6802	0.6184	0.583	0.9585	0.9497	0.667	-0.5521	-1.0513	-2.0804	1.1131	0.4373	0.7465	0.0221	1.1926	-1.1573	-3.3834
-0.2385	0.561	0.1546	-0.0751	0.8348	0.3004	0.2694	0.6316	0.6537	0.6449	0.9143	0.9497	0.7023	-0.561	-0.9452	-1.9082	1.1308	0.4682	0.7067	0.1148	1.1528	-0.9497	-3.2112
-0.2253	0.5168	0.1325	-0.0972	0.7641	0.3136	0.3048	0.5521	0.6361	0.7111	0.8613	0.9497	0.7553	-0.561	-0.8171	-1.6917	1.1219	0.5168	0.6581	0.1723	1.1087	-0.7862	-3.0168
-0.2429	0.4417	0.0883	-0.1281	0.6361	0.2959	0.3357	0.5124	0.6272	0.7509	0.773	0.8967	0.7818	-0.5433	-0.6802	-1.4355	1.0954	0.5168	0.6184	0.2474	1.0778	-0.6184	-2.8048
-0.2429	0.3578	0.0309	-0.1634	0.5565	0.2474	0.3092	0.4152	0.5565	0.7597	0.6935	0.8304	0.7774	-0.5212	-0.5698	-1.2633	1.0513	0.5521	0.561	0.2783	0.9982	-0.4329	-2.5928
-0.265	0.2739	0.0044	-0.2518	0.4726	0.2253	0.3004	0.3313	0.5477	0.8039	0.6228	0.8039	0.773	-0.477	-0.4682	-1.0778	0.9585	0.5521	0.4638	0.3092	0.9673	-0.2429	-2.3675
-0.2959	0.1943	-0.0883	-0.3004	0.371	0.1723	0.2385	0.2429	0.4947	0.826	0.53	0.7509	0.7951	-0.4196	-0.3931	-0.879	0.8613	0.5433	0.3975	0.3534	0.9011	-0.0751	-2.1158
-0.3357	0.0839	-0.1767	-0.3754	0.2297	0.1193	0.1943	0.1678	0.4461	0.7995	0.4815	0.7111	0.8083	-0.3666	-0.2606	-0.7332	0.7465	0.5477	0.3578	0.3754	0.826	0.0751	-1.8905
-0.4064	-0.0398	-0.2474	-0.4505	0.1369	0.0839	0.1458	0.0839	0.3887	0.8083	0.3975	0.6581	0.8216	-0.2959	-0.1855	-0.583	0.6228	0.5565	0.3224	0.4064	0.7376	0.2253	-1.6431
-0.4461	-0.1281	-0.318	-0.5389	0.0044	0.0398	0.0883	-0.0044	0.3578	0.773	0.3269	0.5875	0.8216	-0.2606	-0.0972	-0.4594	0.5345	0.5565	0.265	0.3931	0.6758	0.3224	-1.4399
-0.5168	-0.2739	-0.4285	-0.6095	-0.1104	-0.0044	0.0486	-0.0707	0.3048	0.7951	0.2385	0.5345	0.8304	-0.1988	-0.0398	-0.3666	0.4196	0.5654	0.2209	0.4064	0.5963	0.4329	-1.2633
-0.53	-0.3843	-0.4815	-0.6581	-0.1899	-0.053	0.0133	-0.159	0.2694	0.7686	0.1988	0.5035	0.8569	-0.1458	0.0044	-0.265	0.3269	0.5875	0.212	0.4196	0.508	0.5212	-1.1087
-0.561	-0.4947	-0.5433	-0.6802	-0.2783	-0.0751	0.0177	-0.212	0.2209	0.7906	0.1413	0.4815	0.8569	-0.1016	0.0972	-0.1678	0.2518	0.5919	0.1943	0.3887	0.4638	0.561	-0.9717
-0.6361	-0.6095	-0.6051	-0.6891	-0.3931	-0.1413	0.0353	-0.2783	0.1899	0.7818	0.1016	0.4285	0.8746	-0.0618	0.106	-0.106	0.1943	0.5698	0.1458	0.3489	0.3799	0.5919	-0.8613
-0.6493	-0.6891	-0.6228	-0.6891	-0.4815	-0.1723	0.0221	-0.3622	0.1723	0.773	0.0751	0.4064	0.8834	-0.0574	0.1413	-0.0309	0.1458	0.5919	0.1325	0.3357	0.2959	0.5875	-0.7641
-0.6051	-0.7553	-0.6846	-0.6714	-0.5565	-0.159	0.0663	-0.3799	0.1458	0.7995	0.053	0.3931	0.9055	-0.0353	0.265	0.0928	0.0928	0.583	0.1193	0.3313	0.2959	0.5256	-0.6714
-0.6405	-0.8525	-0.7111	-0.667	-0.6316	-0.1988	0.0574	-0.4285	0.1413	0.7995	0.0133	0.3666	0.9232	-0.0265	0.3136	0.1634	0.0751	0.5521	0.0618	0.3004	0.1723	0.4726	-0.6007
-0.6007	-0.9099	-0.6935	-0.6361	-0.6758	-0.2032	0.1104	-0.4329	0.1193	0.8083	0.0088	0.3445	0.932	0.0088	0.4019	0.3136	0.0177	0.5565	0.0221	0.3048	0.1413	0.3931	-0.508
-0.5521	-0.9099	-0.667	-0.5565	-0.7156	-0.1811	0.1634	-0.4461	0.159	0.7951	-0.0221	0.3224	0.932	0.0353	0.5389	0.455	-0.0309	0.53	-0.0133	0.3048	0.0707	0.2871	-0.4373
-0.4682	-0.8922	-0.6272	-0.4638	-0.7023	-0.1678	0.2297	-0.4108	0.1855	0.8304	-0.0265	0.3445	0.9585	0.0442	0.6758	0.6007	-0.0574	0.53	-0.0088	0.265	0.0353	0.1678	-0.3887
-0.3401	-0.8039	-0.5433	-0.3092	-0.6449	-0.1413	0.3136	-0.3489	0.2209	0.8922	0	0.3534	0.9762	0.0618	0.8348	0.7641	-0.106	0.5389	-0.0618	0.2827	-0.0133	0.0177	-0.3224
-0.1988	-0.7376	-0.4285	-0.1811	-0.583	-0.0398	0.4196	-0.2783	0.2474	0.9187	0.0177	0.3313	0.9894	0.0928	1.0027	0.9364	-0.159	0.5345	-0.0398	0.3313	-0.0353	-0.1458	-0.2739
-0.0663	-0.5521	-0.3092	-0.0221	-0.4726	0.0177	0.5521	-0.1899	0.3269	0.9364	0.0486	0.3622	0.9982	0.1325	1.1617	1.1705	-0.2385	0.5212	-0.0265	0.3754	-0.0353	-0.3224	-0.2076
0.0883	-0.3887	-0.159	0.1546	-0.3622	0.1016	0.6626	-0.0928	0.3843	0.9894	0.1104	0.3578	1.0203	0.1767	1.3472	1.3869	-0.3269	0.5433	-0.0088	0.4329	-0.0309	-0.5035	-0.1325
0.2562	-0.2076	0.0133	0.2827	-0.2164	0.2164	0.7509	0.0221	0.4594	1.0424	0.1458	0.4196	1.0601	0.2385	1.493	1.6166	-0.4285	0.5477	0.0088	0.4859	-0.0486	-0.6714	-0.0574
0.3931	-0.0663	0.1193	0.424	-0.1325	0.3224	0.8083	0.0928	0.4991	1.0159	0.1723	0.3843	1.0468	0.2694	1.6255	1.7977	-0.5124	0.5477	0.0177	0.5345	-0.0574	-0.8392	0.0133
0.5212	0.0663	0.2341	0.53	-0.0398	0.371	0.8702	0.1811	0.5345	0.9673	0.159	0.3622	1.0115	0.3136	1.7271	1.9744	-0.6051	0.53	0.0398	0.5565	-0.0442	-0.9938	0.1016
0.6626	0.2606	0.3666	0.6316	0.0883	0.4373	0.9232	0.265	0.5742	0.9806	0.1988	0.3489	0.985	0.3754	1.8419	2.1467	-0.6935	0.5477	0.0486	0.5742	-0.0486	-1.1308	0.1723
0.7641	0.3799	0.4991	0.7421	0.1899	0.4594	0.9276	0.3534	0.561	0.9452	0.1855	0.318	0.9187	0.4064	1.9391	2.2968	-0.7597	0.5433	0.0751	0.6051	-0.0707	-1.2589	0.2871
0.8657	0.4859	0.5521	0.7862	0.2518	0.5389	0.9143	0.3534	0.5565	0.8967	0.1855	0.3004	0.8657	0.4329	1.97	2.3808	-0.8171	0.5035	0.0883	0.5919	-0.0707	-1.3295	0.371
0.9099	0.561	0.6051	0.8613	0.3048	0.5565	0.8878	0.4019	0.5565	0.8216	0.159	0.2209	0.7774	0.4285	1.9612	2.4426	-0.8392	0.4461	0.0839	0.5963	-0.1325	-1.356	0.4505
0.9364	0.6095	0.7023	0.8702	0.3754	0.5477	0.8437	0.3666	0.5035	0.7686	0.106	0.1193	0.7156	0.4461	1.9612	2.4382	-0.8613	0.4108	0.0618	0.5786	-0.1811	-1.3251	0.5477
0.9585	0.6184	0.7111	0.8834	0.3666	0.5212	0.7995	0.3534	0.4417	0.6493	0.0133	0.0309	0.5742	0.455	1.9391	2.3675	-0.8481	0.3666	0.0442	0.5698	-0.2253	-1.2235	0.6361
0.9452	0.6184	0.7288	0.8746	0.371	0.4903	0.7509	0.3445	0.3578	0.5786	-0.0486	-0.0839	0.4815	0.4285	1.7889	2.2792	-0.8216	0.2827	0.0088	0.5124	-0.2871	-1.0822	0.7686
0.8967	0.6361	0.72	0.8922	0.3666	0.4461	0.6626	0.2739	0.2739	0.455	-0.1325	-0.1811	0.3578	0.4064	1.7094	2.1378	-0.7818	0.2164	-0.0265	0.4638	-0.3445	-0.9143	0.8746
0.8878	0.6007	0.6758	0.8348	0.3578	0.3887	0.5786	0.1943	0.1634	0.3136	-0.2341	-0.3092	0.2253	0.3754	1.5725	1.97	-0.7288	0.1237	-0.0486	0.3799	-0.4417	-0.7156	0.9894
0.8216	0.5919	0.6361	0.7597	0.3313	0.3004	0.4859	0.1104	0.0618	0.1855	-0.3224	-0.4417	0.0795	0.3401	1.4444	1.8021	-0.6802	0.0221	-0.106	0.3224	-0.508	-0.5124	1.1263
0.7597	0.5389	0.5654	0.6405	0.265	0.2164	0.3534	0.0398	-0.0221	0.053	-0.4373	-0.5477	-0.0795	0.3092	1.2986	1.6166	-0.5875	-0.0707	-0.2032	0.2562	-0.5345	-0.3313	1.2191
0.6802	0.4594	0.477	0.5786	0.159	0.1502	0.2429	-0.0574	-0.159	-0.0663	-0.5256	-0.6714	-0.1943	0.2827	1.1484	1.4311	-0.5345	-0.1678	-0.2915	0.1634	-0.6626	-0.1502	1.3251
0.5875	0.3975	0.4152	0.4505	0.0574	0.0353	0.1016	-0.1855	-0.2959	-0.2253	-0.6581	-0.7951	-0.3401	0.2474	1.0247	1.2412	-0.4505	-0.2562	-0.3622	0.0839	-0.6891	0.0088	1.4399
0.5035	0.3048	0.2827	0.3401	-0.0353	-0.1016	-0.0353	-0.2783	-0.3975	-0.3224	-0.7553	-0.932	-0.4505	0.2164	0.9011	1.0689	-0.3975	-0.3401	-0.4638	0.0177	-0.7686	0.1678	1.5239
0.3754	0.2297	0.1458	0.2164	-0.1634	-0.2164	-0.1678	-0.3887	-0.53	-0.4373	-0.8834	-1.0336	-0.5963	0.2164	0.7421	0.8967	-0.3799	-0.4329	-0.5256	-0.0442	-0.8083	0.3224	1.6608
0.2915	0.1767	0.0398	0.0795	-0.2518	-0.3269	-0.2915	-0.5168	-0.6758	-0.5786	-0.9585	-1.1484	-0.7111	0.1811	0.5919	0.7023	-0.3357	-0.5035	-0.5919	-0.1325	-0.8569	0.4726	1.7226
0.1502	0.0707	-0.0839	-0.0044	-0.3269	-0.4417	-0.3622	-0.5786	-0.773	-0.6626	-1.0292	-1.2235	-0.7818	0.1723	0.4505	0.53	-0.318	-0.5565	-0.6361	-0.1811	-0.8878	0.6007	1.7889
0.0133	0.0044	-0.2164	-0.0883	-0.3931	-0.561	-0.4505	-0.6802	-0.8922	-0.7465	-1.091	-1.3251	-0.8878	0.1678	0.3401	0.3048	-0.3048	-0.6051	-0.6758	-0.265	-0.9187	0.7553	1.8684
-0.0928	-0.0707	-0.3313	-0.1811	-0.4594	-0.6537	-0.5433	-0.7465	-1.0027	-0.8437	-1.1528	-1.3737	-0.9452	0.1502	0.1899	0.1193	-0.2694	-0.6626	-0.6846	-0.3401	-0.9011	0.9055	1.9391
-0.1855	-0.1413	-0.4329	-0.2076	-0.5256	-0.7774	-0.6095	-0.8216	-1.0601	-0.879	-1.1838	-1.4046	-0.985	0.1281	0.0663	-0.0442	-0.2518	-0.6935	-0.6581	-0.3666	-0.879	1.0645	1.9612
-0.2959	-0.2606	-0.53	-0.2959	-0.5875	-0.8171	-0.6272	-0.8834	-1.1131	-0.9276	-1.2323	-1.4709	-1.0601	0.1237	-0.0795	-0.1767	-0.212	-0.6714	-0.6846	-0.3843	-0.8878	1.2412	2.0097
-0.4019	-0.3313	-0.6184	-0.3224	-0.6537	-0.8967	-0.6493	-0.9055	-1.1396	-0.9497	-1.2456	-1.4488	-1.0954	0.0928	-0.1899	-0.3622	-0.1546	-0.6935	-0.6581	-0.4285	-0.8657	1.4311	2.0053
-0.4638	-0.4329	-0.6405	-0.3401	-0.6714	-0.8967	-0.6051	-0.9276	-1.1705	-0.9364	-1.2456	-1.4223	-1.0733	0.0795	-0.2871	-0.4373	-0.1281	-0.6846	-0.6581	-0.371	-0.8304	1.568	1.9965
-0.5212	-0.53	-0.7067	-0.3754	-0.773	-0.9541	-0.6449	-0.9717	-1.1838	-0.9497	-1.2058	-1.4046	-1.0689	0.053	-0.3843	-0.5698	-0.0795	-0.6626	-0.6272	-0.3843	-0.7995	1.7447	1.9612
-0.5565	-0.5919	-0.7156	-0.3313	-0.8083	-0.9452	-0.6051	-0.9497	-1.1573	-0.9276	-1.1661	-1.3604	-1.0159	0.0707	-0.4594	-0.6449	-0.0795	-0.6405	-0.5654	-0.3048	-0.7376	1.9082	1.9921
-0.5919	-0.6802	-0.7332	-0.3269	-0.8657	-0.9408	-0.5521	-0.9541	-1.1219	-0.8746	-1.0998	-1.2677	-0.9762	0.0442	-0.5919	-0.7156	-0.0663	-0.6007	-0.5654	-0.2474	-0.6758	2.0672	1.9921
-0.6272	-0.7421	-0.7288	-0.2871	-0.8922	-0.9099	-0.4859	-0.9099	-1.0513	-0.8127	-1.0468	-1.1793	-0.9541	0.0618	-0.6846	-0.8171	-0.0795	-0.53	-0.5345	-0.2164	-0.6007	2.2262	2.0053
-0.6449	-0.8216	-0.6714	-0.3092	-0.9276	-0.8437	-0.4019	-0.9011	-1.0115	-0.7597	-0.9629	-1.0866	-0.879	0.0663	-0.7774	-0.8702	-0.0972	-0.4682	-0.5345	-0.1502	-0.5654	2.3499	2.0451
-0.6626	-0.8613	-0.6493	-0.2739	-0.9497	-0.7818	-0.3401	-0.8083	-0.9143	-0.6626	-0.8922	-0.9585	-0.8039	0.106	-0.9055	-0.879	-0.1546	-0.3754	-0.5212	-0.0707	-0.4903	2.4779	2.1113
-0.6405	-0.932	-0.5786	-0.2562	-0.9408	-0.6891	-0.2385	-0.7774	-0.8304	-0.583	-0.7818	-0.8702	-0.7332	0.1458	-0.9497	-0.8525	-0.2385	-0.2739	-0.4859	0	-0.424	2.5707	2.2085
-0.5698	-0.932	-0.5124	-0.2385	-0.9232	-0.5654	-0.1458	-0.6626	-0.7509	-0.5256	-0.6758	-0.72	-0.6493	0.1678	-1.0203	-0.7906	-0.3136	-0.1899	-0.4682	0.106	-0.3224	2.6414	2.3543
-0.5565	-0.9497	-0.4505	-0.2076	-0.8967	-0.4638	-0.1325	-0.583	-0.6272	-0.4947	-0.5786	-0.6095	-0.5963	0.2209	-1.0557	-0.6891	-0.3975	-0.1104	-0.4638	0.1988	-0.2518	2.6767	2.4956
-0.5035	-0.9187	-0.3622	-0.1767	-0.8569	-0.3666	-0.0839	-0.5212	-0.5256	-0.4329	-0.4947	-0.5124	-0.5212	0.2562	-1.0071	-0.5345	-0.4726	-0.0133	-0.455	0.2562	-0.1678	2.6325	2.6723
-0.3931	-0.9011	-0.2606	-0.106	-0.7951	-0.2783	-0.0353	-0.424	-0.4285	-0.3754	-0.3975	-0.3887	-0.4726	0.2915	-0.9717	-0.3534	-0.561	0.0663	-0.4373	0.3489	-0.106	2.5928	2.8225
-0.3004	-0.8569	-0.1502	-0.0839	-0.7111	-0.1634	-0.0044	-0.3357	-0.3313	-0.3269	-0.3313	-0.2739	-0.3975	0.3666	-0.8746	-0.1237	-0.667	0.1458	-0.4417	0.4505	-0.1148	2.4956	2.9903
-0.2032	-0.8216	-0.0486	-0.0133	-0.6361	-0.0574	0.0442	-0.265	-0.2474	-0.2739	-0.265	-0.1899	-0.3578	0.4019	-0.7553	0.0795	-0.7509	0.2253	-0.4815	0.5168	-0.0883	2.4117	3.1758
-0.0883	-0.7332	0.0751	0.053	-0.5433	0.053	0.0928	-0.1943	-0.1281	-0.2341	-0.212	-0.1148	-0.2915	0.4373	-0.6405	0.3534	-0.8348	0.3048	-0.4903	0.5963	-0.1104	2.3145	3.3216
0.0751	-0.6493	0.2253	0.159	-0.424	0.1943	0.1634	-0.0883	-0.0309	-0.1988	-0.1281	-0.0088	-0.2827	0.4947	-0.4329	0.5698	-0.9408	0.3357	-0.4461	0.6361	-0.1237	2.2306	3.4541
0.1899	-0.5786	0.3578	0.2474	-0.3313	0.3136	0.212	-0.0353	0.0618	-0.1723	-0.0972	0.053	-0.3092	0.5345	-0.2827	0.8039	-0.9982	0.3489	-0.4505	0.6537	-0.1767	2.1688	3.5557
0.318	-0.5035	0.4859	0.3401	-0.2518	0.4373	0.2474	0.053	0.1546	-0.1723	-0.0618	0.1325	-0.2474	0.5654	-0.0972	1.0159	-1.0468	0.371	-0.4108	0.6846	-0.2429	2.1202	3.5866
0.4903	-0.3931	0.6272	0.4815	-0.1723	0.5389	0.3357	0.1148	0.2606	-0.1458	-0.0088	0.1723	-0.212	0.561	0.0795	1.2279	-1.0645	0.3578	-0.3666	0.7067	-0.2915	2.0981	3.6175
0.6228	-0.3136	0.773	0.5875	-0.1237	0.6449	0.3666	0.1723	0.3534	-0.106	-0.0133	0.2209	-0.2164	0.5389	0.2518	1.3958	-1.038	0.3401	-0.3534	0.6714	-0.3578	2.076	3.5778
0.7686	-0.1767	0.8702	0.6891	-0.0398	0.7509	0.4196	0.1767	0.4329	-0.106	0.0088	0.2518	-0.2253	0.5345	0.3975	1.546	-1.0336	0.2871	-0.3136	0.6581	-0.4108	2.076	3.5071
0.879	-0.0707	0.9894	0.7818	0.0265	0.8657	0.4373	0.1988	0.5212	-0.0839	-0.0133	0.2694	-0.2164	0.53	0.5521	1.6785	-1.0071	0.318	-0.3269	0.614	-0.5124	2.0892	3.4144
1.0071	0.0486	1.0822	0.8613	0.0707	0.9585	0.4505	0.2341	0.5919	-0.0751	-0.0133	0.3224	-0.2253	0.5212	0.614	1.7536	-0.9673	0.2297	-0.3313	0.5565	-0.5654	2.1599	3.3702
1.0866	0.1502	1.1926	0.9187	0.1016	1.0115	0.455	0.212	0.6537	-0.1016	0	0.3445	-0.2297	0.4859	0.7111	1.8375	-0.932	0.1899	-0.3799	0.4903	-0.6493	2.2173	3.2818
1.1749	0.2341	1.2368	0.9806	0.106	1.091	0.4594	0.2032	0.7111	-0.1148	-0.0221	0.3622	-0.2518	0.455	0.7376	1.864	-0.879	0.1237	-0.3975	0.4064	-0.7332	2.2968	3.2112
1.2103	0.2959	1.2942	0.9497	0.106	1.1263	0.4373	0.1634	0.7597	-0.1369	-0.0486	0.3622	-0.2606	0.4329	0.7597	1.8507	-0.8171	0.0707	-0.4417	0.2959	-0.8039	2.4205	3.1361
1.2721	0.3269	1.3384	0.9717	0.0972	1.1882	0.3887	0.1237	0.8039	-0.106	-0.0972	0.3666	-0.265	0.3931	0.7244	1.8375	-0.7553	0.0088	-0.4991	0.1811	-0.8967	2.5707	3.0742
1.2765	0.371	1.3516	0.9497	0.0707	1.2368	0.3534	0.0707	0.8525	-0.1458	-0.1325	0.3754	-0.2739	0.371	0.6979	1.7845	-0.6979	-0.0663	-0.5256	0.1237	-0.9408	2.7783	3.0389
1.2456	0.371	1.3958	0.9099	0.0265	1.2412	0.3578	0.0088	0.8569	-0.1369	-0.1988	0.3622	-0.2959	0.3269	0.6581	1.6961	-0.6361	-0.1458	-0.5742	0.0309	-1.038	3.0257	3.008
1.25	0.3931	1.3737	0.9055	0.0177	1.2456	0.3489	-0.0839	0.879	-0.1325	-0.2429	0.4064	-0.2871	0.3313	0.6184	1.6299	-0.6228	-0.1502	-0.6361	-0.0088	-1.091	3.3039	3.008
1.2191	0.3534	1.3649	0.8392	-0.0044	1.2544	0.3445	-0.1325	0.9055	-0.1193	-0.3136	0.3754	-0.2959	0.3136	0.561	1.546	-0.5919	-0.2076	-0.6361	-0.0133	-1.1661	3.6175	3.0389
1.2014	0.3313	1.3339	0.8304	-0.0751	1.2633	0.3445	-0.2518	0.9011	-0.106	-0.3622	0.3754	-0.3004	0.3136	0.5168	1.4532	-0.5919	-0.2341	-0.6846	-0.0353	-1.1882	3.9621	3.1007
1.1528	0.3313	1.303	0.8039	-0.0839	1.2456	0.3843	-0.3004	0.8967	-0.0618	-0.4373	0.3799	-0.2783	0.3269	0.5035	1.4179	-0.6184	-0.212	-0.6891	-0.0177	-1.2058	4.3198	3.1714
1.1131	0.3004	1.303	0.7951	-0.0883	1.2633	0.3843	-0.3401	0.9143	-0.0309	-0.4505	0.3666	-0.2562	0.3445	0.4859	1.3781	-0.6449	-0.2385	-0.72	0.0088	-1.2323	4.6644	3.2377
1.0954	0.2915	1.303	0.7995	-0.1502	1.2809	0.4682	-0.4152	0.9011	0.0177	-0.4991	0.3357	-0.212	0.3799	0.4638	1.3516	-0.7023	-0.2341	-0.7111	0.0442	-1.2279	5.0398	3.3702
1.0778	0.2871	1.3074	0.7995	-0.1237	1.2854	0.4947	-0.4505	0.9099	0.0707	-0.5565	0.3313	-0.1767	0.4019	0.4991	1.3163	-0.7686	-0.2209	-0.7244	0.0751	-1.2323	5.3623	3.5115
1.0778	0.2164	1.3295	0.8437	-0.1899	1.2898	0.5698	-0.5035	0.9055	0.1104	-0.5786	0.3048	-0.1678	0.4505	0.5521	1.3781	-0.8304	-0.212	-0.7465	0.0972	-1.2323	5.6715	3.6485
1.0954	0.2783	1.3384	0.9011	-0.1546	1.3074	0.6184	-0.5124	0.9143	0.1855	-0.6007	0.318	-0.106	0.4859	0.6228	1.3914	-0.9187	-0.1988	-0.7421	0.106	-1.2014	5.9276	3.7854
1.0998	0.2915	1.3384	0.9762	-0.1502	1.3251	0.6979	-0.5565	0.932	0.2209	-0.6449	0.2959	-0.106	0.53	0.6714	1.4664	-1.0027	-0.2032	-0.7288	0.1369	-1.1926	6.1264	3.9135
1.1484	0.3092	1.3958	1.0778	-0.1413	1.356	0.7686	-0.5698	0.932	0.2694	-0.6272	0.3048	-0.0398	0.5786	0.7597	1.546	-1.091	-0.1767	-0.7156	0.1413	-1.1352	6.281	4.0548
1.1793	0.3269	1.4002	1.1396	-0.1458	1.3958	0.8437	-0.5521	0.9452	0.3622	-0.6405	0.2871	0	0.6184	0.8216	1.5725	-1.1926	-0.1237	-0.7288	0.1767	-1.1263	6.3693	4.1829
1.2191	0.3534	1.4399	1.2323	-0.1104	1.4223	0.9143	-0.5389	0.9806	0.4196	-0.6361	0.3269	0.0574	0.6537	0.9452	1.6475	-1.2765	-0.0707	-0.6935	0.1943	-1.091	6.44	4.3154
1.2544	0.3931	1.493	1.3339	-0.0839	1.4399	0.9717	-0.5433	0.9585	0.4726	-0.6184	0.3224	0.1281	0.7111	1.0159	1.7403	-1.3649	-0.0486	-0.6846	0.1855	-1.0336	6.4665	4.4656
1.2721	0.424	1.4974	1.4046	-0.0751	1.4753	1.0247	-0.5168	0.9673	0.5345	-0.5875	0.3269	0.1767	0.7332	1.0733	1.7977	-1.4267	-0.0177	-0.6581	0.1811	-0.9762	6.4621	4.5849
1.2765	0.4417	1.4885	1.4399	-0.0309	1.5018	1.0822	-0.4726	0.985	0.6051	-0.5521	0.3445	0.2076	0.7818	1.1043	1.8684	-1.4974	0.0309	-0.6626	0.2032	-0.9232	6.4268	4.7262
1.2589	0.4682	1.4885	1.4885	0.0221	1.515	1.1219	-0.3931	1.0071	0.6714	-0.4903	0.3754	0.2694	0.8216	1.1573	1.9082	-1.5945	0.1325	-0.6405	0.2385	-0.7906	6.3826	4.872
1.2279	0.4859	1.4664	1.4709	0.0265	1.5195	1.1263	-0.3666	0.9938	0.6935	-0.4682	0.3887	0.2959	0.8613	1.1528	1.9037	-1.6564	0.2209	-0.6581	0.2915	-0.7332	6.3384	5.0133
1.1838	0.4859	1.4399	1.4841	0.0883	1.5062	1.1396	-0.318	1.0027	0.7421	-0.4196	0.3843	0.3445	0.8834	1.1484	1.9082	-1.7403	0.2871	-0.6449	0.3666	-0.6361	6.2898	5.1547
1.1087	0.4505	1.4002	1.4576	0.1148	1.5327	1.1308	-0.3136	0.9982	0.7951	-0.3489	0.4064	0.4196	0.932	1.144	1.917	-1.811	0.3622	-0.6802	0.4285	-0.614	6.2324	5.296
1.1043	0.4815	1.3958	1.4797	0.1369	1.5062	1.1573	-0.265	1.0071	0.8613	-0.3357	0.4638	0.4726	0.9585	1.1705	1.9347	-1.8596	0.5035	-0.7156	0.4815	-0.5124	6.1397	5.4197
1.0292	0.4461	1.3339	1.4134	0.1237	1.4753	1.1175	-0.3092	0.9894	0.8437	-0.3357	0.4329	0.4903	0.985	1.1087	1.9258	-1.8816	0.5433	-0.7906	0.5433	-0.5124	6.0469	5.5169
1.0115	0.4726	1.3074	1.3781	0.1104	1.462	1.1352	-0.2827	0.9717	0.8746	-0.2959	0.4461	0.561	0.985	1.0998	1.9214	-1.9082	0.6449	-0.8127	0.6361	-0.4726	5.963	5.5875
0.9806	0.4373	1.2854	1.356	0.0972	1.4576	1.1528	-0.2827	0.9938	0.9011	-0.2606	0.4682	0.5875	0.9806	1.0689	1.9126	-1.9037	0.72	-0.8613	0.6758	-0.455	5.8658	5.6229
0.9541	0.4461	1.2589	1.3516	0.0751	1.4355	1.1263	-0.2783	0.9894	0.9364	-0.2606	0.455	0.6184	0.9673	1.0822	1.9302	-1.8905	0.7818	-0.9143	0.7465	-0.4726	5.7819	5.6626
0.9408	0.4505	1.2368	1.3251	0.0177	1.4223	1.1396	-0.2871	0.9806	0.9673	-0.2385	0.455	0.6405	0.9497	1.0292	1.9479	-1.8596	0.8481	-0.9673	0.7951	-0.4903	5.7112	5.6361
0.9055	0.455	1.1882	1.3428	0.0133	1.3649	1.1352	-0.2959	0.9673	1.0027	-0.2783	0.4329	0.6537	0.932	1.0203	1.9435	-1.8154	0.879	-1.0247	0.8922	-0.508	5.6538	5.6449
0.9055	0.4417	1.197	1.3516	0.0265	1.3781	1.1749	-0.2915	0.9629	1.0247	-0.2164	0.4329	0.7332	0.9187	1.0159	2.0097	-1.7933	0.9673	-1.0822	0.9585	-0.508	5.6317	5.6052
0.8746	0.4594	1.1573	1.3251	0.0088	1.3781	1.1617	-0.2783	0.9762	1.0645	-0.2164	0.455	0.7288	0.9099	1.0247	2.0142	-1.758	1.0115	-1.1131	1.0424	-0.5168	5.6361	5.6096
0.8878	0.4859	1.1396	1.3472	0.0398	1.3649	1.2191	-0.2341	0.9894	1.1043	-0.1811	0.455	0.8083	0.8746	1.0027	1.9744	-1.705	1.0866	-1.1396	1.1219	-0.5477	5.6847	5.5831
0.8746	0.5035	1.1175	1.3472	0.0221	1.3604	1.2235	-0.2076	0.9717	1.1308	-0.2076	0.4417	0.826	0.8657	0.9894	2.0097	-1.674	1.1219	-1.1396	1.2147	-0.5786	5.773	5.5566
0.8481	0.508	1.0866	1.3428	0.0177	1.3207	1.2368	-0.2341	0.9541	1.1396	-0.1988	0.4196	0.8481	0.8216	0.9762	1.9567	-1.621	1.1661	-1.1617	1.2898	-0.6095	5.8791	5.5345
0.7906	0.5521	1.0601	1.3251	0.0707	1.3119	1.2942	-0.1723	0.9629	1.2014	-0.1723	0.4373	0.8922	0.8127	0.9408	1.9347	-1.5901	1.2191	-1.144	1.356	-0.6095	5.9939	5.5036
0.8171	0.5742	1.038	1.3295	0.106	1.3207	1.3428	-0.1193	0.9673	1.2323	-0.1723	0.4417	0.9187	0.8216	0.9806	1.8905	-1.568	1.2765	-1.1308	1.4223	-0.6361	6.0867	5.4727
0.7818	0.667	1.0336	1.3384	0.1811	1.3119	1.3604	-0.0928	0.9982	1.2323	-0.1546	0.4594	0.9497	0.7906	0.9408	1.8596	-1.546	1.2854	-1.1131	1.4576	-0.614	6.1882	5.4064
0.773	0.7244	0.9762	1.3384	0.265	1.3251	1.3869	-0.0265	1.0027	1.2854	-0.1193	0.477	0.9806	0.7862	0.9187	1.8419	-1.5239	1.3074	-1.0866	1.4664	-0.6095	6.2545	5.3623
0.7597	0.7686	0.9938	1.356	0.3092	1.3339	1.3693	0.0265	1.0247	1.2898	-0.1016	0.4505	0.9894	0.7818	0.9143	1.8375	-1.4974	1.3251	-1.0689	1.4885	-0.5919	6.3163	5.296
0.7597	0.8171	1.0159	1.3472	0.3931	1.3604	1.4223	0.0618	1.0468	1.3163	-0.053	0.4726	1.0071	0.7774	0.8922	1.8066	-1.4709	1.356	-1.0115	1.5062	-0.5919	6.3517	5.2386
0.773	0.8834	0.9762	1.3693	0.4594	1.3825	1.4223	0.1281	1.0557	1.3119	-0.0221	0.4638	1.0115	0.7553	0.8613	1.7845	-1.4664	1.3384	-0.9673	1.4885	-0.5875	6.3782	5.1635
0.7951	0.9364	1.0247	1.3825	0.53	1.3869	1.4399	0.1855	1.1043	1.303	-0.0221	0.4638	1.0292	0.7641	0.8569	1.7845	-1.4753	1.3428	-0.9232	1.4841	-0.5654	6.4047	5.0663
0.826	0.9938	1.0336	1.4267	0.5742	1.4223	1.4753	0.2739	1.1219	1.2942	0.0177	0.477	1.0203	0.7818	0.8746	1.8154	-1.493	1.3119	-0.8657	1.5062	-0.5477	6.4223	5.0089
0.8657	1.0468	1.0778	1.4576	0.667	1.4841	1.5062	0.3136	1.1749	1.3251	0.0398	0.4815	1.0247	0.7906	0.8569	1.8419	-1.5018	1.3251	-0.826	1.5283	-0.4991	6.4047	4.925
0.9099	1.1087	1.1131	1.5371	0.7244	1.5018	1.546	0.3622	1.1926	1.3428	0.0618	0.477	1.0292	0.8039	0.9055	1.8993	-1.5415	1.303	-0.8039	1.515	-0.5124	6.4047	4.8366
0.9629	1.1838	1.1926	1.6387	0.8216	1.568	1.6034	0.4285	1.2456	1.4002	0.1148	0.4947	1.0336	0.8304	1.0203	1.9965	-1.5769	1.3207	-0.7597	1.5327	-0.508	6.3782	4.7174
1.0424	1.2147	1.2677	1.7094	0.8922	1.6431	1.6785	0.4726	1.2942	1.409	0.1369	0.5212	1.0336	0.8437	1.0247	2.0892	-1.6078	1.2942	-0.7023	1.4885	-0.5124	6.387	4.6555
1.1087	1.2589	1.3384	1.7933	0.9408	1.7315	1.7226	0.5433	1.3207	1.4002	0.1723	0.5345	1.038	0.8525	1.1661	2.1864	-1.6564	1.2589	-0.6316	1.5106	-0.5035	6.3605	4.6025
1.1263	1.2765	1.3737	1.8242	1.0159	1.758	1.7889	0.5875	1.356	1.4355	0.2032	0.5654	1.0468	0.8702	1.2279	2.288	-1.6608	1.25	-0.5742	1.4753	-0.5654	6.3605	4.5849
1.1838	1.2986	1.4311	1.8507	1.0557	1.8242	1.8242	0.6405	1.4267	1.4134	0.2739	0.561	1.038	0.8657	1.3339	2.3499	-1.6829	1.2235	-0.5124	1.4576	-0.5565	6.3605	4.5539
1.1926	1.2544	1.4267	1.8684	1.0513	1.8463	1.7712	0.6758	1.409	1.3649	0.265	0.5698	0.9673	0.8481	1.409	2.4294	-1.674	1.1484	-0.4329	1.3914	-0.6184	6.3649	4.576
1.1926	1.2147	1.4267	1.8551	1.0778	1.8684	1.7315	0.6537	1.4134	1.3119	0.2783	0.5919	0.9497	0.8481	1.4885	2.5	-1.6564	1.0998	-0.3843	1.356	-0.6493	6.3428	4.5804
1.1749	1.1793	1.4223	1.8375	1.0689	1.8772	1.7006	0.6493	1.3869	1.2544	0.2959	0.5786	0.9232	0.8392	1.5283	2.553	-1.6387	1.038	-0.3357	1.303	-0.7067	6.3473	4.5937
1.1838	1.1175	1.4444	1.7845	1.0513	1.9258	1.6608	0.6846	1.4179	1.2368	0.3445	0.583	0.8657	0.8437	1.6034	2.5751	-1.6122	1.0115	-0.265	1.2809	-0.7509	6.3561	4.5672
1.0998	1.0159	1.3958	1.7315	1.0424	1.9082	1.5857	0.6935	1.409	1.1396	0.3313	0.5654	0.7951	0.8083	1.6387	2.5884	-1.5636	0.9099	-0.265	1.1926	-0.8127	6.3473	4.6114
1.091	0.9452	1.3428	1.6873	1.0027	1.9082	1.5239	0.6449	1.4134	1.0733	0.3401	0.561	0.7641	0.7951	1.6475	2.584	-1.5327	0.8878	-0.2385	1.1661	-0.8657	6.3428	4.629
1.0778	0.8569	1.3163	1.6696	0.9408	1.8949	1.5018	0.6095	1.4002	1.0071	0.3578	0.5389	0.7332	0.7906	1.6917	2.5486	-1.5327	0.8525	-0.2297	1.144	-0.932	6.3473	4.6644
1.0292	0.773	1.3163	1.6431	0.9143	1.8861	1.4664	0.6007	1.4179	0.9497	0.371	0.5521	0.6714	0.7818	1.7226	2.5442	-1.515	0.8127	-0.2385	1.1131	-0.9497	6.3473	4.7041
1.0159	0.6979	1.2721	1.652	0.8746	1.8551	1.4444	0.5698	1.3958	0.9011	0.3931	0.5698	0.6581	0.7906	1.7182	2.4691	-1.5195	0.8304	-0.2518	1.1131	-1.0027	6.3693	4.735
1.0115	0.6051	1.25	1.5813	0.8304	1.8596	1.4311	0.5654	1.4179	0.8481	0.4064	0.5698	0.6272	0.8039	1.7491	2.447	-1.5371	0.8083	-0.2915	1.091	-1.0247	6.4047	4.8057
0.9762	0.5212	1.2279	1.5592	0.7509	1.8507	1.4179	0.5124	1.4179	0.8304	0.4019	0.5698	0.6184	0.7951	1.7271	2.4029	-1.5371	0.773	-0.3401	1.0866	-1.0336	6.4577	4.8764
0.9497	0.4726	1.2103	1.5106	0.7332	1.864	1.3737	0.5345	1.4134	0.8171	0.424	0.5919	0.5963	0.7995	1.7182	2.3543	-1.5504	0.7509	-0.3622	1.0513	-1.0292	6.5239	4.925
0.9408	0.424	1.2014	1.4532	0.6758	1.8375	1.3384	0.5035	1.4444	0.7951	0.4505	0.6051	0.5786	0.8304	1.7624	2.3454	-1.568	0.7156	-0.3754	1.0203	-1.0292	6.6123	4.9736
0.9099	0.3578	1.1749	1.4267	0.6802	1.8198	1.2633	0.5212	1.4488	0.7509	0.4682	0.6095	0.5345	0.8392	1.7447	2.3234	-1.6034	0.7156	-0.3754	0.9806	-0.9894	6.7315	5.0487
0.9011	0.3578	1.197	1.4134	0.667	1.8463	1.2589	0.5256	1.4885	0.7288	0.4903	0.6493	0.5433	0.8304	1.758	2.2703	-1.621	0.7332	-0.2959	0.9497	-0.9585	6.8375	5.1282
0.8834	0.2959	1.1617	1.3737	0.6272	1.8375	1.2014	0.5212	1.5062	0.6846	0.5256	0.6493	0.5389	0.8348	1.7271	2.235	-1.6299	0.6846	-0.2871	0.8922	-0.9011	6.9966	5.19
0.8569	0.265	1.1396	1.3339	0.6228	1.8286	1.1882	0.5433	1.5371	0.6891	0.5698	0.667	0.53	0.8437	1.7845	2.2218	-1.6387	0.7111	-0.2518	0.8967	-0.8569	7.16	5.2783
0.8481	0.265	1.1882	1.3737	0.6405	1.8861	1.1705	0.5786	1.5945	0.7332	0.6095	0.7023	0.5477	0.8525	1.811	2.1776	-1.6608	0.7509	-0.1502	0.8657	-0.7862	7.3367	5.3358
0.8481	0.2606	1.1793	1.3604	0.667	1.8684	1.1661	0.5654	1.5901	0.7288	0.5919	0.7023	0.5521	0.8348	1.8242	2.1599	-1.6299	0.7288	-0.1148	0.8746	-0.7288	7.5001	5.3843
0.8525	0.2694	1.1838	1.3825	0.7111	1.9037	1.1528	0.5742	1.621	0.7465	0.6184	0.7376	0.5698	0.8392	1.8507	2.1555	-1.6299	0.7641	-0.053	0.9055	-0.6581	7.7077	5.4771
0.8392	0.265	1.2103	1.3958	0.7156	1.8993	1.1484	0.561	1.6299	0.7597	0.6316	0.7023	0.5565	0.826	1.8375	2.0716	-1.6166	0.7906	-0.0088	0.9541	-0.614	7.902	5.508
0.7995	0.2253	1.2014	1.3516	0.7023	1.8949	1.1219	0.5345	1.6255	0.7156	0.583	0.6758	0.5389	0.8216	1.811	2.0142	-1.6034	0.8039	0.0265	0.9673	-0.5919	8.1008	5.5919
0.7686	0.1678	1.1396	1.3339	0.6714	1.8816	1.091	0.4682	1.5813	0.7244	0.5521	0.6449	0.5433	0.8392	1.7845	1.9567	-1.599	0.8657	0.0795	1.0292	-0.5345	8.3217	5.6538
0.7156	0.1369	1.1131	1.2544	0.6493	1.8507	1.0336	0.4285	1.5239	0.6891	0.4859	0.5256	0.4947	0.8083	1.7403	1.8728	-1.5901	0.8481	0.1104	1.0689	-0.5035	8.5513	5.7024
0.6581	0.0751	1.0689	1.1793	0.561	1.7889	0.9585	0.3313	1.4664	0.614	0.3975	0.4461	0.4196	0.8083	1.6652	1.7801	-1.5813	0.8437	0.1325	1.1043	-0.4947	8.7899	5.7819
0.5654	-0.0088	0.9762	1.0601	0.4726	1.7006	0.8657	0.2518	1.3649	0.5168	0.2429	0.2915	0.3401	0.7951	1.5725	1.6652	-1.5636	0.8216	0.1016	1.1175	-0.5035	9.0372	5.8172
0.5433	-0.0618	0.8878	0.9806	0.3799	1.6299	0.8039	0.1413	1.2721	0.4859	0.1458	0.1767	0.2209	0.7951	1.4974	1.5769	-1.5592	0.7951	0.0928	1.1573	-0.5212	9.2448	5.8393
0.455	-0.159	0.7641	0.8481	0.2562	1.5327	0.7067	0.0221	1.1528	0.3357	-0.0353	-0.0088	0.1148	0.8039	1.4046	1.4841	-1.5636	0.7465	0.0309	1.144	-0.5654	9.4392	5.8879
0.3799	-0.2341	0.6846	0.7641	0.1634	1.4488	0.6493	-0.1016	1.0115	0.265	-0.1988	-0.1899	-0.0044	0.8171	1.3604	1.4355	-1.5901	0.7156	-0.0574	1.1263	-0.583	9.5893	5.8835
0.2959	-0.3224	0.5654	0.6493	0.0221	1.3295	0.5521	-0.2739	0.8702	0.1237	-0.3975	-0.4064	-0.1634	0.8171	1.2765	1.3825	-1.5945	0.6228	-0.1458	1.0778	-0.6537	9.6998	5.9011
0.2429	-0.3887	0.455	0.5565	-0.1016	1.2191	0.4682	-0.4019	0.6935	0.0221	-0.5256	-0.5786	-0.2827	0.8304	1.2191	1.303	-1.6255	0.5654	-0.2341	1.0115	-0.6758	9.819	5.8879
0.1943	-0.424	0.3401	0.4196	-0.2209	1.1484	0.3887	-0.5212	0.5698	-0.0972	-0.7156	-0.7686	-0.455	0.8437	1.1882	1.3207	-1.6475	0.4594	-0.3313	0.9452	-0.7067	9.8411	5.8835
0.1458	-0.4638	0.2385	0.3269	-0.2915	1.0203	0.318	-0.6449	0.4417	-0.2032	-0.8525	-0.9541	-0.561	0.8481	1.1528	1.2765	-1.6652	0.3843	-0.4373	0.8525	-0.7509	9.8588	5.8437
0.0618	-0.4947	0.1546	0.2474	-0.3401	0.9673	0.2871	-0.6802	0.3489	-0.2783	-0.9364	-1.0954	-0.667	0.8481	1.1131	1.2412	-1.674	0.3357	-0.5124	0.8039	-0.7376	9.8588	5.8393
0.0574	-0.4594	0.0928	0.1369	-0.3666	0.8922	0.2209	-0.7332	0.2518	-0.3136	-0.9894	-1.2014	-0.7023	0.8702	1.0822	1.2323	-1.705	0.3269	-0.5963	0.7244	-0.7421	9.8058	5.7863
0.0044	-0.4859	-0.0088	0.0353	-0.4019	0.8083	0.2076	-0.7774	0.159	-0.3799	-1.0689	-1.3119	-0.7906	0.879	0.9938	1.1749	-1.7006	0.3136	-0.667	0.6449	-0.7995	9.7572	5.7819
-0.0839	-0.4594	-0.0618	-0.0442	-0.3843	0.7818	0.212	-0.7597	0.106	-0.4019	-1.0866	-1.3825	-0.8127	0.8702	0.9408	1.1175	-1.7094	0.3224	-0.6714	0.6007	-0.7288	9.7042	5.7819
-0.159	-0.4329	-0.1237	-0.1237	-0.371	0.7111	0.2297	-0.7509	0.0795	-0.3931	-1.1263	-1.4267	-0.8613	0.8569	0.8216	1.0424	-1.6961	0.3313	-0.7023	0.561	-0.7597	9.6777	5.7995
-0.2164	-0.4064	-0.1458	-0.1413	-0.318	0.7465	0.2915	-0.7156	0.0972	-0.3445	-1.0822	-1.4355	-0.8304	0.8922	0.7509	0.9982	-1.7182	0.4152	-0.6891	0.5919	-0.7332	9.6424	5.8349
-0.2915	-0.3931	-0.212	-0.2209	-0.265	0.7421	0.3534	-0.7067	0.0663	-0.3136	-1.0513	-1.4488	-0.7774	0.8746	0.6228	0.8657	-1.7271	0.4638	-0.6714	0.583	-0.7376	9.6644	5.8791
-0.3931	-0.3887	-0.2739	-0.2518	-0.2606	0.7156	0.4196	-0.6184	0.0972	-0.2959	-0.9717	-1.4311	-0.7686	0.9099	0.5124	0.7553	-1.7491	0.5345	-0.6272	0.6184	-0.7111	9.7263	5.9762
-0.477	-0.3975	-0.3136	-0.265	-0.1723	0.7421	0.508	-0.5477	0.1502	-0.2253	-0.9011	-1.3914	-0.6935	0.9011	0.3754	0.6228	-1.7756	0.6228	-0.5433	0.667	-0.6714	9.7837	6.0955
-0.5786	-0.4594	-0.3666	-0.3004	-0.1988	0.6935	0.5433	-0.5212	0.1104	-0.1767	-0.8216	-1.3649	-0.6537	0.9143	0.2297	0.4505	-1.8021	0.6846	-0.53	0.7111	-0.6405	9.8323	6.228
-0.7067	-0.5035	-0.455	-0.3578	-0.1899	0.6714	0.5919	-0.4417	0.1413	-0.1413	-0.72	-1.3119	-0.6095	0.9276	0.0663	0.2827	-1.8198	0.7465	-0.5168	0.7686	-0.6095	9.9295	6.3384
-0.7862	-0.5786	-0.53	-0.3843	-0.2253	0.6714	0.6316	-0.424	0.1502	-0.0795	-0.5919	-1.2147	-0.5477	0.9408	-0.1281	0.0972	-1.8596	0.826	-0.4638	0.8216	-0.5389	10.0443	6.4974
-0.9629	-0.6537	-0.6316	-0.4726	-0.2518	0.614	0.6626	-0.3931	0.1413	-0.0883	-0.53	-1.2014	-0.5168	0.9629	-0.3136	-0.0707	-1.8861	0.8834	-0.4505	0.8304	-0.4991	10.1503	6.6167
-1.1219	-0.7862	-0.7686	-0.5212	-0.3489	0.5433	0.6758	-0.4196	0.1148	-0.0707	-0.4461	-1.1352	-0.5035	0.9717	-0.4815	-0.2474	-1.9214	0.9364	-0.4329	0.8525	-0.4638	10.2386	6.7404
-1.2589	-0.9055	-0.8657	-0.5963	-0.4638	0.477	0.6493	-0.4152	0.0883	-0.0839	-0.3401	-1.0998	-0.4505	0.9806	-0.7111	-0.4417	-1.9214	0.9762	-0.4461	0.8525	-0.4285	10.3712	6.8596
-1.3649	-1.0336	-0.9762	-0.5919	-0.5212	0.3887	0.6891	-0.3887	0.0883	-0.053	-0.2297	-1.0115	-0.3931	0.9982	-0.8746	-0.5256	-1.9435	1.0468	-0.4329	0.8702	-0.3313	10.4286	6.9568
-1.4974	-1.1308	-1.1175	-0.6316	-0.6228	0.3092	0.6581	-0.4019	0.0707	-0.0883	-0.1413	-0.9497	-0.3578	0.985	-1.0424	-0.6493	-1.9302	1.0778	-0.4152	0.8304	-0.265	10.4904	7.0231
-1.5945	-1.2765	-1.2147	-0.6714	-0.7376	0.212	0.6758	-0.424	0.0574	-0.0883	-0.0133	-0.9011	-0.3004	0.9629	-1.2014	-0.7862	-1.8728	1.144	-0.4461	0.8127	-0.1767	10.5258	7.0584
-1.7006	-1.3693	-1.2986	-0.6449	-0.8348	0.1413	0.7156	-0.4108	0.0442	-0.053	0.1104	-0.7818	-0.212	0.932	-1.3472	-0.8657	-1.8198	1.1882	-0.4417	0.7995	-0.0795	10.5523	7.0407
-1.7977	-1.462	-1.3781	-0.614	-0.8967	0.0442	0.7067	-0.3799	0.0353	-0.0618	0.2297	-0.6758	-0.1634	0.8922	-1.4797	-0.9187	-1.7491	1.2412	-0.424	0.7597	0.0309	10.5434	7.0231
-1.8684	-1.5106	-1.4841	-0.6272	-0.9585	-0.0442	0.7553	-0.3622	0.0398	-0.0574	0.3975	-0.5919	-0.0883	0.8657	-1.5327	-0.9673	-1.6873	1.3163	-0.3931	0.7156	0.1899	10.5213	6.9877
-1.9082	-1.5548	-1.5548	-0.5786	-0.9894	-0.1193	0.7597	-0.3269	-0.0044	-0.0442	0.5521	-0.4903	-0.0088	0.7995	-1.6475	-1.0071	-1.5813	1.3825	-0.3578	0.6581	0.3004	10.5125	6.948
-1.9258	-1.5636	-1.5769	-0.561	-1.0027	-0.2164	0.7597	-0.3092	0.0133	-0.0486	0.6449	-0.3401	0.0707	0.7641	-1.6961	-1.0557	-1.5062	1.409	-0.3048	0.6449	0.4196	10.4816	6.8552
-1.9744	-1.6166	-1.6785	-0.5521	-1.0601	-0.2915	0.7465	-0.2915	-0.0177	-0.0486	0.773	-0.2694	0.1325	0.7376	-1.758	-1.1043	-1.4223	1.4664	-0.2827	0.6095	0.5477	10.4595	6.7757
-1.9788	-1.5725	-1.6917	-0.4991	-1.0645	-0.3357	0.7376	-0.2209	0	-0.0221	0.9497	-0.1413	0.2297	0.6935	-1.7756	-1.1131	-1.3428	1.5106	-0.2164	0.5875	0.6935	10.4374	6.7139
-1.9302	-1.546	-1.7182	-0.4682	-1.0822	-0.4196	0.6802	-0.1678	-0.0353	-0.0353	1.1087	-0.0398	0.265	0.6581	-1.7271	-1.091	-1.2765	1.5592	-0.1237	0.5654	0.8039	10.3712	6.6255
-1.9214	-1.5415	-1.7182	-0.4815	-1.1043	-0.5256	0.6272	-0.1634	-0.0398	-0.0574	1.1882	0.0088	0.3269	0.6184	-1.7403	-1.1087	-1.2014	1.6034	-0.0574	0.5256	0.9585	10.3093	6.5637
-1.8463	-1.5195	-1.6961	-0.4859	-1.1131	-0.561	0.561	-0.1104	-0.053	-0.0574	1.3119	0.1016	0.4329	0.6051	-1.705	-1.0733	-1.1617	1.705	0.0265	0.5477	1.091	10.2651	6.5151
-1.8021	-1.4797	-1.6873	-0.508	-1.1087	-0.6007	0.477	-0.0707	-0.0839	-0.0839	1.409	0.1723	0.4815	0.5698	-1.6608	-1.0601	-1.1175	1.7315	0.0972	0.5389	1.1882	10.1856	6.5107
-1.7226	-1.3825	-1.6255	-0.4991	-1.0866	-0.5875	0.4285	-0.0044	-0.0972	-0.0442	1.515	0.2341	0.5168	0.6007	-1.5769	-1.0027	-1.1352	1.811	0.1458	0.6007	1.3074	10.115	6.5239
-1.6431	-1.356	-1.6078	-0.5212	-1.0998	-0.6184	0.3357	0.0088	-0.1016	-0.0751	1.568	0.2783	0.6095	0.6007	-1.568	-0.9938	-1.1484	1.8728	0.1811	0.6405	1.3604	10.0841	6.6123
-1.568	-1.2809	-1.5415	-0.5389	-1.0866	-0.6316	0.2827	0.0221	-0.106	-0.0795	1.6343	0.3666	0.6846	0.6095	-1.4709	-0.9276	-1.1926	1.9258	0.2253	0.6802	1.4399	10.0222	6.7183
-1.4576	-1.25	-1.462	-0.5212	-1.0733	-0.6051	0.2253	0.0795	-0.0972	-0.0574	1.6829	0.4064	0.7376	0.6493	-1.4267	-0.8481	-1.2589	1.9965	0.212	0.7421	1.4664	9.9692	6.8331
-1.3074	-1.1396	-1.3339	-0.4682	-1.0027	-0.5433	0.2164	0.1148	-0.0795	-0.0044	1.758	0.4682	0.8348	0.6891	-1.3472	-0.7509	-1.3472	2.076	0.2694	0.8481	1.5195	9.9206	6.9745
-1.1617	-1.0468	-1.1926	-0.3975	-0.9276	-0.4682	0.1988	0.1723	-0.0486	0.0353	1.7801	0.5389	0.9143	0.72	-1.2147	-0.6361	-1.4223	2.1423	0.2518	0.9629	1.5548	9.8544	7.1291
-1.0071	-0.9408	-1.0645	-0.3048	-0.8348	-0.3843	0.212	0.2164	-0.0309	0.053	1.8021	0.6007	0.9894	0.7641	-1.1396	-0.4682	-1.493	2.1953	0.2385	1.0292	1.5725	9.8102	7.2969
-0.8216	-0.8083	-0.8657	-0.2297	-0.7332	-0.2871	0.2606	0.2518	0.0221	0.1502	1.8331	0.6891	1.0954	0.8083	-1.0027	-0.2694	-1.5592	2.2792	0.1899	1.1263	1.5636	9.7616	7.4206
-0.6051	-0.6846	-0.6935	-0.0663	-0.6095	-0.1899	0.3578	0.3269	0.0972	0.2474	1.8551	0.7774	1.2235	0.8657	-0.8525	-0.0574	-1.6652	2.3852	0.1767	1.2279	1.5901	9.6865	7.5708
-0.3445	-0.5168	-0.4152	0.1325	-0.4373	0.0398	0.4815	0.4329	0.2341	0.3843	1.9523	0.9011	1.3693	0.9143	-0.6537	0.212	-1.7801	2.4912	0.1723	1.3693	1.568	9.6556	7.6856
-0.1502	-0.3092	-0.1723	0.3401	-0.2783	0.2076	0.6184	0.4815	0.3401	0.508	1.9391	1.0159	1.5062	0.9806	-0.477	0.424	-1.8861	2.6105	0.1723	1.515	1.5415	9.6379	7.8093
0.1369	-0.106	0.1325	0.583	-0.0839	0.4373	0.8083	0.5963	0.4859	0.6802	2.0142	1.1573	1.6917	1.038	-0.265	0.72	-2.023	2.7032	0.2253	1.6785	1.5504	9.6335	7.9109
0.4594	0.1502	0.4638	0.8392	0.1193	0.7067	1.038	0.7111	0.6758	0.8922	2.0848	1.3207	1.8596	1.1087	-0.0265	1.0247	-2.182	2.8887	0.2694	1.8728	1.5415	9.6644	8.0169
0.7774	0.4064	0.7862	1.1043	0.3136	0.9541	1.2677	0.8392	0.8746	1.1175	2.1423	1.4753	2.0583	1.1926	0.2341	1.2633	-2.3278	3.008	0.2959	2.0539	1.4841	9.7042	8.1141
1.0778	0.6537	1.1308	1.3693	0.5345	1.2368	1.5062	0.9585	1.091	1.3251	2.1997	1.6608	2.2306	1.2721	0.4682	1.546	-2.4912	3.114	0.3578	2.2615	1.4311	9.8014	8.198
1.4267	0.9452	1.4885	1.6652	0.7818	1.5327	1.7977	1.0866	1.3384	1.568	2.2659	1.8419	2.4338	1.3295	0.7067	1.7977	-2.637	3.2863	0.3975	2.4559	1.3825	9.8853	8.3305
1.8066	1.2544	1.864	1.9965	1.0071	1.8419	2.0981	1.2412	1.6122	1.8331	2.3499	2.0362	2.637	1.4399	1.0247	2.1025	-2.8136	3.4276	0.424	2.6767	1.2809	10.0045	8.4365
2.1688	1.5901	2.2483	2.3278	1.2323	2.1908	2.4294	1.409	1.9082	2.1025	2.4073	2.2483	2.8534	1.5106	1.2898	2.3454	-2.9638	3.5645	0.4903	2.8711	1.1882	10.1547	8.569
2.5575	1.9214	2.6502	2.6723	1.5018	2.5265	2.7871	1.5371	2.1953	2.3808	2.4824	2.4779	3.061	1.5813	1.6166	2.659	-3.1096	3.644	0.5168	3.1052	1.0557	10.2828	8.6618
2.9638	2.288	3.061	3.0257	1.7624	2.8799	3.1493	1.705	2.5089	2.6723	2.5795	2.6944	3.2907	1.6343	1.9037	2.9285	-3.2288	3.7368	0.5565	3.2774	0.9187	10.4595	8.7634
3.3702	2.6855	3.5204	3.4453	2.0937	3.273	3.5645	1.9082	2.8622	2.9947	2.6635	2.9373	3.5248	1.7094	2.2792	3.1891	-3.3746	3.8251	0.6537	3.4894	0.8216	10.6362	8.8429
3.7898	3.0477	3.9267	3.8207	2.3808	3.6617	3.9223	2.0981	3.2156	3.2951	2.7606	3.1714	3.697	1.7801	2.5707	3.4983	-3.4762	3.9091	0.72	3.6838	0.7156	10.8349	8.9091
4.1918	3.432	4.3154	4.2006	2.6988	4.0592	4.311	2.2924	3.5822	3.5645	2.8534	3.3923	3.8693	1.8242	2.8976	3.7721	-3.569	3.9621	0.7862	3.834	0.5742	11.0425	8.9842
4.576	3.8163	4.735	4.5407	3.0257	4.4347	4.6909	2.5	3.9621	3.8693	2.9462	3.6352	4.0637	1.8507	3.2465	4.0372	-3.6264	3.9974	0.8657	3.9665	0.4991	11.2457	9.0328
4.9912	4.1741	5.1458	4.8896	3.379	4.8543	5.0354	2.7165	4.3331	4.1476	3.0698	3.8428	4.2492	1.8728	3.5159	4.311	-3.7015	4.0107	0.9717	4.0813	0.3799	11.4666	9.0637
5.3269	4.5274	5.5169	5.19	3.6573	5.2209	5.3358	2.8666	4.6511	4.3684	3.1361	4.0769	4.364	1.8949	3.8296	4.5849	-3.7147	3.9886	1.0557	4.1387	0.2253	11.6609	9.1211
5.6538	4.8322	5.8791	5.4594	3.9267	5.5699	5.6273	3.0698	4.9868	4.6158	3.1847	4.2978	4.4877	1.8861	4.0902	4.7571	-3.7147	3.9267	1.1396	4.2138	0.1237	11.8862	9.1432
5.9718	5.1237	6.2147	5.7112	4.2006	5.9232	5.8791	3.2068	5.3137	4.8411	3.2465	4.4744	4.5849	1.8816	4.2933	4.9515	-3.7059	3.8516	1.2058	4.2448	-0.0177	12.107	9.1786
6.2766	5.3932	6.5725	5.9718	4.4568	6.2589	6.1264	3.3437	5.6405	5.0266	3.2818	4.6511	4.6202	1.864	4.5186	5.1105	-3.6882	3.7368	1.2633	4.2801	-0.1502	12.3191	9.2183
6.5372	5.6273	6.895	6.2059	4.6732	6.5814	6.334	3.4894	5.91	5.1944	3.3525	4.8145	4.682	1.864	4.6776	5.2607	-3.6661	3.622	1.3074	4.2889	-0.3048	12.509	9.2625
6.7757	5.8172	7.1556	6.3914	4.8411	6.8773	6.5107	3.6308	6.1662	5.3446	3.3481	4.9559	4.7085	1.8463	4.7969	5.3269	-3.622	3.4939	1.3428	4.2713	-0.4329	12.7078	9.3332
6.9833	5.9586	7.4118	6.546	4.9824	7.1512	6.6609	3.697	6.4312	5.4727	3.3481	5.0752	4.7174	1.8286	4.9029	5.3534	-3.5822	3.3304	1.356	4.2448	-0.5919	12.88	9.3729
7.1865	6.1043	7.6679	6.705	5.1061	7.4029	6.789	3.7721	6.6741	5.6008	3.3569	5.2077	4.7085	1.8021	4.9824	5.3932	-3.5469	3.1626	1.3693	4.1873	-0.7332	13.0258	9.4524
7.3322	6.1794	7.8667	6.8817	5.1856	7.6679	6.8905	3.8207	6.8817	5.6803	3.3614	5.3004	4.713	1.7801	4.9912	5.3446	-3.485	2.9859	1.3339	4.1122	-0.8702	13.1715	9.4966
7.4471	6.1971	8.0434	7.0231	5.2651	7.8623	6.9656	3.8516	7.0628	5.7289	3.3083	5.3181	4.6246	1.7359	5.031	5.3623	-3.4276	2.7827	1.3251	4.0283	-0.9717	13.2687	9.5938
7.584	6.2368	8.2377	7.1644	5.2739	8.0964	7.0407	3.887	7.2307	5.7995	3.2951	5.3843	4.6025	1.7094	5.0354	5.3358	-3.3614	2.6237	1.2456	3.9576	-1.1175	13.3747	9.6689
7.69	6.2589	8.3526	7.2616	5.3004	8.2112	7.1335	3.8958	7.3897	5.8437	3.2023	5.4241	4.5142	1.6829	5.0266	5.3534	-3.2951	2.4514	1.1661	3.8251	-1.2279	13.4056	9.766
7.774	6.228	8.4851	7.3499	5.3093	8.3747	7.1644	3.8914	7.4559	5.8525	3.1803	5.4462	4.4656	1.6343	5.0442	5.3402	-3.2244	2.2173	1.091	3.7015	-1.2898	13.4587	9.8544
7.8005	6.2368	8.5867	7.4383	5.3446	8.4807	7.1777	3.8693	7.5664	5.8658	3.1272	5.4506	4.4038	1.6122	5.0663	5.3888	-3.167	2.0804	1.0071	3.6352	-1.356	13.4896	9.9471
7.8755	6.2368	8.6485	7.4957	5.3093	8.5867	7.1865	3.834	7.6194	5.8614	3.0654	5.4108	4.311	1.5813	5.084	5.4418	-3.1007	1.9082	0.9364	3.5248	-1.4267	13.4896	10.0266
7.9197	6.2103	8.7457	7.5752	5.3313	8.6397	7.2174	3.8163	7.69	5.8525	2.9859	5.3976	4.2403	1.5504	5.1591	5.4992	-3.0389	1.7801	0.8834	3.4585	-1.4664	13.4896	10.0796
7.9506	6.1662	8.7722	7.6017	5.3269	8.6883	7.1953	3.781	7.6989	5.8305	2.9064	5.3181	4.152	1.5106	5.2563	5.614	-2.9462	1.6475	0.8348	3.326	-1.5327	13.4631	10.1371
7.9595	6.1352	8.781	7.6105	5.2872	8.6706	7.1114	3.6882	7.6679	5.7598	2.8004	5.2297	4.0283	1.4664	5.3623	5.72	-2.8534	1.5195	0.826	3.2156	-1.5945	13.4322	10.115
7.9506	6.0822	8.7899	7.6105	5.2695	8.6794	7.0893	3.6308	7.6149	5.698	2.712	5.1237	3.9621	1.4355	5.5036	5.8172	-2.7871	1.4311	0.7862	3.0875	-1.6475	13.4056	10.1503
7.9197	6.0204	8.7501	7.5443	5.2253	8.6574	6.9921	3.5027	7.5266	5.6273	2.5751	4.9912	3.8428	1.3825	5.6494	6.0071	-2.6944	1.2721	0.7862	2.9771	-1.7403	13.3482	10.0973
7.9109	5.963	8.7104	7.4824	5.1502	8.5734	6.8729	3.4232	7.4338	5.5169	2.4514	4.8234	3.7191	1.3428	5.7819	6.1529	-2.6193	1.1484	0.7818	2.8666	-1.7845	13.2864	10.0355
7.8579	5.8702	8.6353	7.3853	5.0487	8.4807	6.758	3.2686	7.2969	5.3976	2.2968	4.66	3.5557	1.2986	5.8879	6.2898	-2.553	1.0513	0.7774	2.7253	-1.8728	13.2378	9.9869
7.7519	5.7686	8.5293	7.2218	4.9382	8.3437	6.599	3.1228	7.1114	5.2077	2.1246	4.4656	3.4099	1.2765	5.9895	6.4356	-2.4912	0.9187	0.7376	2.5972	-2.0009	13.1539	9.956
7.6635	5.6229	8.3835	7.0451	4.8013	8.1936	6.4135	2.9285	6.9082	5.084	1.9479	4.2315	3.2553	1.2544	6.0601	6.546	-2.447	0.8525	0.72	2.5089	-2.0848	13.0788	9.8941
7.5266	5.4771	8.2068	6.8817	4.629	7.9992	6.2324	2.7827	6.7183	4.8896	1.7668	3.9974	3.0831	1.2191	6.1176	6.6034	-2.4073	0.7509	0.6537	2.3852	-2.2085	13.0125	9.8632
7.3676	5.296	8.0036	6.7006	4.4479	7.796	6.0116	2.531	6.4488	4.7041	1.5592	3.7854	2.9152	1.2058	6.1352	6.6476	-2.3852	0.6449	0.5477	2.288	-2.3543	12.9595	9.8499
7.213	5.0663	7.796	6.4842	4.2183	7.584	5.8305	2.3454	6.2147	4.5319	1.3693	3.538	2.7651	1.197	6.1352	6.7006	-2.3587	0.561	0.424	2.182	-2.4603	12.8977	9.8234
7.001	4.8278	7.5796	6.2324	3.9621	7.3234	5.5831	2.0937	5.9188	4.2845	1.144	3.2465	2.5707	1.197	6.0911	6.6653	-2.3499	0.4726	0.3048	2.1158	-2.5663	12.8491	9.7881
6.7757	4.5849	7.2969	6.016	3.675	7.054	5.3446	1.8242	5.6229	4.0416	0.8878	2.9682	2.3764	1.1705	6.0116	6.599	-2.2924	0.3931	0.1413	2.0053	-2.6679	12.8005	9.7749
6.5416	4.311	7.0363	5.7907	3.4099	6.7625	5.1502	1.5813	5.3402	3.8472	0.6891	2.7032	2.1908	1.1484	5.9276	6.5416	-2.2659	0.318	-0.0133	1.917	-2.796	12.7563	9.7439
6.3031	4.0372	6.7492	5.5654	3.1096	6.5195	4.9603	1.303	5.0089	3.6705	0.4682	2.4249	2.0451	1.1352	5.8084	6.4312	-2.2218	0.265	-0.1678	1.8375	-2.902	12.7166	9.7749
6.016	3.7456	6.4709	5.3269	2.8225	6.1971	4.7306	0.9982	4.6732	3.4144	0.265	2.129	1.8286	1.0778	5.6582	6.2854	-2.129	0.1767	-0.3092	1.7315	-2.955	12.6768	9.7749
5.7775	3.485	6.2103	5.137	2.5398	5.8879	4.5098	0.7288	4.3552	3.167	0.0486	1.8905	1.6608	1.0468	5.4948	6.1397	-2.0539	0.0883	-0.4638	1.6475	-3.0168	12.6592	9.8234
5.4815	3.22	5.9011	4.8985	2.2748	5.614	4.3154	0.4859	4.0725	2.9506	-0.1458	1.6166	1.4797	0.9938	5.3578	5.963	-1.9567	-0.0044	-0.6051	1.5371	-3.0522	12.6194	9.8411
5.2563	2.955	5.6361	4.7483	2.0142	5.3358	4.1167	0.2518	3.7589	2.7386	-0.3048	1.3825	1.3074	0.9541	5.2253	5.8216	-1.8816	-0.053	-0.7288	1.4223	-3.0212	12.5885	9.9074
5.0001	2.7518	5.3667	4.5407	1.7624	5.0619	3.9267	0.0133	3.4718	2.5398	-0.4152	1.1484	1.1528	0.9143	5.0531	5.6715	-1.7845	-0.1193	-0.8437	1.3119	-2.9638	12.5399	10.009
4.7439	2.4956	5.0884	4.311	1.546	4.7439	3.6617	-0.1855	3.1626	2.2836	-0.5786	0.9187	0.9938	0.8702	4.8808	5.4948	-1.6961	-0.1899	-0.985	1.1308	-2.9771	12.4913	10.0929
4.4965	2.2836	4.8234	4.1167	1.3207	4.4612	3.4939	-0.3799	2.8843	2.0318	-0.6846	0.6802	0.8127	0.8348	4.7306	5.3269	-1.6431	-0.3048	-1.1175	0.9894	-2.9285	12.4207	10.1856
4.311	2.0539	4.5584	3.9179	1.0513	4.1918	3.2686	-0.583	2.6016	1.8242	-0.7995	0.4903	0.6758	0.8304	4.5804	5.1591	-1.6166	-0.3357	-1.25	0.8437	-2.902	12.3544	10.3049
4.0504	1.811	4.2757	3.728	0.8127	3.9046	3.0477	-0.8127	2.288	1.5548	-0.932	0.2385	0.508	0.8171	4.417	4.9956	-1.5945	-0.4196	-1.3737	0.6846	-2.8976	12.2572	10.4197
3.7854	1.5901	3.993	3.4983	0.5212	3.5999	2.8225	-1.038	1.97	1.303	-1.0601	0.0265	0.318	0.8216	4.2448	4.8499	-1.5813	-0.4815	-1.5371	0.5212	-2.9064	12.1556	10.5346
3.5469	1.3516	3.7103	3.2995	0.2783	3.3083	2.5751	-1.2279	1.6696	1.0601	-1.1396	-0.2032	0.1281	0.7995	4.046	4.66	-1.599	-0.5654	-1.6431	0.3666	-2.902	12.0452	10.6583
3.3348	1.1131	3.4674	3.0742	0.0133	2.9859	2.3764	-1.3958	1.3649	0.8127	-1.2633	-0.4064	-0.0353	0.8216	3.8958	4.5716	-1.621	-0.6095	-1.7403	0.2341	-2.8931	11.9348	10.7245
3.0787	0.8834	3.1979	2.8976	-0.2474	2.7076	2.1158	-1.5813	1.0733	0.5256	-1.3781	-0.6316	-0.2032	0.8171	3.728	4.4435	-1.6255	-0.6846	-1.8596	0.0663	-2.8843	11.7979	10.8173
2.8578	0.6537	2.8799	2.7386	-0.477	2.394	1.9126	-1.7889	0.7951	0.2871	-1.4576	-0.826	-0.3578	0.826	3.5645	4.2933	-1.6255	-0.7686	-1.9567	-0.0618	-2.8843	11.7007	10.8791
2.6237	0.4285	2.6502	2.5398	-0.7067	2.1423	1.7094	-1.9037	0.4903	0.0221	-1.5592	-1.0513	-0.5124	0.8481	3.379	4.1829	-1.652	-0.8304	-2.0583	-0.1723	-2.8622	11.5947	10.9498
2.4029	0.2429	2.394	2.4029	-0.8746	1.8684	1.5018	-2.0407	0.2341	-0.1634	-1.621	-1.2412	-0.6758	0.8437	3.2288	4.0416	-1.6696	-0.8569	-2.1202	-0.2915	-2.8225	11.5152	11.016
2.1732	0.0442	2.1378	2.235	-1.0424	1.6122	1.2942	-2.1599	-0.0618	-0.4285	-1.6961	-1.4355	-0.8437	0.8392	3.0124	3.9002	-1.652	-0.9011	-2.2085	-0.4329	-2.7695	11.4577	11.0646
1.9214	-0.159	1.9082	2.0848	-1.2147	1.3649	1.0954	-2.2836	-0.3269	-0.6626	-1.7403	-1.6122	-1.0292	0.8392	2.8622	3.7324	-1.6564	-0.9452	-2.2483	-0.5698	-2.6988	11.4224	11.1221
1.7226	-0.3224	1.6917	1.9037	-1.3339	1.1308	0.9276	-2.3587	-0.5654	-0.879	-1.7801	-1.7756	-1.144	0.8348	2.6767	3.5601	-1.6343	-0.9673	-2.2924	-0.6537	-2.606	11.4268	11.1574
1.5018	-0.4638	1.4046	1.758	-1.4223	0.9011	0.7244	-2.4205	-0.8127	-1.0778	-1.7801	-1.9258	-1.303	0.7951	2.5221	3.4232	-1.5813	-0.9673	-2.3057	-0.7818	-2.4868	11.4357	11.2016
1.2942	-0.5875	1.2323	1.6122	-1.462	0.7023	0.5521	-2.4426	-0.9938	-1.25	-1.7845	-2.0142	-1.3869	0.7818	2.3543	3.273	-1.5371	-0.9541	-2.3145	-0.8613	-2.3454	11.4798	11.2148
1.1308	-0.7023	1.0424	1.5239	-1.5106	0.561	0.4461	-2.4647	-1.1484	-1.4046	-1.7315	-2.1378	-1.4399	0.7597	2.2438	3.114	-1.462	-0.9276	-2.2924	-0.9187	-2.2218	11.5284	11.2148
0.9364	-0.7862	0.9055	1.3737	-1.5283	0.424	0.3092	-2.447	-1.2809	-1.5283	-1.6961	-2.2129	-1.5106	0.6979	2.1555	2.9285	-1.356	-0.8702	-2.3057	-1.0203	-2.0407	11.5858	11.2016
0.8348	-0.8878	0.7774	1.2809	-1.568	0.3004	0.2209	-2.4117	-1.4002	-1.6299	-1.621	-2.2615	-1.5901	0.6537	2.0716	2.8313	-1.2544	-0.8127	-2.2924	-1.1043	-1.8551	11.63	11.1044
0.6891	-0.9497	0.6714	1.1661	-1.6034	0.2032	0.1237	-2.4249	-1.5062	-1.7138	-1.5371	-2.3234	-1.6034	0.5742	1.9877	2.6944	-1.1131	-0.7421	-2.2659	-1.1838	-1.6696	11.683	11.0558
0.6361	-1.0159	0.5963	1.0954	-1.6034	0.1237	0.0486	-2.3808	-1.5504	-1.7801	-1.4576	-2.3499	-1.6122	0.5124	1.9567	2.6105	-0.9938	-0.6714	-2.2306	-1.2412	-1.4664	11.7404	10.9895
0.5433	-1.1131	0.5035	1.0159	-1.6299	0.0751	-0.0309	-2.3543	-1.621	-1.8507	-1.3649	-2.3543	-1.6255	0.4417	1.9126	2.4824	-0.8569	-0.5345	-2.2262	-1.2721	-1.2986	11.7802	10.8924
0.477	-1.1705	0.4196	0.8878	-1.6652	-0.0177	-0.0839	-2.3719	-1.6917	-1.8772	-1.3295	-2.4073	-1.6255	0.371	1.8728	2.3675	-0.7288	-0.4417	-2.2129	-1.3737	-1.1131	11.8464	10.7996
0.3754	-1.2544	0.3136	0.7995	-1.7182	-0.0928	-0.1546	-2.3675	-1.7447	-1.9435	-1.2721	-2.4073	-1.6034	0.3136	1.8242	2.2659	-0.583	-0.3313	-2.2085	-1.3914	-0.985	11.8994	10.7024
0.2783	-1.3825	0.1899	0.6493	-1.8021	-0.1943	-0.2783	-2.4205	-1.8375	-1.9877	-1.2456	-2.4559	-1.599	0.2297	1.7359	2.1113	-0.455	-0.2429	-2.2173	-1.4488	-0.8922	11.9569	10.6273
0.1634	-1.4753	0.1148	0.508	-1.8419	-0.2739	-0.3534	-2.4073	-1.8684	-2.0142	-1.2103	-2.4824	-1.5769	0.1767	1.674	1.9921	-0.3401	-0.1413	-2.2306	-1.4664	-0.7995	12.0275	10.6008
0.053	-1.6078	0.0044	0.3754	-1.9391	-0.3445	-0.4196	-2.447	-1.9214	-2.0451	-1.1661	-2.5133	-1.5327	0.1413	1.6034	1.8551	-0.2518	0.0088	-2.2483	-1.4532	-0.6935	12.1291	10.5611
-0.0442	-1.7094	-0.1148	0.2297	-2.023	-0.4505	-0.5168	-2.4956	-1.9877	-2.0451	-1.1396	-2.5398	-1.5195	0.1104	1.5371	1.7315	-0.1988	0.1502	-2.2703	-1.4311	-0.614	12.2086	10.5567
-0.212	-1.8551	-0.2518	0.0883	-2.1202	-0.5565	-0.5786	-2.5486	-2.0495	-2.0848	-1.1528	-2.553	-1.4841	0.0795	1.4311	1.5415	-0.1369	0.3136	-2.3013	-1.4134	-0.5698	12.297	10.5655
-0.3622	-2.0097	-0.371	-0.106	-2.2085	-0.667	-0.6891	-2.5928	-2.1158	-2.0937	-1.1352	-2.5928	-1.4444	0.0574	1.3207	1.3958	-0.0883	0.4594	-2.3675	-1.3693	-0.5256	12.3986	10.5743
-0.5565	-2.1732	-0.561	-0.3224	-2.3499	-0.826	-0.7951	-2.7165	-2.2218	-2.1202	-1.1484	-2.6723	-1.409	0.0398	1.1749	1.2323	-0.0663	0.6051	-2.3896	-1.3472	-0.4726	12.5002	10.5964
-0.7465	-2.3189	-0.7641	-0.5256	-2.4868	-0.9497	-0.9055	-2.7871	-2.3057	-2.129	-1.1749	-2.6988	-1.3737	0.0265	1.038	1.0292	-0.053	0.7686	-2.4073	-1.2854	-0.4638	12.5885	10.645
-0.9541	-2.4912	-0.9364	-0.72	-2.584	-1.1175	-1.0336	-2.8446	-2.3896	-2.129	-1.2014	-2.7209	-1.3295	0.0574	0.8834	0.8657	-0.0751	0.9099	-2.4779	-1.2323	-0.4638	12.6724	10.7334
-1.144	-2.637	-1.1175	-0.9806	-2.7386	-1.2323	-1.144	-2.9417	-2.4824	-2.1688	-1.2191	-2.7651	-1.303	0.0574	0.7509	0.6626	-0.1016	1.0601	-2.5	-1.1749	-0.4505	12.7828	10.8394
-1.356	-2.8313	-1.3472	-1.1705	-2.8666	-1.4179	-1.2765	-3.0124	-2.5619	-2.1732	-1.2191	-2.8004	-1.2854	0.0795	0.6095	0.477	-0.1502	1.2014	-2.5795	-1.1219	-0.4329	12.88	10.963
-1.5504	-3.0124	-1.5592	-1.409	-3.0124	-1.5901	-1.3604	-3.114	-2.637	-2.1953	-1.2456	-2.8092	-1.2368	0.1104	0.4505	0.2915	-0.2032	1.3384	-2.637	-1.0468	-0.3887	12.986	11.1353
-1.7756	-3.1758	-1.7403	-1.6122	-3.1582	-1.705	-1.4753	-3.1714	-2.7386	-2.1953	-1.2323	-2.8313	-1.1838	0.1546	0.3092	0.1458	-0.2827	1.5062	-2.6811	-0.9894	-0.3534	13.0788	11.2634
-1.9523	-3.3039	-1.9479	-1.8551	-3.2907	-1.8905	-1.621	-3.2509	-2.8357	-2.2306	-1.2854	-2.8534	-1.1705	0.1855	0.1855	-0.0442	-0.3313	1.5901	-2.7032	-0.932	-0.3357	13.1804	11.4533
-2.1467	-3.4674	-2.182	-2.076	-3.4232	-2.0539	-1.7624	-3.3172	-2.9506	-2.2394	-1.303	-2.9108	-1.1352	0.2297	0.0309	-0.2253	-0.3887	1.7182	-2.743	-0.8702	-0.3092	13.2996	11.6035
-2.3145	-3.5734	-2.3366	-2.2659	-3.4939	-2.1953	-1.8331	-3.3834	-3.0168	-2.2703	-1.2589	-2.9152	-1.1087	0.2474	-0.0839	-0.3843	-0.4682	1.8596	-2.7518	-0.7995	-0.2562	13.4101	11.7714
-2.4735	-3.6882	-2.5486	-2.4073	-3.591	-2.3543	-1.9302	-3.3923	-3.1228	-2.2792	-1.2854	-2.9373	-1.0645	0.2915	-0.2209	-0.53	-0.5433	1.9744	-2.7474	-0.6891	-0.2341	13.5028	11.9701
-2.606	-3.75	-2.7032	-2.5619	-3.6705	-2.4779	-2.023	-3.4232	-3.2156	-2.2968	-1.2854	-2.9682	-1.0292	0.3357	-0.3224	-0.667	-0.6361	2.0981	-2.7076	-0.6051	-0.2209	13.5912	12.1203
-2.7739	-3.8428	-2.902	-2.7386	-3.75	-2.6502	-2.1158	-3.4674	-3.3437	-2.3189	-1.2721	-3.0124	-1.0159	0.3843	-0.4329	-0.773	-0.7421	2.2041	-2.6811	-0.5124	-0.1723	13.6574	12.2881
-2.8843	-3.9002	-3.0389	-2.8446	-3.7986	-2.7739	-2.1776	-3.5115	-3.4144	-2.3145	-1.2898	-3.0257	-0.9452	0.4461	-0.5212	-0.8525	-0.8613	2.3278	-2.6502	-0.424	-0.1546	13.706	12.4869
-3.0566	-4.0151	-3.2288	-2.9992	-3.8737	-2.9417	-2.2968	-3.5645	-3.5424	-2.3631	-1.3119	-3.1007	-0.9629	0.4947	-0.6095	-0.9762	-0.9541	2.4514	-2.6635	-0.3622	-0.1193	13.7502	12.6503
-3.2553	-4.1211	-3.4409	-3.1449	-3.9488	-3.1493	-2.4117	-3.6661	-3.6838	-2.4382	-1.3825	-3.167	-0.9717	0.5389	-0.7465	-1.0866	-1.0203	2.5398	-2.7253	-0.2959	-0.1369	13.7811	12.7696
-3.3614	-4.1962	-3.6043	-3.2951	-4.0062	-3.3039	-2.4868	-3.6661	-3.7986	-2.4603	-1.4046	-3.2156	-0.9673	0.5742	-0.7862	-1.1352	-1.1175	2.6679	-2.743	-0.2429	-0.1281	13.7855	12.8624
-3.5248	-4.3243	-3.8119	-3.4409	-4.0725	-3.485	-2.6502	-3.7545	-3.9356	-2.5619	-1.4399	-3.2907	-1.0336	0.5963	-0.8348	-1.2147	-1.1484	2.6811	-2.7739	-0.2164	-0.1413	13.7988	12.9639
-3.7103	-4.4259	-3.9797	-3.6175	-4.1167	-3.622	-2.7695	-3.8384	-4.0548	-2.6546	-1.5062	-3.3569	-1.038	0.5963	-0.9099	-1.303	-1.1661	2.743	-2.8313	-0.2076	-0.1325	13.7678	12.9816
-3.8075	-4.5009	-4.1608	-3.781	-4.1962	-3.781	-2.902	-3.8693	-4.1918	-2.7032	-1.4753	-3.4099	-1.0778	0.6184	-0.9276	-1.3251	-1.1838	2.7695	-2.8578	-0.2164	-0.0928	13.7016	12.9728
-3.9223	-4.576	-4.2889	-3.9046	-4.205	-3.9135	-3.008	-3.9091	-4.3154	-2.8313	-1.515	-3.4762	-1.1043	0.6272	-0.9011	-1.3428	-1.2103	2.8004	-2.8799	-0.212	-0.0795	13.5867	12.9374
-4.0151	-4.6069	-4.417	-4.0416	-4.2448	-4.0327	-3.1405	-3.94	-4.3949	-2.9285	-1.5327	-3.538	-1.1617	0.6361	-0.8613	-1.3339	-1.25	2.8136	-2.9152	-0.2385	-0.0442	13.4587	12.8977
-4.1211	-4.6776	-4.576	-4.1829	-4.3198	-4.1785	-3.3128	-4.0107	-4.4877	-3.061	-1.5592	-3.622	-1.2058	0.6449	-0.7862	-1.2942	-1.2368	2.7739	-2.9506	-0.2562	-0.0574	13.2687	12.8138
-4.205	-4.735	-4.7174	-4.3198	-4.3728	-4.3331	-3.4806	-4.0681	-4.5937	-3.1935	-1.621	-3.6926	-1.2898	0.6493	-0.7288	-1.2721	-1.2633	2.7606	-2.9373	-0.3224	-0.0574	13.0655	12.721
-4.2624	-4.766	-4.819	-4.3861	-4.4435	-4.4347	-3.5866	-4.1211	-4.682	-3.2907	-1.6431	-3.7677	-1.3428	0.6802	-0.6537	-1.1749	-1.3251	2.7606	-2.9241	-0.3401	-0.0353	12.8447	12.5973
-4.2933	-4.8234	-4.9515	-4.4965	-4.4965	-4.5319	-3.7412	-4.1741	-4.7615	-3.4099	-1.6829	-3.8428	-1.4355	0.6935	-0.561	-1.0954	-1.3693	2.6988	-2.9196	-0.4108	-0.0265	12.5973	12.4604
-4.3463	-4.9029	-5.0531	-4.5849	-4.5893	-4.6423	-3.8693	-4.2403	-4.8764	-3.5336	-1.7315	-3.887	-1.5106	0.7244	-0.4638	-1.0159	-1.4355	2.659	-2.9329	-0.4594	-0.0442	12.3367	12.3456
-4.3949	-4.9515	-5.1723	-4.6732	-4.6467	-4.735	-3.9886	-4.2933	-4.925	-3.675	-1.7624	-3.9665	-1.599	0.7818	-0.371	-0.8746	-1.5283	2.6193	-2.9329	-0.4417	-0.0574	12.0717	12.2042
-4.4435	-5.0221	-5.2695	-4.7483	-4.6865	-4.8322	-4.0902	-4.3154	-4.9868	-3.7854	-1.7889	-4.0283	-1.6564	0.826	-0.2783	-0.7465	-1.6166	2.6016	-2.9506	-0.4815	-0.0795	11.8067	12.1115
-4.5098	-5.0663	-5.3843	-4.8101	-4.7571	-4.9338	-4.2138	-4.3993	-5.0487	-3.9046	-1.8507	-4.0857	-1.7447	0.8569	-0.212	-0.5919	-1.6961	2.5663	-2.9682	-0.5212	-0.1237	11.577	12.0364
-4.5407	-5.1237	-5.4859	-4.872	-4.8322	-5.0133	-4.2668	-4.4347	-5.0752	-3.9974	-1.8816	-4.1299	-1.8154	0.9364	-0.106	-0.477	-1.8198	2.5619	-2.9859	-0.508	-0.1634	11.4003	11.9834
-4.5893	-5.1812	-5.5566	-4.8941	-4.8587	-5.1105	-4.3243	-4.4391	-5.1149	-4.0592	-1.9214	-4.1564	-1.8596	0.9673	-0.0928	-0.3799	-1.9082	2.5486	-2.9638	-0.4991	-0.1943	11.2413	11.9613
-4.6158	-5.2121	-5.6626	-4.9029	-4.8852	-5.1282	-4.3728	-4.4833	-5.1237	-4.1299	-1.9391	-4.1873	-1.8949	1.0336	-0.0353	-0.2562	-2.0186	2.5884	-2.9638	-0.4505	-0.2253	11.1486	11.9392
-4.6865	-5.2739	-5.7333	-4.9206	-4.9073	-5.19	-4.4038	-4.4877	-5.1193	-4.1741	-1.9656	-4.2138	-1.9082	1.0733	-0.0177	-0.1855	-2.0937	2.6016	-2.9594	-0.4373	-0.2694	11.0911	11.9569
-4.6909	-5.3137	-5.7995	-4.9338	-4.8941	-5.2077	-4.3993	-4.4877	-5.1149	-4.205	-1.9523	-4.1873	-1.9391	1.1131	-0.0309	-0.1546	-2.1908	2.6635	-2.9152	-0.3578	-0.2871	11.0823	11.9834
-4.7439	-5.3534	-5.8658	-4.9206	-4.9161	-5.243	-4.4347	-4.4744	-5.0928	-4.205	-1.9435	-4.1873	-1.9258	1.1793	-0.0221	-0.0883	-2.2968	2.7297	-2.9064	-0.2783	-0.3092	11.069	11.979
-4.8101	-5.402	-5.9497	-4.9382	-4.9338	-5.2828	-4.4744	-4.4744	-5.0707	-4.2668	-1.9788	-4.1785	-1.9523	1.1926	-0.1016	-0.0883	-2.3543	2.7209	-2.902	-0.2827	-0.3489	11.1	12.0275
-4.8145	-5.4727	-5.9806	-4.9515	-4.9206	-5.3093	-4.4568	-4.4568	-5.0354	-4.258	-1.9523	-4.1564	-1.97	1.25	-0.1325	-0.0795	-2.4249	2.7827	-2.902	-0.1988	-0.3622	11.1486	12.107
-4.8852	-5.5213	-6.0381	-4.9471	-4.9117	-5.3181	-4.4568	-4.4347	-5.0045	-4.258	-1.9347	-4.1387	-1.9523	1.2456	-0.1988	-0.1325	-2.4647	2.796	-2.9108	-0.1811	-0.3445	11.2413	12.1645
-4.9073	-5.5654	-6.0778	-5.0001	-4.9382	-5.3534	-4.4303	-4.3993	-4.9868	-4.2713	-1.917	-4.1299	-1.9523	1.2854	-0.2783	-0.1369	-2.5	2.8136	-2.8887	-0.1104	-0.3534	11.3252	12.244
-4.9161	-5.5875	-6.0822	-4.9824	-4.9426	-5.3446	-4.4082	-4.3817	-4.9338	-4.2315	-1.8684	-4.0637	-1.9347	1.2898	-0.3401	-0.1016	-2.5354	2.8269	-2.8666	-0.106	-0.3357	11.4401	12.3058
-4.9382	-5.6229	-6.0867	-4.9868	-4.9691	-5.3667	-4.3905	-4.3596	-4.925	-4.258	-1.8331	-4.0813	-1.9567	1.303	-0.4461	-0.1767	-2.5486	2.8004	-2.849	-0.0972	-0.3357	11.5726	12.3986
-4.9294	-5.6626	-6.1087	-4.9559	-4.978	-5.3225	-4.3596	-4.3154	-4.8543	-4.1873	-1.7801	-4.0018	-1.9435	1.2942	-0.5345	-0.212	-2.5707	2.8048	-2.8578	-0.0663	-0.2915	11.7007	12.4869
-4.978	-5.7686	-6.1308	-5.0001	-5.0531	-5.3623	-4.3508	-4.3198	-4.8145	-4.1652	-1.7845	-3.9753	-1.9258	1.3207	-0.6493	-0.2297	-2.584	2.7695	-2.8799	-0.0486	-0.3048	11.842	12.615
-5.0133	-5.826	-6.1485	-4.9868	-5.0928	-5.3711	-4.3022	-4.3154	-4.7969	-4.1564	-1.758	-3.9621	-1.9391	1.3251	-0.7597	-0.2606	-2.5928	2.7474	-2.9064	-0.0839	-0.318	11.9878	12.7254
-5.0619	-5.9276	-6.2059	-5.0045	-5.1856	-5.3446	-4.3066	-4.3154	-4.7748	-4.099	-1.7315	-3.9753	-1.9258	1.3251	-0.8967	-0.3666	-2.606	2.6944	-2.9196	-0.0972	-0.3092	12.138	12.8447
-5.1149	-6.0292	-6.2059	-5.0001	-5.2297	-5.3976	-4.2624	-4.3243	-4.788	-4.0504	-1.7182	-3.9576	-1.9214	1.3295	-1.0247	-0.4373	-2.6105	2.6723	-2.9638	-0.1016	-0.3048	12.3146	12.9772
-5.1944	-6.122	-6.2677	-4.9471	-5.3048	-5.3976	-4.2006	-4.3243	-4.766	-3.9974	-1.7094	-3.9444	-1.8772	1.3516	-1.197	-0.4947	-2.637	2.6546	-2.9815	-0.0618	-0.2915	12.5178	13.1009
-5.2297	-6.2103	-6.2633	-4.9471	-5.3402	-5.4064	-4.1387	-4.3198	-4.7395	-3.9356	-1.6829	-3.9091	-1.8596	1.3384	-1.3074	-0.6051	-2.6325	2.6325	-2.9947	-0.0442	-0.2385	12.668	13.2025
-5.3225	-6.3075	-6.281	-4.9647	-5.4108	-5.4418	-4.1078	-4.3198	-4.7262	-3.887	-1.6387	-3.8561	-1.7889	1.356	-1.4532	-0.667	-2.6502	2.6105	-3.0433	-0.0663	-0.2209	12.8403	13.3217
-5.3711	-6.4135	-6.334	-4.9603	-5.4418	-5.4285	-4.0902	-4.3287	-4.7306	-3.8163	-1.6166	-3.8516	-1.7668	1.356	-1.5636	-0.7641	-2.6546	2.5928	-3.1361	-0.0398	-0.1988	12.9904	13.4056
-5.4418	-6.5284	-6.3649	-4.9647	-5.4859	-5.455	-4.0592	-4.3198	-4.7395	-3.7721	-1.5857	-3.834	-1.7271	1.3516	-1.7359	-0.8304	-2.659	2.5884	-3.1272	-0.0486	-0.1502	13.092	13.4719
-5.5434	-6.6299	-6.4356	-4.9956	-5.5169	-5.4904	-4.0946	-4.3154	-4.7395	-3.7191	-1.5548	-3.7854	-1.6785	1.3472	-1.8242	-0.932	-2.659	2.6105	-3.1714	-0.0839	-0.1237	13.176	13.5426
-5.6184	-6.7227	-6.4488	-5.0266	-5.5434	-5.4992	-4.0725	-4.3198	-4.7174	-3.6794	-1.5195	-3.75	-1.6122	1.3428	-1.9214	-1.0115	-2.637	2.6502	-3.1847	-0.0707	-0.0795	13.2511	13.6088
-5.6538	-6.7801	-6.4842	-5.0619	-5.5345	-5.5036	-4.0637	-4.2801	-4.7174	-3.5999	-1.4399	-3.697	-1.546	1.3384	-2.0362	-1.0645	-2.6105	2.6855	-3.2068	-0.0309	-0.053	13.3306	13.6574
-5.6891	-6.8155	-6.4842	-5.0928	-5.5345	-5.4683	-4.0857	-4.2271	-4.6644	-3.5645	-1.3781	-3.6308	-1.4532	1.2942	-2.1246	-1.1308	-2.5486	2.7253	-3.1979	-0.0309	-0.0177	13.3703	13.7325
-5.6759	-6.7801	-6.4312	-5.0752	-5.4594	-5.4197	-4.0327	-4.1564	-4.5937	-3.4364	-1.2898	-3.5336	-1.3339	1.2721	-2.1467	-1.1573	-2.4824	2.8004	-3.22	0.0398	0.0398	13.3747	13.7193
-5.667	-6.8022	-6.4223	-5.1105	-5.4506	-5.4241	-4.0548	-4.1255	-4.5539	-3.3437	-1.2235	-3.4497	-1.2677	1.2147	-2.182	-1.1793	-2.3631	2.8534	-3.2112	0.0133	0.0663	13.3659	13.759
-5.6538	-6.7845	-6.387	-5.1237	-5.3976	-5.3623	-4.0107	-4.0327	-4.4656	-3.2642	-1.1175	-3.3614	-1.1793	1.1219	-2.2527	-1.2368	-2.1997	2.8887	-3.167	0	0.0883	13.3703	13.7369
-5.5566	-6.6785	-6.2677	-5.0354	-5.2386	-5.2342	-3.9091	-3.9091	-4.3728	-3.114	-0.9982	-3.2023	-1.0071	1.0601	-2.1555	-1.1793	-2.0716	2.9638	-3.061	0.0618	0.1546	13.3217	13.6972
-5.5036	-6.5946	-6.1794	-5.0133	-5.1502	-5.1635	-3.8384	-3.8119	-4.2403	-2.9992	-0.879	-3.0787	-0.9099	0.9717	-2.1732	-1.1793	-1.9258	3.0124	-3.008	0.0486	0.2341	13.2908	13.6574
-5.3534	-6.4577	-6.0381	-4.9161	-5.0089	-5.0619	-3.6705	-3.6926	-4.0725	-2.8446	-0.7509	-2.9241	-0.7376	0.9276	-2.0804	-1.0601	-1.7801	3.0831	-2.8931	0.1148	0.2606	13.2334	13.5779
-5.2297	-6.3384	-5.8614	-4.7792	-4.8764	-4.8322	-3.5292	-3.5204	-3.8649	-2.6325	-0.5875	-2.7253	-0.5124	0.8437	-1.97	-0.9938	-1.6475	3.1626	-2.7209	0.1943	0.371	13.1892	13.5337
-5.0972	-6.1927	-5.72	-4.6423	-4.7439	-4.682	-3.3525	-3.3437	-3.7015	-2.4426	-0.4064	-2.5575	-0.3489	0.7862	-1.8905	-0.9011	-1.5327	3.2553	-2.5707	0.2783	0.4594	13.1627	13.4498
-4.9161	-6.0381	-5.5478	-4.4744	-4.6114	-4.4877	-3.1847	-3.1803	-3.5159	-2.2129	-0.2385	-2.3454	-0.1281	0.7421	-1.7491	-0.8216	-1.4444	3.3481	-2.3852	0.3799	0.5786	13.1318	13.3836
-4.7748	-5.9232	-5.3623	-4.3243	-4.4347	-4.3331	-2.9992	-3.0124	-3.3039	-1.9744	-0.0574	-2.1378	0.0795	0.6891	-1.6431	-0.7067	-1.3339	3.4541	-2.235	0.4461	0.6537	13.1406	13.3217
-4.6069	-5.773	-5.1679	-4.1299	-4.2492	-4.1299	-2.8048	-2.8225	-3.0522	-1.7491	0.1413	-1.8816	0.3136	0.6449	-1.5371	-0.6626	-1.2677	3.5557	-2.0672	0.5565	0.7553	13.1848	13.2776
-4.4965	-5.6273	-5.0001	-3.94	-4.1078	-3.9179	-2.5751	-2.637	-2.8313	-1.5371	0.3004	-1.6785	0.5124	0.6361	-1.4223	-0.5919	-1.2235	3.644	-1.9302	0.7067	0.8437	13.2378	13.2422
-4.3463	-5.4771	-4.8101	-3.7412	-3.9621	-3.728	-2.3499	-2.4956	-2.584	-1.303	0.4947	-1.4355	0.7465	0.614	-1.3295	-0.5742	-1.197	3.7545	-1.8066	0.7906	0.9541	13.3571	13.2378
-4.1741	-5.3048	-4.6246	-3.538	-3.7854	-3.4939	-2.129	-2.3057	-2.3675	-1.0601	0.6449	-1.1705	0.9938	0.6449	-1.2412	-0.4903	-1.2279	3.8914	-1.6829	0.9497	1.038	13.5028	13.2246
-4.0283	-5.1635	-4.3993	-3.3216	-3.6131	-3.2465	-1.8772	-2.129	-2.0937	-0.7862	0.8702	-0.8922	1.2323	0.6581	-1.1396	-0.4638	-1.2765	4.0283	-1.5592	1.0822	1.1352	13.6707	13.2864
-3.8693	-5.0133	-4.2359	-3.114	-3.4629	-3.0654	-1.6785	-1.9523	-1.864	-0.5742	1.0159	-0.6581	1.493	0.6979	-1.0778	-0.4108	-1.3472	4.1476	-1.4664	1.2147	1.2058	13.8385	13.3438
-3.7015	-4.8631	-4.0239	-2.9108	-3.2951	-2.8401	-1.4311	-1.7845	-1.5769	-0.318	1.2014	-0.3666	1.7182	0.7465	-1.0115	-0.3357	-1.4576	4.2933	-1.3428	1.3737	1.2942	14.0064	13.4233
-3.569	-4.7041	-3.8472	-2.6944	-3.1317	-2.6193	-1.2014	-1.5813	-1.2677	-0.0574	1.409	-0.0883	1.9435	0.8127	-0.9232	-0.2739	-1.5548	4.4435	-1.2677	1.5283	1.3914	14.1565	13.4852
-3.4099	-4.5274	-3.6705	-2.4868	-2.9903	-2.3764	-0.9673	-1.4223	-1.0468	0.1767	1.5901	0.1546	2.1643	0.8657	-0.8304	-0.212	-1.6829	4.6158	-1.1882	1.6829	1.4532	14.3067	13.5426
-3.2553	-4.4303	-3.4939	-2.2571	-2.849	-2.1776	-0.7641	-1.2235	-0.773	0.3799	1.7403	0.3975	2.3852	0.9187	-0.7465	-0.0972	-1.8021	4.7439	-1.1043	1.8419	1.5106	14.4392	13.6221
-3.1405	-4.3154	-3.3437	-2.0583	-2.7165	-1.9788	-0.5345	-1.0601	-0.5212	0.6007	1.8861	0.6714	2.6237	0.9673	-0.6802	-0.0044	-1.8949	4.8808	-1.0159	2.0274	1.568	14.532	13.6972
-3.0036	-4.1829	-3.1979	-1.8463	-2.5972	-1.7889	-0.3489	-0.8878	-0.2694	0.8171	2.0539	0.932	2.8048	1.0071	-0.6228	0.0839	-2.0009	5.0089	-0.9364	2.1643	1.621	14.6203	13.7678
-2.902	-4.0813	-3.0566	-1.652	-2.4691	-1.6475	-0.1855	-0.7288	-0.0795	1.0159	2.1997	1.1352	2.9682	1.0601	-0.5389	0.1723	-2.1113	5.1193	-0.8569	2.3101	1.6917	14.6822	13.812
-2.8048	-4.0062	-2.9462	-1.4974	-2.4205	-1.5062	-0.053	-0.6095	0.1104	1.1263	2.288	1.2986	3.1007	1.1175	-0.477	0.2871	-2.2129	5.1988	-0.7774	2.4338	1.7182	14.7175	13.8827
-2.69	-3.8914	-2.8269	-1.3119	-2.3101	-1.3649	0.0883	-0.4903	0.2871	1.2633	2.394	1.462	3.1626	1.1617	-0.4064	0.371	-2.2924	5.2342	-0.6935	2.531	1.7182	14.7308	13.9666
-2.6458	-3.8296	-2.7562	-1.1661	-2.2262	-1.2854	0.1634	-0.4152	0.4285	1.3163	2.4779	1.6034	3.2509	1.197	-0.3357	0.4726	-2.3631	5.2518	-0.6935	2.5795	1.7094	14.7219	14.0417
-2.5707	-3.7766	-2.7032	-1.0027	-2.182	-1.2235	0.2341	-0.3048	0.5433	1.3737	2.5177	1.7271	3.3039	1.2235	-0.2871	0.5521	-2.4338	5.2607	-0.6007	2.6105	1.705	14.6998	14.1521
-2.5133	-3.697	-2.659	-0.8834	-2.1069	-1.1573	0.2915	-0.2297	0.6361	1.4179	2.606	1.8198	3.3525	1.2765	-0.2297	0.6802	-2.5	5.2607	-0.5963	2.6546	1.7006	14.6689	14.2581
-2.4735	-3.644	-2.5619	-0.7686	-2.0451	-1.0866	0.2959	-0.1767	0.7421	1.4709	2.6502	1.9214	3.3746	1.2942	-0.1767	0.7862	-2.5398	5.2253	-0.5786	2.6325	1.6608	14.5938	14.3509
-2.3896	-3.5955	-2.5	-0.6714	-1.9832	-1.0159	0.3534	-0.106	0.8304	1.4974	2.6635	2.0009	3.3614	1.3074	-0.0972	0.9541	-2.5663	5.1502	-0.5875	2.6325	1.6431	14.5276	14.4525
-2.3278	-3.5645	-2.447	-0.5433	-1.9435	-0.9717	0.3754	-0.0618	0.9099	1.5062	2.6944	2.0672	3.3834	1.3207	-0.0265	1.0998	-2.5972	5.1237	-0.6007	2.6281	1.5945	14.4392	14.5717
-2.2438	-3.5115	-2.4117	-0.4505	-1.9082	-0.9585	0.4152	-0.0442	0.9673	1.4974	2.7209	2.1113	3.3348	1.3516	0.053	1.2677	-2.6414	5.0442	-0.6007	2.6193	1.5548	14.3686	14.6512
-2.1688	-3.4894	-2.3543	-0.3799	-1.8728	-0.9099	0.4461	0	1.0292	1.4797	2.7474	2.1908	3.326	1.3604	0.1193	1.4355	-2.6502	4.9868	-0.6095	2.6193	1.4885	14.2891	14.7352
-2.0892	-3.4541	-2.2924	-0.2959	-1.8596	-0.8613	0.4682	0.0574	1.091	1.5106	2.7783	2.2218	3.3216	1.3737	0.1899	1.6122	-2.6811	4.9294	-0.6051	2.5928	1.4753	14.2493	14.8147
-2.0009	-3.4409	-2.2218	-0.2209	-1.8463	-0.8171	0.4682	0.0751	1.1705	1.515	2.8048	2.2836	3.326	1.3649	0.2474	1.7536	-2.6767	4.8764	-0.6316	2.5221	1.4885	14.2228	14.8721
-1.917	-3.3967	-2.1599	-0.1325	-1.8242	-0.7597	0.5256	0.1237	1.2456	1.5636	2.8269	2.3454	3.3083	1.3604	0.2959	1.8949	-2.6679	4.7704	-0.6405	2.5442	1.4532	14.2316	14.9251
-1.8507	-3.3746	-2.1069	-0.1016	-1.8154	-0.7597	0.5035	0.1458	1.2677	1.5195	2.8269	2.3719	3.2377	1.3339	0.2915	2.0097	-2.6237	4.7085	-0.6361	2.4514	1.4311	14.2714	14.9825
-1.7447	-3.3437	-2.0142	-0.0221	-1.7403	-0.6626	0.5389	0.2076	1.3428	1.5504	2.8931	2.4117	3.2421	1.3339	0.3578	2.1467	-2.5928	4.6688	-0.6228	2.4691	1.4488	14.3421	15.0223
-1.6917	-3.3039	-1.9612	0.0133	-1.7138	-0.6405	0.5786	0.2518	1.4002	1.568	2.9241	2.4603	3.2288	1.303	0.3489	2.2041	-2.5354	4.6158	-0.6272	2.4205	1.4709	14.4525	15.062
-1.5901	-3.2377	-1.8816	0.0707	-1.6475	-0.5477	0.6272	0.318	1.4709	1.5636	2.9594	2.4868	3.22	1.2765	0.3622	2.2968	-2.4868	4.5716	-0.6007	2.4029	1.493	14.585	15.1062
-1.4974	-3.1714	-1.8242	0.1413	-1.5857	-0.477	0.6935	0.3666	1.5769	1.6122	2.9859	2.5751	3.2112	1.2633	0.3754	2.3631	-2.447	4.5319	-0.5565	2.4205	1.493	14.7528	15.1062
-1.4134	-3.0919	-1.7094	0.2164	-1.4797	-0.3975	0.7553	0.4373	1.6475	1.6343	3.0345	2.6237	3.22	1.2147	0.3799	2.394	-2.3852	4.4744	-0.5124	2.3984	1.5415	14.9207	15.1636
-1.3119	-2.9594	-1.6343	0.2694	-1.3914	-0.3401	0.8657	0.5168	1.7403	1.7006	3.061	2.69	3.2642	1.2058	0.3887	2.4338	-2.3454	4.4877	-0.4903	2.4338	1.5327	15.1062	15.199
-1.2191	-2.8711	-1.5283	0.3534	-1.25	-0.2164	1.0071	0.6405	1.8375	1.758	3.1184	2.7871	3.2995	1.2014	0.3666	2.4691	-2.3234	4.4921	-0.3975	2.5044	1.546	15.3005	15.252
-1.1352	-2.7341	-1.3869	0.455	-1.0778	-0.0972	1.1661	0.7288	1.9435	1.864	3.2112	2.8622	3.3834	1.1793	0.3666	2.447	-2.2968	4.5142	-0.3401	2.5486	1.5857	15.5082	15.2873
-1.0778	-2.6281	-1.3074	0.5345	-0.9187	0.0133	1.2633	0.8348	2.0716	1.9214	3.2907	2.9373	3.4232	1.1705	0.3887	2.4294	-2.2748	4.5319	-0.2915	2.6016	1.6122	15.7246	15.3271
-0.9629	-2.4691	-1.1793	0.6184	-0.7641	0.1458	1.4267	0.9717	2.2262	2.0142	3.379	3.0522	3.5027	1.1705	0.3666	2.4073	-2.2703	4.5407	-0.212	2.6767	1.6564	15.9322	15.3845
-0.8922	-2.3499	-1.091	0.7023	-0.614	0.265	1.5371	1.0513	2.3543	2.1113	3.4453	3.1493	3.5513	1.144	0.371	2.3278	-2.2483	4.5628	-0.1502	2.7474	1.674	16.1707	15.4198
-0.8039	-2.2262	-0.985	0.7774	-0.455	0.371	1.6785	1.1573	2.4735	2.1953	3.5071	3.2112	3.6131	1.1528	0.3622	2.2527	-2.2394	4.5672	-0.0883	2.796	1.6917	16.4004	15.4905
-0.7421	-2.1113	-0.8613	0.8348	-0.3357	0.4947	1.8066	1.2677	2.5972	2.2748	3.5955	3.3128	3.675	1.144	0.3578	2.1643	-2.2438	4.5804	-0.0398	2.8401	1.6873	16.6168	15.5523
-0.6272	-1.9744	-0.7774	0.9629	-0.1502	0.614	1.9479	1.3869	2.7165	2.3852	3.6705	3.4144	3.7545	1.144	0.3754	2.1202	-2.2438	4.6025	0.0044	2.9196	1.7226	16.8068	15.6097
-0.5256	-1.8596	-0.6493	1.0778	-0.0398	0.7465	2.0804	1.5018	2.8446	2.4647	3.7633	3.485	3.7854	1.1484	0.3931	2.0495	-2.2659	4.5937	0.0353	2.9727	1.7536	16.9879	15.6672
-0.3975	-1.7138	-0.5212	1.1882	0.1413	0.8569	2.2394	1.6255	2.9727	2.5751	3.8472	3.5734	3.8428	1.1705	0.4638	2.0274	-2.2968	4.6069	0.0795	3.0566	1.7447	17.1513	15.7599
-0.3004	-1.5548	-0.3799	1.3604	0.2739	1.0247	2.3852	1.7756	3.1052	2.69	3.9356	3.6573	3.9091	1.1793	0.5124	1.9788	-2.3234	4.629	0.1281	3.114	1.7536	17.297	15.8527
-0.1678	-1.3737	-0.2474	1.5239	0.4594	1.1573	2.5619	1.9082	3.2686	2.8136	4.046	3.7854	3.9842	1.2147	0.5742	2.0053	-2.3764	4.6511	0.1767	3.1847	1.8021	17.4251	15.8748
-0.0442	-1.2279	-0.1193	1.674	0.5919	1.2721	2.6988	1.9965	3.3702	2.8976	4.1078	3.8781	3.9842	1.2147	0.6581	2.0053	-2.4073	4.6202	0.2562	3.1979	1.8066	17.5576	15.9454
0.0707	-1.0468	0.0353	1.8463	0.7465	1.3914	2.8446	2.1599	3.4983	2.9815	4.1873	3.9179	4.0239	1.2456	0.773	1.9832	-2.4426	4.6511	0.3224	3.2288	1.811	17.6857	15.9719
0.1899	-0.8569	0.1502	2.0142	0.9011	1.5283	2.9859	2.3057	3.644	3.0831	4.2889	3.9974	4.0769	1.2589	0.8569	2.0053	-2.4824	4.6202	0.4417	3.2333	1.8419	17.805	15.9631
0.2783	-0.6979	0.265	2.1378	1.0778	1.6255	3.114	2.4559	3.7412	3.1626	4.3993	4.099	4.1078	1.2456	0.9187	1.9744	-2.4735	4.6025	0.5124	3.273	1.8816	17.9508	15.9808
0.3666	-0.5389	0.3799	2.2615	1.1838	1.7315	3.2288	2.5707	3.8516	3.2421	4.4789	4.1608	4.099	1.2589	1.0557	1.9921	-2.4824	4.5804	0.5698	3.2818	1.9214	18.0479	15.9278
0.424	-0.4108	0.4373	2.4029	1.356	1.8242	3.2553	2.6811	3.9356	3.2686	4.5849	4.1873	4.1034	1.2456	1.1131	1.9391	-2.4647	4.5539	0.6272	3.2774	1.9612	18.1363	15.9189
0.477	-0.2739	0.53	2.4647	1.4753	1.8905	3.3304	2.8092	4.0239	3.2951	4.66	4.258	4.099	1.2412	1.2191	1.9567	-2.4514	4.5186	0.7597	3.2686	2.0539	18.2069	15.8659
0.53	-0.1458	0.6051	2.5751	1.5945	1.9788	3.3879	2.9064	4.0681	3.3702	4.766	4.3463	4.1122	1.2456	1.3339	1.9877	-2.4338	4.5186	0.8216	3.3039	2.1158	18.229	15.8262
0.6184	-0.053	0.6626	2.6723	1.7226	2.0407	3.4409	3.0257	4.1785	3.4144	4.8764	4.3993	4.1299	1.2279	1.4046	2.0583	-2.3852	4.4612	0.9011	3.273	2.182	18.2202	15.7246
0.6846	0.0486	0.7686	2.7827	1.8331	2.1158	3.5159	3.1582	4.258	3.4762	4.9868	4.4833	4.1476	1.2103	1.5371	2.0937	-2.341	4.4435	0.9717	3.2818	2.288	18.1893	15.6451
0.7597	0.1546	0.826	2.8578	1.9258	2.2129	3.5513	3.2774	4.3154	3.5292	5.1193	4.5584	4.1432	1.1705	1.6387	2.1953	-2.3145	4.4038	1.0336	3.2774	2.4559	18.1495	15.5567
0.8216	0.2253	0.9143	2.9462	2.0097	2.3013	3.6131	3.4099	4.4303	3.6043	5.2342	4.6467	4.205	1.1617	1.7403	2.288	-2.2703	4.3905	1.1263	3.2863	2.5795	18.0833	15.4861
0.8569	0.3401	0.9938	3.008	2.1158	2.3587	3.6087	3.5292	4.4568	3.6485	5.3269	4.713	4.2183	1.1263	1.8154	2.3543	-2.2306	4.3817	1.2058	3.2686	2.7076	17.9993	15.4198
0.9762	0.4373	1.0866	3.0698	2.1776	2.4205	3.622	3.622	4.5319	3.6617	5.455	4.7792	4.2668	1.1219	1.917	2.4735	-2.2129	4.3508	1.2677	3.2553	2.8313	17.9066	15.4021
1.0468	0.5521	1.1838	3.114	2.2748	2.5398	3.6485	3.7147	4.5981	3.7059	5.5566	4.8631	4.2978	1.1263	1.9921	2.5884	-2.1908	4.3198	1.3649	3.2951	2.902	17.805	15.3889
1.1396	0.6626	1.2809	3.1803	2.3675	2.6016	3.622	3.7986	4.6688	3.7677	5.6184	4.9073	4.3198	1.1131	2.0716	2.6855	-2.182	4.2713	1.3958	3.2553	2.9594	17.6813	15.4066
1.2014	0.7465	1.3693	3.1803	2.4073	2.6723	3.6043	3.9002	4.7262	3.7721	5.6935	4.9824	4.3287	1.0998	2.1378	2.7651	-2.1643	4.2492	1.4134	3.2156	3.0036	17.5532	15.4066
1.3339	0.8525	1.462	3.2112	2.5354	2.7474	3.6087	3.9532	4.7748	3.8163	5.7245	5.0442	4.3419	1.0954	2.2394	2.8887	-2.1688	4.1918	1.4974	3.2068	3.0301	17.3986	15.4286
1.4488	0.9894	1.599	3.2288	2.6105	2.8578	3.6043	4.0416	4.8322	3.8605	5.8084	5.1061	4.3949	1.1087	2.3189	3.0168	-2.1908	4.1829	1.5371	3.1803	3.0742	17.2617	15.4463
1.5592	1.1308	1.7094	3.3039	2.7253	2.9638	3.6043	4.1078	4.9073	3.8781	5.8702	5.1856	4.4391	1.1175	2.4161	3.167	-2.182	4.1255	1.568	3.1979	3.0522	17.0806	15.4772
1.6608	1.2677	1.8286	3.3393	2.8225	3.0433	3.6131	4.1608	4.9515	3.9223	5.9232	5.2342	4.4789	1.091	2.4735	3.2509	-2.1467	4.0857	1.599	3.1803	3.0875	16.9172	15.4993
1.7845	1.4002	1.9788	3.4276	2.9108	3.1405	3.6352	4.2138	5.0221	3.9665	5.9365	5.2695	4.4789	1.0689	2.5133	3.3702	-2.0981	4.0592	1.6122	3.1184	3.0698	16.7405	15.4993
1.9435	1.5636	2.1423	3.5469	3.0787	3.2686	3.7235	4.2933	5.1193	4.0681	6.0425	5.3755	4.5363	1.0292	2.5751	3.5204	-2.0539	4.046	1.6829	3.1096	3.1007	16.5771	15.4905
2.0627	1.7094	2.2924	3.6882	3.1758	3.379	3.7986	4.3552	5.19	4.1167	6.0734	5.4241	4.6158	1.0159	2.6458	3.6573	-1.9877	4.0062	1.6917	3.0566	3.1228	16.4181	15.4596
2.2306	1.8905	2.4824	3.8472	3.3437	3.569	3.9267	4.4568	5.3181	4.2492	6.1529	5.5389	4.735	0.9806	2.6988	3.7589	-1.9258	4.0151	1.7536	3.0698	3.1891	16.3253	15.4905
2.3852	2.076	2.6811	4.0239	3.5292	3.7412	4.0857	4.5672	5.4771	4.3817	6.2766	5.6759	4.8455	0.9452	2.743	3.9135	-1.8507	4.0592	1.8198	3.0875	3.2244	16.2635	15.464
2.5884	2.2438	2.8799	4.2359	3.6838	3.9046	4.2757	4.7041	5.6494	4.5495	6.3782	5.7995	4.9559	0.8967	2.7871	3.9842	-1.7712	4.1211	1.8816	3.1052	3.3172	16.237	15.4507
2.7651	2.4691	3.1007	4.4524	3.8693	4.1122	4.4391	4.8278	5.8305	4.7262	6.5239	5.963	5.1149	0.8569	2.8401	4.0902	-1.6785	4.1873	2.023	3.1405	3.3658	16.2635	15.4242
2.9859	2.6679	3.3481	4.7041	4.099	4.3375	4.7041	5.0442	6.0292	4.9294	6.6918	6.1617	5.3048	0.8304	2.8534	4.1387	-1.6122	4.2757	2.1643	3.1891	3.432	16.3606	15.4463
3.1626	2.8887	3.591	4.9161	4.3154	4.6025	4.9029	5.2253	6.2545	5.1502	6.8685	6.3428	5.4771	0.7862	2.8401	4.1785	-1.515	4.3905	2.3013	3.2642	3.5071	16.502	15.4375
3.3348	3.1052	3.8163	5.1061	4.4877	4.788	5.0619	5.4329	6.4842	5.3313	7.0496	6.546	5.6803	0.7421	2.8313	4.2094	-1.4267	4.4833	2.4691	3.3304	3.5955	16.6963	15.464
3.5424	3.3039	4.046	5.3358	4.7439	5.0266	5.2916	5.6494	6.7183	5.5434	7.2042	6.7625	5.8658	0.6891	2.8225	4.1829	-1.3428	4.5981	2.6635	3.4011	3.7147	16.8907	15.4861
3.728	3.5204	4.2978	5.5699	4.9647	5.2783	5.5036	5.8702	6.9745	5.7819	7.4118	6.9789	6.0867	0.667	2.7651	4.1652	-1.2942	4.7483	2.8401	3.5027	3.8296	17.1204	15.4905
3.8649	3.728	4.5186	5.773	5.1856	5.5036	5.6803	6.0867	7.16	5.9321	7.5752	7.1644	6.2501	0.6272	2.7341	4.1476	-1.2323	4.8366	3.0036	3.591	3.9576	17.381	15.5082
4.0372	3.9046	4.7041	5.9276	5.402	5.7245	5.8305	6.2501	7.3897	6.1573	7.7519	7.3455	6.4268	0.5875	2.6811	4.0813	-1.1705	4.978	3.1361	3.7015	4.0769	17.6239	15.5391
4.1476	4.0946	4.8941	6.0822	5.6229	5.9497	6.0027	6.5151	7.6061	6.3384	7.9285	7.5575	6.5858	0.5698	2.6149	3.9886	-1.1175	5.0928	3.2333	3.7898	4.1918	17.8801	15.5435
4.2668	4.2624	5.084	6.2324	5.804	6.1397	6.122	6.6962	7.7872	6.5019	8.0876	7.7254	6.758	0.5477	2.5795	3.9532	-1.0733	5.2253	3.2995	3.887	4.3198	18.1054	15.5612
4.3552	4.3773	5.2297	6.3561	5.9939	6.3031	6.2854	6.842	7.9992	6.6476	8.2377	7.8844	6.9082	0.53	2.5486	3.8958	-1.0468	5.3534	3.3923	3.993	4.4347	18.3306	15.5479
4.4435	4.5009	5.3623	6.4488	6.1617	6.4886	6.4003	7.0054	8.1671	6.8243	8.3614	8.0787	7.0628	0.5124	2.4824	3.8163	-1.0071	5.4683	3.4188	4.0592	4.5451	18.5691	15.5435
4.4921	4.6114	5.4771	6.5195	6.3031	6.6388	6.5063	7.1379	8.3261	6.948	8.4939	8.198	7.2174	0.4991	2.394	3.6838	-0.9717	5.5654	3.4939	4.1652	4.5849	18.7944	15.5567
4.4921	4.629	5.561	6.5504	6.44	6.7315	6.5902	7.2395	8.4542	7.0937	8.5911	8.3614	7.3543	0.4903	2.3057	3.5424	-0.9452	5.7245	3.5027	4.2757	4.6379	19.0373	15.5612
4.5319	4.6997	5.6626	6.6034	6.5681	6.8817	6.7006	7.3764	8.5911	7.2483	8.7015	8.5204	7.5089	0.508	2.2262	3.3834	-0.9717	5.8658	3.5601	4.4214	4.6953	19.298	15.5567
4.523	4.7571	5.6847	6.6123	6.6476	6.9701	6.7845	7.4736	8.7059	7.4029	8.7634	8.6264	7.6547	0.5035	2.1423	3.2333	-0.9673	5.9762	3.5469	4.5186	4.7041	19.5541	15.5612
4.5407	4.7704	5.773	6.6079	6.705	7.0805	6.9082	7.5398	8.8385	7.5575	8.8517	8.7766	7.7916	0.5168	2.0495	3.061	-1.0071	6.1308	3.569	4.6335	4.6776	19.7882	15.5921
4.5098	4.766	5.7819	6.599	6.7713	7.1556	6.9789	7.584	8.918	7.6459	8.8915	8.8473	7.9153	0.53	1.9788	2.9241	-1.0292	6.2545	3.5734	4.7395	4.6644	19.9914	15.6407
4.5142	4.8057	5.857	6.6344	6.8375	7.2748	7.0849	7.69	9.0505	7.7828	8.9798	9.0063	8.0522	0.5654	1.917	2.8181	-1.091	6.4135	3.6175	4.872	4.6732	20.1725	15.6804
4.5142	4.8145	5.9011	6.6432	6.8596	7.3278	7.1777	7.7651	9.1167	7.9374	9.0151	9.1388	8.1671	0.6007	1.8728	2.6679	-1.1528	6.5504	3.6087	5.0001	4.6423	20.3271	15.7643
4.5363	4.8411	5.9188	6.652	6.9082	7.4118	7.2439	7.8049	9.2139	8.0478	9.0681	9.236	8.2996	0.6449	1.8551	2.5619	-1.2368	6.6829	3.622	5.1193	4.6069	20.4375	15.8262
4.5672	4.8366	6.0027	6.6653	6.9568	7.4736	7.319	7.8711	9.3287	8.145	9.1035	9.3508	8.4144	0.6846	1.811	2.4912	-1.3339	6.8331	3.6131	5.2209	4.5937	20.5303	15.9233
4.576	4.872	6.0425	6.6874	6.9921	7.5575	7.4029	7.9374	9.4171	8.2775	9.1786	9.4701	8.5204	0.7244	1.8021	2.4117	-1.4179	6.9612	3.6087	5.3402	4.5672	20.5921	15.9852
4.6246	4.8896	6.122	6.7448	7.0275	7.6414	7.4913	8.0036	9.4878	8.3923	9.2095	9.5628	8.6264	0.7818	1.811	2.3719	-1.5239	7.0672	3.6043	5.4594	4.5274	20.6054	16.0868
4.6688	4.9426	6.2147	6.8375	7.1247	7.7386	7.5884	8.039	9.6026	8.5116	9.2404	9.6733	8.7059	0.8304	1.8154	2.3234	-1.621	7.1821	3.5822	5.5478	4.5186	20.6231	16.1707
4.7792	5.0089	6.3296	6.9436	7.2042	7.849	7.7077	8.1141	9.7263	8.6574	9.3067	9.7484	8.8208	0.8702	1.8021	2.2615	-1.7182	7.2969	3.5601	5.6759	4.5274	20.6363	16.2458
4.8013	5.0663	6.387	7.0584	7.2969	7.9241	7.8181	8.1538	9.8058	8.7589	9.3199	9.8411	8.9224	0.932	1.8021	2.2438	-1.8198	7.4383	3.4939	5.7907	4.5319	20.6363	16.3253
4.9073	5.1414	6.5063	7.2086	7.3853	8.0301	7.9683	8.2112	9.9162	8.8959	9.3773	9.9471	9.024	0.9717	1.8375	2.2173	-1.9214	7.5575	3.4364	5.8791	4.5584	20.6142	16.3827
4.978	5.2165	6.6034	7.3455	7.4692	8.145	8.0566	8.2333	10.0045	8.993	9.4127	10.0134	9.1035	1.0115	1.8861	2.2394	-1.9921	7.6503	3.3348	5.9586	4.5849	20.5877	16.4887
5.0663	5.2563	6.7006	7.4648	7.5884	8.2731	8.1582	8.2687	10.0929	9.1388	9.4568	10.0973	9.2316	1.0778	1.9302	2.2615	-2.1113	7.8049	3.2818	6.0778	4.6379	20.5789	16.5727
5.1149	5.3181	6.8066	7.5708	7.6238	8.3747	8.2952	8.2952	10.2077	9.236	9.4657	10.1724	9.3376	1.1352	1.9347	2.2659	-2.2438	7.8932	3.2244	6.175	4.713	20.5612	16.7228
5.1679	5.3534	6.8861	7.637	7.7033	8.463	8.3658	8.3128	10.2828	9.3376	9.5054	10.2386	9.4127	1.1926	1.9612	2.3101	-2.341	8.0081	3.1493	6.2633	4.7615	20.5347	16.8333
5.2342	5.3446	6.9391	7.6944	7.7209	8.5469	8.4277	8.3128	10.3491	9.4082	9.5628	10.2961	9.4966	1.2633	1.97	2.3675	-2.4647	8.092	3.1228	6.2898	4.8322	20.5524	16.926
5.2651	5.349	7.0142	7.6989	7.7298	8.6441	8.4542	8.3172	10.3844	9.4701	9.5673	10.327	9.554	1.3074	1.9788	2.3631	-2.5707	8.1229	3.0875	6.3163	4.8764	20.5966	17.0541
5.2651	5.3446	7.0363	7.6591	7.7386	8.6794	8.4365	8.2952	10.4374	9.4833	9.5893	10.3712	9.607	1.3472	1.9302	2.3896	-2.6502	8.1936	3.0919	6.3561	4.9559	20.654	17.1469
5.2828	5.2651	7.0407	7.5929	7.7121	8.7148	8.4012	8.2554	10.4418	9.5143	9.6026	10.3977	9.6424	1.3914	1.9302	2.3719	-2.7253	8.2157	3.0698	6.3649	5.0045	20.7291	17.2485
5.243	5.1944	6.9966	7.4736	7.6459	8.7369	8.3747	8.2377	10.4683	9.5275	9.6203	10.4374	9.6733	1.4179	1.8861	2.3631	-2.7783	8.2377	3.1052	6.3826	5.084	20.8439	17.3368
5.2209	5.1502	6.9789	7.3455	7.6238	8.7236	8.2775	8.2024	10.4727	9.5187	9.6247	10.4418	9.7042	1.4355	1.811	2.3322	-2.8181	8.251	3.1272	6.3605	5.1502	20.9632	17.4075
5.1812	5.0487	6.9524	7.2307	7.5443	8.728	8.2112	8.1671	10.4639	9.4966	9.6158	10.4462	9.6998	1.4399	1.758	2.341	-2.8181	8.2201	3.1272	6.3163	5.1944	21.1089	17.487
5.0884	4.9824	6.8685	7.0849	7.4603	8.6883	8.1008	8.092	10.433	9.4303	9.5805	10.4197	9.6689	1.4179	1.6652	2.288	-2.8004	8.1803	3.1582	6.2589	5.2297	21.237	17.54
5.0398	4.8852	6.8464	6.9612	7.4206	8.6883	8.0434	8.0787	10.4286	9.4171	9.5982	10.4418	9.7086	1.4267	1.5857	2.2527	-2.8048	8.1582	3.2112	6.2589	5.3093	21.3828	17.5444
4.9956	4.8322	6.7713	6.8375	7.3676	8.6839	8.0036	8.0169	10.433	9.4215	9.5761	10.4507	9.6954	1.4179	1.5415	2.2262	-2.7783	8.1317	3.3083	6.228	5.3667	21.5065	17.5665
4.9382	4.7571	6.7095	6.6785	7.2969	8.6529	7.902	8.0081	10.3888	9.3685	9.5584	10.433	9.6777	1.3737	1.4223	2.1423	-2.712	8.0699	3.3702	6.1617	5.4285	21.639	17.5753
4.8234	4.6909	6.6299	6.5725	7.2704	8.6353	7.827	7.9771	10.4021	9.3641	9.5717	10.4683	9.6733	1.3516	1.3295	2.1113	-2.637	8.0257	3.4674	6.0999	5.4815	21.7671	17.5444
4.7969	4.6379	6.546	6.4444	7.2527	8.5602	7.743	7.9418	10.3756	9.2802	9.5717	10.4639	9.6556	1.303	1.2323	2.0539	-2.5707	7.9683	3.5645	6.0248	5.508	21.8642	17.5665
4.7085	4.5849	6.5019	6.3296	7.2837	8.5955	7.6944	7.9904	10.3888	9.2448	9.607	10.4374	9.66	1.2721	1.144	1.9965	-2.4956	7.9153	3.6705	5.9144	5.5434	21.9349	17.5797
4.6644	4.5407	6.4842	6.2633	7.319	8.5646	7.6149	8.0036	10.3888	9.236	9.6335	10.4507	9.607	1.2412	1.0822	2.0186	-2.4294	7.849	3.7545	5.8349	5.5787	21.957	17.5974
4.6379	4.5672	6.4356	6.2236	7.3543	8.569	7.6017	8.0125	10.38	9.2006	9.6512	10.4507	9.5982	1.2014	1.0203	2.0053	-2.3675	7.8225	3.834	5.7686	5.5919	21.9702	17.6327
4.6511	4.5363	6.4533	6.1882	7.425	8.5911	7.5929	8.0522	10.3932	9.2051	9.6909	10.5125	9.6026	1.1882	0.9408	2.0186	-2.3189	7.8049	3.8914	5.7024	5.6361	21.9658	17.7034
4.6688	4.5981	6.4974	6.2457	7.4913	8.6353	7.6194	8.1317	10.4374	9.2051	9.7395	10.5302	9.6512	1.1617	0.9364	2.0274	-2.2748	7.7651	3.9974	5.6494	5.6803	21.9084	17.7608
4.6865	4.6776	6.5504	6.2633	7.5664	8.675	7.6679	8.198	10.4418	9.236	9.7837	10.5699	9.6424	1.1263	0.8702	2.0318	-2.2129	7.774	4.0813	5.5964	5.7024	21.8687	17.7785
4.7527	4.7615	6.6123	6.3914	7.6812	8.7545	7.7474	8.2952	10.5081	9.3067	9.8765	10.6229	9.6954	1.1131	0.8304	2.0451	-2.182	7.8181	4.1652	5.6052	5.7333	21.851	17.8448
4.7925	4.8234	6.6785	6.4798	7.7298	8.8164	7.8181	8.3437	10.5611	9.3597	9.9339	10.7069	9.7174	1.0778	0.7906	2.0274	-2.0981	7.8225	4.2006	5.5831	5.72	21.8377	17.9066
4.8411	4.925	6.8066	6.6079	7.8446	8.9224	7.9197	8.4498	10.6494	9.448	10.0178	10.7554	9.7837	1.038	0.7111	2.0274	-2.0318	7.8667	4.2492	5.6008	5.7686	21.8377	17.9375
4.9029	5.0089	6.864	6.7183	7.9285	8.9975	8.0169	8.4983	10.7024	9.501	10.0708	10.8084	9.8544	0.9894	0.6714	1.9567	-1.9258	7.8888	4.2845	5.614	5.7289	21.8598	17.9684
4.9515	5.1149	6.9745	6.8464	7.9948	9.0681	8.1229	8.5602	10.7466	9.5805	10.1503	10.8659	9.8853	0.9452	0.6095	1.8816	-1.8242	7.902	4.311	5.6405	5.7465	21.8731	18.0524
5.0531	5.2474	7.0849	7.0098	8.1096	9.2006	8.2642	8.675	10.8614	9.6821	10.2298	10.9763	9.9825	0.8967	0.5433	1.8596	-1.7182	7.9683	4.3596	5.6715	5.7775	21.8907	18.0965
5.1017	5.402	7.2174	7.1379	8.2157	9.3067	8.4012	8.7766	10.9498	9.7572	10.3049	11.0425	10.0399	0.8304	0.4991	1.7624	-1.6034	8.0213	4.3861	5.7554	5.7863	21.9128	18.1628
5.2253	5.5478	7.3367	7.2837	8.2775	9.4303	8.5116	8.8959	11.016	9.8941	10.3888	11.1353	10.1194	0.7862	0.455	1.7491	-1.5195	8.0522	4.4259	5.7907	5.7775	21.8952	18.2379
5.2828	5.6494	7.4515	7.4648	8.4056	9.5319	8.6485	8.9621	11.1	9.9957	10.4507	11.2546	10.2121	0.72	0.4417	1.758	-1.4179	8.092	4.4303	5.8658	5.7819	21.8554	18.2909
5.349	5.7907	7.584	7.6238	8.5072	9.6556	8.812	9.0416	11.2104	10.1238	10.5434	11.3562	10.2651	0.6891	0.4638	1.7536	-1.3163	8.1406	4.4303	5.9851	5.773	21.8112	18.3704
5.4462	5.8923	7.6856	7.774	8.6176	9.7749	8.9268	9.13	11.2855	10.2386	10.6008	11.4357	10.3491	0.6405	0.4726	1.7889	-1.2323	8.1626	4.4303	6.0513	5.7642	21.7141	18.419
5.5213	5.9939	7.7563	7.9241	8.6971	9.8499	9.0328	9.2051	11.4047	10.3093	10.6583	11.4887	10.4021	0.6095	0.4903	1.8684	-1.1793	8.1803	4.417	6.0955	5.751	21.6169	18.4366
5.6052	6.0734	7.8535	8.0522	8.7987	9.9427	9.13	9.2625	11.471	10.4242	10.7201	11.6035	10.5037	0.5919	0.53	1.9037	-1.1396	8.2157	4.3949	6.1838	5.72	21.5285	18.5117
5.6626	6.1176	7.9285	8.1936	8.8473	10.0134	9.2492	9.3199	11.5549	10.5037	10.7643	11.6742	10.5876	0.6007	0.5786	1.9921	-1.1396	8.2422	4.3817	6.2412	5.6759	21.396	18.5647
5.698	6.175	7.955	8.2775	8.8738	10.031	9.2978	9.342	11.6079	10.5743	10.7952	11.7316	10.6406	0.6095	0.6537	2.0672	-1.1661	8.2598	4.2978	6.3252	5.6184	21.2768	18.6177
5.7642	6.1971	8.0125	8.3702	8.9135	10.1194	9.3508	9.3729	11.6786	10.6627	10.8349	11.8288	10.6936	0.6272	0.7553	2.1908	-1.2279	8.2554	4.2492	6.4091	5.5566	21.1531	18.6663
5.8349	6.1882	8.0434	8.4233	8.9003	10.1371	9.3994	9.3597	11.7139	10.7069	10.857	11.8729	10.7289	0.6714	0.8348	2.288	-1.2986	8.2245	4.1432	6.4577	5.4815	21.0294	18.7458
5.8614	6.2015	8.0699	8.4763	8.9091	10.1901	9.4613	9.4082	11.7714	10.7775	10.8747	11.9525	10.7952	0.7288	0.9762	2.4117	-1.4179	8.2377	4.046	6.5284	5.4329	20.9367	18.8209
5.8835	6.1573	8.0478	8.5204	8.9135	10.1812	9.4878	9.4082	11.8023	10.8305	10.9012	12.0099	10.8394	0.8083	1.0513	2.4647	-1.5371	8.251	3.9532	6.5814	5.3402	20.8704	18.8828
5.8791	6.1132	8.0301	8.4983	8.8561	10.1724	9.4789	9.3641	11.8023	10.8394	10.8791	12.032	10.857	0.8569	1.1308	2.4779	-1.6608	8.2333	3.8737	6.6388	5.2386	20.8527	18.9313
5.8658	6.1087	7.9992	8.4983	8.8208	10.168	9.5231	9.342	11.8332	10.8879	10.857	12.0761	10.9189	0.9408	1.2058	2.5177	-1.8375	8.2333	3.781	6.7006	5.1547	20.8395	19.0329
5.8084	6.0425	7.9285	8.4674	8.7634	10.0841	9.5187	9.3022	11.8199	10.91	10.8129	12.0938	10.9189	1.0203	1.2456	2.4426	-1.9877	8.198	3.7147	6.7271	5.0398	20.8792	19.0992
5.7465	5.9674	7.8711	8.4233	8.6618	10.0487	9.5098	9.2448	11.8199	10.9233	10.7996	12.1159	10.9277	1.1352	1.2456	2.3675	-2.1953	8.1847	3.6396	6.7801	4.9382	20.972	19.1875
5.6582	5.8967	7.7651	8.357	8.5999	9.9736	9.4966	9.1697	11.7669	10.91	10.7466	12.0938	10.9233	1.2103	1.2235	2.2792	-2.3631	8.1494	3.5645	6.7713	4.8366	21.1089	19.2935
5.5345	5.7907	7.6635	8.2554	8.5116	9.9074	9.4524	9.0991	11.7139	10.8835	10.6759	12.0894	10.9189	1.2721	1.1926	2.1643	-2.5177	8.092	3.5159	6.758	4.7306	21.1973	19.3554
5.3976	5.667	7.5619	8.1317	8.4144	9.8058	9.3906	8.9842	11.6521	10.8438	10.6008	12.0673	10.9012	1.3649	1.1263	2.0053	-2.6679	8.0787	3.4232	6.7315	4.6202	21.3298	19.4128
5.2739	5.5787	7.425	7.9727	8.3349	9.6909	9.3332	8.9268	11.6433	10.8173	10.5567	12.0629	10.8835	1.4488	1.1087	1.8772	-2.8225	8.0478	3.3702	6.7404	4.5628	21.4623	19.457
5.1458	5.4948	7.2925	7.8137	8.251	9.5982	9.2316	8.8561	11.5814	10.7687	10.5213	12.0761	10.8703	1.5062	1.0778	1.7491	-2.9417	8.0125	3.3039	6.6874	4.47	21.5815	19.4658
5.0177	5.3976	7.1997	7.6547	8.1803	9.5098	9.1388	8.7943	11.5107	10.7554	10.486	12.0408	10.8482	1.5592	1.0733	1.5945	-3.0477	7.986	3.2377	6.6653	4.4259	21.692	19.4525
4.8322	5.2695	7.0186	7.4338	8.0743	9.3685	8.993	8.6839	11.4357	10.6848	10.4153	12.0187	10.8129	1.5769	0.9762	1.409	-3.1052	7.933	3.1493	6.5549	4.3154	21.8466	19.4437
4.6688	5.1723	6.8817	7.2792	7.9462	9.2448	8.887	8.5999	11.3562	10.6053	10.3314	11.979	10.7643	1.6166	0.9541	1.2589	-3.1847	7.8932	3.0566	6.5063	4.2359	21.9349	19.404
4.4877	5.0796	6.7227	7.054	7.8711	9.1211	8.728	8.4983	11.2943	10.5655	10.2828	11.9525	10.7201	1.6387	0.8746	1.0822	-3.2288	7.8446	2.9594	6.4356	4.1299	22.0188	19.3377
4.3331	4.9824	6.6034	6.8596	7.774	9.0019	8.5955	8.4321	11.2281	10.5302	10.2475	11.9304	10.7157	1.6608	0.8481	0.9276	-3.2598	7.8314	2.8887	6.3738	4.046	22.1072	19.3068
4.205	4.819	6.4047	6.6785	7.6326	8.8694	8.4895	8.3437	11.1574	10.4772	10.2121	11.8818	10.698	1.6785	0.7951	0.7686	-3.2774	7.8225	2.8357	6.3296	3.9753	22.1602	19.2405
4.046	4.7306	6.3252	6.4886	7.5266	8.781	8.3747	8.2863	11.1	10.4462	10.1768	11.8906	10.698	1.6785	0.7686	0.6758	-3.2774	7.8181	2.7916	6.2501	3.9444	22.2132	19.1478
3.9267	4.6202	6.1927	6.3782	7.4294	8.6839	8.304	8.2201	11.0425	10.4507	10.168	11.8553	10.6671	1.652	0.7111	0.5742	-3.2642	7.8225	2.7386	6.2103	3.9002	22.2485	19.0904
3.8207	4.5495	6.122	6.2457	7.3543	8.5955	8.2554	8.2201	11.0293	10.4816	10.168	11.8553	10.751	1.6652	0.7067	0.4859	-3.2642	7.88	2.7386	6.2103	3.8649	22.2706	18.9976
3.7235	4.4126	5.9718	6.1573	7.2439	8.5028	8.2024	8.1671	10.9586	10.5125	10.1591	11.8818	10.7775	1.6387	0.6626	0.4285	-3.2156	7.9065	2.6811	6.1176	3.7986	22.2662	18.9137
3.6131	4.3552	5.8791	6.0469	7.1953	8.4365	8.1715	8.1759	10.963	10.5213	10.1945	11.8994	10.8349	1.6255	0.6493	0.3578	-3.2068	7.9374	2.69	6.1573	3.7854	22.2618	18.8297
3.485	4.2536	5.7995	6.0071	7.0981	8.3747	8.1582	8.1582	10.963	10.5523	10.2077	11.9259	10.8924	1.6166	0.5875	0.3224	-3.1847	7.9683	2.6723	6.1308	3.7545	22.2794	18.7282
3.4055	4.1476	5.7024	5.963	7.0275	8.3349	8.1671	8.145	10.9542	10.592	10.2033	11.9392	10.9189	1.621	0.561	0.2429	-3.1582	8.0169	2.6723	6.0999	3.7412	22.2706	18.6266
3.2995	4.0813	5.6184	5.8879	6.9877	8.2554	8.1582	8.1626	10.9675	10.6362	10.221	11.979	10.963	1.5945	0.5345	0.212	-3.114	8.0478	2.6325	6.069	3.6926	22.2618	18.5426
3.1449	3.9665	5.5213	5.8349	6.9303	8.2024	8.1494	8.1361	10.9365	10.6494	10.2431	11.9701	10.994	1.5548	0.4329	0.1281	-3.0698	8.0522	2.5928	6.0071	3.6573	22.2971	18.4852
3.0168	3.8561	5.4197	5.7907	6.9303	8.1361	8.145	8.1406	10.9277	10.6759	10.2298	12.001	11.0381	1.5415	0.3401	0.0486	-3.0212	8.0434	2.5619	5.9851	3.6396	22.3192	18.388
2.8976	3.7235	5.3048	5.7465	6.9082	8.0876	8.1538	8.1715	10.91	10.6671	10.2784	11.9966	11.0293	1.5239	0.2562	0.0133	-2.9682	8.0125	2.5133	5.9276	3.5734	22.3589	18.366
2.7783	3.5999	5.1812	5.7024	6.8994	8.0301	8.1715	8.1538	10.8747	10.6848	10.3005	12.001	11.0514	1.4885	0.2076	-0.0265	-2.9108	7.9506	2.4691	5.8481	3.5469	22.3766	18.3262
2.6193	3.4894	5.1149	5.6935	6.8773	7.9816	8.1936	8.1847	10.9012	10.7069	10.274	12.0143	11.0293	1.4444	0.0883	-0.1016	-2.8269	7.8932	2.4205	5.773	3.5248	22.3943	18.2997
2.553	3.3569	5.0398	5.6715	6.864	7.933	8.1803	8.198	10.8791	10.7378	10.2784	12.0099	11.047	1.3958	0.0044	-0.1458	-2.7606	7.8049	2.341	5.6803	3.4894	22.4385	18.3041
2.4382	3.2642	4.9912	5.6582	6.8552	7.9065	8.2642	8.2201	10.9012	10.7334	10.3137	12.032	11.0425	1.3649	-0.0221	-0.1237	-2.6767	7.7121	2.3189	5.6273	3.4806	22.4517	18.313
2.4338	3.2509	4.9691	5.6759	6.842	7.9109	8.304	8.2333	10.9277	10.7643	10.3226	12.0629	11.0735	1.3384	-0.0663	-0.1281	-2.6105	7.6591	2.2924	5.561	3.4541	22.4738	18.2688
2.4161	3.1891	5.0133	5.7112	6.8685	7.933	8.3702	8.2554	10.9586	10.8305	10.3491	12.1115	11.0867	1.2898	-0.1016	-0.0883	-2.5177	7.5664	2.341	5.5169	3.4629	22.518	18.2997
2.4073	3.167	5.0177	5.7333	6.8685	7.9639	8.4453	8.2996	11.0249	10.8924	10.4197	12.1424	11.1044	1.2279	-0.106	-0.0663	-2.4249	7.4824	2.341	5.4594	3.4939	22.571	18.3395
2.4249	3.1538	5.0531	5.751	6.8552	8.0125	8.5028	8.3217	11.069	10.9719	10.4286	12.1998	11.1265	1.1749	-0.0707	-0.0398	-2.3057	7.3941	2.3719	5.4108	3.5027	22.6063	18.3571
2.5044	3.2333	5.1414	5.8393	6.9215	8.092	8.6132	8.3658	11.1441	11.047	10.4727	12.2881	11.1927	1.1263	-0.0795	-0.0177	-2.1953	7.3234	2.447	5.3755	3.5292	22.6902	18.4013
2.5663	3.3083	5.2165	5.8967	6.9877	8.1671	8.6927	8.4498	11.2413	11.1265	10.5302	12.3456	11.2192	1.0601	-0.0486	0.0177	-2.0716	7.2395	2.5265	5.3623	3.5866	22.7211	18.4543
2.6767	3.3879	5.3313	5.9895	7.0275	8.304	8.8031	8.5116	11.3738	11.2325	10.6053	12.4516	11.2811	0.9982	-0.0044	0.0663	-1.9744	7.1732	2.6546	5.349	3.6926	22.7786	18.5206
2.7739	3.4983	5.4285	6.0557	7.0937	8.3923	8.8738	8.5867	11.4754	11.3252	10.6538	12.5443	11.3517	0.9364	0.0442	0.1104	-1.8463	7.107	2.7297	5.3402	3.7456	22.8227	18.6089
2.8843	3.5999	5.5654	6.1441	7.1732	8.5116	8.9754	8.6574	11.6168	11.4622	10.7687	12.6327	11.4047	0.8878	0.0883	0.1767	-1.7315	7.0716	2.849	5.3711	3.8384	22.8581	18.6442
3.0787	3.7721	5.72	6.2898	7.3013	8.6706	9.1256	8.7678	11.7537	11.5682	10.857	12.7784	11.4931	0.8437	0.1811	0.2606	-1.652	7.0451	2.9947	5.3888	3.9576	22.8669	18.7502
3.2333	3.9311	5.8614	6.4091	7.4162	8.8075	9.2669	8.8605	11.8906	11.6963	10.9851	12.9198	11.5903	0.8127	0.2253	0.3534	-1.568	7.0275	3.1317	5.4285	4.0946	22.8802	18.843
3.4011	4.0902	6.0646	6.5593	7.584	8.9886	9.3862	8.9975	12.0629	11.8553	11.1	13.1009	11.7183	0.7686	0.3445	0.4726	-1.5018	7.054	3.2465	5.5169	4.2183	22.8492	18.9093
3.6043	4.2668	6.2457	6.7404	7.7386	9.1741	9.5717	9.1609	12.2572	12.0452	11.2192	13.2113	11.8376	0.7509	0.4373	0.6272	-1.4532	7.0672	3.4011	5.6008	4.3154	22.8006	18.9932
3.7721	4.417	6.4047	6.8905	7.8844	9.342	9.7042	9.289	12.4118	12.2042	11.3429	13.3791	11.9701	0.7111	0.53	0.7111	-1.3825	7.1114	3.5424	5.667	4.3905	22.7741	19.0683
3.9223	4.5628	6.5681	7.0407	8.0478	9.4966	9.8632	9.4348	12.562	12.3323	11.4533	13.4984	12.0938	0.6935	0.5919	0.826	-1.3339	7.1556	3.6264	5.7598	4.4524	22.7344	19.1654
4.0946	4.7483	6.7536	7.2086	8.2024	9.6821	10.0001	9.5717	12.7387	12.509	11.577	13.6663	12.2175	0.6846	0.6537	0.9099	-1.303	7.2307	3.7235	5.8879	4.5319	22.6858	19.2494
4.2403	4.8631	6.8729	7.3676	8.3658	9.8323	10.1194	9.713	12.8889	12.668	11.7095	13.8032	12.35	0.6846	0.6714	0.9982	-1.2986	7.3057	3.8075	6.0248	4.5849	22.6814	19.2935
4.3861	5.0619	7.0363	7.5266	8.5116	9.9648	10.2784	9.8588	13.039	12.7917	11.8199	13.9401	12.5002	0.6581	0.7509	1.0778	-1.2721	7.3853	3.9179	6.0999	4.6467	22.6681	19.3686
4.5451	5.1856	7.1777	7.6679	8.6353	10.1282	10.3977	9.9825	13.2201	12.9551	11.9215	14.0815	12.6194	0.6626	0.7774	1.1484	-1.2589	7.478	3.9621	6.2147	4.6335	22.6991	19.3819
4.7085	5.3402	7.3367	7.8402	8.781	10.3005	10.539	10.1371	13.3615	13.1495	12.0452	14.2405	12.7961	0.6493	0.8083	1.1749	-1.2279	7.5973	4.0151	6.3561	4.6953	22.7697	19.3995
4.819	5.508	7.4824	8.0346	8.9445	10.4551	10.6848	10.2519	13.5249	13.3129	12.1821	14.373	12.9374	0.6405	0.8304	1.1926	-1.2235	7.7165	4.1034	6.493	4.7262	22.889	19.3951
4.9206	5.6317	7.6326	8.1803	9.0946	10.6008	10.804	10.4153	13.6795	13.4763	12.2749	14.5408	13.0965	0.6272	0.8569	1.1926	-1.2058	7.8535	4.1387	6.6299	4.7439	23.0613	19.404
5.0752	5.7686	7.796	8.3658	9.2227	10.7422	10.9763	10.5567	13.8739	13.6751	12.4074	14.6689	13.2422	0.6184	0.8834	1.2368	-1.197	7.9771	4.1829	6.7934	4.8013	23.2158	19.3907
5.1944	5.9276	7.9285	8.5469	9.395	10.9189	11.1044	10.6671	14.0152	13.8606	12.509	14.8279	13.4145	0.6228	0.932	1.2544	-1.2058	8.145	4.258	6.9612	4.8499	23.4234	19.4128
5.3048	6.0469	8.0743	8.7192	9.5143	11.0955	11.2546	10.8305	14.1963	14.0461	12.6327	14.9649	13.5867	0.6361	0.9762	1.2323	-1.2323	8.2996	4.2889	7.1291	4.9029	23.6531	19.457
5.4197	6.1927	8.2201	8.9091	9.6865	11.2457	11.4622	10.9586	14.3509	14.2537	12.7475	15.1106	13.7502	0.6537	1.0203	1.2412	-1.2677	8.4807	4.3508	7.2792	4.9647	23.8828	19.479
5.5257	6.3075	8.3747	9.077	9.8279	11.3915	11.63	11.047	14.479	14.3862	12.8094	15.2343	13.8959	0.6626	1.0513	1.2368	-1.2721	8.6264	4.3817	7.4338	5.0045	24.1125	19.5056
5.6184	6.4621	8.4939	9.2625	9.9825	11.5019	11.7758	11.1795	14.6203	14.5806	12.9374	15.3447	14.0594	0.667	1.0954	1.25	-1.303	8.7678	4.4656	7.5973	5.031	24.3422	19.5321
5.698	6.5681	8.6397	9.4215	10.1415	11.6565	11.9348	11.2899	14.7838	14.7617	13.0125	15.4684	14.1875	0.6802	1.1705	1.2942	-1.3339	8.9312	4.5142	7.7474	5.0884	24.5851	19.5453
5.8084	6.7006	8.7766	9.5938	10.2784	11.7802	12.1026	11.3782	14.8942	14.9207	13.0876	15.5744	14.3156	0.72	1.2456	1.3163	-1.3781	9.0461	4.5716	7.9065	5.1458	24.8325	19.5851
5.8835	6.7978	8.865	9.7042	10.4153	11.9171	12.2749	11.4666	15.0488	15.0841	13.1627	15.6937	14.4525	0.7288	1.3207	1.3781	-1.4002	9.183	4.6246	8.0125	5.1679	25.0798	19.5851
5.9939	6.9215	8.9975	9.8499	10.5611	12.054	12.4427	11.5814	15.168	15.2387	13.2864	15.7732	14.6071	0.7686	1.4002	1.4576	-1.4709	9.3332	4.713	8.1494	5.2253	25.3139	19.616
6.0822	7.0231	9.13	9.9339	10.698	12.1866	12.6018	11.683	15.2917	15.3756	13.3526	15.8792	14.7352	0.7862	1.5327	1.5592	-1.5283	9.4436	4.7615	8.251	5.2607	25.4906	19.616
6.1662	7.1247	9.2713	10.0399	10.8305	12.3014	12.7298	11.7625	15.3977	15.517	13.4145	15.9543	14.8323	0.8348	1.6696	1.6696	-1.599	9.554	4.8057	8.3349	5.296	25.654	19.6425
6.2545	7.213	9.4348	10.1282	10.8968	12.4339	12.8535	11.842	15.517	15.6583	13.5028	16.0294	14.9339	0.8569	1.8375	1.8331	-1.6829	9.6512	4.8145	8.4233	5.3446	25.7777	19.6513
6.4312	7.3234	9.5275	10.2961	11.016	12.5708	12.9993	11.9569	15.6318	15.8085	13.5912	16.1486	15.062	0.9276	2.0053	2.0142	-1.7801	9.7219	4.8455	8.5028	5.3932	25.8572	19.669
6.5416	7.4118	9.6998	10.3888	11.1	12.721	13.123	12.0143	15.7246	15.9145	13.6795	16.2325	15.1504	0.9497	2.1776	2.2041	-1.8596	9.7837	4.8455	8.5646	5.4329	25.9014	19.7264
6.6432	7.478	9.7925	10.5169	11.1618	12.7917	13.2555	12.107	15.8218	16.0117	13.7634	16.2944	15.2166	1.0159	2.3852	2.4338	-1.9656	9.8146	4.8366	8.622	5.4683	25.9191	19.7573
6.7669	7.5884	9.9692	10.6318	11.259	12.9374	13.3968	12.2219	15.9366	16.1133	13.865	16.3695	15.305	1.0645	2.6105	2.6811	-2.0672	9.8765	4.8411	8.6529	5.508	25.9014	19.8015
6.895	7.6017	10.0487	10.7024	11.2855	13.0302	13.4984	12.244	15.9631	16.1972	13.9269	16.4136	15.3315	1.1131	2.7651	2.9108	-2.1643	9.8809	4.8322	8.7015	5.5699	25.8881	19.8942
6.9745	7.6635	10.1415	10.7775	11.2766	13.1053	13.5779	12.3191	16.0029	16.237	13.9843	16.4225	15.3668	1.1617	2.955	3.1272	-2.2571	9.8676	4.7792	8.7015	5.5875	25.8484	19.9649
7.0451	7.6856	10.1901	10.8482	11.2899	13.1362	13.6663	12.35	16.0205	16.2988	14.0284	16.4401	15.3756	1.2279	3.0787	3.2907	-2.3675	9.8367	4.7483	8.7324	5.6273	25.8307	20.04
7.1247	7.7165	10.2828	10.8526	11.312	13.2025	13.7016	12.3721	16.0691	16.2988	14.0682	16.4136	15.4066	1.2721	3.22	3.4762	-2.5089	9.8279	4.7527	8.7059	5.6273	25.8175	20.146
7.1644	7.7298	10.2828	10.8703	11.2943	13.2466	13.7546	12.403	16.0691	16.3032	14.0859	16.4092	15.3933	1.3428	3.3128	3.6131	-2.6237	9.7925	4.7085	8.7148	5.614	25.8175	20.2167
7.1777	7.7209	10.2961	10.8438	11.2943	13.2025	13.7325	12.3897	16.0073	16.2855	14.0859	16.3871	15.3447	1.4002	3.3437	3.6794	-2.7386	9.7528	4.6555	8.7104	5.6008	25.8528	20.3183
7.213	7.7254	10.3579	10.8129	11.3208	13.2246	13.7458	12.4207	16.0249	16.2546	14.1521	16.3341	15.3271	1.4664	3.4188	3.781	-2.8666	9.7572	4.6511	8.6839	5.6008	25.8616	20.3801
7.2616	7.7342	10.3579	10.8173	11.3031	13.2157	13.7369	12.4251	15.9984	16.237	14.13	16.3165	15.2961	1.515	3.5204	3.8781	-2.9682	9.7219	4.6025	8.6574	5.5831	25.8749	20.464
7.2837	7.774	10.3402	10.7775	11.2987	13.2157	13.7325	12.4295	15.9499	16.1884	14.1654	16.2546	15.2475	1.5592	3.5424	3.9311	-3.0477	9.7042	4.5893	8.6353	5.5743	25.9058	20.5126
7.3102	7.774	10.3358	10.7687	11.3208	13.2113	13.7193	12.4427	15.9366	16.1575	14.161	16.2502	15.2122	1.5857	3.5734	3.9797	-3.114	9.6954	4.5716	8.6176	5.5566	25.9235	20.5612
7.3411	7.8402	10.327	10.7334	11.3606	13.2069	13.7104	12.456	15.9057	16.1354	14.183	16.2502	15.2034	1.621	3.6264	4.046	-3.1758	9.6556	4.5495	8.6044	5.5566	25.9102	20.6142
7.425	7.8976	10.3667	10.7554	11.3827	13.2466	13.7413	12.4913	15.9278	16.1398	14.2537	16.2767	15.1945	1.652	3.675	4.1432	-3.2465	9.6689	4.5451	8.6132	5.5699	25.9014	20.6363
7.4471	7.9109	10.3667	10.751	11.4003	13.2378	13.7148	12.509	15.8836	16.1044	14.2714	16.2635	15.1592	1.6829	3.7015	4.2006	-3.2818	9.66	4.5539	8.6176	5.5257	25.8837	20.7114
7.4603	7.986	10.3756	10.7289	11.3959	13.2378	13.6972	12.5178	15.8792	16.0779	14.2935	16.2458	15.1592	1.6873	3.728	4.2713	-3.2995	9.6821	4.5407	8.6132	5.4904	25.844	20.7423
7.4824	8.0125	10.3535	10.6759	11.3827	13.2246	13.6707	12.5267	15.8659	16.0559	14.2935	16.2149	15.1239	1.6564	3.7368	4.3198	-3.2774	9.6556	4.5672	8.6044	5.4506	25.791	20.7953
7.4957	8.039	10.2917	10.5964	11.3694	13.1892	13.5867	12.5267	15.8483	15.994	14.3111	16.1972	15.0664	1.652	3.7677	4.3419	-3.2598	9.6733	4.5539	8.5778	5.4373	25.7424	20.7909
7.5178	8.0699	10.2563	10.5523	11.312	13.1539	13.5249	12.5134	15.835	15.9145	14.2979	16.153	15.0223	1.6343	3.7412	4.3728	-3.2023	9.66	4.5451	8.5204	5.349	25.6982	20.8395
7.4736	8.092	10.1856	10.4993	11.2855	13.1318	13.4189	12.4869	15.7688	15.8748	14.2581	16.1354	14.9781	1.6034	3.6926	4.3331	-3.1405	9.6644	4.5142	8.4939	5.3093	25.6673	20.8748
7.4559	8.1052	10.1591	10.4374	11.206	13.0567	13.3217	12.4251	15.7202	15.7511	14.1875	16.0691	14.8854	1.5548	3.6308	4.2668	-3.0477	9.6291	4.4612	8.4321	5.19	25.6231	20.9057
7.4118	8.1141	10.0575	10.3402	11.1397	13.0125	13.1892	12.3897	15.6583	15.6627	14.1212	16.0294	14.8456	1.515	3.5248	4.1785	-2.9727	9.6114	4.4259	8.3658	5.0972	25.6099	20.919
7.3676	8.1096	9.978	10.2563	11.0646	12.9507	13.0832	12.3235	15.5965	15.5788	14.0726	15.9543	14.7352	1.4753	3.4409	4.0902	-2.8931	9.6026	4.3817	8.3217	5.0177	25.5878	20.9322
7.2792	8.0787	9.8765	10.1459	10.9719	12.8668	12.9551	12.2396	15.5435	15.4596	13.9622	15.8748	14.638	1.4311	3.3172	3.9444	-2.7827	9.5673	4.3287	8.2996	4.9117	25.579	20.9234
7.1821	8.0213	9.7307	10.0443	10.8659	12.7696	12.8447	12.1468	15.4772	15.3094	13.8871	15.782	14.5187	1.3869	3.1935	3.8119	-2.7032	9.5231	4.2624	8.2068	4.8013	25.5524	20.9278
7.054	7.9727	9.6203	9.8941	10.7289	12.668	12.6724	12.0364	15.3668	15.168	13.7723	15.6892	14.4083	1.3472	3.0345	3.6573	-2.6325	9.4657	4.2138	8.1494	4.7262	25.5745	20.9367
6.9612	7.9241	9.5054	9.8058	10.6715	12.5708	12.5311	11.9348	15.2873	15.0532	13.6795	15.6097	14.3332	1.3251	2.8799	3.5336	-2.6016	9.4524	4.1829	8.092	4.5937	25.5613	20.9411
6.842	7.8093	9.3685	9.6909	10.4993	12.4427	12.3765	11.8244	15.168	14.903	13.5249	15.5082	14.2007	1.303	2.712	3.379	-2.5442	9.395	4.1255	8.0169	4.47	25.6055	20.9676
6.736	7.7077	9.2404	9.5938	10.3977	12.3411	12.3146	11.7139	15.1415	14.8147	13.441	15.4286	14.0991	1.303	2.5751	3.2509	-2.5354	9.3862	4.0195	8.0036	4.3773	25.6143	21.0118
6.6344	7.5929	9.1256	9.4966	10.2519	12.2528	12.2131	11.6168	15.062	14.7219	13.3482	15.3359	14.0373	1.3074	2.4603	3.1758	-2.5265	9.3464	3.9665	7.9683	4.2801	25.6673	21.0559
6.5063	7.4515	9.0107	9.4038	10.0929	12.1733	12.1335	11.4975	15.0002	14.6336	13.2687	15.2696	13.9622	1.3074	2.3057	3.0654	-2.5486	9.3067	3.8649	7.933	4.1918	25.7115	21.1266
6.4135	7.3234	8.9047	9.342	9.9648	12.0938	12.0629	11.4092	14.9516	14.5894	13.1627	15.2475	13.9269	1.3251	2.1776	2.9638	-2.5884	9.3287	3.781	7.9285	4.1078	25.791	21.2105
6.334	7.1556	8.7987	9.2802	9.8455	12.0408	12.0231	11.2987	14.8986	14.4967	13.0788	15.1857	13.8076	1.3604	2.1113	2.9462	-2.6325	9.3067	3.6838	7.9418	4.0062	25.8351	21.2944
6.2368	7.0054	8.7148	9.2448	9.7219	11.948	11.9701	11.206	14.8544	14.479	12.9904	15.1239	13.7546	1.3737	2.0274	2.9152	-2.7032	9.2846	3.5999	7.9285	3.9135	25.8881	21.3695
6.1397	6.811	8.6264	9.1697	9.5584	11.8774	11.9039	11.0955	14.8147	14.3774	12.8844	15.0841	13.706	1.4267	1.9832	2.8931	-2.7871	9.2448	3.4629	7.9197	3.8163	25.9367	21.48
6.0292	6.6432	8.5116	9.1035	9.4303	11.8376	11.9039	10.9807	14.7793	14.3553	12.8182	15.0444	13.6574	1.462	1.9391	2.849	-2.8666	9.2139	3.3923	7.9727	3.7147	25.9942	21.6346
5.9409	6.4047	8.4188	9.0461	9.2448	11.736	11.8111	10.8835	14.7308	14.2979	12.6945	14.9516	13.5867	1.5106	1.8905	2.8446	-2.9638	9.1256	3.2774	7.9595	3.6043	26.0604	21.7803
5.8746	6.2324	8.3393	9.0107	9.0991	11.7007	11.7846	10.7819	14.6689	14.2626	12.6062	14.9163	13.5117	1.5901	1.8816	2.8269	-3.1096	9.0946	3.1935	7.9816	3.5027	26.1443	21.9349
5.7554	6.0248	8.2068	8.9445	8.9533	11.6168	11.7228	10.6671	14.6159	14.2095	12.4781	14.8323	13.4366	1.6652	1.8596	2.7827	-3.2421	9.0593	3.0963	7.9992	3.3569	26.2415	22.116
5.6935	5.8525	8.1936	8.9135	8.8208	11.5549	11.7007	10.5434	14.5762	14.1786	12.3897	14.8014	13.4012	1.7359	1.8551	2.7739	-3.3967	8.9886	2.9815	8.0655	3.2774	26.3254	22.2706
5.6229	5.6715	8.1185	8.8517	8.7192	11.524	11.6874	10.4507	14.5408	14.161	12.3146	14.7219	13.3526	1.8154	1.8286	2.743	-3.5513	8.9533	2.8931	8.0964	3.167	26.4624	22.434
5.5345	5.4992	8.0301	8.8075	8.5955	11.4666	11.6433	10.3314	14.5011	14.161	12.2086	14.6998	13.2864	1.8861	1.8021	2.6944	-3.6838	8.9047	2.796	8.1141	3.0566	26.5816	22.6063
5.4904	5.3711	8.0036	8.8075	8.5381	11.4268	11.6388	10.2298	14.4922	14.1212	12.138	14.6336	13.2378	1.9612	1.8066	2.6811	-3.8605	8.8517	2.7297	8.1361	2.9682	26.723	22.7609
5.4108	5.2386	7.9595	8.8164	8.463	11.4136	11.6433	10.1636	14.479	14.1345	12.0231	14.6071	13.2246	2.0539	1.7933	2.659	-3.9886	8.7766	2.6855	8.1759	2.902	26.8687	22.9155
5.3799	5.1414	7.9241	8.8208	8.4056	11.4003	11.6742	10.1061	14.4569	14.1477	11.9569	14.5585	13.2157	2.1069	1.8021	2.659	-4.1476	8.7501	2.6458	8.1626	2.8755	27.0233	23.0524
5.3534	5.084	7.88	8.8208	8.3482	11.3606	11.6963	10.0222	14.4613	14.108	11.895	14.5673	13.176	2.1688	1.7712	2.6723	-4.2668	8.7192	2.5928	8.1803	2.7783	27.1823	23.2026
5.3402	4.9956	7.9197	8.9003	8.3172	11.3959	11.7537	9.9957	14.4878	14.1345	11.8685	14.5452	13.1848	2.2394	1.8021	2.6944	-4.3993	8.7148	2.5972	8.198	2.7562	27.2928	23.3086
5.296	4.9471	7.8888	8.9356	8.2775	11.3915	11.8023	9.956	14.5143	14.1919	11.7979	14.5143	13.1671	2.3145	1.8066	2.7165	-4.523	8.6927	2.553	8.2157	2.7297	27.4341	23.4014
5.2739	4.872	7.8844	8.9798	8.2377	11.3385	11.8155	9.903	14.4834	14.236	11.7625	14.5011	13.1671	2.3631	1.8375	2.743	-4.6202	8.6706	2.5619	8.198	2.6458	27.5489	23.4897
5.2386	4.8278	7.8755	9.0019	8.1892	11.3341	11.8553	9.8411	14.479	14.2493	11.6918	14.4569	13.1671	2.3764	1.8463	2.7386	-4.6865	8.6397	2.5442	8.1803	2.5751	27.6461	23.4985
5.2872	4.8145	7.8844	9.077	8.1626	11.3562	11.9171	9.8588	14.5232	14.2802	11.683	14.4834	13.1715	2.4249	1.864	2.7871	-4.7615	8.6574	2.5707	8.2245	2.5575	27.7124	23.5515
5.2518	4.8234	7.8932	9.1211	8.145	11.3562	11.979	9.8544	14.5717	14.3465	11.6698	14.5011	13.2025	2.4559	1.9126	2.8269	-4.8278	8.675	2.5751	8.2554	2.5265	27.7565	23.6045
5.2651	4.7836	7.8844	9.1388	8.1052	11.3562	12.0099	9.8411	14.5806	14.3951	11.6344	14.4967	13.2378	2.4824	1.8949	2.8666	-4.872	8.7104	2.6016	8.2642	2.4912	27.7963	23.6045
5.2828	4.8101	7.9197	9.2051	8.1096	11.3782	12.0894	9.8367	14.6027	14.4702	11.6521	14.5232	13.2776	2.4912	1.9523	2.9506	-4.9029	8.7634	2.6016	8.2907	2.4824	27.7742	23.609
5.296	4.8234	7.9595	9.2404	8.1052	11.3959	12.1556	9.8676	14.6689	14.5806	11.6698	14.5673	13.3438	2.5044	1.9832	3.0787	-4.925	8.7943	2.6458	8.3261	2.447	27.7477	23.6443
5.4064	4.9029	8.0169	9.3376	8.1538	11.4533	12.2528	9.9295	14.7263	14.6645	11.7272	14.6557	13.441	2.5177	2.0583	3.2333	-4.9647	8.8694	2.6944	8.3614	2.5133	27.6594	23.662
5.4506	4.9515	8.0743	9.4215	8.2201	11.5063	12.3411	9.9825	14.797	14.7661	11.7537	14.6822	13.5293	2.5354	2.1202	3.4276	-4.9824	8.9445	2.7562	8.4321	2.5354	27.5401	23.6708
5.5301	5.0487	8.1361	9.4922	8.2598	11.5284	12.4472	10.0487	14.8854	14.9074	11.8288	14.7573	13.6309	2.5575	2.1864	3.6043	-5.0133	9.0637	2.796	8.516	2.6193	27.3943	23.7106
5.5699	5.1149	8.1626	9.5628	8.3172	11.5593	12.5576	10.1017	14.9295	15.0134	11.8774	14.8058	13.6883	2.5575	2.2041	3.7721	-4.9956	9.1476	2.8004	8.5867	2.69	27.2265	23.7238
5.6008	5.1414	8.1936	9.6379	8.3658	11.5991	12.6415	10.1371	14.9693	15.0885	11.9348	14.8588	13.7723	2.5486	2.2041	3.9753	-5.0001	9.2095	2.8048	8.6309	2.7386	27.0498	23.7017
5.6582	5.2032	8.2112	9.7174	8.3835	11.6035	12.7166	10.1901	15.009	15.1769	11.9259	14.8898	13.8341	2.5486	2.2306	4.1387	-5.0001	9.3022	2.7871	8.7192	2.8092	26.8731	23.7106
5.6759	5.2121	8.1936	9.7351	8.4056	11.5593	12.7828	10.1768	15.0002	15.2299	11.9127	14.903	13.9048	2.5354	2.1953	4.3287	-4.9691	9.3773	2.7518	8.7457	2.8269	26.6965	23.7017
5.6538	5.2165	8.2157	9.7881	8.3614	11.5638	12.8314	10.1724	15.0179	15.2696	11.9348	14.8942	13.9489	2.5133	2.1511	4.4965	-4.9294	9.4348	2.7076	8.7634	2.8711	26.5595	23.6929
5.6538	5.2121	8.145	9.7881	8.3437	11.4975	12.8447	10.1724	14.9869	15.2917	11.9083	14.8544	13.9445	2.4824	2.0937	4.5495	-4.8896	9.4922	2.6502	8.7899	2.8666	26.4447	23.6531
5.6759	5.2209	8.1273	9.8014	8.304	11.471	12.8579	10.1326	14.9693	15.3005	11.9171	14.8191	13.9578	2.4514	2.0672	4.6644	-4.8366	9.5098	2.5972	8.7899	2.902	26.3387	23.6178
5.6538	5.1856	8.092	9.8323	8.2377	11.4357	12.8844	10.1017	14.9428	15.3182	11.8729	14.8279	13.9622	2.4426	1.9832	4.6865	-4.7925	9.5805	2.553	8.8164	2.9241	26.3033	23.6222
5.6449	5.1679	8.0566	9.8499	8.2112	11.3738	12.9242	10.1194	14.9163	15.3182	11.895	14.7882	13.9578	2.4073	1.9214	4.7527	-4.7306	9.5805	2.5177	8.812	2.9241	26.2768	23.5913
5.6405	5.1502	7.9992	9.8411	8.145	11.3341	12.9065	10.0531	14.8721	15.2873	11.8553	14.7175	13.9313	2.3764	1.864	4.7969	-4.6732	9.607	2.5044	8.7943	2.902	26.2901	23.578
5.6538	5.1326	7.9683	9.8632	8.0831	11.259	12.9109	10.0045	14.8279	15.2696	11.8155	14.6468	13.9048	2.3234	1.8154	4.8013	-4.5937	9.6247	2.4691	8.7943	2.8931	26.3431	23.525
5.5919	5.0928	7.9197	9.8676	8.0036	11.1927	12.8844	9.9648	14.7573	15.2387	11.7846	14.5541	13.8606	2.2968	1.7226	4.7439	-4.4921	9.6247	2.4294	8.8031	2.8843	26.4447	23.5339
5.5699	5.0575	7.8976	9.8765	7.9595	11.1265	12.8668	9.9074	14.6689	15.221	11.7404	14.4878	13.7855	2.2571	1.6917	4.713	-4.4038	9.6203	2.3852	8.7943	2.8534	26.5772	23.5206
5.5389	5.0221	7.8314	9.8985	7.9065	11.0425	12.8491	9.8676	14.6159	15.146	11.683	14.4083	13.7281	2.1997	1.6431	4.6379	-4.3154	9.607	2.3543	8.7766	2.8534	26.7495	23.5736
5.5345	4.9912	7.796	9.9118	7.8932	10.9984	12.8138	9.8455	14.5276	15.1106	11.6433	14.3023	13.6574	2.1643	1.6299	4.576	-4.2271	9.5982	2.3543	8.7722	2.8446	26.935	23.5913
5.4727	4.9736	7.7342	9.8853	7.8623	10.9056	12.7784	9.7793	14.4569	15.0179	11.6168	14.1919	13.5602	2.1202	1.652	4.5716	-4.1564	9.5363	2.3322	8.7545	2.8092	27.1337	23.6001
5.4506	4.8941	7.6812	9.9162	7.8093	10.8217	12.7033	9.7086	14.3553	14.956	11.5373	14.077	13.4542	2.0848	1.6652	4.5495	-4.0857	9.4878	2.3013	8.7501	2.796	27.3369	23.6266
5.3799	4.8543	7.6282	9.8941	7.796	10.7554	12.6592	9.6556	14.2228	14.8765	11.4533	13.9534	13.3438	2.0583	1.6696	4.4744	-4.0107	9.4348	2.2968	8.7148	2.7827	27.5534	23.662
5.3623	4.788	7.584	9.9206	7.7607	10.7024	12.5885	9.5938	14.13	14.797	11.3959	13.8385	13.2334	2.0186	1.7315	4.47	-3.9532	9.3862	2.3234	8.6794	2.796	27.761	23.6399
5.3358	4.7218	7.5398	9.9339	7.743	10.6185	12.5443	9.5452	14.0373	14.691	11.3429	13.706	13.1097	1.9921	1.8375	4.4347	-3.9002	9.3243	2.3013	8.6839	2.8136	28.0039	23.6796
5.2828	4.66	7.5001	9.9339	7.6635	10.5478	12.5046	9.5054	13.9489	14.5982	11.2634	13.5558	13.0081	1.9832	1.8905	4.417	-3.8737	9.2404	2.3499	8.6264	2.8313	28.2424	23.7061
5.2739	4.5804	7.4692	9.9515	7.6503	10.4904	12.4604	9.4259	13.8606	14.5276	11.1883	13.4852	12.8977	1.97	1.9832	4.3993	-3.8561	9.1962	2.394	8.6132	2.8357	28.503	23.7547
5.2828	4.5186	7.4338	9.9692	7.6282	10.4462	12.4472	9.395	13.7811	14.4702	11.1795	13.3703	12.7961	1.9832	2.0716	4.4082	-3.8693	9.1432	2.4249	8.622	2.8401	28.7813	23.8121
5.2695	4.4391	7.3897	9.9604	7.6061	10.3977	12.4118	9.3287	13.7016	14.4083	11.0955	13.2687	12.6989	1.9877	2.1643	4.3949	-3.887	9.0505	2.4294	8.5955	2.8004	29.0242	23.9005
5.243	4.3419	7.3808	9.9604	7.5398	10.327	12.3588	9.3022	13.6177	14.3288	11.0293	13.176	12.5841	2.0009	2.2615	4.3949	-3.9223	8.993	2.4647	8.5646	2.7739	29.2716	23.9667
5.2651	4.2801	7.3499	10.0001	7.5266	10.3182	12.3677	9.2846	13.5337	14.2714	10.994	13.092	12.509	2.0495	2.3631	4.47	-3.993	8.9356	2.4868	8.5469	2.7518	29.5101	24.0595
5.2518	4.1829	7.3102	9.9692	7.4206	10.2386	12.3102	9.1962	13.4277	14.2051	10.8791	12.9772	12.35	2.0539	2.4249	4.4921	-4.0327	8.8296	2.5133	8.4807	2.6723	29.7486	24.1743
5.2342	4.0592	7.2483	9.9957	7.3278	10.1856	12.2881	9.1432	13.3571	14.1256	10.8084	12.8624	12.2749	2.0981	2.531	4.5584	-4.0946	8.7634	2.5	8.4586	2.6105	29.9871	24.2627
5.2474	3.9444	7.2395	10.0222	7.2704	10.115	12.2837	9.0637	13.282	14.0638	10.7466	12.774	12.1777	2.129	2.6237	4.6335	-4.1564	8.6794	2.5177	8.4277	2.5221	30.1992	24.3334
5.2872	3.8472	7.1821	10.0178	7.1644	10.0575	12.2705	8.9975	13.176	14.0064	10.6362	12.6768	12.0629	2.1467	2.6944	4.7527	-4.205	8.5646	2.5044	8.3526	2.3764	30.3714	24.4173
5.243	3.7324	7.1512	10.0575	7.0849	10.0222	12.2572	8.9091	13.0965	13.971	10.5258	12.5973	11.9745	2.1776	2.7695	4.872	-4.2713	8.4763	2.5044	8.3305	2.2703	30.5481	24.4924
5.2651	3.6043	7.1026	10.0575	6.9877	9.9648	12.2219	8.8296	13.017	13.9048	10.4153	12.5002	11.8818	2.2085	2.8666	5.0177	-4.3287	8.3702	2.4559	8.2731	2.1334	30.6629	24.5763
5.2165	3.4939	7.0054	10.0575	6.8817	9.9118	12.2086	8.7369	12.9551	13.8429	10.3049	12.403	11.7449	2.2394	2.9108	5.1635	-4.3949	8.2466	2.4117	8.2201	2.0142	30.7734	24.6823
5.2253	3.4409	6.9877	10.0752	6.8022	9.8367	12.191	8.6485	12.8756	13.7811	10.2121	12.3146	11.63	2.2792	3.0345	5.3093	-4.4612	8.1538	2.341	8.1759	1.8728	30.8529	24.7574
5.2386	3.3393	6.9436	10.0973	6.7845	9.8102	12.1777	8.5734	12.8049	13.706	10.0664	12.2351	11.5373	2.3234	3.1361	5.4771	-4.5451	8.039	2.3013	8.1096	1.758	30.8882	24.8413
5.2518	3.2598	6.8994	10.0796	6.705	9.7528	12.1954	8.5028	12.7784	13.6663	9.978	12.1601	11.4489	2.3543	3.2023	5.6494	-4.629	7.9639	2.2703	8.0522	1.6431	30.9015	24.9031
5.3093	3.1979	6.8729	10.0929	6.652	9.7219	12.1998	8.4409	12.7033	13.6486	9.8985	12.0982	11.3562	2.3984	3.3304	5.8658	-4.7395	7.8579	2.2129	8.0213	1.5504	30.875	25.018
5.3004	3.1228	6.8375	10.0487	6.5769	9.6556	12.1689	8.3614	12.6592	13.6088	9.7704	12.0187	11.2369	2.4426	3.4541	6.0734	-4.8013	7.7342	2.1202	7.9683	1.4179	30.8175	25.0666
5.349	3.1096	6.8155	10.0266	6.5372	9.6335	12.1645	8.2642	12.6283	13.5956	9.6644	11.9657	11.1883	2.4868	3.569	6.2677	-4.8896	7.6724	2.076	7.9418	1.3428	30.7204	25.1196
5.3932	3.0566	6.7934	10.0222	6.4577	9.6158	12.1689	8.2068	12.5708	13.547	9.5717	11.9039	11.1176	2.531	3.7015	6.4974	-4.9912	7.5575	2.0142	7.9109	1.2633	30.6232	25.1638
5.4373	3.0566	6.7625	9.9825	6.4047	9.5938	12.1203	8.1185	12.5664	13.5426	9.5054	11.8376	11.069	2.584	3.7942	6.7271	-5.0663	7.4868	1.9744	7.8888	1.1838	30.5128	25.2035
5.4727	3.0522	6.736	9.9692	6.3296	9.5452	12.085	8.0611	12.5532	13.5028	9.4303	11.8067	11.0337	2.6237	3.8781	6.9126	-5.1502	7.4029	1.9037	7.8623	1.1043	30.4112	25.2521
5.4904	3.0345	6.7006	9.9295	6.3031	9.554	12.085	8.0522	12.5487	13.5072	9.4082	11.7758	10.994	2.659	4.0062	7.0893	-5.2297	7.3278	1.864	7.8623	1.0689	30.3052	25.3448
5.5124	3.0566	6.6918	9.9118	6.2501	9.4878	12.0452	7.986	12.5487	13.4807	9.3464	11.7493	10.9365	2.6988	4.0813	7.2439	-5.3269	7.2792	1.8331	7.8314	1.0027	30.2212	25.4199
5.5257	3.0477	6.6609	9.872	6.2059	9.4789	12.0231	7.9683	12.5311	13.4807	9.3111	11.7183	10.8924	2.7386	4.0857	7.3588	-5.4108	7.2262	1.7756	7.827	0.9541	30.1461	25.4994
5.5787	3.0522	6.6609	9.8544	6.1971	9.4789	12.0231	7.9374	12.5576	13.4807	9.3155	11.736	10.8791	2.796	4.1785	7.4427	-5.5301	7.1997	1.7315	7.849	0.9187	30.0843	25.6099
5.5831	3.0698	6.6211	9.8146	6.1794	9.4701	12.0099	7.9153	12.5399	13.4719	9.3022	11.736	10.857	2.8534	4.2006	7.478	-5.6184	7.1688	1.6829	7.8402	0.8922	30.0534	25.7335
5.5654	3.1007	6.599	9.8279	6.1794	9.448	11.979	7.8888	12.5664	13.4675	9.289	11.7404	10.8394	2.8931	4.1962	7.5001	-5.72	7.1202	1.6652	7.8446	0.8657	30.0313	25.8616
5.5654	3.1228	6.5769	9.819	6.2192	9.4789	11.9922	7.9153	12.5885	13.4763	9.2802	11.7669	10.8482	2.9417	4.2271	7.4736	-5.7951	7.107	1.6696	7.88	0.8613	30.0313	26.0118
5.5743	3.1272	6.5593	9.8411	6.2192	9.4524	11.9613	7.8888	12.6062	13.4587	9.2802	11.7625	10.8129	2.9727	4.2359	7.4736	-5.857	7.0849	1.6608	7.8711	0.826	30.0313	26.1046
5.5787	3.1979	6.5681	9.8765	6.2943	9.4745	12.0099	7.9285	12.6592	13.4852	9.3155	11.8023	10.8305	3.0124	4.2536	7.4913	-5.9497	7.0672	1.705	7.933	0.8746	30.0799	26.2017
5.5699	3.2863	6.5549	9.8853	6.3561	9.4833	12.0275	7.9816	12.7166	13.5028	9.3597	11.8597	10.8394	3.0301	4.2668	7.4559	-5.9806	7.0451	1.7977	7.9727	0.9055	30.1285	26.3166
5.6184	3.3614	6.6079	9.9648	6.4577	9.5452	12.0761	8.0478	12.774	13.5382	9.4348	11.9171	10.8747	3.0477	4.2801	7.4206	-6.016	7.054	1.9214	8.0213	0.9982	30.1992	26.4049
5.6052	3.432	6.6211	9.9957	6.5637	9.5496	12.0761	8.1052	12.8138	13.5117	9.5054	11.9525	10.8747	3.0433	4.2757	7.3632	-6.0336	7.0451	2.0274	8.0478	1.0689	30.3228	26.4712
5.6052	3.5204	6.6255	10.009	6.6299	9.6114	12.0982	8.2024	12.8977	13.5691	9.5717	12.0099	10.857	3.0433	4.2713	7.2925	-6.0204	7.0186	2.1467	8.0611	1.1396	30.4156	26.5109
5.6096	3.5866	6.6829	10.0664	6.736	9.6379	12.1291	8.2819	12.9463	13.5912	9.6777	12.1026	10.9145	3.0389	4.2271	7.1953	-5.9939	7.0363	2.2483	8.0743	1.2412	30.5304	26.5065
5.6273	3.697	6.705	10.0973	6.7801	9.66	12.1247	8.3526	12.9993	13.6088	9.7439	12.1689	10.9145	3.0257	4.2227	7.1202	-5.9851	7.0363	2.3675	8.0787	1.3604	30.6585	26.5021
5.6494	3.7633	6.7139	10.1282	6.8861	9.6954	12.138	8.4365	13.017	13.5867	9.8367	12.2219	10.9012	3.008	4.205	7.001	-5.9232	7.0098	2.4294	8.0301	1.4444	30.7601	26.4491
5.6582	3.8472	6.7448	10.1636	6.9303	9.7307	12.1645	8.5204	13.092	13.6	9.9471	12.3102	10.9233	2.9859	4.1741	6.9391	-5.8791	7.0451	2.5221	7.9992	1.5636	30.8573	26.3873
5.6626	3.9223	6.8066	10.2298	6.9921	9.7837	12.1689	8.5911	13.145	13.6221	10.009	12.3897	10.9321	2.9506	4.1387	6.8596	-5.8084	7.0275	2.6105	7.9683	1.6343	30.95	26.3166
5.72	4.0151	6.8773	10.2872	7.0451	9.8058	12.2131	8.675	13.145	13.6309	10.115	12.4207	10.963	2.9064	4.1034	6.7713	-5.751	7.0231	2.6723	7.9285	1.7447	31.034	26.2548
5.7333	4.0813	6.917	10.3844	7.0451	9.8588	12.2263	8.7324	13.2113	13.6353	10.2077	12.4737	10.9586	2.902	4.0902	6.6918	-5.7068	7.0231	2.7386	7.9109	1.8596	31.1135	26.1576
5.7907	4.1432	6.9701	10.4904	7.0584	9.8455	12.3279	8.7678	13.229	13.6663	10.2475	12.5046	10.9895	2.8666	4.0592	6.6255	-5.6449	7.0231	2.7474	7.9241	1.9347	31.1886	26.0781
5.8305	4.1873	7.0275	10.5567	7.0451	9.8897	12.3279	8.7899	13.229	13.6574	10.2872	12.5178	10.9586	2.8534	4.0548	6.5239	-5.5964	7.0231	2.7474	7.8976	1.9744	31.2946	26.0074
5.8658	4.2183	7.0628	10.6583	7.0496	9.8897	12.4162	8.8075	13.229	13.6486	10.3093	12.5267	10.9586	2.8048	4.0151	6.4444	-5.5169	6.9966	2.7606	7.9109	2.023	31.405	25.9235
5.8702	4.2492	7.0981	10.7157	7.0098	9.8809	12.403	8.7634	13.1936	13.6088	10.2961	12.5311	10.9145	2.7651	3.993	6.3561	-5.4373	6.9789	2.6988	7.8579	2.0672	31.5154	25.8307
5.8879	4.2227	7.1247	10.7378	6.9612	9.8455	12.4339	8.7457	13.1406	13.5426	10.2828	12.4781	10.8614	2.7253	3.9753	6.2633	-5.3667	6.9126	2.6767	7.8314	2.0672	31.6612	25.7733
5.8746	4.2183	7.1247	10.751	6.9126	9.8058	12.3897	8.6927	13.0435	13.4852	10.2386	12.4074	10.7731	2.69	3.9135	6.2015	-5.2872	6.8773	2.6193	7.7828	2.0451	31.7804	25.7291
5.8393	4.1785	7.0981	10.7378	6.8464	9.7484	12.35	8.6574	12.9507	13.4012	10.1768	12.3235	10.6892	2.6635	3.8781	6.0867	-5.2297	6.8287	2.5972	7.7651	2.0142	31.9306	25.6496
5.8305	4.1476	7.0849	10.6583	6.8066	9.6954	12.297	8.5602	12.8624	13.2643	10.115	12.2219	10.5743	2.6281	3.8914	5.9939	-5.1502	6.7801	2.5751	7.6989	1.9347	32.072	25.6143
5.7995	4.099	7.0231	10.6185	6.7448	9.6291	12.2131	8.5072	12.7828	13.1804	10.031	12.107	10.4507	2.584	3.8296	5.91	-5.084	6.736	2.5265	7.6856	1.8993	32.2266	25.5745
5.7819	4.046	6.9789	10.5567	6.6829	9.554	12.1203	8.4277	12.6592	13.0523	9.9604	12.0187	10.38	2.5619	3.7942	5.8437	-5.0398	6.6741	2.5044	7.6149	1.8242	32.3767	25.5304
5.7951	4.0151	6.9966	10.4595	6.6432	9.4922	12.0452	8.3658	12.5664	12.9639	9.8765	11.9259	10.2917	2.5398	3.7898	5.7642	-5.0045	6.6211	2.5	7.584	1.7624	32.5446	25.4906
5.7686	3.9665	6.9701	10.4021	6.6079	9.448	11.9304	8.357	12.4869	12.8624	9.7881	11.8332	10.1724	2.531	3.7854	5.7333	-4.9691	6.6167	2.4912	7.5752	1.7006	32.6992	25.4862
5.7377	3.9179	6.9347	10.3093	6.5504	9.3862	11.8685	8.2642	12.3986	12.7784	9.7263	11.7095	10.1017	2.5044	3.7721	5.6361	-4.9206	6.5769	2.4338	7.5001	1.6564	32.8714	25.495
5.751	3.8826	6.8817	10.2475	6.5239	9.3376	11.8155	8.2201	12.3146	12.6459	9.6821	11.6256	9.9869	2.4824	3.7545	5.5875	-4.8941	6.5151	2.4426	7.4603	1.6078	33.0393	25.5127
5.7245	3.7942	6.8331	10.1238	6.493	9.236	11.7228	8.1494	12.2396	12.5664	9.5982	11.5373	9.8985	2.4691	3.7015	5.508	-4.8499	6.4886	2.4514	7.4118	1.5592	33.2071	25.4994
5.7598	3.7986	6.8199	10.0531	6.4665	9.2139	11.63	8.1096	12.1512	12.4648	9.554	11.4577	9.8279	2.4514	3.7191	5.4771	-4.819	6.44	2.4161	7.3278	1.5327	33.3529	25.5259
5.751	3.75	6.789	9.9957	6.4356	9.1521	11.5549	8.0831	12.0805	12.3853	9.5231	11.3517	9.7881	2.4205	3.7103	5.4197	-4.7836	6.3693	2.4382	7.266	1.5415	33.4766	25.5745
