"FZ"	"FC3"	"FCZ"	"FC4"	"C3"	"CZ"	"C4"	"CP3"	"CPZ"	"CP4"	"P3"	"PZ"	"P4"	"OZ"	"FP1"	"FP2"	"A2"	"P8"	"TP7"	"TP8"	"P7"	"VEOG"	"HEOG"
-0.9534	-0.5975	-0.7352	-1.232	-0.4431	-0.2786	-0.799	0.2518	0.3458	-0.3122	0.903	0.9937	0.3055	-0.2786	-0.5539	-1.1783	0.5707	-0.386	-0.1645	-1.0071	0.3491	-3.1857	-2.5076
-0.8627	-0.4666	-0.6445	-1.2119	-0.2753	-0.141	-0.7452	0.4398	0.5237	-0.2316	1.0541	1.1682	0.4129	-0.2954	-0.5807	-1.232	0.6042	-0.3223	-0.1208	-0.9366	0.48	-2.9205	-2.5412
-0.8527	-0.3424	-0.5841	-1.1917	-0.1074	-0.0436	-0.6747	0.6378	0.715	-0.1141	1.2219	1.3394	0.5472	-0.3088	-0.5673	-1.2286	0.6244	-0.2383	-0.0839	-0.8359	0.621	-2.6117	-2.5681
-0.7922	-0.2081	-0.4901	-1.1313	0.0772	0.1007	-0.5942	0.8258	0.8963	0.0134	1.3965	1.5274	0.6546	-0.3189	-0.5237	-1.1682	0.6512	-0.1276	-0.0269	-0.7385	0.7755	-2.3465	-2.5613
-0.7385	-0.0537	-0.4129	-1.1011	0.2686	0.2451	-0.5035	1.0373	1.0809	0.1208	1.5845	1.6919	0.809	-0.329	-0.48	-1.091	0.6781	-0.0034	0.0705	-0.6143	0.9097	-2.0813	-2.5378
-0.6714	0.0671	-0.3256	-1.0205	0.4297	0.3693	-0.4129	1.2354	1.2756	0.2451	1.7657	1.8732	0.9299	-0.3558	-0.3894	-0.9332	0.7184	0.0772	0.1813	-0.5069	1.0306	-1.8497	-2.5009
-0.6177	0.2048	-0.2249	-0.9567	0.6076	0.4901	-0.3323	1.4166	1.4334	0.3693	1.9135	2.0544	1.0809	-0.3659	-0.2853	-0.752	0.7553	0.1846	0.282	-0.3693	1.1816	-1.6516	-2.4506
-0.5438	0.3223	-0.1343	-0.8594	0.7956	0.6143	-0.2383	1.618	1.6248	0.5136	2.0746	2.2324	1.2286	-0.3995	-0.1645	-0.5774	0.7922	0.2954	0.4163	-0.2518	1.2924	-1.4737	-2.4338
-0.47	0.4498	-0.0369	-0.762	0.95	0.7452	-0.1443	1.806	1.7859	0.6546	2.2458	2.4069	1.3596	-0.4062	-0.0134	-0.3391	0.8157	0.4129	0.5338	-0.1343	1.4166	-1.3159	-2.4103
-0.3693	0.5807	0.047	-0.6479	1.1212	0.8963	-0.0201	1.994	1.9772	0.809	2.3834	2.558	1.5106	-0.4095	0.1343	-0.1846	0.8292	0.517	0.6613	0.0201	1.5173	-1.1716	-2.3834
-0.2988	0.6982	0.1544	-0.5505	1.3159	1.0306	0.1074	2.1854	2.1384	0.9299	2.5479	2.7325	1.6315	-0.4196	0.2686	0.0101	0.8392	0.6076	0.7855	0.1309	1.6348	-1.0239	-2.3801
-0.2048	0.8191	0.2551	-0.4465	1.4905	1.1414	0.2148	2.3767	2.3062	1.0574	2.7057	2.8735	1.7557	-0.4163	0.4196	0.1913	0.8594	0.7285	0.9399	0.2417	1.749	-0.8694	-2.3465
-0.1511	0.8997	0.3156	-0.3424	1.665	1.2589	0.3256	2.5177	2.4539	1.1951	2.8299	3.0246	1.8698	-0.4297	0.5673	0.3088	0.8762	0.8124	1.0205	0.3357	1.8228	-0.7016	-2.2861
-0.0235	1.0071	0.433	-0.2451	1.8195	1.3696	0.4666	2.7023	2.5882	1.3461	2.9373	3.1522	2.0242	-0.4398	0.752	0.4935	0.8896	0.8896	1.1682	0.4196	1.9269	-0.5472	-2.2626
0.0739	1.091	0.4968	-0.1443	1.9772	1.4703	0.5774	2.8165	2.7023	1.4737	3.0414	3.273	2.1317	-0.4465	0.8929	0.5807	0.8929	0.9634	1.2488	0.47	1.9604	-0.3693	-2.2122
0.1645	1.1548	0.574	-0.0101	2.0544	1.561	0.7117	2.9004	2.803	1.5878	3.1085	3.3569	2.2055	-0.4398	1.0272	0.7016	0.8829	1.0138	1.3126	0.5035	1.9873	-0.2148	-2.1484
0.235	1.2186	0.6445	0.1041	2.1585	1.6415	0.8292	2.9407	2.9004	1.6818	3.1387	3.4039	2.2894	-0.4297	1.1514	0.7956	0.8594	1.0272	1.3596	0.5539	1.9638	-0.0604	-2.1014
0.3156	1.2689	0.7318	0.2585	2.2424	1.7188	0.8997	3.0179	2.9709	1.7624	3.1958	3.4543	2.3532	-0.4129	1.279	0.9097	0.8459	1.0776	1.3931	0.5405	1.9571	0.047	-2.0242
0.3961	1.3528	0.8023	0.3995	2.2928	1.7993	1.0272	3.0179	3.038	1.8597	3.1757	3.5013	2.4203	-0.4062	1.3797	0.9937	0.8057	1.0977	1.4166	0.5606	1.937	0.1376	-1.947
0.48	1.4468	0.9097	0.517	2.3969	1.8665	1.1279	3.0179	3.1119	1.9504	3.1522	3.5349	2.4808	-0.386	1.4838	1.0843	0.7721	1.1011	1.4032	0.5573	1.9269	0.235	-1.8396
0.5875	1.5576	0.9903	0.611	2.464	1.9269	1.2253	3.038	3.1522	1.9873	3.1421	3.5617	2.5009	-0.3592	1.5576	1.1649	0.7352	1.1682	1.3763	0.5975	1.8933	0.2753	-1.7389
0.7016	1.6852	1.1111	0.762	2.5378	2.0276	1.3193	3.0548	3.1958	2.0645	3.1488	3.5516	2.5345	-0.3391	1.6214	1.1984	0.6714	1.1615	1.3864	0.6009	1.8732	0.3223	-1.6248
0.8191	1.806	1.2018	0.8762	2.6318	2.0947	1.4066	3.0783	3.2697	2.1619	3.1219	3.5852	2.5815	-0.3021	1.665	1.2085	0.5975	1.2085	1.4267	0.6412	1.8564	0.3256	-1.5005
0.9198	1.9135	1.3126	0.9769	2.709	2.1619	1.5039	3.0716	3.2831	2.2055	3.0716	3.5651	2.6083	-0.282	1.6986	1.185	0.5573	1.2119	1.4099	0.6747	1.8295	0.3357	-1.3931
1.0574	1.9705	1.4032	1.0373	2.7325	2.229	1.5576	3.0347	3.3032	2.2324	3.0011	3.5046	2.5916	-0.2618	1.7053	1.1111	0.517	1.2286	1.4099	0.6815	1.7825	0.3088	-1.2723
1.1615	2.0309	1.5173	1.1279	2.709	2.2592	1.608	2.981	3.2965	2.2693	2.9205	3.4644	2.5748	-0.2383	1.702	1.0004	0.4633	1.2253	1.4233	0.715	1.7557	0.2786	-1.1414
1.2823	2.0343	1.6248	1.185	2.6587	2.3029	1.6785	2.8836	3.2831	2.3029	2.7997	3.3972	2.5513	-0.2014	1.6583	0.8829	0.4028	1.2152	1.3562	0.7553	1.6818	0.2417	-1.0306
1.3696	2.0309	1.6718	1.2421	2.5916	2.3196	1.6718	2.7661	3.2361	2.2827	2.6721	3.2764	2.4875	-0.1813	1.5744	0.6982	0.3458	1.1682	1.2924	0.7687	1.5912	0.2048	-0.8997
1.4502	1.994	1.7322	1.2689	2.4606	2.3364	1.6852	2.6184	3.1857	2.2424	2.5412	3.1824	2.4237	-0.1443	1.4737	0.5002	0.2988	1.1313	1.1884	0.7687	1.4771	0.1443	-0.7788
1.5576	1.9739	1.806	1.2823	2.37	2.3264	1.7188	2.4606	3.1186	2.2089	2.3599	3.0548	2.3331	-0.1141	1.3831	0.2618	0.2417	1.0776	1.1011	0.752	1.3461	0.0839	-0.6546
1.6483	1.937	1.8765	1.3562	2.2357	2.2928	1.7221	2.2827	3.0313	2.1854	2.1417	2.8836	2.2223	-0.0806	1.2286	0.0436	0.1913	1.0037	0.9735	0.7654	1.1884	0.0101	-0.5237
1.7389	1.8967	1.9067	1.42	2.0981	2.2827	1.7523	2.1014	2.944	2.1216	1.937	2.7292	2.1182	-0.0537	1.1313	-0.1544	0.1208	0.9164	0.8762	0.7117	1.0339	-0.0839	-0.3961
1.8295	1.8799	1.9672	1.4938	1.9907	2.2659	1.7892	1.9202	2.8467	2.1048	1.7422	2.558	2.0142	-0.0101	1.0306	-0.3156	0.0436	0.856	0.7419	0.7016	0.8627	-0.1846	-0.2686
1.8933	1.853	1.994	1.5475	1.8866	2.229	1.8228	1.7523	2.7258	2.0477	1.5375	2.3801	1.8866	0.0269	0.9131	-0.3726	-0.0403	0.762	0.6378	0.6647	0.7285	-0.2954	-0.2014
1.9437	1.8295	2.0544	1.6013	1.7691	2.2055	1.8195	1.5375	2.6016	2.0007	1.2991	2.1686	1.7792	0.0504	0.8426	-0.433	-0.1108	0.7016	0.527	0.6177	0.5673	-0.3659	-0.1276
2.0142	1.8161	2.0712	1.6248	1.6751	2.1451	1.8396	1.3394	2.4976	1.9135	1.0876	1.9705	1.6483	0.094	0.7117	-0.433	-0.1846	0.6311	0.4431	0.5505	0.3961	-0.433	-0.0604
2.0108	1.7725	2.0242	1.6281	1.5308	2.1082	1.8127	1.1716	2.3364	1.8295	0.8359	1.759	1.514	0.1511	0.611	-0.4028	-0.282	0.5707	0.3424	0.4935	0.2618	-0.4465	0.0067
2.0175	1.7087	2.0209	1.6147	1.4099	2.0108	1.7993	0.9668	2.1887	1.7422	0.668	1.5442	1.3831	0.1981	0.5338	-0.3357	-0.386	0.527	0.2316	0.47	0.0906	-0.4498	0.0705
1.994	1.6449	1.9772	1.5744	1.2656	1.9437	1.7691	0.7385	2.0041	1.6483	0.3928	1.3159	1.2387	0.2518	0.4633	-0.2451	-0.4901	0.4767	0.1208	0.4196	-0.0974	-0.4196	0.1343
1.9504	1.5274	1.9269	1.5341	1.1044	1.8597	1.7154	0.5304	1.8161	1.5475	0.1712	1.0876	1.1111	0.2887	0.3693	-0.1746	-0.564	0.4263	0.0134	0.4095	-0.2618	-0.3726	0.235
1.8933	1.4603	1.8665	1.4804	0.9769	1.7691	1.6516	0.3357	1.655	1.4737	-0.0369	0.8694	0.9702	0.3424	0.329	-0.0671	-0.6613	0.4196	-0.0839	0.3659	-0.3961	-0.2887	0.2853
1.796	1.3495	1.7758	1.3461	0.8325	1.6583	1.5643	0.1611	1.4435	1.3596	-0.2618	0.6546	0.8157	0.3793	0.2954	0.1309	-0.7251	0.386	-0.1813	0.3659	-0.5472	-0.2014	0.3391
1.7053	1.2085	1.655	1.2521	0.6714	1.524	1.4771	-0.0336	1.2689	1.2622	-0.4633	0.4297	0.6982	0.3693	0.2686	0.2618	-0.752	0.3659	-0.2786	0.3525	-0.6747	-0.094	0.3961
1.5778	1.0809	1.5677	1.1615	0.5237	1.3998	1.3898	-0.2283	1.0742	1.1414	-0.6445	0.1981	0.5707	0.3995	0.282	0.4465	-0.7956	0.3391	-0.3693	0.3323	-0.809	0.0302	0.4431
1.4938	0.9433	1.467	1.0474	0.3894	1.2689	1.3092	-0.4062	0.8829	1.0641	-0.8057	-0.0034	0.4465	0.4095	0.2887	0.6982	-0.8157	0.3156	-0.433	0.3491	-0.9131	0.1712	0.5002
1.3864	0.8224	1.3663	0.9702	0.2686	1.1783	1.2421	-0.5573	0.705	0.9735	-0.9903	-0.1846	0.3491	0.4196	0.3659	0.9534	-0.8325	0.329	-0.4767	0.3693	-1.0205	0.3156	0.564
1.279	0.6647	1.2387	0.8896	0.1443	1.044	1.1649	-0.6915	0.527	0.8392	-1.1481	-0.3827	0.2148	0.4196	0.3827	1.232	-0.8191	0.2954	-0.5338	0.3995	-1.1078	0.4834	0.6445
1.1917	0.5606	1.1514	0.8292	0.0369	0.9366	1.0944	-0.8124	0.3894	0.7553	-1.2823	-0.5505	0.1108	0.4062	0.4868	1.5207	-0.7822	0.2887	-0.5975	0.423	-1.1783	0.6009	0.7184
1.091	0.4263	1.0742	0.799	-0.0739	0.8359	1.044	-0.9366	0.2283	0.6781	-1.4032	-0.715	0.0403	0.3827	0.5472	1.8262	-0.7553	0.3223	-0.6009	0.4767	-1.2421	0.7318	0.809
1.0306	0.2853	0.9802	0.799	-0.1712	0.7385	1.0172	-1.0339	0.0739	0.6244	-1.5005	-0.8527	-0.0201	0.3827	0.6277	2.1249	-0.7251	0.3189	-0.6378	0.564	-1.279	0.809	0.8829
0.9467	0.2249	0.9097	0.7755	-0.2316	0.6412	0.9836	-1.1078	-0.0772	0.5371	-1.6013	-0.9735	-0.1141	0.3592	0.6613	2.3801	-0.7117	0.3256	-0.6512	0.5975	-1.3092	0.8762	0.9232
0.856	0.1208	0.8292	0.7788	-0.3223	0.5136	0.9433	-1.1716	-0.2115	0.4465	-1.6818	-1.1145	-0.2115	0.3458	0.7285	2.6184	-0.6747	0.3189	-0.6781	0.6378	-1.326	0.9232	0.9634
0.7553	0.0168	0.7184	0.7587	-0.3659	0.4297	0.8795	-1.2521	-0.3323	0.3693	-1.7557	-1.2454	-0.2853	0.3323	0.7889	2.8131	-0.6311	0.3323	-0.6781	0.705	-1.3428	0.9668	0.9903
0.6781	-0.0806	0.6479	0.7217	-0.433	0.3021	0.8224	-1.3025	-0.5002	0.2417	-1.8463	-1.3864	-0.4095	0.3055	0.8124	2.944	-0.5875	0.2921	-0.6982	0.7251	-1.3864	0.9802	1.0306
0.5908	-0.1611	0.5539	0.6949	-0.4834	0.2081	0.7486	-1.3562	-0.6479	0.1276	-1.9067	-1.5073	-0.5203	0.282	0.8124	3.0347	-0.5304	0.2451	-0.6915	0.7553	-1.3998	1.0104	1.0641
0.517	-0.2014	0.4666	0.6512	-0.5002	0.0974	0.6546	-1.3931	-0.809	-0.0034	-1.9772	-1.665	-0.6244	0.2618	0.8325	3.0817	-0.4935	0.235	-0.6512	0.7452	-1.3696	1.0373	1.0809
0.3995	-0.2786	0.376	0.5807	-0.5438	-0.0504	0.5505	-1.4536	-0.9836	-0.1376	-2.0007	-1.7825	-0.7452	0.2451	0.8325	3.075	-0.4565	0.1981	-0.6412	0.7083	-1.3696	1.0675	1.0876
0.3223	-0.3189	0.2753	0.5069	-0.564	-0.1846	0.4163	-1.4905	-1.1514	-0.3021	-2.0645	-1.9604	-0.8728	0.2216	0.8191	2.9474	-0.4095	0.1578	-0.6345	0.715	-1.3596	1.0809	1.1346
0.1981	-0.3659	0.1443	0.4129	-0.6378	-0.3625	0.2753	-1.5442	-1.3596	-0.48	-2.1384	-2.0813	-1.0138	0.1947	0.762	2.7292	-0.3625	0.0839	-0.6277	0.668	-1.3461	1.0977	1.1615
0.1108	-0.433	0.0168	0.3156	-0.7083	-0.5237	0.094	-1.608	-1.5308	-0.6647	-2.2122	-2.2693	-1.1749	0.1779	0.7016	2.4606	-0.3323	0.0034	-0.6277	0.6009	-1.3528	1.1078	1.1581
0.0134	-0.4901	-0.1108	0.1746	-0.7788	-0.705	-0.0806	-1.6718	-1.7389	-0.8762	-2.276	-2.4371	-1.3428	0.1611	0.6143	2.0947	-0.3223	-0.0974	-0.6311	0.5103	-1.3461	1.1078	1.1447
-0.0839	-0.5774	-0.2551	0.0671	-0.8627	-0.8963	-0.2618	-1.749	-1.9571	-1.0541	-2.3465	-2.605	-1.514	0.141	0.4935	1.6583	-0.2853	-0.2048	-0.6277	0.433	-1.3528	1.1279	1.1481
-0.2383	-0.6512	-0.4028	-0.0537	-0.9534	-1.0776	-0.433	-1.8094	-2.1552	-1.232	-2.3868	-2.7493	-1.6751	0.1578	0.3894	1.2186	-0.2954	-0.329	-0.621	0.3088	-1.3461	1.091	1.1514
-0.2954	-0.715	-0.5304	-0.1511	-1.0239	-1.2421	-0.5975	-1.8765	-2.3331	-1.4066	-2.4338	-2.8903	-1.8228	0.1712	0.2551	0.7721	-0.3021	-0.4666	-0.6445	0.2081	-1.3394	1.044	1.1111
-0.423	-0.7889	-0.6781	-0.2954	-1.1514	-1.4401	-0.7587	-1.9974	-2.5412	-1.561	-2.5143	-3.038	-1.9739	0.1511	0.0739	0.2887	-0.2954	-0.5875	-0.6647	0.0336	-1.3495	0.9903	1.0944
-0.4868	-0.8896	-0.809	-0.3558	-1.2354	-1.6013	-0.8728	-2.0679	-2.746	-1.7154	-2.5513	-3.1757	-2.0981	0.1712	-0.0873	-0.1678	-0.3189	-0.705	-0.6714	-0.1041	-1.373	0.903	1.0272
-0.5673	-0.9702	-0.9735	-0.4398	-1.3428	-1.7657	-1.0004	-2.1317	-2.8836	-1.8295	-2.5949	-3.2663	-2.229	0.1712	-0.2518	-0.6177	-0.329	-0.8359	-0.6882	-0.2316	-1.3596	0.809	0.9601
-0.7083	-1.0675	-1.1145	-0.5505	-1.4603	-1.947	-1.1481	-2.1954	-3.0917	-1.9604	-2.6419	-3.3569	-2.3364	0.1611	-0.4263	-1.0138	-0.3256	-0.9399	-0.7251	-0.3793	-1.3629	0.715	0.8963
-0.7553	-1.1749	-1.2421	-0.6445	-1.5543	-2.0746	-1.2421	-2.2659	-3.2159	-2.0712	-2.6654	-3.4509	-2.4271	0.1678	-0.5774	-1.4099	-0.329	-1.0239	-0.7352	-0.5069	-1.3763	0.6277	0.8292
-0.856	-1.2656	-1.3696	-0.715	-1.6483	-2.2324	-1.3361	-2.3264	-3.3234	-2.1552	-2.6822	-3.508	-2.5143	0.1746	-0.7117	-1.7221	-0.3558	-1.1447	-0.7419	-0.5975	-1.3696	0.5707	0.7721
-0.9534	-1.3898	-1.4871	-0.8057	-1.7456	-2.3767	-1.42	-2.3935	-3.4207	-2.2189	-2.6553	-3.5483	-2.5647	0.1981	-0.8459	-2.0209	-0.3659	-1.2051	-0.7889	-0.715	-1.3394	0.5136	0.7117
-1.0507	-1.4603	-1.5878	-0.8694	-1.8463	-2.4673	-1.5308	-2.4203	-3.5315	-2.2861	-2.6285	-3.5818	-2.652	0.1913	-1.0037	-2.2592	-0.3827	-1.2723	-0.8359	-0.7855	-1.2958	0.4465	0.7083
-1.1313	-1.5442	-1.6953	-0.9467	-1.8866	-2.558	-1.5878	-2.4203	-3.6053	-2.3196	-2.6184	-3.5785	-2.6587	0.2115	-1.0843	-2.3868	-0.423	-1.3058	-0.8694	-0.8359	-1.2387	0.3928	0.6949
-1.2253	-1.6449	-1.7993	-1.0138	-2.0074	-2.6453	-1.6785	-2.4304	-3.6456	-2.3767	-2.5681	-3.5751	-2.6721	0.2316	-1.1783	-2.5211	-0.4431	-1.3562	-0.9064	-0.8963	-1.1716	0.3592	0.705
-1.2958	-1.7288	-1.8799	-1.0541	-2.0679	-2.709	-1.7154	-2.4304	-3.6557	-2.4103	-2.4841	-3.5382	-2.6956	0.235	-1.2756	-2.5412	-0.4498	-1.3998	-0.9366	-0.9198	-1.1111	0.3256	0.7251
-1.4133	-1.8262	-1.9839	-1.1514	-2.1384	-2.7762	-1.7825	-2.4338	-3.6758	-2.4506	-2.4405	-3.5013	-2.7057	0.2316	-1.3428	-2.4841	-0.4364	-1.42	-0.9668	-0.9567	-1.0776	0.3122	0.7721
-1.4938	-1.9336	-2.0477	-1.2354	-2.2223	-2.8333	-1.853	-2.4405	-3.6691	-2.4808	-2.3801	-3.4811	-2.6923	0.2115	-1.4267	-2.3767	-0.423	-1.467	-0.95	-1.0104	-1.0339	0.3156	0.8124
-1.5945	-2.0276	-2.1216	-1.2991	-2.3096	-2.8802	-1.9	-2.4203	-3.6523	-2.4976	-2.2928	-3.4006	-2.6889	0.2014	-1.4804	-2.2256	-0.4129	-1.4838	-0.9399	-1.0474	-0.9567	0.3458	0.8527
-1.6516	-2.0947	-2.1686	-1.3126	-2.2961	-2.8534	-1.9336	-2.3499	-3.5818	-2.4942	-2.1652	-3.2797	-2.6385	0.2048	-1.524	-2.0074	-0.3961	-1.467	-0.9366	-1.0574	-0.8862	0.3458	0.8929
-1.6953	-2.1249	-2.1619	-1.3663	-2.323	-2.8165	-1.947	-2.2961	-3.508	-2.4539	-2.0511	-3.1454	-2.5848	0.1779	-1.5341	-1.7993	-0.3693	-1.4636	-0.8762	-1.0709	-0.8157	0.3525	0.95
-1.712	-2.182	-2.1619	-1.3696	-2.3566	-2.7728	-1.937	-2.2122	-3.4039	-2.4069	-1.9202	-3.0078	-2.4942	0.1813	-1.5979	-1.6147	-0.3323	-1.4301	-0.856	-1.0709	-0.7587	0.3558	1.0004
-1.749	-2.2156	-2.1552	-1.3898	-2.3398	-2.6889	-1.9504	-2.1115	-3.2898	-2.3499	-1.7557	-2.85	-2.4203	0.1511	-1.608	-1.4569	-0.2954	-1.4032	-0.7956	-1.0675	-0.6613	0.3424	1.0306
-1.759	-2.2122	-2.1317	-1.3864	-2.3364	-2.6117	-1.9504	-2.0074	-3.1186	-2.2726	-1.6281	-2.6788	-2.3196	0.1343	-1.608	-1.3193	-0.2652	-1.3562	-0.7251	-1.0406	-0.611	0.329	1.0709
-1.7691	-2.2223	-2.1216	-1.3696	-2.3129	-2.5211	-1.9168	-1.9302	-2.991	-2.2189	-1.4871	-2.511	-2.1988	0.1108	-1.5945	-1.2152	-0.2216	-1.3159	-0.705	-1.0138	-0.5505	0.2954	1.1145
-1.7355	-2.1988	-2.0276	-1.326	-2.2592	-2.4203	-1.8497	-1.8497	-2.8098	-2.1216	-1.3361	-2.2928	-2.0813	0.0873	-1.6214	-1.1615	-0.1712	-1.2521	-0.6412	-0.9735	-0.4767	0.282	1.1581
-1.7255	-2.1417	-1.9638	-1.2823	-2.1921	-2.2928	-1.8161	-1.7422	-2.6318	-2.0074	-1.1682	-2.1249	-1.9403	0.0638	-1.608	-1.1011	-0.1074	-1.1346	-0.5875	-0.9299	-0.423	0.2484	1.1816
-1.6852	-2.1014	-1.8597	-1.1917	-2.1249	-2.1518	-1.7355	-1.6113	-2.4371	-1.8967	-1.0272	-1.9067	-1.806	0.0269	-1.6013	-1.0675	-0.0436	-1.0843	-0.5371	-0.8694	-0.3827	0.2014	1.2051
-1.5811	-2.0041	-1.749	-1.0742	-2.0041	-1.9839	-1.6315	-1.4636	-2.2223	-1.7725	-0.8728	-1.6885	-1.6214	0.0034	-1.5845	-1.0272	0.0134	-0.9735	-0.4633	-0.8023	-0.3189	0.1578	1.2186
-1.5106	-1.8832	-1.6449	-0.9869	-1.9101	-1.8161	-1.5543	-1.326	-2.0108	-1.6214	-0.7184	-1.4838	-1.4267	-0.0269	-1.571	-1.0071	0.0873	-0.8694	-0.376	-0.7285	-0.2383	0.1041	1.2387
-1.3864	-1.7188	-1.5073	-0.8694	-1.7557	-1.6785	-1.4502	-1.1481	-1.7825	-1.467	-0.5539	-1.2622	-1.2924	-0.0671	-1.5475	-0.9634	0.1477	-0.7956	-0.2988	-0.668	-0.1913	0.0134	1.2521
-1.2924	-1.5341	-1.3596	-0.7553	-1.5643	-1.5039	-1.3663	-0.9802	-1.5677	-1.3226	-0.3961	-1.0474	-1.1581	-0.1074	-1.5475	-0.9735	0.2148	-0.6747	-0.235	-0.6076	-0.1175	-0.0436	1.2823
-1.1917	-1.3696	-1.2656	-0.6915	-1.4233	-1.3461	-1.2857	-0.8292	-1.3528	-1.2152	-0.2518	-0.856	-1.0037	-0.1376	-1.5308	-0.9601	0.2652	-0.5707	-0.1309	-0.5371	-0.0537	-0.1611	1.2991
-1.091	-1.1816	-1.1346	-0.6345	-1.2555	-1.2219	-1.1984	-0.6781	-1.1884	-1.044	-0.1141	-0.658	-0.8459	-0.1343	-1.4703	-0.9399	0.2921	-0.48	-0.0537	-0.4565	0.0067	-0.2618	1.3126
-0.9601	-1.0004	-0.9903	-0.5237	-1.091	-1.0507	-1.1346	-0.5069	-0.9735	-0.8963	0.0537	-0.4431	-0.668	-0.1477	-1.4133	-0.9164	0.2988	-0.3726	0.0436	-0.4062	0.0772	-0.3558	1.3327
-0.8694	-0.8594	-0.9131	-0.4733	-0.9467	-0.9634	-1.0641	-0.386	-0.809	-0.8157	0.1544	-0.282	-0.5573	-0.1578	-1.3495	-0.8728	0.329	-0.2786	0.0806	-0.3491	0.1208	-0.4062	1.3126
-0.7822	-0.6512	-0.8057	-0.4028	-0.7889	-0.8258	-0.9567	-0.2518	-0.6143	-0.6714	0.2719	-0.1108	-0.3793	-0.1443	-1.2354	-0.8057	0.3088	-0.1746	0.1242	-0.2551	0.1645	-0.4364	1.3193
-0.705	-0.5338	-0.7217	-0.3592	-0.658	-0.7217	-0.9097	-0.1242	-0.4733	-0.5606	0.3793	0.0537	-0.2686	-0.1645	-1.1716	-0.7385	0.3323	-0.1141	0.1611	-0.2417	0.2081	-0.4364	1.2622
-0.6345	-0.3928	-0.6345	-0.3021	-0.527	-0.6445	-0.8258	-0.0134	-0.3088	-0.4431	0.4935	0.1813	-0.1242	-0.1544	-1.0474	-0.6143	0.3323	-0.0034	0.2115	-0.1477	0.282	-0.4129	1.2656
-0.5841	-0.2887	-0.5606	-0.2753	-0.3793	-0.5573	-0.7419	0.1376	-0.2048	-0.3357	0.5942	0.3592	0.0168	-0.1511	-0.8963	-0.4431	0.3256	0.0974	0.235	-0.094	0.3223	-0.3525	1.2286
-0.5136	-0.1712	-0.5136	-0.2719	-0.2988	-0.5002	-0.7285	0.2115	-0.1108	-0.2786	0.6613	0.4364	0.1108	-0.1678	-0.7587	-0.2988	0.3391	0.1678	0.2484	-0.0705	0.3592	-0.2451	1.2119
-0.4834	-0.0873	-0.4767	-0.2853	-0.2048	-0.4465	-0.6546	0.282	-0.0168	-0.2014	0.7352	0.5035	0.1913	-0.1477	-0.6345	-0.141	0.3256	0.235	0.2182	0.0067	0.3995	-0.1141	1.2051
-0.4532	0.0067	-0.4498	-0.3055	-0.1276	-0.423	-0.6546	0.3693	0.0671	-0.1443	0.7855	0.6042	0.282	-0.1611	-0.4901	0.0067	0.329	0.282	0.2249	0.0134	0.4163	0.0403	1.2119
-0.4465	0.0772	-0.4297	-0.3122	-0.0302	-0.3894	-0.6479	0.4733	0.141	-0.1007	0.8627	0.6949	0.3659	-0.141	-0.3323	0.1645	0.2921	0.3458	0.2115	0.0336	0.4599	0.2148	1.2186
-0.4733	0.1141	-0.4733	-0.3558	0.0201	-0.3928	-0.6647	0.5136	0.1443	-0.0571	0.8997	0.7352	0.3726	-0.1511	-0.2283	0.2988	0.2887	0.3726	0.2048	0.047	0.4599	0.3995	1.2488
-0.5069	0.1276	-0.5002	-0.4196	0.0671	-0.4163	-0.6714	0.527	0.1846	-0.047	0.9399	0.7855	0.4465	-0.1242	-0.1276	0.4633	0.2786	0.4498	0.1846	0.0604	0.47	0.5841	1.2823
-0.5438	0.1208	-0.5136	-0.4297	0.0873	-0.386	-0.6815	0.5707	0.2417	-0.0168	0.9634	0.8023	0.47	-0.1242	-0.0537	0.5707	0.2686	0.4633	0.1511	0.0336	0.4532	0.7452	1.3193
-0.5875	0.0906	-0.5438	-0.4968	0.0974	-0.3928	-0.6747	0.6076	0.2887	-0.0134	0.9836	0.8594	0.5338	-0.1208	0.0134	0.6848	0.2484	0.5136	0.1309	-0.0134	0.4465	0.9164	1.3528
-0.6009	0.0302	-0.5875	-0.5539	0.094	-0.4297	-0.6546	0.6042	0.2921	0.0235	1.0104	0.8762	0.5438	-0.1276	0.047	0.7922	0.2585	0.5472	0.0839	-0.0269	0.4498	1.0406	1.3696
-0.6747	-0.0403	-0.6244	-0.5774	0.0638	-0.4498	-0.6714	0.5975	0.2921	0.0201	0.9903	0.8829	0.5774	-0.1276	0.0504	0.8191	0.2618	0.6009	0.0269	-0.0739	0.3928	1.1749	1.3696
-0.6848	-0.1007	-0.6747	-0.5875	0.0403	-0.4599	-0.6915	0.5908	0.3357	0.0571	0.9836	0.9232	0.6042	-0.1208	0.0772	0.8862	0.2618	0.6848	0.0034	-0.0671	0.376	1.2286	1.3596
-0.7352	-0.1913	-0.7352	-0.6277	0.0101	-0.4633	-0.658	0.5774	0.3793	0.0772	1.0004	0.9534	0.6311	-0.1276	0.0537	0.856	0.2585	0.715	-0.0436	-0.0906	0.3525	1.2689	1.3361
-0.7755	-0.2551	-0.762	-0.6143	-0.0336	-0.4465	-0.6647	0.564	0.4062	0.1276	0.9869	0.9702	0.6747	-0.1041	0.0302	0.8124	0.235	0.7587	-0.0671	-0.0739	0.3189	1.279	1.326
-0.7956	-0.3223	-0.7755	-0.621	-0.0436	-0.4196	-0.6143	0.5606	0.4666	0.1746	0.9836	1.0071	0.7553	-0.1074	-0.0302	0.7654	0.2283	0.8023	-0.0873	-0.0504	0.2988	1.2354	1.3159
-0.8292	-0.3928	-0.7687	-0.621	-0.0504	-0.3525	-0.5673	0.5875	0.527	0.2652	0.9937	1.0541	0.8191	-0.0873	-0.0504	0.6815	0.1846	0.8896	-0.1343	-0.0369	0.282	1.1749	1.3126
-0.8325	-0.48	-0.7755	-0.5975	-0.0638	-0.3122	-0.5304	0.5673	0.5942	0.3223	0.9869	1.1044	0.8661	-0.0806	-0.1208	0.527	0.1578	0.9332	-0.1611	-0.0067	0.2518	1.0809	1.3562
-0.8292	-0.5405	-0.7822	-0.5707	-0.1041	-0.2753	-0.4868	0.5774	0.658	0.4095	1.0037	1.138	0.903	-0.0504	-0.1645	0.423	0.1074	1.0071	-0.1813	0.0201	0.2048	0.9634	1.373
-0.8292	-0.5707	-0.7419	-0.5136	-0.1041	-0.1913	-0.423	0.5908	0.7687	0.5069	0.997	1.2051	0.9702	-0.0067	-0.1544	0.3156	0.0436	1.044	-0.2014	0.0336	0.1913	0.8292	1.4334
-0.8057	-0.6143	-0.7318	-0.4767	-0.1007	-0.1175	-0.3558	0.6042	0.8694	0.5807	0.9903	1.2589	1.0675	0.0168	-0.188	0.2115	-0.0101	1.0742	-0.2484	0.0436	0.1645	0.705	1.4536
-0.7855	-0.6714	-0.7184	-0.4196	-0.1074	-0.0436	-0.2786	0.5908	0.9433	0.6714	0.9534	1.2891	1.0843	0.0269	-0.2182	0.1242	-0.0403	1.1313	-0.2921	0.0604	0.1309	0.5438	1.5106
-0.7587	-0.6882	-0.6815	-0.3491	-0.1141	0.0336	-0.1813	0.6009	1.0373	0.7486	0.9601	1.3293	1.1649	0.0604	-0.2216	0.0235	-0.1074	1.1548	-0.3223	0.0974	0.0839	0.3827	1.5677
-0.7217	-0.7184	-0.6177	-0.2921	-0.1074	0.1242	-0.0839	0.6177	1.1481	0.8862	0.8997	1.3763	1.2018	0.1041	-0.2148	-0.0101	-0.1779	1.1917	-0.329	0.1242	0.0638	0.2182	1.5979
-0.668	-0.7217	-0.5673	-0.2014	-0.0739	0.1813	0.0201	0.6076	1.232	0.9702	0.8795	1.4133	1.2521	0.1343	-0.2249	-0.0235	-0.2551	1.2387	-0.3793	0.1746	0.0034	0.0336	1.665
-0.611	-0.7217	-0.5237	-0.1175	-0.0604	0.3156	0.1443	0.6311	1.3193	1.0809	0.8762	1.4368	1.2924	0.1846	-0.2283	-0.0369	-0.329	1.2521	-0.423	0.2383	-0.0403	-0.1041	1.7221
-0.5237	-0.6815	-0.4532	-0.0269	-0.0101	0.4129	0.2249	0.621	1.3898	1.1615	0.8426	1.4569	1.326	0.1981	-0.2249	-0.0369	-0.3961	1.2387	-0.4297	0.2921	-0.0839	-0.2551	1.8027
-0.4834	-0.658	-0.3995	0.0772	0.0134	0.4834	0.3223	0.6076	1.4569	1.2253	0.7822	1.4502	1.3327	0.2316	-0.1981	0.0034	-0.4532	1.2354	-0.4733	0.3491	-0.1511	-0.3894	1.8866
-0.433	-0.6277	-0.3525	0.1947	0.0504	0.5573	0.4062	0.6076	1.5207	1.2991	0.762	1.4938	1.3562	0.2686	-0.1981	0.0201	-0.527	1.2152	-0.5136	0.4062	-0.1779	-0.5103	1.9571
-0.3357	-0.5539	-0.2719	0.2988	0.1007	0.6412	0.4901	0.6177	1.571	1.3596	0.7184	1.4703	1.3058	0.3122	-0.1443	0.0906	-0.6177	1.1884	-0.5405	0.4532	-0.2484	-0.6042	2.0309
-0.2853	-0.5069	-0.2383	0.4095	0.1141	0.7285	0.5505	0.611	1.608	1.3797	0.668	1.4569	1.3058	0.3391	-0.0974	0.1443	-0.6613	1.1615	-0.5875	0.527	-0.2954	-0.6949	2.1182
-0.2148	-0.4532	-0.1712	0.5304	0.1544	0.7687	0.6412	0.6009	1.665	1.4435	0.6143	1.4536	1.2958	0.376	-0.0336	0.2081	-0.7251	1.1111	-0.6009	0.5573	-0.3391	-0.7452	2.2055
-0.1376	-0.4095	-0.1242	0.6479	0.2081	0.8459	0.7251	0.6076	1.6953	1.4838	0.5539	1.42	1.2689	0.3961	0.0369	0.3491	-0.7721	1.1011	-0.6076	0.611	-0.3894	-0.7889	2.2726
-0.1007	-0.3424	-0.0739	0.752	0.2451	0.8728	0.762	0.5774	1.6751	1.4838	0.517	1.3998	1.2186	0.4062	0.1074	0.4935	-0.8057	1.0339	-0.6479	0.6311	-0.4263	-0.8292	2.3465
-0.0269	-0.3122	-0.0034	0.8661	0.2786	0.9332	0.8057	0.5841	1.712	1.4972	0.4733	1.3428	1.1682	0.4095	0.1846	0.6781	-0.8258	0.9903	-0.6781	0.6781	-0.47	-0.8493	2.4438
0.0336	-0.2081	0.0302	0.95	0.329	0.9534	0.8661	0.5841	1.702	1.524	0.4398	1.2991	1.1179	0.4263	0.3189	0.8694	-0.8359	0.9534	-0.7016	0.7184	-0.4767	-0.8594	2.5479
0.1343	-0.1376	0.1007	1.0474	0.4129	1.0239	0.8997	0.574	1.702	1.5341	0.3894	1.2555	1.0776	0.4297	0.4532	1.1346	-0.8392	0.9164	-0.6982	0.7318	-0.4901	-0.8896	2.652
0.1343	-0.047	0.1376	1.1078	0.433	1.0507	0.9332	0.564	1.7154	1.4938	0.3424	1.2051	1.0138	0.4263	0.5472	1.3696	-0.8224	0.8694	-0.7251	0.7486	-0.5002	-0.8896	2.746
0.2182	0.0604	0.2014	1.1951	0.5035	1.0809	0.9467	0.5539	1.6684	1.4838	0.3189	1.1279	0.95	0.4196	0.6949	1.665	-0.8057	0.8224	-0.7117	0.7654	-0.5069	-0.8997	2.8366
0.2786	0.1511	0.2451	1.2421	0.5505	1.0944	0.997	0.5707	1.6415	1.4938	0.2484	1.0742	0.8896	0.4028	0.8057	1.9067	-0.7822	0.8023	-0.7117	0.7553	-0.5338	-0.9097	2.9306
0.3323	0.1947	0.2887	1.2689	0.5942	1.0809	1.0071	0.517	1.608	1.4468	0.1712	0.9467	0.799	0.4028	0.8862	2.1451	-0.7452	0.7755	-0.7385	0.715	-0.5573	-0.9265	3.0112
0.3424	0.2753	0.3088	1.2991	0.6009	1.0709	0.9702	0.4834	1.5173	1.3831	0.0839	0.856	0.6949	0.3693	0.9467	2.4136	-0.7083	0.7083	-0.7251	0.705	-0.6143	-0.9601	3.0951
0.386	0.3391	0.3223	1.2756	0.5942	1.0205	0.9634	0.4263	1.4401	1.3461	-0.0168	0.7385	0.5807	0.3558	0.9802	2.6151	-0.6848	0.6277	-0.7251	0.6848	-0.621	-0.9735	3.1454
0.4465	0.386	0.3659	1.2723	0.6277	1.0138	0.9668	0.3693	1.3562	1.2589	-0.1041	0.6076	0.47	0.329	1.0239	2.7997	-0.6378	0.5539	-0.7385	0.6781	-0.6781	-0.9903	3.2126
0.4868	0.4196	0.3625	1.3126	0.5942	0.9567	0.9064	0.3088	1.2622	1.1581	-0.1981	0.4633	0.3424	0.3122	1.0641	2.9642	-0.5942	0.4633	-0.7553	0.6479	-0.7184	-0.9937	3.2529
0.5203	0.4666	0.3894	1.2958	0.564	0.8963	0.8661	0.2081	1.1212	1.0641	-0.3156	0.3256	0.2081	0.2887	1.0641	3.1018	-0.5472	0.3726	-0.7654	0.6076	-0.7687	-0.9735	3.2697
0.574	0.5069	0.3928	1.279	0.5472	0.856	0.8359	0.1309	1.0172	0.9836	-0.4599	0.1645	0.0806	0.2585	1.091	3.2092	-0.4968	0.2451	-0.8057	0.5573	-0.8191	-0.95	3.2932
0.6244	0.5438	0.4297	1.2723	0.5002	0.7855	0.8057	0.0269	0.9097	0.8661	-0.574	0.0134	-0.0638	0.2316	1.1212	3.32	-0.4364	0.1309	-0.8292	0.4968	-0.9097	-0.9097	3.2764
0.6747	0.5338	0.4633	1.2823	0.4599	0.7352	0.7654	-0.0671	0.7687	0.7755	-0.6848	-0.141	-0.2216	0.2048	1.1615	3.3905	-0.386	0.0302	-0.8459	0.4498	-0.9634	-0.8426	3.2797
0.7083	0.5304	0.4465	1.2689	0.3995	0.6781	0.6882	-0.1947	0.621	0.658	-0.8157	-0.3156	-0.3558	0.1779	1.1749	3.4509	-0.3323	-0.1343	-0.8694	0.3391	-1.0138	-0.7452	3.2898
0.752	0.5136	0.4532	1.2421	0.3357	0.5875	0.6244	-0.282	0.4767	0.5405	-0.9232	-0.48	-0.5103	0.1544	1.2354	3.4576	-0.282	-0.2618	-0.8997	0.2585	-1.0541	-0.6009	3.2495
0.7755	0.5002	0.4633	1.2186	0.2451	0.5237	0.574	-0.3995	0.3256	0.3961	-1.0205	-0.6311	-0.658	0.1175	1.2823	3.4744	-0.2182	-0.3894	-0.9131	0.1343	-1.1212	-0.4633	3.2428
0.8292	0.5002	0.47	1.1716	0.1678	0.423	0.4901	-0.527	0.1746	0.2551	-1.1447	-0.7922	-0.8459	0.0772	1.3629	3.4845	-0.1611	-0.5438	-0.9265	0.0067	-1.1581	-0.3088	3.2025
0.8627	0.47	0.47	1.1447	0.1007	0.3424	0.4196	-0.621	0.0168	0.1074	-1.2723	-0.9735	-1.0172	0.0705	1.4468	3.5013	-0.1041	-0.6982	-0.9198	-0.1276	-1.2186	-0.1544	3.1656
0.8829	0.4297	0.4532	1.1011	0.0336	0.2652	0.3357	-0.7251	-0.1276	-0.0269	-1.3495	-1.1313	-1.185	0.0134	1.5207	3.4979	-0.0134	-0.856	-0.9265	-0.2887	-1.2521	0.0067	3.1152
0.9299	0.4028	0.4465	1.0843	-0.094	0.1611	0.2148	-0.8426	-0.3055	-0.188	-1.4569	-1.3025	-1.3629	-0.0302	1.6147	3.5349	0.0604	-1.0406	-0.9534	-0.4129	-1.2924	0.1343	3.0951
0.9399	0.386	0.4565	1.0675	-0.1544	0.1141	0.1813	-0.9802	-0.4633	-0.2988	-1.571	-1.4468	-1.5106	-0.0604	1.7221	3.602	0.1343	-1.2018	-0.95	-0.5438	-1.3528	0.2417	3.038
0.9903	0.3592	0.4532	1.0239	-0.2283	0.0134	0.094	-1.0843	-0.6345	-0.4633	-1.655	-1.6315	-1.6885	-0.1175	1.8094	3.6859	0.2383	-1.3763	-0.9735	-0.7217	-1.3898	0.329	2.981
1.0474	0.3256	0.4498	1.0004	-0.3088	-0.0839	0.0067	-1.2051	-0.7889	-0.6009	-1.7691	-1.7892	-1.8329	-0.1678	1.9135	3.79	0.3357	-1.5475	-0.9366	-0.856	-1.4301	0.3793	2.9373
1.0809	0.3558	0.4733	1.0037	-0.376	-0.1276	-0.0235	-1.2891	-0.9131	-0.7184	-1.8497	-1.9504	-1.9672	-0.1981	1.9839	3.9377	0.4129	-1.6718	-0.9366	-0.9802	-1.4435	0.3793	2.897
1.1011	0.3223	0.4633	0.9869	-0.4565	-0.2148	-0.0839	-1.4233	-1.0944	-0.8292	-1.9336	-2.1149	-2.088	-0.2585	2.0544	4.0686	0.5035	-1.796	-0.9802	-1.1145	-1.4569	0.3625	2.8769
1.1279	0.2887	0.4532	0.997	-0.5405	-0.2988	-0.1443	-1.5207	-1.2354	-0.9366	-2.0007	-2.2726	-2.1954	-0.2954	2.1048	4.166	0.574	-1.8933	-0.9903	-1.2286	-1.4804	0.329	2.8568
1.1346	0.2383	0.4398	1.0037	-0.621	-0.3961	-0.1813	-1.6248	-1.3965	-1.0373	-2.0746	-2.4069	-2.3297	-0.3323	2.1753	4.2499	0.6546	-1.9974	-0.9769	-1.3428	-1.4972	0.2585	2.803
1.1346	0.1813	0.4129	0.9702	-0.7285	-0.5002	-0.235	-1.7523	-1.571	-1.2018	-2.1719	-2.5546	-2.4271	-0.3558	2.1921	4.3338	0.7184	-2.0947	-1.0004	-1.4334	-1.524	0.2081	2.793
1.0843	0.1343	0.3525	0.9265	-0.856	-0.611	-0.2921	-1.89	-1.7355	-1.3193	-2.2861	-2.7124	-2.5513	-0.3894	2.1619	4.3506	0.7687	-2.1719	-1.0239	-1.5274	-1.561	0.1645	2.7728
1.0104	0.0269	0.2753	0.8594	-1.0406	-0.7687	-0.4196	-2.0578	-1.9638	-1.4871	-2.3901	-2.9138	-2.7057	-0.4196	2.1182	4.3372	0.8292	-2.323	-1.0742	-1.6248	-1.618	0.1208	2.7527
0.9433	-0.0739	0.1746	0.762	-1.1716	-0.9399	-0.5438	-2.2021	-2.1686	-1.6617	-2.5043	-3.1119	-2.8433	-0.4364	2.0477	4.2599	0.8728	-2.4237	-1.1111	-1.7087	-1.6281	0.0906	2.7527
0.8224	-0.188	0.0671	0.6479	-1.3528	-1.091	-0.6747	-2.3734	-2.3666	-1.8497	-2.6385	-3.2999	-2.9877	-0.4498	1.9571	4.1492	0.8997	-2.5345	-1.1548	-1.7725	-1.6919	0.0806	2.7527
0.7251	-0.3558	-0.0906	0.5338	-1.5543	-1.3193	-0.8459	-2.558	-2.6117	-2.0511	-2.7594	-3.5046	-3.1522	-0.4633	1.9034	3.9713	0.9265	-2.6654	-1.2186	-1.8127	-1.759	0.0537	2.7426
0.6177	-0.4565	-0.2216	0.3827	-1.7087	-1.5207	-1.0339	-2.7325	-2.8769	-2.2525	-2.9004	-3.7128	-3.3099	-0.4666	1.8228	3.7799	0.9467	-2.7762	-1.2756	-1.8698	-1.8161	0.0302	2.7292
0.4666	-0.6244	-0.3793	0.2115	-1.9135	-1.7355	-1.2119	-2.9205	-3.1454	-2.4942	-3.0447	-3.941	-3.4946	-0.4767	1.7288	3.5852	0.9601	-2.9004	-1.3327	-1.9235	-1.8832	0	2.7393
0.3223	-0.7956	-0.5673	0.0504	-2.1082	-1.9571	-1.4502	-3.0951	-3.4073	-2.746	-3.1891	-4.176	-3.6691	-0.4868	1.6248	3.3032	0.9769	-3.0179	-1.3898	-1.9907	-1.9269	-0.0638	2.7426
0.1645	-0.9601	-0.762	-0.1376	-2.3264	-2.1954	-1.655	-3.2663	-3.6826	-2.9843	-3.3267	-4.4009	-3.8538	-0.4968	1.5543	3.0615	0.9903	-3.1421	-1.42	-2.0108	-1.9504	-0.1645	2.7426
0.0168	-1.1346	-0.9534	-0.3491	-2.4976	-2.4673	-1.9101	-3.4442	-3.9679	-3.1958	-3.4711	-4.6494	-4.0283	-0.5002	1.4401	2.756	1.0037	-3.2059	-1.5106	-2.0779	-1.9974	-0.2719	2.746
-0.1242	-1.2958	-1.1481	-0.5505	-2.7158	-2.709	-2.1115	-3.6255	-4.2398	-3.4106	-3.5818	-4.8978	-4.1861	-0.4968	1.3126	2.4405	0.9937	-3.2999	-1.5341	-2.1014	-2.041	-0.3894	2.7359
-0.3357	-1.4771	-1.373	-0.762	-2.9105	-2.9776	-2.3532	-3.7799	-4.5151	-3.6691	-3.7329	-5.1328	-4.3573	-0.4935	1.2018	2.1249	1.0071	-3.367	-1.618	-2.1518	-2.0813	-0.5405	2.7493
-0.5237	-1.6348	-1.5811	-0.9399	-3.0716	-3.2159	-2.5748	-3.9175	-4.8038	-3.8974	-3.8202	-5.3375	-4.5486	-0.5002	1.1145	1.8564	1.0037	-3.4274	-1.6718	-2.1753	-2.1115	-0.6982	2.7225
-0.6747	-1.7892	-1.7758	-1.1313	-3.2294	-3.4576	-2.7896	-4.0619	-5.0656	-4.1022	-3.9243	-5.5658	-4.6964	-0.4767	0.9836	1.6248	0.9802	-3.4576	-1.7188	-2.2156	-2.1216	-0.8493	2.7292
-0.8795	-1.9839	-2.0309	-1.3394	-3.414	-3.7161	-3.0447	-4.1962	-5.3275	-4.3439	-4.0149	-5.7739	-4.8541	-0.4834	0.8594	1.3797	0.9634	-3.5248	-1.7691	-2.2525	-2.1619	-0.9836	2.756
-1.0675	-2.1451	-2.2559	-1.5308	-3.5483	-3.9578	-3.2697	-4.2801	-5.5826	-4.5151	-4.0955	-5.9518	-4.9615	-0.4599	0.7385	1.1649	0.9433	-3.5483	-1.7758	-2.2928	-2.1619	-1.0944	2.7661
-1.2891	-2.3062	-2.5076	-1.7322	-3.6893	-4.2096	-3.4778	-4.3808	-5.8209	-4.6796	-4.1425	-6.1197	-5.0891	-0.4599	0.6009	0.9869	0.9332	-3.5651	-1.8195	-2.3532	-2.1719	-1.1984	2.7963
-1.5005	-2.4707	-2.756	-1.9168	-3.8	-4.4446	-3.6926	-4.4379	-6.0257	-4.8608	-4.1458	-6.2338	-5.1563	-0.4498	0.4532	0.8762	0.9064	-3.5416	-1.8396	-2.3801	-2.1115	-1.2823	2.8366
-1.7221	-2.6285	-2.9877	-2.1182	-3.9142	-4.6695	-3.8672	-4.4614	-6.2204	-4.9716	-4.1458	-6.3278	-5.1764	-0.4263	0.3156	0.7889	0.8627	-3.508	-1.8228	-2.3969	-2.0679	-1.3428	2.8433
-1.9336	-2.8433	-3.2294	-2.3297	-4.0149	-4.8877	-4.0451	-4.5151	-6.3647	-5.0858	-4.1122	-6.405	-5.2066	-0.4263	0.1611	0.7285	0.8426	-3.4677	-1.8362	-2.4203	-2.0175	-1.3763	2.8802
-2.1954	-2.9877	-3.4576	-2.4942	-4.082	-5.069	-4.1827	-4.4781	-6.489	-5.1529	-4.0048	-6.4084	-5.1797	-0.3995	0.0101	0.7352	0.809	-3.367	-1.8094	-2.4002	-1.9034	-1.4032	2.9138
-2.4338	-3.1454	-3.6926	-2.6688	-4.1794	-5.2301	-4.3237	-4.4547	-6.5964	-5.1865	-3.9108	-6.395	-5.1025	-0.3827	-0.1141	0.715	0.7721	-3.2394	-1.7624	-2.4271	-1.7926	-1.3931	2.944
-2.652	-3.2797	-3.9075	-2.84	-4.1962	-5.3677	-4.4379	-4.3909	-6.6434	-5.1898	-3.7564	-6.3177	-4.9481	-0.3659	-0.2719	0.752	0.7318	-3.0817	-1.7288	-2.4002	-1.6449	-1.3831	2.9776
-2.9172	-3.4778	-4.1592	-3.0045	-4.2667	-5.5255	-4.5184	-4.3002	-6.6635	-5.1495	-3.5718	-6.2204	-4.8038	-0.3491	-0.3961	0.7419	0.6915	-2.897	-1.6718	-2.4103	-1.4771	-1.3461	3.0179
-3.1589	-3.6389	-4.3774	-3.1488	-4.2734	-5.6497	-4.6024	-4.2297	-6.6602	-5.1059	-3.3939	-6.1029	-4.646	-0.3558	-0.6042	0.6747	0.6915	-2.6889	-1.6013	-2.3935	-1.2823	-1.2891	3.0548
-3.4073	-3.7799	-4.5822	-3.2932	-4.2868	-5.7605	-4.6628	-4.1089	-6.6299	-4.9918	-3.1622	-5.9183	-4.3942	-0.3391	-0.7687	0.5606	0.658	-2.4338	-1.5308	-2.3364	-1.0944	-1.232	3.0884
-3.6423	-3.9142	-4.8138	-3.461	-4.317	-5.8478	-4.6762	-3.9847	-6.5662	-4.881	-2.897	-5.69	-4.1257	-0.3088	-0.9836	0.4431	0.6143	-2.1719	-1.4536	-2.2928	-0.8862	-1.1581	3.1454
-3.9175	-4.0787	-5.0153	-3.5684	-4.3372	-5.925	-4.7031	-3.8504	-6.4957	-4.74	-2.6184	-5.4349	-3.8303	-0.2988	-1.2085	0.2719	0.5841	-1.8933	-1.3696	-2.229	-0.6613	-1.0574	3.1857
-4.1425	-4.2163	-5.1797	-3.6557	-4.3472	-5.9753	-4.6964	-3.7195	-6.3882	-4.5654	-2.3264	-5.1462	-3.4912	-0.2786	-1.42	0.0571	0.5338	-1.5979	-1.2521	-2.1384	-0.4431	-0.9702	3.1958
-4.3707	-4.3808	-5.4047	-3.7799	-4.3573	-6.0391	-4.693	-3.5852	-6.2607	-4.3741	-2.0242	-4.8474	-3.1421	-0.2585	-1.6919	-0.2048	0.517	-1.3361	-1.1682	-2.0578	-0.2216	-0.8661	3.2294
-4.6259	-4.505	-5.5893	-3.8739	-4.3472	-6.066	-4.6594	-3.3737	-6.0828	-4.1492	-1.6718	-4.4748	-2.7393	-0.2451	-1.9772	-0.4834	0.4968	-1.0071	-1.0474	-1.9336	0.0403	-0.7687	3.2327
-4.8642	-4.6527	-5.784	-3.9948	-4.3372	-6.1029	-4.599	-3.2126	-5.9183	-3.9142	-1.3596	-4.119	-2.3465	-0.2283	-2.2324	-0.7855	0.4968	-0.658	-0.95	-1.8161	0.2921	-0.6714	3.2562
-5.0824	-4.7668	-5.9418	-4.0552	-4.3137	-6.0928	-4.5285	-3.0246	-5.7269	-3.6658	-0.9668	-3.6859	-1.89	-0.2417	-2.5311	-1.1179	0.48	-0.3122	-0.8023	-1.6785	0.5908	-0.574	3.2394
-5.2872	-4.8709	-6.113	-4.1525	-4.27	-6.0828	-4.4681	-2.8299	-5.4785	-3.3939	-0.6177	-3.2629	-1.4435	-0.2551	-2.8232	-1.4838	0.48	0.0403	-0.7083	-1.5341	0.8627	-0.47	3.2394
-5.4785	-4.9683	-6.2439	-4.2398	-4.2499	-6.076	-4.3808	-2.6419	-5.2335	-3.1152	-0.2383	-2.8198	-0.9601	-0.2249	-3.1219	-1.8832	0.4565	0.4196	-0.5841	-1.3528	1.1313	-0.3894	3.226
-5.6699	-5.0824	-6.4117	-4.3304	-4.2365	-6.0425	-4.3103	-2.4371	-4.9548	-2.8299	0.1544	-2.3599	-0.4935	-0.2148	-3.4308	-2.2525	0.4498	0.7822	-0.4868	-1.1783	1.3965	-0.3021	3.2126
-5.8545	-5.1697	-6.5729	-4.4144	-4.1794	-6.0291	-4.2633	-2.2324	-4.7198	-2.5714	0.5371	-1.9067	-0.0403	-0.2148	-3.7195	-2.6486	0.4263	1.1447	-0.3659	-0.9836	1.665	-0.2451	3.1824
-6.0626	-5.2805	-6.7407	-4.5084	-4.176	-6.0056	-4.2096	-2.0544	-4.4513	-2.2894	0.8963	-1.4435	0.4196	-0.2048	-4.0518	-3.0347	0.4028	1.5005	-0.2686	-0.809	1.9101	-0.1846	3.179
-6.2439	-5.3778	-6.8481	-4.5822	-4.1525	-5.9686	-4.1223	-1.8665	-4.1626	-1.9974	1.2723	-0.9702	0.8929	-0.1712	-4.3439	-3.4308	0.3558	1.8665	-0.1779	-0.6076	2.1686	-0.1276	3.179
-6.4252	-5.4684	-6.9958	-4.6729	-4.1122	-5.9216	-4.0652	-1.6684	-3.8974	-1.7322	1.6382	-0.4935	1.3696	-0.1611	-4.6191	-3.7631	0.3088	2.2693	-0.0638	-0.4129	2.4036	-0.1074	3.1555
-6.6132	-5.596	-7.157	-4.7601	-4.1156	-5.9048	-3.9847	-1.4838	-3.6389	-1.4401	1.9638	-0.0504	1.8463	-0.1443	-4.9045	-4.1626	0.282	2.6083	0.0101	-0.2484	2.6218	-0.0739	3.1522
-6.7709	-5.6531	-7.2711	-4.8273	-4.0955	-5.8713	-3.9276	-1.3058	-3.3771	-1.1884	2.3163	0.3961	2.2592	-0.1208	-5.1495	-4.4547	0.2451	3.0011	0.0739	-0.0504	2.8265	-0.0906	3.1522
-6.9421	-5.737	-7.3886	-4.8642	-4.0652	-5.8142	-3.8403	-1.1279	-3.0817	-0.8862	2.6654	0.8426	2.7393	-0.0906	-5.3677	-4.7702	0.2048	3.3636	0.1443	0.1376	3.0414	-0.1208	3.1186
-7.063	-5.8109	-7.4725	-4.8978	-4.0451	-5.7538	-3.743	-0.9601	-2.8366	-0.6277	2.9608	1.2555	3.1522	-0.0671	-5.5792	-5.0824	0.1511	3.7228	0.2014	0.3223	3.2025	-0.1376	3.1119
-7.2073	-5.8713	-7.5665	-4.9414	-4.0082	-5.7034	-3.6725	-0.809	-2.5681	-0.376	3.2462	1.6785	3.5785	-0.0571	-5.7538	-5.3879	0.1041	4.072	0.2686	0.4733	3.3939	-0.1813	3.0884
-7.3383	-5.9451	-7.684	-4.975	-3.9847	-5.643	-3.5818	-0.6445	-2.3297	-0.1477	3.5281	2.0276	3.9578	-0.0369	-5.8948	-5.6665	0.0671	4.4211	0.3156	0.6378	3.5315	-0.2585	3.0515
-7.449	-5.9485	-7.7075	-4.9683	-3.9243	-5.5826	-3.5248	-0.5103	-2.0947	0.0772	3.7598	2.4036	4.3338	0.0235	-5.9753	-5.831	-0.0235	4.7702	0.3693	0.8157	3.6658	-0.3021	3.028
-7.5397	-6.0257	-7.8049	-5.0186	-3.894	-5.5322	-3.4644	-0.3894	-1.8698	0.2753	3.9813	2.7359	4.6426	0.0436	-6.0425	-6.019	-0.0974	5.0824	0.4196	0.9668	3.7933	-0.3558	3.0246
-7.6639	-6.0458	-7.8687	-5.0354	-3.8806	-5.4752	-3.4006	-0.2551	-1.6785	0.48	4.1962	3.0582	4.928	0.0974	-6.0727	-6.1063	-0.188	5.3543	0.4599	1.1111	3.8705	-0.3928	2.9877
-7.7579	-6.1096	-7.9391	-5.0656	-3.8336	-5.4449	-3.3804	-0.1544	-1.5005	0.6042	4.3539	3.3167	5.1999	0.1544	-6.113	-6.1029	-0.2988	5.6161	0.4767	1.2723	3.9478	-0.423	2.9541
-7.8452	-6.1499	-7.9962	-5.1395	-3.8	-5.4147	-3.367	-0.0806	-1.3293	0.7251	4.4614	3.5281	5.3812	0.2115	-6.0928	-6.0492	-0.4095	5.7806	0.4599	1.4301	3.9612	-0.4263	2.934
-7.9526	-6.1734	-8.0768	-5.1999	-3.8101	-5.3812	-3.3737	-0.0235	-1.2186	0.809	4.5319	3.6893	5.502	0.2686	-6.0861	-5.9552	-0.5304	5.9518	0.4465	1.5375	3.988	-0.4163	2.9071
-8.0399	-6.2137	-8.1204	-5.2838	-3.7967	-5.351	-3.3939	0.0369	-1.1011	0.8829	4.6057	3.847	5.6363	0.3558	-6.0324	-5.8377	-0.6949	6.0995	0.423	1.6483	4.0048	-0.3995	2.9037
-8.1372	-6.2775	-8.2043	-5.3577	-3.7833	-5.3577	-3.4308	0.0403	-1.0507	0.9097	4.5923	3.9142	5.6866	0.423	-6.0358	-5.7504	-0.8359	6.17	0.3693	1.702	3.9142	-0.3592	2.8635
-8.201	-6.301	-8.2681	-5.4114	-3.8235	-5.3577	-3.4845	0.0168	-0.9836	0.9467	4.5789	3.9679	5.7101	0.5002	-5.9753	-5.6699	-0.9735	6.2137	0.2988	1.7758	3.8504	-0.3256	2.8467
-8.2681	-6.3547	-8.3051	-5.4785	-3.8235	-5.3577	-3.5483	0.0201	-0.9467	0.9265	4.4949	3.988	5.6866	0.5673	-5.9216	-5.6598	-1.1279	6.2405	0.2283	1.8228	3.7396	-0.2618	2.8064
-8.3051	-6.3983	-8.3823	-5.5389	-3.8638	-5.3711	-3.5818	-0.0336	-0.9567	0.8963	4.4211	3.9612	5.6766	0.6412	-5.8646	-5.6531	-1.2454	6.2137	0.1141	1.8228	3.6087	-0.2048	2.7829
-8.3353	-6.3849	-8.4024	-5.5826	-3.8403	-5.351	-3.6087	-0.0705	-0.9467	0.8762	4.3036	3.931	5.6061	0.6848	-5.7806	-5.6497	-1.3562	6.1734	-0.0034	1.8396	3.4711	-0.1376	2.7628
-8.3588	-6.4117	-8.4259	-5.6229	-3.8605	-5.3778	-3.649	-0.1343	-0.9634	0.8258	4.1827	3.8403	5.5154	0.7251	-5.7068	-5.6799	-1.4233	6.123	-0.0772	1.8329	3.3267	-0.0806	2.7258
-8.3151	-6.3782	-8.4091	-5.5826	-3.8202	-5.3342	-3.6423	-0.1477	-0.9467	0.8325	4.0686	3.7833	5.4449	0.7553	-5.5524	-5.6363	-1.5005	6.0593	-0.1678	1.8665	3.1857	-0.0067	2.6956
-8.2681	-6.3815	-8.3856	-5.549	-3.8437	-5.3073	-3.6557	-0.1746	-0.9634	0.7922	3.8907	3.6893	5.3342	0.7721	-5.4651	-5.6094	-1.5173	6.0056	-0.2551	1.8463	3.0212	0.0839	2.6688
-8.1607	-6.2976	-8.2816	-5.4282	-3.7665	-5.22	-3.5886	-0.2014	-0.9064	0.7922	3.743	3.5953	5.2133	0.7654	-5.3073	-5.4919	-1.5274	5.8813	-0.3323	1.8564	2.8568	0.1813	2.605
-8.0298	-6.2305	-8.1943	-5.3308	-3.7195	-5.126	-3.5382	-0.2383	-0.9064	0.7419	3.5852	3.4778	5.0958	0.7755	-5.1093	-5.3644	-1.4938	5.784	-0.4129	1.8564	2.6956	0.3122	2.5748
-7.8754	-6.0895	-8.0466	-5.1999	-3.6356	-5.0388	-3.4375	-0.2417	-0.8359	0.7318	3.4677	3.4207	4.9783	0.7419	-4.9582	-5.1898	-1.467	5.6967	-0.4431	1.8732	2.5748	0.4599	2.5177
-7.6471	-5.9518	-7.8452	-4.9817	-3.5416	-4.8877	-3.3603	-0.2417	-0.7889	0.7419	3.3167	3.2831	4.8541	0.7285	-4.7668	-4.9347	-1.4133	5.5692	-0.4935	1.8832	2.4304	0.6177	2.5043
-7.4289	-5.7974	-7.637	-4.8071	-3.4006	-4.7198	-3.2428	-0.2585	-0.6982	0.7419	3.1891	3.1958	4.7333	0.6714	-4.5654	-4.7064	-1.3327	5.4483	-0.5371	1.853	2.3096	0.8325	2.511
-7.1671	-5.6161	-7.3685	-4.5923	-3.2898	-4.5486	-3.1454	-0.2383	-0.6512	0.7385	3.0347	3.1018	4.5889	0.6445	-4.3607	-4.3909	-1.2387	5.3207	-0.5841	1.8362	2.182	1.0272	2.4976
-6.8683	-5.4013	-7.0898	-4.364	-3.1488	-4.3405	-3.0246	-0.2451	-0.5505	0.7687	2.8769	2.9977	4.4312	0.564	-4.1089	-4.0518	-1.1279	5.173	-0.5673	1.7926	2.0544	1.2421	2.5143
-6.5326	-5.1596	-6.7374	-4.0686	-2.9877	-4.082	-2.8534	-0.1813	-0.4129	0.7922	2.7527	2.9306	4.3069	0.5338	-3.837	-3.6826	-1.0406	5.0186	-0.5505	1.7758	1.9504	1.4771	2.5446
-6.1935	-4.9347	-6.4218	-3.8336	-2.84	-3.8504	-2.6788	-0.1846	-0.3592	0.799	2.6083	2.793	4.1223	0.4868	-3.5449	-3.2529	-0.9299	4.8105	-0.5875	1.6953	1.8228	1.7288	2.5546
-5.8377	-4.6729	-6.0593	-3.5248	-2.6855	-3.5785	-2.5278	-0.1712	-0.2518	0.8057	2.4942	2.6923	3.9511	0.433	-3.2428	-2.8232	-0.8359	4.6292	-0.5707	1.6449	1.7154	1.9839	2.5848
-5.4449	-4.411	-5.6699	-3.2327	-2.4976	-3.2999	-2.3398	-0.1578	-0.1578	0.8124	2.3398	2.5613	3.7531	0.376	-2.934	-2.3633	-0.7452	4.3539	-0.5908	1.571	1.571	2.229	2.6285
-5.069	-4.1425	-5.2939	-2.9474	-2.3398	-3.0313	-2.1585	-0.1544	-0.047	0.8023	2.1786	2.4472	3.5516	0.3357	-2.6218	-1.9135	-0.658	4.0887	-0.6042	1.5106	1.4233	2.4774	2.6721
-4.6762	-3.8437	-4.8743	-2.6453	-2.182	-2.746	-1.9705	-0.1477	0.0235	0.8023	2.0377	2.2961	3.3267	0.2954	-2.2693	-1.4368	-0.574	3.7463	-0.6378	1.4099	1.3058	2.6688	2.7158
-4.2834	-3.555	-4.4614	-2.3499	-2.0142	-2.4741	-1.8262	-0.1611	0.1007	0.7553	1.8597	2.135	3.0783	0.2686	-1.9168	-0.9467	-0.5035	3.4207	-0.6613	1.326	1.1615	2.8769	2.7426
-3.884	-3.2864	-4.0451	-2.0377	-1.8564	-2.2055	-1.6583	-0.1477	0.1846	0.7083	1.6885	1.9638	2.8165	0.2182	-1.5945	-0.4935	-0.423	3.0414	-0.6815	1.2018	1.0138	3.075	2.8064
-3.4879	-3.0112	-3.6121	-1.7389	-1.6953	-1.9336	-1.4972	-0.1981	0.2417	0.6647	1.5173	1.7859	2.5613	0.2014	-1.2152	-0.047	-0.3793	2.6553	-0.6949	1.0944	0.8359	3.2428	2.8568
-3.1119	-2.7258	-3.1958	-1.4603	-1.5341	-1.6281	-1.2991	-0.2081	0.3223	0.6277	1.3428	1.6281	2.2961	0.1779	-0.8493	0.386	-0.3357	2.2424	-0.7318	0.9601	0.658	3.4442	2.9037
-2.7359	-2.4673	-2.793	-1.1682	-1.4066	-1.373	-1.1682	-0.235	0.3659	0.564	1.185	1.467	2.0108	0.1645	-0.4868	0.8392	-0.2887	1.796	-0.7755	0.8191	0.4868	3.6221	2.9541
-2.3297	-2.1719	-2.37	-0.8997	-1.2723	-1.1044	-1.0339	-0.2585	0.4163	0.5203	1.0205	1.3159	1.7288	0.1276	-0.1108	1.2387	-0.2451	1.3797	-0.7956	0.6882	0.2921	3.8269	2.981
-1.9537	-1.8933	-1.9504	-0.6076	-1.1111	-0.8292	-0.8997	-0.2719	0.4666	0.4666	0.8896	1.1649	1.4603	0.094	0.2417	1.6281	-0.1981	0.9433	-0.8426	0.5304	0.1141	4.0417	3.0347
-1.5744	-1.6248	-1.5677	-0.3592	-0.9668	-0.5606	-0.7352	-0.2618	0.5203	0.423	0.7486	1.0272	1.2085	0.0906	0.5606	1.9907	-0.1578	0.5338	-0.8862	0.3928	-0.0369	4.2633	3.0917
-1.2018	-1.3428	-1.1615	-0.0705	-0.8292	-0.3055	-0.5975	-0.282	0.5774	0.3961	0.6009	0.9332	0.9869	0.0537	0.9232	2.3364	-0.1041	0.1242	-0.9131	0.2585	-0.2081	4.4513	3.1354
-0.8493	-1.0742	-0.762	0.2014	-0.6647	-0.0571	-0.4263	-0.2719	0.6311	0.3525	0.5002	0.8124	0.7352	0.0235	1.2286	2.6218	-0.0504	-0.2954	-0.9198	0.0906	-0.3525	4.6762	3.1924
-0.5035	-0.8124	-0.4028	0.4666	-0.5371	0.2014	-0.2753	-0.2853	0.7318	0.3625	0.3928	0.7385	0.5472	0.0034	1.561	2.8769	0	-0.6445	-0.9634	-0.0369	-0.5002	4.8843	3.2227
-0.1578	-0.5203	-0.0067	0.7486	-0.3424	0.47	-0.1007	-0.2451	0.809	0.376	0.3021	0.6781	0.376	-0.0034	1.8665	3.0951	0.0269	-0.9903	-0.9567	-0.141	-0.621	5.1126	3.2629
0.141	-0.2887	0.2921	0.9903	-0.2316	0.6747	0.0134	-0.2383	0.8527	0.3693	0.2383	0.6076	0.1846	-0.0269	2.1686	3.2227	0.0604	-1.3226	-0.9903	-0.2719	-0.7755	5.3342	3.273
0.4935	-0.0403	0.6378	1.2421	-0.0671	0.9232	0.1813	-0.2081	0.9534	0.386	0.1746	0.5673	0.0638	-0.0336	2.4673	3.3167	0.0671	-1.6113	-1.0272	-0.3928	-0.8929	5.5826	3.2932
0.7687	0.1779	0.9433	1.4972	0.0671	1.1145	0.3055	-0.2048	1.0306	0.3827	0.1074	0.527	-0.0839	-0.0604	2.7158	3.3804	0.1208	-1.9	-1.0339	-0.4901	-1.0507	5.8276	3.3133
1.0474	0.4028	1.2354	1.7355	0.1981	1.2891	0.4532	-0.1981	1.0709	0.3995	0.0336	0.4666	-0.1981	-0.0537	2.9608	3.4341	0.1276	-2.1619	-1.0574	-0.5841	-1.1581	6.0995	3.3301
1.2823	0.5875	1.4871	1.9604	0.3122	1.4703	0.5875	-0.1611	1.1279	0.4297	0.0101	0.4666	-0.2719	-0.0638	3.1757	3.4811	0.1242	-2.3532	-1.1111	-0.6613	-1.2891	6.3379	3.3469
1.5509	0.7587	1.7087	2.1988	0.4129	1.6415	0.7352	-0.1712	1.1917	0.4196	-0.0269	0.4532	-0.376	-0.0604	3.3804	3.4979	0.1343	-2.5613	-1.138	-0.7654	-1.3931	6.5662	3.3401
1.7422	0.9198	1.89	2.3969	0.4868	1.7288	0.8224	-0.2048	1.1951	0.4398	-0.1208	0.3894	-0.4666	-0.0638	3.5919	3.5349	0.1309	-2.7426	-1.1514	-0.8392	-1.5106	6.7743	3.3167
1.9101	1.044	2.0578	2.5781	0.5472	1.8362	0.9198	-0.2081	1.1917	0.4398	-0.1712	0.3323	-0.5405	-0.0571	3.7363	3.5785	0.1309	-2.8903	-1.1951	-0.8896	-1.6415	6.9489	3.3167
2.088	1.1615	2.1854	2.7728	0.6042	1.9202	1.0339	-0.2484	1.2018	0.4196	-0.2518	0.2753	-0.611	-0.0571	3.8907	3.6456	0.1208	-3.0447	-1.2286	-0.9869	-1.7523	7.11	3.3167
2.1786	1.2085	2.2894	2.9272	0.6009	1.9302	1.1078	-0.3323	1.1548	0.4062	-0.3323	0.1913	-0.7016	-0.0638	3.9914	3.6926	0.1208	-3.179	-1.2857	-1.0373	-1.8799	7.2745	3.2999
2.3096	1.2689	2.3566	3.075	0.5908	1.9437	1.1346	-0.3827	1.1179	0.3894	-0.4095	0.1175	-0.7721	-0.0403	4.0619	3.7195	0.0974	-3.2428	-1.3562	-1.1212	-1.9806	7.4188	3.273
2.3801	1.3126	2.4136	3.2059	0.564	1.9571	1.2253	-0.4599	1.0507	0.3592	-0.4935	0.0336	-0.8157	-0.0336	4.1223	3.79	0.0806	-3.2932	-1.4435	-1.1716	-2.1115	7.543	3.2663
2.4606	1.3428	2.4573	3.3334	0.5573	1.9336	1.2689	-0.5707	0.95	0.3357	-0.5875	-0.0873	-0.8694	-0.0201	4.1324	3.7766	0.0571	-3.3334	-1.5207	-1.2085	-2.229	7.684	3.2629
2.4875	1.3327	2.4371	3.4543	0.48	1.8765	1.2857	-0.6882	0.8459	0.2719	-0.7117	-0.2182	-0.9198	-0.0134	4.1693	3.7967	0.0369	-3.3301	-1.6113	-1.2589	-2.37	7.8049	3.2562
2.5009	1.2823	2.4304	3.5315	0.376	1.796	1.2857	-0.8258	0.7117	0.2048	-0.8258	-0.386	-0.9601	0.0067	4.1122	3.7363	0.0134	-3.3066	-1.6919	-1.2958	-2.4673	7.9257	3.2394
2.5076	1.2555	2.4036	3.5718	0.3189	1.702	1.2689	-0.9332	0.5807	0.188	-0.9332	-0.5203	-0.9836	0.0235	4.0619	3.7195	-0.0134	-3.2764	-1.8094	-1.3126	-2.5848	8.0331	3.226
2.4841	1.2051	2.3499	3.6087	0.2148	1.571	1.2723	-1.0641	0.386	0.1175	-1.0641	-0.7083	-1.044	0.0201	3.9746	3.6523	-0.0302	-3.2294	-1.8832	-1.3428	-2.6956	8.1204	3.2462
2.4203	1.1346	2.2559	3.6154	0.1276	1.4502	1.2589	-1.2018	0.2148	0.094	-1.2018	-0.8963	-1.0608	0.0604	3.9142	3.5919	-0.0974	-3.1421	-1.9705	-1.3058	-2.7628	8.1976	3.2394
2.3767	1.0675	2.1585	3.602	0.0101	1.3327	1.2186	-1.3361	0.0369	0.0134	-1.3293	-1.0843	-1.1212	0.0772	3.8269	3.5315	-0.1343	-3.0112	-2.0981	-1.2991	-2.8568	8.2648	3.2529
2.2827	0.9802	2.0779	3.5651	-0.1208	1.1716	1.1514	-1.5173	-0.1645	-0.0974	-1.4703	-1.2823	-1.1346	0.1041	3.7228	3.5013	-0.1813	-2.897	-2.2324	-1.2756	-2.9575	8.2849	3.2562
2.1652	0.8661	1.9537	3.5114	-0.2585	0.9869	1.0709	-1.6818	-0.3793	-0.1712	-1.618	-1.4771	-1.1749	0.1175	3.6288	3.5013	-0.2216	-2.7762	-2.3633	-1.2488	-3.0246	8.295	3.273
2.0578	0.7721	1.8228	3.4644	-0.3827	0.8694	1.0239	-1.8195	-0.5807	-0.2316	-1.7288	-1.6818	-1.1984	0.1544	3.5483	3.4912	-0.282	-2.6251	-2.4707	-1.2286	-3.1052	8.2748	3.2965
1.9504	0.6647	1.6919	3.3469	-0.5304	0.7083	0.9332	-1.9504	-0.8023	-0.3391	-1.8698	-1.8933	-1.2119	0.1746	3.4476	3.5147	-0.3357	-2.4405	-2.5949	-1.2018	-3.1723	8.2547	3.3133
1.7859	0.5472	1.5408	3.2562	-0.6546	0.5304	0.8359	-2.0847	-0.9903	-0.3961	-1.994	-2.0981	-1.2521	0.2148	3.3234	3.5214	-0.3961	-2.2827	-2.7023	-1.1649	-3.1958	8.1943	3.3636
1.6718	0.4431	1.4233	3.1757	-0.7553	0.3659	0.762	-2.2189	-1.1749	-0.4599	-2.0947	-2.2794	-1.2253	0.2316	3.2294	3.5449	-0.4431	-2.1082	-2.7863	-1.0977	-3.2193	8.1473	3.4006
1.5744	0.3726	1.3293	3.0984	-0.8493	0.2249	0.7117	-2.2995	-1.3696	-0.4868	-2.1719	-2.4573	-1.2018	0.2652	3.1589	3.5886	-0.5002	-1.9067	-2.8534	-1.0138	-3.2126	8.0634	3.4274
1.4502	0.2753	1.2119	3.0347	-0.9164	0.1343	0.705	-2.37	-1.4972	-0.5035	-2.2156	-2.5613	-1.1682	0.2921	3.0884	3.6389	-0.5505	-1.7188	-2.9272	-0.9299	-3.2059	7.9794	3.4711
1.3361	0.2081	1.1346	3.0145	-0.9601	0.0638	0.6882	-2.3935	-1.618	-0.4666	-2.2122	-2.6654	-1.0675	0.3189	3.038	3.7195	-0.6244	-1.4636	-2.9541	-0.8392	-3.1555	7.8955	3.4979
1.2756	0.1511	1.1044	2.9709	-0.997	0.0034	0.705	-2.4203	-1.712	-0.4532	-2.2391	-2.7359	-0.9903	0.3357	2.9977	3.8	-0.6815	-1.2454	-2.9575	-0.7889	-3.0984	7.8082	3.5449
1.1481	0.1141	1.0373	2.9507	-1.0373	-0.0604	0.7318	-2.4304	-1.8027	-0.3726	-2.2156	-2.7829	-0.8829	0.376	2.9071	3.8605	-0.7452	-0.9769	-2.9742	-0.7217	-3.0481	7.7277	3.5751
1.0776	0.0336	0.9601	2.934	-1.0406	-0.1007	0.8023	-2.4103	-1.8597	-0.2887	-2.1854	-2.8165	-0.7385	0.4129	2.8702	3.9679	-0.8023	-0.7251	-2.9709	-0.6747	-2.944	7.6538	3.6221
0.9668	-0.0269	0.9131	2.9172	-1.0474	-0.1276	0.8426	-2.4103	-1.9101	-0.2182	-2.135	-2.8299	-0.6042	0.4398	2.7594	4.0115	-0.856	-0.4465	-2.9742	-0.6378	-2.8635	7.6169	3.6356
0.8493	-0.0772	0.8459	2.84	-1.0641	-0.1746	0.8896	-2.3599	-1.9302	-0.0974	-2.0779	-2.8232	-0.4095	0.47	2.699	4.0485	-0.9198	-0.1678	-2.9675	-0.5908	-2.7829	7.6236	3.6591
0.7117	-0.1611	0.7855	2.756	-1.0809	-0.235	0.8997	-2.3062	-1.9571	-0.0168	-2.0074	-2.7896	-0.235	0.4968	2.5714	4.0686	-0.9668	0.0906	-2.981	-0.527	-2.6923	7.627	3.6591
0.5975	-0.2417	0.7117	2.662	-1.0709	-0.2585	0.9299	-2.2357	-1.9571	0.1041	-1.9135	-2.7426	-0.0436	0.5304	2.5076	4.119	-1.0474	0.3558	-2.9507	-0.4633	-2.5681	7.6706	3.6725
0.4297	-0.3021	0.6009	2.5378	-1.0641	-0.2887	0.9198	-2.1652	-1.947	0.1746	-1.8396	-2.6788	0.1376	0.564	2.3969	4.1156	-1.1078	0.5707	-2.9541	-0.3995	-2.4808	7.7344	3.6859
0.2652	-0.4028	0.5237	2.4103	-1.0675	-0.3088	0.9164	-2.1014	-1.9403	0.2853	-1.7355	-2.5949	0.3156	0.6009	2.2861	4.0686	-1.1716	0.8124	-2.9373	-0.3088	-2.3666	7.8418	3.6859
0.1074	-0.4901	0.433	2.2559	-1.044	-0.3558	0.8896	-1.9873	-1.9067	0.3659	-1.5945	-2.4908	0.527	0.6345	2.1652	4.025	-1.2689	1.0507	-2.9037	-0.2216	-2.2223	7.9593	3.6926
-0.0705	-0.6177	0.3256	2.0847	-1.0541	-0.386	0.8627	-1.9135	-1.8866	0.4498	-1.4905	-2.3901	0.6982	0.6815	2.0477	3.8806	-1.3361	1.2656	-2.9004	-0.1141	-2.1484	8.0835	3.7128
-0.2719	-0.705	0.1913	1.9168	-1.044	-0.4196	0.8258	-1.7758	-1.8262	0.5371	-1.3226	-2.2559	0.8963	0.7318	1.9067	3.6926	-1.4435	1.4972	-2.8769	0.0067	-2.0108	8.2144	3.7329
-0.4431	-0.8191	0.0806	1.7355	-1.0239	-0.4465	0.8292	-1.6449	-1.7725	0.6445	-1.1514	-2.0981	1.1111	0.7755	1.7758	3.4207	-1.5308	1.7087	-2.85	0.141	-1.853	8.3588	3.7497
-0.5975	-0.9164	-0.0403	1.5576	-1.0172	-0.4767	0.7654	-1.5173	-1.7087	0.7285	-0.9937	-1.9336	1.2991	0.8292	1.6214	3.1052	-1.618	1.9	-2.8131	0.2417	-1.7288	8.5098	3.7967
-0.7721	-1.0239	-0.1443	1.3763	-0.9937	-0.5035	0.7285	-1.3898	-1.6248	0.8292	-0.8124	-1.7758	1.4972	0.856	1.4905	2.7158	-1.6953	2.1014	-2.7661	0.3894	-1.5811	8.6508	3.8269
-0.9769	-1.0876	-0.2618	1.2152	-0.9702	-0.527	0.6815	-1.2421	-1.5375	0.9299	-0.6177	-1.5643	1.7389	0.8862	1.3193	2.3264	-1.749	2.3264	-2.6788	0.517	-1.4133	8.7952	3.8437
-1.138	-1.1615	-0.3558	1.0641	-0.9164	-0.5338	0.6747	-1.0608	-1.4066	1.0339	-0.3995	-1.3394	1.937	0.9332	1.1783	1.9571	-1.8195	2.5278	-2.6184	0.658	-1.2286	8.9429	3.8974
-1.2756	-1.2421	-0.4834	0.9265	-0.8795	-0.5304	0.6412	-0.8795	-1.3025	1.1481	-0.1678	-1.1279	2.1451	0.9332	1.0071	1.5576	-1.8396	2.709	-2.5345	0.7654	-1.0541	9.0805	3.9209
-1.4536	-1.2991	-0.5774	0.809	-0.8258	-0.5472	0.621	-0.7016	-1.1682	1.2656	0.0638	-0.9265	2.3935	0.95	0.8493	1.1783	-1.8497	2.9272	-2.4405	0.8896	-0.856	9.198	3.9478
-1.5576	-1.3058	-0.6647	0.7117	-0.7318	-0.5203	0.6277	-0.47	-1.0138	1.3965	0.2954	-0.6815	2.6151	0.95	0.7016	0.8694	-1.8631	3.1152	-2.2995	1.0339	-0.6479	9.2853	3.9679
-1.6953	-1.3461	-0.7553	0.6143	-0.6647	-0.5136	0.6412	-0.2719	-0.8896	1.5173	0.5405	-0.4498	2.8433	0.9232	0.5673	0.5673	-1.8295	3.3435	-2.182	1.1481	-0.423	9.3457	3.9847
-1.7926	-1.3226	-0.8459	0.5405	-0.5539	-0.4834	0.658	-0.0604	-0.6949	1.6885	0.799	-0.1712	3.1119	0.9399	0.4364	0.329	-1.8228	3.5953	-2.0377	1.3092	-0.1913	9.3994	4.0015
-1.9034	-1.3428	-0.903	0.4465	-0.4767	-0.423	0.668	0.141	-0.5472	1.8295	1.0608	0.0638	3.3435	0.9131	0.2417	0.0806	-1.7691	3.8101	-1.8799	1.4401	0.0269	9.4095	4.035
-1.9806	-1.3361	-0.9836	0.3894	-0.3458	-0.3793	0.7117	0.3827	-0.3928	1.9739	1.326	0.3223	3.6188	0.8896	0.1007	-0.1007	-1.7422	4.0552	-1.702	1.5442	0.2853	9.4128	4.072
-2.0847	-1.3092	-1.0608	0.3525	-0.2417	-0.3323	0.762	0.5942	-0.1981	2.1451	1.5979	0.5841	3.8739	0.8728	-0.0571	-0.2719	-1.6986	4.2801	-1.5643	1.6885	0.5103	9.4128	4.0585
-2.1384	-1.2823	-1.1179	0.3088	-0.1443	-0.2887	0.809	0.799	-0.0034	2.3196	1.8698	0.8594	4.1324	0.8527	-0.2182	-0.4431	-1.6684	4.5151	-1.3931	1.8195	0.7687	9.3994	4.0955
-2.2357	-1.2488	-1.185	0.2887	-0.0403	-0.2216	0.8728	1.0104	0.1913	2.5076	2.1317	1.1313	4.3774	0.8292	-0.3491	-0.5908	-1.6516	4.7769	-1.2286	1.9403	1.0373	9.3826	4.129
-2.323	-1.2555	-1.2521	0.2451	0.0571	-0.2115	0.9332	1.2119	0.329	2.605	2.3599	1.3495	4.5956	0.8292	-0.5237	-0.7687	-1.6214	4.9817	-1.1078	2.041	1.2555	9.3524	4.1559
-2.4271	-1.2488	-1.3361	0.1947	0.1578	-0.1645	0.9567	1.3629	0.47	2.7695	2.5848	1.5945	4.8004	0.8292	-0.6647	-0.9735	-1.6214	5.2133	-0.9634	2.1686	1.4737	9.3356	4.176
-2.511	-1.2421	-1.4133	0.1947	0.2383	-0.1578	0.9836	1.5274	0.6345	2.8937	2.7963	1.8094	5.032	0.8292	-0.8157	-1.2051	-1.6214	5.4483	-0.8224	2.2592	1.7087	9.3155	4.2096
-2.558	-1.2152	-1.4401	0.1981	0.329	-0.0772	1.0541	1.702	0.8124	3.0716	3.028	2.0746	5.2704	0.8594	-0.9366	-1.4502	-1.6583	5.6665	-0.6747	2.3935	1.9403	9.3121	4.2264
-2.6285	-1.2051	-1.5106	0.1678	0.3928	-0.0705	1.0776	1.843	0.9366	3.2092	3.2462	2.276	5.4282	0.8527	-1.0776	-1.7221	-1.6684	5.8545	-0.5707	2.4338	2.1149	9.2953	4.2432
-2.6721	-1.1481	-1.5173	0.2216	0.5505	0.0134	1.1884	2.0276	1.1279	3.3737	3.461	2.5143	5.6799	0.8762	-1.185	-1.9202	-1.7255	6.113	-0.423	2.5815	2.3767	9.2853	4.2365
-2.7292	-1.1246	-1.5509	0.235	0.658	0.0806	1.2488	2.1954	1.2857	3.5651	3.6758	2.7393	5.9015	0.8762	-1.279	-2.1048	-1.749	6.348	-0.3189	2.6956	2.5983	9.2752	4.2264
-2.7325	-1.0776	-1.5543	0.2753	0.7452	0.141	1.3428	2.3297	1.4435	3.7228	3.8571	2.934	6.123	0.9064	-1.3763	-2.2693	-1.7725	6.6031	-0.1712	2.803	2.8165	9.2719	4.2264
-2.7258	-1.0172	-1.5308	0.3391	0.8896	0.2249	1.4771	2.5076	1.618	3.9142	4.0921	3.1857	6.3513	0.9131	-1.4737	-2.3499	-1.7926	6.8381	-0.0269	2.9239	3.0515	9.245	4.213
-2.7493	-0.9668	-1.5106	0.3659	0.9937	0.2887	1.5643	2.6755	1.806	4.0753	4.3137	3.3972	6.5796	0.903	-1.561	-2.3969	-1.7825	7.0966	0.094	3.0347	3.2697	9.2316	4.1995
-2.7191	-0.8862	-1.4871	0.4431	1.1145	0.3995	1.6718	2.8366	1.9839	4.2734	4.5218	3.6255	6.8011	0.9232	-1.6248	-2.4036	-1.8094	7.3618	0.2451	3.2092	3.4912	9.2081	4.1559
-2.6855	-0.8157	-1.4233	0.4834	1.2555	0.5136	1.7792	3.0112	2.1518	4.458	4.7266	3.8403	7.0093	0.9399	-1.6885	-2.4002	-1.8262	7.6102	0.3693	3.3435	3.7061	9.2114	4.1626
-2.6822	-0.762	-1.3864	0.5304	1.3663	0.6042	1.8765	3.1522	2.2995	4.6359	4.8978	4.0149	7.204	0.9265	-1.7389	-2.37	-1.8362	7.8653	0.4666	3.5046	3.9041	9.2148	4.1458
-2.6352	-0.705	-1.326	0.5606	1.5005	0.6815	1.9739	3.3133	2.4673	4.7803	5.0757	4.223	7.3853	0.9433	-1.8329	-2.3599	-1.8396	8.0701	0.5942	3.6423	4.0921	9.245	4.1324
-2.6251	-0.6613	-1.3159	0.6143	1.5778	0.7419	2.041	3.4308	2.5882	4.9078	5.2234	4.3942	7.5464	0.9299	-1.8732	-2.3364	-1.843	8.2614	0.7251	3.7766	4.2499	9.2618	4.0988
-2.6117	-0.6311	-1.2656	0.6479	1.6684	0.8057	2.1384	3.5315	2.7124	5.0555	5.3812	4.5386	7.684	0.9399	-1.9	-2.2726	-1.8665	8.4393	0.8057	3.941	4.4345	9.2987	4.0988
-2.5848	-0.5942	-1.2521	0.6781	1.7523	0.8661	2.1954	3.6523	2.7896	5.1462	5.5255	4.6863	7.825	0.9399	-1.9705	-2.1988	-1.8597	8.6105	0.9366	4.0585	4.5856	9.3457	4.1022
-2.5815	-0.5875	-1.1783	0.6747	1.8295	0.8929	2.2559	3.7396	2.9004	5.2402	5.6598	4.787	7.9358	0.9366	-2.0175	-2.1451	-1.843	8.775	1.0172	4.1995	4.7299	9.4028	4.1089
-2.5513	-0.5539	-1.1682	0.7083	1.8765	0.9702	2.2995	3.8	2.9642	5.3308	5.7639	4.8978	8.0231	0.9467	-2.0041	-2.0578	-1.843	8.9127	1.1145	4.3204	4.8575	9.4632	4.1156
-2.5378	-0.5304	-1.1212	0.715	1.9437	0.9937	2.3364	3.8705	3.0179	5.4013	5.8276	4.9783	8.0835	0.9299	-2.0612	-1.9907	-1.806	9.0268	1.1917	4.4144	4.9582	9.527	4.1391
-2.5479	-0.527	-1.1011	0.7083	1.9672	1.0004	2.3734	3.9209	3.0548	5.4382	5.9048	5.0287	8.1238	0.8963	-2.1149	-1.9638	-1.7725	9.1241	1.2756	4.5016	5.0824	9.621	4.1861
-2.5076	-0.5035	-1.0541	0.7452	2.0209	1.0574	2.4103	3.9679	3.1052	5.4651	6.0022	5.069	8.1775	0.8862	-2.1249	-1.9638	-1.7557	9.1846	1.3629	4.5923	5.1898	9.7116	4.2297
-2.4539	-0.47	-1.0104	0.7755	2.0444	1.0675	2.4506	3.9914	3.1186	5.4953	6.0257	5.1093	8.1708	0.8795	-2.135	-1.9403	-1.7288	9.2249	1.4368	4.6628	5.2637	9.7922	4.2767
-2.4741	-0.4834	-1.0205	0.8191	2.0544	1.0608	2.4573	3.9713	3.1152	5.5054	6.0526	5.1227	8.1708	0.856	-2.1854	-1.9537	-1.6885	9.2584	1.4905	4.7232	5.3409	9.8627	4.3137
-2.4405	-0.4834	-0.9937	0.8325	2.0511	1.0742	2.464	3.9578	3.1186	5.4953	6.0492	5.0824	8.154	0.856	-2.2189	-2.0276	-1.6718	9.2819	1.5442	4.7534	5.4047	9.9466	4.3506
-2.4304	-0.5002	-0.9634	0.8426	2.0074	1.0406	2.4472	3.9209	3.0515	5.4517	6.0257	5.0488	8.0801	0.8392	-2.2122	-2.0645	-1.6449	9.2584	1.561	4.7568	5.4181	10.0272	4.4144
-2.4036	-0.5069	-0.9769	0.8694	1.9873	1.0037	2.4472	3.8739	3.0078	5.3912	5.9653	4.9884	8.0197	0.8325	-2.2055	-2.0813	-1.6315	9.2618	1.5912	4.7769	5.4282	10.0809	4.4312
-2.4237	-0.5438	-1.0037	0.8224	1.937	0.9836	2.3834	3.8	2.944	5.3342	5.9082	4.9078	7.9358	0.8191	-2.1921	-2.0779	-1.608	9.2148	1.5979	4.7702	5.4349	10.1547	4.4815
-2.4069	-0.5875	-1.0172	0.7654	1.8597	0.9232	2.3599	3.7296	2.8735	5.267	5.831	4.7971	7.8452	0.8258	-2.1686	-2.0679	-1.5845	9.1409	1.5811	4.7299	5.3979	10.2118	4.4949
-2.4036	-0.6177	-1.0474	0.7251	1.7926	0.8527	2.2726	3.5986	2.7426	5.1428	5.7169	4.6796	7.7008	0.7956	-2.1384	-2.0309	-1.5576	9.0503	1.5778	4.7064	5.3442	10.2722	4.5218
-2.4338	-0.658	-1.0944	0.6949	1.7053	0.799	2.182	3.5046	2.6419	5.0589	5.6195	4.5587	7.5732	0.7922	-2.1384	-1.9705	-1.5341	8.9798	1.5442	4.6527	5.2939	10.3192	4.5486
-2.464	-0.6982	-1.1447	0.6177	1.608	0.7318	2.1115	3.3771	2.5815	4.9347	5.5054	4.4479	7.4557	0.7822	-2.088	-1.8832	-1.524	8.8858	1.524	4.5923	5.2032	10.3629	4.5688
-2.4774	-0.7352	-1.1917	0.5573	1.5274	0.6479	1.9907	3.2495	2.464	4.8306	5.361	4.317	7.3148	0.7721	-2.088	-1.7523	-1.5005	8.8052	1.4972	4.5218	5.1563	10.4031	4.5688
-2.4606	-0.8057	-1.2421	0.4666	1.4368	0.564	1.8765	3.132	2.3633	4.7232	5.2267	4.1693	7.1805	0.7486	-2.0645	-1.6147	-1.4636	8.718	1.4703	4.4983	5.0958	10.4367	4.5889
-2.5311	-0.8661	-1.3361	0.3558	1.326	0.4498	1.7557	2.991	2.2525	4.5621	5.079	4.0115	7.0395	0.7285	-2.0712	-1.4972	-1.4267	8.5971	1.4099	4.4446	5.0052	10.4871	4.5923
-2.5916	-0.9131	-1.3931	0.2652	1.2018	0.3558	1.6449	2.8333	2.1417	4.4177	4.9313	3.884	6.8817	0.715	-2.0679	-1.3864	-1.3965	8.4628	1.3361	4.4009	4.9045	10.5307	4.5923
-2.6184	-0.9601	-1.5005	0.1276	1.0641	0.2585	1.4871	2.6889	2.0108	4.2599	4.7668	3.7262	6.7038	0.6949	-2.0511	-1.2857	-1.3596	8.3286	1.2891	4.3271	4.8071	10.5542	4.6024
-2.7158	-1.0507	-1.608	0.0134	0.9399	0.1343	1.3193	2.5244	1.8732	4.1089	4.6158	3.555	6.5427	0.6747	-2.0813	-1.2286	-1.3092	8.1708	1.2286	4.2767	4.6964	10.5811	4.6158
-2.7762	-1.1078	-1.7188	-0.1242	0.7889	0.0201	1.1548	2.37	1.7456	3.9343	4.4312	3.3804	6.3412	0.658	-2.0813	-1.2152	-1.2823	7.9962	1.1481	4.2029	4.5789	10.6079	4.6393
-2.8467	-1.2186	-1.8564	-0.282	0.621	-0.1309	0.9802	2.1652	1.5979	3.7296	4.2566	3.1891	6.1264	0.6445	-2.088	-1.2253	-1.2589	7.7646	1.0507	4.1156	4.4479	10.618	4.6494
-2.9608	-1.3193	-1.9907	-0.4599	0.47	-0.2786	0.7654	1.9604	1.4166	3.4778	4.0518	2.9541	5.8713	0.6412	-2.1317	-1.3226	-1.2555	7.5833	0.9668	4.025	4.3338	10.6448	4.6561
-3.0917	-1.4401	-2.1686	-0.5908	0.2887	-0.4633	0.5875	1.7557	1.2354	3.273	3.8135	2.756	5.6766	0.6311	-2.1417	-1.42	-1.232	7.3752	0.856	3.9478	4.1928	10.6616	4.6628
-3.1857	-1.5744	-2.3096	-0.7788	0.094	-0.6277	0.3726	1.5106	1.0608	3.0447	3.6121	2.5278	5.4416	0.6311	-2.182	-1.5341	-1.2286	7.1503	0.7687	3.8336	4.0283	10.6683	4.6527
-3.2764	-1.702	-2.4808	-0.9097	-0.1074	-0.8057	0.1712	1.2756	0.8997	2.8165	3.3804	2.2995	5.173	0.6277	-2.2021	-1.6147	-1.2219	6.9421	0.6412	3.7061	3.8705	10.6583	4.646
-3.3939	-1.8463	-2.6721	-1.1011	-0.3223	-1.0205	-0.0235	1.0675	0.6479	2.5513	3.1018	2.0309	4.9078	0.621	-2.2223	-1.7389	-1.2051	6.6937	0.5002	3.5718	3.6658	10.665	4.6426
-3.4912	-1.9705	-2.84	-1.2152	-0.517	-1.1816	-0.2551	0.8224	0.423	2.3264	2.8735	1.7859	4.6594	0.611	-2.2223	-1.8262	-1.2018	6.499	0.3625	3.4543	3.5046	10.6784	4.6225
-3.6255	-2.1317	-3.0179	-1.3696	-0.715	-1.373	-0.4196	0.5774	0.2115	2.0847	2.6218	1.5576	4.4077	0.6177	-2.2122	-1.8832	-1.2018	6.2808	0.2451	3.3401	3.3435	10.6717	4.6024
-3.7128	-2.2626	-3.1656	-1.4871	-0.9366	-1.571	-0.6076	0.3323	-0.0168	1.843	2.3532	1.2823	4.1357	0.611	-2.1652	-1.9	-1.2018	6.0492	0.1041	3.1857	3.1387	10.6818	4.5822
-3.8437	-2.4405	-3.3502	-1.608	-1.1548	-1.7725	-0.7755	0.0671	-0.2283	1.618	2.0813	1.0406	3.8907	0.6076	-2.1182	-1.8933	-1.185	5.8578	-0.0537	3.075	2.9105	10.712	4.5621
-3.9343	-2.5513	-3.508	-1.7087	-1.3428	-1.9571	-0.9232	-0.1611	-0.4498	1.3931	1.8295	0.8023	3.6154	0.6009	-2.0679	-1.843	-1.185	5.6497	-0.1981	2.9608	2.7292	10.7523	4.5453
-3.9981	-2.709	-3.6188	-1.7188	-1.5408	-2.0981	-1.0172	-0.3995	-0.6345	1.2286	1.5945	0.574	3.4409	0.6076	-2.0074	-1.759	-1.1783	5.4919	-0.3256	2.8467	2.5278	10.8362	4.5453
-4.0955	-2.85	-3.7497	-1.7691	-1.7389	-2.2189	-1.1078	-0.5841	-0.7822	1.0641	1.3797	0.376	3.2495	0.6042	-1.9269	-1.5878	-1.185	5.3778	-0.4465	2.7493	2.3398	10.9302	4.5587
-4.1525	-2.9474	-3.8538	-1.759	-1.9034	-2.3398	-1.1649	-0.7922	-0.95	0.9198	1.1548	0.1813	3.0615	0.611	-1.843	-1.4603	-1.185	5.2502	-0.5774	2.6385	2.1384	11.0779	4.5889
-4.1962	-3.0447	-3.9142	-1.759	-2.0242	-2.4103	-1.2286	-0.9467	-1.0944	0.8292	0.9869	0.0369	2.9138	0.6076	-1.7792	-1.2119	-1.1984	5.126	-0.6949	2.5513	1.9739	11.2625	4.6057
-4.223	-3.132	-3.9645	-1.712	-2.1417	-2.4875	-1.2622	-1.0977	-1.2085	0.7184	0.809	-0.0906	2.7661	0.621	-1.6751	-0.9836	-1.2085	4.9951	-0.7922	2.4606	1.7892	11.4404	4.6359
-4.2432	-3.2193	-4.0015	-1.6986	-2.2592	-2.5513	-1.279	-1.2521	-1.3394	0.6311	0.6445	-0.2417	2.662	0.6277	-1.6046	-0.7016	-1.2018	4.928	-0.9366	2.3834	1.6281	11.6721	4.6796
-4.2868	-3.2864	-4.0417	-1.6617	-2.3599	-2.5916	-1.3226	-1.3797	-1.4166	0.5472	0.5002	-0.3424	2.5613	0.6177	-1.5073	-0.4465	-1.1884	4.8373	-1.0373	2.3163	1.5005	11.9003	4.7467
-4.2834	-3.3099	-4.0518	-1.608	-2.4203	-2.6352	-1.2991	-1.4536	-1.4838	0.4901	0.376	-0.4297	2.4472	0.6177	-1.4133	-0.1779	-1.1783	4.7064	-1.1111	2.2424	1.3361	12.1252	4.8004
-4.2667	-3.3603	-4.0417	-1.5475	-2.4808	-2.6218	-1.3159	-1.571	-1.5442	0.4532	0.2585	-0.5103	2.3431	0.5942	-1.3327	0.0436	-1.1749	4.6191	-1.2085	2.1652	1.1917	12.377	4.8776
-4.2566	-3.3636	-4.0015	-1.4401	-2.4976	-2.5815	-1.2756	-1.6147	-1.5576	0.4431	0.1578	-0.5472	2.2894	0.6009	-1.2454	0.2719	-1.1581	4.5453	-1.2689	2.088	1.0709	12.6053	4.9615
-4.2096	-3.3603	-3.9612	-1.3596	-2.5244	-2.5748	-1.279	-1.6617	-1.5912	0.4297	0.0638	-0.6143	2.2256	0.5908	-1.1514	0.4565	-1.1179	4.4312	-1.3528	2.0209	0.9332	12.8302	5.0555
-4.1525	-3.3167	-3.8974	-1.2555	-2.5211	-2.5211	-1.232	-1.6684	-1.5912	0.4163	-0.0235	-0.6311	2.1786	0.564	-1.0641	0.5942	-1.0944	4.3137	-1.3998	1.9504	0.8023	13.0618	5.1328
-4.0887	-3.3066	-3.8235	-1.1581	-2.4942	-2.4506	-1.1682	-1.6919	-1.5744	0.433	-0.0873	-0.6244	2.1283	0.5472	-0.9433	0.7016	-1.0507	4.2029	-1.4569	1.8799	0.7184	13.2666	5.1865
-4.035	-3.2797	-3.7799	-1.0406	-2.4673	-2.3969	-1.138	-1.712	-1.5341	0.4666	-0.1175	-0.6546	2.0746	0.5371	-0.8929	0.752	-1.0138	4.1055	-1.4938	1.8362	0.611	13.4982	5.2603
-3.9612	-3.2126	-3.6658	-0.9399	-2.4136	-2.3196	-1.0641	-1.665	-1.467	0.5002	-0.1443	-0.6244	2.0276	0.5069	-0.8023	0.7822	-0.9836	3.9645	-1.5173	1.7691	0.5136	13.6963	5.3107
-3.8605	-3.1454	-3.5684	-0.7889	-2.323	-2.2189	-0.9668	-1.6046	-1.3998	0.5707	-0.1276	-0.5606	2.0377	0.5103	-0.6848	0.7889	-0.9735	3.847	-1.5274	1.749	0.4465	13.9044	5.3577
-3.7732	-3.0884	-3.4409	-0.6848	-2.2559	-2.1082	-0.9097	-1.561	-1.326	0.6378	-0.141	-0.5069	1.994	0.47	-0.621	0.6915	-0.9232	3.7396	-1.5207	1.6953	0.3894	14.1428	5.3879
-3.6658	-2.981	-3.3334	-0.5707	-2.1518	-1.9638	-0.8224	-1.4838	-1.2051	0.6915	-0.1276	-0.4297	1.994	0.4935	-0.5338	0.6277	-0.9232	3.6221	-1.5039	1.6248	0.3391	14.314	5.4181
-3.5583	-2.8836	-3.226	-0.4431	-2.0377	-1.8329	-0.7352	-1.4066	-1.0876	0.7755	-0.0705	-0.3458	2.0276	0.4565	-0.47	0.564	-0.8862	3.5147	-1.4871	1.6013	0.2887	14.5187	5.4315
-3.4644	-2.7728	-3.1152	-0.3323	-1.9504	-1.7322	-0.6277	-1.3025	-0.9601	0.856	-0.0201	-0.2316	2.0511	0.4666	-0.3928	0.4633	-0.8862	3.3939	-1.4703	1.5509	0.2484	14.7101	5.4449
-3.3368	-2.6956	-2.9843	-0.1779	-1.8161	-1.5912	-0.4935	-1.185	-0.8292	0.9735	0.0705	-0.0974	2.0947	0.4599	-0.3156	0.3894	-0.8795	3.2898	-1.4099	1.5039	0.2484	14.8712	5.4382
-3.2663	-2.5983	-2.897	-0.0839	-1.7389	-1.4703	-0.386	-1.1011	-0.7083	1.0608	0.1276	0.0134	2.1115	0.433	-0.282	0.2652	-0.8426	3.132	-1.3696	1.4334	0.2283	15.0558	5.3946
-3.1656	-2.4976	-2.803	0.0201	-1.6214	-1.3596	-0.2652	-0.9601	-0.5405	1.1716	0.235	0.1578	2.1854	0.433	-0.2383	0.2081	-0.8325	3.0515	-1.3327	1.3831	0.2316	15.2136	5.3677
-3.0951	-2.3801	-2.7057	0.1578	-1.4972	-1.2119	-0.1443	-0.8258	-0.3793	1.326	0.329	0.3323	2.2592	0.4364	-0.1913	0.1813	-0.8258	2.9373	-1.2756	1.3763	0.2618	15.3613	5.3207
-3.0078	-2.2995	-2.6385	0.2417	-1.3831	-1.1279	-0.0336	-0.6982	-0.2719	1.4603	0.423	0.47	2.3062	0.4163	-0.2014	0.141	-0.799	2.8568	-1.2387	1.3025	0.2585	15.5225	5.2402
-2.9272	-2.1854	-2.5378	0.3659	-1.2823	-0.9802	0.0806	-0.5539	-0.1007	1.5878	0.5304	0.6647	2.4103	0.4129	-0.1544	0.1746	-0.7755	2.793	-1.1884	1.2689	0.2719	15.6332	5.1663
-2.8735	-2.1182	-2.5143	0.423	-1.1951	-0.9299	0.1511	-0.4465	0.0067	1.712	0.621	0.809	2.4741	0.3961	-0.1074	0.2048	-0.7587	2.6923	-1.1414	1.2488	0.2887	15.8011	5.116
-2.8568	-2.0544	-2.4808	0.47	-1.0876	-0.8426	0.2518	-0.3323	0.1611	1.8127	0.7217	0.9836	2.558	0.3928	-0.0772	0.2753	-0.7587	2.605	-1.0742	1.2119	0.3021	15.9488	5.0421
-2.8333	-1.9739	-2.4808	0.5035	-1.0172	-0.7822	0.3391	-0.2283	0.2786	1.9302	0.8191	1.1212	2.6083	0.4129	-0.0504	0.376	-0.7755	2.5311	-1.0373	1.1749	0.3088	16.1032	4.9918
-2.8668	-1.9672	-2.5076	0.5103	-0.9769	-0.7419	0.4028	-0.1141	0.3726	2.0209	0.8997	1.2756	2.6755	0.4062	-0.0436	0.4633	-0.7721	2.4371	-0.9937	1.1246	0.3021	16.2778	4.9313
-2.8802	-1.9403	-2.5311	0.4901	-0.9299	-0.7217	0.4666	-0.0436	0.4633	2.1082	0.9735	1.4233	2.7158	0.4062	-0.0235	0.574	-0.7822	2.3666	-0.9668	1.1212	0.2921	16.4523	4.8843
-2.934	-1.947	-2.5848	0.4767	-0.856	-0.6982	0.5002	0.0436	0.5438	2.182	1.0272	1.5475	2.7795	0.3961	-0.0067	0.658	-0.7687	2.2995	-0.9131	1.0709	0.2853	16.6202	4.8575
-2.981	-1.9302	-2.6385	0.433	-0.8426	-0.7285	0.5438	0.1276	0.6143	2.2659	1.1044	1.6919	2.8131	0.386	0	0.7687	-0.7553	2.2256	-0.8795	1.0541	0.2921	16.7813	4.8206
-3.0179	-1.9336	-2.662	0.4095	-0.799	-0.7016	0.5975	0.1947	0.6982	2.3465	1.1783	1.8463	2.8937	0.3625	-0.0067	0.8292	-0.6982	2.1719	-0.8594	1.0373	0.2786	16.9391	4.8105
-3.0313	-1.9101	-2.7191	0.3928	-0.752	-0.705	0.6479	0.3122	0.7889	2.4573	1.2656	1.9907	2.9675	0.3458	0.0336	0.8594	-0.6647	2.1317	-0.8023	1.0172	0.3088	17.0566	4.7971
-3.0548	-1.8866	-2.756	0.3726	-0.715	-0.6982	0.7016	0.4028	0.8762	2.5513	1.326	2.1317	3.0313	0.3156	0.0403	0.8728	-0.5841	2.0847	-0.7553	1.0306	0.282	17.1606	4.7769
-3.0481	-1.8799	-2.7829	0.3961	-0.6412	-0.6747	0.7956	0.5069	0.9836	2.6553	1.4166	2.2995	3.1085	0.2887	0.0806	0.8728	-0.527	2.0645	-0.6982	1.0474	0.2853	17.2714	4.7769
-3.0884	-1.853	-2.803	0.3793	-0.611	-0.6714	0.8661	0.5774	1.0742	2.7795	1.4871	2.464	3.2193	0.2417	0.1309	0.8124	-0.4565	2.0612	-0.6445	1.0507	0.2652	17.3654	4.7635
-3.0582	-1.8094	-2.8635	0.4062	-0.5673	-0.6747	0.9366	0.6714	1.1514	2.8802	1.5509	2.6016	3.3099	0.2014	0.1746	0.7721	-0.386	2.0712	-0.621	1.0809	0.2451	17.4628	4.7433
-3.0179	-1.7725	-2.8601	0.4532	-0.517	-0.658	1.0071	0.7687	1.2521	2.9877	1.6113	2.756	3.4308	0.1712	0.1981	0.6949	-0.329	2.0813	-0.564	1.0876	0.2551	17.5668	4.7501
-3.0347	-1.7657	-2.887	0.4465	-0.4599	-0.6613	1.0675	0.8325	1.3428	3.0884	1.7053	2.9138	3.5214	0.141	0.2283	0.611	-0.2719	2.1249	-0.527	1.1078	0.2585	17.6743	4.74
-3.0347	-1.7355	-2.9071	0.4901	-0.4431	-0.6647	1.1179	0.903	1.4066	3.179	1.7087	3.0078	3.6121	0.1175	0.2484	0.5573	-0.2216	2.1552	-0.4868	1.1011	0.2451	17.7515	4.7299
-3.028	-1.7053	-2.9071	0.48	-0.3894	-0.6479	1.2051	0.9601	1.4737	3.2596	1.7725	3.1152	3.7027	0.094	0.2753	0.5338	-0.1813	2.1686	-0.48	1.1145	0.2383	17.8522	4.7601
-3.028	-1.6818	-2.9205	0.5002	-0.3391	-0.658	1.2186	0.997	1.5375	3.3334	1.8228	3.2428	3.7833	0.0873	0.3021	0.5338	-0.1611	2.2021	-0.4498	1.1044	0.2383	17.9529	4.7568
-3.0246	-1.6583	-2.9373	0.5338	-0.3256	-0.6647	1.2823	1.0574	1.6013	3.4241	1.8497	3.3636	3.8873	0.0772	0.3391	0.6042	-0.1376	2.2827	-0.4364	1.1111	0.2014	18.0536	4.7467
-3.028	-1.6449	-2.9507	0.5371	-0.2618	-0.6512	1.3092	1.1111	1.6718	3.4912	1.9	3.4543	3.988	0.0772	0.3894	0.6512	-0.1108	2.3331	-0.4028	1.1145	0.188	18.1879	4.7232
-3.0313	-1.6348	-2.9507	0.5472	-0.2417	-0.6815	1.3931	1.1279	1.7154	3.5281	1.9101	3.5449	4.0552	0.0638	0.4666	0.7184	-0.0974	2.4103	-0.3793	1.1212	0.1746	18.3389	4.7198
-3.0145	-1.5778	-2.9507	0.574	-0.1746	-0.6445	1.4502	1.2085	1.7825	3.6188	1.9638	3.6288	4.1425	0.0403	0.5304	0.7889	-0.0705	2.4573	-0.3424	1.1078	0.1779	18.5236	4.7031
-2.9977	-1.571	-2.9507	0.5807	-0.1376	-0.6714	1.4737	1.2354	1.8362	3.6658	1.9739	3.6893	4.1895	0.0269	0.6076	0.8023	-0.0269	2.4908	-0.3323	1.1145	0.1544	18.7518	4.6829
-3.0112	-1.5475	-2.9541	0.6042	-0.1007	-0.668	1.524	1.2756	1.89	3.7161	2.0108	3.79	4.2801	0.0134	0.7083	0.8292	0.0134	2.5378	-0.2988	1.1346	0.1343	19.0036	4.6695
-3.0112	-1.5173	-2.9575	0.6277	-0.0436	-0.6412	1.5811	1.3159	1.9571	3.7833	2.0578	3.8571	4.3573	-0.0034	0.7855	0.8694	0.0336	2.5546	-0.2753	1.1649	0.1343	19.2957	4.6426
-3.0145	-1.5207	-2.944	0.6076	-0.0201	-0.621	1.608	1.3629	1.9806	3.8068	2.088	3.9008	4.4009	-0.0269	0.8997	0.9164	0.0739	2.5681	-0.2182	1.1649	0.141	19.6313	4.5856
-3.0246	-1.4871	-2.9575	0.6378	0.0403	-0.621	1.6281	1.4032	2.0175	3.8605	2.1283	3.9981	4.4681	-0.0504	0.997	0.9702	0.1041	2.605	-0.2081	1.1716	0.1511	19.9838	4.5755
-3.0582	-1.4636	-2.9541	0.6311	0.0806	-0.5841	1.6583	1.4435	2.0779	3.9108	2.1585	4.0619	4.5285	-0.0537	1.1145	1.0809	0.1276	2.6285	-0.141	1.1917	0.1678	20.3799	4.552
-3.0515	-1.4166	-2.9306	0.6747	0.1477	-0.5505	1.702	1.5005	2.1283	3.9645	2.2021	4.1324	4.5621	-0.0705	1.2219	1.2219	0.1511	2.6184	-0.1175	1.2119	0.1913	20.8029	4.5184
-3.0682	-1.3931	-2.9306	0.705	0.1678	-0.5371	1.7456	1.5643	2.2021	3.978	2.2525	4.1962	4.599	-0.0906	1.3226	1.3797	0.1813	2.6318	-0.0772	1.1783	0.2249	21.2527	4.4949
-3.1018	-1.3763	-2.934	0.7352	0.2316	-0.5002	1.7825	1.6281	2.2693	3.9981	2.2928	4.27	4.6326	-0.1074	1.4032	1.5375	0.2081	2.6285	-0.0336	1.1917	0.2484	21.7194	4.4815
-3.1085	-1.3495	-2.9004	0.7788	0.2988	-0.4163	1.8362	1.6718	2.3297	4.0686	2.3734	4.364	4.6796	-0.1074	1.4737	1.7188	0.2383	2.662	0.0034	1.185	0.3055	22.2095	4.4513
-3.1219	-1.3058	-2.8769	0.7956	0.3558	-0.3827	1.8665	1.7322	2.3868	4.0887	2.4271	4.4077	4.7232	-0.1242	1.5475	1.8597	0.2417	2.6654	0.0369	1.2018	0.3458	22.6996	4.4513
-3.1421	-1.2958	-2.8433	0.8224	0.3928	-0.3491	1.8799	1.759	2.4304	4.1357	2.4573	4.4849	4.7467	-0.1175	1.5778	2.0074	0.2383	2.699	0.0873	1.1816	0.3995	23.1964	4.4446
-3.1589	-1.279	-2.8433	0.8426	0.4163	-0.2954	1.8564	1.7859	2.4573	4.119	2.4976	4.4983	4.7668	-0.1141	1.5811	2.088	0.235	2.6855	0.1175	1.1481	0.4498	23.6664	4.4446
-3.1454	-1.2656	-2.8333	0.8325	0.4465	-0.2618	1.8463	1.8094	2.5009	4.1223	2.5479	4.5654	4.7702	-0.0839	1.6113	2.1552	0.188	2.6923	0.141	1.1414	0.4767	24.1061	4.4379
-3.1454	-1.2219	-2.8265	0.8191	0.48	-0.2484	1.843	1.8295	2.5143	4.119	2.5681	4.5721	4.7702	-0.0739	1.6214	2.2122	0.1578	2.699	0.2148	1.1212	0.5069	24.509	4.4513
-3.1589	-1.1951	-2.8131	0.809	0.4935	-0.2417	1.8195	1.8732	2.5311	4.0955	2.5815	4.6024	4.74	-0.0571	1.6315	2.2525	0.1276	2.6788	0.235	1.1044	0.5371	24.8883	4.4479
-3.1656	-1.1682	-2.7863	0.8359	0.5203	-0.1913	1.7792	1.8866	2.5412	4.0854	2.6285	4.6225	4.7165	-0.0369	1.6415	2.2726	0.0839	2.662	0.2686	1.0876	0.5774	25.2576	4.4479
-3.1152	-1.138	-2.746	0.8527	0.5673	-0.1746	1.7657	1.9302	2.5815	4.0585	2.6587	4.6292	4.6829	-0.0168	1.6785	2.2928	0.047	2.6654	0.3156	1.0944	0.6042	25.5798	4.4513
-3.085	-1.1212	-2.7191	0.8057	0.5774	-0.1443	1.7221	1.9067	2.6184	4.0082	2.662	4.6594	4.6527	-0.0101	1.6919	2.2961	0.0504	2.6385	0.3357	1.1078	0.6378	25.8853	4.4446
-3.028	-1.0541	-2.6587	0.8459	0.6412	-0.0772	1.7221	1.9907	2.6486	3.9981	2.7393	4.6964	4.6594	0.0034	1.7255	2.2827	0.0201	2.6587	0.3894	1.138	0.7016	26.174	4.4479
-2.9675	-1.0037	-2.6151	0.8459	0.6714	-0.0369	1.7053	2.0108	2.6688	3.9612	2.7762	4.6896	4.6057	-0.0101	1.7288	2.2324	0.0201	2.6453	0.433	1.1783	0.7486	26.4325	4.4547
-2.9004	-0.9265	-2.5513	0.8694	0.7184	-0.0168	1.6818	2.0343	2.7158	3.9478	2.7963	4.7064	4.5789	0.0034	1.7758	2.1619	0.0101	2.652	0.4901	1.1984	0.809	26.691	4.4547
-2.8333	-0.8862	-2.4606	0.8527	0.7553	0.0369	1.655	2.0679	2.7359	3.9377	2.8366	4.7433	4.5755	0	1.8094	2.0847	-0.0034	2.6352	0.5237	1.2488	0.8527	26.9293	4.4513
-2.7661	-0.8527	-2.4069	0.8292	0.7956	0.1041	1.6483	2.0813	2.7661	3.9276	2.8601	4.7501	4.5151	0.0034	1.8765	1.9537	0.0101	2.6385	0.5304	1.2723	0.8896	27.1408	4.4479
-2.6553	-0.7654	-2.3331	0.8627	0.8459	0.1578	1.6348	2.1249	2.803	3.9075	2.8769	4.7467	4.5016	-0.0067	1.9	1.7993	0.0134	2.6587	0.5841	1.3193	0.9265	27.3892	4.4547
-2.5513	-0.6815	-2.2491	0.8762	0.9164	0.2283	1.6483	2.1854	2.8601	3.894	2.9239	4.7668	4.4748	-0.0101	1.9739	1.665	0.0336	2.6822	0.6311	1.3696	0.9601	27.6074	4.4547
-2.4606	-0.6042	-2.135	0.8829	0.9534	0.2853	1.618	2.2089	2.9004	3.8806	2.9608	4.7803	4.4312	-0.0201	2.041	1.4938	0.0537	2.6654	0.6781	1.4166	1.0205	27.8088	4.4547
-2.3499	-0.5069	-2.0645	0.8963	0.9903	0.3558	1.6046	2.2357	2.944	3.8437	2.9843	4.787	4.4043	-0.0201	2.0813	1.3361	0.0705	2.6889	0.705	1.467	1.0742	28.0203	4.4882
-2.2424	-0.4398	-1.9537	0.9131	1.0641	0.423	1.5878	2.2693	2.9776	3.8168	3.0145	4.7769	4.3472	-0.047	2.1954	1.1951	0.0974	2.6822	0.7654	1.5039	1.1246	28.1747	4.505
-2.1082	-0.3323	-1.8396	0.9164	1.1346	0.5002	1.5811	2.3129	3.0515	3.8168	3.0414	4.7635	4.317	-0.0436	2.2827	1.1346	0.1208	2.6956	0.8157	1.561	1.1749	28.3325	4.5319
-1.9907	-0.235	-1.7255	0.9668	1.1951	0.574	1.5979	2.2961	3.0649	3.7833	3.0246	4.7299	4.2365	-0.0772	2.3331	1.0977	0.1544	2.6889	0.8459	1.5677	1.2051	28.497	4.599
-1.853	-0.1242	-1.608	0.9869	1.2488	0.6647	1.5945	2.3599	3.0984	3.7564	3.0313	4.7131	4.1928	-0.0772	2.4036	1.0608	0.1678	2.6923	0.8896	1.6046	1.2421	28.6414	4.6057
-1.7154	-0.0067	-1.5005	1.0339	1.3193	0.7452	1.5979	2.3834	3.1085	3.7396	3.0615	4.6997	4.1223	-0.0839	2.4942	1.0876	0.1746	2.7124	0.8963	1.6583	1.2857	28.7891	4.6292
-1.608	0.1108	-1.3797	1.0843	1.3562	0.809	1.6281	2.3566	3.1354	3.6859	3.0045	4.6393	4.0485	-0.0839	2.5647	1.1078	0.1779	2.6788	0.9131	1.6516	1.3126	28.9166	4.6494
-1.4905	0.1779	-1.2924	1.1145	1.3898	0.8661	1.5979	2.3499	3.1018	3.6389	2.9675	4.5654	3.9511	-0.0873	2.6218	1.1548	0.1913	2.652	0.9265	1.6617	1.2891	29.0945	4.6762
-1.3864	0.2786	-1.2119	1.1615	1.4133	0.9097	1.5677	2.3499	3.075	3.5684	2.9172	4.4748	3.8504	-0.0873	2.6721	1.2421	0.1913	2.605	0.9299	1.6415	1.2857	29.2523	4.7098
-1.2823	0.3491	-1.1313	1.1716	1.4771	0.9332	1.561	2.3297	3.0447	3.4879	2.8668	4.3909	3.7363	-0.0705	2.709	1.3663	0.1645	2.5479	0.9433	1.6281	1.279	29.4202	4.7131
-1.1783	0.4297	-1.0306	1.1917	1.4905	0.9769	1.5576	2.323	3.028	3.4207	2.8265	4.3237	3.6356	-0.0571	2.7795	1.571	0.1477	2.5177	0.95	1.6415	1.2891	29.5981	4.7299
-1.0944	0.4901	-0.9769	1.1951	1.5073	0.9735	1.5039	2.2626	2.9675	3.3133	2.7393	4.1895	3.4879	-0.0638	2.8131	1.7892	0.1443	2.4371	0.9198	1.5643	1.2354	29.7861	4.7366
-1.0306	0.5405	-0.9299	1.2085	1.5039	0.9836	1.4435	2.2391	2.9138	3.2294	2.6385	4.0485	3.3435	-0.0638	2.8299	2.0511	0.1477	2.3364	0.8795	1.5039	1.1682	30.0009	4.7366
-0.9567	0.5841	-0.8694	1.1917	1.4905	1.0071	1.42	2.2055	2.8668	3.1219	2.5513	3.9377	3.1891	-0.0604	2.8903	2.3801	0.1242	2.2693	0.8627	1.4636	1.1346	30.2527	4.7467
-0.8862	0.6042	-0.8057	1.2018	1.4771	1.0104	1.3898	2.1585	2.8265	3.0145	2.4707	3.7833	3.0515	-0.0504	2.9037	2.7057	0.1208	2.1921	0.8527	1.4099	1.0742	30.5145	4.7366
-0.8325	0.6714	-0.7385	1.1749	1.4871	1.0507	1.3361	2.1417	2.7728	2.9172	2.4136	3.7094	2.944	-0.047	2.9407	3.0212	0.1007	2.1115	0.8258	1.3663	1.044	30.8133	4.7232
-0.7855	0.6815	-0.6848	1.1649	1.4603	1.0608	1.2823	2.0511	2.7124	2.8064	2.3196	3.5886	2.7963	-0.0336	2.9642	3.3267	0.0974	2.0276	0.7687	1.2924	0.9634	31.1356	4.693
-0.715	0.705	-0.5975	1.1649	1.4569	1.0876	1.2521	2.0276	2.6889	2.7359	2.2324	3.4778	2.6923	-0.0168	3.0347	3.6356	0.0571	1.9772	0.7486	1.2555	0.9164	31.4612	4.6762
-0.658	0.7419	-0.5136	1.1615	1.4468	1.1279	1.2152	1.9839	2.6385	2.6654	2.1518	3.3737	2.5848	-0.0067	3.0817	3.847	0.0403	1.9101	0.7385	1.1783	0.8459	31.8237	4.6561
-0.6009	0.7755	-0.4431	1.1682	1.4636	1.185	1.2051	1.9135	2.6218	2.5681	2.0746	3.2663	2.4808	-0.0201	3.1085	4.0082	0.0235	1.843	0.6915	1.1313	0.7855	32.2232	4.6091
-0.5203	0.8124	-0.3391	1.1917	1.467	1.2454	1.1682	1.8933	2.5882	2.4976	2.0007	3.1488	2.3566	0	3.1757	4.0955	0.0168	1.7657	0.6647	1.0776	0.7217	32.6697	4.5856
-0.4901	0.8023	-0.2484	1.232	1.467	1.2958	1.1649	1.8597	2.5681	2.4237	1.9	3.0884	2.2626	0.0168	3.226	4.1022	0	1.7087	0.6177	1.0071	0.6546	33.1699	4.5453
-0.3961	0.8762	-0.1276	1.2421	1.514	1.3831	1.2051	1.8597	2.5815	2.4036	1.8832	3.038	2.2223	0.0168	3.32	4.1089	-0.0201	1.6751	0.5942	0.9836	0.6244	33.6801	4.5151
-0.3357	0.9097	0.0336	1.326	1.5576	1.4771	1.2051	1.8463	2.6083	2.37	1.8195	2.9608	2.1619	0.0201	3.3939	4.0921	-0.0369	1.6214	0.5841	0.95	0.5875	34.2407	4.4882
-0.2417	0.9332	0.1578	1.3864	1.5912	1.561	1.2253	1.8262	2.6285	2.3599	1.7657	2.934	2.1014	0.0168	3.4476	4.0149	-0.0269	1.5878	0.564	0.9232	0.5472	34.8282	4.4714
-0.1477	1.0004	0.3223	1.4636	1.6415	1.702	1.2723	1.8698	2.6923	2.3868	1.7792	2.944	2.1149	0.0369	3.555	4.0015	-0.0604	1.5878	0.5841	0.903	0.527	35.4056	4.4479
-0.0705	1.0339	0.4666	1.5576	1.6919	1.7993	1.3092	1.8698	2.6923	2.3734	1.7523	2.9138	2.0679	0.0436	3.5818	3.9175	-0.094	1.5643	0.5707	0.8661	0.4834	36.0501	4.4345
0.0302	1.091	0.6345	1.6617	1.749	1.9101	1.3696	1.9202	2.7762	2.4371	1.7657	2.934	2.0813	0.0806	3.6456	3.8705	-0.1477	1.5576	0.5438	0.8661	0.4465	36.6711	4.4144
0.0873	1.1447	0.799	1.7355	1.8262	2.0712	1.4267	1.9504	2.8568	2.4673	1.7758	2.9843	2.1048	0.1007	3.7296	3.8168	-0.1981	1.5778	0.527	0.8661	0.4263	37.2787	4.4177
0.1611	1.1783	0.9299	1.8094	1.8597	2.1753	1.467	1.9571	2.8836	2.4875	1.7523	2.9474	2.1182	0.1208	3.7732	3.7497	-0.235	1.5509	0.4901	0.8661	0.3827	37.8864	4.4345
0.2383	1.2454	1.0977	1.9	1.9269	2.3096	1.5274	1.9839	2.9474	2.5412	1.7657	2.9877	2.1249	0.1611	3.8336	3.7363	-0.282	1.5744	0.4666	0.8997	0.3189	38.4772	4.4714
0.3021	1.279	1.2488	1.9772	2.0041	2.4304	1.5912	1.9907	3.0145	2.5513	1.7657	3.0212	2.1451	0.1746	3.8739	3.7531	-0.3357	1.5778	0.4431	0.8896	0.2853	39.0479	4.5319
0.3625	1.3159	1.3931	2.0343	2.0276	2.5714	1.6483	2.0511	3.1052	2.6184	1.7792	3.0649	2.1686	0.2048	3.9276	3.8235	-0.386	1.5811	0.4364	0.9232	0.2417	39.585	4.5789
0.4599	1.3998	1.5643	2.1484	2.0981	2.6822	1.7188	2.1182	3.179	2.6889	1.7993	3.0917	2.2189	0.2283	3.9545	3.9041	-0.4297	1.5811	0.4062	0.9467	0.1981	40.0751	4.6292
0.517	1.4435	1.7322	2.2525	2.1686	2.84	1.8195	2.1249	3.2663	2.7325	1.7993	3.1555	2.2391	0.2383	3.978	4.0317	-0.4498	1.571	0.3793	0.9937	0.1276	40.5417	4.6964
0.6277	1.5005	1.9101	2.3499	2.2156	2.9642	1.8866	2.1686	3.3502	2.7896	1.796	3.2092	2.2827	0.2686	3.9914	4.1592	-0.4868	1.5845	0.3558	1.0608	0.1074	40.9512	4.7433
0.7452	1.5845	2.0477	2.4808	2.2995	3.0884	1.9873	2.2223	3.4442	2.8836	1.8195	3.2428	2.3431	0.2753	4.0384	4.2532	-0.517	1.6046	0.3625	1.1111	0.0638	41.3239	4.8105
0.8224	1.618	2.1988	2.5916	2.3364	3.1958	2.0645	2.276	3.5281	2.944	1.8295	3.2999	2.3868	0.2988	4.035	4.3137	-0.5472	1.6281	0.3323	1.1682	0.0067	41.6763	4.8541
0.9064	1.6919	2.3599	2.7325	2.4036	3.3502	2.1753	2.3196	3.6154	3.0145	1.853	3.3469	2.4271	0.2954	4.0619	4.3674	-0.5573	1.6348	0.3458	1.2219	-0.0302	41.9583	4.9246
1.0507	1.7389	2.5076	2.8735	2.4707	3.4879	2.3196	2.3868	3.7228	3.1186	1.8765	3.3939	2.4573	0.3021	4.0485	4.3707	-0.5807	1.6617	0.3088	1.2756	-0.0705	42.2504	4.9783
1.1179	1.7859	2.6486	3.0078	2.4942	3.5953	2.4405	2.4103	3.8	3.2193	1.89	3.461	2.5311	0.3189	4.0384	4.3237	-0.6076	1.6718	0.2887	1.3159	-0.1041	42.5088	5.032
1.2253	1.8564	2.7762	3.1689	2.558	3.7228	2.5748	2.4606	3.8907	3.3435	1.8967	3.5214	2.6083	0.3357	4.0518	4.2902	-0.6378	1.6986	0.2954	1.3797	-0.1343	42.7539	5.079
1.3092	1.8967	2.9004	3.3099	2.6117	3.8571	2.6721	2.5043	3.9847	3.4241	1.9168	3.5651	2.6822	0.3424	3.9981	4.2197	-0.6647	1.7221	0.2719	1.42	-0.1678	42.9889	5.1428
1.3629	1.9168	3.0011	3.414	2.6352	3.9276	2.84	2.5244	4.0787	3.5516	1.9202	3.6053	2.7527	0.3491	3.9343	4.0854	-0.668	1.759	0.235	1.4603	-0.1981	43.2172	5.1965
1.4368	1.9168	3.0884	3.5651	2.6755	4.0384	2.9407	2.5781	4.1156	3.6423	1.9638	3.6557	2.8366	0.3592	3.8336	3.9612	-0.6949	1.8161	0.2417	1.5005	-0.235	43.4521	5.257
1.4838	1.9302	3.1656	3.6859	2.7057	4.1357	3.1018	2.6285	4.1794	3.7766	2.0007	3.7329	2.944	0.376	3.7396	3.7967	-0.6982	1.9202	0.2383	1.5643	-0.2182	43.714	5.314
1.5408	1.9067	3.226	3.8135	2.7158	4.2163	3.2092	2.6553	4.2432	3.9008	2.041	3.7967	3.0481	0.3625	3.602	3.6423	-0.7083	1.9974	0.2182	1.5677	-0.2216	43.9624	5.3644
1.571	1.9034	3.2831	3.8974	2.7393	4.2868	3.32	2.6855	4.3069	4.025	2.0779	3.8437	3.1555	0.3793	3.508	3.5181	-0.7184	2.0779	0.2316	1.571	-0.2148	44.2377	5.4013
1.5811	1.89	3.3167	3.988	2.746	4.3439	3.4711	2.7225	4.3842	4.1626	2.1014	3.9209	3.2864	0.376	3.3905	3.4476	-0.7251	2.2089	0.2283	1.6147	-0.1947	44.5029	5.4785
1.5878	1.8597	3.3704	4.0753	2.7829	4.3875	3.5718	2.7628	4.411	4.2532	2.1585	3.978	3.4039	0.3693	3.2697	3.4174	-0.715	2.3096	0.235	1.6348	-0.1544	44.7949	5.5121
1.5811	1.8161	3.3401	4.0955	2.7426	4.411	3.6557	2.7997	4.4345	4.3506	2.2223	4.0283	3.5181	0.3693	3.1152	3.3804	-0.715	2.4271	0.2283	1.6751	-0.1343	45.1306	5.5289
1.5543	1.7557	3.3301	4.1122	2.7292	4.4446	3.7296	2.8064	4.4647	4.4614	2.2995	4.0753	3.6288	0.3793	2.9877	3.3972	-0.7016	2.5278	0.2316	1.7053	-0.0705	45.4764	5.5524
1.5005	1.7053	3.3234	4.119	2.7023	4.458	3.7766	2.84	4.4748	4.5453	2.3499	4.119	3.7195	0.3659	2.8702	3.4442	-0.6982	2.6251	0.2383	1.7389	-0.0134	45.8356	5.5792
1.4267	1.6684	3.273	4.0955	2.6956	4.4312	3.8034	2.8534	4.4815	4.5755	2.4036	4.1425	3.7866	0.3458	2.7661	3.5114	-0.6747	2.7225	0.2652	1.7792	0.0604	46.2418	5.5826
1.3126	1.5945	3.1824	4.025	2.6419	4.3976	3.8168	2.8702	4.4614	4.6359	2.464	4.1861	3.8504	0.3424	2.6184	3.5416	-0.658	2.7997	0.2853	1.796	0.1208	46.6882	5.6027
1.2219	1.4838	3.0716	3.9545	2.5848	4.3237	3.7631	2.8601	4.4479	4.6326	2.5311	4.223	3.8873	0.3122	2.4573	3.5483	-0.6244	2.8333	0.2618	1.8329	0.2048	47.1683	5.5994
1.1078	1.4066	2.9977	3.8269	2.5613	4.2667	3.7329	2.8601	4.3942	4.6393	2.5916	4.2365	3.931	0.3156	2.3029	3.5449	-0.6042	2.85	0.282	1.8362	0.3021	47.692	5.5994
1.0071	1.3092	2.9004	3.7228	2.5412	4.2163	3.7195	2.9004	4.3842	4.6527	2.6788	4.2767	3.9948	0.3189	2.1753	3.5181	-0.6009	2.9239	0.3156	1.89	0.4095	48.2324	5.6195
0.8459	1.2286	2.8064	3.6121	2.4976	4.129	3.6557	2.9172	4.3304	4.6527	2.7728	4.3103	4.0283	0.3088	2.0444	3.414	-0.5942	2.9272	0.3424	1.9202	0.5304	48.8132	5.6329
0.752	1.1414	2.7158	3.508	2.4741	4.1055	3.5953	2.9575	4.2969	4.6561	2.8702	4.3539	4.0451	0.3055	1.9	3.3066	-0.5774	2.9474	0.3558	1.9302	0.6479	49.3906	5.6329
0.6042	1.0709	2.6318	3.3771	2.4304	4.0451	3.5281	2.9843	4.3036	4.6393	2.9642	4.364	4.0652	0.3021	1.7993	3.1287	-0.5841	2.9407	0.3894	1.9504	0.762	49.9881	5.6732
0.5035	1.0339	2.5647	3.2864	2.4405	4.0115	3.4979	3.0481	4.3036	4.6762	3.0615	4.4312	4.1089	0.3055	1.7255	2.9172	-0.564	2.9608	0.3995	1.947	0.8829	50.5991	5.69
0.3793	0.9735	2.4707	3.1622	2.4405	3.9813	3.4677	3.0716	4.3002	4.6796	3.1958	4.4781	4.1727	0.2954	1.618	2.6788	-0.5673	2.9272	0.4398	1.9504	1.0272	51.2234	5.7169
0.2618	0.9064	2.4103	3.0682	2.417	3.9511	3.4039	3.1387	4.3271	4.6964	3.3133	4.5486	4.2029	0.2887	1.5173	2.4237	-0.5505	2.9205	0.4532	1.947	1.138	51.8747	5.737
0.1611	0.8627	2.3431	2.9541	2.4472	3.9377	3.3838	3.2193	4.3707	4.7467	3.4476	4.6527	4.2667	0.2954	1.4267	2.1786	-0.5472	2.9138	0.4968	1.9168	1.2656	52.5394	5.7639
0.0839	0.8426	2.3096	2.8903	2.4875	3.9209	3.4006	3.2864	4.4412	4.787	3.6121	4.7769	4.3472	0.2921	1.3629	1.9202	-0.5472	2.9071	0.5505	1.9202	1.4166	53.204	5.8041
0.0336	0.8594	2.3062	2.8635	2.5446	3.9444	3.3905	3.3838	4.5184	4.8508	3.7766	4.9011	4.4278	0.2853	1.2924	1.6751	-0.5505	2.897	0.6076	1.9235	1.5442	53.8821	5.8344
0.0201	0.8728	2.3331	2.8769	2.6184	4.0317	3.4442	3.5248	4.6527	4.9683	3.9612	5.0992	4.5453	0.2786	1.2387	1.4435	-0.5237	2.9373	0.6848	1.9269	1.6919	54.5569	5.8847
0.0201	0.9332	2.3633	2.887	2.7359	4.0988	3.4778	3.6658	4.7769	5.069	4.1425	5.2469	4.6594	0.2585	1.232	1.2521	-0.4868	2.9541	0.7385	1.9504	1.843	55.2316	5.9048
0.047	1.0138	2.4371	2.9306	2.8735	4.1962	3.555	3.8571	4.9481	5.2066	4.364	5.4382	4.8138	0.2316	1.2421	1.0876	-0.4498	3.0112	0.856	1.9772	2.0041	55.8661	5.9418
0.1141	1.1313	2.5076	3.0078	3.0011	4.3405	3.6624	4.035	5.1529	5.3778	4.5822	5.7101	4.985	0.2048	1.2823	0.9601	-0.3961	3.0783	0.9601	2.041	2.1719	56.4905	5.9686
0.2283	1.2857	2.6419	3.1085	3.179	4.5184	3.7799	4.2398	5.3912	5.5524	4.8239	5.9653	5.1797	0.1779	1.3596	0.8627	-0.3424	3.1152	1.1212	2.0914	2.3398	57.0679	6.0156
0.329	1.4267	2.7628	3.2495	3.3737	4.6594	3.9243	4.4547	5.6094	5.7202	5.0589	6.217	5.3711	0.141	1.4569	0.8694	-0.2853	3.1958	1.2219	2.1552	2.4942	57.605	6.0425
0.4901	1.608	2.9105	3.3603	3.5886	4.8642	4.0686	4.6896	5.878	5.9384	5.2771	6.4789	5.5524	0.1276	1.5778	0.9164	-0.2249	3.2495	1.3629	2.1887	2.6419	58.0884	6.0626
0.6244	1.7892	3.0682	3.4979	3.7967	5.0388	4.2331	4.9045	6.1197	6.1398	5.4785	6.7575	5.7404	0.0873	1.6885	1.0339	-0.1678	3.3032	1.5106	2.2626	2.7795	58.5315	6.1096
0.8157	1.9806	3.2428	3.6758	4.0182	5.2301	4.4077	5.126	6.3983	6.3177	5.6799	7.0294	5.9552	0.0638	1.8329	1.1514	-0.1208	3.3502	1.6516	2.3096	2.9239	58.9545	6.1029
0.9769	2.2089	3.4207	3.837	4.2465	5.4852	4.5755	5.3476	6.6635	6.5259	5.8713	7.2812	6.1298	0.0671	1.9705	1.3763	-0.0974	3.4106	1.7792	2.3499	3.0212	59.3573	6.1096
1.1917	2.3868	3.6087	3.9981	4.4647	5.6598	4.7266	5.5389	6.9052	6.7105	6.0492	7.5229	6.2573	0.0403	2.1384	1.5778	-0.0671	3.4375	1.8933	2.4036	3.1253	59.7333	6.1029
1.3663	2.605	3.8135	4.176	4.6762	5.8746	4.9045	5.7538	7.1671	6.8851	6.2003	7.7646	6.3983	0.0235	2.2928	1.8195	-0.0369	3.4341	2.0175	2.4304	3.1891	60.1193	6.1331
1.5543	2.7896	3.9679	4.3338	4.8743	6.0492	5.032	5.9183	7.3618	7.0193	6.3312	7.9727	6.5024	0.0101	2.4472	2.1249	-0.0067	3.414	2.1014	2.4338	3.226	60.4987	6.1063
1.7288	2.981	4.1559	4.5016	5.0723	6.2305	5.1663	6.0928	7.5967	7.2006	6.489	8.154	6.6367	0.0034	2.6251	2.3666	0.0067	3.414	2.2324	2.4338	3.2831	60.8579	6.0727
1.9336	3.1958	4.3372	4.6762	5.2771	6.4386	5.3409	6.2674	7.7948	7.3047	6.5695	8.3386	6.734	-0.0168	2.7661	2.5848	0.0336	3.3771	2.3264	2.4438	3.3234	61.254	6.0458
2.1149	3.3636	4.5117	4.8004	5.4483	6.5762	5.4684	6.3849	7.966	7.4255	6.6568	8.493	6.7709	-0.0269	2.9507	2.7997	0.0571	3.3401	2.3935	2.4271	3.3603	61.6266	6.0056
2.2894	3.5617	4.6628	4.9515	5.6128	6.7508	5.5759	6.5259	8.1204	7.5195	6.7307	8.6139	6.8515	-0.0269	3.0917	2.991	0.0806	3.2898	2.5143	2.4002	3.3905	61.9891	5.9653
2.4606	3.7027	4.8172	5.0992	5.7571	6.8683	5.6934	6.6299	8.2581	7.5867	6.7944	8.7079	6.8649	-0.047	3.2462	3.1857	0.1108	3.2126	2.6083	2.3666	3.4073	62.3752	5.9317
2.6151	3.8739	4.9448	5.2435	5.9015	6.9858	5.784	6.734	8.3655	7.6471	6.8314	8.7985	6.8716	-0.0739	3.3871	3.3569	0.1511	3.1522	2.6822	2.3163	3.414	62.7243	5.8545
2.7426	4.0216	5.0488	5.361	6.0156	7.0798	5.8411	6.7911	8.4528	7.6538	6.8381	8.8287	6.8549	-0.0839	3.5416	3.5281	0.1813	3.0582	2.7359	2.2559	3.3972	63.1137	5.8243
2.887	4.1391	5.1663	5.455	6.0962	7.1368	5.9082	6.8381	8.4998	7.6706	6.8179	8.8321	6.7911	-0.1108	3.6591	3.6557	0.2417	2.9575	2.793	2.1954	3.3737	63.5132	5.7471
2.991	4.2365	5.2267	5.5423	6.1566	7.1838	5.9048	6.8381	8.5031	7.6337	6.7877	8.7952	6.7206	-0.1343	3.79	3.8135	0.2887	2.8668	2.84	2.1317	3.3704	63.9127	5.6866
3.0615	4.3137	5.2838	5.5557	6.207	7.2006	5.8948	6.8381	8.493	7.5632	6.7307	8.7314	6.64	-0.1779	3.8739	3.8974	0.3592	2.7393	2.9071	2.0511	3.3804	64.3692	5.6363
3.1152	4.3942	5.3207	5.5893	6.2103	7.1637	5.8377	6.8246	8.4427	7.4692	6.6534	8.6441	6.4789	-0.2014	3.9813	4.0015	0.4364	2.5882	2.9306	1.9202	3.3603	64.866	5.5591
3.1757	4.4144	5.3107	5.5658	6.2238	7.1268	5.7739	6.7542	8.3688	7.3215	6.5427	8.5266	6.311	-0.2753	4.082	4.035	0.5371	2.464	2.9474	1.806	3.3099	65.3763	5.4852
3.1857	4.4647	5.2838	5.5389	6.1768	7.0529	5.6833	6.6568	8.2446	7.1738	6.4017	8.3655	6.1499	-0.3189	4.1693	4.0619	0.6378	2.3196	2.991	1.6483	3.2797	65.9268	5.3979
3.1857	4.4748	5.2469	5.4752	6.1331	6.9455	5.5356	6.5662	8.1036	6.9925	6.254	8.1473	5.9351	-0.3961	4.2532	4.0988	0.7922	2.1518	3.0313	1.5274	3.2394	66.4673	5.3207
3.1589	4.4647	5.1898	5.3912	6.0425	6.8112	5.3946	6.442	7.9156	6.7743	6.113	7.9593	5.69	-0.4666	4.2868	4.0921	0.9332	1.9403	3.0313	1.3394	3.1924	67.0648	5.2133
3.1152	4.4446	5.1328	5.2805	5.9418	6.6333	5.1865	6.3043	7.7277	6.5125	5.9384	7.7142	5.4013	-0.5304	4.3573	4.025	1.0608	1.7389	3.0548	1.1749	3.1555	67.6657	5.1126
3.075	4.3909	5.0186	5.1797	5.8545	6.4722	4.975	6.1398	7.486	6.2405	5.7269	7.4423	5.0958	-0.6009	4.3808	3.9813	1.2018	1.5005	3.0414	0.9903	3.0817	68.3069	5.0153
2.991	4.3539	4.9045	5.0119	5.7001	6.2607	4.7433	5.9485	7.2141	5.9183	5.5087	7.1402	4.7601	-0.668	4.4144	3.9377	1.3361	1.2219	3.0212	0.7788	3.0112	68.9413	4.9179
2.8702	4.2465	4.7501	4.8373	5.5692	6.0324	4.4681	5.7404	6.9186	5.6061	5.304	6.8414	4.4077	-0.7352	4.4412	3.8806	1.4703	0.9332	3.0045	0.5573	2.944	69.5792	4.8004
2.8131	4.1492	4.6057	4.6661	5.4047	5.7907	4.213	5.5222	6.6031	5.2536	5.0522	6.5225	4.0317	-0.7822	4.5016	3.8705	1.5778	0.6512	2.981	0.3391	2.8433	70.2606	4.7232
2.6923	4.035	4.4681	4.458	5.22	5.5255	3.9108	5.3073	6.2775	4.9045	4.8239	6.1868	3.6389	-0.8493	4.5117	3.8974	1.6986	0.3088	2.9507	0.141	2.7594	70.9488	4.6561
2.5546	3.9175	4.2834	4.2499	5.0388	5.267	3.6255	5.0858	5.9518	4.5251	4.5319	5.8209	3.2428	-0.903	4.5587	3.9612	1.796	-0.0336	2.9037	-0.0671	2.6587	71.6403	4.5688
2.4036	3.7933	4.1257	4.0317	4.8373	4.9615	3.3301	4.8038	5.5692	4.129	4.2767	5.4382	2.8299	-0.95	4.5923	4.0417	1.8799	-0.3726	2.8702	-0.3055	2.5378	72.3755	4.5587
2.3029	3.6792	3.9612	3.8336	4.6359	4.6863	3.0313	4.5789	5.2435	3.7564	3.9914	5.0858	2.4271	-0.9735	4.6527	4.1895	1.9302	-0.705	2.7963	-0.5069	2.4002	73.0838	4.5251
2.1384	3.5147	3.7732	3.5919	4.4379	4.3942	2.7426	4.3237	4.9246	3.3939	3.7228	4.7031	2.0142	-1.0037	4.6695	4.3271	2.0007	-1.0474	2.7225	-0.7117	2.2592	73.8156	4.505
1.9873	3.367	3.5818	3.3972	4.223	4.1223	2.464	4.0619	4.5889	3.0112	3.4375	4.3506	1.6214	-1.0406	4.7098	4.4614	2.0578	-1.3898	2.6218	-0.9299	2.0981	74.5575	4.5084
1.8665	3.2697	3.4409	3.2193	4.0619	3.884	2.2391	3.8336	4.2599	2.6855	3.1757	4.0216	1.2454	-1.0574	4.7803	4.6393	2.0981	-1.702	2.5714	-1.0876	1.9403	75.2792	4.5084
1.7725	3.1555	3.3066	3.0984	3.884	3.6356	2.0041	3.5886	3.9813	2.3767	2.9172	3.7228	0.9164	-1.0776	4.8441	4.8306	2.1115	-2.0242	2.4539	-1.2589	1.759	75.9909	4.5151
1.6718	3.085	3.1891	2.9575	3.7329	3.4341	1.8027	3.3939	3.7128	2.0746	2.6721	3.4476	0.5807	-1.0641	4.881	5.0085	2.135	-2.3297	2.3633	-1.4435	1.5845	76.6724	4.5218
1.5845	2.981	3.0917	2.8534	3.5886	3.2394	1.6281	3.2059	3.4543	1.8094	2.4438	3.1757	0.2753	-1.0608	4.938	5.1495	2.1182	-2.6251	2.2693	-1.5778	1.4133	77.3303	4.5352
1.5677	2.9272	3.0212	2.7661	3.4711	3.0817	1.4938	3.0414	3.2562	1.5912	2.2592	2.944	0.0067	-1.0541	5.0153	5.314	2.1014	-2.8937	2.2089	-1.6953	1.2488	77.9312	4.5453
1.4938	2.8735	2.9642	2.6855	3.3771	2.9776	1.3864	2.8903	3.0951	1.3797	2.0679	2.7527	-0.2182	-1.044	5.0555	5.4013	2.0712	-3.1186	2.0981	-1.8463	1.0876	78.512	4.5956
1.5173	2.8668	2.9575	2.6587	3.3301	2.887	1.2891	2.793	2.9474	1.2186	1.9168	2.5681	-0.4129	-1.0306	5.1495	5.5054	2.041	-3.3704	2.0544	-1.9135	0.9467	79.0457	4.6393
1.5106	2.8534	2.9541	2.6587	3.2663	2.8467	1.2421	2.6923	2.8635	1.0944	1.8161	2.4573	-0.5606	-1.0004	5.2335	5.6094	1.994	-3.5583	1.9739	-1.9839	0.8157	79.5493	4.6628
1.5274	2.85	2.9709	2.6755	3.2462	2.793	1.2051	2.6385	2.7997	1.0172	1.7221	2.3834	-0.6949	-0.9869	5.2704	5.6564	1.9604	-3.743	1.9235	-2.0712	0.6781	80.0461	4.7165
1.6281	2.9272	3.0313	2.7393	3.2462	2.8534	1.2152	2.6083	2.7795	0.9567	1.665	2.3431	-0.7788	-0.9601	5.3409	5.6934	1.9135	-3.8705	1.9067	-2.1048	0.564	80.5161	4.7501
1.6885	2.9474	3.0951	2.7795	3.2529	2.8702	1.2051	2.5748	2.7695	0.9097	1.618	2.2894	-0.8829	-0.9567	5.3644	5.7101	1.9034	-4.035	1.8564	-2.1652	0.4465	80.9894	4.7668
1.8161	3.0515	3.1924	2.9037	3.3066	2.9575	1.2689	2.6218	2.8299	0.9265	1.6315	2.3129	-0.8896	-0.9232	5.4517	5.7169	1.8631	-4.1324	1.8732	-2.1719	0.376	81.4359	4.7937
1.9571	3.1589	3.3502	3.0112	3.3939	3.0716	1.3394	2.652	2.8836	0.9399	1.6382	2.3398	-0.9064	-0.9366	5.5322	5.7571	1.8698	-4.1995	1.8765	-2.1719	0.2853	81.8488	4.8172
2.1082	3.2596	3.4543	3.1522	3.4576	3.1656	1.4233	2.6822	2.944	0.9869	1.6415	2.3633	-0.9164	-0.9366	5.5759	5.6497	1.8765	-4.2834	1.8665	-2.1954	0.2182	82.2684	4.8407
2.2659	3.3435	3.6322	3.3133	3.5449	3.3133	1.5341	2.7493	3.0481	1.044	1.6785	2.4304	-0.8896	-0.9567	5.6329	5.5927	1.8967	-4.3304	1.8631	-2.182	0.1343	82.6779	4.8642
2.4539	3.4744	3.7967	3.4879	3.6456	3.4879	1.6718	2.8534	3.1757	1.138	1.7758	2.5143	-0.8292	-0.9702	5.7101	5.4953	1.9202	-4.3741	1.89	-2.1652	0.1108	83.1009	4.8911
2.652	3.6188	3.9813	3.6859	3.79	3.6523	1.8262	2.9575	3.3032	1.2723	1.8228	2.605	-0.762	-0.9802	5.7806	5.3845	1.9437	-4.3875	1.9336	-2.1451	0.0638	83.5104	4.9146
2.8467	3.7262	4.1895	3.894	3.8873	3.8269	1.9672	3.0447	3.4341	1.3763	1.9168	2.6889	-0.6915	-0.997	5.8746	5.2469	1.9772	-4.3674	1.9537	-2.0947	0.0403	83.9468	4.975
3.0582	3.884	4.3774	4.1559	4.0384	4.035	2.1854	3.1656	3.5986	1.5073	1.9772	2.8165	-0.5942	-1.0104	5.9317	5.1563	2.0175	-4.3304	2.0142	-2.0511	0.0403	84.4067	4.975
3.2462	3.988	4.5856	4.3607	4.1425	4.2264	2.3364	3.2462	3.743	1.6415	2.041	2.9037	-0.5304	-1.0406	5.9686	5.0119	2.0813	-4.3439	2.0511	-2.0175	0.0134	84.8767	5.0153
3.4476	4.1525	4.8105	4.6292	4.2834	4.4244	2.5311	3.3804	3.894	1.7825	2.1417	3.0347	-0.433	-1.0641	6.0492	4.938	2.1115	-4.317	2.0712	-1.9571	0.0168	85.387	5.0555
3.6859	4.2902	5.0186	4.8978	4.4379	4.6359	2.7695	3.5214	4.0787	1.9537	2.2357	3.1689	-0.3223	-1.0944	6.1096	4.8743	2.1518	-4.2801	2.1753	-1.937	0.0235	85.9006	5.0656
3.9075	4.4312	5.2603	5.1797	4.5755	4.8508	2.9776	3.6221	4.2566	2.1384	2.323	3.2965	-0.2283	-1.0977	6.1935	4.8206	2.1786	-4.2499	2.229	-1.8967	0.0302	86.4645	5.0925
4.0988	4.5453	5.4852	5.4517	4.7031	5.0186	3.1656	3.7698	4.3976	2.2961	2.4136	3.3905	-0.1511	-1.1212	6.2842	4.7769	2.2256	-4.2096	2.2693	-1.8597	0.0336	87.0621	5.0723
4.3137	4.6896	5.6699	5.6833	4.8373	5.2368	3.3838	3.8705	4.552	2.4472	2.4707	3.4778	-0.047	-1.1548	6.3446	4.7467	2.276	-4.213	2.3096	-1.8195	0.0671	87.6932	5.079
4.5554	4.8306	5.9149	5.9653	4.9918	5.4449	3.6154	4.0149	4.7131	2.605	2.5479	3.5886	0.0369	-1.1682	6.4957	4.787	2.3129	-4.1693	2.4103	-1.759	0.1141	88.3646	5.0522
4.7467	4.9481	6.1197	6.217	5.126	5.6329	3.8101	4.129	4.881	2.7493	2.6251	3.6893	0.1041	-1.2018	6.5796	4.8441	2.37	-4.1458	2.4573	-1.7825	0.1343	89.093	5.022
4.9515	5.079	6.3077	6.4487	5.2771	5.8209	3.9914	4.2297	5.0253	2.887	2.662	3.7833	0.1645	-1.2119	6.7307	4.9817	2.4002	-4.1693	2.511	-1.7557	0.1443	89.8349	5.0018
5.1428	5.1865	6.5057	6.6803	5.4181	5.9821	4.1592	4.3372	5.1563	3.0347	2.7023	3.8672	0.2283	-1.2354	6.8683	5.1462	2.4539	-4.176	2.5613	-1.7288	0.1779	90.6238	4.9985
5.3375	5.3375	6.7172	6.8851	5.5557	6.1633	4.3506	4.4312	5.2872	3.1689	2.756	3.9243	0.2887	-1.2421	7.0026	5.3543	2.4808	-4.1895	2.5949	-1.7255	0.1947	91.4697	4.9884
5.5188	5.4517	6.8851	7.0731	5.6631	6.3412	4.5352	4.5352	5.3946	3.2697	2.7695	3.978	0.3055	-1.2689	7.1671	5.5759	2.5009	-4.2096	2.6453	-1.7422	0.1947	92.3492	4.9783
5.6497	5.5457	7.0529	7.2443	5.7739	6.4655	4.6527	4.5923	5.4819	3.3603	2.7963	4.025	0.3491	-1.2823	7.2678	5.8209	2.5479	-4.2331	2.6721	-1.7456	0.1947	93.3026	4.9951
5.7907	5.6665	7.1906	7.3718	5.8612	6.5829	4.7937	4.6326	5.5859	3.4509	2.7728	4.0518	0.3625	-1.2857	7.3651	6.0928	2.5613	-4.2499	2.6587	-1.749	0.1645	94.2828	5.0186
5.9283	5.7706	7.3416	7.4994	5.9552	6.7072	4.9146	4.6896	5.6631	3.5483	2.7527	4.0552	0.3726	-1.2958	7.4759	6.3614	2.5781	-4.2902	2.6654	-1.7255	0.1309	95.2832	5.0757
6.0492	5.8243	7.4591	7.6202	6.0526	6.828	5.032	4.7366	5.7303	3.6288	2.746	4.0652	0.3793	-1.3193	7.5732	6.5964	2.5983	-4.3405	2.6453	-1.7691	0.094	96.3171	5.0992
6.17	5.9653	7.637	7.7512	6.17	6.9589	5.173	4.8172	5.8142	3.7329	2.7661	4.1022	0.423	-1.3025	7.6807	6.8683	2.5815	-4.3674	2.6419	-1.7422	0.0839	97.3477	5.1596
6.2842	6.0626	7.7646	7.8552	6.2741	7.0563	5.2905	4.8239	5.8948	3.8168	2.7359	4.1089	0.433	-1.3025	7.7444	7.1335	2.5781	-4.3942	2.6251	-1.7523	0.0201	98.3884	5.2536
6.3983	6.1432	7.8854	7.9391	6.3715	7.1771	5.408	4.8911	5.9586	3.9209	2.7158	4.119	0.4666	-1.2958	7.7948	7.3416	2.558	-4.3976	2.5949	-1.7557	-0.0269	99.429	5.3241
6.5057	6.264	7.9962	8.0096	6.4688	7.2778	5.5322	4.9683	6.0257	4.0149	2.7258	4.1693	0.5136	-1.279	7.8552	7.5934	2.5211	-4.4278	2.5714	-1.7322	-0.0571	100.4462	5.3946
6.5695	6.3513	8.0902	8.0701	6.5359	7.3718	5.6195	4.9951	6.0928	4.1055	2.7258	4.1827	0.5505	-1.2555	7.9559	7.8082	2.4908	-4.411	2.5311	-1.7221	-0.1309	101.4801	5.4684
6.6937	6.4386	8.2346	8.1204	6.6266	7.4792	5.7269	5.0455	6.1868	4.2432	2.7258	4.213	0.6244	-1.232	8.0466	8.0533	2.4405	-4.4009	2.4976	-1.7154	-0.1913	102.514	5.5255
6.7911	6.5527	8.3453	8.1876	6.7542	7.6102	5.8713	5.1193	6.2875	4.3539	2.7493	4.2767	0.6915	-1.2018	8.1339	8.2446	2.3734	-4.3573	2.4875	-1.6885	-0.2048	103.5379	5.5658
6.8414	6.6635	8.4393	8.2312	6.828	7.7075	5.9451	5.1831	6.3681	4.4681	2.7695	4.3372	0.762	-1.1682	8.2312	8.399	2.3163	-4.3909	2.4506	-1.6583	-0.2652	104.6188	5.5893
6.922	6.7172	8.54	8.2547	6.9119	7.7646	6.0358	5.2066	6.4285	4.5453	2.7795	4.3674	0.8057	-1.138	8.3218	8.5098	2.2458	-4.3674	2.4002	-1.6415	-0.3424	105.6964	5.6195
6.9925	6.8347	8.6407	8.2715	7.0294	7.8754	6.1298	5.2771	6.5326	4.6729	2.8098	4.4379	0.8862	-1.0876	8.4024	8.5703	2.1619	-4.3405	2.37	-1.6113	-0.3625	106.7908	5.6363
7.0563	6.8951	8.7045	8.3151	7.0966	7.9761	6.2271	5.3442	6.6031	4.7971	2.8232	4.4882	0.9802	-1.0306	8.4897	8.6005	2.0779	-4.2834	2.3465	-1.5576	-0.4095	107.8986	5.6464
7.1402	6.9891	8.8086	8.3655	7.2275	8.0667	6.3312	5.4349	6.6904	4.9146	2.9004	4.5688	1.0541	-0.9903	8.5703	8.5971	1.9705	-4.2532	2.323	-1.5308	-0.4465	108.9996	5.6799
7.1906	7.0731	8.9026	8.4024	7.2946	8.1641	6.4285	5.4886	6.7944	5.0119	2.9272	4.6158	1.1514	-0.9299	8.6105	8.5367	1.8665	-4.2197	2.2794	-1.4804	-0.48	110.1175	5.6665
7.2678	7.1201	8.9697	8.4326	7.4054	8.2211	6.5125	5.549	6.8616	5.1361	2.981	4.6762	1.2421	-0.8795	8.6508	8.446	1.7691	-4.1458	2.2659	-1.4233	-0.5035	111.2387	5.6296
7.308	7.204	9.0503	8.4763	7.496	8.3286	6.64	5.6262	6.9556	5.2536	3.0347	4.7635	1.3461	-0.8392	8.7045	8.3051	1.6852	-4.0887	2.2626	-1.3797	-0.5035	112.3599	5.6161
7.3685	7.2879	9.1342	8.5098	7.5934	8.4393	6.7508	5.69	7.0428	5.3677	3.0917	4.8273	1.4536	-0.7788	8.7247	8.1641	1.5811	-4.0115	2.2626	-1.2958	-0.5103	113.4879	5.596
7.4054	7.3148	9.1476	8.5468	7.6471	8.4863	6.8112	5.7639	7.1033	5.4752	3.1219	4.8877	1.5543	-0.752	8.7784	7.9996	1.4972	-3.9075	2.2391	-1.2589	-0.5035	114.6259	5.5322
7.4457	7.3819	9.2215	8.5803	7.7444	8.587	6.9052	5.8276	7.1939	5.6128	3.1891	4.9683	1.6852	-0.6949	8.8153	7.8351	1.4032	-3.8269	2.2491	-1.2051	-0.5237	115.7672	5.4953
7.4826	7.4222	9.2886	8.624	7.825	8.6743	6.9992	5.9183	7.251	5.7101	3.2562	5.0488	1.7725	-0.658	8.8623	7.6807	1.3193	-3.7396	2.2357	-1.1481	-0.4834	116.9119	5.4718
7.4792	7.449	9.3021	8.624	7.8552	8.728	7.0798	5.9787	7.3148	5.7907	3.3099	5.0858	1.8597	-0.6277	8.8556	7.4625	1.2589	-3.6792	2.2391	-1.1179	-0.48	118.1003	5.4248
7.4826	7.4725	9.339	8.6609	7.9526	8.7817	7.1503	6.0257	7.402	5.8344	3.3737	5.1227	1.937	-0.6076	8.8824	7.2778	1.2051	-3.5919	2.2357	-1.0876	-0.4364	119.2953	5.3845
7.4792	7.4524	9.3625	8.6777	8.0096	8.8824	7.1973	6.1096	7.4457	5.8981	3.4409	5.2032	1.994	-0.5875	8.8724	7.1133	1.1783	-3.5416	2.2256	-1.0709	-0.4163	120.5005	5.3845
7.486	7.486	9.3994	8.6945	8.0701	8.9328	7.2476	6.207	7.543	5.9921	3.5181	5.2939	2.0477	-0.5573	8.8791	6.9489	1.1447	-3.4711	2.2626	-1.0272	-0.3558	121.7224	5.3778
7.4457	7.4994	9.4263	8.7482	8.1439	9.0268	7.2946	6.3043	7.6169	6.0324	3.6322	5.3409	2.1014	-0.574	8.9294	6.7911	1.138	-3.4039	2.3196	-1.0172	-0.2786	122.9376	5.3543
7.4155	7.5195	9.4464	8.7482	8.2111	9.0939	7.3047	6.4117	7.7008	6.076	3.7262	5.4147	2.1585	-0.5807	8.9529	6.6534	1.1749	-3.3469	2.3566	-1.0071	-0.1947	124.1596	5.3241
7.402	7.5128	9.4833	8.7616	8.2346	9.1409	7.3416	6.4688	7.7377	6.0895	3.7866	5.4517	2.2021	-0.6042	8.9697	6.4957	1.2152	-3.3032	2.4136	-1.0339	-0.1041	125.3848	5.3174
7.3685	7.5061	9.4733	8.7683	8.2983	9.198	7.345	6.5494	7.7948	6.123	3.9075	5.5087	2.2189	-0.6345	9.0067	6.3379	1.2622	-3.2428	2.4506	-1.0104	-0.0034	126.6135	5.3107
7.298	7.496	9.48	8.7515	8.3252	9.2484	7.3584	6.6098	7.8552	6.113	3.9478	5.549	2.2256	-0.6647	9.0201	6.1935	1.3193	-3.2126	2.5009	-1.0138	0.0671	127.8287	5.2972
7.2342	7.4792	9.4833	8.765	8.3823	9.2819	7.3215	6.6669	7.8989	6.1029	4.0417	5.6061	2.2223	-0.6781	9.0033	6.019	1.373	-3.1689	2.5647	-1.0306	0.1645	129.0506	5.3006
7.157	7.4356	9.4464	8.7448	8.3688	9.292	7.3148	6.7072	7.9123	6.066	4.082	5.6363	2.2189	-0.7285	9.0033	5.8813	1.4368	-3.1387	2.6117	-1.0406	0.235	130.2927	5.3241
7.0663	7.3584	9.3591	8.671	8.3655	9.3021	7.251	6.7139	7.9492	6.0123	4.1055	5.6296	2.1921	-0.762	8.9832	5.7336	1.5073	-3.1387	2.6385	-1.1044	0.2921	131.5247	5.3275
6.9421	7.2946	9.3121	8.6441	8.3151	9.3088	7.2208	6.7374	7.9425	5.9988	4.1425	5.6329	2.1719	-0.7755	8.9462	5.6027	1.571	-3.0817	2.6688	-1.0776	0.3592	132.7802	5.3778
6.8448	7.2375	9.2316	8.5837	8.3017	9.245	7.1603	6.734	7.9224	5.9116	4.176	5.6296	2.1384	-0.8157	8.9227	5.4584	1.6415	-3.0615	2.6855	-1.1447	0.4163	134.0491	5.4047
6.7273	7.1066	9.1476	8.5132	8.2245	9.2249	7.0898	6.7038	7.8888	5.8377	4.1861	5.5994	2.1082	-0.8493	8.8556	5.3308	1.7154	-3.038	2.7158	-1.1581	0.4633	135.3247	5.455
6.5997	7.0193	9.0604	8.4494	8.1909	9.1644	7.016	6.6837	7.8619	5.7874	4.1794	5.6027	2.0679	-0.8929	8.8354	5.2267	1.7859	-3.0145	2.709	-1.1884	0.5103	136.5936	5.5389
6.4621	6.9052	8.9529	8.3755	8.1204	9.1275	6.9589	6.6837	7.8317	5.7236	4.1995	5.596	2.041	-0.9366	8.7952	5.1428	1.8765	-2.9642	2.7359	-1.2018	0.5673	137.8894	5.5792
6.3278	6.8011	8.8522	8.3218	8.0298	9.0503	6.875	6.6467	7.7814	5.6363	4.1794	5.5927	1.9907	-0.997	8.7448	5.116	1.9772	-2.9071	2.7292	-1.1917	0.5841	139.1919	5.6699
6.2036	6.6803	8.7213	8.2043	7.9425	8.9832	6.7944	6.6064	7.7646	5.5826	4.1794	5.5759	1.9772	-1.0306	8.718	5.1193	2.0544	-2.85	2.746	-1.1581	0.621	140.5246	5.7806
6.0861	6.5628	8.624	8.1238	7.8619	8.9227	6.7004	6.5359	7.7075	5.4953	4.166	5.5658	1.937	-1.0608	8.6777	5.1462	2.135	-2.7997	2.709	-1.1581	0.6714	141.8741	5.8713
5.9485	6.4487	8.5098	8.0029	7.7814	8.8354	6.5897	6.5057	7.6605	5.4147	4.1827	5.5557	1.9504	-1.1044	8.6475	5.2133	2.1988	-2.7292	2.746	-1.1279	0.7016	143.2504	5.9586
5.8142	6.3345	8.3856	7.8653	7.6773	8.7549	6.4655	6.442	7.6202	5.3207	4.166	5.5591	1.9302	-1.1279	8.5803	5.2838	2.2559	-2.6855	2.7057	-1.1346	0.7184	144.6234	6.076
5.6631	6.2271	8.2379	7.7176	7.5565	8.6475	6.3379	6.3748	7.543	5.2402	4.1525	5.5289	1.8933	-1.1548	8.5132	5.3711	2.2961	-2.6419	2.709	-1.1179	0.715	146.0165	6.17
5.5087	6.0962	8.1204	7.5598	7.439	8.5535	6.2003	6.2875	7.4692	5.1462	4.1324	5.5121	1.8362	-1.1682	8.446	5.5121	2.3129	-2.5882	2.6654	-1.1346	0.7251	147.3996	6.2506
5.3543	5.9485	7.9425	7.3685	7.3047	8.4192	6.076	6.1734	7.3685	5.032	4.082	5.4819	1.7926	-1.1581	8.3823	5.643	2.3096	-2.558	2.6318	-1.1346	0.7117	148.7491	6.3077
5.21	5.8109	7.778	7.1671	7.1603	8.2849	5.8847	6.076	7.2476	4.9112	4.035	5.3812	1.7221	-1.1481	8.3185	5.7639	2.2961	-2.5613	2.5714	-1.1649	0.6815	150.0952	6.3748
5.0589	5.6699	7.6202	6.969	7.0026	8.1372	5.7169	5.9518	7.1335	4.7668	3.9645	5.3375	1.6415	-1.138	8.2346	5.8948	2.2592	-2.5378	2.4976	-1.185	0.6613	151.4178	6.4084
4.938	5.5154	7.4692	6.7844	6.8549	7.966	5.5423	5.8243	7.0059	4.6426	3.9008	5.2637	1.5677	-1.1078	8.1741	5.9921	2.1921	-2.5278	2.4036	-1.2018	0.6378	152.7338	6.4688
4.7433	5.351	7.2812	6.5427	6.6568	7.7914	5.3442	5.6497	6.8448	4.4849	3.8168	5.1697	1.4804	-1.0675	8.0969	6.0123	2.1249	-2.5613	2.2995	-1.2488	0.5539	154.043	6.4957
4.6292	5.1865	7.0999	6.3446	6.4789	7.6471	5.1697	5.502	6.7105	4.3237	3.7195	5.0992	1.3596	-1.0272	8.0331	6.0861	2.041	-2.5983	2.1686	-1.3058	0.4733	155.3622	6.5326
4.4781	5.0119	6.9354	6.1465	6.2842	7.4323	4.9716	5.3409	6.5796	4.1794	3.6255	4.9783	1.2756	-0.9802	7.9761	6.0962	1.9336	-2.6486	2.0947	-1.326	0.4398	156.6714	6.5393
4.3204	4.8743	6.7441	5.9116	6.1197	7.2778	4.7903	5.173	6.4185	4.035	3.5114	4.8978	1.1514	-0.9198	7.8955	6.0995	1.8329	-2.6654	1.9537	-1.4166	0.3592	157.9807	6.5594
4.1626	4.7031	6.5863	5.7034	5.9317	7.11	4.5789	5.0186	6.264	3.9075	3.4106	4.7836	1.091	-0.8795	7.8384	6.0526	1.7355	-2.709	1.8597	-1.4368	0.329	159.31	6.5863
4.0283	4.5453	6.4218	5.4785	5.7437	6.9119	4.4077	4.8541	6.1029	3.7463	3.3099	4.6729	0.9903	-0.8124	7.7881	6.0425	1.6281	-2.7158	1.7523	-1.4569	0.2686	160.6192	6.5964
3.8403	4.3909	6.207	5.2402	5.5725	6.7273	4.2062	4.693	5.9451	3.6154	3.2327	4.5688	0.903	-0.7855	7.7377	5.9653	1.5509	-2.7594	1.6382	-1.5073	0.2383	161.9351	6.6299
3.7262	4.2667	6.0727	5.0589	5.4181	6.5897	4.0787	4.5956	5.8276	3.5281	3.1555	4.4815	0.8459	-0.7217	7.6974	5.9451	1.4502	-2.7258	1.5643	-1.5106	0.2148	163.2544	6.6434
3.5785	4.1089	5.9149	4.8642	5.267	6.4185	3.9108	4.4446	5.6766	3.3972	3.075	4.4144	0.7822	-0.6915	7.7008	5.8914	1.3663	-2.7393	1.4838	-1.5375	0.2048	164.5804	6.6266
3.414	3.9511	5.7303	4.6628	5.1126	6.2338	3.7531	4.3137	5.5624	3.2797	3.0011	4.3237	0.7285	-0.6714	7.6572	5.8411	1.3394	-2.7829	1.42	-1.5845	0.1981	165.9232	6.64
3.2764	3.837	5.5389	4.4781	4.9313	6.0593	3.5886	4.1727	5.4147	3.179	2.9373	4.2432	0.6647	-0.6613	7.6605	5.8075	1.3126	-2.7863	1.3461	-1.5912	0.1813	167.2592	6.6467
3.1387	3.696	5.4114	4.2801	4.834	5.8981	3.4409	4.0887	5.2872	3.0615	2.9138	4.1794	0.6143	-0.6546	7.6169	5.7437	1.3058	-2.7762	1.3361	-1.6214	0.235	168.6154	6.64
2.9675	3.5583	5.2402	4.0955	4.6896	5.7336	3.2898	3.978	5.1495	2.9709	2.8635	4.082	0.5975	-0.6546	7.5867	5.6564	1.3226	-2.7728	1.3293	-1.6415	0.2585	169.9985	6.6467
2.8265	3.414	5.0455	3.9108	4.5587	5.5457	3.1421	3.884	5.0153	2.8769	2.85	4.025	0.527	-0.6747	7.5531	5.5893	1.3327	-2.793	1.2924	-1.6885	0.2954	171.3681	6.6467
2.6889	3.2898	4.8709	3.7262	4.4312	5.3812	2.9877	3.8269	4.8978	2.7695	2.7963	3.9645	0.5035	-0.6848	7.5464	5.5087	1.3663	-2.793	1.3126	-1.7188	0.3458	172.7746	6.6602
2.5446	3.1522	4.7165	3.5349	4.3036	5.2167	2.8534	3.7195	4.7568	2.6486	2.7594	3.8605	0.4364	-0.6815	7.5061	5.4953	1.3696	-2.8064	1.3159	-1.7355	0.3928	174.1946	6.6501
2.3734	3.0078	4.5084	3.3737	4.1492	5.022	2.7057	3.6221	4.5956	2.5647	2.7057	3.7698	0.3894	-0.7016	7.4591	5.4214	1.4032	-2.8299	1.2958	-1.8127	0.4263	175.6516	6.6736
2.1988	2.8534	4.3204	3.1891	4.0317	4.8508	2.5446	3.5281	4.4379	2.4539	2.6788	3.6826	0.3223	-0.7117	7.4155	5.3812	1.4166	-2.8098	1.3092	-1.8362	0.4666	177.1051	6.6904
2.0645	2.7191	4.1223	3.0212	3.8907	4.6561	2.3868	3.4341	4.2801	2.3431	2.605	3.5718	0.2451	-0.7385	7.4088	5.2939	1.4603	-2.8702	1.2991	-1.8799	0.4968	178.5922	6.7273
1.8933	2.5546	3.9343	2.8668	3.7329	4.4446	2.2357	3.3267	4.1391	2.2089	2.5513	3.4409	0.1511	-0.752	7.3853	5.257	1.5005	-2.8836	1.2891	-1.9302	0.5035	180.0626	6.7609
1.7188	2.4069	3.7363	2.7325	3.602	4.2432	2.0847	3.2394	3.9679	2.0645	2.4673	3.3368	0.0604	-0.7755	7.3685	5.1831	1.5576	-2.9172	1.2823	-1.947	0.517	181.5363	6.8079
1.5878	2.276	3.5751	2.6251	3.4677	4.0753	1.9739	3.1287	3.8034	1.9739	2.4271	3.2529	-0.0101	-0.7922	7.355	5.116	1.5811	-2.9205	1.2991	-1.9739	0.5338	183.0099	6.8448
1.4703	2.1585	3.3972	2.511	3.32	3.8773	1.8295	3.0078	3.6557	1.8732	2.3465	3.1287	-0.1175	-0.8124	7.3685	5.0488	1.6214	-2.934	1.2387	-2.0074	0.5136	184.4232	6.9052
1.3394	2.0142	3.2092	2.4203	3.1891	3.7161	1.6852	2.9172	3.4912	1.749	2.2525	2.9877	-0.2182	-0.8325	7.3752	4.9683	1.6583	-2.991	1.2622	-2.0679	0.5103	185.8398	6.9757
1.232	1.8732	3.0615	2.3264	3.0313	3.5516	1.5778	2.803	3.3536	1.6214	2.1887	2.8568	-0.329	-0.8594	7.392	4.881	1.712	-3.0582	1.232	-2.088	0.4767	187.2296	7.0496
1.1179	1.7355	2.9105	2.276	2.9037	3.3569	1.4569	2.6889	3.1857	1.5106	2.0779	2.7292	-0.4565	-0.8728	7.4323	4.8071	1.7322	-3.1219	1.2018	-2.1451	0.4565	188.5858	7.1268
1.0239	1.6315	2.7863	2.2156	2.7393	3.1958	1.3327	2.5613	3.0447	1.3831	1.9806	2.5848	-0.6076	-0.8694	7.4356	4.7433	1.7523	-3.1992	1.1951	-2.2055	0.4297	189.9387	7.2241
0.8795	1.467	2.6083	2.1484	2.5848	3.038	1.1884	2.4438	2.8735	1.232	1.8564	2.4539	-0.7822	-0.8762	7.4356	4.6896	1.7691	-3.2864	1.1414	-2.2693	0.3424	191.2411	7.3282
0.7956	1.326	2.4438	2.0679	2.4136	2.8467	1.0641	2.2928	2.7124	1.0876	1.712	2.2827	-0.95	-0.8929	7.4658	4.6024	1.7825	-3.4039	1.1011	-2.3465	0.2753	192.5168	7.4323
0.6815	1.1951	2.3364	2.0377	2.2794	2.7325	0.9702	2.1518	2.5479	0.9467	1.571	2.1518	-1.1145	-0.8694	7.4927	4.5453	1.7422	-3.5114	1.0306	-2.4002	0.1981	193.7723	7.5296
0.5807	1.0608	2.1887	1.9974	2.1149	2.5546	0.8493	1.9974	2.3868	0.7822	1.4166	1.9772	-1.3159	-0.8762	7.439	4.4748	1.7288	-3.6423	0.9332	-2.4875	0.0906	195.0076	7.6236
0.5035	0.9332	2.0712	1.9302	1.9705	2.4271	0.7587	1.8665	2.2559	0.6613	1.2622	1.8161	-1.4871	-0.8527	7.4423	4.411	1.6919	-3.7598	0.8459	-2.5613	-0.0504	196.1893	7.6773
0.3961	0.7788	1.9437	1.8799	1.8094	2.2961	0.6546	1.702	2.088	0.4935	1.091	1.6382	-1.712	-0.8258	7.4054	4.3103	1.6617	-3.9041	0.7654	-2.6285	-0.2014	197.3642	7.7444
0.3122	0.6747	1.8295	1.8329	1.6718	2.1686	0.5338	1.5442	1.9571	0.3323	0.9232	1.4838	-1.9135	-0.8023	7.3618	4.2599	1.5912	-4.0417	0.6613	-2.7124	-0.3189	198.4888	7.8284
0.2551	0.5774	1.7389	1.7926	1.524	2.0578	0.4297	1.3864	1.8161	0.1678	0.6915	1.2958	-2.1115	-0.7721	7.3047	4.176	1.5308	-4.1861	0.527	-2.8131	-0.5069	199.5932	7.8955
0.1712	0.4733	1.665	1.7523	1.3663	1.9504	0.3391	1.2253	1.6785	0.0436	0.527	1.1145	-2.3129	-0.7217	7.2443	4.0787	1.4435	-4.317	0.4196	-2.8836	-0.6512	200.6775	7.9257
0.1343	0.3894	1.5979	1.749	1.2119	1.8832	0.2551	1.0608	1.5475	-0.1276	0.3156	0.9265	-2.5211	-0.6882	7.1872	3.9847	1.3696	-4.4647	0.2921	-2.9642	-0.8527	201.7416	8.0298
0.0906	0.2887	1.5442	1.712	1.0709	1.8161	0.1645	0.8862	1.4133	-0.2786	0.0873	0.7587	-2.746	-0.6412	7.1368	3.8504	1.2857	-4.6124	0.1813	-3.0212	-1.0339	202.789	8.0768
0.0436	0.2383	1.5005	1.7422	0.9802	1.7188	0.1242	0.752	1.2689	-0.3961	-0.141	0.5606	-2.9306	-0.5975	7.1234	3.7665	1.1884	-4.7433	0.0604	-3.0783	-1.2186	203.8129	8.1439
0.0302	0.1511	1.4703	1.7355	0.8627	1.6617	0.0604	0.5841	1.1279	-0.5405	-0.3558	0.3659	-3.1421	-0.5405	7.1033	3.6792	1.1111	-4.8709	-0.0671	-3.1488	-1.4066	204.8233	8.2278
0.0269	0.1175	1.4569	1.7691	0.762	1.6046	0.0369	0.423	1.0172	-0.6949	-0.6009	0.1813	-3.3334	-0.5069	7.1301	3.6087	1.0339	-5.0153	-0.188	-3.2126	-1.618	205.8035	8.3151
0.0403	0.1007	1.4468	1.8094	0.6747	1.5744	-0.0201	0.2954	0.9198	-0.799	-0.8124	0.0034	-3.5248	-0.4733	7.1805	3.6121	0.9634	-5.1563	-0.3088	-3.2831	-1.7926	206.7804	8.3923
0.0873	0.1041	1.4771	1.8698	0.6512	1.5408	-0.0101	0.1779	0.8325	-0.9198	-0.997	-0.1343	-3.6456	-0.4565	7.2476	3.6557	0.9399	-5.257	-0.4028	-3.2932	-1.9537	207.7405	8.4897
0.1779	0.1309	1.5442	1.9571	0.6076	1.571	0.0101	0.1175	0.7721	-0.9567	-1.1414	-0.282	-3.7766	-0.4532	7.3819	3.7698	0.9164	-5.3543	-0.4599	-3.3267	-2.1014	208.6871	8.5837
0.2551	0.1813	1.5979	1.9907	0.5908	1.5845	0.0168	0.0336	0.7285	-1.0406	-1.3226	-0.3928	-3.9175	-0.4666	7.4893	3.9343	0.9332	-5.4349	-0.5002	-3.3469	-2.2357	209.617	8.6609
0.3592	0.2686	1.7188	2.0981	0.6177	1.6348	0.0705	-0.0436	0.6848	-1.0541	-1.4603	-0.4901	-4.0048	-0.4767	7.6404	4.1492	0.9735	-5.4752	-0.5405	-3.3536	-2.3666	210.567	8.765
0.4062	0.3189	1.7657	2.1552	0.658	1.665	0.0906	-0.0369	0.6647	-1.1111	-1.5643	-0.574	-4.0887	-0.5069	7.7209	4.3472	1.0239	-5.5591	-0.5606	-3.3536	-2.4304	211.5137	8.8556
0.5371	0.4465	1.8866	2.2693	0.715	1.7557	0.1746	-0.0436	0.6747	-1.0843	-1.6818	-0.6345	-4.119	-0.5371	7.8888	4.6057	1.0709	-5.5759	-0.5573	-3.3435	-2.5076	212.4603	8.9529
0.6714	0.5405	1.9806	2.3499	0.7587	1.7892	0.2283	-0.0671	0.6781	-1.1145	-1.7691	-0.7251	-4.1794	-0.5774	7.9794	4.8172	1.1649	-5.6329	-0.5807	-3.3401	-2.5882	213.4003	9.01
0.799	0.6714	2.1115	2.4304	0.8527	1.8698	0.282	-0.0571	0.6882	-1.0843	-1.8564	-0.7687	-4.1995	-0.621	8.1271	5.069	1.1984	-5.6464	-0.5606	-3.3234	-2.6553	214.3637	9.0671
0.95	0.8359	2.2491	2.558	0.9534	1.9672	0.3592	-0.0168	0.705	-1.0138	-1.9067	-0.7922	-4.1827	-0.6277	8.2446	5.3207	1.2387	-5.6497	-0.5405	-3.3032	-2.7057	215.3104	9.1309
1.0742	0.9366	2.3499	2.6385	1.0104	2.0142	0.4263	-0.0101	0.7083	-0.9937	-1.9806	-0.8594	-4.2297	-0.6378	8.342	5.5826	1.2723	-5.6497	-0.5438	-3.2697	-2.7728	216.2637	9.2249
1.1649	1.0474	2.4808	2.6822	1.0876	2.0813	0.5035	0	0.7251	-0.9668	-2.041	-0.8795	-4.2062	-0.6546	8.4259	5.7806	1.3025	-5.6766	-0.5505	-3.2629	-2.8198	217.2406	9.2618
1.2958	1.1816	2.5781	2.7762	1.1716	2.1317	0.5875	0.0034	0.7318	-0.9232	-2.1115	-0.95	-4.1995	-0.6613	8.54	5.9888	1.3226	-5.6665	-0.5606	-3.226	-2.887	218.1973	9.3021
1.3998	1.2924	2.6755	2.8064	1.2589	2.1719	0.6412	0.0302	0.7184	-0.8694	-2.2021	-1.0071	-4.1794	-0.658	8.6441	6.217	1.3293	-5.6766	-0.5438	-3.2092	-2.9642	219.1809	9.3491
1.4838	1.3998	2.7795	2.85	1.3428	2.2122	0.7083	0.0302	0.7251	-0.8426	-2.2592	-1.0675	-4.2029	-0.6546	8.6978	6.4218	1.3193	-5.6766	-0.574	-3.1924	-3.0347	220.1578	9.3826
1.524	1.4737	2.8232	2.8836	1.3629	2.2055	0.7385	0	0.6848	-0.8258	-2.3734	-1.1414	-4.2197	-0.6613	8.7683	6.5695	1.3193	-5.7034	-0.5942	-3.1723	-3.1387	221.1447	9.386
1.5979	1.5543	2.8702	2.9037	1.4133	2.2525	0.7889	-0.0134	0.6714	-0.7889	-2.4539	-1.2051	-4.223	-0.6378	8.822	6.7239	1.2991	-5.7034	-0.6345	-3.1857	-3.2227	222.1283	9.4028
1.6516	1.6214	2.9105	2.9407	1.4368	2.2391	0.8627	-0.0369	0.6311	-0.762	-2.5311	-1.232	-4.1861	-0.6412	8.8724	6.8616	1.2891	-5.7202	-0.6512	-3.1857	-3.3301	223.0984	9.4061
1.6953	1.6583	2.9407	2.9474	1.4603	2.2324	0.903	-0.0638	0.5875	-0.7587	-2.6285	-1.326	-4.223	-0.6378	8.9328	6.9891	1.2756	-5.7538	-0.6949	-3.1857	-3.4274	224.0451	9.4028
1.7255	1.7288	2.9776	2.9608	1.5005	2.2256	0.9366	-0.0705	0.5606	-0.7016	-2.6956	-1.3864	-4.2062	-0.6277	8.9899	7.1066	1.2622	-5.7706	-0.6915	-3.1891	-3.5248	224.9582	9.4128
1.7624	1.7624	3.0145	2.9675	1.5375	2.229	0.9702	-0.094	0.5237	-0.7117	-2.7628	-1.4468	-4.2197	-0.611	9.0536	7.1805	1.2219	-5.8008	-0.6982	-3.226	-3.6121	225.8511	9.386
1.8195	1.8362	3.0582	3.0179	1.5744	2.2357	1.0205	-0.0974	0.5035	-0.6311	-2.8131	-1.4636	-4.2029	-0.5875	9.1376	7.2308	1.1783	-5.8142	-0.7285	-3.2361	-3.7128	226.6937	9.3625
1.8295	1.8665	3.0347	3.0212	1.5912	2.1887	1.0306	-0.1074	0.4901	-0.6445	-2.8836	-1.5005	-4.1928	-0.564	9.1611	7.2745	1.138	-5.8344	-0.7755	-3.2764	-3.7933	227.5162	9.3457
1.8497	1.8933	3.0347	3.0447	1.6113	2.1988	1.0944	-0.1242	0.4364	-0.6042	-2.9407	-1.5375	-4.1693	-0.5338	9.2416	7.3114	1.0843	-5.8679	-0.7788	-3.2462	-3.894	228.2748	9.2886
1.8631	1.9269	3.0179	3.0347	1.6113	2.1518	1.0809	-0.1443	0.4095	-0.5606	-2.9675	-1.5778	-4.1425	-0.5035	9.3524	7.355	1.0172	-5.8981	-0.809	-3.3032	-3.9478	229.01	9.2416
1.8698	1.9336	3.0246	3.0145	1.6214	2.0981	1.1044	-0.188	0.3827	-0.5472	-3.0447	-1.6214	-4.1559	-0.47	9.4061	7.3752	0.9534	-5.9384	-0.8124	-3.32	-4.0216	229.7015	9.2215
1.8732	1.937	2.981	2.9877	1.6248	2.0779	1.0675	-0.1981	0.3491	-0.5505	-3.0917	-1.6617	-4.166	-0.433	9.4363	7.3785	0.8896	-5.972	-0.8426	-3.3267	-4.1022	230.3662	9.2014
1.8161	1.9034	2.9239	2.934	1.5912	2.0041	1.0474	-0.2417	0.2383	-0.5908	-3.1555	-1.7221	-4.1995	-0.4129	9.4833	7.3584	0.8325	-6.0223	-0.8694	-3.3838	-4.1827	231.0074	9.1745
1.7859	1.8732	2.8903	2.9004	1.5677	1.9437	0.9836	-0.2618	0.2148	-0.5807	-3.1824	-1.7422	-4.1928	-0.3827	9.4901	7.3416	0.7687	-6.0492	-0.8661	-3.3804	-4.2163	231.5948	9.151
1.7892	1.8698	2.8333	2.8198	1.5509	1.8933	0.9769	-0.2652	0.1343	-0.5908	-3.2126	-1.749	-4.2163	-0.3391	9.5303	7.2812	0.7016	-6.0861	-0.8829	-3.3838	-4.2633	232.1689	9.1309
1.712	1.7926	2.7628	2.7628	1.514	1.7825	0.9332	-0.3021	0.094	-0.6378	-3.2361	-1.7859	-4.2499	-0.3088	9.5203	7.1906	0.658	-6.1197	-0.9097	-3.4006	-4.3103	232.7094	9.1376
1.6415	1.7624	2.6889	2.6956	1.4703	1.6986	0.8426	-0.3458	0.0336	-0.6647	-3.2797	-1.8362	-4.2902	-0.2921	9.5303	7.1234	0.6143	-6.1566	-0.9164	-3.414	-4.3439	233.1994	9.1309
1.618	1.7221	2.5983	2.6352	1.4032	1.6013	0.799	-0.3558	-0.0436	-0.7184	-3.2932	-1.8732	-4.3237	-0.2551	9.5102	6.9824	0.564	-6.1768	-0.9097	-3.4274	-4.3707	233.6761	9.1141
1.5442	1.6415	2.511	2.5714	1.3528	1.5005	0.7318	-0.3827	-0.1007	-0.7452	-3.3099	-1.9168	-4.3439	-0.2451	9.48	6.8716	0.517	-6.1868	-0.9332	-3.4341	-4.3774	234.1025	9.1141
1.5073	1.5979	2.417	2.5177	1.3126	1.4066	0.6647	-0.3928	-0.1846	-0.8191	-3.3099	-1.9571	-4.3942	-0.2316	9.48	6.7877	0.4901	-6.2204	-0.8929	-3.4106	-4.3674	234.5187	9.1409
1.4301	1.5576	2.3331	2.4573	1.2689	1.3092	0.5908	-0.376	-0.2182	-0.8829	-3.2932	-1.9537	-4.4278	-0.2316	9.4699	6.7072	0.4666	-6.217	-0.8929	-3.4106	-4.3137	234.8947	9.1476
1.373	1.4938	2.2458	2.4103	1.2051	1.2085	0.5237	-0.4028	-0.2652	-0.9299	-3.2529	-1.994	-4.4647	-0.2148	9.4598	6.6266	0.4599	-6.2405	-0.8762	-3.3972	-4.2902	235.2707	9.1644
1.3361	1.4804	2.1585	2.3935	1.1783	1.1279	0.4599	-0.423	-0.3458	-0.9869	-3.2529	-2.0377	-4.505	-0.2283	9.4598	6.5225	0.4868	-6.2875	-0.8292	-3.4039	-4.2331	235.5795	9.2114
1.2924	1.4435	2.0947	2.3801	1.1749	1.0843	0.4364	-0.3793	-0.3424	-1.0507	-3.2126	-2.0242	-4.5486	-0.2249	9.4598	6.4856	0.4767	-6.2909	-0.7855	-3.3838	-4.1559	235.8615	9.2349
1.2656	1.3831	2.0377	2.3834	1.1212	0.997	0.386	-0.3625	-0.3827	-1.1011	-3.1689	-2.0343	-4.6191	-0.2417	9.4632	6.4352	0.5035	-6.3446	-0.7654	-3.3704	-4.1122	236.1401	9.2484
1.2018	1.326	1.9403	2.3633	1.0742	0.8896	0.3156	-0.4028	-0.4666	-1.1716	-3.1454	-2.0813	-4.6863	-0.2484	9.5001	6.3882	0.527	-6.3715	-0.762	-3.3804	-4.0451	236.3785	9.2685
1.1447	1.2589	1.8295	2.3398	1.0272	0.7922	0.2451	-0.4062	-0.517	-1.2656	-3.1387	-2.0947	-4.7534	-0.2786	9.527	6.3412	0.5606	-6.405	-0.7318	-3.3972	-3.9645	236.6168	9.3021
1.1078	1.1816	1.759	2.3566	0.9534	0.7385	0.2081	-0.4129	-0.5371	-1.3126	-3.075	-2.1283	-4.8239	-0.2719	9.5706	6.405	0.5807	-6.4352	-0.7016	-3.4106	-3.9008	236.8518	9.3323
1.0608	1.1179	1.6885	2.37	0.8997	0.6546	0.1443	-0.4398	-0.5841	-1.4032	-3.0414	-2.1686	-4.8843	-0.2988	9.5975	6.4017	0.611	-6.4822	-0.6915	-3.4274	-3.8437	237.0801	9.3726
1.0104	1.0507	1.5811	2.3834	0.8359	0.5673	0.0906	-0.4733	-0.6546	-1.4905	-3.0246	-2.1854	-4.9615	-0.3088	9.6445	6.489	0.6311	-6.5024	-0.6445	-3.414	-3.7833	237.2916	9.433
0.9366	0.9601	1.524	2.3734	0.7855	0.4968	0.0739	-0.4834	-0.6815	-1.5341	-3.0112	-2.1988	-5.0287	-0.3088	9.7318	6.5964	0.6311	-6.5192	-0.6345	-3.4274	-3.7161	237.4728	9.5068
0.9332	0.8728	1.4233	2.3767	0.7016	0.4163	0.0034	-0.5069	-0.762	-1.608	-2.981	-2.2491	-5.1193	-0.3357	9.7989	6.6937	0.6613	-6.5359	-0.6546	-3.4476	-3.696	237.6407	9.5572
0.8392	0.8124	1.3193	2.3901	0.6311	0.3323	0.0034	-0.5673	-0.8191	-1.665	-2.9877	-2.2894	-5.1898	-0.3256	9.8593	6.7709	0.6512	-6.5393	-0.658	-3.4375	-3.6557	237.775	9.6545
0.8224	0.715	1.2119	2.3801	0.5405	0.2652	-0.0638	-0.5975	-0.8527	-1.7389	-2.991	-2.3431	-5.2536	-0.3156	10.0037	6.8884	0.6378	-6.5259	-0.6747	-3.4174	-3.6188	237.8723	9.7586
0.7654	0.6311	1.1481	2.417	0.4666	0.2048	-0.0974	-0.658	-0.8929	-1.7892	-2.9843	-2.3599	-5.3073	-0.3156	10.0842	7.0093	0.6277	-6.5158	-0.6915	-3.3838	-3.6121	237.9764	9.856
0.7016	0.5203	1.0507	2.4405	0.3625	0.1175	-0.141	-0.7385	-0.9634	-1.8295	-3.0145	-2.4069	-5.3711	-0.3156	10.1883	7.1201	0.6311	-6.5091	-0.7251	-3.367	-3.6188	238.0435	9.9667
0.7016	0.4733	1.0037	2.4673	0.3491	0.0839	-0.1276	-0.7452	-0.9634	-1.8228	-2.9843	-2.3935	-5.3812	-0.2853	10.2655	7.2476	0.5774	-6.452	-0.7083	-3.3469	-3.5818	238.1308	10.0674
0.6277	0.3693	0.9198	2.4741	0.2451	0.0134	-0.1477	-0.799	-1.0138	-1.8463	-3.0112	-2.4103	-5.408	-0.2753	10.3729	7.3819	0.5573	-6.4319	-0.762	-3.2999	-3.5718	238.1812	10.1715
0.611	0.3357	0.8728	2.4908	0.1712	-0.0134	-0.141	-0.8325	-1.0474	-1.8228	-2.9843	-2.4036	-5.4013	-0.2551	10.4367	7.5296	0.5035	-6.3446	-0.7956	-3.2529	-3.555	238.2349	10.2957
0.527	0.2551	0.8191	2.4841	0.0638	-0.0638	-0.1611	-0.8862	-1.0675	-1.8631	-2.991	-2.4136	-5.4282	-0.2283	10.524	7.6538	0.4767	-6.3043	-0.8258	-3.226	-3.5852	238.2752	10.3931
0.517	0.1712	0.7486	2.4942	0.0067	-0.1309	-0.1611	-0.9232	-1.091	-1.8396	-2.9977	-2.4136	-5.4315	-0.1981	10.5676	7.7579	0.4263	-6.217	-0.8627	-3.1857	-3.602	238.3188	10.4669
0.48	0.1376	0.6747	2.464	-0.0504	-0.1645	-0.1813	-1.0037	-1.1179	-1.843	-3.0313	-2.4237	-5.4248	-0.1746	10.618	7.8854	0.3726	-6.1801	-0.9265	-3.1387	-3.6053	238.3624	10.5609
0.4263	0.0705	0.6512	2.4707	-0.1141	-0.2115	-0.188	-1.0608	-1.1514	-1.8362	-3.0548	-2.4438	-5.4013	-0.1544	10.6717	7.9929	0.3156	-6.1331	-0.9567	-3.1018	-3.6456	238.4027	10.6146
0.386	0.0269	0.6076	2.4338	-0.1611	-0.2618	-0.1947	-1.0776	-1.1816	-1.8094	-3.0615	-2.4405	-5.3946	-0.1074	10.7019	8.0869	0.2417	-6.0425	-1.0104	-3.0783	-3.6624	238.4396	10.6583
0.3122	-0.0436	0.5405	2.3901	-0.235	-0.3592	-0.2081	-1.1783	-1.2454	-1.8497	-3.0951	-2.4808	-5.4047	-0.0772	10.7086	8.1406	0.1981	-6.0223	-1.0641	-3.0515	-3.743	238.4833	10.7153
