"FZ"	"FC3"	"FCZ"	"FC4"	"C3"	"CZ"	"C4"	"CP3"	"CPZ"	"CP4"	"P3"	"PZ"	"P4"	"OZ"	"FP1"	"FP2"	"A2"	"P8"	"TP7"	"TP8"	"P7"
1.5869	1.8234	2.3155	0.988	1.6212	2.2888	0.5646	1.5678	2.0981	0.4921	1.9722	1.5335	0.4959	-0.248	0.1602	-0.2022	0.4692	-0.2289	1.4267	-0.5646	1.7052
1.6975	1.9493	2.4338	1.0643	1.7624	2.3689	0.679	1.7242	2.2163	0.5798	2.1095	1.6556	0.5455	-0.267	0.2747	-0.0725	0.4959	-0.1945	1.5106	-0.4616	1.8082
1.7586	2.0828	2.4796	1.0986	1.8616	2.4376	0.7248	1.8082	2.285	0.618	2.2011	1.7357	0.5875	-0.2785	0.3395	0.0229	0.5112	-0.1602	1.5411	-0.3853	1.915
1.8082	2.1286	2.5482	1.152	1.9417	2.4948	0.7668	1.9417	2.3422	0.6599	2.2888	1.8082	0.6142	-0.2632	0.4234	0.0954	0.5035	-0.1259	1.5411	-0.3052	1.9073
1.8387	2.2011	2.5749	1.1826	1.976	2.5253	0.8507	1.9875	2.3499	0.7172	2.3232	1.8463	0.6447	-0.2785	0.4616	0.0648	0.5035	-0.0763	1.564	-0.2289	1.9341
1.8654	2.2278	2.5902	1.2283	1.9875	2.5444	0.8736	2.0294	2.346	0.721	2.3842	1.8616	0.6599	-0.2632	0.4501	0.0763	0.4845	-0.0534	1.5335	-0.1602	1.8997
1.8387	2.2278	2.5978	1.236	2.018	2.5482	0.9308	2.0714	2.3575	0.7706	2.4071	1.8921	0.6714	-0.2518	0.4539	0.042	0.4539	-0.0305	1.5411	-0.0916	1.8959
1.8349	2.2202	2.5902	1.2703	2.0065	2.5139	0.9232	2.0828	2.346	0.7744	2.3956	1.8997	0.6561	-0.2213	0.4349	-0.042	0.4272	0.0038	1.5068	-0.0305	1.8616
1.7815	2.2049	2.5597	1.2665	2.0103	2.5291	0.9537	2.0943	2.3384	0.7744	2.4109	1.8959	0.6561	-0.1945	0.3967	-0.0877	0.3815	-0.0038	1.4915	-0.0153	1.8387
1.7319	2.1782	2.5368	1.2512	1.976	2.4567	0.9308	2.0828	2.2469	0.7248	2.4033	1.8806	0.618	-0.1831	0.3853	-0.1717	0.3471	0.0153	1.4725	-0.0229	1.8158
1.6899	2.1477	2.4643	1.2589	1.9608	2.4071	0.8965	2.0752	2.2087	0.7324	2.3766	1.8463	0.618	-0.164	0.3548	-0.2861	0.2823	0.0305	1.442	-0.0496	1.7853
1.6022	2.079	2.3956	1.1978	1.9341	2.3041	0.8202	2.0256	2.1362	0.7057	2.327	1.7967	0.576	-0.1297	0.2975	-0.3929	0.2403	0.0076	1.4	-0.061	1.7586
1.5144	2.037	2.3041	1.1482	1.8997	2.2354	0.8011	1.9989	2.0828	0.6828	2.2812	1.7395	0.5569	-0.1259	0.2441	-0.5264	0.2174	-0.0076	1.3809	-0.1068	1.7738
1.4725	1.9951	2.2507	1.133	1.9188	2.1782	0.7782	2.0103	1.9875	0.6523	2.2507	1.7166	0.5417	-0.0992	0.2174	-0.5951	0.145	0.0114	1.3924	-0.145	1.7471
1.3542	1.9608	2.1286	1.0834	1.8425	2.0561	0.7362	1.9684	1.8959	0.6218	2.182	1.6174	0.5074	-0.0801	0.164	-0.6905	0.1297	0	1.3733	-0.1793	1.6975
1.2932	1.8997	2.0409	1.0529	1.8539	1.9646	0.7019	1.9531	1.8196	0.618	2.1095	1.5678	0.4959	-0.0687	0.1259	-0.7973	0.0916	0.0305	1.3924	-0.2251	1.6747
1.2054	1.8425	1.9226	1.0223	1.8272	1.8692	0.7057	1.8806	1.709	0.6218	2.0447	1.503	0.4845	-0.061	0.0916	-0.8888	0.103	0.042	1.3695	-0.2556	1.6365
1.133	1.8005	1.8234	0.9651	1.8005	1.7395	0.6638	1.8349	1.6098	0.5989	1.9493	1.4191	0.4616	-0.0725	0.0267	-0.9995	0.1144	0.0496	1.3542	-0.2861	1.5831
1.0605	1.7509	1.6747	0.9079	1.7433	1.6174	0.6599	1.7776	1.4839	0.6142	1.8768	1.3161	0.4349	-0.061	-0.0458	-1.0796	0.1068	0.061	1.3618	-0.2747	1.5564
0.9804	1.6937	1.5831	0.8736	1.6861	1.4954	0.5951	1.6937	1.3885	0.5951	1.7471	1.2245	0.4158	-0.0648	-0.0687	-1.1711	0.1297	0.0801	1.3237	-0.2861	1.4725
0.8698	1.6136	1.4534	0.8011	1.5984	1.3428	0.5341	1.5984	1.2245	0.5608	1.6212	1.1101	0.4082	-0.103	-0.1373	-1.2627	0.1755	0.0839	1.2741	-0.3128	1.3885
0.7858	1.5068	1.2856	0.7172	1.4801	1.1864	0.5264	1.4763	1.0796	0.5417	1.4687	0.9804	0.3548	-0.1106	-0.2098	-1.2779	0.2098	0.0877	1.2321	-0.3471	1.2779
0.6905	1.4076	1.133	0.6256	1.339	1.0109	0.4158	1.3084	0.9193	0.4883	1.2932	0.8469	0.2785	-0.1373	-0.2632	-1.2703	0.2632	0.0877	1.133	-0.3777	1.1711
0.6142	1.2894	1.0109	0.576	1.2245	0.8698	0.3395	1.1635	0.8011	0.4425	1.152	0.7019	0.2747	-0.1488	-0.2708	-1.255	0.2937	0.0877	1.0452	-0.3738	1.03
0.5531	1.1787	0.8774	0.5188	1.0872	0.7286	0.3242	0.9689	0.6447	0.4196	0.9613	0.5608	0.2174	-0.1755	-0.2518	-1.2054	0.3433	0.0992	0.946	-0.3586	0.885
0.4845	1.0414	0.7477	0.4463	0.9384	0.6142	0.2251	0.8163	0.5035	0.3395	0.7515	0.4082	0.1678	-0.2022	-0.2708	-1.152	0.3891	0.0496	0.8316	-0.3853	0.7324
0.4005	0.9193	0.6905	0.3891	0.8125	0.4807	0.1373	0.618	0.3777	0.2899	0.576	0.2785	0.1373	-0.2289	-0.2594	-1.0109	0.4387	0.0534	0.7057	-0.3815	0.576
0.3624	0.8316	0.5836	0.3471	0.6828	0.3662	0.0877	0.4616	0.2708	0.2365	0.4044	0.164	0.103	-0.2594	-0.1831	-0.9117	0.4845	0.0267	0.6218	-0.3777	0.4654
0.3357	0.7286	0.5302	0.3281	0.5875	0.2785	0.0191	0.3242	0.1297	0.1907	0.2441	0.0496	0.0725	-0.2594	-0.1335	-0.7782	0.515	0.0153	0.4959	-0.3738	0.3166
0.3242	0.6485	0.4768	0.2785	0.4845	0.206	-0.0153	0.1678	0.0343	0.1488	0.0992	-0.061	0.0114	-0.2975	-0.0496	-0.6256	0.5608	-0.0114	0.3967	-0.351	0.2098
0.2899	0.5417	0.4272	0.2785	0.3586	0.0916	-0.0572	0.0153	-0.0458	0.0954	-0.0458	-0.1869	-0.0191	-0.3128	0	-0.5035	0.5913	-0.0153	0.2975	-0.3281	0.0916
0.2823	0.4425	0.4044	0.2251	0.2747	0.0496	-0.1183	-0.1221	-0.1488	0.0458	-0.2098	-0.309	-0.0496	-0.3357	0.0648	-0.3815	0.6332	-0.0153	0.2289	-0.2785	0.0153
0.2518	0.3281	0.3319	0.206	0.1717	-0.0343	-0.1221	-0.2632	-0.2213	0.0076	-0.351	-0.4005	-0.0992	-0.3357	0.0916	-0.2823	0.6523	-0.061	0.1335	-0.2747	-0.1068
0.2174	0.2022	0.3052	0.1755	0.0267	-0.1183	-0.1717	-0.3967	-0.3395	-0.0687	-0.4883	-0.4959	-0.1411	-0.3662	0.1221	-0.2098	0.6943	-0.1068	0.0458	-0.2518	-0.1793
0.2365	0.0687	0.2441	0.164	-0.0763	-0.1488	-0.1678	-0.5035	-0.3853	-0.0839	-0.6218	-0.576	-0.1755	-0.37	0.1411	-0.1297	0.7095	-0.1678	-0.061	-0.2327	-0.2708
0.1907	-0.0496	0.2136	0.164	-0.1945	-0.2441	-0.1793	-0.6485	-0.4883	-0.145	-0.7477	-0.679	-0.2136	-0.3929	0.1488	-0.0534	0.7439	-0.2174	-0.1564	-0.2174	-0.3738
0.1945	-0.1945	0.1755	0.2098	-0.3242	-0.3052	-0.1678	-0.7515	-0.5302	-0.1526	-0.8278	-0.7362	-0.2708	-0.4044	0.1488	-0.0153	0.7553	-0.2136	-0.2136	-0.1907	-0.4539
0.164	-0.3052	0.1411	0.206	-0.4234	-0.3433	-0.1717	-0.8316	-0.6256	-0.1678	-0.9232	-0.7935	-0.2937	-0.412	0.1488	0.0534	0.782	-0.2708	-0.3395	-0.1678	-0.5493
0.1678	-0.3967	0.0954	0.2403	-0.5493	-0.4005	-0.164	-0.9193	-0.6676	-0.1945	-1.0223	-0.8507	-0.3319	-0.412	0.1564	0.1144	0.8011	-0.3319	-0.4196	-0.1335	-0.6409
0.1411	-0.4768	0.061	0.2708	-0.618	-0.4234	-0.0992	-0.9804	-0.7095	-0.2022	-1.0757	-0.9117	-0.3242	-0.4158	0.1335	0.1488	0.7935	-0.3242	-0.4654	-0.061	-0.6714
0.0916	-0.5798	0.0343	0.2785	-0.6866	-0.4616	-0.0839	-1.0033	-0.7362	-0.2022	-1.0948	-0.9232	-0.351	-0.4196	0.1106	0.1602	0.8011	-0.3662	-0.5379	-0.0458	-0.721
0.0725	-0.6218	-0.0267	0.2823	-0.7477	-0.4997	-0.0572	-1.0567	-0.7629	-0.248	-1.1024	-0.9689	-0.3891	-0.4082	0.0839	0.1793	0.7935	-0.3815	-0.576	-0.042	-0.7706
0.0572	-0.6828	-0.0648	0.2899	-0.7858	-0.5302	-0.042	-1.0223	-0.8011	-0.2365	-1.1215	-0.9727	-0.3738	-0.4005	0.0496	0.1984	0.7668	-0.3662	-0.6065	-0.0305	-0.7515
0.0076	-0.7057	-0.1183	0.2861	-0.8202	-0.5646	-0.0038	-1.0529	-0.8049	-0.2632	-1.0948	-0.9842	-0.4082	-0.3891	-0.0153	0.206	0.7477	-0.3891	-0.6027	-0.0191	-0.7668
-0.0305	-0.6981	-0.164	0.2518	-0.8469	-0.5836	-0.0229	-1.0147	-0.8087	-0.2708	-1.0757	-0.9689	-0.4082	-0.37	-0.0343	0.2213	0.6943	-0.351	-0.5951	0.0076	-0.721
-0.042	-0.7057	-0.2174	0.2251	-0.8278	-0.6104	-0.0038	-0.9995	-0.8278	-0.2747	-1.0414	-0.9422	-0.3967	-0.3357	-0.0992	0.2441	0.6294	-0.3204	-0.5531	0.0191	-0.6752
-0.0877	-0.6485	-0.2632	0.1793	-0.8049	-0.618	-0.0343	-0.9346	-0.824	-0.2975	-0.9804	-0.9232	-0.4005	-0.2975	-0.1221	0.2785	0.5569	-0.351	-0.5493	0.0153	-0.6943
-0.103	-0.5951	-0.2975	0.145	-0.7553	-0.6294	-0.0038	-0.885	-0.8049	-0.2785	-0.9346	-0.8698	-0.4082	-0.248	-0.1373	0.3204	0.4578	-0.3128	-0.5035	0.0305	-0.6485
-0.0801	-0.5302	-0.3204	0.1526	-0.6905	-0.6218	0.0038	-0.782	-0.7744	-0.2556	-0.843	-0.8278	-0.351	-0.1831	-0.1602	0.3586	0.3662	-0.2747	-0.4196	0.042	-0.6332
-0.0916	-0.473	-0.37	0.1221	-0.6065	-0.6332	0.0114	-0.7172	-0.7706	-0.2403	-0.7858	-0.7858	-0.3395	-0.145	-0.1945	0.3548	0.2632	-0.2403	-0.3395	0.0496	-0.5989
-0.1144	-0.4044	-0.4234	0.0916	-0.5608	-0.6294	0.0305	-0.6409	-0.7286	-0.2327	-0.6943	-0.7286	-0.2975	-0.0916	-0.1793	0.3891	0.1602	-0.2251	-0.2747	0.0572	-0.6027
-0.1068	-0.3395	-0.4425	0.0877	-0.4959	-0.6294	0.0267	-0.5531	-0.7248	-0.2098	-0.6256	-0.6714	-0.2403	-0.0381	-0.1831	0.4349	0.0572	-0.1411	-0.2098	0.0877	-0.5684
-0.1221	-0.2899	-0.4768	0.0916	-0.4387	-0.6561	0.0648	-0.4997	-0.7133	-0.1869	-0.5722	-0.6142	-0.1984	0	-0.1717	0.4539	-0.0229	-0.1068	-0.164	0.1297	-0.5798
-0.1526	-0.2747	-0.5417	0.0763	-0.4539	-0.6638	0.0954	-0.4311	-0.7248	-0.1335	-0.4807	-0.5455	-0.1678	0.0458	-0.1526	0.4539	-0.0992	-0.0496	-0.1373	0.1297	-0.5455
-0.1717	-0.2289	-0.5989	0.0343	-0.4082	-0.679	0.1144	-0.4082	-0.7401	-0.0992	-0.4539	-0.5074	-0.1106	0.0534	-0.1717	0.4311	-0.1526	0.0114	-0.1183	0.1793	-0.5379
-0.2098	-0.1755	-0.6256	0.0267	-0.3624	-0.721	0.1221	-0.3204	-0.7362	-0.0648	-0.3738	-0.4616	-0.0534	0.0839	-0.145	0.4234	-0.2022	0.0801	-0.1106	0.2136	-0.4959
-0.2441	-0.1373	-0.6714	0.0153	-0.3281	-0.7248	0.145	-0.2518	-0.7172	-0.042	-0.2861	-0.4158	-0.0153	0.103	-0.1259	0.4158	-0.2289	0.1411	-0.1106	0.2251	-0.4501
-0.2785	-0.1221	-0.7324	-0.0229	-0.2861	-0.7782	0.1602	-0.1793	-0.7057	0	-0.2403	-0.3738	0.0305	0.1068	-0.0954	0.3815	-0.2403	0.1945	-0.1335	0.2556	-0.4311
-0.3395	-0.0725	-0.8125	-0.0954	-0.2594	-0.8011	0.1488	-0.1411	-0.6981	0.0076	-0.1945	-0.3548	0.0648	0.0954	-0.0992	0.3395	-0.2213	0.2403	-0.1183	0.2594	-0.3471
-0.4005	-0.0648	-0.8659	-0.1564	-0.2213	-0.8392	0.1144	-0.1183	-0.7286	-0.0076	-0.1526	-0.309	0.1144	0.0992	-0.0801	0.3014	-0.2098	0.2708	-0.0954	0.248	-0.3166
-0.5074	-0.1144	-0.9232	-0.2403	-0.2403	-0.8965	0.061	-0.0954	-0.7553	-0.0343	-0.1526	-0.3128	0.1221	0.0725	-0.0801	0.2632	-0.1602	0.2708	-0.103	0.2174	-0.2632
-0.5875	-0.1678	-1.0147	-0.3052	-0.2022	-0.9346	0.0038	-0.0877	-0.7477	-0.0381	-0.1373	-0.2937	0.1297	0.0458	-0.0496	0.2556	-0.1221	0.2899	-0.0916	0.206	-0.2098
-0.6752	-0.2251	-1.0757	-0.3891	-0.2785	-0.9918	-0.0801	-0.1183	-0.7858	-0.0725	-0.1373	-0.2937	0.1144	0.0305	-0.0458	0.2251	-0.0801	0.309	-0.0992	0.1602	-0.2022
-0.7401	-0.3319	-1.1826	-0.4616	-0.3204	-1.0338	-0.145	-0.1373	-0.8011	-0.1144	-0.1755	-0.3052	0.103	0.0229	-0.0458	0.2174	-0.0343	0.309	-0.1068	0.1183	-0.1907
-0.824	-0.3891	-1.2512	-0.5341	-0.3548	-1.0605	-0.1945	-0.1869	-0.8087	-0.1373	-0.2098	-0.3242	0.1068	0.0076	-0.0839	0.1984	-0.0114	0.3128	-0.1526	0.0839	-0.1945
-0.8812	-0.5074	-1.3084	-0.5722	-0.3777	-1.0948	-0.2556	-0.2174	-0.7973	-0.145	-0.2289	-0.3242	0.1068	-0.0038	-0.0534	0.1717	0.0038	0.3052	-0.1373	0.0801	-0.1717
-0.9422	-0.5951	-1.358	-0.6485	-0.4539	-1.1482	-0.3357	-0.2823	-0.8278	-0.1907	-0.2708	-0.3128	0.0954	-0.0153	-0.0763	0.1411	0.0076	0.2937	-0.1411	0.061	-0.1793
-0.988	-0.679	-1.4153	-0.6561	-0.4959	-1.1597	-0.3548	-0.3281	-0.8354	-0.2136	-0.351	-0.3357	0.0916	0.0114	-0.0496	0.1297	-0.0153	0.2747	-0.1411	0.0725	-0.1907
-1.049	-0.7706	-1.4572	-0.7248	-0.5493	-1.1559	-0.412	-0.3433	-0.8202	-0.2365	-0.3471	-0.351	0.0916	0.0114	-0.0916	0.0687	-0.0572	0.2785	-0.1945	0.0687	-0.1755
-1.0948	-0.8698	-1.4877	-0.7591	-0.6142	-1.1559	-0.4501	-0.4082	-0.8354	-0.2174	-0.412	-0.3548	0.0992	0.0458	-0.1183	0.0381	-0.0916	0.2899	-0.2289	0.103	-0.1907
-1.152	-0.9918	-1.5717	-0.8125	-0.7095	-1.2169	-0.5112	-0.4501	-0.843	-0.2441	-0.4578	-0.3738	0.0687	0.0534	-0.1564	-0.0191	-0.1411	0.267	-0.2708	0.145	-0.2136
-1.2169	-1.0986	-1.6098	-0.8316	-0.8125	-1.236	-0.5264	-0.5531	-0.8659	-0.2632	-0.5455	-0.3853	0.0572	0.0992	-0.2327	-0.0877	-0.2022	0.2747	-0.3395	0.1755	-0.2747
-1.2665	-1.2093	-1.6136	-0.8621	-0.885	-1.2398	-0.5531	-0.6294	-0.8469	-0.2441	-0.5951	-0.4044	0.0687	0.1297	-0.309	-0.145	-0.2556	0.2899	-0.4158	0.2289	-0.3471
-1.3161	-1.2817	-1.6975	-0.8926	-0.9842	-1.2779	-0.5531	-0.7133	-0.8698	-0.2327	-0.6866	-0.4387	0.0572	0.1602	-0.3662	-0.2098	-0.3471	0.3052	-0.5264	0.3014	-0.4044
-1.3695	-1.3847	-1.7242	-0.9384	-1.03	-1.297	-0.5379	-0.7973	-0.8736	-0.2403	-0.7401	-0.4463	0.0496	0.206	-0.4387	-0.2747	-0.4234	0.3281	-0.5951	0.3891	-0.4959
-1.442	-1.4877	-1.7776	-1.0071	-1.133	-1.2932	-0.5989	-0.8774	-0.9155	-0.2632	-0.8278	-0.5035	0.0229	0.2518	-0.515	-0.3395	-0.5035	0.3395	-0.7172	0.4196	-0.6142
-1.4763	-1.5678	-1.8005	-1.0529	-1.2321	-1.3123	-0.6218	-0.9689	-0.9155	-0.2632	-0.927	-0.5608	-0.0076	0.2861	-0.5455	-0.3471	-0.5836	0.3471	-0.8469	0.4501	-0.6943
-1.4839	-1.6556	-1.812	-1.1063	-1.2703	-1.3351	-0.6447	-1.0414	-0.9232	-0.2975	-0.9804	-0.5989	-0.0305	0.3281	-0.5455	-0.3128	-0.6638	0.3204	-0.9537	0.4768	-0.824
-1.4992	-1.7204	-1.8272	-1.2016	-1.339	-1.3504	-0.6828	-1.133	-0.9537	-0.309	-1.0605	-0.6409	-0.0534	0.3586	-0.5455	-0.248	-0.7477	0.3166	-1.0376	0.5112	-0.8583
-1.5221	-1.7738	-1.8425	-1.2321	-1.4076	-1.3657	-0.7095	-1.2131	-0.9575	-0.3433	-1.1406	-0.6943	-0.0877	0.4082	-0.5188	-0.164	-0.8163	0.3204	-1.1406	0.5264	-0.9651
-1.5411	-1.8196	-1.8387	-1.2932	-1.4496	-1.3695	-0.7362	-1.2894	-1.0071	-0.3777	-1.1902	-0.7515	-0.164	0.4234	-0.5035	-0.0687	-0.8621	0.2556	-1.2283	0.4768	-1.03
-1.5221	-1.812	-1.8196	-1.3161	-1.4954	-1.339	-0.7591	-1.3008	-1.0109	-0.4234	-1.255	-0.7668	-0.2213	0.4501	-0.4768	0.042	-0.9041	0.2327	-1.2856	0.4807	-1.091
-1.4725	-1.8425	-1.7891	-1.3199	-1.5411	-1.339	-0.7706	-1.3962	-1.0262	-0.4425	-1.2932	-0.7896	-0.2861	0.4539	-0.4234	0.1526	-0.9193	0.1793	-1.3161	0.4539	-1.1635
-1.4305	-1.8616	-1.7357	-1.3733	-1.5411	-1.3008	-0.8049	-1.4076	-1.0185	-0.4768	-1.3237	-0.824	-0.3281	0.4387	-0.3586	0.2403	-0.9003	0.1259	-1.3428	0.4005	-1.2131
-1.3771	-1.8654	-1.6899	-1.3504	-1.5945	-1.2779	-0.8278	-1.442	-1.0262	-0.5112	-1.3771	-0.8621	-0.3929	0.4272	-0.2975	0.3548	-0.8469	0.0648	-1.3962	0.351	-1.2512
-1.3046	-1.8692	-1.606	-1.339	-1.5945	-1.2245	-0.8163	-1.4725	-1.0033	-0.5531	-1.358	-0.8888	-0.4349	0.3967	-0.1793	0.4768	-0.8011	0.0076	-1.3924	0.3014	-1.2436
-1.2131	-1.8234	-1.5221	-1.3275	-1.6098	-1.1635	-0.8087	-1.4496	-0.9956	-0.5798	-1.4	-0.8698	-0.4501	0.3662	-0.103	0.5684	-0.7477	-0.0648	-1.3695	0.2518	-1.2741
-1.1215	-1.7624	-1.4267	-1.2703	-1.6022	-1.091	-0.7973	-1.4038	-0.927	-0.5646	-1.3695	-0.8469	-0.5112	0.3395	-0.0153	0.6104	-0.6905	-0.1144	-1.3237	0.1755	-1.2932
-0.9918	-1.6556	-1.3123	-1.2093	-1.545	-1.0033	-0.7477	-1.3618	-0.8659	-0.5684	-1.3237	-0.8354	-0.5302	0.3014	0.0229	0.6752	-0.6371	-0.1373	-1.2894	0.1068	-1.2665
-0.9003	-1.5221	-1.1749	-1.0948	-1.4381	-0.885	-0.7057	-1.2741	-0.7744	-0.5417	-1.2894	-0.7782	-0.5417	0.2975	0.103	0.7248	-0.6065	-0.1411	-1.2207	0.0954	-1.2665
-0.782	-1.3657	-1.0567	-1.0185	-1.3046	-0.7858	-0.6218	-1.1597	-0.679	-0.5035	-1.2054	-0.721	-0.5455	0.2861	0.164	0.7668	-0.5913	-0.1869	-1.1177	0.0534	-1.194
-0.6409	-1.2131	-0.8965	-0.9155	-1.1635	-0.6332	-0.5798	-1.03	-0.5646	-0.5188	-1.1368	-0.6676	-0.5074	0.2785	0.2098	0.7858	-0.5951	-0.206	-1.0185	0.0381	-1.1292
-0.5379	-1.0262	-0.7439	-0.8011	-0.9537	-0.515	-0.515	-0.8659	-0.4654	-0.4501	-1.03	-0.5798	-0.515	0.3014	0.2518	0.7973	-0.618	-0.1984	-0.9346	0	-1.0567
-0.4005	-0.8698	-0.5913	-0.6638	-0.782	-0.37	-0.4311	-0.6905	-0.3471	-0.4005	-0.9537	-0.4807	-0.4845	0.3128	0.2899	0.8087	-0.6447	-0.1907	-0.8354	0.0305	-0.9537
-0.2975	-0.6714	-0.4311	-0.5493	-0.5798	-0.2289	-0.3204	-0.5226	-0.1907	-0.37	-0.7935	-0.4005	-0.4501	0.3242	0.3395	0.843	-0.6676	-0.1831	-0.7324	0	-0.8583
-0.2098	-0.5608	-0.2899	-0.412	-0.4234	-0.0763	-0.2251	-0.3624	-0.0648	-0.2899	-0.6905	-0.3014	-0.4082	0.3548	0.3624	0.8507	-0.7057	-0.1907	-0.6371	0.0229	-0.7629
-0.1144	-0.4539	-0.1793	-0.3052	-0.2708	0.0305	-0.1411	-0.2251	0.0534	-0.2136	-0.5684	-0.1984	-0.3548	0.3471	0.3777	0.885	-0.7286	-0.1984	-0.5875	0.042	-0.6561
-0.0534	-0.3929	-0.042	-0.1411	-0.1297	0.1526	-0.0114	-0.0801	0.1602	-0.1335	-0.5112	-0.1144	-0.3204	0.3777	0.4234	0.9537	-0.7591	-0.1678	-0.5379	0.0954	-0.5913
0.0305	-0.2975	0.0572	-0.0572	-0.042	0.267	0.103	0.0305	0.2785	-0.0648	-0.4005	-0.0229	-0.267	0.3777	0.4578	0.988	-0.7896	-0.1259	-0.4578	0.1221	-0.4997
0.1183	-0.2518	0.1717	0.1106	0.0267	0.37	0.2327	0.145	0.3967	0.0229	-0.3357	0.0877	-0.2136	0.4158	0.4921	1.0643	-0.8163	-0.0992	-0.412	0.2251	-0.4539
0.1755	-0.1869	0.2861	0.267	0.1221	0.4578	0.3586	0.2251	0.4997	0.0992	-0.2518	0.1869	-0.1335	0.4272	0.5188	1.1024	-0.8621	-0.0839	-0.309	0.2899	-0.4349
0.2251	-0.1602	0.3548	0.3967	0.1488	0.5455	0.5035	0.3166	0.6065	0.1831	-0.1755	0.2632	-0.0954	0.4387	0.5684	1.1635	-0.9041	-0.0153	-0.2785	0.3624	-0.3662
0.2518	-0.1602	0.412	0.5188	0.1793	0.6332	0.6599	0.3738	0.6866	0.267	-0.0839	0.3319	-0.0305	0.473	0.5836	1.236	-0.9499	0	-0.2785	0.4578	-0.3357
0.2975	-0.1411	0.4959	0.6523	0.1945	0.7095	0.7935	0.4845	0.7591	0.3586	-0.0305	0.4387	0.0305	0.5112	0.5798	1.3008	-1.0376	0.0687	-0.2213	0.5264	-0.2785
0.3052	-0.1526	0.5264	0.7439	0.2022	0.7744	0.9308	0.4997	0.824	0.4578	0.0153	0.4959	0.0954	0.5531	0.6104	1.3847	-1.1177	0.1068	-0.1984	0.618	-0.248
0.3242	-0.1373	0.576	0.8507	0.2136	0.8049	1.0529	0.5226	0.8583	0.5188	0.0763	0.5417	0.1793	0.5913	0.5722	1.4458	-1.1978	0.1717	-0.1831	0.6905	-0.2174
0.3052	-0.1602	0.5798	0.946	0.1945	0.8392	1.1559	0.5684	0.9155	0.6218	0.103	0.5798	0.2441	0.6332	0.5531	1.503	-1.2741	0.2556	-0.206	0.7668	-0.1793
0.2861	-0.145	0.6065	1.0376	0.2556	0.885	1.2741	0.5913	0.9575	0.6943	0.1831	0.6332	0.3204	0.6561	0.5379	1.564	-1.3428	0.3319	-0.1755	0.8392	-0.1526
0.248	-0.1984	0.5608	1.0529	0.1945	0.885	1.3657	0.618	0.9499	0.7477	0.1869	0.6752	0.3624	0.7057	0.4463	1.6136	-1.4153	0.3738	-0.1831	0.8888	-0.1259
0.2174	-0.2022	0.5531	1.0757	0.2022	0.885	1.4305	0.6104	0.9804	0.8125	0.2289	0.7057	0.4272	0.7324	0.3891	1.5984	-1.4877	0.4158	-0.1984	0.9384	-0.103
0.1411	-0.2747	0.4997	1.0948	0.164	0.8621	1.4801	0.5875	0.9689	0.8621	0.1984	0.7095	0.4845	0.7591	0.2823	1.5907	-1.5297	0.4845	-0.2518	0.9499	-0.0725
0.0839	-0.3281	0.4501	1.0605	0.0954	0.8278	1.4877	0.5646	0.9346	0.8583	0.2213	0.721	0.5112	0.7782	0.1945	1.5717	-1.5793	0.4768	-0.2937	0.9575	-0.061
0.0114	-0.4387	0.4044	1.0223	0.0496	0.7896	1.4839	0.4997	0.9193	0.9003	0.2251	0.7019	0.5264	0.7973	0.0992	1.5488	-1.606	0.4959	-0.37	0.9422	-0.0114
-0.0763	-0.5226	0.309	0.9651	-0.0267	0.7591	1.4572	0.4425	0.8545	0.9041	0.1945	0.6561	0.5493	0.8125	-0.0191	1.4763	-1.6212	0.5302	-0.4463	0.9155	-0.0229
-0.1259	-0.6294	0.2747	0.8812	-0.0877	0.7133	1.4687	0.3738	0.8163	0.8965	0.1488	0.6523	0.5684	0.8163	-0.1297	1.4496	-1.6289	0.515	-0.5341	0.9003	-0.0267
-0.1755	-0.7172	0.1907	0.8316	-0.1717	0.6676	1.4191	0.3204	0.7973	0.8812	0.103	0.5913	0.5531	0.8049	-0.1945	1.4076	-1.6441	0.5188	-0.6027	0.8774	-0.061
-0.248	-0.8469	0.1411	0.7744	-0.2785	0.6294	1.3924	0.2136	0.7172	0.8698	0.0534	0.5341	0.5913	0.824	-0.3052	1.3313	-1.6441	0.515	-0.6561	0.8774	-0.0877
-0.248	-0.8888	0.1373	0.7095	-0.3471	0.5722	1.3313	0.1297	0.6561	0.8698	-0.0114	0.5455	0.5646	0.8125	-0.3433	1.3161	-1.6479	0.5264	-0.679	0.8469	-0.1144
-0.2708	-0.9766	0.0916	0.6714	-0.4349	0.5569	1.3123	0.0572	0.6218	0.8659	-0.0763	0.4997	0.5722	0.8125	-0.3815	1.3008	-1.6479	0.5341	-0.7286	0.824	-0.1526
-0.267	-1.0262	0.0534	0.6523	-0.5112	0.5417	1.2512	-0.0381	0.5569	0.8392	-0.1602	0.4349	0.5417	0.8163	-0.4044	1.3161	-1.6479	0.4921	-0.7706	0.7935	-0.2289
-0.2556	-1.091	0.0534	0.618	-0.6065	0.5379	1.2321	-0.1106	0.5341	0.824	-0.2365	0.4349	0.5493	0.8202	-0.412	1.3351	-1.667	0.4997	-0.824	0.7591	-0.2975
-0.2251	-1.1024	0.0687	0.6447	-0.679	0.5074	1.2207	-0.1984	0.4921	0.8163	-0.2937	0.351	0.5341	0.8278	-0.3853	1.3466	-1.6937	0.4768	-0.8659	0.721	-0.351
-0.2174	-1.1749	0.0648	0.618	-0.782	0.5188	1.2016	-0.2899	0.4768	0.8278	-0.3853	0.3281	0.5379	0.8507	-0.3281	1.3618	-1.7242	0.4539	-0.9308	0.7095	-0.4311
-0.1945	-1.2207	0.0839	0.6485	-0.8621	0.5112	1.1711	-0.3853	0.4349	0.7896	-0.5035	0.2899	0.5188	0.885	-0.2632	1.4267	-1.7776	0.4539	-0.988	0.7095	-0.5341
-0.145	-1.194	0.1183	0.7057	-0.9193	0.5417	1.1559	-0.4425	0.4311	0.7858	-0.576	0.267	0.5035	0.9155	-0.1411	1.503	-1.8196	0.4272	-1.0147	0.6981	-0.5989
-0.1297	-1.2321	0.1411	0.7286	-0.9613	0.5379	1.1597	-0.5302	0.412	0.7706	-0.6638	0.2365	0.4768	0.9308	-0.1144	1.564	-1.8501	0.412	-1.0223	0.6714	-0.6523
-0.0916	-1.1826	0.1945	0.782	-1.0147	0.6409	1.1482	-0.5875	0.4272	0.7668	-0.7324	0.2327	0.4997	0.9575	-0.0381	1.6403	-1.9112	0.4311	-1.0071	0.6714	-0.6943
-0.0572	-1.1826	0.248	0.824	-1.0109	0.6599	1.1368	-0.6485	0.4463	0.7553	-0.7744	0.2098	0.4845	0.9804	0.0381	1.6975	-1.9608	0.412	-0.9727	0.7133	-0.721
0.042	-1.1253	0.3128	0.9232	-1.03	0.7172	1.1673	-0.6752	0.4768	0.7935	-0.843	0.2251	0.4921	0.9995	0.1259	1.8005	-1.9989	0.4272	-0.9689	0.7858	-0.7553
0.0954	-1.0529	0.4349	1.0109	-0.9842	0.8316	1.1673	-0.6561	0.5226	0.8087	-0.8278	0.2403	0.5608	1.0338	0.1945	1.8768	-2.0676	0.4807	-0.9422	0.8469	-0.7477
0.1717	-1.0147	0.5379	1.1177	-0.9766	0.9041	1.2054	-0.6638	0.5875	0.8583	-0.8583	0.2823	0.5684	1.0529	0.2632	1.9646	-2.0981	0.4959	-0.9041	0.9308	-0.7553
0.2022	-0.9346	0.6332	1.1902	-0.9117	0.988	1.236	-0.6485	0.6561	0.8659	-0.8698	0.3204	0.6104	1.0452	0.351	2.0485	-2.0981	0.5264	-0.8812	0.9842	-0.7973
0.3014	-0.843	0.7133	1.2665	-0.8621	1.091	1.2245	-0.6294	0.7057	0.9079	-0.8965	0.3586	0.6638	1.0529	0.4082	2.14	-2.0981	0.5646	-0.8926	1.0529	-0.8316
0.4234	-0.7362	0.8545	1.3542	-0.7858	1.2131	1.2856	-0.5798	0.7935	0.9689	-0.8507	0.4158	0.7133	1.0452	0.5226	2.2354	-2.0828	0.6027	-0.8774	1.1635	-0.843
0.4883	-0.6142	0.9575	1.4229	-0.7057	1.3008	1.3084	-0.5188	0.8545	1.0071	-0.8278	0.5188	0.7172	1.0223	0.5989	2.3346	-2.0065	0.6027	-0.8774	1.236	-0.8736
0.5875	-0.4845	1.0757	1.5144	-0.6218	1.4267	1.3466	-0.4616	0.9537	1.0567	-0.8011	0.5875	0.7439	0.9689	0.6866	2.4261	-1.9417	0.6104	-0.8202	1.2894	-0.8888
0.6676	-0.3586	1.1711	1.5678	-0.5264	1.5488	1.3809	-0.351	1.0376	1.0948	-0.7782	0.6752	0.7896	0.9232	0.8011	2.5291	-1.8425	0.6447	-0.7744	1.3084	-0.8965
0.7706	-0.2365	1.3237	1.6365	-0.4311	1.6479	1.3924	-0.2785	1.1063	1.0986	-0.721	0.7324	0.8125	0.8392	0.9003	2.6474	-1.7128	0.6294	-0.7057	1.3313	-0.8736
0.843	-0.0839	1.4076	1.7166	-0.3204	1.7395	1.4458	-0.1755	1.2054	1.1444	-0.6485	0.8087	0.8354	0.7973	1.0376	2.758	-1.5945	0.6371	-0.6599	1.3161	-0.8926
0.9422	0.0267	1.5526	1.7509	-0.1945	1.8425	1.503	-0.061	1.2779	1.1978	-0.5798	0.8698	0.843	0.7324	1.1482	2.8877	-1.4763	0.6294	-0.5798	1.3504	-0.8507
1.0147	0.164	1.6251	1.8196	-0.0648	1.9531	1.4992	0.0687	1.3657	1.2245	-0.515	0.9384	0.8621	0.6599	1.2741	2.9907	-1.3542	0.6294	-0.4921	1.3123	-0.8087
1.1101	0.2861	1.7586	1.8883	0.1183	2.0523	1.5717	0.1831	1.4381	1.2436	-0.4234	1.0147	0.9155	0.6065	1.4076	3.1319	-1.2436	0.618	-0.3853	1.2817	-0.7668
1.2321	0.3929	1.8539	1.9302	0.2556	2.1286	1.6098	0.3281	1.4801	1.2817	-0.3204	1.0529	0.9155	0.5646	1.4839	3.212	-1.1482	0.618	-0.309	1.2398	-0.6905
1.2703	0.5379	1.9226	1.9608	0.4234	2.1896	1.6289	0.4463	1.5182	1.3084	-0.2289	1.1101	0.9346	0.5074	1.5831	3.2578	-1.0338	0.618	-0.2213	1.2245	-0.6523
1.3161	0.6599	2.0027	2.0027	0.5684	2.2774	1.6823	0.576	1.5907	1.339	-0.145	1.1368	0.9613	0.4768	1.6556	3.3379	-0.9689	0.6142	-0.1259	1.1597	-0.5417
1.3733	0.7744	2.1095	2.0523	0.7324	2.3193	1.7395	0.6905	1.6212	1.3695	-0.0839	1.1673	0.9613	0.4387	1.7548	3.3989	-0.8812	0.618	-0.061	1.1177	-0.4883
1.4381	0.8583	2.1744	2.0599	0.8507	2.3842	1.7776	0.8163	1.6251	1.4	0.0076	1.2093	0.9689	0.412	1.8044	3.4027	-0.8278	0.5951	0.0076	1.0605	-0.4005
1.4839	0.9499	2.2354	2.0676	0.9651	2.4071	1.7815	0.8621	1.6365	1.4153	0.042	1.2321	0.9727	0.3777	1.8234	3.3569	-0.782	0.5951	0.042	0.9918	-0.3357
1.5144	1.0109	2.2545	2.0676	1.0529	2.4185	1.8311	0.9346	1.6289	1.4343	0.1259	1.2283	0.988	0.3586	1.812	3.3493	-0.7324	0.5684	0.042	0.9079	-0.267
1.5259	1.0643	2.2697	2.0638	1.1063	2.449	1.8463	0.9918	1.6365	1.4687	0.164	1.2321	0.9995	0.3357	1.8005	3.2768	-0.6981	0.5722	0.061	0.8278	-0.1793
1.5717	1.0719	2.2812	2.0294	1.1368	2.4452	1.8425	1.0262	1.5831	1.4572	0.1984	1.2398	0.9956	0.3281	1.7433	3.212	-0.6714	0.576	0.0725	0.7401	-0.1221
1.5793	1.0872	2.2926	2.018	1.1673	2.4185	1.8387	1.0452	1.5564	1.4267	0.2327	1.2207	0.9956	0.309	1.6861	3.1242	-0.6447	0.5875	0.0725	0.6981	-0.0725
1.5984	1.0719	2.285	2.0256	1.1597	2.4185	1.8349	1.0643	1.4992	1.4687	0.206	1.194	0.9995	0.3166	1.6098	3.0365	-0.6523	0.6065	0.0725	0.6523	-0.0458
1.6098	1.0452	2.2964	2.018	1.1597	2.3766	1.8616	1.0376	1.4534	1.4801	0.2251	1.194	1.0338	0.3281	1.5221	2.9297	-0.6638	0.6447	0.0381	0.6485	-0.0229
1.5907	0.9613	2.2659	1.9875	1.0986	2.3193	1.8387	0.9766	1.358	1.4763	0.1869	1.1482	1.0262	0.3166	1.4038	2.7885	-0.6523	0.6599	-0.0038	0.618	-0.0114
1.5755	0.8926	2.2202	1.9684	1.0109	2.2545	1.8349	0.9117	1.2817	1.4648	0.1488	1.1024	1.03	0.3128	1.3008	2.6741	-0.6485	0.6981	-0.0496	0.6371	-0.0191
1.5755	0.8163	2.1896	1.976	0.9155	2.182	1.8501	0.8469	1.1673	1.4572	0.103	1.0452	1.0185	0.3166	1.2207	2.5978	-0.6485	0.7133	-0.1335	0.6447	-0.0458
1.564	0.7057	2.121	1.9798	0.8087	2.1019	1.8349	0.7286	1.0757	1.4191	0.0038	0.9651	1.0071	0.3166	1.1101	2.5444	-0.6599	0.7477	-0.2136	0.6256	-0.0839
1.5297	0.6294	2.0866	1.9913	0.7248	2.037	1.8311	0.6218	0.9727	1.4	-0.042	0.9079	1.03	0.3052	1.0529	2.5024	-0.6561	0.8125	-0.2708	0.6523	-0.0992
1.5259	0.5875	2.0561	2.037	0.6218	1.9455	1.8692	0.5035	0.8888	1.3924	-0.1221	0.8278	1.0223	0.309	0.9842	2.4567	-0.6409	0.8202	-0.3891	0.679	-0.1259
1.5182	0.4921	2.0447	2.0638	0.5455	1.8883	1.8959	0.3929	0.8163	1.4153	-0.2251	0.7782	1.0223	0.3166	0.9499	2.491	-0.6332	0.8583	-0.4845	0.7019	-0.1678
1.5221	0.4959	1.9798	2.1095	0.4883	1.8578	1.915	0.309	0.7477	1.4191	-0.2899	0.7133	1.0529	0.309	0.885	2.4986	-0.6294	0.9193	-0.5455	0.7477	-0.2022
1.5259	0.473	1.9569	2.1706	0.4654	1.8005	1.9569	0.2098	0.7019	1.4229	-0.351	0.6828	1.0567	0.2937	0.8469	2.5482	-0.618	0.9613	-0.576	0.8011	-0.2098
1.5373	0.5035	1.9302	2.243	0.4654	1.7586	1.9989	0.1411	0.6752	1.4648	-0.4082	0.6447	1.091	0.3052	0.843	2.5902	-0.6294	1.03	-0.6409	0.8736	-0.2327
1.5373	0.5035	1.9264	2.285	0.4234	1.7166	2.0027	0.0458	0.6638	1.4877	-0.4654	0.6065	1.0834	0.2975	0.8011	2.6398	-0.6142	1.0796	-0.6561	0.927	-0.2594
1.545	0.515	1.8845	2.327	0.3891	1.6899	2.0523	0	0.6027	1.4992	-0.4997	0.5798	1.1024	0.2785	0.7744	2.7008	-0.5913	1.1406	-0.7172	0.9842	-0.2441
1.5373	0.4921	1.8234	2.3651	0.3204	1.6251	2.037	-0.1106	0.5722	1.4687	-0.5836	0.5379	1.1063	0.2632	0.721	2.7771	-0.5531	1.1749	-0.7935	1.0452	-0.2975
1.4954	0.4654	1.7776	2.3956	0.2518	1.5717	2.0256	-0.1717	0.5264	1.4496	-0.6485	0.4997	1.1177	0.2556	0.6714	2.8343	-0.5302	1.2283	-0.8278	1.0872	-0.3281
1.4534	0.4311	1.709	2.3956	0.1488	1.4992	2.0142	-0.2899	0.4845	1.4381	-0.7362	0.4578	1.1024	0.2327	0.618	2.8534	-0.4959	1.2665	-0.8926	1.1826	-0.3395
1.3733	0.3662	1.5945	2.3651	0.0343	1.4038	1.9302	-0.37	0.412	1.4	-0.8049	0.37	1.049	0.2174	0.5264	2.8572	-0.473	1.3046	-0.9346	1.2054	-0.3662
1.3008	0.2403	1.4992	2.2812	-0.1335	1.2894	1.8196	-0.4997	0.3319	1.3084	-0.8812	0.309	1.0147	0.2022	0.473	2.8305	-0.4425	1.2932	-0.9689	1.2398	-0.3853
1.2054	0.1678	1.3466	2.1553	-0.2518	1.1444	1.6823	-0.6294	0.2289	1.2093	-0.9804	0.2136	0.9155	0.2098	0.3471	2.8534	-0.4158	1.2932	-1.0376	1.255	-0.4463
1.0529	0.0648	1.1787	2.0142	-0.4082	0.9842	1.4954	-0.7744	0.0954	1.0757	-1.1177	0.1106	0.8049	0.1984	0.2708	2.8496	-0.4044	1.2436	-1.0605	1.2398	-0.4807
0.8965	-0.0687	0.9956	1.8196	-0.5493	0.8316	1.3123	-0.9422	-0.0153	0.9422	-1.236	-0.0572	0.6714	0.2098	0.2136	2.8381	-0.4005	1.2169	-1.1292	1.2474	-0.5646
0.7248	-0.1907	0.8202	1.6403	-0.7057	0.6256	1.0834	-1.0338	-0.1717	0.7591	-1.3657	-0.1907	0.5074	0.1831	0.1411	2.8381	-0.3738	1.1444	-1.1787	1.1902	-0.6294
0.5875	-0.2594	0.6256	1.4572	-0.8469	0.4578	0.9155	-1.1673	-0.3166	0.5722	-1.4915	-0.3433	0.3662	0.1793	0.0916	2.8	-0.3815	1.0872	-1.1978	1.1292	-0.6676
0.412	-0.3929	0.4425	1.2665	-0.9575	0.2899	0.6943	-1.2474	-0.4349	0.3891	-1.5869	-0.4959	0.2098	0.1831	0.0687	2.7618	-0.3815	1.03	-1.2207	1.1139	-0.7401
0.248	-0.4883	0.2823	1.0605	-1.0681	0.1106	0.5035	-1.3809	-0.5684	0.2213	-1.7166	-0.5989	0	0.164	0.0381	2.6894	-0.3548	0.9308	-1.2589	1.0109	-0.8125
0.0687	-0.6027	0.0725	0.8659	-1.1749	-0.0534	0.3014	-1.4572	-0.7057	0.0153	-1.8272	-0.7477	-0.1602	0.164	0.0191	2.5978	-0.3395	0.824	-1.3123	0.9422	-0.8583
-0.0687	-0.6943	-0.0725	0.6905	-1.2321	-0.2403	0.1144	-1.5068	-0.8354	-0.1907	-1.915	-0.9003	-0.3395	0.145	0.0038	2.5215	-0.3204	0.7095	-1.3351	0.8316	-0.8965
-0.248	-0.782	-0.2594	0.5264	-1.2856	-0.3586	-0.0687	-1.5297	-0.9308	-0.37	-1.9493	-0.9918	-0.4921	0.1221	-0.0305	2.3499	-0.2823	0.6104	-1.3237	0.7629	-0.9499
-0.3586	-0.8545	-0.3777	0.37	-1.3084	-0.473	-0.2098	-1.5488	-1.0033	-0.5341	-1.9875	-1.0834	-0.6676	0.1183	-0.061	2.1858	-0.2518	0.5226	-1.3351	0.6752	-0.9537
-0.4921	-0.9308	-0.4883	0.248	-1.3199	-0.5531	-0.3433	-1.5411	-1.0529	-0.6714	-2.0103	-1.1635	-0.7896	0.0954	-0.0916	1.9951	-0.2022	0.412	-1.3161	0.5569	-0.9384
-0.6104	-0.9956	-0.5836	0.1221	-1.3123	-0.6256	-0.4539	-1.4801	-1.1101	-0.8011	-1.9379	-1.1749	-0.8965	0.0725	-0.1411	1.8196	-0.1678	0.3433	-1.2817	0.4807	-0.9003
-0.7057	-1.0567	-0.6714	-0.0114	-1.2474	-0.6943	-0.5493	-1.4	-1.1177	-0.9155	-1.9073	-1.1902	-1.0071	0.042	-0.1793	1.564	-0.1183	0.2594	-1.2512	0.3815	-0.8507
-0.8049	-1.1063	-0.7248	-0.0534	-1.236	-0.7095	-0.6142	-1.3008	-1.1215	-0.9766	-1.7815	-1.1635	-1.0452	0.0305	-0.2289	1.3351	-0.0725	0.2213	-1.1749	0.3166	-0.7668
-0.9003	-1.1063	-0.7439	-0.1488	-1.1292	-0.7172	-0.6256	-1.1673	-1.0529	-1.0185	-1.6823	-1.1024	-1.0643	-0.0038	-0.3052	1.1177	-0.0114	0.1717	-1.1139	0.2327	-0.6409
-0.9651	-1.1177	-0.7744	-0.1907	-1.0262	-0.7095	-0.6256	-1.0147	-1.0262	-1.0338	-1.5144	-1.0147	-1.0796	-0.0267	-0.3281	0.885	0.0343	0.1526	-1.0185	0.1755	-0.5264
-0.988	-1.1139	-0.7744	-0.2136	-0.9041	-0.6752	-0.6027	-0.843	-0.9766	-1.0109	-1.3504	-0.9041	-1.0529	-0.0381	-0.3815	0.6714	0.0839	0.1373	-0.9384	0.1183	-0.3891
-1.0338	-1.1063	-0.7935	-0.2632	-0.7935	-0.6256	-0.5836	-0.679	-0.9155	-0.9727	-1.133	-0.7782	-1.0033	-0.0877	-0.4654	0.4997	0.1678	0.1678	-0.8545	0.042	-0.2213
-1.0376	-1.0414	-0.7515	-0.2556	-0.6409	-0.5798	-0.515	-0.4578	-0.7973	-0.9117	-0.927	-0.6065	-0.9117	-0.0992	-0.473	0.3624	0.1984	0.1907	-0.7439	0.0153	-0.0381
-1.0452	-0.9842	-0.6981	-0.2441	-0.473	-0.5188	-0.473	-0.2632	-0.6905	-0.8354	-0.6485	-0.412	-0.8163	-0.1144	-0.5302	0.2403	0.2289	0.2708	-0.6218	-0.0076	0.1717
-1.03	-0.9003	-0.6638	-0.206	-0.3128	-0.4387	-0.4005	-0.0191	-0.5798	-0.7324	-0.3967	-0.2289	-0.6714	-0.1411	-0.5913	0.1717	0.2556	0.3357	-0.4883	0	0.3777
-0.9537	-0.782	-0.5569	-0.1526	-0.103	-0.3204	-0.3166	0.2365	-0.412	-0.5951	-0.103	-0.0038	-0.4845	-0.1373	-0.6027	0.1755	0.2518	0.4539	-0.3586	0.0305	0.6638
-0.927	-0.6714	-0.4959	-0.0763	0.0916	-0.248	-0.2098	0.4807	-0.2747	-0.4578	0.1869	0.248	-0.3204	-0.1297	-0.618	0.1488	0.2441	0.5608	-0.2289	0.103	0.8888
-0.8202	-0.5493	-0.4044	-0.0076	0.2441	-0.1755	-0.1259	0.6905	-0.1183	-0.3166	0.4692	0.4959	-0.1221	-0.1259	-0.6294	0.164	0.2365	0.7057	-0.1259	0.1259	1.1368
-0.7591	-0.4692	-0.3242	0.061	0.3891	-0.0916	-0.0038	0.9041	0.0153	-0.1526	0.7515	0.7019	0.0992	-0.1221	-0.6752	0.2251	0.2251	0.8316	-0.0038	0.2022	1.3695
-0.7095	-0.351	-0.2518	0.1068	0.5302	-0.0267	0.0534	1.0948	0.164	0.0229	1.0147	0.9422	0.3052	-0.1297	-0.6866	0.3128	0.2136	0.988	0.0839	0.2441	1.606
-0.6027	-0.2556	-0.2022	0.145	0.6599	0.0038	0.1335	1.2779	0.2899	0.1373	1.2589	1.1406	0.4959	-0.1297	-0.6752	0.3662	0.2213	1.152	0.2251	0.3014	1.8387
-0.5646	-0.1869	-0.1793	0.1717	0.7477	0.0381	0.1945	1.4381	0.3967	0.2823	1.4725	1.3237	0.7019	-0.1297	-0.7019	0.4578	0.2327	1.3008	0.3166	0.3471	2.0485
-0.5074	-0.0916	-0.1297	0.2251	0.8392	0.0725	0.248	1.5907	0.5074	0.4272	1.709	1.5144	0.9003	-0.1259	-0.7057	0.5302	0.2327	1.4801	0.4311	0.4005	2.2697
-0.4387	-0.0343	-0.1221	0.2289	0.885	0.0877	0.3014	1.709	0.5989	0.5531	1.8463	1.6823	1.0757	-0.145	-0.6981	0.5913	0.248	1.6174	0.5226	0.4616	2.43
-0.4158	0.0305	-0.1106	0.206	0.927	0.0916	0.3395	1.7891	0.6561	0.6485	2.0065	1.8044	1.236	-0.1411	-0.7515	0.6714	0.2632	1.7395	0.5913	0.5035	2.5787
-0.4272	0.0572	-0.145	0.1945	0.9232	0.0496	0.3395	1.8158	0.6599	0.7401	2.0981	1.8768	1.3733	-0.164	-0.7782	0.7401	0.309	1.8234	0.6409	0.5531	2.6779
-0.412	0.1144	-0.1526	0.1678	0.9232	0.0153	0.37	1.8578	0.7057	0.8354	2.1935	1.9493	1.4839	-0.1717	-0.8125	0.7744	0.3242	1.9608	0.7019	0.5913	2.8038
-0.412	0.103	-0.1984	0.103	0.885	-0.0381	0.3929	1.8654	0.7057	0.927	2.2621	2.0103	1.5945	-0.1831	-0.8507	0.8354	0.3395	2.0676	0.721	0.6638	2.8763
-0.4272	0.0763	-0.267	0.0839	0.8469	-0.0648	0.4196	1.8501	0.6866	0.9956	2.285	2.0561	1.7242	-0.1984	-0.9537	0.8736	0.3662	2.1744	0.7324	0.7286	2.9297
-0.4807	0.061	-0.3166	0.0801	0.8125	-0.0954	0.4501	1.8501	0.7019	1.0529	2.3117	2.0676	1.8005	-0.1945	-1.0414	0.8774	0.351	2.2774	0.7477	0.824	2.964
-0.5188	0.0343	-0.3319	0.0801	0.7744	-0.1335	0.4959	1.8311	0.6714	1.133	2.3232	2.0752	1.9073	-0.1984	-1.1253	0.8621	0.3471	2.3842	0.7324	0.9232	2.9793
-0.5493	-0.0343	-0.3891	0.0534	0.6866	-0.164	0.5264	1.7433	0.6371	1.1787	2.2469	2.0256	1.9417	-0.1945	-1.2131	0.8583	0.3586	2.4452	0.679	1.0452	2.9411
-0.5989	-0.0801	-0.4539	0.0916	0.5989	-0.2289	0.5569	1.667	0.5875	1.1902	2.2049	1.9722	1.9798	-0.1984	-1.3084	0.8316	0.3471	2.4986	0.6409	1.1292	2.8801
-0.6332	-0.164	-0.4654	0.1144	0.5417	-0.2251	0.5913	1.6212	0.5684	1.2436	2.14	1.9264	2.0294	-0.1831	-1.358	0.8202	0.3242	2.5864	0.618	1.2207	2.8419
-0.679	-0.2098	-0.515	0.1755	0.4349	-0.2785	0.6447	1.5297	0.5226	1.236	2.0599	1.8654	1.9913	-0.1755	-1.4534	0.7935	0.3128	2.6093	0.5836	1.297	2.7466
-0.6447	-0.2365	-0.4997	0.2594	0.412	-0.2403	0.7248	1.4572	0.4959	1.2627	1.9684	1.812	2.0218	-0.1564	-1.4343	0.8125	0.2594	2.6588	0.5798	1.3657	2.6665
-0.6332	-0.2441	-0.4768	0.4005	0.3204	-0.2403	0.7858	1.3618	0.4768	1.2703	1.8501	1.7319	2.018	-0.1144	-1.4877	0.8087	0.2098	2.6779	0.5493	1.4725	2.5597
-0.5836	-0.2213	-0.4158	0.5074	0.2975	-0.206	0.9041	1.3123	0.4807	1.3008	1.7776	1.6708	1.9798	-0.0916	-1.4496	0.8507	0.1488	2.697	0.5417	1.5602	2.4261
-0.4921	-0.1411	-0.3204	0.7286	0.2899	-0.1259	1.0185	1.2474	0.4997	1.3847	1.6899	1.6365	1.9913	-0.0534	-1.4191	0.9003	0.0687	2.7199	0.5226	1.6479	2.3346
-0.3777	-0.0648	-0.2098	0.8774	0.3128	-0.0229	1.1559	1.2054	0.5455	1.4191	1.5945	1.6174	2.0103	-0.0076	-1.339	0.9766	-0.0153	2.7466	0.515	1.7395	2.2087
-0.2403	0.0381	-0.0496	1.0643	0.3242	0.0877	1.2703	1.2093	0.6065	1.4763	1.5182	1.5793	2.0294	0.0496	-1.255	1.0529	-0.1373	2.7809	0.5112	1.8158	2.0676
-0.0687	0.1564	0.0954	1.2741	0.3624	0.2213	1.3657	1.1559	0.6752	1.5144	1.442	1.5602	2.0256	0.1068	-1.1787	1.1368	-0.2327	2.7657	0.4845	1.8692	1.9188
0.1221	0.3128	0.3319	1.4954	0.4616	0.3967	1.5259	1.1787	0.782	1.5907	1.3885	1.6022	2.0256	0.1564	-1.0185	1.2474	-0.3548	2.7962	0.4501	1.9493	1.8158
0.3166	0.4921	0.5455	1.7014	0.5569	0.5798	1.6823	1.2016	0.8774	1.6785	1.3657	1.6594	2.0599	0.2213	-0.9079	1.3962	-0.4768	2.8305	0.412	2.018	1.6861
0.5684	0.6981	0.824	1.9608	0.679	0.7935	1.8234	1.236	1.0452	1.7662	1.3428	1.6975	2.0943	0.3052	-0.7172	1.5488	-0.6294	2.8381	0.3433	2.0866	1.5335
0.8583	0.9537	1.133	2.2545	0.8392	1.03	2.0409	1.339	1.2283	1.8768	1.358	1.8234	2.1896	0.3815	-0.5112	1.7853	-0.7935	2.8954	0.3204	2.1935	1.4839
1.133	1.2207	1.4534	2.5253	1.03	1.3123	2.2278	1.442	1.4305	2.037	1.3962	1.9646	2.2507	0.4921	-0.2632	2.018	-0.9766	2.9678	0.2632	2.3117	1.4038
1.4343	1.4801	1.8005	2.8114	1.2321	1.5984	2.4529	1.5488	1.6861	2.2202	1.4534	2.0981	2.3384	0.576	-0.0038	2.2659	-1.1559	3.0136	0.2365	2.4376	1.3123
1.7548	1.7548	2.1477	3.1242	1.4496	1.9112	2.6932	1.6975	1.9493	2.4071	1.4954	2.2812	2.4567	0.6714	0.2861	2.5482	-1.3466	3.1013	0.1907	2.5864	1.2436
2.0866	2.0409	2.5215	3.4142	1.6823	2.2278	2.9488	1.8425	2.2354	2.594	1.5526	2.4796	2.5978	0.7706	0.6065	2.8114	-1.5335	3.1509	0.1755	2.7275	1.1673
2.4147	2.3117	2.9106	3.7155	1.9531	2.5787	3.1929	2.0027	2.4986	2.8229	1.6251	2.6932	2.7466	0.8583	0.9079	3.1357	-1.7052	3.1891	0.1488	2.8458	1.0719
2.7885	2.6207	3.2921	4.0359	2.2354	2.9488	3.4752	2.2202	2.8305	3.0403	1.7281	2.9182	2.8877	0.927	1.2932	3.4981	-1.8539	3.2272	0.1678	2.9984	0.9956
3.17	2.9373	3.6964	4.3182	2.5406	3.3302	3.7498	2.4033	3.1624	3.2845	1.8578	3.1662	3.0174	0.9956	1.6403	3.8414	-1.9798	3.273	0.1907	3.1357	0.9232
3.5286	3.2349	4.0932	4.6043	2.8381	3.7155	3.9978	2.6321	3.5019	3.5629	1.9722	3.4103	3.1853	1.0529	2.037	4.2229	-2.1019	3.3112	0.2174	3.2806	0.8621
3.9177	3.5553	4.509	4.8904	3.2043	4.1122	4.3259	2.8839	3.891	3.8223	2.0981	3.6736	3.3226	1.091	2.4643	4.5891	-2.1935	3.3417	0.2518	3.4485	0.782
4.3182	3.891	4.9133	5.1613	3.521	4.509	4.5776	3.1509	4.2458	4.0741	2.2354	3.952	3.5057	1.133	2.8572	4.9706	-2.2545	3.3531	0.3433	3.5667	0.7515
4.734	4.2572	5.3749	5.4398	3.8872	4.9553	4.8676	3.4599	4.6349	4.3869	2.4109	4.2572	3.6697	1.1749	3.2883	5.3978	-2.3346	3.3913	0.4425	3.6888	0.6943
5.1842	4.6387	5.8136	5.7487	4.2381	5.4245	5.1651	3.746	5.0735	4.6921	2.5826	4.5509	3.8872	1.2131	3.7422	5.7907	-2.4109	3.3951	0.5417	3.8109	0.6943
5.5962	5.0163	6.2599	6.0196	4.6158	5.867	5.4665	4.0436	5.4817	5.0049	2.8038	4.8714	4.0665	1.2398	4.1046	6.1646	-2.4567	3.4294	0.6638	3.9444	0.679
6.0043	5.3711	6.7139	6.3057	4.9591	6.2904	5.722	4.3602	5.8746	5.3062	2.964	5.1346	4.2496	1.2627	4.5357	6.5384	-2.5101	3.4103	0.7515	4.0054	0.6676
6.4392	5.7602	7.1335	6.5613	5.3139	6.7596	5.9929	4.6501	6.2904	5.6267	3.1662	5.4436	4.4518	1.2856	4.9553	6.9427	-2.5635	3.4256	0.8736	4.0741	0.6294
6.8283	6.0997	7.5684	6.8283	5.6229	7.206	6.2675	4.9057	6.691	5.9128	3.315	5.7411	4.6425	1.3084	5.3253	7.2899	-2.5826	3.4103	0.9613	4.1504	0.5989
7.1831	6.4354	7.9613	7.0839	5.9242	7.6027	6.5308	5.1727	7.0763	6.2027	3.5095	6.031	4.8027	1.3275	5.6801	7.6103	-2.6207	3.4065	1.0185	4.1962	0.5493
7.5378	6.7215	8.3313	7.3128	6.2218	8.0109	6.7902	5.394	7.4387	6.4964	3.6354	6.2866	4.9934	1.3237	5.9814	7.9155	-2.6207	3.3836	1.091	4.2229	0.515
7.8506	7.0572	8.6861	7.5455	6.5155	8.3771	7.061	5.6343	7.7896	6.7596	3.7842	6.5651	5.1727	1.3237	6.2675	8.1749	-2.6321	3.3569	1.1902	4.2839	0.4578
8.1444	7.2784	9.0294	7.8049	6.7177	8.7318	7.3051	5.8327	8.1367	7.0267	3.891	6.8207	5.3673	1.3084	6.5079	8.4267	-2.6093	3.3531	1.2131	4.2992	0.4044
8.4	7.5188	9.3002	8.0566	6.9351	9.0675	7.5607	5.9853	8.4457	7.3013	4.0169	7.0381	5.5084	1.3237	6.7024	8.625	-2.6054	3.3112	1.2474	4.3335	0.3624
8.5907	7.7171	9.5901	8.2588	7.1182	9.3269	7.7782	6.0997	8.6861	7.5073	4.097	7.2136	5.6534	1.2779	6.8588	8.7662	-2.552	3.2501	1.255	4.3221	0.2861
8.77	7.9002	9.819	8.4496	7.2327	9.5673	7.9918	6.1874	8.934	7.7095	4.1313	7.4005	5.7907	1.2589	6.9389	8.8882	-2.5024	3.212	1.2703	4.3144	0.2518
8.9035	8.0109	9.9602	8.6098	7.3509	9.7466	8.1406	6.2637	9.1057	7.8888	4.1428	7.5302	5.9052	1.2207	6.9771	8.9264	-2.4338	3.1319	1.2932	4.2763	0.145
9.0408	8.1062	10.1395	8.7662	7.4081	9.9182	8.3199	6.2904	9.2773	8.0414	4.1733	7.6599	6.031	1.1673	7.0457	8.9989	-2.3499	3.0708	1.3084	4.2305	0.0687
9.0752	8.1177	10.2234	8.8501	7.4081	10.0136	8.4114	6.2637	9.3727	8.1215	4.1122	7.7286	6.0654	1.1177	6.9962	8.9684	-2.2354	2.9678	1.3313	4.1847	0.0153
9.1324	8.1596	10.3302	8.9912	7.4387	10.128	8.5258	6.2752	9.4643	8.2512	4.1008	7.8049	6.1569	1.0681	6.9809	8.9951	-2.1362	2.8992	1.3771	4.1161	-0.0458
9.1438	8.152	10.3683	9.0714	7.3776	10.1433	8.5983	6.2027	9.4948	8.3084	4.0474	7.8125	6.1951	1.0147	6.9122	8.9569	-2.018	2.8152	1.3924	4.0779	-0.1144
9.1324	8.0986	10.3683	9.1248	7.2899	10.1776	8.6823	6.1264	9.5139	8.3542	3.9597	7.8049	6.2408	0.9422	6.8321	8.8959	-1.8806	2.7618	1.4305	4.0283	-0.1755
9.0408	7.9842	10.334	9.1286	7.1335	10.1395	8.7013	6.0158	9.4757	8.3656	3.8528	7.7705	6.237	0.885	6.7329	8.8463	-1.7586	2.6817	1.4381	3.9635	-0.2213
9.0256	7.8659	10.2615	9.1972	7	10.128	8.7624	5.909	9.4414	8.4038	3.7842	7.7171	6.2599	0.824	6.6223	8.7433	-1.6251	2.6169	1.4458	3.9291	-0.2441
8.8997	7.6752	10.1814	9.1438	6.8207	10.0594	8.7509	5.7678	9.3613	8.3847	3.6545	7.6408	6.2599	0.7439	6.4735	8.6784	-1.4839	2.5673	1.4305	3.8834	-0.2441
8.7624	7.5188	10.0861	9.1171	6.649	9.9411	8.7471	5.6076	9.2239	8.3542	3.5248	7.5226	6.2256	0.6599	6.3515	8.5907	-1.3351	2.4757	1.3885	3.8376	-0.2289
8.5983	7.2861	9.9258	9.037	6.4583	9.8267	8.7051	5.4474	9.079	8.2779	3.3951	7.3776	6.1798	0.5836	6.1874	8.4953	-1.1597	2.4109	1.3618	3.7575	-0.2289
8.4763	7.061	9.7847	8.9264	6.2485	9.6626	8.6021	5.2719	8.8882	8.1863	3.2883	7.206	6.0921	0.5074	6.0577	8.4496	-1.0109	2.3422	1.3123	3.6354	-0.1945
8.2626	6.855	9.5901	8.8005	6.031	9.4795	8.4991	5.0659	8.6823	8.0566	3.1433	7.0305	6.0005	0.412	5.9433	8.4	-0.8354	2.243	1.236	3.5172	-0.1678
8.0643	6.6071	9.3842	8.5716	5.8022	9.285	8.3313	4.8866	8.4305	7.8392	2.9869	6.7902	5.8479	0.3204	5.8022	8.3199	-0.6714	2.1439	1.1864	3.3798	-0.145
7.8583	6.3705	9.1591	8.358	5.6305	9.0866	8.1749	4.7226	8.194	7.679	2.8152	6.5994	5.7373	0.2403	5.6763	8.3046	-0.515	2.037	1.1444	3.2578	-0.1259
7.6523	6.1493	8.9111	8.11	5.4245	8.8501	7.946	4.5128	7.885	7.4806	2.6474	6.321	5.5351	0.1793	5.558	8.297	-0.37	1.9035	1.0834	3.0785	-0.1411
7.4272	5.9128	8.6288	7.8583	5.2185	8.606	7.7286	4.3297	7.5798	7.225	2.4681	6.0883	5.3787	0.1221	5.4207	8.2626	-0.2441	1.7815	1.0185	2.9221	-0.1297
7.2021	5.7106	8.3847	7.5722	5.024	8.3656	7.4768	4.1466	7.2899	6.9733	2.3155	5.8212	5.1956	0.0572	5.3062	8.2512	-0.1297	1.6975	0.9956	2.7695	-0.1144
6.9885	5.4932	8.0948	7.2479	4.8409	8.1024	7.1983	3.9864	6.9885	6.7329	2.1782	5.5618	5.0049	0.0076	5.1842	8.2626	-0.0496	1.5793	0.9727	2.6016	-0.0916
6.7787	5.2719	7.8506	6.9351	4.6387	7.8545	6.9237	3.7918	6.6681	6.4392	2.0294	5.3024	4.7913	-0.0381	5.085	8.2436	0.0343	1.4572	0.9537	2.43	-0.0877
6.5193	5.043	7.5684	6.5956	4.4212	7.5951	6.649	3.6278	6.3591	6.1913	1.9035	5.0354	4.5738	-0.0725	4.9438	8.213	0.1068	1.3428	0.9193	2.2621	-0.0725
6.2714	4.818	7.2708	6.2599	4.2229	7.309	6.3477	3.4294	6.0196	5.9395	1.7509	4.7722	4.3945	-0.0839	4.7913	8.152	0.1678	1.236	0.9003	2.121	-0.0877
6.0196	4.57	6.9847	5.9357	3.9902	7.0534	6.0616	3.2768	5.6953	5.6801	1.6212	4.5357	4.2114	-0.145	4.6234	8.0452	0.2365	1.1711	0.8812	1.9608	-0.0763
5.7678	4.3221	6.7101	5.6534	3.7537	6.7673	5.7983	3.0861	5.4016	5.455	1.4915	4.3068	4.0245	-0.1526	4.4441	7.9308	0.2708	1.0948	0.8392	1.8425	-0.0534
5.5084	4.0665	6.4125	5.3673	3.479	6.4964	5.558	2.8992	5.1346	5.188	1.4076	4.0703	3.8414	-0.1678	4.2992	7.8506	0.3128	1.0567	0.8163	1.7509	-0.0267
5.2299	3.8033	6.1111	5.0621	3.2158	6.2218	5.2948	2.7199	4.8103	4.9362	1.2741	3.83	3.6545	-0.1945	4.0703	7.6828	0.3433	1.0185	0.7668	1.6594	0.0305
4.94	3.5133	5.8136	4.7798	2.9335	5.9395	5.0278	2.5253	4.528	4.715	1.1673	3.6354	3.5095	-0.1907	3.8643	7.5188	0.3586	1.0109	0.7515	1.6098	0.0992
4.6349	3.2196	5.4893	4.4823	2.6665	5.6534	4.7302	2.3346	4.2229	4.4708	1.0605	3.4142	3.3188	-0.206	3.6926	7.3395	0.3815	0.9651	0.7095	1.5488	0.1831
4.3411	2.9411	5.1956	4.2191	2.4605	5.352	4.4823	2.1591	3.952	4.2343	0.946	3.2196	3.1433	-0.2213	3.5057	7.1869	0.4005	0.9575	0.6447	1.4915	0.2708
4.0703	2.655	4.879	3.933	2.1591	5.0468	4.2076	1.9264	3.643	3.9749	0.8278	2.964	2.9411	-0.2289	3.3264	7.019	0.4196	0.9041	0.5531	1.3809	0.3662
3.7956	2.3346	4.5662	3.6774	1.8997	4.7531	3.9558	1.6975	3.3569	3.7231	0.7095	2.7351	2.7618	-0.2289	3.1433	6.8283	0.4311	0.8736	0.473	1.3123	0.3929
3.5057	2.0218	4.261	3.4065	1.6251	4.3983	3.6964	1.4992	3.067	3.4637	0.5722	2.4872	2.5368	-0.2327	3.0098	6.6376	0.4196	0.8583	0.3548	1.2398	0.4272
3.2234	1.7204	3.9063	3.17	1.3771	4.0665	3.4294	1.2436	2.7275	3.1967	0.4196	2.2469	2.3346	-0.2289	2.8496	6.4812	0.4082	0.7935	0.1907	1.1406	0.4272
2.9106	1.3809	3.5667	2.9068	1.0147	3.7384	3.1624	0.9766	2.4414	2.9068	0.206	1.9417	2.1095	-0.2213	2.6627	6.2981	0.4234	0.7133	0.0114	1.0071	0.3548
2.6283	1.0681	3.2539	2.6741	0.7286	3.3836	2.9068	0.679	2.0752	2.6245	0.0343	1.6632	1.8578	-0.2213	2.5597	6.1569	0.4082	0.6409	-0.1793	0.8965	0.309
2.3308	0.7248	2.8954	2.3994	0.4272	3.0289	2.6245	0.3967	1.7242	2.3155	-0.1717	1.3733	1.6251	-0.2251	2.43	5.9929	0.4005	0.5608	-0.351	0.7591	0.2518
2.0676	0.3738	2.5444	2.1629	0.103	2.6665	2.3537	0.103	1.3847	2.0142	-0.4044	1.0681	1.3657	-0.2174	2.3308	5.8861	0.3967	0.5112	-0.5493	0.6371	0.145
1.7891	0.0725	2.2202	1.9226	-0.2136	2.3232	2.0828	-0.1793	1.049	1.7242	-0.6332	0.8011	1.1368	-0.2174	2.2049	5.7373	0.3891	0.412	-0.7668	0.4883	0.0458
1.5564	-0.2441	1.8997	1.7166	-0.5188	1.9798	1.8311	-0.4845	0.7057	1.4267	-0.8583	0.5112	0.9117	-0.206	2.1172	5.6534	0.3853	0.3281	-0.9537	0.3738	-0.0496
1.2665	-0.5379	1.6251	1.5297	-0.8087	1.6785	1.5488	-0.7172	0.3738	1.1444	-1.03	0.2632	0.6599	-0.2174	2.0485	5.5733	0.3891	0.2556	-1.1215	0.2518	-0.1297
1.0872	-0.7439	1.3657	1.3237	-1.0529	1.3809	1.3199	-0.946	0.1106	0.8736	-1.1978	0.0114	0.4883	-0.2098	1.9646	5.4703	0.3853	0.2174	-1.2741	0.1373	-0.2213
0.9079	-0.9804	1.0948	1.1482	-1.2817	1.1024	1.0948	-1.152	-0.1678	0.6523	-1.3351	-0.2022	0.2861	-0.206	1.9341	5.4321	0.3738	0.164	-1.4038	0.0496	-0.2861
0.6981	-1.1902	0.8659	0.9537	-1.4877	0.8392	0.8812	-1.3809	-0.4234	0.4005	-1.5106	-0.4425	0.1183	-0.2136	1.873	5.3177	0.3967	0.1373	-1.5373	-0.0229	-0.3586
0.5302	-1.3466	0.6523	0.8011	-1.6212	0.5913	0.6752	-1.5564	-0.6485	0.206	-1.6251	-0.6294	-0.0114	-0.2213	1.8349	5.249	0.3967	0.1488	-1.6479	-0.0496	-0.4044
0.412	-1.5106	0.4921	0.7133	-1.7776	0.4196	0.5455	-1.6975	-0.843	0.0267	-1.7433	-0.7858	-0.1411	-0.2136	1.7815	5.1918	0.3891	0.1488	-1.7548	-0.0839	-0.4272
0.2594	-1.6365	0.3433	0.6065	-1.873	0.2518	0.4234	-1.8158	-1.0262	-0.1068	-1.8196	-0.9422	-0.2213	-0.2022	1.7281	5.0774	0.37	0.2022	-1.812	-0.0801	-0.4578
0.1411	-1.7433	0.1831	0.5074	-1.9569	0.0801	0.3357	-1.9341	-1.1635	-0.248	-1.915	-1.0643	-0.3204	-0.1869	1.6937	4.9591	0.3433	0.2136	-1.8768	-0.0839	-0.4921
0.0076	-1.8692	0.0343	0.4311	-2.0561	-0.0801	0.2174	-2.0561	-1.3313	-0.4005	-2.018	-1.2169	-0.4234	-0.1755	1.5945	4.8447	0.3128	0.2556	-1.9417	-0.0839	-0.5188
-0.1144	-1.9722	-0.1221	0.3433	-2.121	-0.2098	0.1335	-2.1515	-1.4763	-0.4921	-2.079	-1.3199	-0.473	-0.1526	1.5564	4.7188	0.248	0.3128	-1.976	-0.0916	-0.4997
-0.2289	-2.079	-0.2632	0.2327	-2.2202	-0.351	0.0381	-2.2926	-1.6098	-0.618	-2.1629	-1.4458	-0.5531	-0.1144	1.4915	4.6539	0.1907	0.3128	-2.0485	-0.0916	-0.5112
-0.3242	-2.2049	-0.4082	0.145	-2.3193	-0.5112	-0.0534	-2.4033	-1.7395	-0.7324	-2.2812	-1.5602	-0.6523	-0.0725	1.4343	4.5586	0.1221	0.3548	-2.0638	-0.0954	-0.5531
-0.4883	-2.3117	-0.5531	0.0381	-2.4071	-0.6561	-0.1488	-2.5101	-1.8806	-0.8736	-2.3804	-1.667	-0.721	-0.0305	1.3618	4.5013	0.0381	0.3815	-2.0866	-0.1068	-0.5302
-0.5836	-2.4338	-0.7172	-0.1068	-2.5101	-0.8087	-0.2937	-2.6131	-2.0256	-1.0071	-2.4834	-1.7967	-0.7744	0.0038	1.3084	4.4022	-0.0534	0.3815	-2.1019	-0.1564	-0.5569
-0.721	-2.5368	-0.843	-0.248	-2.6093	-0.9155	-0.4272	-2.6855	-2.1439	-1.1444	-2.5101	-1.8997	-0.8469	0.042	1.2512	4.3983	-0.1411	0.4311	-2.0828	-0.2098	-0.5379
-0.7973	-2.6207	-0.9918	-0.3853	-2.7008	-1.0185	-0.5684	-2.7428	-2.2316	-1.2512	-2.5826	-1.976	-0.9346	0.0916	1.2207	4.3793	-0.2289	0.4425	-2.0752	-0.2251	-0.5074
-0.8888	-2.6588	-1.1177	-0.5188	-2.7847	-1.1215	-0.6676	-2.7618	-2.285	-1.339	-2.6016	-2.0409	-0.9384	0.1373	1.2016	4.3602	-0.309	0.4768	-2.0485	-0.2632	-0.4692
-0.9422	-2.7046	-1.194	-0.6332	-2.8152	-1.1902	-0.7668	-2.8038	-2.3308	-1.3924	-2.6093	-2.0752	-0.9537	0.1602	1.1902	4.4136	-0.3738	0.5341	-2.018	-0.2823	-0.3738
-0.9804	-2.6894	-1.2436	-0.7286	-2.8076	-1.1902	-0.8354	-2.7657	-2.3651	-1.4114	-2.5558	-2.0676	-0.946	0.2136	1.2398	4.4479	-0.4654	0.5875	-1.9226	-0.2747	-0.2594
-1.049	-2.7275	-1.3466	-0.8278	-2.8343	-1.2321	-0.9117	-2.7237	-2.3499	-1.4305	-2.5253	-2.0561	-0.927	0.2403	1.236	4.5662	-0.5264	0.6409	-1.8616	-0.2785	-0.1488
-1.1177	-2.7161	-1.4305	-0.9308	-2.8458	-1.2665	-0.9842	-2.7008	-2.3613	-1.4267	-2.4834	-2.0447	-0.8659	0.2594	1.2321	4.6272	-0.5493	0.7248	-1.8005	-0.2861	-0.0076
-1.1292	-2.6894	-1.4534	-0.9995	-2.7809	-1.2398	-1.0033	-2.6245	-2.2888	-1.3771	-2.388	-1.9455	-0.8354	0.2785	1.2779	4.734	-0.6065	0.8354	-1.7319	-0.2556	0.1717
-1.1711	-2.6703	-1.4992	-1.0719	-2.7351	-1.2169	-1.0376	-2.5101	-2.2202	-1.3504	-2.3041	-1.8921	-0.7515	0.2975	1.3161	4.7913	-0.6104	0.9384	-1.6861	-0.2594	0.3395
-1.2054	-2.6436	-1.5602	-1.1406	-2.7122	-1.1978	-1.0719	-2.449	-2.1591	-1.2856	-2.1896	-1.7853	-0.6371	0.2975	1.2932	4.8599	-0.6256	1.0529	-1.6556	-0.2174	0.4959
-1.2817	-2.6512	-1.6098	-1.2512	-2.6627	-1.1749	-1.0796	-2.3766	-2.0981	-1.2093	-2.079	-1.6937	-0.5417	0.2975	1.2627	4.9171	-0.618	1.1711	-1.667	-0.2136	0.6447
-1.3924	-2.7084	-1.7319	-1.3275	-2.7199	-1.1864	-1.1444	-2.346	-2.0599	-1.1673	-2.0065	-1.6518	-0.4807	0.2937	1.1902	4.8943	-0.5875	1.2589	-1.7242	-0.2365	0.7248
-1.4915	-2.7351	-1.8311	-1.4229	-2.7046	-1.194	-1.1787	-2.2812	-1.9989	-1.1101	-1.9493	-1.5373	-0.3624	0.2747	1.1368	4.8828	-0.5531	1.3695	-1.7776	-0.1793	0.8736
-1.6441	-2.8687	-1.9341	-1.5869	-2.7962	-1.236	-1.2589	-2.2888	-2.0065	-1.0757	-1.9073	-1.5221	-0.3014	0.2403	1.0452	4.8294	-0.5112	1.4648	-1.8272	-0.1793	0.9384
-1.8044	-2.9869	-2.0523	-1.7014	-2.8763	-1.2779	-1.3084	-2.2545	-1.9722	-0.9995	-1.8539	-1.4267	-0.2098	0.2251	0.9155	4.715	-0.4768	1.5831	-1.8883	-0.145	0.9727
-1.9646	-3.1357	-2.2125	-1.8463	-2.9182	-1.3428	-1.3542	-2.2316	-1.9493	-0.9537	-1.8272	-1.3504	-0.1183	0.2022	0.721	4.612	-0.4311	1.7204	-1.9569	-0.0877	1.0071
-2.1858	-3.2959	-2.3766	-1.9836	-3.0327	-1.4038	-1.4229	-2.2469	-1.9226	-0.885	-1.7853	-1.2932	-0.0305	0.1907	0.5836	4.4708	-0.3967	1.8463	-2.0142	-0.0229	1.0223
-2.3727	-3.4599	-2.5482	-2.1248	-3.1281	-1.4954	-1.4458	-2.2354	-1.915	-0.8621	-1.7281	-1.2436	0.0763	0.1373	0.4005	4.2877	-0.3204	1.976	-2.0561	0.0114	1.0414
-2.5482	-3.6201	-2.6855	-2.3003	-3.2349	-1.5526	-1.5106	-2.224	-1.8997	-0.7668	-1.6861	-1.1559	0.1564	0.1335	0.2174	4.1733	-0.2937	2.0981	-2.1019	0.0839	1.0643
-2.7542	-3.8071	-2.861	-2.4376	-3.3379	-1.6823	-1.5297	-2.2507	-1.9073	-0.7248	-1.6518	-1.1177	0.2747	0.103	0.0381	4.0207	-0.2632	2.2469	-2.1439	0.1183	1.0719
-2.9297	-3.952	-3.0556	-2.5597	-3.4676	-1.7548	-1.5755	-2.243	-1.9073	-0.6561	-1.5907	-1.0529	0.3815	0.1106	-0.1411	3.8795	-0.2327	2.3994	-2.1896	0.1869	1.0643
-3.0975	-4.1161	-3.1815	-2.6665	-3.54	-1.8654	-1.5945	-2.2316	-1.9226	-0.5569	-1.5297	-0.9918	0.4654	0.1106	-0.3014	3.7689	-0.248	2.5558	-2.1973	0.2632	1.1139
-3.2997	-4.303	-3.376	-2.8191	-3.6621	-1.9989	-1.6136	-2.2316	-1.9684	-0.5302	-1.5182	-0.9766	0.5379	0.1144	-0.4845	3.624	-0.2441	2.7046	-2.2202	0.3433	1.1253
-3.4752	-4.4594	-3.5477	-2.9335	-3.7575	-2.1172	-1.6594	-2.2316	-2.0027	-0.4997	-1.4648	-0.9499	0.618	0.1297	-0.6332	3.5057	-0.2823	2.8496	-2.2469	0.4463	1.1215
-3.6087	-4.6005	-3.7079	-3.0479	-3.8528	-2.2697	-1.6899	-2.2354	-2.0523	-0.4578	-1.4305	-0.9308	0.6981	0.1526	-0.7706	3.3722	-0.3395	2.9945	-2.2392	0.5264	1.1406
-3.7651	-4.7493	-3.8528	-3.1357	-3.9291	-2.3804	-1.6899	-2.2774	-2.0752	-0.412	-1.3847	-0.8698	0.7858	0.1831	-0.9041	3.2425	-0.4005	3.1357	-2.2316	0.5913	1.1673
-3.9635	-4.9362	-4.0321	-3.2806	-4.0817	-2.5558	-1.7395	-2.2888	-2.1667	-0.4044	-1.3733	-0.9155	0.8316	0.2213	-1.0834	3.109	-0.4578	3.2501	-2.243	0.6828	1.1482
-4.1275	-5.1117	-4.1809	-3.3836	-4.1618	-2.7084	-1.7891	-2.3117	-2.2469	-0.412	-1.3695	-0.9308	0.8812	0.2518	-1.236	2.9526	-0.5226	3.376	-2.243	0.7515	1.1559
-4.2686	-5.3139	-4.3259	-3.4904	-4.2496	-2.861	-1.8463	-2.3727	-2.3232	-0.4158	-1.3466	-0.9155	0.885	0.3014	-1.3771	2.8343	-0.6027	3.4409	-2.2392	0.8507	1.1749
-4.4289	-5.4893	-4.5166	-3.5629	-4.3564	-3.0594	-1.9188	-2.4223	-2.4414	-0.4082	-1.3618	-0.9613	0.946	0.3281	-1.5144	2.6703	-0.6905	3.5362	-2.2354	0.9041	1.1635
-4.5624	-5.6915	-4.7035	-3.6888	-4.509	-3.231	-1.9569	-2.4834	-2.5177	-0.4501	-1.3657	-1.0147	0.9499	0.3815	-1.7052	2.5291	-0.7782	3.5973	-2.2507	0.9956	1.1673
-4.7302	-5.9242	-4.8866	-3.7651	-4.6577	-3.418	-2.0294	-2.5826	-2.6207	-0.515	-1.4038	-1.0757	0.9499	0.412	-1.8158	2.3613	-0.8354	3.6354	-2.2926	1.03	1.1024
-4.8294	-6.134	-5.0354	-3.8338	-4.7836	-3.5667	-2.0447	-2.636	-2.697	-0.5074	-1.4114	-1.1139	0.9651	0.4539	-1.9188	2.2278	-0.9308	3.7041	-2.3117	1.0872	1.0796
-4.9706	-6.3248	-5.1994	-3.9139	-4.94	-3.7537	-2.079	-2.7657	-2.7885	-0.5684	-1.4648	-1.1597	0.9346	0.5035	-2.0561	2.079	-1.0109	3.7384	-2.3651	1.1559	1.049
-5.0888	-6.5117	-5.3406	-3.9177	-5.085	-3.891	-2.0676	-2.8076	-2.8687	-0.5836	-1.4801	-1.2093	0.9918	0.5455	-2.1515	1.9608	-1.0986	3.788	-2.3689	1.2283	1.0452
-5.1842	-6.6833	-5.4207	-3.9597	-5.2223	-4.0054	-2.0714	-2.8763	-2.9144	-0.6142	-1.5182	-1.2321	0.9689	0.5798	-2.2125	1.8501	-1.1749	3.8414	-2.4414	1.2779	0.9995
-5.2452	-6.8398	-5.5351	-3.9291	-5.3329	-4.1466	-2.0866	-2.9526	-2.9526	-0.6409	-1.5526	-1.2741	0.9918	0.6256	-2.2507	1.8005	-1.2512	3.9215	-2.5101	1.3695	0.9651
-5.2948	-6.9771	-5.6152	-3.9406	-5.4398	-4.2419	-2.1248	-3.0174	-3.0022	-0.6638	-1.5526	-1.3123	0.9804	0.6523	-2.2659	1.7433	-1.3237	3.9406	-2.594	1.4191	0.9422
-5.3329	-7.0953	-5.6953	-3.933	-5.5428	-4.3526	-2.1362	-3.0899	-3.0594	-0.6714	-1.5869	-1.3161	1.0262	0.6981	-2.2507	1.7128	-1.3962	4.0092	-2.6665	1.4687	0.9155
-5.3444	-7.1144	-5.7182	-3.8795	-5.5466	-4.3983	-2.1553	-3.109	-3.0632	-0.7095	-1.5869	-1.3123	1.0223	0.7553	-2.2011	1.7624	-1.4954	4.0474	-2.7275	1.5297	0.885
-5.3787	-7.1411	-5.7602	-3.849	-5.5885	-4.4441	-2.1744	-3.1662	-3.0785	-0.7362	-1.6174	-1.3504	1.0185	0.782	-2.1515	1.7815	-1.5755	4.0627	-2.7657	1.5831	0.8392
-5.3749	-7.1335	-5.7907	-3.8414	-5.5923	-4.4937	-2.1935	-3.1853	-3.0708	-0.7668	-1.6441	-1.3618	1.0262	0.824	-2.079	1.7967	-1.6518	4.097	-2.7962	1.6289	0.7858
-5.3787	-7.0877	-5.806	-3.8033	-5.5542	-4.5395	-2.2354	-3.2043	-3.0708	-0.7973	-1.6823	-1.358	1.0147	0.8583	-2.0065	1.8883	-1.7204	4.097	-2.8038	1.6479	0.7439
-5.3406	-7.0648	-5.8022	-3.7575	-5.5313	-4.5357	-2.2392	-3.2005	-3.0518	-0.7935	-1.6899	-1.3542	1.0376	0.9041	-1.9112	1.9608	-1.812	4.1275	-2.8267	1.6975	0.7133
-5.3444	-7.0038	-5.7983	-3.7727	-5.5199	-4.5624	-2.2926	-3.2349	-3.0327	-0.8202	-1.7014	-1.3542	1.0223	0.927	-1.8921	2.0027	-1.8616	4.1466	-2.8343	1.7166	0.6676
-5.3291	-6.958	-5.7831	-3.7766	-5.4665	-4.5547	-2.2926	-3.2463	-2.9984	-0.8202	-1.7204	-1.3466	1.049	0.9651	-1.8311	2.0905	-1.9455	4.1542	-2.8496	1.7281	0.6371
-5.3291	-6.8893	-5.7831	-3.7766	-5.4092	-4.5319	-2.346	-3.2501	-2.9678	-0.8469	-1.7471	-1.2932	1.0529	0.9842	-1.7776	2.1362	-1.9951	4.1466	-2.8763	1.6975	0.5989
-5.291	-6.8169	-5.7716	-3.7804	-5.3787	-4.5052	-2.3727	-3.2425	-2.9068	-0.8316	-1.7319	-1.2741	1.0719	1.0185	-1.7509	2.1667	-2.0447	4.1504	-2.8801	1.7128	0.5836
-5.2834	-6.752	-5.7487	-3.7956	-5.3291	-4.4785	-2.3994	-3.2043	-2.8572	-0.8202	-1.7395	-1.2054	1.1063	1.0567	-1.7319	2.2049	-2.121	4.1695	-2.9068	1.7128	0.576
-5.291	-6.6757	-5.7335	-3.8223	-5.2757	-4.4289	-2.3994	-3.1776	-2.7809	-0.7896	-1.6975	-1.1711	1.1444	1.0719	-1.7662	2.2125	-2.1553	4.1847	-2.903	1.7242	0.5875
-5.2567	-6.5575	-5.6915	-3.8338	-5.1956	-4.3526	-2.3804	-3.1052	-2.6627	-0.721	-1.6861	-1.0681	1.2245	1.133	-1.7281	2.2888	-2.2507	4.2305	-2.903	1.7548	0.5798
-5.1842	-6.443	-5.6686	-3.8414	-5.1231	-4.2801	-2.388	-3.0518	-2.5558	-0.6752	-1.6479	-0.9918	1.3123	1.1482	-1.7281	2.3079	-2.3079	4.2725	-2.9221	1.7853	0.6142
-5.1575	-6.34	-5.6	-3.849	-5.0392	-4.2076	-2.3537	-2.964	-2.4529	-0.5684	-1.5602	-0.8774	1.3847	1.1787	-1.7128	2.3575	-2.3575	4.303	-2.9182	1.8349	0.6523
-5.0964	-6.2027	-5.5466	-3.8223	-4.9782	-4.1199	-2.3232	-2.8763	-2.3193	-0.4463	-1.4725	-0.7515	1.503	1.194	-1.6785	2.4147	-2.4071	4.3678	-2.8954	1.8501	0.7172
-5.0163	-6.0844	-5.4436	-3.7651	-4.8676	-3.9787	-2.1973	-2.7733	-2.1782	-0.309	-1.3885	-0.6142	1.6479	1.2283	-1.5945	2.5253	-2.4605	4.4556	-2.8839	1.9608	0.7896
-4.9477	-5.9776	-5.4016	-3.7193	-4.7874	-3.8567	-2.0943	-2.6131	-1.9951	-0.1602	-1.2741	-0.4311	1.7815	1.2627	-1.5717	2.6436	-2.5024	4.5319	-2.8458	2.0332	0.8965
-4.8676	-5.8594	-5.3291	-3.6659	-4.6692	-3.727	-2.0027	-2.4948	-1.812	0.0496	-1.133	-0.2556	1.9379	1.2474	-1.5182	2.6894	-2.5177	4.6234	-2.8	2.1324	1.0262
-4.7798	-5.7487	-5.2032	-3.5744	-4.5662	-3.6087	-1.8539	-2.3232	-1.5984	0.248	-0.9766	-0.0648	2.1324	1.2665	-1.4725	2.8305	-2.5368	4.7226	-2.6894	2.2469	1.1597
-4.7112	-5.6725	-5.127	-3.4676	-4.4594	-3.4637	-1.6861	-2.1706	-1.4229	0.4387	-0.8278	0.1259	2.2926	1.2627	-1.4076	2.9221	-2.5291	4.7874	-2.6321	2.346	1.297
-4.6005	-5.5466	-5.0201	-3.376	-4.2953	-3.2921	-1.5068	-1.9798	-1.1826	0.6866	-0.6256	0.3357	2.4872	1.2589	-1.3695	3.006	-2.5291	4.8943	-2.533	2.4948	1.442
-4.5395	-5.4359	-4.9362	-3.2768	-4.1885	-3.1586	-1.3504	-1.812	-0.9804	0.8774	-0.4616	0.5798	2.6703	1.255	-1.3885	3.0746	-2.5139	4.9706	-2.4796	2.6283	1.5869
-4.4289	-5.3101	-4.8141	-3.1357	-4.0207	-2.9831	-1.1292	-1.6136	-0.7401	1.1711	-0.2632	0.8545	2.8992	1.2627	-1.3466	3.1471	-2.5139	5.127	-2.3766	2.8191	1.7586
-4.3106	-5.1765	-4.6806	-2.9984	-3.849	-2.8076	-0.9537	-1.3885	-0.4845	1.4343	-0.0763	1.1063	3.1319	1.255	-1.3275	3.2196	-2.5063	5.2414	-2.2545	2.9945	1.9073
-4.2648	-5.1041	-4.5853	-2.8839	-3.7308	-2.636	-0.7401	-1.194	-0.2327	1.709	0.1411	1.3504	3.3417	1.2474	-1.3618	3.2578	-2.4834	5.3444	-2.1629	3.1242	2.0256
-4.1618	-4.982	-4.4518	-2.7275	-3.5782	-2.4796	-0.5188	-0.988	0.0381	1.9913	0.3662	1.6327	3.582	1.255	-1.4038	3.2425	-2.4948	5.4855	-2.0752	3.3264	2.1858
-4.0932	-4.9019	-4.3526	-2.5864	-3.4409	-2.3117	-0.3204	-0.7973	0.3166	2.2507	0.5455	1.873	3.788	1.2398	-1.4534	3.2883	-2.4834	5.619	-2.0027	3.5019	2.285
-4.0016	-4.7836	-4.2114	-2.4147	-3.3188	-2.1362	-0.0725	-0.5989	0.5836	2.5368	0.7515	2.1515	4.0512	1.255	-1.4801	3.2654	-2.4986	5.7564	-1.8883	3.643	2.4223
-3.8872	-4.6959	-4.0588	-2.2163	-3.1853	-1.9493	0.1678	-0.3853	0.8545	2.8496	0.9575	2.4872	4.3106	1.255	-1.5259	3.315	-2.5024	5.909	-1.8272	3.8147	2.5291
-3.7918	-4.5853	-3.9215	-2.0142	-3.0174	-1.7433	0.4272	-0.2136	1.1406	3.1357	1.1711	2.7695	4.5509	1.2627	-1.5602	3.2845	-2.5253	6.0463	-1.7357	4.0054	2.6398
-3.6316	-4.4594	-3.727	-1.8044	-2.8419	-1.5182	0.6866	0.0267	1.4458	3.4599	1.4038	3.0556	4.8141	1.2817	-1.5755	3.3302	-2.5558	6.1607	-1.6365	4.1809	2.739
-3.5095	-4.3106	-3.5667	-1.5297	-2.697	-1.3237	0.9346	0.2213	1.7128	3.7613	1.6289	3.3455	5.0621	1.3046	-1.5793	3.3531	-2.6054	6.3133	-1.5182	4.3602	2.8229
-3.4065	-4.1885	-3.3951	-1.3199	-2.5253	-1.1063	1.1902	0.4158	1.9951	4.055	1.8387	3.6354	5.3291	1.3466	-1.6022	3.3302	-2.6703	6.4697	-1.4343	4.5433	2.8763
-3.2654	-4.0855	-3.2349	-1.1063	-2.3651	-0.8965	1.4458	0.6218	2.2621	4.3564	2.037	3.9291	5.5923	1.3657	-1.5678	3.3836	-2.7313	6.6071	-1.3161	4.6997	2.9869
-3.1013	-3.952	-3.0289	-0.8507	-2.224	-0.6752	1.7242	0.7858	2.533	4.5967	2.2125	4.1771	5.8441	1.4	-1.545	3.3836	-2.7924	6.7177	-1.2207	4.8294	3.0212
-2.9869	-3.8719	-2.8763	-0.6027	-2.0752	-0.4997	1.9493	0.9079	2.7428	4.8676	2.3575	4.4327	6.073	1.4458	-1.4763	3.4065	-2.8572	6.8283	-1.1292	4.9858	3.0594
-2.8534	-3.7842	-2.7199	-0.3967	-1.9455	-0.2975	2.1782	1.0643	2.9678	5.1575	2.5177	4.6539	6.2828	1.4572	-1.4343	3.437	-2.9144	6.9389	-1.0223	5.0926	3.1281
-2.7618	-3.7231	-2.5711	-0.206	-1.8501	-0.1259	2.4033	1.1826	3.17	5.3329	2.6398	4.8637	6.485	1.4839	-1.3657	3.4409	-2.9526	6.9962	-0.9155	5.2071	3.1738
-2.6627	-3.6736	-2.4719	-0.0229	-1.7548	0.0076	2.5558	1.2436	3.3302	5.5275	2.7351	5.0316	6.6414	1.503	-1.3199	3.4637	-2.9869	7.0572	-0.8583	5.2795	3.1967
-2.5482	-3.6049	-2.3346	0.1183	-1.6708	0.1564	2.7275	1.3123	3.4828	5.6915	2.8	5.1994	6.7902	1.5182	-1.2856	3.4485	-3.0174	7.1068	-0.7935	5.3673	3.2082
-2.5024	-3.582	-2.2316	0.2747	-1.5945	0.2937	2.8419	1.3885	3.6049	5.8212	2.8763	5.3596	6.9084	1.5297	-1.2589	3.4752	-3.0327	7.164	-0.8087	5.4283	3.1853
-2.4147	-3.5553	-2.1706	0.4005	-1.5678	0.37	2.9602	1.4076	3.7155	5.9433	2.903	5.4512	7.0229	1.5297	-1.1826	3.4981	-3.0556	7.1411	-0.7973	5.4665	3.1624
-2.3346	-3.5286	-2.079	0.4959	-1.4877	0.4845	3.0403	1.4496	3.7956	6.0425	2.9373	5.5504	7.122	1.545	-1.1368	3.521	-3.0746	7.1526	-0.7935	5.4817	3.1242
-2.2583	-3.4714	-2.018	0.576	-1.461	0.5646	3.1204	1.4801	3.8605	6.1531	2.9449	5.6381	7.1869	1.5411	-1.0872	3.5782	-3.0823	7.1335	-0.7935	5.5084	3.1052
-2.1935	-3.4447	-1.9646	0.6409	-1.4267	0.5913	3.1548	1.4801	3.933	6.1798	2.9488	5.7144	7.2174	1.5411	-1.0147	3.6354	-3.0708	7.0915	-0.7896	5.4893	3.0594
-2.1019	-3.4103	-1.8921	0.7133	-1.3695	0.6981	3.212	1.5106	4.0016	6.2447	2.9907	5.7983	7.2632	1.5526	-0.9537	3.6964	-3.0937	7.0801	-0.7782	5.4932	3.0022
-2.0409	-3.3607	-1.8196	0.8087	-1.3237	0.7324	3.2272	1.5221	4.0283	6.279	3.006	5.8517	7.2975	1.5564	-0.9003	3.8185	-3.0785	7.0496	-0.7744	5.4665	2.9793
-1.9798	-3.3073	-1.7853	0.8469	-1.3504	0.7858	3.2692	1.5297	4.0741	6.3324	2.9602	5.8975	7.3242	1.5488	-0.8125	3.9063	-3.067	7.0038	-0.7858	5.4512	2.9068
-1.9073	-3.2501	-1.7128	0.9079	-1.2894	0.8392	3.2883	1.5488	4.1161	6.3705	3.0174	5.9586	7.3624	1.545	-0.7629	4.0512	-3.0594	6.9847	-0.7668	5.4398	2.8839
-1.8387	-3.1738	-1.6747	0.9689	-1.2703	0.843	3.3417	1.5564	4.1351	6.4011	3.0136	5.9853	7.3853	1.5335	-0.6752	4.1962	-3.0403	6.916	-0.7553	5.4054	2.8343
-1.7776	-3.1204	-1.6251	0.9956	-1.2398	0.8888	3.3836	1.5564	4.1771	6.4354	3.0251	6.0577	7.4005	1.5259	-0.6561	4.3335	-3.0251	6.8893	-0.7324	5.3864	2.8152
-1.6823	-3.0327	-1.5717	1.0719	-1.1826	0.9422	3.4218	1.6098	4.2076	6.5117	3.0518	6.1302	7.4463	1.5144	-0.5455	4.4823	-3.0212	6.8817	-0.7095	5.3558	2.7809
-1.6708	-2.9869	-1.5411	1.0986	-1.1559	0.9537	3.3989	1.5984	4.2305	6.5193	3.0365	6.1874	7.473	1.5068	-0.4845	4.5929	-2.9793	6.8512	-0.6943	5.3291	2.7771
-1.5869	-2.8877	-1.4915	1.1787	-1.0986	1.0071	3.4523	1.6174	4.2305	6.5651	3.0708	6.2675	7.4921	1.5068	-0.4044	4.7302	-2.9755	6.8359	-0.6447	5.3329	2.7847
-1.5488	-2.8152	-1.4381	1.2398	-1.0605	1.0414	3.5019	1.6556	4.2801	6.6185	3.1013	6.3553	7.5188	1.503	-0.3777	4.9019	-2.9716	6.8245	-0.6218	5.3406	2.7618
-1.4915	-2.739	-1.4229	1.3275	-0.9995	1.0529	3.5248	1.6785	4.3297	6.6681	3.1433	6.3858	7.5569	1.4801	-0.2708	5.0201	-2.9411	6.7978	-0.5798	5.3482	2.7847
-1.4191	-2.6283	-1.3657	1.3733	-0.9537	1.0834	3.5896	1.7281	4.3983	6.7329	3.2005	6.4812	7.6294	1.4687	-0.1831	5.1384	-2.9259	6.7787	-0.5264	5.3558	2.8076
-1.3504	-2.5635	-1.3008	1.461	-0.8812	1.1368	3.6163	1.7738	4.425	6.7825	3.2349	6.5765	7.5951	1.461	-0.1221	5.2834	-2.9068	6.7406	-0.5188	5.3329	2.8229
-1.3123	-2.4719	-1.3084	1.5144	-0.7973	1.1635	3.6621	1.812	4.4861	6.8245	3.2692	6.649	7.618	1.442	-0.0763	5.3253	-2.8687	6.752	-0.4883	5.3329	2.8343
-1.2856	-2.4223	-1.2703	1.5717	-0.7629	1.1864	3.7003	1.8501	4.4975	6.8512	3.2921	6.6948	7.6523	1.4191	-0.0229	5.4245	-2.8381	6.7024	-0.4349	5.3329	2.8496
-1.2665	-2.3651	-1.2703	1.6136	-0.7095	1.1864	3.7079	1.8692	4.528	6.8817	3.315	6.7596	7.6523	1.4076	0.0191	5.4626	-2.8038	6.6681	-0.4044	5.2681	2.8648
-1.2665	-2.3499	-1.2779	1.6556	-0.7019	1.1711	3.7613	1.9035	4.5433	6.916	3.3531	6.7673	7.6714	1.3809	0.0267	5.4855	-2.758	6.6299	-0.4158	5.2528	2.8648
-1.2512	-2.3308	-1.2741	1.7128	-0.6828	1.1711	3.7956	1.9226	4.5433	6.9313	3.3684	6.7863	7.6637	1.3504	0.0572	5.4893	-2.7161	6.5689	-0.4005	5.2223	2.8763
-1.2283	-2.3117	-1.2856	1.7433	-0.6866	1.152	3.8338	1.9302	4.5471	6.9695	3.3836	6.8245	7.6332	1.3313	0.0267	5.4626	-2.6588	6.5308	-0.3777	5.1918	2.8915
-1.2131	-2.285	-1.255	1.8501	-0.679	1.1673	3.9291	1.9493	4.5662	7.0114	3.3493	6.8665	7.6599	1.3161	0.0381	5.4359	-2.6093	6.485	-0.3548	5.1804	2.9068
-1.194	-2.2964	-1.2703	1.9455	-0.6676	1.1749	4.0092	2.0142	4.5891	7.0381	3.4103	6.9046	7.6714	1.297	0.0305	5.4512	-2.5711	6.4621	-0.3395	5.1956	2.9831
-1.1902	-2.2812	-1.2131	2.0218	-0.5875	1.2016	4.1313	2.0638	4.6196	7.1068	3.4714	6.9504	7.6942	1.2474	0.0229	5.4398	-2.5063	6.4316	-0.3357	5.1994	3.0174
-1.1597	-2.2964	-1.2207	2.1133	-0.576	1.2207	4.2458	2.1095	4.6806	7.1411	3.5019	6.9771	7.6828	1.2321	-0.0076	5.4321	-2.4529	6.4316	-0.3433	5.2185	3.0785
-1.1711	-2.3079	-1.1787	2.2392	-0.5417	1.236	4.3411	2.1935	4.734	7.2289	3.5439	7.0381	7.7171	1.2169	-0.0305	5.4016	-2.4147	6.4392	-0.3395	5.2414	3.1242
-1.133	-2.3155	-1.1406	2.3041	-0.5074	1.2703	4.4289	2.2469	4.7646	7.2784	3.5591	7.0686	7.7286	1.1597	-0.0458	5.3787	-2.3232	6.4354	-0.3662	5.2223	3.1433
-1.1139	-2.3041	-1.1024	2.3956	-0.4578	1.3084	4.5662	2.3003	4.8103	7.3318	3.6087	7.0953	7.7324	1.1406	-0.0725	5.3329	-2.2659	6.4392	-0.3357	5.2528	3.1929
-1.0567	-2.3003	-1.0338	2.4567	-0.4044	1.3771	4.6577	2.327	4.8637	7.3662	3.6163	7.0992	7.7667	1.1024	-0.1183	5.3329	-2.2049	6.4316	-0.3166	5.2719	3.2005
-1.03	-2.285	-0.988	2.5482	-0.3624	1.4076	4.7379	2.3842	4.921	7.4081	3.6163	7.1373	7.7629	1.0719	-0.1335	5.2986	-2.1439	6.4201	-0.3128	5.3139	3.2005
-1.0185	-2.3003	-0.927	2.6169	-0.3242	1.4572	4.818	2.43	4.9477	7.4577	3.6316	7.1449	7.7286	1.0605	-0.1831	5.2986	-2.1095	6.4468	-0.3052	5.3101	3.2082
-0.9651	-2.285	-0.8507	2.6703	-0.3204	1.503	4.8676	2.4529	4.9896	7.473	3.624	7.1564	7.7057	1.03	-0.2213	5.2528	-2.0599	6.3934	-0.309	5.3177	3.1662
-0.8774	-2.2507	-0.7401	2.7466	-0.2594	1.5907	4.9171	2.491	5.0545	7.4921	3.624	7.164	7.6904	1.0338	-0.2098	5.249	-2.0523	6.3972	-0.2899	5.3444	3.17
-0.8316	-2.2583	-0.6752	2.7885	-0.2708	1.6289	4.94	2.4948	5.0926	7.5111	3.6011	7.1831	7.6752	1.0262	-0.2365	5.2605	-2.0218	6.3667	-0.309	5.3596	3.1242
-0.7553	-2.2125	-0.576	2.8381	-0.2136	1.7281	4.9553	2.5406	5.1422	7.5226	3.5667	7.1754	7.6447	1.0147	-0.2289	5.2757	-2.0142	6.3324	-0.3052	5.3635	3.109
-0.6752	-2.1896	-0.4807	2.8801	-0.2174	1.8082	4.9591	2.5635	5.1842	7.5073	3.5591	7.1716	7.5989	1.0109	-0.2327	5.2681	-2.018	6.3171	-0.3242	5.3749	3.0746
-0.618	-2.1477	-0.3662	2.9259	-0.2098	1.8463	4.9896	2.5673	5.2376	7.5264	3.521	7.1602	7.5836	1.0071	-0.2327	5.2338	-2.0065	6.2637	-0.3548	5.3558	2.9984
-0.5493	-2.0981	-0.2861	2.9907	-0.1907	1.9226	5.0125	2.5864	5.2605	7.534	3.5057	7.1373	7.5531	1.0071	-0.2403	5.2223	-2.0103	6.218	-0.3433	5.3558	2.9526
-0.4463	-2.0485	-0.164	3.0518	-0.164	2.0142	5.0278	2.5978	5.3177	7.5722	3.5057	7.1373	7.5417	1.0071	-0.2213	5.2032	-2.0103	6.1798	-0.3662	5.3635	2.8801
-0.4044	-1.9913	-0.0572	3.1319	-0.1373	2.0714	5.0659	2.636	5.3406	7.5684	3.479	7.122	7.5035	1.0185	-0.2518	5.1918	-2.037	6.1493	-0.3929	5.3673	2.8267
-0.3319	-1.9417	0.0267	3.2387	-0.0916	2.1744	5.0964	2.6894	5.4016	7.6065	3.4599	7.1297	7.4844	1.0414	-0.2327	5.1918	-2.0523	6.115	-0.3967	5.3635	2.7275
-0.2594	-1.873	0.1602	3.2883	-0.0305	2.2583	5.1308	2.7313	5.4817	7.6332	3.4599	7.1297	7.4806	1.0338	-0.267	5.1498	-2.0561	6.0577	-0.3967	5.3711	2.6741
-0.2174	-1.7738	0.2785	3.3684	0.0572	2.327	5.1689	2.8152	5.5237	7.6828	3.4943	7.1716	7.4997	1.0223	-0.267	5.1041	-2.0485	6.0539	-0.3967	5.3902	2.6321
-0.1526	-1.7014	0.3853	3.4599	0.164	2.4529	5.2376	2.861	5.6038	7.6981	3.5439	7.1945	7.515	1.0223	-0.2785	5.1231	-2.0599	6.0425	-0.3777	5.4092	2.6283
-0.1183	-1.6251	0.4883	3.4981	0.2632	2.533	5.249	2.9602	5.6763	7.74	3.5706	7.2174	7.5455	1.0147	-0.2594	5.127	-2.0142	6.012	-0.3586	5.4054	2.6016
-0.0496	-1.5106	0.6294	3.5858	0.3815	2.6245	5.3177	3.067	5.7526	7.8163	3.6621	7.2823	7.5798	0.9995	-0.2174	5.1422	-1.9951	6.0196	-0.2823	5.4207	2.6169
0.0191	-1.4305	0.7019	3.643	0.5379	2.7504	5.3368	3.1776	5.8517	7.8392	3.7346	7.3204	7.5874	0.9804	-0.2136	5.1651	-1.9455	5.9853	-0.2594	5.4169	2.6436
0.0687	-1.3313	0.8125	3.685	0.6371	2.8419	5.3673	3.2806	5.9471	7.8964	3.8414	7.4005	7.637	0.946	-0.1755	5.1727	-1.8997	5.9624	-0.1907	5.3978	2.7199
0.1526	-1.2741	0.8965	3.7689	0.7782	2.9373	5.4359	3.3951	6.0349	7.9384	3.9291	7.4654	7.6828	0.927	-0.1678	5.2109	-1.8425	5.9547	-0.1602	5.3864	2.7695
0.1564	-1.1787	0.9918	3.8376	0.885	3.0479	5.455	3.5133	6.134	8.0109	4.0169	7.5645	7.7362	0.9003	-0.1717	5.2032	-1.7929	5.9509	-0.1144	5.3673	2.8305
0.2441	-1.0986	1.1139	3.9101	1.0185	3.1586	5.5504	3.6163	6.2408	8.0757	4.1504	7.637	7.8125	0.8774	-0.1144	5.2834	-1.7624	5.9509	-0.042	5.3635	2.9221
0.309	-1.0071	1.2131	4.0054	1.1444	3.2578	5.6496	3.7422	6.3591	8.152	4.2686	7.74	7.8697	0.8659	-0.0648	5.3101	-1.7395	5.9547	0.0229	5.3864	3.0327
0.37	-0.9308	1.3123	4.0703	1.2245	3.3798	5.6877	3.8719	6.4545	8.1978	4.3945	7.8354	7.8812	0.8507	-0.0458	5.3711	-1.7052	5.9395	0.1106	5.3368	3.1471
0.4196	-0.824	1.4	4.1504	1.3466	3.479	5.7755	4.0054	6.5956	8.2779	4.5509	7.9575	7.9689	0.8507	-0.0458	5.4054	-1.709	5.9662	0.1869	5.352	3.2959
0.5188	-0.7477	1.5068	4.2267	1.4229	3.5858	5.8174	4.1466	6.6986	8.3275	4.6844	8.0566	8.0605	0.8507	0.0153	5.4436	-1.7281	5.97	0.2594	5.3444	3.418
0.5722	-0.6409	1.5984	4.2953	1.5297	3.6964	5.8937	4.2686	6.8436	8.3961	4.8027	8.1749	8.1024	0.8583	0.0153	5.4932	-1.7395	6.0043	0.3357	5.3024	3.5553
0.6485	-0.4997	1.7166	4.3716	1.667	3.8071	5.9509	4.425	6.9542	8.4572	4.9324	8.3122	8.1825	0.8965	0.0725	5.5199	-1.7853	6.0234	0.4158	5.3177	3.6583
0.7286	-0.37	1.8578	4.4327	1.8311	3.9139	6.0043	4.5662	7.061	8.522	5.085	8.419	8.2779	0.8926	0.1297	5.5084	-1.8082	6.0883	0.5417	5.3368	3.8376
0.7896	-0.2327	1.9646	4.5013	1.9531	4.0436	6.0768	4.6883	7.1716	8.5869	5.1956	8.5297	8.3237	0.9155	0.1373	5.4893	-1.8196	6.1188	0.618	5.3368	3.9253
0.8736	-0.0839	2.0981	4.5929	2.079	4.1847	6.1913	4.8294	7.3128	8.6784	5.3596	8.6327	8.3885	0.9232	0.1831	5.4779	-1.8539	6.1874	0.7515	5.352	4.0627
0.9613	0.0877	2.2392	4.6844	2.2697	4.2877	6.2866	4.9896	7.4539	8.7891	5.4932	8.7624	8.4877	0.9117	0.1831	5.4207	-1.8578	6.2599	0.8545	5.4054	4.1809
1.0719	0.2518	2.4071	4.818	2.4452	4.4785	6.4163	5.1079	7.5607	8.9035	5.6038	8.8959	8.5869	0.927	0.2403	5.4092	-1.8578	6.3324	0.9727	5.4741	4.2992
1.1711	0.4425	2.5558	4.9324	2.6016	4.6349	6.5613	5.2567	7.7248	9.0065	5.6915	8.9989	8.6937	0.927	0.2708	5.3215	-1.8425	6.3934	1.091	5.5351	4.406
1.2474	0.5531	2.6779	5.0392	2.7618	4.7493	6.691	5.3596	7.8697	9.1095	5.8212	9.0904	8.7738	0.8965	0.267	5.2414	-1.8158	6.4621	1.194	5.6343	4.4975
1.3237	0.7401	2.8496	5.1765	2.9488	4.9362	6.8626	5.5008	7.9994	9.2049	5.9166	9.2163	8.8577	0.885	0.2174	5.1575	-1.7891	6.5346	1.2894	5.6992	4.57
1.3962	0.8698	2.9984	5.3215	3.0708	5.0659	7.0114	5.5885	8.1139	9.3307	5.9891	9.304	8.9378	0.8736	0.1755	4.9973	-1.7662	6.5918	1.3962	5.7602	4.6005
1.5106	0.9842	3.1586	5.4626	3.212	5.2223	7.1411	5.6877	8.2359	9.4299	6.0616	9.3956	8.9989	0.8659	0.1411	4.8752	-1.7509	6.6643	1.4496	5.8136	4.6577
1.5945	1.0757	3.2768	5.5885	3.2997	5.3673	7.2899	5.7373	8.358	9.5291	6.1188	9.4528	9.0942	0.8507	0.0381	4.6959	-1.7128	6.7215	1.4687	5.8517	4.7035
1.6785	1.1787	3.3913	5.7373	3.3798	5.4855	7.4425	5.806	8.4152	9.6321	6.1607	9.5482	9.1553	0.8621	-0.0496	4.5242	-1.7014	6.7902	1.503	5.909	4.7226
1.7509	1.2474	3.5019	5.8403	3.4523	5.5885	7.5569	5.8479	8.5106	9.7237	6.2103	9.5863	9.2278	0.843	-0.1259	4.3488	-1.6823	6.8512	1.5259	5.9509	4.7493
1.8158	1.3313	3.6201	5.9624	3.4943	5.7182	7.6981	5.8937	8.6212	9.8381	6.2714	9.6512	9.3155	0.8392	-0.2365	4.1733	-1.6708	6.9389	1.5411	6.012	4.7722
1.9112	1.3657	3.6964	6.0577	3.5744	5.7793	7.7896	5.9357	8.6823	9.903	6.279	9.7084	9.3956	0.8354	-0.3548	4.0092	-1.6747	7.0076	1.5297	6.0577	4.7951
1.9341	1.4038	3.7727	6.1226	3.5934	5.8594	7.8545	5.9166	8.7357	9.9792	6.2828	9.716	9.4414	0.8278	-0.4807	3.8605	-1.6556	7.0724	1.5602	6.1073	4.7798
1.9569	1.461	3.83	6.176	3.5934	5.9128	7.9079	5.9471	8.7547	10.0327	6.3057	9.7389	9.4833	0.8316	-0.5684	3.7193	-1.667	7.1449	1.564	6.1455	4.7722
1.9836	1.4801	3.8834	6.2218	3.6201	6.0005	7.9613	5.9738	8.812	10.0784	6.3057	9.7618	9.5634	0.8469	-0.6828	3.6087	-1.6861	7.2403	1.5984	6.2027	4.7951
1.9836	1.4801	3.9063	6.218	3.6011	5.9967	7.9689	5.9242	8.8158	10.0899	6.2714	9.7466	9.5673	0.8278	-0.7591	3.521	-1.667	7.2594	1.5831	6.1989	4.7493
1.9951	1.503	3.9253	6.1989	3.6125	5.9967	7.9384	5.9242	8.8005	10.1089	6.2599	9.7427	9.6245	0.8316	-0.8392	3.4332	-1.6556	7.2899	1.5831	6.2141	4.7264
1.9684	1.4839	3.9101	6.1989	3.582	5.97	7.9231	5.9013	8.7891	10.1128	6.2332	9.7198	9.6474	0.8163	-0.9308	3.3379	-1.6403	7.3357	1.5602	6.2447	4.6883
1.9531	1.442	3.9024	6.1378	3.5362	5.9662	7.8735	5.8327	8.7662	10.1166	6.1607	9.6855	9.6474	0.8278	-1.0147	3.2692	-1.6403	7.37	1.5221	6.279	4.6692
1.9341	1.4153	3.8452	6.0997	3.4637	5.9624	7.843	5.7983	8.7471	10.0937	6.1417	9.6893	9.6512	0.824	-1.0872	3.2272	-1.6403	7.4196	1.4648	6.2943	4.6272
1.8997	1.3809	3.8147	6.0692	3.4332	5.8975	7.8125	5.7526	8.6708	10.0861	6.0768	9.6283	9.6664	0.8392	-1.1253	3.2082	-1.6708	7.4387	1.4343	6.3515	4.6272
1.8616	1.3466	3.7956	5.9967	3.3722	5.8632	7.7629	5.6953	8.667	10.0517	6.0387	9.6207	9.6512	0.8583	-1.194	3.1662	-1.6975	7.4806	1.3924	6.4011	4.5967
1.8311	1.2932	3.7346	5.8861	3.3226	5.8022	7.6714	5.6381	8.606	10.0327	5.9891	9.5482	9.6359	0.8774	-1.2703	3.1281	-1.7548	7.5035	1.3199	6.4087	4.6043
1.8005	1.2817	3.685	5.8174	3.2539	5.7373	7.5951	5.5962	8.5411	9.9983	5.9471	9.5024	9.6092	0.9003	-1.2932	3.1242	-1.8005	7.5226	1.2665	6.4392	4.5776
1.7471	1.2207	3.6812	5.7869	3.1853	5.7068	7.5188	5.5199	8.4877	9.9564	5.8823	9.4643	9.5749	0.9422	-1.339	3.1509	-1.8806	7.5378	1.2321	6.5155	4.5738
1.7395	1.1787	3.6201	5.7335	3.1242	5.6725	7.4577	5.497	8.4534	9.9258	5.8174	9.4223	9.5558	0.9804	-1.3809	3.1433	-1.9493	7.5493	1.1749	6.5346	4.5929
1.7509	1.1787	3.624	5.6953	3.0975	5.6534	7.412	5.4398	8.3733	9.8877	5.7678	9.3842	9.4986	1.0185	-1.3847	3.1662	-2.0256	7.5684	1.1215	6.588	4.5776
1.7357	1.1787	3.6087	5.6534	3.067	5.6343	7.3776	5.4016	8.3389	9.8495	5.6992	9.3575	9.4643	1.049	-1.3924	3.1929	-2.0981	7.5684	1.1101	6.6299	4.5509
1.7395	1.1253	3.6049	5.6458	3.0136	5.6114	7.3433	5.3482	8.3046	9.8305	5.6648	9.3155	9.4261	1.0872	-1.4267	3.2463	-2.1667	7.5607	1.0681	6.6948	4.5395
1.7586	1.1215	3.6201	5.6648	3.0212	5.6038	7.3624	5.3368	8.2817	9.8228	5.6419	9.2812	9.3918	1.0986	-1.442	3.3035	-2.2125	7.5417	1.0529	6.7062	4.5547
1.7624	1.091	3.6354	5.6801	3.0136	5.619	7.3776	5.3291	8.2703	9.7961	5.6114	9.2354	9.3384	1.1368	-1.4687	3.3722	-2.2583	7.5378	1.0681	6.7711	4.5624
1.7128	1.0757	3.6125	5.6725	2.9869	5.6038	7.4081	5.2986	8.2397	9.8228	5.5542	9.201	9.304	1.133	-1.4648	3.4065	-2.2659	7.5302	1.0452	6.8359	4.5624
1.7242	1.0071	3.5782	5.6534	2.9564	5.5962	7.3967	5.2605	8.2321	9.8038	5.5046	9.1858	9.2239	1.133	-1.5106	3.4294	-2.2774	7.4806	1.0147	6.8512	4.5357
1.7281	0.9575	3.6163	5.6686	2.9755	5.6305	7.4463	5.2834	8.2321	9.8076	5.5046	9.1667	9.2163	1.1444	-1.5259	3.5095	-2.2812	7.4348	0.9956	6.8855	4.57
1.7014	0.946	3.5896	5.6496	2.9373	5.6419	7.4501	5.2414	8.2436	9.7847	5.4703	9.1362	9.1476	1.1559	-1.5373	3.5439	-2.3117	7.3853	0.9613	6.8932	4.5547
1.6823	0.8774	3.6087	5.6572	2.9564	5.6648	7.4921	5.2376	8.2321	9.8038	5.4703	9.1286	9.1171	1.1749	-1.564	3.5973	-2.327	7.3547	0.9422	6.9084	4.5738
1.6518	0.824	3.5782	5.6343	2.9221	5.7144	7.5226	5.2528	8.2397	9.7961	5.4398	9.1629	9.1095	1.1673	-1.5831	3.6011	-2.3346	7.2861	0.9003	6.8855	4.5509
1.6251	0.7858	3.5667	5.6458	2.964	5.722	7.5684	5.2261	8.255	9.8152	5.4436	9.1629	9.0561	1.1787	-1.606	3.6049	-2.3422	7.2479	0.885	6.9008	4.5776
1.564	0.7401	3.5133	5.6114	2.9564	5.7068	7.5531	5.2109	8.2779	9.8267	5.4474	9.1438	9.0141	1.1673	-1.6327	3.6049	-2.3384	7.2021	0.8392	6.8817	4.57
1.5373	0.7133	3.5362	5.6496	3.0098	5.7755	7.6218	5.2452	8.3122	9.8915	5.4626	9.1896	9.0599	1.1711	-1.6403	3.5667	-2.3651	7.1907	0.8774	6.897	4.5853
1.4763	0.6752	3.4866	5.6458	3.0098	5.7678	7.6523	5.2567	8.3504	9.9182	5.5275	9.2316	9.0637	1.1711	-1.6785	3.5095	-2.3499	7.2021	0.8545	6.9046	4.5815
1.4076	0.6142	3.4637	5.6419	3.0289	5.7907	7.7057	5.2757	8.3847	9.922	5.5351	9.2697	9.0599	1.1597	-1.7357	3.4142	-2.3384	7.1487	0.8583	6.8855	4.5586
1.339	0.576	3.437	5.6801	3.0327	5.8212	7.7515	5.3291	8.4419	9.9792	5.6	9.3498	9.0904	1.1635	-1.7509	3.3722	-2.3537	7.1449	0.8621	6.897	4.5662
1.3046	0.5379	3.4447	5.6992	3.0518	5.8441	7.8278	5.3406	8.5182	10.0098	5.6419	9.3803	9.0866	1.1749	-1.7891	3.2539	-2.3651	7.1678	0.8926	6.8741	4.5853
1.2665	0.5188	3.4142	5.7564	3.0899	5.8861	7.8621	5.4245	8.5869	10.0746	5.7526	9.4719	9.1362	1.2131	-1.8158	3.1319	-2.4147	7.1869	0.9689	6.897	4.612
1.2169	0.5493	3.4523	5.7983	3.1624	5.9738	7.9384	5.5122	8.6861	10.128	5.8708	9.5901	9.2049	1.236	-1.8425	3.0441	-2.4681	7.2289	1.0338	6.9275	4.6539
1.2054	0.5913	3.4561	5.8556	3.2616	6.0387	7.9689	5.619	8.7662	10.1776	6.0234	9.697	9.2621	1.2627	-1.8272	2.9526	-2.5139	7.2556	1.0834	6.9275	4.7264
1.1482	0.6065	3.4752	5.8975	3.3531	6.073	7.988	5.7373	8.8806	10.2196	6.1378	9.7885	9.3002	1.2703	-1.8463	2.8687	-2.5177	7.2937	1.133	6.916	4.7913
1.1559	0.679	3.5095	5.9853	3.4981	6.1417	8.0376	5.8899	8.9951	10.2768	6.321	9.9144	9.4032	1.2856	-1.8387	2.8305	-2.5597	7.3586	1.2093	6.9313	4.9133
1.1749	0.7935	3.5706	6.0158	3.624	6.2218	8.0452	6.0196	9.1019	10.3531	6.485	10.0098	9.4452	1.2817	-1.8272	2.7924	-2.5787	7.3776	1.2741	6.9008	5.0278
1.1749	0.8965	3.5934	6.0692	3.788	6.2828	8.0719	6.1607	9.2125	10.3989	6.649	10.1433	9.552	1.2932	-1.8158	2.7275	-2.5902	7.4272	1.339	6.8741	5.1384
1.1787	0.9842	3.582	6.073	3.9063	6.3591	8.0566	6.3057	9.3079	10.4103	6.7635	10.2272	9.5863	1.297	-1.7891	2.697	-2.5673	7.431	1.3695	6.8398	5.2338
1.1787	1.1063	3.685	6.0997	4.097	6.3934	8.0528	6.4545	9.4109	10.4561	6.9427	10.3455	9.6779	1.2703	-1.812	2.6741	-2.5444	7.4577	1.4496	6.8169	5.3444
1.1749	1.2093	3.6888	6.1264	4.2267	6.4621	7.9803	6.5842	9.5024	10.498	7.0724	10.4599	9.7198	1.2627	-1.7891	2.655	-2.5063	7.4997	1.4687	6.7711	5.4474
1.1826	1.3199	3.7155	6.1035	4.3907	6.4926	7.9575	6.7177	9.5978	10.5095	7.2327	10.5743	9.7771	1.2283	-1.7929	2.6245	-2.4376	7.4997	1.503	6.691	5.5351
1.2169	1.4572	3.7689	6.115	4.509	6.5727	7.9155	6.8588	9.6703	10.5553	7.3662	10.6888	9.8343	1.194	-1.7738	2.6016	-2.3727	7.4806	1.545	6.6261	5.619
1.1978	1.564	3.7689	6.0463	4.631	6.5613	7.8773	6.9847	9.7122	10.5591	7.4844	10.7536	9.8648	1.1406	-1.8196	2.5787	-2.2697	7.4844	1.606	6.546	5.6877
1.2512	1.6937	3.8147	6.0692	4.7607	6.6223	7.8163	7.122	9.8	10.5896	7.6065	10.849	9.9182	1.091	-1.8005	2.5673	-2.182	7.4768	1.6861	6.5117	5.7983
1.2779	1.8082	3.8757	6.0463	4.837	6.6605	7.7896	7.2327	9.8724	10.6163	7.7171	10.9558	9.9525	1.0452	-1.7967	2.5864	-2.0905	7.4501	1.7738	6.4392	5.8479
1.3237	1.8921	3.9024	5.9967	4.921	6.6833	7.7667	7.3204	9.9106	10.6506	7.8316	11.0283	10.006	0.9995	-1.7776	2.5978	-1.9989	7.4272	1.8234	6.3782	5.9052
1.3809	1.9722	3.9444	5.9967	4.9934	6.7177	7.7362	7.3891	9.9525	10.6926	7.9155	11.1542	10.0479	0.9651	-1.7815	2.6321	-1.9302	7.3776	1.9035	6.3362	5.9509
1.442	2.0103	3.9635	5.9891	5.0201	6.7482	7.7515	7.4615	10.0327	10.7422	8.0185	11.2457	10.128	0.9422	-1.7242	2.6665	-1.8845	7.412	1.9722	6.2904	6.0005
1.4954	2.0485	3.9978	5.9929	5.0316	6.7749	7.7972	7.5188	10.0441	10.7956	8.0986	11.3258	10.1509	0.9346	-1.6975	2.7237	-1.8616	7.3586	2.0294	6.2599	6.0234
1.5564	2.0981	4.0436	5.9776	5.0507	6.813	7.8506	7.5836	10.1242	10.8986	8.1749	11.4212	10.231	0.927	-1.6747	2.7771	-1.8654	7.3853	2.0981	6.2523	6.0501
1.606	2.1019	4.0741	6.0081	5.0392	6.8436	7.9002	7.6523	10.17	10.9444	8.2588	11.5204	10.3111	0.9384	-1.6403	2.8267	-1.8997	7.3929	2.1553	6.2561	6.0349
1.6747	2.1057	4.0894	6.0196	5.0583	6.8588	7.9765	7.6637	10.2043	11.0283	8.3199	11.6272	10.376	0.9766	-1.6212	2.9106	-1.9569	7.431	2.1935	6.2675	6.0234
1.7052	2.0981	4.1237	6.0043	5.0125	6.8588	8.0032	7.6942	10.2272	11.0893	8.3504	11.7455	10.4179	0.9842	-1.5984	2.9335	-1.9875	7.4234	2.2202	6.279	6.0005
1.7471	2.0752	4.1122	6.0272	5.0354	6.8741	8.0681	7.7209	10.2577	11.1465	8.3923	11.8027	10.4942	1.0262	-1.5717	3.006	-2.079	7.4654	2.2316	6.2981	5.97
1.7815	2.0485	4.1199	5.9891	4.982	6.8665	8.0566	7.7286	10.2692	11.1351	8.3923	11.8675	10.5095	1.0567	-1.564	3.0594	-2.121	7.4348	2.2469	6.2714	5.9395
1.8272	2.0485	4.1275	5.9853	4.9591	6.8932	8.0643	7.7095	10.2959	11.1847	8.4229	11.9362	10.5209	1.0796	-1.5144	3.1052	-2.1744	7.4196	2.2507	6.2752	5.8975
1.8196	2.0103	4.0932	5.9624	4.9477	6.855	8.0948	7.7095	10.3111	11.1923	8.4038	11.9705	10.5438	1.1101	-1.5221	3.1357	-2.224	7.4043	2.2011	6.2561	5.8556
1.8692	1.976	4.0588	5.9357	4.9171	6.8665	8.0566	7.6828	10.2806	11.1732	8.3809	11.9781	10.5362	1.1101	-1.5488	3.1395	-2.2507	7.3509	2.1667	6.2294	5.825
1.8616	1.9531	4.0665	5.9128	4.8981	6.8741	8.049	7.6599	10.3035	11.1504	8.358	12.0201	10.5553	1.1292	-1.5106	3.17	-2.2812	7.3242	2.1439	6.2103	5.7983
1.8768	1.9226	4.0512	5.9013	4.8637	6.8512	8.0338	7.6561	10.3073	11.1656	8.3656	12.0697	10.5286	1.1635	-1.5793	3.1662	-2.327	7.2975	2.1324	6.1913	5.7564
1.8692	1.9341	4.0283	5.9052	4.8523	6.8588	8.049	7.6332	10.3188	11.1389	8.3275	12.0544	10.4866	1.1635	-1.6022	3.1204	-2.346	7.2823	2.1172	6.1722	5.7526
1.8539	1.8997	3.9978	5.8784	4.8141	6.8207	8.007	7.618	10.3035	11.1084	8.316	12.0697	10.4713	1.1711	-1.6441	3.1052	-2.3651	7.2289	2.0752	6.1417	5.7449
1.8387	1.8883	3.9673	5.867	4.7913	6.8588	7.9842	7.5989	10.3073	11.0893	8.2855	12.0888	10.4523	1.194	-1.7166	3.067	-2.3804	7.1983	2.0447	6.1302	5.7259
1.8921	1.8806	3.9711	5.8861	4.7417	6.8245	8.0223	7.6027	10.3264	11.1122	8.2474	12.0964	10.4218	1.1902	-1.7433	3.0861	-2.3727	7.1793	2.0218	6.1264	5.6992
1.873	1.8501	3.9406	5.8861	4.7188	6.8321	8.007	7.5607	10.3302	11.0435	8.1902	12.0811	10.3912	1.1787	-1.7395	3.1052	-2.3613	7.1373	1.9569	6.1188	5.6648
1.8768	1.8539	3.9482	5.8899	4.7302	6.8474	7.9956	7.5989	10.3455	11.0283	8.1825	12.0964	10.3951	1.1787	-1.7357	3.1395	-2.3537	7.0992	1.9569	6.134	5.6419
1.8578	1.8463	3.9406	5.8937	4.7226	6.8779	8.0185	7.576	10.3455	11.0359	8.1787	12.085	10.3569	1.1597	-1.6937	3.1776	-2.3155	7.0686	1.915	6.1378	5.5847
1.8692	1.8082	3.9177	5.8823	4.715	6.8588	8.0261	7.5684	10.3683	11.0359	8.1367	12.1155	10.3455	1.1292	-1.6785	3.2501	-2.2697	7.0381	1.9112	6.176	5.5389
1.8349	1.7738	3.9368	5.867	4.6921	6.8817	8.0223	7.5493	10.3722	11.0359	8.11	12.104	10.3111	1.1024	-1.6747	3.2883	-2.2049	6.9923	1.9073	6.2065	5.4893
1.8196	1.7242	3.891	5.8784	4.7035	6.8932	8.0185	7.5226	10.3836	11.013	8.0605	12.0583	10.2768	1.0681	-1.606	3.3607	-2.14	6.9237	1.8692	6.2141	5.4131
1.7853	1.6861	3.8719	5.8746	4.7073	6.8855	8.0185	7.5188	10.3912	11.0016	8.0414	12.0468	10.2272	1.0223	-1.5678	3.3798	-2.0599	6.8474	1.8387	6.2523	5.3291
1.77	1.6289	3.8185	5.8212	4.6577	6.8855	7.9918	7.4768	10.3798	10.9558	7.9994	11.982	10.1852	0.9918	-1.4839	3.4294	-1.9836	6.7711	1.7967	6.2599	5.2376
1.7166	1.564	3.7956	5.8022	4.631	6.855	7.9956	7.4463	10.3912	10.9138	7.9193	11.9553	10.1318	0.9499	-1.4496	3.437	-1.9035	6.7139	1.77	6.2637	5.1308
1.6479	1.4801	3.7231	5.7831	4.6005	6.8474	7.946	7.4005	10.3836	10.8452	7.8659	11.9133	10.025	0.8926	-1.3695	3.4599	-1.8044	6.5727	1.7357	6.2027	4.9896
1.5869	1.3771	3.685	5.7945	4.528	6.794	7.9041	7.3433	10.3416	10.7613	7.7667	11.8484	9.9182	0.8354	-1.3275	3.4599	-1.6861	6.4621	1.6747	6.1722	4.8637
1.5297	1.2741	3.6392	5.7831	4.4594	6.7711	7.8812	7.2289	10.3073	10.6812	7.6561	11.7531	9.8076	0.7896	-1.2779	3.4637	-1.5793	6.3095	1.6212	6.0844	4.7417
1.4877	1.2054	3.5515	5.7869	4.4365	6.7444	7.8506	7.1831	10.2959	10.5972	7.5798	11.6692	9.716	0.7248	-1.2054	3.4599	-1.4534	6.1722	1.5831	6.0081	4.5929
1.4343	1.0986	3.5057	5.7526	4.3526	6.7329	7.8011	7.1144	10.2463	10.4828	7.5111	11.5967	9.5749	0.6447	-1.1826	3.4409	-1.3275	5.9853	1.5411	5.8594	4.4937
1.3847	1.0147	3.4523	5.7335	4.3106	6.6795	7.7248	7.0229	10.2081	10.3874	7.4158	11.4937	9.4757	0.5836	-1.1024	3.418	-1.2016	5.8365	1.5221	5.7335	4.406
1.2932	0.9155	3.3607	5.7106	4.2381	6.6223	7.6523	6.9771	10.1585	10.2806	7.3204	11.4021	9.3155	0.5264	-1.1253	3.334	-1.0719	5.6381	1.4572	5.5733	4.2953
1.2245	0.8163	3.2883	5.6114	4.1733	6.588	7.5989	6.9427	10.1242	10.17	7.2708	11.3373	9.1782	0.4654	-1.0872	3.2692	-0.9422	5.4665	1.4343	5.4169	4.2381
1.152	0.7057	3.2539	5.5351	4.1466	6.5308	7.5073	6.9122	10.0861	10.0555	7.1869	11.2534	9.0446	0.4082	-1.1292	3.1929	-0.8163	5.3101	1.4	5.2567	4.1733
1.0757	0.6485	3.1891	5.4932	4.1046	6.5079	7.4654	6.8932	10.0441	9.9564	7.1449	11.2076	8.9417	0.3548	-1.1482	3.0975	-0.7248	5.1308	1.3924	5.1041	4.1237
0.9956	0.5531	3.1052	5.3558	4.0588	6.4468	7.3662	6.8817	10.025	9.8648	7.0915	11.097	8.7891	0.2823	-1.2207	2.9984	-0.6065	4.9553	1.3466	4.9362	4.0703
0.9308	0.4692	3.0632	5.2681	4.0359	6.4316	7.3051	6.8398	9.9869	9.7885	7.061	11.0435	8.6708	0.2556	-1.2817	2.9488	-0.5074	4.7684	1.3237	4.7913	4.0855
0.8507	0.4349	3.0479	5.1727	4.0474	6.4392	7.2441	6.8665	9.9754	9.7427	7.0457	11.0016	8.5831	0.1984	-1.3199	2.8915	-0.4158	4.6043	1.3542	4.6349	4.0932
0.8011	0.4005	2.9678	5.0774	4.055	6.4049	7.1907	6.8665	9.9602	9.6703	7.0381	10.9749	8.4801	0.1602	-1.3809	2.8343	-0.351	4.4479	1.3657	4.5128	4.1122
0.7782	0.3815	2.9869	5.043	4.0894	6.4278	7.1411	6.897	9.9792	9.6436	7.0381	10.9673	8.3809	0.1335	-1.3924	2.8419	-0.2937	4.3106	1.3962	4.3755	4.1275
0.7858	0.3815	2.9716	4.9362	4.1466	6.4163	7.0953	6.9275	9.9945	9.552	7.0305	10.952	8.2741	0.1106	-1.4496	2.8267	-0.2403	4.1695	1.4343	4.2686	4.1733
0.8049	0.4272	3.0365	4.9324	4.2076	6.4659	7.0343	6.9809	10.0136	9.5558	7.0648	10.9253	8.2016	0.0839	-1.4267	2.8725	-0.2251	4.0245	1.4877	4.1924	4.2343
0.8354	0.4578	3.0785	4.8904	4.2686	6.5079	7.0114	7.0152	10.0288	9.51	7.0877	10.9291	8.0986	0.0992	-1.442	2.9373	-0.2174	3.8872	1.503	4.1046	4.2953
0.8812	0.5188	3.1319	4.8904	4.3602	6.5918	6.9923	7.0724	10.0632	9.4948	7.0915	10.9215	8.0299	0.1068	-1.3847	3.0632	-0.2403	3.7155	1.5793	4.0398	4.3449
0.9804	0.5836	3.212	4.9095	4.4212	6.6223	6.9962	7.1106	10.1051	9.4528	7.1068	10.9367	7.9269	0.1183	-1.3466	3.1548	-0.2747	3.5858	1.6289	3.9902	4.3869
1.0681	0.679	3.2845	4.9477	4.5509	6.7101	7.0038	7.2021	10.1814	9.4986	7.1602	10.952	7.885	0.1297	-1.2665	3.315	-0.2899	3.4828	1.6785	3.9673	4.4479
1.1864	0.8011	3.418	4.9973	4.6806	6.7978	7.0076	7.3013	10.273	9.5062	7.2098	10.9711	7.8621	0.145	-1.1787	3.479	-0.3242	3.3875	1.7586	3.9558	4.5242
1.3428	0.9117	3.5515	5.1117	4.7951	6.9466	7.0648	7.3853	10.3607	9.5177	7.2594	10.9978	7.8201	0.1678	-1.0605	3.6736	-0.3395	3.2845	1.8768	3.9558	4.5471
1.545	1.1024	3.7537	5.2223	4.9248	7.103	7.1259	7.4997	10.4828	9.594	7.3433	11.0817	7.8278	0.1602	-0.9422	3.8872	-0.3624	3.2501	1.976	3.9711	4.6272
1.77	1.2932	3.9291	5.4283	5.1155	7.2784	7.267	7.6485	10.6239	9.7084	7.4768	11.1885	7.885	0.1755	-0.7629	4.1046	-0.3853	3.2578	2.1439	4.0092	4.7569
1.9875	1.503	4.1428	5.6076	5.3177	7.4806	7.3967	7.8011	10.7994	9.8343	7.5989	11.3258	7.9536	0.1831	-0.5875	4.3182	-0.3891	3.2349	2.2621	4.0588	4.8485
2.2163	1.7281	4.406	5.8212	5.5122	7.6904	7.5798	7.9803	10.9978	9.9869	7.7477	11.4594	8.0452	0.1869	-0.4196	4.5471	-0.4044	3.2997	2.4185	4.1351	4.9782
2.4605	1.976	4.6539	6.073	5.7487	7.9193	7.8087	8.1787	11.2152	10.17	7.946	11.6348	8.194	0.2098	-0.2365	4.7798	-0.4349	3.3798	2.5749	4.261	5.1117
2.7351	2.2583	4.9057	6.3477	5.9967	8.1711	8.0376	8.3618	11.4632	10.376	8.1558	11.8141	8.3466	0.2136	-0.0191	5.0125	-0.4349	3.4828	2.7618	4.3526	5.2719
2.9716	2.5558	5.1613	6.6032	6.2828	8.4419	8.3199	8.6212	11.7302	10.6049	8.3961	12.0392	8.5449	0.2174	0.1793	5.1994	-0.473	3.5858	2.964	4.4975	5.4741
3.2425	2.8	5.4436	6.8779	6.5231	8.6975	8.5564	8.8577	11.9934	10.8261	8.6327	12.2757	8.7395	0.2327	0.3777	5.3711	-0.4959	3.7308	3.1433	4.6005	5.6305
3.4485	3.0594	5.6839	7.0801	6.7673	8.9417	8.77	9.1019	12.2452	11.0474	8.8806	12.5008	8.9569	0.2213	0.5722	5.5161	-0.4997	3.8834	3.3417	4.7379	5.8022
3.6926	3.315	5.9242	7.3547	7.0267	9.1972	9.0294	9.3422	12.5084	11.3106	9.1209	12.7258	9.1743	0.267	0.7629	5.7297	-0.5417	4.0321	3.521	4.8599	5.9738
3.9253	3.5934	6.176	7.5684	7.2899	9.4719	9.2888	9.594	12.7487	11.5433	9.3765	12.989	9.3994	0.2785	0.9155	5.8517	-0.5722	4.2152	3.6964	4.9782	6.134
4.1161	3.7956	6.3553	7.7934	7.4806	9.6817	9.5177	9.7961	12.9776	11.7455	9.5978	13.1836	9.6054	0.2899	1.0757	5.9662	-0.5951	4.3831	3.8452	5.1155	6.2485
4.2801	3.9749	6.5575	8.0032	7.6828	9.8877	9.7198	10.0212	13.2103	11.9896	9.7961	13.3934	9.8152	0.3014	1.1902	6.0539	-0.6065	4.5624	3.9902	5.2567	6.3934
4.4365	4.1313	6.7406	8.1787	7.8697	10.1051	9.8915	10.1967	13.4125	12.1765	10.006	13.5918	10.025	0.2899	1.2703	6.0997	-0.6104	4.7226	4.0703	5.3596	6.4812
4.5166	4.2686	6.8741	8.3504	8.0109	10.2654	10.0899	10.3645	13.6032	12.3863	10.1585	13.7863	10.2348	0.3128	1.3123	6.1531	-0.6371	4.9171	4.1695	5.4855	6.5384
4.612	4.3602	6.9618	8.4724	8.1139	10.4141	10.2615	10.4904	13.752	12.5656	10.3149	13.9389	10.4218	0.3281	1.3504	6.1302	-0.6676	5.0926	4.2191	5.5847	6.5842
4.7035	4.4289	7.0724	8.5983	8.2207	10.5515	10.4179	10.6468	13.9008	12.7258	10.4523	14.0991	10.6125	0.3204	1.3809	6.0806	-0.679	5.2567	4.3221	5.6763	6.6452
4.7607	4.4632	7.1564	8.6899	8.2359	10.6735	10.5515	10.7231	14.0343	12.8784	10.5438	14.1945	10.7803	0.3548	1.3428	6.0234	-0.6981	5.4321	4.3564	5.7755	6.6566
4.7989	4.4785	7.1869	8.7738	8.3008	10.746	10.6468	10.8147	14.1106	13.0043	10.6506	14.3204	10.952	0.3395	1.3466	5.9433	-0.7286	5.5885	4.425	5.867	6.6376
4.8103	4.4594	7.2021	8.8348	8.3046	10.8376	10.7307	10.8719	14.2059	13.1111	10.7498	14.4196	11.0855	0.3815	1.2817	5.8594	-0.7591	5.722	4.4785	5.9547	6.6452
4.8103	4.425	7.2403	8.8806	8.3427	10.891	10.8032	10.9558	14.2708	13.2103	10.8223	14.5073	11.2038	0.3853	1.236	5.7831	-0.7858	5.8632	4.5471	6.0234	6.6071
4.7607	4.3678	7.2289	8.8882	8.3351	10.9482	10.8681	11.0054	14.3433	13.279	10.8871	14.5645	11.3297	0.3967	1.2016	5.7144	-0.824	5.9738	4.6158	6.0959	6.5994
4.7264	4.3182	7.1869	8.873	8.3504	10.9444	10.8757	11.0626	14.3433	13.3324	10.9253	14.6065	11.4136	0.412	1.1406	5.6534	-0.8545	6.0997	4.6463	6.1722	6.5956
4.6959	4.2686	7.1411	8.8654	8.3275	10.952	10.8795	11.0779	14.37	13.3514	10.9215	14.6408	11.4708	0.4349	1.091	5.6267	-0.8774	6.176	4.6196	6.2218	6.5422
4.6158	4.1885	7.1068	8.831	8.297	10.9406	10.8643	11.0817	14.3623	13.3591	10.9596	14.637	11.5128	0.4425	1.0834	5.6381	-0.9041	6.2294	4.5776	6.2332	6.5231
4.5586	4.0627	6.9923	8.77	8.2817	10.9062	10.8032	11.0588	14.3356	13.3247	10.9406	14.5988	11.4975	0.4387	1.0376	5.6458	-0.9079	6.2523	4.5242	6.2065	6.4812
4.4823	3.9635	6.916	8.7013	8.1825	10.8452	10.7155	11.0283	14.2975	13.279	10.8948	14.5416	11.4822	0.4616	1.0223	5.6877	-0.9346	6.2332	4.4365	6.1531	6.4392
4.3983	3.8643	6.8398	8.625	8.1673	10.7803	10.6659	10.9749	14.2174	13.1836	10.8337	14.4768	11.425	0.473	1.0109	5.7487	-0.9575	6.2332	4.3373	6.1188	6.3782
4.3068	3.7117	6.6872	8.5373	8.0681	10.6773	10.5286	10.8376	14.1106	13.0539	10.7231	14.3547	11.3144	0.4807	0.9727	5.7983	-0.9537	6.1798	4.2	6.0577	6.2866
4.1847	3.6011	6.5765	8.419	7.9536	10.5476	10.4218	10.746	13.9999	12.9433	10.6163	14.2403	11.2038	0.473	0.927	5.8708	-0.9689	6.1035	4.0779	6.0005	6.1913
4.0855	3.4409	6.4201	8.3237	7.8239	10.4294	10.2959	10.6049	13.8626	12.8021	10.4485	14.0762	11.0855	0.4921	0.9079	5.9242	-1.0109	6.0577	3.8948	5.9433	6.0844
3.9482	3.2692	6.2714	8.2016	7.6637	10.2425	10.17	10.4408	13.6948	12.6228	10.2768	13.9046	10.9215	0.5188	0.8621	5.9662	-1.0452	5.97	3.7003	5.8784	5.909
3.8452	3.1166	6.134	8.0948	7.5378	10.0784	10.0479	10.2806	13.5345	12.5008	10.0822	13.7253	10.788	0.5608	0.8392	6.0234	-1.1215	5.8594	3.521	5.8365	5.7678
3.7689	2.9755	6.0043	7.9994	7.3891	9.9525	9.9411	10.1433	13.3858	12.3291	9.8991	13.588	10.6354	0.5798	0.824	6.0883	-1.1978	5.7716	3.3455	5.7755	5.6572
3.6583	2.8381	5.8517	7.9117	7.2327	9.7809	9.819	9.9792	13.2103	12.1841	9.6931	13.3858	10.4828	0.6409	0.8087	6.1188	-1.2817	5.6839	3.1471	5.7487	5.5313
3.5973	2.6932	5.7716	7.8468	7.0915	9.6436	9.7542	9.8305	13.073	12.0277	9.5329	13.2294	10.3607	0.679	0.8202	6.1951	-1.3809	5.6229	2.9831	5.7564	5.3902
3.4981	2.636	5.6458	7.7553	7.0114	9.51	9.655	9.716	12.9204	11.9133	9.3956	13.0959	10.2081	0.7172	0.8278	6.2561	-1.4763	5.5618	2.8381	5.7335	5.3062
3.4065	2.5368	5.5428	7.7057	6.8741	9.3727	9.5444	9.5787	12.7907	11.7645	9.2316	12.9433	10.0937	0.7706	0.8545	6.2828	-1.5755	5.4779	2.6855	5.7144	5.1994
3.3531	2.4872	5.455	7.6485	6.8169	9.285	9.4986	9.4681	12.6991	11.6653	9.1095	12.8098	9.9754	0.843	0.8736	6.3286	-1.667	5.4398	2.5673	5.7411	5.1308
3.3379	2.4567	5.4016	7.6294	6.752	9.1629	9.449	9.3727	12.6152	11.5585	9.0027	12.722	9.8877	0.8736	0.9232	6.3705	-1.77	5.4131	2.4719	5.7449	5.0888
3.2692	2.4414	5.352	7.618	6.7101	9.0714	9.4223	9.304	12.5504	11.4975	8.8959	12.6305	9.8267	0.9384	1.0109	6.4125	-1.873	5.4016	2.4071	5.7869	5.0125
3.273	2.4643	5.3291	7.6599	6.7177	9.037	9.4109	9.2583	12.516	11.4517	8.812	12.5771	9.7771	0.9995	1.049	6.4926	-1.9951	5.4016	2.3537	5.8174	4.982
3.2578	2.5063	5.3329	7.6904	6.7406	9.0027	9.3994	9.2316	12.4893	11.3983	8.77	12.5313	9.7389	1.0529	1.1139	6.5079	-2.0828	5.4054	2.346	5.8594	4.9362
3.2501	2.5597	5.3329	7.7095	6.7444	8.9531	9.407	9.1743	12.4474	11.3411	8.7051	12.4817	9.697	1.0948	1.1902	6.5575	-2.182	5.394	2.327	5.8975	4.8828
3.2692	2.6398	5.3215	7.7629	6.8054	8.9302	9.407	9.1782	12.455	11.3144	8.6594	12.4626	9.6512	1.1482	1.2665	6.5842	-2.2736	5.394	2.3232	5.9052	4.837
3.2921	2.7275	5.352	7.8049	6.8359	8.934	9.3956	9.182	12.4435	11.261	8.6288	12.4435	9.6283	1.1826	1.358	6.6299	-2.346	5.4169	2.3575	5.928	4.8103
3.3379	2.8152	5.3787	7.8468	6.8855	8.934	9.4147	9.1934	12.4702	11.261	8.5678	12.4359	9.6054	1.2093	1.4534	6.6452	-2.4109	5.4359	2.3727	5.9509	4.8103
3.3646	2.8839	5.4016	7.8621	6.9351	8.9302	9.3956	9.182	12.4664	11.219	8.5449	12.4092	9.5787	1.2398	1.5335	6.6566	-2.4605	5.4321	2.3956	5.9586	4.7569
3.4142	3.006	5.4321	7.9041	6.9504	8.9264	9.388	9.1972	12.4931	11.1694	8.5182	12.3901	9.5558	1.2512	1.5869	6.6681	-2.5101	5.4131	2.4261	5.9471	4.7302
3.4752	3.1052	5.4741	7.9498	7.0381	8.976	9.4185	9.2201	12.4969	11.1923	8.5297	12.394	9.5444	1.2779	1.6937	6.7253	-2.5635	5.3978	2.4719	5.9738	4.6997
3.5439	3.1929	5.5084	7.9994	7.0686	9.0103	9.449	9.2506	12.5313	11.1961	8.522	12.4207	9.5291	1.3161	1.7738	6.7635	-2.6169	5.4016	2.5291	5.9967	4.7112
3.5858	3.2463	5.5389	7.9956	7.1106	9.0027	9.4452	9.2735	12.5122	11.1847	8.4763	12.413	9.5253	1.3237	1.8044	6.7444	-2.636	5.3902	2.5711	5.9967	4.6539
3.6392	3.3493	5.5847	8.0338	7.1335	9.0256	9.4986	9.3155	12.5542	11.2114	8.4953	12.4474	9.5215	1.339	1.873	6.752	-2.6627	5.394	2.6245	6.0425	4.6463
3.685	3.3722	5.6152	8.0338	7.1869	9.0332	9.491	9.3231	12.5885	11.2343	8.5068	12.4664	9.5062	1.3428	1.8768	6.7444	-2.6703	5.3902	2.6894	6.0654	4.5853
3.6697	3.3836	5.6381	8.0109	7.1754	9.0523	9.4872	9.3727	12.5999	11.2152	8.4801	12.5046	9.5139	1.3313	1.8806	6.7558	-2.6474	5.3787	2.7428	6.0501	4.5471
3.6392	3.3493	5.6381	7.9498	7.1793	9.0485	9.4604	9.3613	12.5961	11.2228	8.4572	12.4855	9.491	1.3008	1.8692	6.7253	-2.6093	5.3291	2.7733	6.0005	4.4746
3.6545	3.3112	5.5923	7.9041	7.1373	9.0408	9.4452	9.3803	12.6038	11.2	8.4343	12.5008	9.4757	1.2665	1.8349	6.6986	-2.5291	5.2986	2.8038	5.9662	4.3755
3.6201	3.2387	5.5923	7.8697	7.0877	9.037	9.4337	9.3803	12.5885	11.2038	8.4457	12.5122	9.4986	1.2207	1.7662	6.6643	-2.4529	5.2719	2.8343	5.9204	4.3259
3.5286	3.1471	5.5275	7.8011	7.0267	9.0027	9.3994	9.3384	12.5504	11.1923	8.4229	12.5198	9.4833	1.1749	1.6441	6.5804	-2.3689	5.2414	2.8114	5.8708	4.2076
3.4523	3.0136	5.4436	7.7248	6.9275	8.9149	9.3384	9.2735	12.5084	11.1504	8.3618	12.4664	9.4223	1.1406	1.564	6.5422	-2.2583	5.1613	2.7466	5.7793	4.0817
3.3493	2.8458	5.3825	7.6523	6.8016	8.8348	9.2964	9.2239	12.4092	11.1046	8.2817	12.413	9.3918	1.0605	1.4153	6.4201	-2.1477	5.0964	2.6894	5.7259	3.9864
3.2387	2.6855	5.2795	7.5493	6.6833	8.7662	9.2468	9.1553	12.3711	11.0664	8.2741	12.3825	9.3384	1.0338	1.3046	6.3477	-2.079	5.0507	2.6169	5.6496	3.8567
3.1548	2.5063	5.1956	7.4577	6.5269	8.6746	9.1476	9.0904	12.2566	11.0207	8.2169	12.3482	9.3193	0.9995	1.2054	6.2256	-1.9989	5.0163	2.5291	5.5809	3.727
3.0289	2.3117	5.0774	7.3586	6.382	8.564	9.0523	8.9607	12.1574	10.9406	8.11	12.249	9.2545	0.9804	1.0757	6.1607	-1.9531	4.9438	2.4223	5.497	3.5591
2.903	2.1019	4.9706	7.2136	6.1989	8.4381	8.9493	8.8501	12.0201	10.8681	8.0261	12.1956	9.1896	0.9651	1.0033	6.073	-1.915	4.8752	2.3193	5.4245	3.4256
2.8	1.8997	4.8332	7.1106	6.0158	8.2932	8.8615	8.728	11.9247	10.8032	7.9269	12.085	9.1248	0.9422	0.9193	5.9891	-1.8883	4.7913	2.2163	5.3291	3.2997
2.7161	1.7128	4.7226	7.0305	5.8556	8.1482	8.7585	8.6403	11.7874	10.7231	7.8354	12.0049	9.0981	0.9384	0.8812	5.9204	-1.8921	4.7417	2.0981	5.2643	3.1776
2.6436	1.5373	4.5967	6.9656	5.661	8.0299	8.7166	8.5449	11.6425	10.6773	7.7515	11.9171	9.037	0.9575	0.824	5.8937	-1.9226	4.715	2.0142	5.2567	3.0785
2.5864	1.3733	4.4975	6.897	5.5008	7.885	8.625	8.4419	11.5128	10.6049	7.637	11.8294	9.0256	0.9918	0.8202	5.8746	-1.9569	4.6997	1.9341	5.2528	2.9831
2.5101	1.2321	4.4022	6.8283	5.3711	7.7515	8.5869	8.3237	11.3525	10.5629	7.5455	11.7264	8.9607	0.9956	0.782	5.8632	-2.0027	4.7073	1.8349	5.2147	2.8954
2.4529	1.0872	4.2915	6.7635	5.2147	7.5912	8.5182	8.2054	11.1961	10.4942	7.4883	11.6081	8.8959	1.0109	0.782	5.8708	-2.0218	4.6844	1.7242	5.2338	2.8152
2.3766	0.9766	4.1962	6.7253	5.085	7.4615	8.4763	8.1291	11.0359	10.4332	7.3814	11.4822	8.8768	1.0414	0.8087	5.8899	-2.0752	4.7188	1.6251	5.2605	2.7351
2.3384	0.8812	4.0855	6.6528	4.9629	7.3204	8.419	8.0109	10.91	10.3645	7.2823	11.3602	8.831	1.0605	0.8545	5.9433	-2.1019	4.7607	1.5335	5.2872	2.6894
2.2545	0.7896	3.9711	6.5918	4.818	7.1754	8.3809	7.8888	10.7536	10.2882	7.1754	11.2228	8.7776	1.0643	0.8507	6.0043	-2.1172	4.7913	1.4267	5.2948	2.6588
2.1973	0.7019	3.8567	6.5117	4.7073	7.0267	8.3275	7.7667	10.5438	10.1814	7.0648	11.0855	8.7204	1.0681	0.9003	6.073	-2.14	4.8218	1.3237	5.3329	2.6436
2.1477	0.6294	3.7498	6.443	4.6005	6.8436	8.2436	7.6103	10.3607	10.0746	6.9466	10.9329	8.6327	1.0872	0.9651	6.1989	-2.1553	4.8447	1.2474	5.3558	2.5902
2.0828	0.5455	3.6201	6.321	4.4823	6.6872	8.1329	7.4768	10.1891	9.9792	6.7635	10.7613	8.5449	1.0834	1.03	6.2981	-2.1553	4.8637	1.1253	5.3558	2.5711
2.0485	0.4768	3.4981	6.2561	4.406	6.5613	8.0757	7.3738	9.9945	9.8686	6.6681	10.5934	8.4686	1.0872	1.1368	6.4583	-2.1629	4.8828	1.0452	5.3825	2.5482
2.0218	0.4578	3.4065	6.1913	4.3373	6.4125	8.0109	7.2517	9.8686	9.7885	6.5689	10.4637	8.4	1.1024	1.2474	6.6223	-2.1706	4.9057	0.9766	5.394	2.5749
1.976	0.3929	3.2921	6.115	4.261	6.2675	7.9155	7.1526	9.6893	9.6664	6.4316	10.3035	8.2893	1.0681	1.3275	6.7482	-2.14	4.9133	0.927	5.3711	2.5635
1.9073	0.3357	3.1738	6.0234	4.1542	6.1264	7.8163	7.0152	9.5139	9.5444	6.2943	10.1318	8.194	1.0719	1.4153	6.8817	-2.1172	4.8981	0.8545	5.3673	2.5482
1.8387	0.2785	3.0479	5.8899	4.0817	5.9547	7.7095	6.897	9.3765	9.4032	6.1646	9.9754	8.0872	1.0452	1.4954	6.9885	-2.0866	4.8714	0.8049	5.3558	2.552
1.7509	0.2022	2.9221	5.7678	3.9825	5.7831	7.576	6.7596	9.182	9.2316	6.0081	9.7771	7.9308	1.0262	1.5755	7.061	-2.0561	4.8294	0.7744	5.3024	2.533
1.6556	0.1373	2.7847	5.6229	3.8681	5.6267	7.3929	6.6109	8.9989	9.0675	5.8479	9.6169	7.7896	1.0185	1.6403	7.164	-2.0294	4.776	0.7362	5.2681	2.5024
1.5373	0.0191	2.6512	5.4626	3.7384	5.4436	7.2212	6.4545	8.8081	8.8692	5.6839	9.4109	7.5798	0.988	1.6403	7.1945	-1.9798	4.6959	0.6943	5.188	2.4719
1.4191	-0.0877	2.4719	5.2719	3.6354	5.2719	7.0381	6.3019	8.6098	8.6937	5.5237	9.2392	7.4463	0.9727	1.6632	7.1869	-1.9493	4.6272	0.6409	5.1003	2.4567
1.2321	-0.2174	2.285	5.0888	3.5057	5.0888	6.8321	6.1378	8.419	8.4877	5.3444	9.0485	7.2556	0.9537	1.6594	7.1754	-1.9188	4.509	0.5836	5.0278	2.3956
1.0948	-0.3204	2.1362	4.9248	3.376	4.9133	6.6414	5.9738	8.2397	8.2932	5.1842	8.8692	7.0839	0.9613	1.6289	7.0953	-1.915	4.406	0.4959	4.9477	2.3499
0.8736	-0.4959	1.915	4.6921	3.2158	4.6959	6.424	5.8212	8.0528	8.091	5.0125	8.6899	6.8932	0.9308	1.5411	7.019	-1.8539	4.303	0.4349	4.8523	2.3079
0.7019	-0.5989	1.7624	4.5128	3.0937	4.5357	6.237	5.6877	7.885	7.9193	4.8828	8.4991	6.7291	0.9193	1.4915	6.8779	-1.8311	4.1809	0.37	4.776	2.3079
0.515	-0.721	1.564	4.3297	2.9678	4.3449	6.031	5.5313	7.7248	7.74	4.7188	8.3008	6.5308	0.8888	1.4	6.7406	-1.7929	4.0627	0.2975	4.673	2.2621
0.309	-0.8507	1.3733	4.1351	2.8381	4.1542	5.8174	5.4131	7.5417	7.5569	4.5815	8.1787	6.3553	0.8507	1.255	6.5689	-1.7128	3.9406	0.206	4.5662	2.2278
0.1068	-0.9689	1.1864	3.9406	2.7199	4.0054	5.6229	5.2605	7.3967	7.3395	4.4327	7.9994	6.1646	0.8125	1.1253	6.3972	-1.6518	3.7651	0.1526	4.4556	2.1706
-0.0725	-1.0567	1.0414	3.7613	2.636	3.849	5.4779	5.1498	7.2441	7.1564	4.303	7.8354	5.9853	0.8011	0.9995	6.2447	-1.5945	3.5973	0.0954	4.364	2.1324
-0.2213	-1.1063	0.9155	3.6354	2.6016	3.727	5.3558	5.0964	7.1373	7.0381	4.2343	7.7171	5.8289	0.7401	0.8469	6.0425	-1.5068	3.4599	0.0763	4.2534	2.121
-0.3624	-1.1559	0.7439	3.5019	2.5635	3.5934	5.188	5.0011	7	6.9046	4.1542	7.5836	5.6763	0.6981	0.6981	5.9166	-1.4267	3.2997	0.0687	4.1275	2.1019
-0.4921	-1.194	0.6676	3.376	2.5253	3.4866	5.0316	4.9553	6.9122	6.7787	4.0665	7.4577	5.4932	0.6599	0.5684	5.7945	-1.3351	3.1548	0.103	4.0321	2.079
-0.5722	-1.1749	0.6104	3.2997	2.5482	3.4065	4.9858	4.9133	6.8398	6.6833	4.0169	7.3547	5.3749	0.6409	0.4616	5.6572	-1.2741	3.0365	0.1297	3.9406	2.0447
-0.6447	-1.2016	0.5264	3.17	2.5749	3.3379	4.8904	4.8904	6.7711	6.5498	3.9787	7.267	5.2147	0.5798	0.3395	5.5428	-1.1749	2.8725	0.1678	3.8033	2.0027
-0.7019	-1.1826	0.473	3.1052	2.5368	3.2921	4.8027	4.8523	6.7101	6.4659	3.8719	7.1678	5.0735	0.5302	0.2518	5.455	-1.0834	2.7122	0.248	3.7079	1.9341
-0.7057	-1.1597	0.4539	3.0632	2.5558	3.2539	4.7722	4.8676	6.6414	6.4201	3.8605	7.0915	4.9553	0.5035	0.1831	5.4054	-1.0262	2.5978	0.3242	3.6354	1.8845
-0.7095	-1.1673	0.4387	3.0403	2.5787	3.2349	4.7379	4.8866	6.6147	6.3705	3.83	7.0267	4.8752	0.4692	0.1335	5.3101	-0.9499	2.491	0.4005	3.5553	1.8501
-0.679	-1.1253	0.4807	3.0403	2.6054	3.2463	4.734	4.8904	6.5804	6.321	3.7994	6.9885	4.8218	0.4387	0.1183	5.291	-0.8812	2.3918	0.4883	3.479	1.8005
-0.6714	-1.0643	0.515	3.0899	2.6398	3.2845	4.776	4.9324	6.6071	6.3629	3.8376	6.9695	4.7913	0.4044	0.1144	5.2834	-0.8278	2.3346	0.5722	3.4599	1.7815
-0.5875	-0.9956	0.618	3.1471	2.7275	3.3417	4.8637	4.9744	6.649	6.4049	3.8643	6.9695	4.7874	0.3815	0.1945	5.3215	-0.7896	2.3117	0.6523	3.4599	1.7128
-0.4921	-0.9232	0.6638	3.2196	2.7695	3.3875	4.8981	5.0163	6.6948	6.4697	3.9063	7.0076	4.8294	0.37	0.248	5.3787	-0.7477	2.3422	0.7248	3.4714	1.7204
-0.4005	-0.8507	0.7629	3.3112	2.8343	3.4561	5.0201	5.0697	6.7444	6.546	3.9864	7.0648	4.8752	0.351	0.3395	5.4436	-0.7248	2.3727	0.7896	3.521	1.7166
-0.2708	-0.7591	0.8812	3.4103	2.9182	3.5706	5.1079	5.1651	6.8474	6.6376	4.0436	7.1182	4.9553	0.3395	0.4539	5.5313	-0.7057	2.3766	0.8507	3.5553	1.7166
-0.1488	-0.6676	0.9842	3.5286	2.9793	3.6583	5.2185	5.2338	6.9275	6.7291	4.1313	7.1945	5.0354	0.3357	0.5684	5.6076	-0.6905	2.4719	0.8888	3.6087	1.7548
-0.0191	-0.5989	1.1177	3.6316	3.0327	3.7651	5.3253	5.3139	7.0343	6.8512	4.2267	7.2708	5.1117	0.3357	0.7515	5.7487	-0.6943	2.5024	0.9422	3.624	1.7929
0.0801	-0.5341	1.2283	3.7155	3.0746	3.891	5.4131	5.3902	7.1106	6.9542	4.303	7.3509	5.1994	0.3319	0.885	5.8174	-0.6943	2.5749	0.9956	3.6736	1.8501
0.2098	-0.4768	1.3313	3.8147	3.1242	3.9749	5.5046	5.4131	7.2098	7.0229	4.3755	7.3967	5.291	0.3433	1.0071	5.9204	-0.7019	2.594	0.9995	3.6888	1.8921
0.309	-0.4196	1.461	3.9253	3.1929	4.1046	5.6	5.5084	7.3357	7.1526	4.4975	7.5378	5.3864	0.3548	1.194	6.0234	-0.7401	2.6627	1.0262	3.7193	1.9798
0.4425	-0.4158	1.5678	4.0169	3.2234	4.1962	5.6648	5.5618	7.412	7.2479	4.5586	7.6065	5.4855	0.3777	1.3618	6.1226	-0.7591	2.6817	1.0376	3.7537	2.0523
0.5493	-0.3738	1.6861	4.1161	3.212	4.3221	5.806	5.6114	7.515	7.3509	4.631	7.679	5.5809	0.4082	1.5411	6.2332	-0.7973	2.7428	1.049	3.7766	2.1133
0.6676	-0.3662	1.77	4.2038	3.2425	4.4136	5.8632	5.6496	7.5912	7.4425	4.6997	7.7362	5.6419	0.3815	1.7014	6.3667	-0.8125	2.7695	1.0109	3.7804	2.1896
0.7553	-0.3815	1.873	4.2725	3.231	4.5052	5.9509	5.6953	7.6752	7.5302	4.776	7.8278	5.7602	0.4005	1.8272	6.4697	-0.8469	2.8152	0.9995	3.8185	2.2697
0.8354	-0.412	1.9798	4.3602	3.2234	4.5738	6.0272	5.7297	7.7629	7.6065	4.7836	7.8812	5.8479	0.4234	1.9684	6.5651	-0.8583	2.8534	0.9651	3.8414	2.285
0.9346	-0.412	2.0752	4.4289	3.2005	4.6349	6.073	5.7373	7.7934	7.6904	4.7951	7.9536	5.9204	0.4387	2.0828	6.6299	-0.885	2.8877	0.9232	3.8643	2.3003
1.0109	-0.4158	2.1095	4.4975	3.2082	4.6921	6.1913	5.7907	7.8545	7.782	4.8523	7.9994	5.9853	0.4578	2.1782	6.7596	-0.927	2.903	0.9003	3.8834	2.3384
1.0643	-0.4578	2.1858	4.528	3.1738	4.7226	6.2294	5.7869	7.9002	7.8468	4.8866	8.0643	6.0806	0.4692	2.2316	6.8054	-0.9575	2.9297	0.8621	3.891	2.3193
1.1024	-0.4616	2.2163	4.5776	3.1624	4.7874	6.3057	5.8174	7.9308	7.9117	4.8943	8.0948	6.1264	0.4997	2.3193	6.8588	-1.0185	2.9564	0.8469	3.9139	2.3003
1.1368	-0.4921	2.2354	4.6272	3.1815	4.8141	6.3858	5.8212	7.9956	7.9994	4.8904	8.1482	6.2103	0.5341	2.3499	6.9427	-1.0643	3.006	0.8583	3.9787	2.3041
1.2054	-0.4272	2.3193	4.7112	3.1967	4.8332	6.4774	5.8746	8.007	8.0376	4.9286	8.194	6.2828	0.5455	2.4376	7.0229	-1.1292	3.0327	0.8316	4.0092	2.2888
1.255	-0.4425	2.3346	4.7531	3.1967	4.8752	6.5727	5.9204	8.0452	8.1329	4.9744	8.2817	6.3629	0.5798	2.4529	7.061	-1.1902	3.1052	0.8659	4.0855	2.3079
1.2474	-0.4539	2.346	4.8256	3.2616	4.879	6.6605	5.9471	8.0719	8.2054	4.9782	8.297	6.4087	0.6065	2.4681	7.1182	-1.2321	3.1471	0.8507	4.1161	2.2659
1.2779	-0.3853	2.3766	4.8866	3.2959	4.9057	6.7444	5.9929	8.1139	8.297	4.9706	8.3694	6.485	0.618	2.5024	7.2098	-1.2703	3.1967	0.8392	4.1733	2.2507
1.3275	-0.351	2.3956	4.9515	3.334	4.9324	6.8359	6.0387	8.1177	8.358	5.024	8.4267	6.5536	0.6638	2.5444	7.2746	-1.3466	3.2234	0.843	4.2419	2.2659
1.3351	-0.3052	2.388	4.9934	3.3722	4.9324	6.8817	6.0463	8.1367	8.4	5.0125	8.4572	6.5804	0.679	2.5597	7.3204	-1.3885	3.2539	0.8202	4.2839	2.1896
1.3657	-0.248	2.4185	5.0316	3.4485	4.9744	6.9656	6.134	8.1749	8.4572	5.0507	8.5068	6.6376	0.7133	2.5711	7.3776	-1.461	3.2692	0.824	4.3335	2.1973
1.4076	-0.164	2.3956	5.0697	3.5172	4.982	7.0229	6.1646	8.1749	8.4839	5.0545	8.5106	6.6681	0.7706	2.6169	7.4768	-1.5373	3.3302	0.843	4.3831	2.1553
1.4687	-0.0572	2.4338	5.1041	3.6049	5.0125	7.0419	6.2218	8.1978	8.5144	5.0812	8.5564	6.6833	0.8087	2.6474	7.5493	-1.6403	3.3188	0.8545	4.4518	2.1553
1.4725	0.0305	2.4223	5.1003	3.685	4.9973	7.0229	6.2485	8.2169	8.5335	5.0659	8.5754	6.6605	0.843	2.6436	7.5874	-1.7052	3.3188	0.8621	4.4785	2.1362
1.5144	0.1183	2.4185	5.0812	3.7422	4.9934	7.0076	6.3057	8.2283	8.522	5.0659	8.5831	6.6376	0.885	2.697	7.6561	-1.7815	3.3035	0.824	4.4861	2.1286
1.5373	0.206	2.4071	5.0468	3.8338	5.0087	6.9809	6.321	8.2207	8.5068	5.0583	8.5831	6.6643	0.9193	2.7237	7.6599	-1.8654	3.315	0.7973	4.5471	2.1439
1.5373	0.2823	2.3651	5.0354	3.8795	5.0011	6.9046	6.3667	8.2016	8.4801	5.0468	8.5945	6.5918	0.9575	2.7542	7.7057	-1.9379	3.3112	0.7858	4.5509	2.1439
1.5564	0.3586	2.3346	4.9782	3.9558	5.0049	6.8703	6.424	8.2092	8.4686	5.0659	8.5831	6.5689	0.9956	2.7695	7.7553	-1.9913	3.2921	0.7744	4.6043	2.1439
1.5526	0.4463	2.3155	4.9553	4.0207	4.982	6.8016	6.4354	8.2054	8.4343	5.0507	8.5945	6.5575	1.0147	2.7771	7.7705	-2.0294	3.3035	0.7744	4.6501	2.1667
1.5488	0.5112	2.285	4.8981	4.0741	4.9858	6.7291	6.4583	8.2245	8.3733	5.0468	8.564	6.4926	1.0262	2.8	7.7972	-2.0638	3.2578	0.7668	4.6272	2.1553
1.545	0.5989	2.2621	4.8065	4.158	5.0163	6.6795	6.5002	8.2397	8.3618	5.0812	8.5831	6.4774	1.0338	2.7847	7.7972	-2.079	3.231	0.7858	4.6272	2.224
1.4877	0.6523	2.2087	4.7226	4.2114	4.9896	6.5689	6.5346	8.2397	8.3199	5.1117	8.5907	6.4201	1.0223	2.8	7.8316	-2.0638	3.1929	0.782	4.5891	2.2621
1.4877	0.7324	2.182	4.6387	4.2992	5.0125	6.4812	6.5651	8.2741	8.2664	5.1384	8.6212	6.424	1.03	2.7847	7.8735	-2.0676	3.2005	0.824	4.5547	2.3079
1.4763	0.7477	2.1667	4.5319	4.3564	5.0507	6.4087	6.6109	8.3084	8.2359	5.1498	8.625	6.3744	1.0109	2.8114	7.9155	-2.0332	3.1548	0.8049	4.5013	2.3346
1.4801	0.8888	2.1706	4.4518	4.4479	5.085	6.3477	6.649	8.3504	8.1825	5.1727	8.6403	6.3477	1.0071	2.861	8.0414	-2.0256	3.1052	0.8507	4.4746	2.3727
1.4648	0.9766	2.1706	4.3869	4.528	5.1308	6.3057	6.6643	8.4	8.1558	5.1956	8.6403	6.2943	0.9918	2.9335	8.194	-1.9951	3.0594	0.885	4.4479	2.4033
1.5068	1.0567	2.1935	4.3373	4.5815	5.1498	6.2523	6.6833	8.4343	8.11	5.1842	8.6441	6.2523	0.988	3.0136	8.3122	-1.9684	2.9755	0.9117	4.3831	2.4071
1.5411	1.1406	2.2087	4.2725	4.6539	5.188	6.218	6.7024	8.4534	8.0986	5.2032	8.6479	6.1913	0.9613	3.1013	8.4534	-1.9417	2.9335	0.9499	4.3335	2.4185
1.5793	1.2512	2.2469	4.2839	4.7302	5.2414	6.237	6.7177	8.4991	8.0986	5.1765	8.6136	6.1264	0.9727	3.1967	8.6098	-1.9341	2.8725	0.9918	4.2953	2.3918
1.6518	1.3466	2.3003	4.3144	4.7989	5.2834	6.2828	6.7368	8.5449	8.0757	5.1155	8.5716	6.0883	0.9804	3.3188	8.7433	-1.9493	2.8229	1.0033	4.2686	2.3994
1.7052	1.4458	2.3346	4.3221	4.818	5.3177	6.2943	6.7101	8.5449	8.0566	5.0735	8.5335	6.012	0.9575	3.3913	8.8387	-1.915	2.7466	1.0338	4.2114	2.3422
1.7624	1.503	2.4071	4.3716	4.8676	5.3596	6.34	6.7177	8.5526	8.0223	5.0278	8.4496	5.9395	0.946	3.5019	8.9417	-1.915	2.6474	1.0719	4.1771	2.285
1.8349	1.6136	2.4681	4.4174	4.8637	5.394	6.4354	6.6948	8.564	8.0185	4.9591	8.3847	5.8594	0.946	3.6278	9.0485	-1.8997	2.5444	1.0529	4.158	2.2316
1.8845	1.6441	2.5215	4.4594	4.8866	5.4207	6.4888	6.649	8.5564	8.007	4.8866	8.2932	5.764	0.9308	3.6926	9.0866	-1.873	2.4452	1.0834	4.1122	2.1515
1.9264	1.6975	2.5826	4.5052	4.8981	5.4016	6.5498	6.5918	8.5373	7.9422	4.7874	8.213	5.703	0.9346	3.7575	9.1362	-1.8768	2.388	1.1215	4.0741	2.0638
1.9913	1.709	2.6054	4.5204	4.8752	5.4092	6.5804	6.546	8.522	7.9346	4.6768	8.1139	5.6114	0.9193	3.83	9.1476	-1.8501	2.3117	1.1559	4.0169	1.9913
2.0447	1.7014	2.6398	4.528	4.8447	5.4092	6.6032	6.4621	8.4763	7.8888	4.5738	8.0109	5.5504	0.8926	3.8605	9.1438	-1.812	2.2278	1.1711	3.952	1.9112
2.0599	1.7128	2.6932	4.5471	4.8218	5.394	6.6223	6.4316	8.4381	7.8583	4.4975	7.9498	5.4665	0.8888	3.9253	9.14	-1.7738	2.1248	1.1787	3.8948	1.8425
2.1019	1.7509	2.7275	4.5395	4.7874	5.3902	6.6414	6.3591	8.4343	7.8087	4.3983	7.8659	5.4016	0.8698	3.9787	9.1553	-1.7395	2.0866	1.2131	3.8452	1.7815
2.1591	1.7319	2.7733	4.5738	4.7684	5.394	6.6605	6.3019	8.3923	7.7934	4.3373	7.7934	5.3596	0.8507	4.0321	9.1515	-1.7052	2.0103	1.236	3.7918	1.7128
2.2202	1.7319	2.8305	4.5929	4.7836	5.3864	6.6566	6.2675	8.3847	7.7362	4.2648	7.7248	5.3024	0.8316	4.097	9.1476	-1.6632	1.9379	1.2665	3.7384	1.6518
2.2469	1.7014	2.8267	4.6272	4.7569	5.3711	6.6185	6.1989	8.3351	7.679	4.2038	7.6447	5.2376	0.8125	4.1428	9.1515	-1.6327	1.8616	1.2665	3.6964	1.6251
2.2926	1.7166	2.8801	4.6349	4.7073	5.3749	6.5765	6.1455	8.297	7.5912	4.1161	7.5569	5.146	0.7858	4.2458	9.1591	-1.5945	1.7929	1.2245	3.6316	1.564
2.3651	1.6708	2.9182	4.6883	4.6768	5.3902	6.5575	6.0768	8.297	7.5378	4.0665	7.5073	5.0964	0.7782	4.3411	9.2239	-1.564	1.7242	1.2093	3.582	1.5373
2.4147	1.6403	2.9373	4.6997	4.631	5.3558	6.485	6.0425	8.2512	7.4577	3.9825	7.412	5.0087	0.7515	4.467	9.304	-1.5182	1.6479	1.1444	3.5248	1.5068
2.4757	1.6022	2.9602	4.7874	4.5547	5.3673	6.4659	5.9471	8.2283	7.4272	3.933	7.3662	4.9591	0.7362	4.5738	9.3842	-1.4687	1.606	1.0948	3.4981	1.461
2.533	1.545	2.9831	4.8141	4.5013	5.3635	6.4354	5.8899	8.1825	7.3471	3.8605	7.2899	4.9057	0.7057	4.6768	9.4719	-1.4114	1.5335	1.0262	3.4447	1.461
2.6016	1.5221	3.0098	4.8904	4.406	5.3329	6.4011	5.8136	8.1673	7.2975	3.7956	7.2289	4.879	0.6905	4.8027	9.552	-1.3771	1.503	0.9575	3.4256	1.4877
2.6245	1.4534	2.9793	4.9133	4.3335	5.3177	6.3858	5.7487	8.1406	7.2289	3.727	7.1793	4.8103	0.6523	4.8981	9.5863	-1.3046	1.4305	0.8965	3.4103	1.4915
2.6703	1.4191	3.0098	4.9782	4.2839	5.3444	6.3362	5.7373	8.1596	7.2174	3.6964	7.1526	4.776	0.6332	4.982	9.6626	-1.2856	1.4114	0.8926	3.3951	1.5488
2.6894	1.3123	2.9716	4.9973	4.1924	5.3368	6.2943	5.6534	8.1482	7.1754	3.6507	7.1182	4.7493	0.6142	5.0735	9.716	-1.2589	1.3809	0.8392	3.334	1.5984
2.7199	1.2856	2.9831	5.0545	4.1618	5.3558	6.2943	5.6343	8.1749	7.1373	3.6316	7.1106	4.7569	0.6256	5.1384	9.7847	-1.236	1.3657	0.7973	3.3417	1.6174
2.7084	1.1902	2.9335	5.0354	4.0817	5.3062	6.2447	5.5847	8.1558	7.103	3.5744	7.0457	4.7073	0.6065	5.1651	9.7923	-1.2207	1.3504	0.7553	3.3455	1.6289
2.6779	1.1063	2.8687	5.0545	4.0398	5.2795	6.218	5.5466	8.1749	7.0877	3.54	7.0572	4.6997	0.5951	5.1804	9.8457	-1.2131	1.3542	0.7095	3.3226	1.6136
2.6321	1.0071	2.8114	5.0163	3.9482	5.249	6.1874	5.4817	8.1482	7.0534	3.4752	7.0229	4.6768	0.5989	5.1727	9.8572	-1.2054	1.3733	0.6294	3.2959	1.5526
2.6169	0.9308	2.7695	5.0278	3.9101	5.2299	6.1569	5.4207	8.1902	7.0381	3.4485	7.0305	4.6501	0.6104	5.1842	9.9144	-1.2131	1.3618	0.5722	3.3112	1.503
2.5978	0.8583	2.6855	4.9744	3.8376	5.1956	6.1264	5.3787	8.2054	6.9885	3.4103	7.0152	4.6501	0.5875	5.188	9.9373	-1.2016	1.3924	0.5264	3.315	1.4191
2.5291	0.7439	2.6436	4.9057	3.788	5.1537	6.0692	5.3215	8.213	6.9885	3.3531	6.9923	4.612	0.5722	5.1422	9.9945	-1.1749	1.3924	0.4768	3.2997	1.3504
2.4986	0.6866	2.5482	4.8828	3.7384	5.1155	6.031	5.2643	8.1902	6.9199	3.2997	6.9733	4.5815	0.5722	5.1117	10.0174	-1.152	1.4229	0.4272	3.3035	1.236
2.4796	0.6332	2.5177	4.8485	3.7231	5.0774	5.9967	5.2299	8.2283	6.9542	3.2578	6.9847	4.6005	0.5569	5.085	10.0746	-1.133	1.4305	0.3777	3.334	1.1215
2.5291	0.6104	2.4872	4.8447	3.7003	5.0697	6.012	5.2071	8.2512	6.9275	3.2272	6.9962	4.5967	0.5455	5.0774	10.1471	-1.1406	1.4763	0.3319	3.3607	1.0681
2.5368	0.5875	2.4796	4.8332	3.6888	5.0392	5.9776	5.1613	8.2626	6.9199	3.1586	6.958	4.5586	0.5379	5.0316	10.2081	-1.1139	1.4687	0.3014	3.3646	0.9422
2.5787	0.6104	2.4796	4.8637	3.6774	5.0545	6.0081	5.1575	8.2893	6.916	3.1509	6.9542	4.5815	0.5417	5.0125	10.2692	-1.1063	1.4915	0.2632	3.3875	0.8621
2.6207	0.6561	2.5024	4.921	3.7079	5.1003	6.031	5.1804	8.3389	6.9466	3.1204	6.9733	4.5967	0.5646	4.9858	10.4256	-1.1215	1.4915	0.2403	3.4027	0.7515
2.6779	0.6866	2.5215	4.94	3.7231	5.0888	6.0349	5.1498	8.3694	6.958	3.1013	6.9504	4.57	0.5569	4.9286	10.498	-1.1063	1.4915	0.1945	3.4294	0.6714
2.7542	0.7935	2.5482	4.9934	3.7537	5.146	6.0501	5.1613	8.419	6.9351	3.0861	6.9809	4.6196	0.5684	4.9324	10.6201	-1.1368	1.5335	0.1793	3.4714	0.6218
2.8305	0.8545	2.6093	5.0735	3.8261	5.1842	6.0844	5.1956	8.4419	6.9771	3.0518	6.9809	4.6005	0.5646	4.9133	10.7384	-1.1635	1.5411	0.2174	3.4981	0.5531
2.9373	0.9727	2.6855	5.1422	3.8757	5.2223	6.1035	5.2414	8.5144	7.0267	3.0861	7	4.6196	0.5951	4.9324	10.8643	-1.2016	1.5564	0.2518	3.521	0.5074
3.0174	1.0376	2.7428	5.2109	3.9406	5.2795	6.1607	5.2795	8.5564	7.061	3.1242	7.0343	4.6387	0.618	4.9553	10.9863	-1.2589	1.6174	0.3433	3.5744	0.4654
3.0899	1.1253	2.7885	5.2681	4.0054	5.2986	6.218	5.3101	8.5869	7.1144	3.1242	7.0419	4.6616	0.6332	4.9553	11.0817	-1.2856	1.6289	0.3929	3.6049	0.4196
3.1509	1.2512	2.8648	5.3444	4.1008	5.3711	6.2561	5.3749	8.6632	7.122	3.1433	7.0763	4.6959	0.6561	4.9438	11.1771	-1.3275	1.6556	0.4692	3.6354	0.4463
3.2234	1.3161	2.8915	5.3635	4.1428	5.3787	6.321	5.3787	8.6937	7.1411	3.1662	7.061	4.6768	0.6828	5.0087	11.2457	-1.3733	1.6785	0.515	3.6659	0.4272
3.2883	1.4229	2.9602	5.4474	4.2419	5.4359	6.3934	5.4169	8.7013	7.1678	3.2005	7.0839	4.6883	0.7133	5.043	11.3411	-1.4458	1.7166	0.5798	3.6659	0.4387
3.3722	1.5221	3.0174	5.5199	4.3182	5.4855	6.4316	5.4741	8.7395	7.206	3.273	7.1068	4.6921	0.7629	5.085	11.4365	-1.5182	1.7357	0.6371	3.6774	0.4807
3.4485	1.6479	3.0594	5.5656	4.3793	5.5389	6.443	5.497	8.7738	7.2021	3.2921	7.1487	4.673	0.7935	5.1651	11.5242	-1.5984	1.7471	0.6714	3.7079	0.5112
3.54	1.7281	3.1128	5.6114	4.4594	5.558	6.485	5.5351	8.7814	7.1945	3.2845	7.1068	4.631	0.8278	5.2185	11.5776	-1.6708	1.7128	0.6485	3.6812	0.5188
3.5973	1.8501	3.1662	5.6229	4.5662	5.6152	6.4659	5.5656	8.8081	7.1754	3.3112	7.0992	4.6272	0.8965	5.2757	11.6768	-1.7967	1.7014	0.6943	3.6926	0.5379
3.6812	1.9493	3.231	5.6839	4.6082	5.6496	6.4507	5.5847	8.8196	7.1411	3.3188	7.0877	4.5815	0.9384	5.3635	11.7607	-1.8997	1.6747	0.6866	3.6736	0.5569
3.7041	2.0294	3.2616	5.6915	4.6501	5.6725	6.4011	5.5962	8.7776	7.0534	3.3073	7.0496	4.5128	0.9918	5.3825	11.8103	-1.9798	1.6289	0.6447	3.6659	0.5531
3.8033	2.0905	3.2997	5.6648	4.6616	5.6725	6.3667	5.5466	8.7585	6.9771	3.2692	6.9771	4.4098	1.0529	5.4398	11.8752	-2.1019	1.5488	0.6256	3.6278	0.5226
3.8223	2.1324	3.3188	5.619	4.6768	5.6953	6.2981	5.5313	8.7051	6.897	3.1967	6.9046	4.3297	1.091	5.4741	11.8752	-2.1706	1.4954	0.5569	3.6049	0.4349
3.8376	2.1515	3.3531	5.5466	4.6577	5.6953	6.2218	5.4626	8.6555	6.7787	3.1242	6.8321	4.2229	1.1253	5.5199	11.9133	-2.2507	1.4	0.4616	3.5553	0.3929
3.891	2.2011	3.3569	5.5122	4.6463	5.6686	6.1607	5.4092	8.6403	6.7139	3.0403	6.7482	4.1466	1.1673	5.5695	11.9171	-2.3193	1.3275	0.4082	3.5248	0.3548
3.83	2.2125	3.3455	5.4398	4.6082	5.6534	6.0539	5.3062	8.5602	6.6223	2.9602	6.6338	4.0894	1.1749	5.5542	11.8561	-2.3308	1.2283	0.309	3.4523	0.2937
3.8261	2.2049	3.3646	5.3711	4.5662	5.6229	5.9776	5.2414	8.4877	6.5079	2.8191	6.5575	3.9749	1.1749	5.5313	11.8065	-2.3384	1.1177	0.2136	3.3569	0.2518
3.7804	2.1439	3.315	5.2986	4.467	5.5733	5.9319	5.1308	8.4152	6.443	2.7351	6.4507	3.8719	1.1711	5.5122	11.734	-2.3155	1.0567	0.0916	3.2921	0.1831
3.7003	2.0638	3.2997	5.2414	4.4022	5.5351	5.867	5.0011	8.3199	6.3591	2.594	6.3667	3.7727	1.1406	5.4321	11.5776	-2.2736	0.9575	-0.0191	3.212	0.1106
3.6278	1.9913	3.2578	5.2071	4.2839	5.4703	5.806	4.8714	8.2359	6.2637	2.4986	6.2637	3.7079	1.1215	5.3749	11.4632	-2.2278	0.8774	-0.1106	3.1509	0.0763
3.5553	1.8578	3.231	5.127	4.1695	5.4169	5.7678	4.7073	8.1482	6.1913	2.3689	6.1646	3.6125	1.0605	5.2872	11.3449	-2.1248	0.7935	-0.206	3.0518	0.0305
3.4752	1.7433	3.1662	5.1117	4.0398	5.3406	5.7335	4.5738	8.0681	6.1569	2.2507	6.0768	3.521	0.9995	5.1842	11.1694	-2.0103	0.7095	-0.2708	2.9716	-0.0076
3.3722	1.6327	3.1013	5.0583	3.9215	5.2605	5.6877	4.4289	7.9727	6.0959	2.1172	5.9929	3.4828	0.9499	5.0926	11.0435	-1.8883	0.6256	-0.3548	2.8915	-0.0381
3.2997	1.4725	3.0289	5.024	3.7994	5.1727	5.6534	4.2839	7.8697	6.0005	1.9951	5.8937	3.3989	0.8736	5.0011	10.9138	-1.7548	0.5569	-0.4044	2.8191	-0.0877
3.2043	1.3313	2.9602	4.982	3.6621	5.0468	5.6229	4.1084	7.782	5.9395	1.8616	5.7869	3.334	0.8125	4.9248	10.7422	-1.6327	0.4845	-0.5035	2.758	-0.1869
3.1166	1.1826	2.8725	4.9324	3.4981	4.9591	5.5771	3.9368	7.6408	5.8899	1.7319	5.6801	3.2578	0.7515	4.8332	10.5934	-1.5106	0.3853	-0.5722	2.6779	-0.2594
2.9907	1.0223	2.739	4.8485	3.315	4.8332	5.5161	3.7994	7.5417	5.7869	1.5831	5.5656	3.1662	0.6943	4.715	10.4599	-1.4114	0.2861	-0.6561	2.5826	-0.3319
2.8687	0.8278	2.6398	4.8065	3.1319	4.6883	5.4131	3.6125	7.3967	5.7144	1.4191	5.4588	3.0594	0.6599	4.6387	10.3683	-1.3466	0.1945	-0.7858	2.5215	-0.4578
2.7771	0.6905	2.5139	4.7569	2.9831	4.5547	5.3787	3.4409	7.3051	5.6534	1.255	5.3635	3.0136	0.6638	4.57	10.2615	-1.3428	0.1183	-0.8698	2.449	-0.5684
2.7008	0.5074	2.3956	4.6959	2.7962	4.3945	5.3406	3.2921	7.1716	5.5809	1.1406	5.2643	2.9411	0.6561	4.5128	10.1814	-1.3275	0.0381	-0.9613	2.3918	-0.6714
2.6245	0.3242	2.2926	4.6501	2.6131	4.2534	5.3062	3.1395	7.0381	5.5199	0.9918	5.1537	2.8572	0.6638	4.4899	10.1051	-1.3504	-0.0458	-1.0948	2.3537	-0.7515
2.5864	0.164	2.2049	4.5929	2.4452	4.1466	5.2681	2.9945	6.9466	5.4779	0.9003	5.0926	2.8534	0.6828	4.4327	10.067	-1.3809	-0.0992	-1.2016	2.3003	-0.8392
2.4757	0.0114	2.0676	4.5547	2.2964	4.0245	5.2567	2.8954	6.8588	5.4436	0.8087	5.043	2.8191	0.7133	4.3983	10.0555	-1.4343	-0.145	-1.2627	2.2697	-0.9117
2.3994	-0.1564	1.9646	4.4899	2.1477	3.8719	5.2223	2.7847	6.7635	5.4207	0.7362	4.9896	2.8038	0.7401	4.3716	10.0098	-1.4992	-0.164	-1.3313	2.2621	-1.0033
2.3232	-0.2861	1.8578	4.4403	2.0523	3.7575	5.1765	2.7428	6.7062	5.4054	0.6905	4.9667	2.8191	0.7858	4.3106	10.0098	-1.5678	-0.1907	-1.3733	2.285	-1.0338
2.2354	-0.4272	1.7242	4.3526	1.915	3.6507	5.0926	2.655	6.6452	5.3482	0.6485	4.9248	2.7962	0.8125	4.2572	9.9907	-1.6327	-0.206	-1.4076	2.2621	-1.0452
2.182	-0.5646	1.6441	4.2915	1.8578	3.5553	5.0621	2.636	6.6032	5.3368	0.6256	4.9171	2.8038	0.8507	4.2419	10.0098	-1.7014	-0.2136	-1.4458	2.2278	-1.0872
2.0866	-0.6447	1.5526	4.2267	1.8158	3.4676	5.0049	2.6474	6.5842	5.2986	0.6409	4.9171	2.7962	0.8698	4.1885	9.9754	-1.7624	-0.2251	-1.4458	2.2392	-1.03
2.0599	-0.7133	1.4648	4.1733	1.7891	3.4027	4.9934	2.6436	6.5422	5.2986	0.6676	4.9362	2.8572	0.8965	4.1466	10.0136	-1.8005	-0.1869	-1.4534	2.2354	-0.9804
2.0523	-0.7324	1.4267	4.1656	1.8349	3.376	4.9591	2.6817	6.5804	5.3215	0.7401	4.9782	2.8725	0.9079	4.1428	10.0288	-1.8272	-0.1717	-1.4114	2.243	-0.9041
2.037	-0.7324	1.4305	4.1542	1.8616	3.3646	4.9782	2.7313	6.5765	5.3253	0.8087	5.0354	2.9602	0.9193	4.097	10.0441	-1.8463	-0.1221	-1.3885	2.2621	-0.8125
2.0561	-0.7401	1.4267	4.1733	1.9341	3.3455	4.9667	2.7924	6.5956	5.3406	0.8812	5.085	3.0022	0.927	4.0932	10.0822	-1.8654	-0.0916	-1.3542	2.285	-0.7172
2.0638	-0.7019	1.4076	4.1618	1.9836	3.334	4.9896	2.8725	6.6376	5.352	0.9537	5.127	3.0594	0.946	4.1008	10.1433	-1.8806	-0.0381	-1.3046	2.2964	-0.5913
2.1172	-0.6676	1.461	4.1962	2.0561	3.3646	5.0392	2.9526	6.6719	5.394	1.0567	5.1346	3.0937	0.9537	4.1084	10.1662	-1.8959	0.0153	-1.255	2.3232	-0.515
2.1744	-0.6523	1.4954	4.2191	2.1019	3.3684	5.0316	3.0098	6.6566	5.3902	1.1139	5.1651	3.1738	0.9575	4.1161	10.2196	-1.915	0.0916	-1.2398	2.3766	-0.4692
2.2202	-0.5989	1.5488	4.2839	2.1667	3.3913	5.0583	3.0899	6.6605	5.4321	1.1559	5.1727	3.1929	0.9766	4.158	10.2882	-1.9493	0.145	-1.2054	2.4338	-0.3967
2.285	-0.5875	1.5717	4.3259	2.1782	3.4027	5.0392	3.0899	6.6414	5.4092	1.1635	5.1689	3.2082	0.988	4.1809	10.334	-1.9875	0.1755	-1.2245	2.4643	-0.3815
2.346	-0.5951	1.6251	4.3488	2.1896	3.418	5.0583	3.1128	6.6452	5.4512	1.1902	5.1384	3.2501	1.0071	4.2305	10.4103	-2.0256	0.2403	-1.2436	2.5101	-0.3738
2.3766	-0.6256	1.6327	4.3564	2.1324	3.3684	5.0392	3.0785	6.5536	5.4092	1.1215	5.0735	3.2463	1.0185	4.2305	10.4485	-2.0447	0.2861	-1.3046	2.5368	-0.4044
2.4223	-0.6752	1.6632	4.3793	2.0866	3.3264	5.0507	3.0174	6.485	5.3864	1.091	4.9934	3.2196	1.0376	4.2725	10.4866	-2.079	0.3204	-1.3275	2.6093	-0.4501
2.4452	-0.7286	1.6861	4.4212	2.0065	3.2806	5.0125	2.9602	6.3934	5.3215	0.9956	4.9057	3.1776	1.0529	4.2992	10.5324	-2.121	0.3586	-1.4305	2.6398	-0.5455
2.4414	-0.7782	1.6975	4.4479	1.9188	3.2234	5.0278	2.8648	6.2828	5.2948	0.8965	4.8218	3.1242	1.0834	4.303	10.5209	-2.1629	0.4158	-1.503	2.697	-0.6256
2.4605	-0.8354	1.7014	4.4594	1.8349	3.1662	5.0125	2.739	6.1417	5.2299	0.7401	4.6501	3.0937	1.0986	4.3297	10.5476	-2.1858	0.4044	-1.5831	2.6779	-0.7591
2.4681	-0.9193	1.7128	4.4479	1.7471	3.0785	4.9591	2.6016	5.9814	5.1613	0.6218	4.4937	2.9984	1.1101	4.3106	10.4904	-2.2125	0.4044	-1.667	2.6779	-0.9003
