"FZ"	"FC3"	"FCZ"	"FC4"	"C3"	"CZ"	"C4"	"CP3"	"CPZ"	"CP4"	"P3"	"PZ"	"P4"	"OZ"	"FP1"	"FP2"	"A2"	"P8"	"TP7"	"TP8"	"P7"
-0.1513	0.1266	0.0468	-0.487	-0.2504	-0.0881	-0.2504	-0.3219	-0.055	-0.2669	0.1101	0.0936	-0.2449	-1.2437	-0.875	-1.1804	2.4874	-0.8943	0.7237	-1.0759	1.3675
-0.2009	0.0881	-0.0495	-0.498	-0.3027	-0.1596	-0.3027	-0.377	-0.1266	-0.3302	0.0715	0.0165	-0.3082	-1.2217	-0.8282	-1.1474	2.4434	-0.8888	0.7182	-1.0951	1.3428
-0.2284	0.077	-0.1321	-0.5311	-0.3274	-0.2366	-0.355	-0.4292	-0.2119	-0.3962	0.0028	-0.0605	-0.3935	-1.1914	-0.7677	-1.1254	2.3911	-0.8915	0.6824	-1.0786	1.2987
-0.2724	0.0248	-0.2229	-0.5778	-0.399	-0.3164	-0.3907	-0.4788	-0.2972	-0.4568	-0.0413	-0.1541	-0.4623	-1.1694	-0.7429	-1.1226	2.3416	-0.9245	0.6466	-1.1089	1.2602
-0.3247	0.0055	-0.3082	-0.5943	-0.4072	-0.377	-0.4182	-0.5008	-0.3632	-0.5338	-0.0908	-0.2256	-0.5283	-1.1254	-0.7319	-1.1061	2.2618	-0.93	0.6384	-1.1144	1.2024
-0.3687	-0.0495	-0.388	-0.6384	-0.4678	-0.4623	-0.4678	-0.5503	-0.443	-0.5943	-0.1678	-0.3274	-0.6191	-1.0841	-0.7072	-1.1089	2.1875	-0.9631	0.5916	-1.1612	1.1447
-0.4017	-0.0825	-0.465	-0.6631	-0.509	-0.487	-0.5118	-0.5778	-0.509	-0.6604	-0.2201	-0.3852	-0.6659	-1.0484	-0.6879	-1.0649	2.0774	-0.9768	0.5833	-1.1832	1.1281
-0.4595	-0.1073	-0.5476	-0.7044	-0.5723	-0.5696	-0.5476	-0.6246	-0.5448	-0.7182	-0.2642	-0.4595	-0.7292	-0.9851	-0.6714	-1.0539	1.9701	-0.9851	0.5558	-1.2024	1.0511
-0.4843	-0.1293	-0.5971	-0.7457	-0.5806	-0.5998	-0.5833	-0.6439	-0.5861	-0.7649	-0.3027	-0.5283	-0.8007	-0.9218	-0.6521	-1.0429	1.8436	-1.0043	0.5338	-1.2134	0.9988
-0.5173	-0.1789	-0.6604	-0.787	-0.6026	-0.6219	-0.6136	-0.6686	-0.5971	-0.8035	-0.3274	-0.5696	-0.8365	-0.864	-0.6494	-1.0098	1.7335	-1.0318	0.5118	-1.2327	0.919
-0.509	-0.1899	-0.7127	-0.7925	-0.6384	-0.6439	-0.6439	-0.6741	-0.6329	-0.864	-0.3797	-0.6164	-0.9053	-0.809	-0.6521	-0.9713	1.6152	-1.0704	0.4815	-1.2327	0.8392
-0.5448	-0.2036	-0.7374	-0.8117	-0.6466	-0.6466	-0.6494	-0.6714	-0.6246	-0.8723	-0.3935	-0.6494	-0.9355	-0.7484	-0.6439	-0.93	1.4886	-1.0676	0.476	-1.241	0.7815
-0.5145	-0.1651	-0.7402	-0.8007	-0.6356	-0.6136	-0.6384	-0.6604	-0.6026	-0.8667	-0.4348	-0.6714	-0.9493	-0.6962	-0.6549	-0.8695	1.384	-1.0676	0.4513	-1.2217	0.7402
-0.509	-0.1623	-0.7402	-0.7925	-0.6081	-0.5778	-0.6356	-0.6466	-0.5833	-0.8695	-0.4403	-0.6824	-0.9603	-0.6384	-0.6219	-0.7897	1.274	-1.0594	0.4513	-1.2024	0.7072
-0.4733	-0.1128	-0.6934	-0.7457	-0.5806	-0.498	-0.5916	-0.6274	-0.5503	-0.8227	-0.4403	-0.6796	-0.9548	-0.5668	-0.5998	-0.7154	1.1529	-1.0484	0.4623	-1.1529	0.6659
-0.4292	-0.0743	-0.6686	-0.7264	-0.5366	-0.4403	-0.5613	-0.5833	-0.465	-0.809	-0.4458	-0.6576	-0.9273	-0.5256	-0.5283	-0.6356	1.0484	-1.0346	0.4953	-1.1199	0.6329
-0.3715	-0.033	-0.5971	-0.6714	-0.487	-0.3577	-0.5311	-0.5311	-0.4182	-0.7787	-0.4375	-0.6411	-0.9163	-0.476	-0.5393	-0.5668	0.952	-1.0071	0.4953	-1.0979	0.5833
-0.2779	0.0138	-0.5173	-0.6219	-0.399	-0.2614	-0.4898	-0.4953	-0.3439	-0.7264	-0.4265	-0.5971	-0.8778	-0.41	-0.52	-0.4788	0.8365	-1.0126	0.5173	-1.0539	0.5833
-0.2394	0.0578	-0.4485	-0.5668	-0.3605	-0.1844	-0.4403	-0.432	-0.2697	-0.6769	-0.399	-0.5503	-0.8365	-0.3687	-0.5311	-0.4127	0.7402	-0.9686	0.4953	-1.0291	0.5448
-0.1513	0.1211	-0.3384	-0.476	-0.2697	-0.0743	-0.377	-0.3495	-0.2036	-0.6109	-0.3852	-0.5366	-0.8035	-0.3082	-0.4815	-0.3219	0.6219	-0.9245	0.5145	-0.9686	0.5311
-0.0798	0.1651	-0.2669	-0.4375	-0.2201	0.022	-0.3219	-0.3054	-0.1018	-0.5228	-0.3852	-0.4925	-0.7457	-0.2614	-0.4925	-0.2614	0.5393	-0.9163	0.52	-0.941	0.509
-0.0165	0.2256	-0.1623	-0.3412	-0.1293	0.1183	-0.2586	-0.2642	-0.0165	-0.4705	-0.3467	-0.4485	-0.7099	-0.2174	-0.4733	-0.2229	0.4623	-0.8805	0.5145	-0.8833	0.4595
0.0413	0.2917	-0.0523	-0.2834	-0.0605	0.2119	-0.2091	-0.1844	0.0825	-0.4017	-0.3219	-0.399	-0.6411	-0.1954	-0.465	-0.1844	0.3852	-0.8695	0.5421	-0.8365	0.4568
0.1238	0.3274	0.0193	-0.2009	0.0028	0.3192	-0.1183	-0.1211	0.1761	-0.3192	-0.2834	-0.3357	-0.5751	-0.1651	-0.4568	-0.1458	0.3274	-0.7897	0.5448	-0.7759	0.432
0.1706	0.3439	0.1018	-0.1266	0.0578	0.421	-0.0743	-0.0798	0.2256	-0.2586	-0.2669	-0.3137	-0.5311	-0.1458	-0.4403	-0.1238	0.2944	-0.7649	0.5476	-0.7237	0.4127
0.2311	0.41	0.2119	-0.0495	0.1541	0.5421	0.0028	0.022	0.3247	-0.1706	-0.2284	-0.2449	-0.476	-0.1238	-0.4182	-0.0881	0.2614	-0.7044	0.5806	-0.6879	0.41
0.2917	0.4237	0.2779	0.0028	0.2146	0.5943	0.0523	0.0743	0.377	-0.1156	-0.2009	-0.2201	-0.4182	-0.1348	-0.399	-0.0633	0.2586	-0.6659	0.5723	-0.6301	0.388
0.3164	0.4568	0.3274	0.0743	0.2559	0.6604	0.0963	0.1321	0.4623	-0.0275	-0.1458	-0.1706	-0.3632	-0.1376	-0.3962	-0.0825	0.2614	-0.6219	0.5531	-0.5888	0.3742
0.3412	0.5008	0.3825	0.1293	0.3109	0.7622	0.1513	0.1706	0.5283	0.044	-0.1183	-0.1046	-0.2807	-0.1431	-0.3935	-0.0633	0.2807	-0.5558	0.5586	-0.5283	0.3605
0.3907	0.5283	0.4155	0.1871	0.3577	0.7925	0.2174	0.2064	0.5998	0.1046	-0.0881	-0.0715	-0.2119	-0.1596	-0.3742	-0.0743	0.3329	-0.5035	0.5641	-0.4705	0.3384
0.3852	0.5421	0.4292	0.2174	0.4182	0.8392	0.2531	0.2586	0.6439	0.1651	-0.0605	-0.0248	-0.1431	-0.1871	-0.3577	-0.0605	0.388	-0.4623	0.5476	-0.4127	0.3412
0.3962	0.5503	0.4623	0.2614	0.4513	0.8778	0.2999	0.2917	0.6851	0.2229	-0.0303	0.0165	-0.0908	-0.2284	-0.3522	-0.0881	0.4568	-0.3742	0.5641	-0.3384	0.3302
0.3797	0.5476	0.4733	0.2917	0.4623	0.8915	0.2972	0.3274	0.7347	0.2504	0	0.0303	-0.0825	-0.2752	-0.3412	-0.1046	0.5366	-0.3412	0.5641	-0.2944	0.3082
0.3852	0.5943	0.498	0.366	0.5228	0.93	0.3742	0.3715	0.787	0.3412	0.0303	0.0825	0.0055	-0.2834	-0.3219	-0.1018	0.5861	-0.2311	0.5476	-0.2174	0.3082
0.4017	0.5916	0.5118	0.377	0.5393	0.9355	0.3935	0.3852	0.7815	0.3797	0.077	0.1128	0.0495	-0.3137	-0.2889	-0.0991	0.6439	-0.1954	0.5393	-0.1431	0.2917
0.3935	0.6053	0.4925	0.3852	0.5778	0.9383	0.41	0.4017	0.8062	0.41	0.0853	0.1348	0.0963	-0.3302	-0.2834	-0.1486	0.6879	-0.1321	0.5311	-0.055	0.2724
0.3577	0.6191	0.476	0.4237	0.5833	0.9163	0.4375	0.4045	0.8062	0.4403	0.0936	0.1706	0.1348	-0.3632	-0.2752	-0.1789	0.7292	-0.077	0.5228	0.0083	0.2449
0.3577	0.6136	0.432	0.4485	0.5751	0.8805	0.4485	0.3907	0.8035	0.4485	0.0853	0.1623	0.1623	-0.3715	-0.2504	-0.2009	0.7622	-0.044	0.498	0.0715	0.2201
0.3384	0.6026	0.454	0.4815	0.5641	0.8695	0.4568	0.3935	0.809	0.4815	0.0936	0.1678	0.1954	-0.3715	-0.2256	-0.2284	0.7649	0.011	0.4485	0.1403	0.1871
0.3439	0.6274	0.4458	0.5035	0.5641	0.8392	0.4678	0.3962	0.8117	0.509	0.1073	0.1816	0.2174	-0.3742	-0.2036	-0.2449	0.7567	0.055	0.3852	0.1981	0.1266
0.366	0.6136	0.3962	0.52	0.5503	0.8062	0.476	0.3577	0.7897	0.5145	0.1046	0.1899	0.2586	-0.355	-0.1376	-0.2559	0.7044	0.1128	0.3742	0.3027	0.0853
0.3715	0.6274	0.399	0.5531	0.5256	0.7484	0.4953	0.3384	0.787	0.5173	0.0963	0.1981	0.2834	-0.3247	-0.0963	-0.2614	0.6604	0.1678	0.3247	0.377	0.0385
0.3715	0.6301	0.3852	0.5723	0.4925	0.7154	0.5008	0.3274	0.7567	0.5173	0.0853	0.1871	0.2669	-0.2862	-0.0385	-0.2779	0.5833	0.1981	0.2614	0.476	-0.033
0.3715	0.6356	0.3825	0.5943	0.498	0.6769	0.509	0.3137	0.7237	0.5228	0.0688	0.1981	0.3329	-0.2339	0.0303	-0.3192	0.4843	0.2614	0.2229	0.5366	-0.1073
0.388	0.6164	0.3687	0.6164	0.4678	0.6246	0.5118	0.2642	0.6906	0.52	0.0605	0.1733	0.3247	-0.1816	0.0963	-0.3219	0.3715	0.3247	0.1568	0.6329	-0.1789
0.388	0.5916	0.3522	0.6549	0.4072	0.5778	0.5118	0.2504	0.6549	0.5035	0.033	0.1789	0.3632	-0.1128	0.1266	-0.3605	0.2394	0.3852	0.0798	0.7127	-0.2779
0.399	0.6081	0.3687	0.6741	0.41	0.5531	0.5008	0.2284	0.6521	0.5421	0.0275	0.2091	0.399	-0.0358	0.2174	-0.3467	0.0908	0.4568	0.011	0.8007	-0.3439
0.3852	0.5696	0.3577	0.6439	0.3632	0.4925	0.4925	0.1899	0.5998	0.5283	-0.0055	0.1678	0.421	0.0303	0.2449	-0.3797	-0.055	0.5118	-0.0825	0.864	-0.4458
0.377	0.5586	0.3495	0.6521	0.3412	0.4623	0.5063	0.1568	0.5696	0.5503	-0.0138	0.2064	0.4595	0.1046	0.3054	-0.3797	-0.2256	0.5806	-0.1486	0.9438	-0.5228
0.3825	0.5173	0.3632	0.6741	0.3495	0.4458	0.5008	0.1513	0.5613	0.5641	-0.0248	0.2119	0.52	0.2174	0.355	-0.3742	-0.399	0.6796	-0.2366	1.0346	-0.6164
0.4045	0.5063	0.3715	0.6851	0.3082	0.432	0.5035	0.1266	0.5421	0.5641	-0.0413	0.2174	0.5696	0.2999	0.366	-0.377	-0.5888	0.7484	-0.3439	1.1281	-0.6851
0.4265	0.4595	0.3907	0.6989	0.2834	0.3797	0.5063	0.1046	0.4898	0.5833	-0.055	0.2091	0.5943	0.4072	0.3907	-0.3302	-0.7759	0.8255	-0.4017	1.1804	-0.7897
0.4072	0.4403	0.4017	0.6851	0.2642	0.3357	0.5035	0.1101	0.4925	0.5916	-0.0633	0.2449	0.6439	0.5035	0.421	-0.2889	-0.9823	0.8943	-0.4898	1.2492	-0.8557
0.41	0.377	0.3962	0.6631	0.2174	0.3164	0.476	0.0798	0.454	0.6053	-0.0715	0.2366	0.6962	0.6053	0.421	-0.2531	-1.1832	0.9603	-0.6026	1.3153	-0.941
0.4155	0.3495	0.4182	0.6631	0.2064	0.3027	0.4815	0.0743	0.4182	0.5998	-0.0743	0.2531	0.7319	0.7072	0.4513	-0.2119	-1.3923	1.0456	-0.6879	1.3675	-0.9906
0.4017	0.2944	0.4017	0.6301	0.1761	0.2614	0.4898	0.0468	0.41	0.6329	-0.0715	0.2697	0.7815	0.809	0.465	-0.1348	-1.6042	1.1199	-0.7594	1.4418	-1.0511
0.41	0.2449	0.399	0.6274	0.1596	0.2311	0.4925	0.0385	0.3687	0.6329	-0.0853	0.2779	0.8117	0.908	0.4925	-0.0715	-1.783	1.1832	-0.842	1.4831	-1.1034
0.4237	0.1871	0.4182	0.6136	0.1321	0.2201	0.5063	0.0275	0.355	0.6631	-0.0908	0.3164	0.8723	0.9988	0.5256	0.0303	-1.9756	1.274	-0.9328	1.5409	-1.1612
0.4375	0.1403	0.4265	0.6164	0.1156	0.2284	0.5118	0.0028	0.3302	0.6659	-0.0578	0.3357	0.9273	1.0896	0.5531	0.1266	-2.1517	1.3263	-0.9658	1.5794	-1.1832
0.4292	0.0605	0.4237	0.6026	0.0908	0.2091	0.5228	0.0083	0.2889	0.6741	-0.0715	0.3522	0.9603	1.1584	0.5696	0.2201	-2.2948	1.3593	-1.0456	1.6069	-1.2327
0.421	0	0.4292	0.5861	0.0495	0.1926	0.4898	0.0028	0.2586	0.6769	-0.0633	0.3742	0.9713	1.2272	0.6136	0.3164	-2.4269	1.4226	-1.1006	1.6069	-1.241
0.4155	-0.0578	0.41	0.5668	0.0275	0.1486	0.4788	-0.022	0.2421	0.6989	-0.0468	0.4017	1.0071	1.2767	0.6741	0.41	-2.526	1.4501	-1.1226	1.6179	-1.2657
0.41	-0.1431	0.3852	0.5421	-0.0165	0.1293	0.4705	-0.0303	0.2064	0.6851	-0.0578	0.41	1.0263	1.3153	0.6714	0.5008	-2.5975	1.4776	-1.1749	1.6234	-1.274
0.3742	-0.1761	0.366	0.5008	-0.0413	0.1128	0.4733	-0.044	0.1789	0.6906	-0.0193	0.432	1.0318	1.3565	0.7319	0.6053	-2.6855	1.5024	-1.1859	1.6262	-1.2575
0.3192	-0.2669	0.3082	0.4568	-0.0715	0.0743	0.443	-0.044	0.1403	0.6906	-0.033	0.4485	1.0456	1.3785	0.7347	0.6576	-2.7076	1.5079	-1.2162	1.6179	-1.2602
0.3109	-0.3439	0.2724	0.4403	-0.1238	0.044	0.4265	-0.0578	0.1018	0.6631	0.0138	0.454	1.0346	1.3868	0.7209	0.7099	-2.7323	1.4996	-1.2245	1.5794	-1.2437
0.2421	-0.3907	0.2394	0.4017	-0.1568	0.0028	0.421	-0.0633	0.0633	0.6686	0.033	0.4513	1.0181	1.3758	0.7429	0.7787	-2.7323	1.4721	-1.2355	1.5491	-1.2107
0.1926	-0.476	0.1761	0.3577	-0.1844	-0.044	0.355	-0.0881	0.0248	0.6191	0.0523	0.4458	0.9961	1.3813	0.7374	0.8145	-2.7186	1.4748	-1.2327	1.5161	-1.1859
0.1403	-0.5448	0.1101	0.3054	-0.2339	-0.1018	0.3082	-0.0991	-0.0275	0.5916	0.066	0.4403	0.9686	1.3593	0.7182	0.8392	-2.68	1.4226	-1.2272	1.4363	-1.1392
0.0798	-0.5916	0.0605	0.2586	-0.2531	-0.1211	0.2669	-0.0881	-0.0523	0.5833	0.077	0.454	0.9273	1.34	0.7182	0.8723	-2.6388	1.3785	-1.2107	1.3923	-1.0979
0.0165	-0.6439	-0.0055	0.1816	-0.2889	-0.1871	0.2146	-0.1238	-0.1293	0.5008	0.077	0.421	0.8833	1.2987	0.6769	0.897	-2.559	1.2877	-1.1859	1.3125	-1.0566
-0.0495	-0.6962	-0.0798	0.1596	-0.3027	-0.2256	0.1816	-0.1101	-0.1789	0.4843	0.1156	0.399	0.8227	1.2767	0.6714	0.8998	-2.5122	1.2795	-1.1364	1.2575	-0.9878
-0.0825	-0.7237	-0.1376	0.1101	-0.3274	-0.2669	0.1431	-0.0853	-0.2064	0.4595	0.1513	0.399	0.8062	1.241	0.6356	0.9053	-2.4352	1.2052	-1.0814	1.1887	-0.9273
-0.1568	-0.7677	-0.2339	0.0881	-0.3329	-0.2972	0.1156	-0.0853	-0.2421	0.421	0.1981	0.377	0.7704	1.1832	0.6411	0.8915	-2.3416	1.1392	-1.0429	1.1199	-0.8392
-0.1981	-0.787	-0.2779	0.022	-0.3054	-0.3247	0.066	-0.066	-0.2586	0.3852	0.2119	0.377	0.7044	1.1392	0.6136	0.8943	-2.226	1.0621	-0.9713	1.0456	-0.7704
-0.2394	-0.7539	-0.2999	0.0275	-0.2889	-0.3384	0.0688	-0.0165	-0.2889	0.3495	0.2394	0.377	0.6769	1.0786	0.6439	0.8943	-2.127	0.9988	-0.886	0.9713	-0.6659
-0.3027	-0.7567	-0.3907	-0.011	-0.2642	-0.3742	0.022	0.0193	-0.3302	0.2972	0.2972	0.366	0.6053	1.0071	0.6329	0.8998	-1.9811	0.93	-0.7925	0.864	-0.5833
-0.3522	-0.7429	-0.4155	-0.044	-0.2394	-0.3742	0.011	0.0578	-0.3357	0.2504	0.3247	0.3467	0.5338	0.9218	0.6136	0.886	-1.8105	0.8475	-0.7154	0.7759	-0.5035
-0.3632	-0.7127	-0.465	-0.077	-0.2009	-0.388	-0.0138	0.1073	-0.3495	0.2064	0.3522	0.3412	0.4898	0.8365	0.5998	0.8695	-1.6317	0.7594	-0.6411	0.6879	-0.432
-0.3962	-0.6851	-0.4788	-0.1018	-0.1706	-0.421	-0.0275	0.1403	-0.388	0.1623	0.388	0.3082	0.4237	0.7374	0.5806	0.8585	-1.4446	0.6521	-0.5668	0.6053	-0.355
-0.454	-0.6549	-0.498	-0.1348	-0.1348	-0.432	-0.066	0.1981	-0.4237	0.1211	0.4155	0.3137	0.388	0.6356	0.5421	0.831	-1.2355	0.5668	-0.4705	0.5008	-0.2449
-0.4403	-0.6219	-0.4953	-0.1348	-0.0936	-0.465	-0.0881	0.2229	-0.4458	0.055	0.4375	0.2697	0.2917	0.5228	0.52	0.787	-1.0346	0.4595	-0.3852	0.377	-0.1926
-0.4788	-0.5613	-0.4898	-0.1623	-0.0303	-0.465	-0.1073	0.2504	-0.4458	0.011	0.4458	0.2531	0.2119	0.4155	0.4623	0.7649	-0.8117	0.3577	-0.2972	0.2559	-0.1073
-0.4733	-0.5283	-0.509	-0.1623	0	-0.5035	-0.1541	0.2889	-0.4788	-0.0523	0.4513	0.2036	0.1293	0.3054	0.4182	0.7484	-0.5888	0.2586	-0.2146	0.1403	-0.033
-0.4898	-0.5035	-0.52	-0.1981	0.0083	-0.5283	-0.1954	0.3109	-0.5008	-0.1458	0.4375	0.1844	0.0248	0.1926	0.3797	0.6934	-0.355	0.1128	-0.1403	-0.0083	0.0468
-0.4925	-0.432	-0.4815	-0.2119	0.0385	-0.5366	-0.2229	0.3384	-0.5448	-0.1981	0.432	0.1376	-0.0523	0.077	0.3357	0.6576	-0.1486	-0.0028	-0.0523	-0.1321	0.0991
-0.487	-0.4045	-0.4733	-0.2394	0.0605	-0.5558	-0.2752	0.3439	-0.5668	-0.2421	0.4348	0.1101	-0.1513	-0.0303	0.2697	0.5861	0.0715	-0.1376	0.0468	-0.2614	0.1733
-0.476	-0.366	-0.4568	-0.2449	0.1018	-0.5888	-0.3164	0.3439	-0.5751	-0.3274	0.4237	0.0578	-0.2476	-0.1513	0.2036	0.5476	0.2972	-0.2476	0.077	-0.388	0.2174
-0.4678	-0.3247	-0.4155	-0.2724	0.1046	-0.5971	-0.3605	0.3384	-0.5943	-0.3962	0.3962	-0.0028	-0.3357	-0.2476	0.1431	0.487	0.509	-0.377	0.1568	-0.5228	0.2889
-0.4568	-0.3164	-0.3825	-0.2944	0.0963	-0.6053	-0.3962	0.3467	-0.6301	-0.4485	0.399	-0.0413	-0.432	-0.3439	0.0908	0.4568	0.7072	-0.4623	0.2174	-0.6246	0.3384
-0.432	-0.3054	-0.3495	-0.3274	0.1321	-0.6109	-0.4348	0.3412	-0.6356	-0.5118	0.3797	-0.0688	-0.4925	-0.4458	0.0083	0.3907	0.9025	-0.5861	0.2999	-0.7539	0.3935
-0.4155	-0.2972	-0.3219	-0.3412	0.1211	-0.6026	-0.4898	0.3054	-0.6851	-0.5998	0.3412	-0.1211	-0.5998	-0.5558	-0.0358	0.366	1.1006	-0.6934	0.3329	-0.8943	0.4155
-0.366	-0.2559	-0.2614	-0.3632	0.1596	-0.5998	-0.509	0.3109	-0.6741	-0.6384	0.3274	-0.1541	-0.6494	-0.6356	-0.0578	0.3274	1.2795	-0.787	0.41	-0.9768	0.4705
-0.3495	-0.2366	-0.2146	-0.3742	0.1183	-0.5998	-0.5586	0.2862	-0.6714	-0.7017	0.2752	-0.1981	-0.7374	-0.7292	-0.0908	0.3054	1.4666	-0.8778	0.4265	-1.0951	0.509
-0.3274	-0.2366	-0.1678	-0.41	0.1183	-0.5778	-0.5971	0.2586	-0.6631	-0.7429	0.2614	-0.2366	-0.8365	-0.8282	-0.1486	0.2697	1.651	-0.9548	0.498	-1.219	0.5476
-0.2834	-0.2174	-0.1211	-0.4127	0.1211	-0.5366	-0.6384	0.2119	-0.6989	-0.7952	0.2064	-0.2944	-0.8943	-0.9053	-0.1486	0.2834	1.8215	-1.0236	0.5531	-1.2932	0.5696
-0.2669	-0.2064	-0.055	-0.4292	0.1238	-0.5311	-0.6576	0.1954	-0.7237	-0.864	0.1816	-0.3164	-0.941	-1.0071	-0.1899	0.2752	2.0032	-1.1034	0.5833	-1.3758	0.6136
-0.2091	-0.1981	0.0275	-0.4375	0.1046	-0.498	-0.6851	0.1871	-0.6796	-0.9025	0.1513	-0.3219	-0.9906	-1.0896	-0.1926	0.2834	2.1738	-1.1694	0.6301	-1.4501	0.6631
-0.1623	-0.1706	0.0908	-0.4513	0.0853	-0.4733	-0.7044	0.1376	-0.7154	-0.9383	0.1046	-0.3577	-1.0566	-1.1777	-0.1871	0.2889	2.3471	-1.2134	0.6576	-1.5354	0.6962
-0.1238	-0.1596	0.1623	-0.454	0.0908	-0.4348	-0.7319	0.1046	-0.7127	-0.9988	0.0578	-0.399	-1.1116	-1.2602	-0.2009	0.3027	2.5149	-1.2712	0.6934	-1.5932	0.7402
-0.0825	-0.1403	0.2449	-0.4348	0.066	-0.3907	-0.7677	0.0881	-0.6934	-1.0429	0.0165	-0.4375	-1.1722	-1.329	-0.1981	0.3522	2.6745	-1.318	0.7182	-1.662	0.7539
-0.0385	-0.1348	0.2834	-0.4595	0.0853	-0.3247	-0.787	0.0715	-0.6714	-1.0676	0	-0.4292	-1.1997	-1.4171	-0.1844	0.388	2.8259	-1.3758	0.7649	-1.7225	0.82
-0.011	-0.1458	0.3495	-0.476	0.0385	-0.3192	-0.8282	-0.0083	-0.7017	-1.1364	-0.0578	-0.487	-1.2657	-1.4941	-0.1899	0.4072	2.98	-1.4391	0.7897	-1.783	0.8475
0.022	-0.0991	0.4017	-0.4925	0.0495	-0.2339	-0.8585	-0.0165	-0.6879	-1.1639	-0.0853	-0.4925	-1.2932	-1.5574	-0.1844	0.4678	3.1093	-1.4693	0.8145	-1.8436	0.8695
0.055	-0.0908	0.4788	-0.4705	0.0165	-0.1678	-0.8695	-0.0578	-0.6631	-1.1942	-0.1211	-0.509	-1.34	-1.6042	-0.1733	0.5228	3.2028	-1.5134	0.8392	-1.8821	0.897
0.0963	-0.0881	0.52	-0.4843	0.0083	-0.1211	-0.908	-0.0936	-0.6494	-1.2465	-0.1486	-0.5393	-1.3868	-1.662	-0.2064	0.5558	3.3129	-1.5629	0.8695	-1.9151	0.9218
0.1293	-0.0578	0.5696	-0.4953	0.0028	-0.044	-0.9108	-0.1073	-0.6081	-1.2767	-0.1954	-0.5668	-1.4116	-1.6922	-0.2119	0.5806	3.3955	-1.5959	0.908	-1.9399	0.9273
0.1733	-0.055	0.6356	-0.487	-0.0303	0.0248	-0.9576	-0.1513	-0.5833	-1.3125	-0.2256	-0.5696	-1.4226	-1.717	-0.2614	0.5888	3.456	-1.5987	0.919	-1.9371	0.9576
0.2091	-0.0413	0.6466	-0.5008	-0.0468	0.0578	-0.9658	-0.1871	-0.5833	-1.3565	-0.2779	-0.6026	-1.4666	-1.7583	-0.2862	0.6053	3.5165	-1.6399	0.908	-1.9591	0.9218
0.2036	-0.0358	0.7017	-0.509	-0.0688	0.1266	-0.9933	-0.2146	-0.5421	-1.3868	-0.3164	-0.6026	-1.4804	-1.7858	-0.3247	0.6191	3.5468	-1.6454	0.9218	-1.9894	0.9465
0.2174	-0.044	0.7099	-0.5118	-0.0853	0.2009	-1.0126	-0.2366	-0.5145	-1.384	-0.3302	-0.6191	-1.4666	-1.7638	-0.3797	0.5696	3.5358	-1.651	0.9328	-1.9811	0.9603
0.2394	-0.055	0.7429	-0.5145	-0.1183	0.2889	-1.0236	-0.2669	-0.4788	-1.4006	-0.3495	-0.6219	-1.4831	-1.7528	-0.4072	0.5586	3.5083	-1.6399	0.919	-1.9674	0.9548
0.2256	-0.0468	0.787	-0.5228	-0.1623	0.3137	-1.0291	-0.3109	-0.4678	-1.4446	-0.4017	-0.6439	-1.5051	-1.728	-0.4458	0.5228	3.456	-1.6289	0.8998	-1.9426	0.9328
0.2146	-0.0633	0.7567	-0.5558	-0.2119	0.355	-1.0649	-0.3467	-0.4568	-1.4363	-0.4513	-0.6439	-1.4941	-1.6895	-0.4898	0.4815	3.3679	-1.6179	0.8805	-1.9426	0.9245
0.2036	-0.0853	0.7649	-0.5806	-0.2256	0.399	-1.0759	-0.3797	-0.4513	-1.4281	-0.5063	-0.6686	-1.4969	-1.6372	-0.5476	0.4348	3.2661	-1.5959	0.8557	-1.9096	0.875
0.2064	-0.0881	0.7759	-0.5668	-0.2779	0.4292	-1.0786	-0.4348	-0.4045	-1.4088	-0.5586	-0.6741	-1.4748	-1.5629	-0.5778	0.4182	3.1423	-1.5574	0.7759	-1.8408	0.8282
0.1789	-0.1321	0.7842	-0.5696	-0.355	0.4678	-1.1034	-0.487	-0.3962	-1.4006	-0.5943	-0.6851	-1.4638	-1.5079	-0.6494	0.3687	3.0212	-1.5354	0.7429	-1.8105	0.7759
0.1954	-0.1348	0.7787	-0.5998	-0.3907	0.4843	-1.1034	-0.5256	-0.4045	-1.4088	-0.6274	-0.7072	-1.4776	-1.4391	-0.6796	0.3329	2.8809	-1.4859	0.7044	-1.772	0.7182
0.1706	-0.1816	0.7402	-0.6274	-0.4705	0.476	-1.1364	-0.5696	-0.41	-1.3813	-0.7099	-0.7237	-1.4748	-1.3703	-0.7182	0.3384	2.7378	-1.4748	0.6494	-1.7197	0.6576
0.1761	-0.2174	0.7182	-0.6053	-0.5118	0.5118	-1.1337	-0.6219	-0.4072	-1.3785	-0.7402	-0.7264	-1.4611	-1.2932	-0.7264	0.3164	2.5727	-1.4281	0.5916	-1.6592	0.6136
0.1706	-0.2449	0.6824	-0.6191	-0.5531	0.498	-1.1199	-0.6741	-0.4127	-1.3373	-0.8145	-0.7842	-1.4198	-1.2024	-0.7237	0.3164	2.3994	-1.3758	0.5503	-1.6152	0.5366
0.1623	-0.2972	0.6521	-0.6384	-0.6466	0.4788	-1.1447	-0.7622	-0.4403	-1.3455	-0.8723	-0.82	-1.4226	-1.1171	-0.7237	0.3467	2.2233	-1.3565	0.4925	-1.5657	0.4733
0.1651	-0.3412	0.6246	-0.6384	-0.7127	0.454	-1.1337	-0.82	-0.465	-1.3125	-0.9493	-0.842	-1.3978	-1.0071	-0.7264	0.377	2.0059	-1.34	0.41	-1.5051	0.399
0.1293	-0.3742	0.5751	-0.6246	-0.7402	0.4513	-1.1034	-0.842	-0.4485	-1.23	-0.9906	-0.8557	-1.3538	-0.9025	-0.7044	0.4265	1.7968	-1.2822	0.3577	-1.4391	0.3384
0.1238	-0.4265	0.5145	-0.6384	-0.7952	0.388	-1.1034	-0.8778	-0.4815	-1.2107	-1.0318	-0.8915	-1.3373	-0.8062	-0.6686	0.454	1.5904	-1.263	0.2944	-1.3923	0.2779
0.0798	-0.4733	0.4568	-0.6466	-0.8502	0.3577	-1.0704	-0.9438	-0.52	-1.1777	-1.1171	-0.919	-1.3098	-0.6934	-0.6411	0.498	1.3951	-1.23	0.2174	-1.3345	0.2064
0.0936	-0.5118	0.3962	-0.6329	-0.919	0.3274	-1.0181	-0.9741	-0.5145	-1.1199	-1.1337	-0.8943	-1.2575	-0.5943	-0.5888	0.5476	1.2052	-1.1722	0.1651	-1.2657	0.1348
0.066	-0.5366	0.3357	-0.6274	-0.9631	0.2862	-0.9906	-1.0098	-0.5531	-1.0704	-1.1639	-0.9108	-1.2272	-0.5145	-0.5421	0.5971	1.0153	-1.1364	0.1238	-1.2052	0.0908
0.0358	-0.5723	0.2724	-0.5998	-1.0153	0.2559	-0.941	-1.0153	-0.5558	-0.9988	-1.1942	-0.9053	-1.1749	-0.4182	-0.509	0.6576	0.8392	-1.0979	0.0495	-1.1364	0.033
0.0495	-0.5971	0.2146	-0.5751	-1.0456	0.2146	-0.8667	-1.0401	-0.5558	-0.9108	-1.2107	-0.8888	-1.1144	-0.3302	-0.4568	0.7209	0.6741	-1.0484	-0.0028	-1.0621	-0.0275
0.0165	-0.5971	0.1678	-0.5421	-1.0511	0.1926	-0.8117	-1.0621	-0.5806	-0.831	-1.219	-0.8998	-1.0594	-0.2614	-0.3962	0.798	0.5366	-1.0181	-0.0523	-1.0071	-0.0908
0.044	-0.6081	0.1238	-0.509	-1.0704	0.1623	-0.7567	-1.0731	-0.5723	-0.7594	-1.2217	-0.8612	-0.9686	-0.1816	-0.2889	0.897	0.3852	-0.9658	-0.0936	-0.9163	-0.1403
0.0578	-0.6109	0.0963	-0.4623	-1.0814	0.1486	-0.6769	-1.0869	-0.5806	-0.6686	-1.2245	-0.8723	-0.9135	-0.1293	-0.1789	0.9851	0.2752	-0.952	-0.1431	-0.853	-0.1789
0.0715	-0.6026	0.077	-0.4017	-1.0786	0.1348	-0.5613	-1.0346	-0.5283	-0.5668	-1.1832	-0.8365	-0.8365	-0.0605	-0.044	1.1199	0.1568	-0.897	-0.1706	-0.7952	-0.2559
0.1266	-0.5943	0.0385	-0.3439	-1.0704	0.1128	-0.5228	-1.0291	-0.5531	-0.476	-1.1749	-0.8365	-0.7787	-0.033	0.0743	1.2465	0.0633	-0.8778	-0.2256	-0.7402	-0.2999
0.1678	-0.5696	0.044	-0.2834	-1.0484	0.1156	-0.4045	-1.0098	-0.5118	-0.377	-1.1777	-0.8035	-0.6879	0.0193	0.2201	1.3675	-0.022	-0.853	-0.2669	-0.6576	-0.3467
0.1871	-0.5586	0.0248	-0.2394	-1.0594	0.0908	-0.3274	-1.0098	-0.5118	-0.2999	-1.1584	-0.8117	-0.6329	0.0413	0.3439	1.4831	-0.0715	-0.8392	-0.3219	-0.6301	-0.4127
0.2449	-0.5311	0.0193	-0.1844	-1.0373	0.0798	-0.2504	-1.0043	-0.52	-0.2119	-1.1447	-0.7952	-0.5806	0.066	0.4678	1.6069	-0.1238	-0.8255	-0.3797	-0.5806	-0.4788
0.2999	-0.5035	0.0028	-0.1211	-1.0291	0.1046	-0.1733	-0.9768	-0.5008	-0.1651	-1.1281	-0.7732	-0.5338	0.0963	0.5916	1.739	-0.1816	-0.798	-0.4155	-0.5448	-0.5118
0.3439	-0.476	0.0193	-0.0523	-1.0236	0.1101	-0.0798	-0.9493	-0.5063	-0.0633	-1.0951	-0.7759	-0.4568	0.1018	0.7182	1.8381	-0.2064	-0.787	-0.443	-0.487	-0.5558
0.4127	-0.443	0.0385	0.0028	-0.9548	0.1348	0	-0.9108	-0.4705	0.0165	-1.0869	-0.7759	-0.3935	0.1183	0.8557	1.9536	-0.2311	-0.787	-0.4788	-0.4568	-0.5916
0.4678	-0.3852	0.0688	0.077	-0.9245	0.1321	0.0605	-0.886	-0.4265	0.0743	-1.0511	-0.7649	-0.3412	0.1348	0.9713	2.0995	-0.2586	-0.7732	-0.4843	-0.4017	-0.6246
0.4843	-0.377	0.0715	0.1238	-0.8667	0.1431	0.1348	-0.831	-0.4072	0.1431	-1.0098	-0.7484	-0.2834	0.1266	1.0814	2.1903	-0.2559	-0.7594	-0.5008	-0.3742	-0.6274
0.5476	-0.3274	0.0908	0.1926	-0.8227	0.1844	0.2091	-0.7842	-0.3715	0.2146	-0.9631	-0.7374	-0.2311	0.1211	1.2162	2.2866	-0.2284	-0.7264	-0.4815	-0.3329	-0.6301
0.5696	-0.2889	0.1101	0.2366	-0.787	0.2036	0.2642	-0.7484	-0.3384	0.2669	-0.9245	-0.6962	-0.1926	0.1101	1.2877	2.3554	-0.1926	-0.7292	-0.4788	-0.2917	-0.6274
0.5971	-0.2586	0.1018	0.2834	-0.7347	0.2311	0.3192	-0.6796	-0.3054	0.2999	-0.8833	-0.6549	-0.1431	0.0908	1.3483	2.4434	-0.1568	-0.7347	-0.4403	-0.2752	-0.5888
0.5916	-0.2146	0.1321	0.3137	-0.6659	0.2697	0.377	-0.6219	-0.2449	0.3605	-0.7925	-0.6274	-0.0715	0.066	1.4143	2.4957	-0.1128	-0.6934	-0.3797	-0.2504	-0.5531
0.6439	-0.1761	0.1486	0.3687	-0.5723	0.2807	0.4237	-0.5338	-0.1954	0.432	-0.7099	-0.5558	-0.0413	0.0385	1.4804	2.548	-0.0495	-0.6769	-0.3302	-0.2009	-0.4843
0.6466	-0.1403	0.1376	0.421	-0.5035	0.3439	0.4815	-0.4458	-0.1321	0.4788	-0.6081	-0.476	0.033	0.0055	1.5106	2.5865	0.0028	-0.6411	-0.2724	-0.1733	-0.4348
0.6824	-0.1018	0.1486	0.4623	-0.4348	0.3797	0.5145	-0.3715	-0.0468	0.5311	-0.5063	-0.421	0.0825	-0.0358	1.5381	2.6223	0.0798	-0.6631	-0.2201	-0.1431	-0.3687
0.6989	-0.0523	0.1651	0.5393	-0.3247	0.4237	0.5833	-0.2807	0.0523	0.5916	-0.4237	-0.3192	0.1596	-0.0633	1.5877	2.6773	0.1403	-0.6219	-0.1403	-0.1018	-0.2999
0.7044	-0.0193	0.1541	0.5586	-0.2366	0.432	0.5971	-0.1981	0.0991	0.6164	-0.3467	-0.2614	0.1761	-0.0963	1.6152	2.7076	0.2119	-0.6053	-0.0633	-0.0715	-0.2201
0.6989	0.0248	0.1871	0.6164	-0.1789	0.4568	0.6301	-0.1101	0.1761	0.6604	-0.2366	-0.1926	0.2146	-0.1321	1.6344	2.7021	0.2807	-0.5696	0.0055	-0.0633	-0.1541
0.7319	0.066	0.1789	0.6686	-0.0798	0.498	0.6604	-0.0165	0.2174	0.6989	-0.1541	-0.1128	0.2449	-0.1568	1.6785	2.7653	0.3164	-0.5558	0.0936	-0.0358	-0.0743
0.7374	0.0798	0.1431	0.6879	-0.0275	0.5063	0.6714	0.033	0.2752	0.7044	-0.0963	-0.0825	0.2697	-0.1816	1.6262	2.7488	0.3852	-0.5503	0.1403	-0.0413	-0.0193
0.7237	0.066	0.1403	0.6879	0.0028	0.4815	0.6439	0.077	0.2752	0.6934	-0.0468	-0.0688	0.2559	-0.2146	1.6262	2.7433	0.4265	-0.5283	0.1954	-0.0468	0.0468
0.7484	0.0825	0.1293	0.7264	0.0495	0.498	0.6521	0.1348	0.3054	0.7209	0.0083	-0.022	0.2697	-0.2064	1.6289	2.7543	0.421	-0.4953	0.2366	-0.022	0.0963
0.7099	0.077	0.0715	0.7374	0.0688	0.4898	0.6026	0.1431	0.2917	0.6906	0.022	-0.0358	0.2449	-0.2174	1.5904	2.7378	0.4485	-0.5008	0.2642	-0.0248	0.1183
0.7484	0.0825	0.0743	0.7815	0.1073	0.4513	0.5888	0.1954	0.2944	0.6769	0.0413	-0.0413	0.2256	-0.2201	1.5849	2.7791	0.4375	-0.4513	0.3027	0.0083	0.1568
0.7292	0.0963	0.0468	0.7677	0.1321	0.4403	0.5531	0.2119	0.2917	0.6439	0.0523	-0.011	0.2009	-0.2091	1.5739	2.7571	0.4403	-0.443	0.3247	0.0083	0.1706
0.7072	0.0688	0.0028	0.787	0.1541	0.3962	0.4898	0.2064	0.2642	0.5943	0.055	-0.033	0.1541	-0.2091	1.5657	2.7461	0.4513	-0.4485	0.3082	0.0193	0.1981
0.7292	0.0991	-0.0193	0.809	0.1678	0.3715	0.4485	0.2229	0.2476	0.5723	0.0605	-0.0413	0.1183	-0.2366	1.5244	2.7378	0.4623	-0.4403	0.3467	0.0138	0.2201
0.7182	0.1211	-0.0385	0.8007	0.2146	0.355	0.3742	0.2586	0.2119	0.5118	0.0605	-0.0578	0.0743	-0.2256	1.4859	2.6966	0.4705	-0.421	0.3412	0.0165	0.2201
0.7017	0.1156	-0.0936	0.7787	0.2559	0.3054	0.3027	0.2669	0.1541	0.4513	0.055	-0.0798	0.0165	-0.2311	1.4583	2.6718	0.487	-0.4155	0.3577	-0.0083	0.2366
0.6851	0.1101	-0.0853	0.7704	0.2586	0.2807	0.2586	0.2862	0.1321	0.3907	0.0605	-0.1046	-0.033	-0.2421	1.4226	2.6388	0.5008	-0.3935	0.3715	-0.0248	0.2752
0.6686	0.1073	-0.1376	0.7649	0.2779	0.2339	0.1431	0.2972	0.0578	0.3192	0.0633	-0.1596	-0.0936	-0.2531	1.3923	2.5837	0.5283	-0.3852	0.3962	-0.033	0.3027
0.6521	0.0991	-0.1678	0.7347	0.3054	0.1596	0.0633	0.3164	0.0083	0.2449	0.0605	-0.2036	-0.1623	-0.2642	1.3675	2.5507	0.5421	-0.4017	0.4045	-0.0605	0.3137
0.6631	0.0991	-0.2146	0.7072	0.3082	0.1348	-0.0385	0.3219	-0.0688	0.1238	0.0605	-0.2724	-0.2339	-0.2807	1.3263	2.5232	0.5641	-0.399	0.4237	-0.0991	0.3302
0.6356	0.0715	-0.2339	0.6576	0.2779	0.0715	-0.1596	0.3164	-0.1733	0.0275	0.0165	-0.3825	-0.3384	-0.2889	1.3098	2.4764	0.5971	-0.4292	0.4237	-0.1789	0.3495
0.5998	0.0825	-0.2614	0.6053	0.2752	0.011	-0.2366	0.2944	-0.2614	-0.1128	-0.0055	-0.4788	-0.4513	-0.2972	1.2877	2.4572	0.6329	-0.4265	0.4292	-0.2036	0.3412
0.5861	0.0853	-0.2972	0.5448	0.2752	-0.066	-0.355	0.2944	-0.3907	-0.2146	-0.0358	-0.6329	-0.5448	-0.3109	1.2905	2.4737	0.6576	-0.4485	0.4292	-0.2614	0.355
0.5833	0.0908	-0.3027	0.4898	0.2504	-0.1293	-0.465	0.2614	-0.5228	-0.3605	-0.0853	-0.7842	-0.6576	-0.3357	1.285	2.4709	0.6879	-0.4815	0.4458	-0.3357	0.3495
0.5696	0.0798	-0.3329	0.421	0.2311	-0.2009	-0.5916	0.2394	-0.6439	-0.4953	-0.1431	-0.952	-0.798	-0.3605	1.285	2.4682	0.7154	-0.5283	0.4595	-0.3797	0.3302
0.5641	0.0633	-0.3742	0.3522	0.1899	-0.2779	-0.7044	0.1899	-0.7925	-0.6576	-0.2504	-1.1447	-0.9245	-0.377	1.285	2.4737	0.7732	-0.5641	0.454	-0.4403	0.3329
0.5613	0.044	-0.3852	0.2669	0.1348	-0.3852	-0.8282	0.1211	-0.9631	-0.8145	-0.3329	-1.34	-1.0704	-0.4017	1.296	2.4489	0.8255	-0.6164	0.4623	-0.5118	0.3302
0.5531	0.0303	-0.3907	0.2146	0.0936	-0.4678	-0.9273	0.0578	-1.1199	-0.9713	-0.454	-1.5381	-1.2217	-0.4182	1.3263	2.4434	0.8723	-0.6521	0.4458	-0.6026	0.2889
0.5228	0.0413	-0.4155	0.1183	0.0468	-0.5476	-1.0511	0.0028	-1.2767	-1.1254	-0.5421	-1.7445	-1.4088	-0.465	1.3125	2.4654	0.93	-0.7429	0.4485	-0.6796	0.2476
0.4925	0.0055	-0.4623	0.0055	-0.0165	-0.6741	-1.1997	-0.077	-1.4473	-1.2905	-0.6466	-1.9509	-1.5409	-0.4733	1.3098	2.4269	0.9631	-0.8062	0.4403	-0.7567	0.2119
0.4733	0.0028	-0.4843	-0.0936	-0.077	-0.7484	-1.2905	-0.1321	-1.5849	-1.4308	-0.7264	-2.1215	-1.6757	-0.498	1.3015	2.3911	0.9961	-0.886	0.432	-0.8475	0.1954
0.432	-0.022	-0.5118	-0.1596	-0.1293	-0.8475	-1.4171	-0.1706	-1.7252	-1.5546	-0.8172	-2.2866	-1.794	-0.5118	1.2602	2.3444	1.0401	-0.9438	0.4182	-0.9245	0.1651
0.4155	-0.0303	-0.5448	-0.2339	-0.1733	-0.908	-1.4859	-0.2009	-1.8271	-1.651	-0.8337	-2.3829	-1.9013	-0.5118	1.2327	2.3003	1.0291	-1.0291	0.443	-1.0181	0.1541
0.3715	-0.0468	-0.5888	-0.3439	-0.2256	-0.9796	-1.5904	-0.2174	-1.9261	-1.7555	-0.8667	-2.4654	-1.9949	-0.5256	1.1529	2.2233	1.0649	-1.0896	0.4265	-1.0951	0.1321
0.3467	-0.055	-0.5916	-0.4045	-0.2449	-1.0373	-1.6565	-0.2229	-1.9866	-1.8215	-0.853	-2.4874	-2.0582	-0.5035	1.1337	2.215	1.0566	-1.1447	0.4155	-1.1557	0.1348
0.3137	-0.0798	-0.6356	-0.5063	-0.2724	-1.1171	-1.7363	-0.2174	-2.0499	-1.8986	-0.809	-2.4847	-2.1022	-0.5256	1.0318	2.1545	1.0704	-1.1832	0.4155	-1.2465	0.1128
0.2779	-0.0715	-0.6714	-0.5751	-0.2752	-1.1309	-1.8023	-0.1954	-2.0637	-1.9316	-0.7292	-2.4352	-2.1132	-0.5145	1.0043	2.0967	1.0401	-1.2217	0.4458	-1.2877	0.1293
0.2284	-0.0936	-0.7209	-0.6521	-0.2586	-1.1777	-1.8326	-0.1568	-2.0747	-1.9344	-0.6384	-2.3664	-2.1105	-0.509	0.9135	2.0279	1.0318	-1.252	0.454	-1.3593	0.1761
0.2146	-0.055	-0.7292	-0.7347	-0.2559	-1.2107	-1.8793	-0.0798	-2.0637	-1.9344	-0.487	-2.2343	-2.0802	-0.4898	0.8557	1.9784	0.9988	-1.263	0.5008	-1.3978	0.2201
0.1844	-0.0495	-0.7484	-0.7897	-0.2229	-1.2079	-1.8848	0.0165	-2.0142	-1.9344	-0.3082	-2.0885	-2.0307	-0.476	0.7815	1.9481	0.9741	-1.2382	0.5531	-1.4308	0.2972
0.1348	-0.033	-0.7842	-0.8392	-0.1899	-1.2245	-1.9096	0.0963	-1.9619	-1.8683	-0.1046	-1.9179	-1.9426	-0.4485	0.6906	1.8903	0.9273	-1.2465	0.6191	-1.4583	0.399
0.1156	-0.0055	-0.8035	-0.8915	-0.1238	-1.2024	-1.9124	0.2119	-1.8876	-1.7995	0.1183	-1.7335	-1.8436	-0.4348	0.6356	1.8518	0.8833	-1.2245	0.6796	-1.4693	0.4815
0.0963	0.0028	-0.8145	-0.9438	-0.0413	-1.2134	-1.9206	0.3357	-1.8133	-1.7445	0.3192	-1.5436	-1.739	-0.41	0.5723	1.7995	0.831	-1.2245	0.7402	-1.4886	0.5943
0.0468	0.033	-0.8365	-0.9988	-0.011	-1.1969	-1.9013	0.4595	-1.7363	-1.684	0.5696	-1.351	-1.6289	-0.3825	0.5063	1.7775	0.7787	-1.1859	0.8145	-1.5051	0.6962
0.0193	0.0523	-0.8502	-1.0236	0.0495	-1.1529	-1.8738	0.5778	-1.6097	-1.6097	0.82	-1.1089	-1.5244	-0.3632	0.4485	1.7197	0.7347	-1.1639	0.9135	-1.5244	0.809
-0.0578	0.066	-0.8723	-1.0704	0.1266	-1.1447	-1.8491	0.7154	-1.5106	-1.5299	1.0456	-0.908	-1.4143	-0.3357	0.3632	1.662	0.7072	-1.1474	0.9713	-1.5161	0.9053
-0.0578	0.0963	-0.8695	-1.0896	0.1981	-1.1034	-1.7885	0.864	-1.3785	-1.4226	1.3153	-0.6686	-1.285	-0.3219	0.3137	1.6069	0.6659	-1.1116	1.0814	-1.5326	1.0539
-0.1128	0.1238	-0.8805	-1.1144	0.2614	-1.0759	-1.7803	1.0071	-1.252	-1.3153	1.5381	-0.454	-1.1502	-0.3027	0.2614	1.5739	0.6384	-1.0814	1.1364	-1.5161	1.1749
-0.1513	0.1266	-0.8778	-1.1281	0.3164	-1.0511	-1.739	1.1226	-1.1529	-1.2272	1.7803	-0.2284	-1.0346	-0.2999	0.2064	1.5079	0.6109	-1.0456	1.2245	-1.5079	1.2905
-0.1623	0.1376	-0.8805	-1.1254	0.3962	-1.0043	-1.695	1.2437	-0.9961	-1.1281	2.0417	-0.011	-0.9053	-0.2807	0.1513	1.4446	0.5833	-1.0071	1.2932	-1.5024	1.4171
-0.2229	0.1568	-0.8833	-1.1281	0.4568	-0.9355	-1.6262	1.4006	-0.864	-1.0181	2.2948	0.2201	-0.7925	-0.2559	0.0908	1.3868	0.5421	-0.9741	1.4033	-1.4721	1.5491
-0.2586	0.1954	-0.8723	-1.1254	0.5503	-0.8833	-1.5657	1.5546	-0.6934	-0.875	2.5535	0.4788	-0.6136	-0.2394	0.0468	1.3235	0.5035	-0.9053	1.5189	-1.4391	1.7005
-0.2614	0.2036	-0.853	-1.1034	0.6246	-0.7925	-1.4886	1.7087	-0.5228	-0.7539	2.8369	0.7567	-0.4485	-0.2091	-0.0028	1.263	0.443	-0.8392	1.6014	-1.3896	1.8381
-0.2697	0.2174	-0.8172	-1.0924	0.7099	-0.7402	-1.4143	1.8683	-0.3522	-0.6136	3.1341	1.0401	-0.2807	-0.1981	-0.0468	1.1914	0.399	-0.7622	1.706	-1.3785	2.0169
-0.2999	0.2366	-0.8035	-1.0456	0.7649	-0.6439	-1.3565	2.0334	-0.1651	-0.4788	3.4285	1.3153	-0.1266	-0.1733	-0.1266	1.1144	0.3632	-0.6851	1.8023	-1.329	2.171
-0.3302	0.2752	-0.7842	-1.0373	0.8365	-0.5696	-1.252	2.171	0.022	-0.3357	3.7229	1.6124	0.077	-0.1541	-0.2036	1.0346	0.3302	-0.5861	1.9068	-1.2685	2.3388
-0.3384	0.2642	-0.7457	-1.0318	0.919	-0.5008	-1.1804	2.3306	0.2311	-0.2064	4.0421	1.9646	0.2614	-0.1403	-0.2752	0.9686	0.3054	-0.4953	2.0032	-1.219	2.5012
-0.3329	0.2779	-0.7099	-0.9906	0.9906	-0.3632	-1.1089	2.5012	0.454	-0.0495	4.3805	2.3058	0.487	-0.1348	-0.3439	0.9465	0.2779	-0.4045	2.1215	-1.1777	2.6911
-0.3687	0.2779	-0.6824	-0.9741	1.0511	-0.2834	-1.0291	2.636	0.6329	0.0936	4.6942	2.6278	0.7017	-0.1183	-0.41	0.831	0.2642	-0.2862	2.2095	-1.1116	2.8589
-0.3852	0.2586	-0.6851	-0.9658	1.1034	-0.2146	-0.9603	2.7626	0.8145	0.2311	5.0244	2.9525	0.908	-0.1293	-0.4843	0.7704	0.2724	-0.1981	2.2948	-1.0896	3.024
-0.4375	0.2449	-0.6659	-0.9576	1.1309	-0.1376	-0.9053	2.9112	1.0181	0.3715	5.3298	3.2799	1.1254	-0.1293	-0.5476	0.7127	0.2724	-0.0798	2.3664	-1.0373	3.1808
-0.4568	0.2504	-0.6439	-0.941	1.1667	-0.0495	-0.831	3.0515	1.2217	0.5228	5.6407	3.6046	1.3703	-0.1266	-0.6219	0.6659	0.2559	0.033	2.4324	-0.9796	3.3844
-0.5145	0.1816	-0.6824	-0.9851	1.1694	-0.0055	-0.798	3.1588	1.373	0.6246	5.9434	3.91	1.5712	-0.1541	-0.6962	0.5723	0.2972	0.1376	2.526	-0.9741	3.5523
-0.5861	0.1596	-0.7099	-1.0043	1.1859	0.0633	-0.7649	3.2661	1.5354	0.7512	6.2103	4.2209	1.783	-0.1596	-0.7457	0.5145	0.3164	0.2724	2.5727	-0.9328	3.7367
-0.6989	0.0715	-0.7512	-1.0566	1.1584	0.0688	-0.7512	3.3322	1.651	0.8447	6.4332	4.4658	1.9399	-0.1844	-0.809	0.432	0.3687	0.3384	2.6305	-0.9328	3.9045
-0.8007	0.0028	-0.8035	-1.0924	1.1254	0.0688	-0.7484	3.3652	1.7665	0.908	6.6451	4.7052	2.0857	-0.2009	-0.8943	0.3467	0.4045	0.4375	2.6718	-0.9438	4.0476
-0.9135	-0.0908	-0.8667	-1.1722	1.0731	0.0605	-0.7732	3.4175	1.8408	0.9576	6.8157	4.8648	2.2068	-0.2311	-0.9988	0.2339	0.4513	0.5063	2.6938	-0.9603	4.1797
-1.0704	-0.2064	-0.9796	-1.274	0.9961	0.0248	-0.8255	3.3955	1.8711	0.9851	6.9367	5.0079	2.3113	-0.2531	-1.0786	0.1211	0.498	0.5998	2.7131	-0.9961	4.331
-1.219	-0.3274	-1.0566	-1.3896	0.8805	-0.033	-0.8612	3.3487	1.8848	0.9741	7.0331	5.1262	2.3856	-0.2724	-1.1832	0.0138	0.5448	0.6439	2.6966	-1.0346	4.4135
-1.384	-0.4403	-1.1942	-1.5051	0.7787	-0.1128	-0.93	3.2716	1.8683	0.9713	7.0386	5.1702	2.4407	-0.2999	-1.3015	-0.1293	0.5888	0.6769	2.6911	-1.0786	4.4823
-1.5491	-0.6026	-1.3153	-1.6372	0.6521	-0.1844	-1.0429	3.2028	1.8188	0.8888	7.011	5.1702	2.4131	-0.3192	-1.4033	-0.2834	0.6384	0.6879	2.636	-1.1502	4.5346
-1.7032	-0.7237	-1.4418	-1.761	0.509	-0.2862	-1.1337	3.0845	1.761	0.82	6.934	5.129	2.3856	-0.3384	-1.5381	-0.4155	0.6769	0.7154	2.603	-1.1942	4.5346
-1.9013	-0.8695	-1.5657	-1.9041	0.3522	-0.377	-1.2382	2.9552	1.6482	0.7429	6.8074	5.0464	2.3581	-0.3605	-1.6565	-0.5751	0.7182	0.7154	2.548	-1.2822	4.5181
-2.0967	-1.0181	-1.7087	-2.0472	0.1733	-0.5118	-1.373	2.7598	1.5299	0.6411	6.6533	4.9198	2.2591	-0.3797	-1.7528	-0.7292	0.7677	0.7127	2.4462	-1.373	4.4603
-2.2205	-1.1557	-1.8133	-2.1793	-0.0055	-0.6191	-1.4886	2.581	1.4033	0.509	6.4277	4.7575	2.1765	-0.399	-1.8518	-0.8502	0.8007	0.6851	2.3196	-1.4336	4.3668
-2.3609	-1.3043	-1.9179	-2.2921	-0.1541	-0.7182	-1.5877	2.3966	1.2685	0.4237	6.1966	4.5704	2.105	-0.4017	-1.9536	-0.9906	0.82	0.6741	2.215	-1.4914	4.2429
-2.5205	-1.4363	-2.0197	-2.3939	-0.3137	-0.82	-1.6867	2.1985	1.1144	0.3027	5.8994	4.3668	1.9839	-0.4265	-2.0307	-1.1061	0.842	0.6439	2.1105	-1.5464	4.0971
-2.6223	-1.5546	-2.0995	-2.4957	-0.476	-0.9163	-1.7858	1.9619	0.9686	0.2009	5.5692	4.1411	1.8573	-0.4348	-2.1105	-1.2107	0.864	0.6246	1.9371	-1.5959	3.91
-2.7323	-1.6482	-2.1848	-2.5755	-0.6219	-0.9878	-1.8683	1.7528	0.8255	0.0825	5.2143	3.8825	1.7335	-0.432	-2.1517	-1.2932	0.8667	0.6026	1.8023	-1.6592	3.6871
-2.8286	-1.7307	-2.1985	-2.6278	-0.7732	-1.0511	-1.9481	1.5381	0.6824	-0.0413	4.8345	3.6073	1.5822	-0.4237	-2.1903	-1.362	0.875	0.5778	1.6344	-1.6867	3.4147
-2.8837	-1.8105	-2.2095	-2.6498	-0.8723	-1.0814	-1.9921	1.318	0.5366	-0.1101	4.4356	3.3349	1.4528	-0.432	-2.2425	-1.4391	0.8723	0.5311	1.4391	-1.7142	3.1341
-2.9194	-1.8463	-2.215	-2.6773	-0.9878	-1.1034	-2.0389	1.1061	0.4182	-0.1816	4.0063	3.024	1.3318	-0.421	-2.2563	-1.4831	0.853	0.5145	1.2795	-1.7197	2.8259
-2.9249	-1.8958	-2.1572	-2.669	-1.1034	-1.0924	-2.0444	0.908	0.2972	-0.2421	3.6128	2.7378	1.2327	-0.41	-2.2673	-1.5024	0.8365	0.4898	1.0759	-1.7005	2.5149
-2.9194	-1.8793	-2.1187	-2.6443	-1.1722	-1.1006	-2.0444	0.7044	0.1706	-0.3082	3.1561	2.4352	1.0814	-0.4017	-2.2673	-1.5299	0.82	0.4733	0.8915	-1.695	2.1738
-2.8892	-1.8766	-2.0554	-2.6058	-1.2575	-1.0759	-2.0279	0.4815	0.0798	-0.3522	2.7241	2.116	0.9658	-0.3907	-2.2508	-1.5354	0.7897	0.465	0.7264	-1.6592	1.8381
-2.8204	-1.8711	-1.9591	-2.5039	-1.2905	-0.9961	-1.9866	0.3054	0.0083	-0.388	2.3141	1.8326	0.8667	-0.3825	-2.215	-1.4969	0.7622	0.454	0.5448	-1.6042	1.4859
-2.7516	-1.8243	-1.8546	-2.4407	-1.3125	-0.9383	-1.9509	0.1541	-0.0798	-0.3935	1.8821	1.5409	0.7732	-0.366	-2.2123	-1.4886	0.7347	0.4595	0.3825	-1.5464	1.1254
-2.6498	-1.7803	-1.7363	-2.3361	-1.351	-0.8833	-1.8656	-0.033	-0.1513	-0.4127	1.4693	1.241	0.6604	-0.3467	-2.16	-1.4033	0.7099	0.421	0.1926	-1.4804	0.7732
-2.526	-1.7115	-1.5794	-2.2233	-1.34	-0.7925	-1.794	-0.1761	-0.2064	-0.4127	1.0704	0.9713	0.5888	-0.3219	-2.1325	-1.3263	0.6714	0.421	0.033	-1.3868	0.4045
-2.3664	-1.6317	-1.4446	-2.0967	-1.3235	-0.6714	-1.684	-0.3219	-0.2421	-0.4045	0.6631	0.7072	0.509	-0.3054	-2.0554	-1.2327	0.6301	0.4182	-0.1458	-1.318	0.0413
-2.204	-1.5189	-1.274	-1.9371	-1.3153	-0.5558	-1.5657	-0.4513	-0.2752	-0.388	0.3082	0.4292	0.454	-0.2752	-1.9619	-1.1254	0.5668	0.4237	-0.2999	-1.2107	-0.3302
-2.0032	-1.4033	-1.1089	-1.7473	-1.263	-0.443	-1.4611	-0.5558	-0.2889	-0.3715	-0.0248	0.1871	0.3962	-0.2504	-1.8628	-0.9961	0.52	0.3962	-0.454	-1.1281	-0.6879
-1.7913	-1.2877	-0.9163	-1.5546	-1.1969	-0.2972	-1.2795	-0.6411	-0.2972	-0.2972	-0.3302	-0.0303	0.366	-0.2091	-1.7418	-0.8392	0.4265	0.3825	-0.6026	-0.9933	-1.0043
-1.5601	-1.1281	-0.6879	-1.3648	-1.0951	-0.1431	-1.1199	-0.7072	-0.2752	-0.2339	-0.6164	-0.2036	0.3495	-0.1568	-1.5767	-0.6962	0.3412	0.3687	-0.7237	-0.8723	-1.3345
-1.34	-0.9823	-0.4898	-1.1474	-1.0346	0.0055	-0.9163	-0.7732	-0.2476	-0.1596	-0.8778	-0.3935	0.3274	-0.1073	-1.4088	-0.509	0.2366	0.3467	-0.8778	-0.7539	-1.651
-1.0539	-0.7759	-0.2476	-0.908	-0.9493	0.1926	-0.7099	-0.8062	-0.1899	-0.077	-1.1034	-0.5531	0.3412	-0.0523	-1.2107	-0.3137	0.1266	0.3302	-0.9713	-0.6329	-1.9729
-0.8062	-0.6109	-0.0358	-0.6906	-0.8337	0.377	-0.5173	-0.8337	-0.1431	0.0275	-1.3015	-0.7044	0.3384	-0.0028	-1.0153	-0.1348	0.0275	0.3027	-1.1089	-0.4925	-2.2535
-0.5476	-0.443	0.2284	-0.4045	-0.7044	0.5778	-0.2917	-0.8502	-0.0688	0.1486	-1.4693	-0.8365	0.3577	0.066	-0.82	0.0358	-0.1046	0.2917	-1.2382	-0.3357	-2.5287
-0.2807	-0.2614	0.4815	-0.1623	-0.5998	0.7622	-0.077	-0.8365	0.0083	0.2669	-1.6152	-0.9108	0.3687	0.1458	-0.5668	0.2614	-0.2559	0.2724	-1.3235	-0.2119	-2.8011
-0.0055	-0.077	0.7429	0.0605	-0.4788	0.9603	0.1486	-0.82	0.1156	0.3907	-1.7418	-0.9768	0.41	0.2064	-0.3439	0.4265	-0.3962	0.2421	-1.4253	-0.0523	-3.0763
0.2697	0.1101	1.0153	0.3495	-0.3467	1.1942	0.421	-0.7925	0.2366	0.5503	-1.8628	-1.0373	0.432	0.2972	-0.0991	0.6356	-0.5723	0.2036	-1.5134	0.0881	-3.3212
0.5283	0.2559	1.2685	0.6191	-0.2229	1.3978	0.6411	-0.7512	0.3412	0.6989	-1.9344	-1.0594	0.4843	0.3852	0.1431	0.842	-0.7374	0.1871	-1.5987	0.2339	-3.544
0.7759	0.4595	1.5326	0.8778	-0.0908	1.6234	0.908	-0.6824	0.476	0.8557	-2.0032	-1.0539	0.5531	0.4678	0.3632	1.0456	-0.9053	0.1651	-1.6592	0.399	-3.7642
1.0594	0.6631	1.8298	1.1749	0.0605	1.8656	1.1859	-0.6136	0.6274	1.0511	-2.0032	-1.0236	0.6109	0.5586	0.6053	1.296	-1.0841	0.1293	-1.739	0.5476	-3.9595
1.329	0.8392	2.0995	1.4666	0.1789	2.0857	1.4473	-0.5393	0.7842	1.2217	-2.0142	-0.9988	0.6741	0.6439	0.82	1.5106	-1.2575	0.1018	-1.8023	0.7099	-4.1411
1.5904	1.0016	2.3554	1.7225	0.3219	2.3113	1.6675	-0.465	0.9273	1.3758	-1.9894	-0.93	0.7292	0.7072	1.0291	1.7335	-1.4088	0.044	-1.8353	0.8365	-4.3035
1.816	1.1584	2.6223	2.0004	0.4678	2.5149	1.9289	-0.3577	1.0786	1.5546	-1.9536	-0.8502	0.809	0.798	1.2327	1.9756	-1.5601	0.0165	-1.8903	0.9686	-4.4603
2.0967	1.3428	2.9002	2.2728	0.6081	2.7406	2.1765	-0.2642	1.2492	1.717	-1.8793	-0.7787	0.8833	0.8667	1.4281	2.226	-1.706	-0.0358	-1.9068	1.1061	-4.5594
2.3416	1.4941	3.1396	2.5232	0.7319	2.9249	2.4131	-0.1706	1.4226	1.8848	-1.7968	-0.6906	0.9328	0.9355	1.6372	2.4709	-1.8326	-0.0825	-1.9261	1.2437	-4.6804
2.5865	1.6317	3.3789	2.7516	0.8502	3.1175	2.6223	-0.066	1.5684	2.0114	-1.6977	-0.5778	0.9768	0.9768	1.8298	2.6773	-1.9316	-0.1651	-1.9206	1.34	-4.7217
2.7901	1.7748	3.6183	2.9965	0.9851	3.2964	2.8204	0.055	1.7087	2.1627	-1.5794	-0.4623	1.0429	1.0181	2.0114	2.9194	-2.0032	-0.2091	-1.9096	1.4418	-4.7685
3.035	1.9151	3.8412	3.1973	1.0951	3.4505	3.0322	0.1733	1.8601	2.2866	-1.4693	-0.3715	1.0869	1.0621	2.1985	3.1643	-2.0774	-0.2669	-1.8683	1.5381	-4.7575
3.1973	2.0417	4.0036	3.3817	1.2079	3.5963	3.1726	0.2752	1.9866	2.3884	-1.3263	-0.2449	1.1199	1.0621	2.3471	3.3569	-2.105	-0.3247	-1.8023	1.5794	-4.6915
3.3597	2.1682	4.1576	3.5495	1.2795	3.7091	3.3157	0.3825	2.105	2.4764	-1.1969	-0.1321	1.1447	1.0759	2.4902	3.5716	-2.1187	-0.41	-1.7693	1.6234	-4.6227
3.489	2.2425	4.276	3.6926	1.3868	3.7697	3.423	0.498	2.1848	2.5672	-1.0401	-0.0495	1.1529	1.0621	2.6278	3.7477	-2.0885	-0.5008	-1.7115	1.6537	-4.5346
3.6321	2.3196	4.3778	3.8192	1.4473	3.866	3.511	0.5723	2.2425	2.614	-0.8778	0.0468	1.1694	1.0539	2.7406	3.8962	-2.0637	-0.5888	-1.6399	1.6675	-4.3915
3.6899	2.3664	4.4603	3.888	1.5079	3.8962	3.5468	0.6466	2.3196	2.6223	-0.7292	0.1238	1.1557	0.9988	2.8231	4.0283	-1.9921	-0.6769	-1.5354	1.6454	-4.2044
3.7504	2.3884	4.4878	3.9348	1.5189	3.8907	3.5688	0.7292	2.3251	2.625	-0.5476	0.2036	1.1254	0.952	2.9002	4.1109	-1.8848	-0.7594	-1.4446	1.6317	-4.0256
3.7724	2.4021	4.4933	3.9458	1.5601	3.8825	3.5688	0.7815	2.3251	2.6058	-0.377	0.2834	1.0951	0.8915	2.9277	4.1989	-1.772	-0.8557	-1.3345	1.5739	-3.8082
3.7504	2.3691	4.4383	3.932	1.5436	3.8522	3.5193	0.842	2.3251	2.5727	-0.2009	0.3302	1.0594	0.8145	2.9194	4.1989	-1.6234	-0.941	-1.2245	1.5161	-3.5826
3.7064	2.3388	4.3668	3.91	1.5299	3.7559	3.4505	0.8888	2.2701	2.5342	-0.0303	0.3825	0.9988	0.7347	2.9139	4.1989	-1.4528	-1.0263	-1.1226	1.4501	-3.3569
3.6458	2.2618	4.2429	3.8082	1.5106	3.6458	3.3679	0.9108	2.2123	2.4517	0.1403	0.4265	0.9355	0.6301	2.8727	4.1384	-1.2437	-1.1419	-1.0126	1.34	-3.1093
3.5661	2.2095	4.1494	3.6981	1.4804	3.5303	3.2166	0.9383	2.1407	2.3444	0.3357	0.4458	0.8365	0.5173	2.8176	4.0889	-1.0236	-1.241	-0.8915	1.2052	-2.8369
3.4532	2.1297	4.0036	3.5716	1.4308	3.412	3.123	0.9851	2.0609	2.2398	0.5531	0.4843	0.798	0.4072	2.7378	4.0146	-0.7787	-1.351	-0.7952	1.0951	-2.603
3.3047	2.0472	3.8137	3.412	1.362	3.2551	2.9662	1.0208	1.9591	2.1297	0.7154	0.5228	0.7072	0.2559	2.6113	3.899	-0.5173	-1.4638	-0.6686	0.9383	-2.3168
3.2056	1.9399	3.6486	3.2826	1.329	3.1038	2.8259	1.0511	1.8821	2.0334	0.9548	0.5861	0.6549	0.1376	2.5205	3.7944	-0.2614	-1.5271	-0.52	0.8007	-2.0362
3.046	1.8491	3.4725	3.0983	1.296	2.9525	2.6498	1.1419	1.8023	1.9344	1.1832	0.6466	0.6026	0.0165	2.4021	3.6403	0.0055	-1.6014	-0.3852	0.6824	-1.7307
2.8782	1.7363	3.2606	2.9002	1.2217	2.7956	2.4847	1.1749	1.7252	1.8105	1.3896	0.6934	0.5338	-0.1376	2.2783	3.511	0.2779	-1.662	-0.2559	0.5531	-1.4391
2.6883	1.6372	3.0295	2.6966	1.1914	2.6085	2.3251	1.219	1.6372	1.717	1.6179	0.7594	0.4788	-0.2752	2.138	3.3102	0.5586	-1.728	-0.1101	0.4265	-1.1337
2.5315	1.5299	2.8176	2.4902	1.1529	2.4241	2.1297	1.2712	1.5354	1.5959	1.8353	0.8062	0.4237	-0.4045	1.9674	3.1478	0.8227	-1.761	0.022	0.2559	-0.8392
2.3196	1.4116	2.5947	2.2921	1.1034	2.2811	1.9426	1.329	1.4336	1.4969	2.0637	0.8612	0.366	-0.5393	1.8105	3.0075	1.0924	-1.805	0.1761	0.1238	-0.5751
2.1022	1.2822	2.3664	2.0389	1.0511	2.0912	1.75	1.3593	1.3153	1.3593	2.2948	0.897	0.2944	-0.6714	1.6262	2.7956	1.34	-1.8546	0.2862	-0.0303	-0.2944
1.8903	1.1447	2.1242	1.8133	0.9823	1.9151	1.5464	1.4061	1.2134	1.2245	2.4984	0.93	0.2449	-0.7925	1.4611	2.603	1.5739	-1.8931	0.4348	-0.1733	-0.0248
1.6867	1.0071	1.8848	1.5712	0.9548	1.7142	1.3345	1.4501	1.0896	1.1116	2.7021	0.9768	0.1926	-0.8805	1.285	2.4021	1.783	-1.9124	0.5311	-0.3137	0.2174
1.4556	0.8915	1.6179	1.34	0.8833	1.5354	1.1254	1.4804	0.9383	0.9713	2.8919	1.0318	0.1156	-0.9768	1.0979	2.2343	1.9756	-1.9481	0.6466	-0.443	0.4485
1.2134	0.7402	1.3923	1.0924	0.8447	1.34	0.8888	1.5051	0.8667	0.8695	3.0873	1.0786	0.077	-1.0704	0.9328	2.0334	2.149	-1.9646	0.7622	-0.6026	0.6962
1.0071	0.5751	1.1364	0.853	0.7759	1.1474	0.6934	1.5519	0.7402	0.7182	3.2964	1.1447	0.033	-1.1392	0.7787	1.8463	2.2866	-1.9811	0.8557	-0.7127	0.908
0.8007	0.4403	0.8833	0.6246	0.7044	0.9548	0.4898	1.5877	0.6356	0.6026	3.4808	1.1804	-0.0275	-1.1969	0.6494	1.6895	2.4104	-1.9866	0.952	-0.8255	1.1144
0.5833	0.2944	0.6439	0.3907	0.6549	0.7704	0.2586	1.5959	0.5338	0.4843	3.6541	1.2602	-0.0495	-1.2465	0.498	1.5161	2.5094	-1.9646	1.0236	-0.9135	1.3263
0.3825	0.1733	0.4127	0.1706	0.5668	0.5998	0.0578	1.6454	0.4458	0.3742	3.8412	1.3208	-0.066	-1.2905	0.3852	1.3565	2.5727	-1.9399	1.1447	-1.0071	1.5464
0.1926	0.0028	0.1844	-0.0468	0.487	0.4348	-0.1403	1.6812	0.3467	0.2642	4.0256	1.4061	-0.066	-1.3098	0.2586	1.2272	2.6195	-1.9041	1.1914	-1.0924	1.7307
-0.0083	-0.1458	-0.0633	-0.2779	0.4155	0.2559	-0.355	1.684	0.2504	0.1403	4.1962	1.4556	-0.0825	-1.318	0.1183	1.0594	2.647	-1.8518	1.2712	-1.1777	1.9096
-0.1926	-0.2972	-0.2559	-0.4788	0.3109	0.1101	-0.5448	1.695	0.1733	0.0578	4.3695	1.5299	-0.0743	-1.3043	0.0165	0.952	2.6305	-1.7885	1.3125	-1.2382	2.0802
-0.3495	-0.4458	-0.4843	-0.6714	0.2284	-0.0605	-0.7319	1.706	0.0881	-0.033	4.5346	1.5932	-0.055	-1.2822	-0.0715	0.8502	2.581	-1.7005	1.3758	-1.2795	2.2425
-0.5338	-0.5943	-0.7017	-0.8585	0.1238	-0.2229	-0.908	1.695	0.0083	-0.1128	4.6584	1.6702	-0.022	-1.2492	-0.1651	0.7402	2.5094	-1.5904	1.4033	-1.3345	2.3939
-0.6769	-0.7292	-0.897	-1.0373	0.022	-0.3907	-1.0869	1.6922	-0.0468	-0.2064	4.7492	1.6977	0.0193	-1.2024	-0.2201	0.6879	2.4186	-1.5024	1.4308	-1.3785	2.5287
-0.8557	-0.8805	-1.0759	-1.219	-0.0991	-0.5421	-1.2575	1.6647	-0.1376	-0.2862	4.8731	1.7252	0.0881	-1.1529	-0.3137	0.6301	2.3058	-1.4088	1.4583	-1.3813	2.658
-0.9713	-1.0126	-1.2547	-1.351	-0.2146	-0.6824	-1.4116	1.6344	-0.1981	-0.3412	4.9418	1.7638	0.1211	-1.0869	-0.3412	0.5861	2.1765	-1.2767	1.4501	-1.4116	2.7681
-1.1419	-1.1584	-1.4308	-1.5024	-0.3522	-0.8337	-1.5932	1.5822	-0.2559	-0.41	5.0189	1.7748	0.1513	-1.0181	-0.399	0.5366	2.0197	-1.1722	1.4336	-1.4446	2.8864
-1.23	-1.2932	-1.5849	-1.6344	-0.4843	-0.9741	-1.7418	1.5657	-0.3302	-0.465	5.0767	1.794	0.2064	-0.9245	-0.4458	0.498	1.8491	-1.0539	1.4226	-1.4446	2.9772
-1.318	-1.3868	-1.684	-1.7087	-0.5778	-1.0484	-1.8463	1.5381	-0.355	-0.5035	5.129	1.8353	0.2807	-0.831	-0.4678	0.5173	1.6592	-0.897	1.3978	-1.4336	3.0625
-1.3923	-1.5189	-1.8215	-1.7968	-0.6906	-1.1722	-1.9811	1.4914	-0.4182	-0.5531	5.162	1.8463	0.3109	-0.7374	-0.509	0.4953	1.4638	-0.787	1.4061	-1.4253	3.1423
-1.4336	-1.6042	-1.9096	-1.8738	-0.7925	-1.241	-2.0829	1.4528	-0.4485	-0.5833	5.2115	1.8766	0.3715	-0.6356	-0.5063	0.5338	1.2877	-0.6714	1.3978	-1.4116	3.2056
-1.4638	-1.6675	-1.9894	-1.9289	-0.8888	-1.2932	-2.1517	1.4336	-0.454	-0.6081	5.261	1.9234	0.4237	-0.5338	-0.5393	0.5613	1.0896	-0.5476	1.373	-1.3868	3.2799
-1.5216	-1.772	-2.0692	-1.9756	-0.9548	-1.3703	-2.2233	1.3978	-0.4678	-0.6164	5.2775	1.9481	0.4898	-0.454	-0.5476	0.5998	0.919	-0.4292	1.3758	-1.384	3.3624
-1.5161	-1.8271	-2.127	-1.9921	-1.0208	-1.4198	-2.3113	1.3896	-0.4705	-0.6301	5.3518	2.0004	0.5366	-0.3797	-0.5448	0.6411	0.7484	-0.3467	1.3703	-1.4006	3.4395
-1.5409	-1.8518	-2.1738	-2.0252	-1.0814	-1.4638	-2.3499	1.384	-0.4678	-0.6246	5.3986	2.0774	0.6164	-0.2889	-0.5393	0.7182	0.5806	-0.2284	1.373	-1.3813	3.5248
-1.5189	-1.8986	-2.204	-2.0224	-1.1199	-1.4721	-2.3911	1.3868	-0.4678	-0.5971	5.4344	2.127	0.6741	-0.2091	-0.5118	0.7704	0.4292	-0.1403	1.3593	-1.3648	3.5798
-1.4748	-1.8958	-2.2178	-2.0224	-1.1502	-1.5106	-2.4296	1.3923	-0.4375	-0.5696	5.4894	2.1848	0.7484	-0.1431	-0.4595	0.8723	0.2889	-0.0633	1.384	-1.3565	3.6569
-1.4281	-1.8848	-2.1985	-2.0114	-1.1502	-1.4969	-2.4352	1.4061	-0.3742	-0.5393	5.5004	2.2701	0.8227	-0.0605	-0.4155	0.9823	0.1403	0.0275	1.373	-1.3345	3.6926
-1.3483	-1.8683	-2.1655	-1.9949	-1.1392	-1.4666	-2.4379	1.4198	-0.3357	-0.5118	5.5472	2.3278	0.9135	0.0055	-0.366	1.0759	0.0083	0.1183	1.3923	-1.3263	3.7339
-1.2712	-1.8518	-2.127	-1.9426	-1.1226	-1.4226	-2.4434	1.4473	-0.2999	-0.4568	5.5912	2.3939	1.0016	0.055	-0.3027	1.2107	-0.1073	0.1789	1.4308	-1.2932	3.7972
-1.2245	-1.8023	-2.0885	-1.9068	-1.0869	-1.3785	-2.4159	1.4804	-0.2339	-0.3907	5.6242	2.4489	1.1006	0.1156	-0.2339	1.3263	-0.2339	0.2697	1.4418	-1.2767	3.866
-1.1199	-1.739	-2.0087	-1.8491	-1.0484	-1.3125	-2.3636	1.5134	-0.1486	-0.3357	5.6655	2.5315	1.1914	0.1651	-0.1899	1.4226	-0.3329	0.3687	1.4748	-1.2547	3.9128
-0.9933	-1.662	-1.9289	-1.8023	-0.9741	-1.2465	-2.2976	1.5794	-0.0715	-0.2394	5.6765	2.592	1.3098	0.2339	-0.1101	1.5381	-0.443	0.4348	1.5161	-1.2272	3.9595
-0.9245	-1.5904	-1.8491	-1.7142	-0.9218	-1.1612	-2.2618	1.6344	-0.0028	-0.1623	5.7013	2.6745	1.4363	0.2669	-0.0578	1.6097	-0.5283	0.5008	1.5629	-1.1804	4.0146
-0.8117	-1.5079	-1.7583	-1.6647	-0.864	-1.0759	-2.1848	1.6922	0.0743	-0.066	5.7233	2.7378	1.5436	0.3054	0.0385	1.6977	-0.5998	0.5531	1.6289	-1.1722	4.0668
-0.7044	-1.4171	-1.6592	-1.5932	-0.7759	-0.9851	-2.138	1.7555	0.1706	0.011	5.7371	2.8121	1.6592	0.3137	0.1073	1.7583	-0.6329	0.6274	1.673	-1.1281	4.1219
-0.5943	-1.3318	-1.5519	-1.5216	-0.6851	-0.8998	-2.0444	1.805	0.2531	0.1101	5.7921	2.8947	1.7748	0.3384	0.1954	1.8298	-0.6741	0.6906	1.7803	-1.0924	4.1962
-0.476	-1.241	-1.4391	-1.4693	-0.5943	-0.8007	-1.9646	1.8958	0.3687	0.2091	5.8224	2.9607	1.8683	0.3357	0.2834	1.8986	-0.6631	0.7237	1.8683	-1.0704	4.2815
-0.3852	-1.1612	-1.3538	-1.4033	-0.5008	-0.7099	-1.9068	1.9509	0.454	0.3109	5.8774	3.0708	2.0142	0.3247	0.377	1.9839	-0.6384	0.8062	1.9646	-1.0621	4.3723
-0.2752	-1.0841	-1.2465	-1.3483	-0.4237	-0.6384	-1.8436	2.0252	0.5558	0.399	5.8966	3.1203	2.1132	0.2889	0.465	2.0087	-0.5888	0.8585	2.0829	-1.0539	4.4383
-0.1706	-0.9713	-1.1419	-1.2822	-0.3384	-0.5338	-1.7583	2.1325	0.6494	0.4843	5.9709	3.2111	2.226	0.2669	0.5668	2.0802	-0.5421	0.9273	2.215	-1.0291	4.5484
-0.0963	-0.9053	-1.0731	-1.252	-0.2642	-0.465	-1.7087	2.2178	0.7264	0.5778	6.0067	3.2689	2.3306	0.2311	0.6796	2.0829	-0.476	0.9851	2.3416	-0.9988	4.6447
-0.011	-0.8035	-0.9603	-1.1942	-0.1761	-0.4072	-1.6289	2.3031	0.8172	0.6741	6.0727	3.3432	2.4682	0.2119	0.7622	2.1022	-0.41	1.0511	2.4792	-0.9851	4.741
0.0963	-0.7457	-0.9273	-1.1502	-0.1046	-0.3467	-1.5684	2.3444	0.8778	0.7567	6.125	3.412	2.5727	0.1678	0.842	2.1407	-0.3247	1.1116	2.5975	-0.9851	4.8373
0.1348	-0.6989	-0.8557	-1.1337	-0.0495	-0.3219	-1.5161	2.4214	0.9218	0.8227	6.1663	3.4753	2.7021	0.1211	0.9025	2.1462	-0.2339	1.2052	2.7516	-0.9576	4.9363
0.1844	-0.6136	-0.7677	-1.1089	0.0193	-0.2449	-1.4501	2.4984	1.0016	0.9218	6.1828	3.5055	2.8066	0.0743	0.9713	2.16	-0.1348	1.263	2.8837	-0.9355	5.0024
0.2256	-0.5861	-0.7374	-1.1061	0.0715	-0.2284	-1.4281	2.5232	1.0236	0.9658	6.1993	3.5358	2.8919	0.0083	1.0153	2.16	-0.0275	1.3428	3.0212	-0.93	5.0904
0.2284	-0.5448	-0.7127	-1.0841	0.1211	-0.1981	-1.384	2.5672	1.0786	1.0566	6.1993	3.5358	3.013	-0.0413	1.0539	2.1738	0.0743	1.4116	3.1368	-0.9135	5.173
0.2421	-0.5311	-0.6741	-1.1006	0.1458	-0.1678	-1.3345	2.5947	1.0759	1.0951	6.1801	3.533	3.0928	-0.1046	1.0841	2.1765	0.1981	1.4804	3.2634	-0.9135	5.217
0.2531	-0.498	-0.6439	-1.0759	0.1706	-0.1596	-1.2932	2.6195	1.0951	1.1639	6.1746	3.5028	3.1863	-0.1486	1.1144	2.1738	0.2999	1.5491	3.3762	-0.8778	5.272
0.2586	-0.5008	-0.6439	-1.0759	0.1651	-0.1678	-1.241	2.614	1.0731	1.241	6.1498	3.4863	3.2744	-0.1899	1.1529	2.193	0.3935	1.6344	3.4835	-0.8557	5.3188
0.2531	-0.4678	-0.6053	-1.0704	0.1926	-0.1431	-1.1639	2.6388	1.1144	1.3098	6.0948	3.4835	3.3487	-0.2421	1.1639	2.1875	0.487	1.717	3.6156	-0.8145	5.3601
0.2531	-0.4595	-0.5723	-1.0456	0.2284	-0.1376	-1.1309	2.6278	1.1337	1.3428	6.0617	3.434	3.412	-0.2807	1.1832	2.2013	0.5778	1.7858	3.7146	-0.8007	5.3904
0.2614	-0.4623	-0.5476	-1.0208	0.2284	-0.1238	-1.0456	2.625	1.1281	1.4171	6.015	3.4037	3.478	-0.3439	1.1722	2.2095	0.6686	1.8353	3.7972	-0.7539	5.4041
0.2697	-0.4292	-0.5145	-0.9851	0.2229	-0.0963	-0.9961	2.6278	1.1502	1.4996	5.9572	3.4175	3.5633	-0.3605	1.1667	2.2646	0.7402	1.9013	3.8715	-0.7072	5.4014
0.2917	-0.432	-0.4815	-0.9438	0.2614	-0.0413	-0.9025	2.614	1.1859	1.5794	5.9077	3.401	3.6238	-0.4072	1.1612	2.2205	0.8227	1.9454	3.9623	-0.6631	5.4124
0.2999	-0.4045	-0.4155	-0.897	0.2889	-0.0248	-0.8337	2.614	1.2217	1.651	5.8554	3.4037	3.6844	-0.4623	1.1254	2.2398	0.908	1.9646	4.0503	-0.6053	5.3711
0.3219	-0.4017	-0.3715	-0.8172	0.3054	0.022	-0.7402	2.6305	1.263	1.717	5.7921	3.3789	3.7311	-0.4925	1.0869	2.2453	0.9933	1.9839	4.1054	-0.5613	5.3353
0.388	-0.3495	-0.3027	-0.7319	0.3384	0.0936	-0.6329	2.6305	1.329	1.8408	5.7371	3.3955	3.8164	-0.52	1.0401	2.2453	1.0429	2.0307	4.1659	-0.5035	5.3106
0.4403	-0.2889	-0.2394	-0.6549	0.3852	0.1789	-0.5283	2.6388	1.3923	1.9261	5.66	3.4037	3.8852	-0.5503	1.0126	2.248	1.1144	2.0554	4.2237	-0.443	5.2775
0.4733	-0.2642	-0.1541	-0.5558	0.4292	0.2421	-0.4155	2.6415	1.4446	2.0334	5.572	3.4065	3.9265	-0.5888	0.9658	2.248	1.1722	2.1105	4.2402	-0.377	5.2253
0.5503	-0.1899	-0.077	-0.4458	0.476	0.3357	-0.2752	2.6278	1.5409	2.1325	5.4977	3.412	4.0063	-0.6109	0.919	2.2508	1.2327	2.1545	4.2815	-0.2999	5.173
0.6109	-0.1403	0.0138	-0.3467	0.5228	0.421	-0.1678	2.6443	1.6042	2.2288	5.4316	3.4037	4.0806	-0.6439	0.8695	2.237	1.3043	2.1793	4.2925	-0.2339	5.1014
0.6906	-0.0523	0.1018	-0.2036	0.5971	0.52	-0.0303	2.6663	1.7142	2.3581	5.3463	3.4312	4.1576	-0.6796	0.8227	2.226	1.3593	2.2068	4.2787	-0.1266	5.0216
0.7512	0.011	0.1926	-0.0853	0.6466	0.6384	0.0743	2.658	1.794	2.4269	5.239	3.4092	4.2099	-0.7182	0.7815	2.2288	1.4473	2.2315	4.2732	-0.0715	4.9336
0.8282	0.0798	0.2669	-0.0055	0.7154	0.7237	0.1954	2.658	1.8518	2.526	5.14	3.401	4.2732	-0.7622	0.7182	2.2095	1.5161	2.2535	4.2512	-0.0138	4.8538
0.8943	0.1376	0.3495	0.1293	0.7539	0.798	0.2999	2.647	1.9509	2.6305	5.0354	3.3762	4.2952	-0.7925	0.6659	2.193	1.5959	2.2591	4.2264	0.0523	4.741
0.9823	0.2201	0.4237	0.2421	0.8172	0.9273	0.421	2.647	2.0197	2.7241	4.9198	3.3322	4.3392	-0.8365	0.5861	2.1903	1.684	2.2866	4.1852	0.1073	4.6337
1.0456	0.2972	0.5063	0.366	0.8943	1.0291	0.5393	2.6498	2.1077	2.8396	4.8125	3.3212	4.386	-0.8667	0.5393	2.215	1.75	2.3003	4.1631	0.1789	4.5456
1.1116	0.3632	0.5586	0.443	0.919	1.1144	0.6274	2.6663	2.1627	2.9084	4.7162	3.2936	4.4108	-0.908	0.454	2.1738	1.8381	2.2976	4.1109	0.2119	4.4273
1.1694	0.4375	0.6191	0.5283	0.9823	1.2245	0.7044	2.6498	2.2535	2.9662	4.5924	3.2716	4.4245	-0.9465	0.3687	2.182	1.9179	2.2728	4.0558	0.2807	4.3282
1.2382	0.498	0.6824	0.6329	1.0401	1.318	0.7952	2.6745	2.3113	3.0267	4.5181	3.2606	4.4328	-0.9906	0.2999	2.1958	1.9921	2.2728	4.0091	0.3274	4.2347
1.274	0.5421	0.7237	0.6906	1.1144	1.4198	0.8612	2.6773	2.4214	3.0818	4.4603	3.2634	4.4493	-1.0153	0.2311	2.2178	2.0472	2.2508	3.9678	0.3797	4.1604
1.3263	0.6246	0.787	0.7759	1.1694	1.5216	0.9493	2.6718	2.4792	3.1616	4.3833	3.2496	4.4686	-1.0429	0.1871	2.2205	2.0967	2.2315	3.932	0.3907	4.0834
1.3785	0.6604	0.8585	0.8337	1.23	1.6097	1.0126	2.7048	2.548	3.2139	4.32	3.2414	4.4906	-1.0649	0.1348	2.2233	2.138	2.2288	3.8715	0.443	4.0036
1.4308	0.7292	0.9465	0.9218	1.2712	1.6977	1.0924	2.7186	2.636	3.2744	4.3035	3.2359	4.4906	-1.0731	0.1101	2.2508	2.1572	2.2068	3.8385	0.4705	3.9293
1.4804	0.798	1.0318	1.0181	1.351	1.8188	1.1969	2.7598	2.7323	3.3404	4.2677	3.2826	4.5126	-1.0704	0.0853	2.2921	2.149	2.2013	3.7862	0.5228	3.8715
1.5464	0.8778	1.1144	1.1006	1.4198	1.9261	1.2822	2.8066	2.8231	3.4037	4.2457	3.2936	4.5236	-1.0704	0.1018	2.3444	2.1352	2.1958	3.7779	0.5641	3.7972
1.6344	0.9548	1.2355	1.2107	1.4831	2.0527	1.3675	2.8369	2.9139	3.4725	4.2292	3.2909	4.5264	-1.0484	0.1211	2.4049	2.0885	2.1655	3.7449	0.6109	3.7201
1.6895	1.0346	1.3318	1.3153	1.5546	2.1655	1.4831	2.8699	2.991	3.5468	4.2347	3.3157	4.5539	-1.0126	0.1596	2.4599	2.0114	2.171	3.7201	0.6576	3.6624
1.7803	1.0924	1.4336	1.4226	1.6207	2.2948	1.5932	2.9057	3.0763	3.5963	4.2099	3.3294	4.5621	-0.9658	0.1981	2.5425	1.9426	2.1517	3.6569	0.7182	3.5606
1.8573	1.1969	1.5601	1.5629	1.706	2.4296	1.6785	2.9469	3.1836	3.6651	4.1797	3.3349	4.5676	-0.9163	0.2586	2.5892	1.8381	2.16	3.6321	0.7787	3.4973
1.9316	1.2547	1.695	1.6592	1.772	2.57	1.7748	2.9882	3.2771	3.7284	4.1549	3.3432	4.5594	-0.8695	0.3192	2.6498	1.739	2.149	3.5963	0.8282	3.423
2.0142	1.3345	1.7968	1.7693	1.8188	2.6718	1.8821	3.0185	3.3569	3.7862	4.1439	3.3432	4.5759	-0.8062	0.3715	2.6938	1.6152	2.1352	3.5468	0.8778	3.3487
2.0637	1.4033	1.9151	1.9013	1.8518	2.7846	1.9894	3.0515	3.4395	3.8357	4.1109	3.3542	4.5511	-0.7484	0.465	2.7433	1.4914	2.1187	3.4918	0.9218	3.2689
2.1407	1.4748	2.0389	2.0252	1.9124	2.9304	2.0885	3.0515	3.5165	3.8907	4.0806	3.3597	4.5346	-0.6466	0.5778	2.8259	1.318	2.0995	3.4257	0.9768	3.1671
2.204	1.5409	2.1435	2.094	1.9481	3.0267	2.182	3.0543	3.5716	3.91	4.0283	3.3267	4.4851	-0.5751	0.6741	2.8919	1.1557	2.0389	3.3762	0.9933	3.035
2.2783	1.6124	2.2508	2.2123	1.9811	3.1451	2.2866	3.057	3.6596	3.965	3.9843	3.3184	4.4521	-0.4815	0.7732	2.9414	0.9768	2.0252	3.3047	1.0318	2.9249
2.3416	1.662	2.3499	2.2811	2.0142	3.2441	2.3581	3.0377	3.7532	3.9815	3.9375	3.3239	4.4438	-0.3742	0.864	2.98	0.7649	1.9949	3.2386	1.0759	2.8451
2.3856	1.7142	2.4379	2.3856	2.0307	3.3294	2.4379	3.002	3.8027	3.9898	3.866	3.2964	4.3695	-0.2697	0.9878	3.0267	0.5641	1.9344	3.1671	1.0896	2.7186
2.4076	1.7225	2.4627	2.4324	2.0417	3.4065	2.4929	2.9772	3.8357	3.9898	3.7862	3.3074	4.3282	-0.1761	1.0401	3.0543	0.3687	1.9013	3.0625	1.1006	2.5892
2.4352	1.7418	2.537	2.4737	1.9894	3.4697	2.5315	2.9112	3.8687	3.9733	3.7146	3.3047	4.2677	-0.0715	1.1639	3.0928	0.1541	1.8381	2.9635	1.1061	2.4489
2.4572	1.761	2.5617	2.5287	2.0059	3.5248	2.5755	2.8534	3.8825	3.9458	3.6514	3.2992	4.2347	0.0523	1.2355	3.1341	-0.0825	1.783	2.8204	1.1474	2.3361
2.4654	1.7473	2.592	2.5562	1.9811	3.5495	2.625	2.7846	3.921	3.9348	3.5716	3.2909	4.1769	0.1651	1.3125	3.1891	-0.3109	1.7693	2.7268	1.1584	2.2233
2.4599	1.7335	2.6278	2.5755	1.9344	3.6018	2.6305	2.7021	3.9293	3.8935	3.4587	3.2359	4.0806	0.2669	1.373	3.1973	-0.52	1.7032	2.6002	1.1529	2.0829
2.4434	1.7225	2.614	2.5755	1.8711	3.6018	2.6278	2.5947	3.9348	3.855	3.3377	3.2028	4.0366	0.3742	1.4006	3.2386	-0.7484	1.6867	2.4764	1.1584	1.9509
2.4379	1.6812	2.5975	2.603	1.8215	3.6073	2.6443	2.5205	3.9238	3.7972	3.2414	3.1533	4.0008	0.5008	1.4363	3.2634	-0.9713	1.6675	2.3444	1.1942	1.8105
2.3829	1.6537	2.5562	2.5617	1.7528	3.6046	2.6113	2.4104	3.8935	3.7669	3.123	3.1038	3.9128	0.5888	1.4583	3.2689	-1.1694	1.6207	2.2013	1.1667	1.6647
2.3526	1.6262	2.5205	2.5177	1.6785	3.6266	2.603	2.3003	3.877	3.6899	2.9882	3.0377	3.833	0.7044	1.4721	3.2992	-1.3785	1.6179	2.0279	1.1887	1.5271
2.2591	1.5409	2.4434	2.4462	1.5822	3.5523	2.5315	2.1545	3.8082	3.6156	2.8589	2.969	3.7642	0.7842	1.4418	3.2716	-1.5574	1.5767	1.8738	1.1804	1.3978
2.2205	1.4996	2.3801	2.4131	1.4886	3.5028	2.4682	2.0719	3.7477	3.5495	2.7296	2.9057	3.6679	0.8612	1.4418	3.2854	-1.7252	1.5739	1.7225	1.1804	1.2712
2.1242	1.4418	2.3168	2.3306	1.4116	3.4945	2.4049	1.9454	3.6899	3.467	2.5837	2.8286	3.5908	0.9438	1.4006	3.2826	-1.8738	1.5657	1.5822	1.1777	1.1584
2.0747	1.384	2.1985	2.2425	1.3373	3.4312	2.3361	1.8215	3.6293	3.39	2.4709	2.7406	3.5028	1.0181	1.3345	3.2469	-2.0087	1.5767	1.4611	1.2024	1.0704
1.9729	1.329	2.1105	2.171	1.263	3.3817	2.2591	1.75	3.5826	3.3157	2.3664	2.669	3.423	1.0676	1.2685	3.2276	-2.127	1.5959	1.307	1.1997	0.9906
1.8903	1.296	2.0224	2.0747	1.1969	3.3267	2.1655	1.6785	3.544	3.2331	2.2701	2.6443	3.3487	1.1337	1.23	3.1973	-2.2425	1.5849	1.2107	1.2107	0.9135
1.7858	1.2437	1.9344	1.9839	1.1529	3.2579	2.0829	1.5932	3.4835	3.1918	2.182	2.6058	3.2992	1.1804	1.1447	3.1423	-2.3388	1.6124	1.1199	1.2024	0.8612
1.6895	1.1777	1.8243	1.8353	1.0869	3.2194	2.0114	1.5519	3.4587	3.1396	2.1215	2.5975	3.2524	1.2382	1.0401	3.0763	-2.4269	1.6289	1.0291	1.23	0.8007
1.5877	1.1226	1.7115	1.7363	1.0318	3.1588	1.8986	1.4914	3.4147	3.0515	2.0692	2.5837	3.2111	1.2575	0.9713	3.0267	-2.5012	1.651	0.9851	1.2437	0.7897
1.5161	1.1006	1.5932	1.6069	1.0153	3.1313	1.8105	1.4776	3.4147	2.9937	2.0582	2.5947	3.1671	1.2767	0.8447	2.958	-2.5535	1.6757	0.919	1.2437	0.7649
1.4336	1.0594	1.5216	1.4941	0.9933	3.0983	1.7418	1.4776	3.4037	2.9717	2.0527	2.6305	3.1533	1.318	0.7842	2.9194	-2.6168	1.7555	0.897	1.285	0.7594
1.3373	1.0539	1.4336	1.4171	0.9768	3.0873	1.6785	1.4638	3.4202	2.9442	2.0224	2.6608	3.1561	1.3428	0.6714	2.8809	-2.6773	1.8078	0.8778	1.318	0.7539
1.2217	0.9988	1.3345	1.2822	0.9465	3.0322	1.5767	1.4473	3.4147	2.8699	2.0252	2.6773	3.1726	1.3538	0.5696	2.8121	-2.7048	1.8436	0.8502	1.362	0.7759
1.1281	0.9465	1.2437	1.1667	0.93	3.024	1.5134	1.4281	3.4147	2.8782	2.0142	2.7131	3.1698	1.3868	0.443	2.7351	-2.7626	1.9151	0.8585	1.3868	0.7815
1.0153	0.9355	1.1447	1.0346	0.9438	3.002	1.4308	1.4418	3.412	2.8506	2.0032	2.7406	3.1753	1.4006	0.3439	2.6525	-2.8121	1.9646	0.8612	1.3978	0.8117
0.8805	0.8585	1.0181	0.8833	0.897	2.958	1.3345	1.4253	3.4257	2.8039	1.9949	2.7323	3.1698	1.4253	0.1981	2.5315	-2.8451	2.0169	0.831	1.3923	0.798
0.7622	0.8035	0.9273	0.7759	0.8778	2.8974	1.2382	1.3951	3.3789	2.7433	1.9646	2.7103	3.1726	1.4473	0.0798	2.4407	-2.8864	2.0444	0.809	1.3896	0.7649
0.6136	0.7319	0.8172	0.6164	0.8255	2.8451	1.1392	1.3758	3.3487	2.6911	1.9454	2.6993	3.1451	1.4666	-0.033	2.3416	-2.9167	2.0967	0.7952	1.4226	0.7622
0.487	0.6549	0.7237	0.509	0.798	2.8039	1.0594	1.3538	3.3239	2.6663	1.8793	2.6773	3.1368	1.4859	-0.1486	2.2398	-2.9525	2.1187	0.7759	1.4088	0.7347
0.3109	0.5668	0.5916	0.355	0.7044	2.7433	0.941	1.2987	3.2771	2.5975	1.8381	2.636	3.09	1.5051	-0.2862	2.0912	-2.9717	2.149	0.7072	1.3951	0.7209
0.1761	0.4568	0.476	0.2064	0.6384	2.6855	0.842	1.2465	3.2276	2.537	1.7528	2.5892	3.057	1.5051	-0.3632	1.9839	-2.9855	2.1517	0.6714	1.3758	0.7072
0.0303	0.4017	0.3742	0.0523	0.5861	2.6168	0.7457	1.2107	3.2001	2.4737	1.695	2.5645	3.0322	1.5134	-0.443	1.8738	-2.9937	2.149	0.6053	1.362	0.6714
-0.1101	0.3137	0.2724	-0.077	0.5035	2.57	0.6329	1.1584	3.1478	2.4021	1.6262	2.5122	2.9855	1.4996	-0.5283	1.772	-2.9855	2.1242	0.5366	1.3153	0.6384
-0.2531	0.1871	0.1458	-0.2339	0.4568	2.4819	0.5283	1.1116	3.0708	2.3444	1.5822	2.4627	2.9387	1.4914	-0.5916	1.6647	-2.9635	2.094	0.4595	1.2795	0.5861
-0.377	0.1073	0.0413	-0.366	0.3797	2.4462	0.4348	1.0704	3.0322	2.2838	1.5436	2.4352	2.8974	1.4859	-0.6851	1.5574	-2.9359	2.0802	0.399	1.2382	0.5751
-0.5338	0.0083	-0.0798	-0.5063	0.3137	2.3746	0.3137	1.0208	2.9827	2.182	1.4886	2.4159	2.8672	1.4556	-0.7539	1.4748	-2.8809	2.0389	0.3302	1.1887	0.5586
-0.6962	-0.0743	-0.1568	-0.6576	0.2421	2.2976	0.2256	0.9933	2.9469	2.138	1.4501	2.4021	2.8149	1.4418	-0.8255	1.3951	-2.8341	2.0279	0.2752	1.1309	0.5448
-0.809	-0.1403	-0.2476	-0.7759	0.1954	2.2425	0.1596	0.9631	2.8837	2.0527	1.4418	2.3829	2.7791	1.3896	-0.8943	1.3153	-2.7626	1.9811	0.2036	1.0869	0.5338
-0.9108	-0.2476	-0.3439	-0.886	0.1458	2.2398	0.0798	0.9383	2.8644	2.0307	1.4088	2.3774	2.7626	1.3675	-0.9658	1.263	-2.6938	1.9619	0.1486	1.0346	0.5256
-1.0263	-0.2889	-0.4017	-0.9961	0.1018	2.1958	0.011	0.9218	2.8479	1.9701	1.3868	2.3609	2.7433	1.318	-1.0539	1.1804	-2.603	1.9509	0.1238	0.9933	0.5311
-1.1557	-0.366	-0.454	-1.1061	0.0605	2.1435	-0.044	0.9108	2.8204	1.9371	1.384	2.3388	2.7241	1.274	-1.1116	1.1199	-2.5122	1.9454	0.0798	0.952	0.5393
-1.23	-0.4127	-0.5145	-1.1997	0.0275	2.1325	-0.1073	0.8943	2.8121	1.8876	1.3785	2.3444	2.7186	1.2245	-1.2024	1.0346	-2.4104	1.9454	0.0495	0.9273	0.5641
-1.318	-0.4595	-0.5393	-1.2877	0.011	2.094	-0.1431	0.875	2.7901	1.8656	1.3565	2.3141	2.6966	1.1749	-1.274	0.952	-2.3003	1.9234	0.0275	0.8805	0.5586
-1.3951	-0.5118	-0.5751	-1.3345	0.0248	2.094	-0.1954	0.9025	2.7626	1.8078	1.3785	2.3278	2.7103	1.1116	-1.3428	0.875	-2.1848	1.9151	0.033	0.831	0.5943
-1.4886	-0.5476	-0.5971	-1.3923	0.0083	2.0719	-0.2476	0.8888	2.7626	1.7968	1.351	2.2948	2.6883	1.0401	-1.4171	0.798	-2.0582	1.9234	0	0.798	0.6219
-1.5244	-0.5833	-0.6081	-1.4501	0.0083	2.0664	-0.2669	0.9135	2.7681	1.794	1.3675	2.2866	2.6635	0.9768	-1.4721	0.7237	-1.9289	1.8793	-0.0275	0.7457	0.6411
-1.5712	-0.5696	-0.5998	-1.4748	0.0413	2.0747	-0.2972	0.952	2.7626	1.7583	1.4033	2.3086	2.6911	0.93	-1.5134	0.6686	-1.8298	1.9013	0.0083	0.7237	0.6879
-1.6042	-0.5778	-0.6026	-1.5134	0.0688	2.0637	-0.3054	0.9603	2.7708	1.739	1.4033	2.3278	2.6883	0.8447	-1.5877	0.5668	-1.6785	1.8958	0.0055	0.6714	0.7154
-1.6069	-0.5558	-0.5641	-1.5271	0.1101	2.1077	-0.2944	1.0153	2.8039	1.728	1.4391	2.3251	2.6966	0.798	-1.6069	0.5118	-1.5601	1.8821	0.0165	0.6466	0.7815
-1.5904	-0.5366	-0.5145	-1.5271	0.1899	2.1462	-0.3054	1.0676	2.8149	1.739	1.4996	2.3911	2.7378	0.7237	-1.6372	0.432	-1.4281	1.8601	0.033	0.6136	0.8117
-1.5712	-0.465	-0.4678	-1.5079	0.2366	2.2068	-0.2752	1.1364	2.8506	1.7473	1.5712	2.4599	2.7626	0.6714	-1.6785	0.399	-1.318	1.8601	0.0688	0.5751	0.9053
-1.5629	-0.4348	-0.41	-1.4886	0.3219	2.2453	-0.2559	1.2079	2.9167	1.7858	1.6262	2.5205	2.7763	0.6136	-1.6977	0.3274	-1.2052	1.8436	0.0936	0.5503	0.9658
-1.5299	-0.3577	-0.3384	-1.4611	0.421	2.3251	-0.2256	1.3043	2.969	1.816	1.7252	2.5975	2.8369	0.5613	-1.7197	0.2807	-1.0814	1.8546	0.1678	0.5311	1.0346
-1.4638	-0.2752	-0.2284	-1.4253	0.5145	2.3856	-0.1733	1.3896	3.057	1.8628	1.816	2.7021	2.9002	0.4898	-1.7197	0.2256	-0.9631	1.8491	0.2229	0.5173	1.1116
-1.4418	-0.2229	-0.1596	-1.4006	0.5943	2.4792	-0.1293	1.4666	3.1451	1.9206	1.8766	2.7681	2.9525	0.4375	-1.7418	0.1844	-0.8585	1.8546	0.2559	0.4843	1.1584
-1.3675	-0.1128	-0.0468	-1.3043	0.7072	2.581	-0.0303	1.5849	3.2441	1.9949	1.9701	2.8616	3.0433	0.3825	-1.7693	0.1293	-0.7622	1.8628	0.2972	0.4898	1.23
-1.2932	-0.0468	0.0688	-1.2355	0.8117	2.6773	0.0138	1.673	3.3514	2.0829	2.0692	2.9937	3.1313	0.3495	-1.8133	0.0936	-0.6631	1.8903	0.3412	0.4815	1.2932
-1.2245	0.0523	0.2119	-1.1749	0.9328	2.7901	0.1183	1.7638	3.4615	2.1875	2.1435	3.0653	3.2194	0.2889	-1.8546	0.0468	-0.5751	1.9013	0.366	0.4898	1.3455
-1.1584	0.1431	0.3605	-1.0814	1.0153	2.9057	0.2201	1.8298	3.533	2.2728	2.2013	3.1616	3.3102	0.2642	-1.8876	-0.0138	-0.5008	1.9701	0.41	0.509	1.4171
-1.0621	0.2366	0.4898	-1.0016	1.1199	3.0433	0.3192	1.9096	3.6431	2.3939	2.248	3.2744	3.4395	0.2229	-1.9399	-0.055	-0.4348	2.0334	0.4237	0.5283	1.4914
-0.9851	0.3522	0.6549	-0.9108	1.2162	3.1368	0.4458	1.9921	3.7449	2.5039	2.3196	3.3294	3.5385	0.1899	-1.9921	-0.0963	-0.3715	2.0747	0.4595	0.5531	1.5244
-0.8888	0.4265	0.8145	-0.7952	1.318	3.2826	0.5696	2.0472	3.8715	2.6415	2.3554	3.4202	3.6569	0.1596	-2.0334	-0.1513	-0.3027	2.1022	0.4678	0.5806	1.5491
-0.809	0.5283	0.9933	-0.7072	1.4143	3.4312	0.7017	2.1187	3.976	2.7516	2.4214	3.4918	3.7642	0.1431	-2.0829	-0.2064	-0.2586	2.1848	0.5145	0.6274	1.6042
-0.7209	0.6191	1.1887	-0.5806	1.5051	3.555	0.8255	2.2095	4.0889	2.9057	2.4599	3.5716	3.8852	0.1266	-2.1352	-0.2559	-0.2174	2.237	0.5338	0.6604	1.6344
-0.6109	0.7484	1.3758	-0.4595	1.6234	3.7009	0.9796	2.2948	4.2292	3.0625	2.5287	3.6541	4.0393	0.1101	-2.138	-0.2586	-0.1954	2.3196	0.5833	0.7402	1.695
-0.5118	0.8667	1.5739	-0.3439	1.75	3.8825	1.1337	2.3829	4.375	3.2249	2.6113	3.7422	4.1631	0.1018	-2.182	-0.2999	-0.1789	2.3856	0.6274	0.7925	1.761
-0.3797	0.9768	1.7775	-0.2146	1.8601	4.0421	1.2767	2.4379	4.5071	3.3597	2.669	3.8027	4.2815	0.0825	-2.2123	-0.3219	-0.1486	2.4709	0.6714	0.8475	1.8188
-0.2476	1.1254	1.9949	-0.0605	1.9811	4.2292	1.4941	2.5507	4.6529	3.555	2.7461	3.9375	4.4438	0.0881	-2.248	-0.3495	-0.1678	2.5507	0.7099	0.9163	1.8738
-0.1073	1.2437	2.2233	0.0798	2.1105	4.419	1.6482	2.6525	4.7878	3.7367	2.8341	4.0338	4.5841	0.1018	-2.2701	-0.355	-0.1789	2.6333	0.7457	0.9713	1.9234
0.0138	1.4116	2.4517	0.2614	2.2453	4.6144	1.8408	2.7406	4.9721	3.9293	2.9222	4.1549	4.7382	0.1211	-2.2838	-0.3632	-0.2229	2.7296	0.8007	1.0539	1.9729
0.1458	1.5354	2.6663	0.399	2.3746	4.785	2.0334	2.8094	5.1124	4.0971	2.991	4.2292	4.8786	0.1321	-2.3278	-0.3467	-0.2642	2.8341	0.8255	1.1364	2.0279
0.3219	1.7032	2.9304	0.5916	2.5149	5.0161	2.248	2.9084	5.272	4.331	3.0653	4.3668	5.0574	0.1871	-2.2783	-0.2999	-0.3495	2.9525	0.9025	1.2327	2.0912
0.4595	1.8243	3.1506	0.7347	2.6388	5.1702	2.4296	2.991	5.4124	4.5043	3.1286	4.4328	5.1977	0.2201	-2.2866	-0.2807	-0.421	3.0763	0.93	1.3235	2.116
0.6081	1.9426	3.3597	0.9273	2.7571	5.3601	2.6415	3.079	5.5472	4.6997	3.1781	4.5209	5.3546	0.2614	-2.2563	-0.2284	-0.5145	3.1808	0.9355	1.4006	2.1435
0.7402	2.0499	3.5523	1.1254	2.8451	5.5307	2.8479	3.101	5.6463	4.8731	3.1781	4.5621	5.4922	0.3219	-2.2535	-0.1899	-0.6109	3.3019	0.952	1.4996	2.1325
0.8943	2.2178	3.7862	1.3043	2.9497	5.6738	3.0433	3.1726	5.7728	5.0629	3.1891	4.6309	5.6518	0.3742	-2.226	-0.1486	-0.7209	3.4312	0.9741	1.6207	2.1517
1.0181	2.3416	3.9981	1.4638	3.0405	5.8279	3.2634	3.1946	5.8801	5.2418	3.2056	4.6777	5.7948	0.4182	-2.2315	-0.1046	-0.8337	3.5413	0.9823	1.6922	2.1352
1.1502	2.4489	4.1852	1.6124	3.1286	5.9819	3.4202	3.2496	5.9847	5.4124	3.2194	4.7025	5.8911	0.4788	-2.248	-0.0633	-0.941	3.6541	0.9988	1.8188	2.1435
1.2987	2.5645	4.3805	1.8105	3.2249	6.1415	3.6266	3.2936	6.0948	5.5995	3.1918	4.774	6.0205	0.5448	-2.2508	-0.0385	-1.0484	3.7862	1.0071	1.9344	2.1572
1.4198	2.6966	4.5951	1.9894	3.3019	6.2516	3.8054	3.3294	6.1746	5.7646	3.2028	4.7878	6.1195	0.5778	-2.2921	-0.011	-1.1419	3.8605	1.0208	2.0114	2.138
1.5849	2.8231	4.7905	2.1875	3.4312	6.4277	3.9898	3.3679	6.2736	5.9297	3.2056	4.8263	6.2103	0.6329	-2.3058	0.0193	-1.2492	3.9458	1.0511	2.116	2.1407
1.7363	2.969	4.9886	2.3609	3.5385	6.5818	4.1824	3.4697	6.4139	6.0975	3.2524	4.8951	6.3369	0.6989	-2.3141	0.055	-1.362	4.0778	1.0841	2.248	2.1793
1.9151	3.1038	5.2032	2.5837	3.6734	6.7249	4.364	3.533	6.5323	6.2819	3.2909	4.9473	6.436	0.7429	-2.3416	0.0853	-1.4556	4.1549	1.1254	2.3471	2.1875
2.0885	3.2771	5.4316	2.7929	3.7807	6.9065	4.5621	3.6018	6.6616	6.436	3.3074	5.0079	6.546	0.798	-2.3526	0.1073	-1.5767	4.2677	1.1612	2.4489	2.215
2.2343	3.4285	5.638	2.958	3.899	7.0523	4.7355	3.6679	6.7579	6.6176	3.3349	5.0382	6.6093	0.8447	-2.3884	0.1211	-1.6757	4.353	1.2052	2.5535	2.2288
2.4517	3.5881	5.8609	3.1781	4.0256	7.2367	4.9446	3.7724	6.8872	6.7882	3.3707	5.0904	6.7221	0.9025	-2.3719	0.1678	-1.7913	4.4686	1.2602	2.6773	2.2618
2.6223	3.7422	6.0755	3.3734	4.1521	7.366	5.1372	3.8357	6.9753	6.912	3.3652	5.1179	6.7551	0.9493	-2.3966	0.2174	-1.8821	4.5236	1.2822	2.7929	2.2508
2.7791	3.8852	6.2929	3.5716	4.2484	7.4953	5.294	3.9017	7.0743	7.0551	3.3762	5.1152	6.8212	0.9988	-2.3911	0.2669	-1.9811	4.5951	1.2905	2.9139	2.215
2.9525	4.0283	6.4992	3.7449	4.3695	7.6577	5.4729	3.9485	7.1734	7.2174	3.3844	5.1262	6.8845	1.0594	-2.3774	0.3412	-2.0719	4.6694	1.3263	3.0377	2.2178
3.1148	4.1521	6.6781	3.9183	4.4356	7.7732	5.627	3.9898	7.2339	7.322	3.3487	5.1317	6.9257	1.1061	-2.3719	0.4182	-2.1655	4.7245	1.3373	3.1561	2.193
3.3157	4.298	6.8817	4.1329	4.5319	7.9026	5.7921	4.0751	7.3357	7.454	3.3459	5.1537	6.9505	1.1529	-2.3388	0.5393	-2.2701	4.7768	1.3785	3.2716	2.1627
3.445	4.419	7.0386	4.3035	4.6006	8.0044	5.9462	4.1081	7.4183	7.5779	3.3212	5.1482	6.989	1.1942	-2.3168	0.6136	-2.3581	4.818	1.3896	3.3872	2.1462
3.5853	4.5429	7.2202	4.4906	4.7107	8.1447	6.0783	4.1687	7.5091	7.6659	3.3212	5.1455	7.0165	1.2355	-2.2563	0.7539	-2.4599	4.8538	1.4528	3.4973	2.1325
3.7587	4.6502	7.377	4.6364	4.774	8.2355	6.2186	4.2099	7.5696	7.7677	3.3102	5.1455	7.0331	1.2877	-2.2205	0.8695	-2.5562	4.9226	1.4528	3.5908	2.1077
3.8742	4.73	7.5173	4.7933	4.8373	8.3566	6.3562	4.265	7.6549	7.875	3.3074	5.1812	7.0441	1.3373	-2.1765	0.9493	-2.647	4.9721	1.4859	3.6954	2.0967
4.0201	4.8565	7.6797	4.9611	4.9143	8.4831	6.5158	4.3282	7.7705	8.0181	3.3377	5.228	7.1073	1.4061	-2.1352	1.0841	-2.7626	5.0134	1.5161	3.8302	2.0857
4.1329	4.9006	7.7897	5.0959	4.9666	8.5382	6.6286	4.4025	7.8365	8.1034	3.3817	5.3051	7.1486	1.4336	-2.094	1.1832	-2.8451	5.0547	1.5299	3.9265	2.0609
4.2292	4.9941	7.9053	5.239	5.0382	8.6372	6.7524	4.4658	7.9273	8.2135	3.4367	5.4124	7.1734	1.4886	-2.0362	1.274	-2.9497	5.0767	1.5601	4.0118	2.0554
4.3448	5.0739	8.0181	5.3408	5.1042	8.7445	6.8817	4.5181	8.0346	8.2905	3.4945	5.5004	7.2284	1.5326	-2.0004	1.3428	-3.0185	5.1124	1.5601	4.0916	2.0499
4.3915	5.1179	8.1282	5.4481	5.1565	8.8491	7.0028	4.5979	8.1557	8.3868	3.5826	5.6297	7.3027	1.5409	-1.9839	1.3868	-3.068	5.1179	1.5959	4.1742	2.0747
4.4686	5.1785	8.2135	5.561	5.2583	8.9674	7.1046	4.6997	8.3015	8.5107	3.6981	5.8086	7.3908	1.5712	-1.9289	1.4556	-3.1093	5.1207	1.5959	4.2374	2.0719
4.5098	5.2445	8.2823	5.66	5.3243	9.0637	7.2092	4.8015	8.4666	8.6152	3.7944	5.9985	7.4678	1.5822	-1.9509	1.4914	-3.1258	5.1537	1.6344	4.2952	2.1022
4.5759	5.3106	8.3538	5.7618	5.4316	9.2123	7.3357	4.9198	8.6097	8.7418	3.954	6.2131	7.5779	1.5987	-1.9289	1.5106	-3.1671	5.1785	1.662	4.3448	2.1325
4.6144	5.3546	8.4254	5.8141	5.5169	9.3306	7.4485	5.0464	8.7968	8.8574	4.0861	6.4167	7.6797	1.6069	-1.9784	1.5134	-3.1726	5.184	1.7115	4.4245	2.1655
4.6364	5.4289	8.4831	5.8966	5.6132	9.4627	7.5393	5.206	8.9564	8.9674	4.2705	6.6726	7.8035	1.6042	-1.9509	1.5134	-3.1671	5.2005	1.7665	4.4411	2.2288
4.6804	5.4949	8.5464	5.9654	5.7013	9.5975	7.6577	5.3491	9.1518	9.0912	4.4603	6.9175	7.9328	1.5959	-2.0087	1.4804	-3.1671	5.206	1.8188	4.4603	2.2838
4.6777	5.5444	8.6042	6.0315	5.8306	9.7461	7.7732	5.4812	9.3719	9.2233	4.6447	7.1844	8.0842	1.5987	-2.0389	1.4611	-3.1478	5.2528	1.8958	4.5346	2.3306
4.6997	5.6105	8.6757	6.114	5.9517	9.9057	7.8915	5.638	9.5728	9.3499	4.8593	7.4348	8.2382	1.5932	-2.0582	1.4638	-3.1368	5.2253	1.9564	4.5484	2.3884
4.708	5.671	8.75	6.1718	6.07	10.0268	7.9796	5.8141	9.7736	9.4985	5.0602	7.6797	8.3758	1.5767	-2.0802	1.4308	-3.1203	5.2445	2.0362	4.5869	2.4296
4.7107	5.7426	8.8298	6.2406	6.2076	10.2029	8.0731	5.9544	9.969	9.6333	5.2445	7.9328	8.5299	1.5712	-2.1105	1.4171	-3.0928	5.2528	2.0995	4.6392	2.4764
4.7052	5.8003	8.8904	6.3121	6.3204	10.357	8.1887	6.1003	10.1671	9.7681	5.4371	8.164	8.6757	1.5574	-2.1297	1.4033	-3.068	5.2445	2.1517	4.6942	2.5287
4.7492	5.8581	8.9922	6.4029	6.4277	10.4725	8.2933	6.2268	10.357	9.8864	5.605	8.3923	8.8353	1.5381	-2.1242	1.4253	-3.0295	5.261	2.2068	4.7162	2.5617
4.7657	5.9187	9.0527	6.4635	6.5598	10.6074	8.3648	6.3397	10.5221	10.0048	5.7591	8.596	8.9509	1.5189	-2.1187	1.4088	-2.9937	5.2638	2.2701	4.774	2.5865
4.741	5.9764	9.116	6.513	6.6671	10.7229	8.4474	6.4552	10.6817	10.1203	5.8939	8.7721	9.061	1.5024	-2.1682	1.362	-2.9497	5.2803	2.3113	4.8235	2.5865
4.7795	6.0177	9.1573	6.5845	6.7414	10.8495	8.5437	6.5653	10.8357	10.2249	6.015	8.9289	9.182	1.4721	-2.1462	1.3758	-2.9332	5.2858	2.3609	4.8621	2.592
4.7768	6.07	9.2151	6.6588	6.8239	10.9513	8.6345	6.6588	10.9788	10.3047	6.125	9.094	9.2894	1.4666	-2.1765	1.3428	-2.8947	5.3133	2.4049	4.9006	2.5975
4.752	6.0893	9.2508	6.6946	6.8762	11.0173	8.684	6.7469	11.0861	10.3982	6.2571	9.2371	9.3939	1.4391	-2.2123	1.2905	-2.8451	5.3271	2.4434	4.9418	2.603
4.7217	6.0975	9.2508	6.7221	6.9257	11.0834	8.75	6.8102	11.1879	10.456	6.3617	9.3939	9.5012	1.4198	-2.2343	1.2465	-2.7929	5.3463	2.4682	4.9996	2.57
4.6777	6.1003	9.2453	6.7276	6.9808	11.1357	8.7776	6.8625	11.2898	10.4973	6.458	9.5287	9.5838	1.373	-2.3086	1.1557	-2.7186	5.3408	2.4599	5.0079	2.5617
4.6419	6.0975	9.2371	6.7524	7.0248	11.1742	8.8051	6.9422	11.3503	10.5523	6.568	9.6498	9.6663	1.3373	-2.3361	1.1061	-2.6553	5.3628	2.4984	5.0409	2.548
4.5814	6.0865	9.1958	6.7304	7.0606	11.1934	8.8161	6.9918	11.4383	10.5853	6.6781	9.7709	9.7571	1.3015	-2.3856	0.9796	-2.5672	5.3683	2.5067	5.0684	2.537
4.5319	6.0948	9.1628	6.7221	7.0963	11.2017	8.8271	7.0523	11.4934	10.6376	6.7882	9.903	9.8342	1.2575	-2.4654	0.8888	-2.4792	5.3738	2.4902	5.0849	2.548
4.4603	6.092	9.1022	6.6836	7.1321	11.21	8.8381	7.0936	11.5374	10.6651	6.9092	10.0103	9.9195	1.2079	-2.5205	0.7594	-2.3911	5.4206	2.5094	5.0849	2.5672
4.386	6.0672	9.0417	6.6588	7.1514	11.1962	8.8078	7.1321	11.5704	10.6734	7.0138	10.0901	9.9827	1.1749	-2.592	0.6466	-2.2948	5.4481	2.5315	5.1124	2.5782
4.2842	6.0645	8.9482	6.59	7.1624	11.1412	8.7803	7.1596	11.5704	10.6789	7.0771	10.1754	10.057	1.1061	-2.6635	0.5283	-2.1848	5.4757	2.5342	5.1262	2.5947
4.2044	6.048	8.8574	6.5433	7.1624	11.0999	8.7693	7.1596	11.5814	10.6596	7.1349	10.2386	10.1203	1.0621	-2.6966	0.4182	-2.0774	5.5169	2.5315	5.14	2.6058
4.0999	6.0342	8.739	6.4882	7.1871	11.0339	8.7198	7.1706	11.5457	10.6514	7.1899	10.2799	10.1699	0.9961	-2.7791	0.2999	-1.9646	5.5554	2.526	5.14	2.614
3.9843	5.9957	8.6455	6.425	7.1569	10.9651	8.6647	7.1706	11.5346	10.6431	7.2202	10.3184	10.2139	0.941	-2.8176	0.1816	-1.8573	5.5967	2.5315	5.1592	2.6333
3.8797	5.9627	8.5327	6.3259	7.1101	10.8495	8.596	7.1376	11.4906	10.6349	7.2367	10.3129	10.2276	0.875	-2.9029	0.0715	-1.7307	5.627	2.4847	5.1482	2.6278
3.7669	5.9187	8.3648	6.2351	7.0853	10.7257	8.5327	7.0936	11.4218	10.5908	7.2202	10.3047	10.2497	0.8117	-2.991	-0.0605	-1.5932	5.6628	2.4462	5.1537	2.6388
3.6816	5.8691	8.2217	6.1443	7.0193	10.6294	8.4446	7.0386	11.3228	10.5606	7.1871	10.2634	10.2634	0.7457	-3.0515	-0.1981	-1.4556	5.7013	2.4186	5.14	2.6443
3.555	5.8169	8.0511	6.0315	6.9753	10.4835	8.3511	6.9725	11.2237	10.4945	7.1349	10.2359	10.2579	0.6686	-3.1341	-0.3082	-1.3125	5.7701	2.3801	5.129	2.669
3.434	5.7536	7.8613	5.8939	6.8817	10.3515	8.2603	6.8955	11.1109	10.4258	7.1156	10.2276	10.2882	0.6053	-3.1836	-0.41	-1.1942	5.7893	2.3223	5.1207	2.6773
3.2992	5.6765	7.7044	5.7756	6.7937	10.1699	8.1254	6.8212	11.0036	10.368	7.0331	10.1836	10.2579	0.5393	-3.2524	-0.5421	-1.0594	5.8196	2.2811	5.1069	2.6608
3.2083	5.594	7.5476	5.6655	6.6974	10.013	8.0236	6.7331	10.9018	10.2992	7.0028	10.1589	10.2359	0.4898	-3.3157	-0.5971	-0.9631	5.8471	2.1958	5.0712	2.6745
3.068	5.5224	7.344	5.5362	6.6011	9.8452	7.8888	6.6506	10.8027	10.2304	6.9698	10.1231	10.2221	0.454	-3.3569	-0.7209	-0.8778	5.8856	2.1655	5.0382	2.6773
2.9497	5.4316	7.1596	5.3821	6.5213	9.6691	7.7677	6.5708	10.6789	10.1671	6.9257	10.0983	10.2276	0.4155	-3.39	-0.7815	-0.8145	5.9269	2.094	5.0216	2.6911
2.8424	5.3243	6.9643	5.261	6.436	9.5425	7.6659	6.4965	10.6074	10.1231	6.9257	10.1148	10.2386	0.4017	-3.4477	-0.831	-0.7759	5.9599	2.0362	5.0271	2.7076
2.7103	5.2583	6.7882	5.14	6.3424	9.3691	7.5311	6.4194	10.4945	10.0488	6.9037	10.0983	10.2276	0.377	-3.4587	-0.8778	-0.7209	5.9654	1.9729	4.9886	2.7213
2.6168	5.1895	6.6148	5.0134	6.2544	9.2068	7.4183	6.3644	10.39	9.9965	6.8762	10.1011	10.2084	0.3687	-3.511	-0.9273	-0.7017	6.0095	1.9344	4.9831	2.7268
2.5122	5.1069	6.4305	4.8676	6.1636	9.05	7.2862	6.2791	10.2937	9.9222	6.8569	10.0928	10.2001	0.3577	-3.5303	-0.9631	-0.6906	6.0287	1.8656	4.9556	2.7021
2.3856	5.0161	6.2709	4.7492	6.081	8.9454	7.1926	6.2103	10.2166	9.8672	6.8487	10.0956	10.1836	0.3495	-3.5495	-1.0016	-0.6934	6.0507	1.816	4.9611	2.6938
2.3031	4.9446	6.0975	4.6227	6.004	8.7803	7.0881	6.158	10.1148	9.8177	6.7964	10.0708	10.1836	0.3742	-3.5578	-1.0071	-0.7237	6.0893	1.7363	4.9694	2.6773
2.2233	4.8868	5.9572	4.5291	5.9379	8.6647	6.989	6.07	10.0213	9.7571	6.7304	10.0295	10.1644	0.399	-3.5908	-0.9878	-0.7539	6.1498	1.6647	4.9886	2.6525
2.1462	4.8153	5.8526	4.4245	5.8801	8.5684	6.9092	5.9737	9.9277	9.6828	6.6808	9.9745	10.1313	0.4237	-3.5688	-0.9796	-0.8007	6.1828	1.5767	4.9804	2.625
2.105	4.774	5.7288	4.3365	5.7893	8.4171	6.8047	5.8966	9.8424	9.6278	6.6478	9.9277	10.1038	0.4568	-3.5468	-0.9383	-0.8695	6.2323	1.5079	5.0216	2.5727
2.0279	4.6915	5.5912	4.254	5.726	8.3098	6.7139	5.8058	9.7241	9.5618	6.568	9.8424	10.0763	0.4898	-3.533	-0.8998	-0.9355	6.2736	1.4226	5.0299	2.5094
1.9674	4.6364	5.4867	4.1576	5.6435	8.186	6.6286	5.7095	9.6443	9.4792	6.469	9.7736	10.013	0.5145	-3.4697	-0.831	-1.0016	6.2819	1.3235	5.0657	2.4241
1.9068	4.5704	5.3849	4.0861	5.5334	8.0952	6.5295	5.6215	9.5315	9.4187	6.3589	9.6856	9.9607	0.5586	-3.401	-0.798	-1.0841	6.3286	1.2107	5.1097	2.3223
1.8848	4.5374	5.294	4.0311	5.4922	8.0236	6.4882	5.561	9.4462	9.3636	6.2846	9.625	9.9057	0.5998	-3.3734	-0.7347	-1.1694	6.3727	1.1144	5.1427	2.2315
1.8326	4.4878	5.2143	3.965	5.4261	7.9383	6.4305	5.4536	9.3526	9.3086	6.1883	9.5452	9.8534	0.6411	-3.2909	-0.6714	-1.2657	6.3947	1.0291	5.173	2.16
1.7858	4.4356	5.1317	3.8742	5.3491	7.853	6.3782	5.3904	9.2453	9.2178	6.1278	9.4627	9.7599	0.6879	-3.2579	-0.6274	-1.3565	6.4084	0.908	5.2115	2.0582
1.7445	4.3998	5.0739	3.8412	5.283	7.7842	6.3259	5.2885	9.1628	9.1463	6.0452	9.3829	9.6993	0.7319	-3.1781	-0.5916	-1.4583	6.4139	0.809	5.217	1.9756
1.739	4.3805	5.0382	3.8027	5.2528	7.765	6.3176	5.2583	9.1022	9.0912	6.004	9.3444	9.6416	0.809	-3.123	-0.5613	-1.5767	6.4387	0.7237	5.2803	1.8903
1.7005	4.331	4.9859	3.7477	5.1867	7.7292	6.2709	5.2115	9.0472	9.0307	5.9654	9.2866	9.5315	0.8447	-3.0818	-0.5366	-1.673	6.4194	0.6521	5.3133	1.805
1.6785	4.3172	4.9418	3.7201	5.14	7.6797	6.2488	5.1675	8.9702	8.9784	5.9352	9.2563	9.4407	0.9053	-3.0212	-0.5145	-1.783	6.4277	0.6081	5.3573	1.7335
1.6867	4.3062	4.9281	3.6871	5.1152	7.6604	6.2461	5.1372	8.9289	8.9289	5.9021	9.182	9.3802	0.9603	-2.9745	-0.4843	-1.8931	6.4002	0.5311	5.3793	1.6565
1.6482	4.2787	4.8951	3.6458	5.0822	7.6467	6.2378	5.1179	8.8601	8.8904	5.8829	9.1518	9.2618	1.0098	-2.9304	-0.5063	-1.9839	6.3837	0.4595	5.4234	1.5712
1.6427	4.2732	4.8923	3.6293	5.0574	7.6494	6.2296	5.0822	8.8106	8.8216	5.8554	9.0885	9.1793	1.0401	-2.8864	-0.4953	-2.0527	6.3204	0.399	5.4316	1.5134
1.5987	4.2457	4.8731	3.6046	5.0051	7.6081	6.2241	5.0519	8.7445	8.7445	5.8196	9.0142	9.0582	1.0814	-2.8451	-0.4705	-2.1242	6.2929	0.3329	5.4591	1.4253
1.5959	4.2457	4.8621	3.6101	4.9776	7.6081	6.2103	5.0134	8.662	8.6923	5.7646	8.9096	8.9509	1.1199	-2.8094	-0.4815	-2.1875	6.2268	0.2944	5.4784	1.3483
1.5904	4.2374	4.8345	3.6018	4.9446	7.5724	6.2158	4.9529	8.6125	8.6097	5.7205	8.7996	8.7968	1.1171	-2.7708	-0.509	-2.215	6.1498	0.2394	5.4646	1.2795
1.5904	4.2347	4.818	3.5936	4.8951	7.5476	6.2296	4.9226	8.5244	8.5189	5.6545	8.6978	8.673	1.1419	-2.7598	-0.4815	-2.2591	6.0645	0.1926	5.4784	1.1997
1.5546	4.2127	4.7988	3.5798	4.829	7.5311	6.2186	4.84	8.4364	8.4336	5.5802	8.5877	8.5327	1.1639	-2.7598	-0.5421	-2.2921	6.0012	0.1431	5.4729	1.1584
1.5326	4.2044	4.7823	3.5743	4.7933	7.5091	6.1966	4.7905	8.3456	8.3401	5.5087	8.4556	8.3758	1.1694	-2.7708	-0.5613	-2.3086	5.9104	0.0991	5.4591	1.1226
1.4776	4.1521	4.7272	3.5606	4.7162	7.4568	6.1608	4.7025	8.2382	8.2327	5.4069	8.3043	8.2245	1.1777	-2.7901	-0.6384	-2.3168	5.8141	0.0688	5.4179	1.0786
1.4693	4.1219	4.6777	3.5358	4.6832	7.3935	6.1525	4.6227	8.1419	8.1172	5.3243	8.1474	8.0401	1.1804	-2.8341	-0.7072	-2.3306	5.704	0.066	5.3849	1.0759
1.3923	4.0861	4.6392	3.5083	4.6144	7.3467	6.1113	4.5676	8.0374	8.0154	5.2638	8.0319	7.8833	1.1832	-2.9084	-0.7622	-2.3223	5.5885	0.0303	5.3381	1.0539
1.3345	4.0366	4.5621	3.478	4.5484	7.2642	6.0948	4.4576	7.9108	7.897	5.1867	7.886	7.7099	1.1887	-2.9607	-0.8475	-2.3278	5.4977	0.0358	5.2968	1.0456
1.2905	3.9843	4.5098	3.4395	4.5098	7.2147	6.0507	4.4108	7.8173	7.7952	5.1537	7.765	7.5421	1.1832	-2.9882	-0.908	-2.3361	5.3986	0.0495	5.2665	1.0704
1.23	3.954	4.4163	3.4037	4.4383	7.1569	6.0205	4.3778	7.7182	7.6797	5.1152	7.6962	7.3935	1.1859	-3.0433	-1.0016	-2.3333	5.2913	0.0715	5.2115	1.1006
1.1639	3.8935	4.331	3.3762	4.375	7.1101	5.9572	4.3255	7.6522	7.5614	5.1124	7.6026	7.2587	1.1804	-3.0845	-1.0676	-2.3333	5.162	0.0991	5.1537	1.1199
1.0896	3.844	4.254	3.3597	4.3172	7.022	5.9269	4.3035	7.5614	7.4733	5.1345	7.5256	7.1184	1.1887	-3.1561	-1.1337	-2.3416	5.0904	0.1211	5.1235	1.1804
1.0429	3.7999	4.1797	3.3129	4.2815	6.9588	5.9049	4.276	7.4926	7.3935	5.1455	7.4733	6.9918	1.1942	-3.1891	-1.1887	-2.3526	4.9914	0.1541	5.0629	1.2107
0.9768	3.7367	4.0751	3.2661	4.2127	6.89	5.8416	4.2567	7.4045	7.3	5.1647	7.4018	6.8625	1.1887	-3.2028	-1.2465	-2.3361	4.8923	0.1678	5.0079	1.2355
0.9053	3.6706	3.9705	3.2414	4.1521	6.8129	5.8058	4.2017	7.333	7.2174	5.1592	7.3165	6.7359	1.1832	-3.2276	-1.2465	-2.3306	4.7602	0.1651	4.9584	1.2382
0.8557	3.6211	3.899	3.2359	4.1026	6.7359	5.7591	4.1907	7.2752	7.1541	5.173	7.2779	6.6643	1.1804	-3.2414	-1.263	-2.3333	4.6859	0.1871	4.9171	1.263
0.7732	3.555	3.7779	3.2001	4.0311	6.6671	5.726	4.1494	7.1899	7.0826	5.1675	7.1899	6.5295	1.1804	-3.2194	-1.274	-2.3251	4.5814	0.1733	4.8428	1.263
0.7732	3.5028	3.7146	3.1973	4.0036	6.5983	5.6848	4.1164	7.1321	7.011	5.1592	7.1266	6.4387	1.1969	-3.1836	-1.23	-2.3609	4.5043	0.1623	4.8043	1.263
0.7677	3.4945	3.6431	3.2028	3.954	6.5323	5.671	4.1109	7.0661	6.967	5.1867	7.0881	6.3617	1.2107	-3.123	-1.1612	-2.3829	4.4301	0.1458	4.7878	1.2382
0.7484	3.4422	3.5578	3.1781	3.9017	6.4662	5.627	4.0393	7	6.923	5.1592	7	6.2736	1.2217	-3.079	-1.0869	-2.4049	4.3585	0.1458	4.741	1.1887
0.7539	3.423	3.4973	3.1973	3.8605	6.4139	5.6077	4.0283	6.9422	6.8707	5.1372	6.9533	6.2131	1.23	-2.9882	-1.0043	-2.4489	4.2622	0.1183	4.6942	1.1557
0.7484	3.4092	3.4395	3.1973	3.822	6.3562	5.5912	3.9898	6.8845	6.8404	5.0932	6.879	6.1085	1.252	-2.8974	-0.8888	-2.4737	4.1962	0.1101	4.6447	1.1337
0.7842	3.4037	3.412	3.2056	3.8109	6.3204	5.5857	3.9815	6.8514	6.8239	5.0849	6.8377	6.0507	1.2712	-2.8149	-0.7842	-2.5149	4.1549	0.0936	4.5979	1.0924
0.8172	3.4285	3.4092	3.2386	3.8275	6.3066	5.583	4.0008	6.8184	6.8102	5.1014	6.8267	5.9985	1.2987	-2.6333	-0.6191	-2.5755	4.0778	0.1073	4.5731	1.0676
0.8695	3.4587	3.4202	3.2771	3.8357	6.3011	5.5995	4.0118	6.8322	6.8239	5.1207	6.8184	5.9489	1.3318	-2.5177	-0.4925	-2.6278	4.0173	0.1128	4.5264	1.0484
0.9548	3.5055	3.4312	3.3377	3.888	6.2956	5.5995	4.0476	6.7992	6.7964	5.1565	6.8047	5.9021	1.3483	-2.3388	-0.3274	-2.6828	3.9568	0.1403	4.4741	1.0429
0.9933	3.5523	3.4587	3.3817	3.9568	6.3039	5.6215	4.1136	6.8322	6.8184	5.2308	6.8404	5.8801	1.3923	-2.1793	-0.1706	-2.7296	3.9238	0.1568	4.4466	1.0181
1.0731	3.6238	3.4863	3.4257	4.0393	6.3286	5.6518	4.1714	6.8762	6.8404	5.3023	6.8982	5.8499	1.4171	-2.0004	-0.0055	-2.7763	3.8715	0.1871	4.375	1.0236
1.1749	3.7174	3.5495	3.5028	4.1274	6.3809	5.6848	4.265	6.923	6.8625	5.3711	6.934	5.8416	1.4363	-1.8023	0.1513	-2.8286	3.8164	0.2064	4.3392	1.0263
1.252	3.7724	3.6046	3.5606	4.2044	6.4552	5.715	4.3282	6.9835	6.9037	5.4344	6.978	5.8416	1.4473	-1.6592	0.3137	-2.8561	3.7642	0.2284	4.2952	1.0071
1.329	3.8605	3.6734	3.6376	4.3145	6.4937	5.7508	4.4383	7.0303	6.9065	5.5307	7	5.8306	1.4611	-1.4859	0.487	-2.8892	3.7174	0.2421	4.2457	1.0043
1.4171	3.9375	3.7422	3.6981	4.4218	6.557	5.8003	4.5154	7.0826	6.956	5.6105	7.0413	5.8141	1.4748	-1.3345	0.6301	-2.9167	3.6706	0.2642	4.1934	0.9713
1.5024	4.0668	3.8027	3.7917	4.5374	6.6148	5.8609	4.6034	7.1514	6.967	5.6655	7.0936	5.8224	1.4693	-1.1749	0.7704	-2.9359	3.6403	0.2779	4.1274	0.9658
1.6014	4.1081	3.91	3.8605	4.6364	6.6974	5.8829	4.6887	7.2064	7.011	5.715	7.1404	5.8086	1.4831	-1.0346	0.8998	-2.9525	3.5881	0.2669	4.0751	0.952
1.6565	4.2099	4.0036	3.9458	4.763	6.8074	5.9627	4.7685	7.311	7.0551	5.7948	7.1954	5.8306	1.5134	-0.9053	1.0401	-2.9992	3.5771	0.2614	4.0421	0.9465
1.7528	4.3282	4.0723	4.0421	4.9088	6.9257	6.0397	4.8978	7.4293	7.1184	5.8306	7.2174	5.8334	1.5299	-0.787	1.1419	-3.0212	3.5385	0.2889	4.0036	0.9245
1.8078	4.386	4.1797	4.1219	5.0189	7.011	6.1085	4.9859	7.5036	7.1734	5.8746	7.2807	5.8361	1.5381	-0.6962	1.2355	-3.035	3.489	0.2779	3.9403	0.9108
1.9124	4.5071	4.3007	4.2017	5.1647	7.1211	6.2021	5.0794	7.6054	7.2036	5.9242	7.3467	5.8554	1.5409	-0.6026	1.3483	-3.0653	3.4477	0.2779	3.8852	0.8943
1.9949	4.5924	4.386	4.3035	5.2885	7.2477	6.2709	5.1895	7.7127	7.2559	6.0067	7.421	5.8691	1.5519	-0.509	1.4253	-3.0845	3.4037	0.2669	3.8632	0.8778
2.0637	4.697	4.5126	4.3613	5.4454	7.3522	6.3672	5.3381	7.842	7.3137	6.07	7.5091	5.9159	1.5519	-0.454	1.4996	-3.0928	3.3652	0.2559	3.8137	0.8667
2.1325	4.8015	4.6089	4.4328	5.6132	7.5008	6.4305	5.4729	7.9989	7.3908	6.1663	7.6356	5.9599	1.5657	-0.4017	1.5767	-3.09	3.3294	0.2339	3.7504	0.8667
2.2178	4.9391	4.7245	4.5071	5.8058	7.6577	6.5213	5.6132	8.1392	7.4403	6.2764	7.7705	5.993	1.5684	-0.3274	1.6207	-3.0845	3.2936	0.2531	3.7284	0.875
2.3058	5.0519	4.8565	4.5979	5.9985	7.8283	6.6341	5.7921	8.3428	7.5614	6.4442	7.9493	6.092	1.5574	-0.2999	1.7087	-3.0818	3.2826	0.2834	3.7091	0.919
2.4324	5.2005	4.9941	4.73	6.2158	8.0401	6.7661	6.0095	8.5684	7.6797	6.6066	8.1612	6.2021	1.5491	-0.2366	1.8078	-3.0735	3.2716	0.3357	3.7119	0.9686
2.559	5.3738	5.1812	4.8318	6.4497	8.2437	6.9175	6.2433	8.7996	7.8393	6.8239	8.3923	6.3479	1.5464	-0.1733	1.9096	-3.0543	3.2826	0.366	3.7229	1.0181
2.6883	5.5554	5.3381	4.9501	6.6974	8.4694	7.0743	6.4662	9.0335	7.9796	7.0138	8.6345	6.491	1.5299	-0.1046	2.0059	-3.0212	3.2826	0.432	3.7394	1.0759
2.8314	5.726	5.5334	5.0822	6.9422	8.6785	7.2147	6.7194	9.2563	8.1474	7.2422	8.9014	6.6561	1.5024	-0.0275	2.127	-2.9772	3.3019	0.4788	3.7724	1.1419
2.9772	5.9077	5.715	5.2198	7.1926	8.9234	7.399	6.967	9.537	8.329	7.4485	9.1518	6.8102	1.4859	0.0633	2.2205	-2.9359	3.3432	0.5366	3.8027	1.1942
3.1258	6.0975	5.8829	5.3463	7.443	9.138	7.5503	7.1981	9.7764	8.5134	7.6769	9.3774	6.9835	1.4473	0.1458	2.3471	-2.8699	3.3349	0.6301	3.8137	1.2492
3.3102	6.2956	6.0893	5.4839	7.6907	9.3664	7.7265	7.4128	10.0185	8.6978	7.864	9.614	7.1651	1.4143	0.2284	2.4627	-2.8066	3.3652	0.6769	3.8577	1.2877
3.456	6.4882	6.2846	5.6352	7.9493	9.5783	7.9053	7.6604	10.2717	8.8904	8.0676	9.8424	7.3522	1.373	0.3219	2.57	-2.7268	3.4092	0.7319	3.91	1.3675
3.6348	6.6891	6.491	5.8003	8.164	9.8066	8.0731	7.8613	10.4973	9.0802	8.2437	10.0708	7.5008	1.3263	0.3907	2.6911	-2.636	3.4285	0.798	3.9513	1.4088
3.8137	6.879	6.7276	5.9572	8.4226	10.0405	8.2823	8.0842	10.7614	9.3086	8.4556	10.2964	7.7017	1.2905	0.4843	2.8121	-2.548	3.489	0.8502	4.0393	1.4721
4.0311	7.0743	6.9367	6.1278	8.662	10.2882	8.4859	8.2988	10.9733	9.504	8.618	10.5331	7.8888	1.23	0.5861	2.9497	-2.4352	3.511	0.919	4.0916	1.5326
4.2237	7.3	7.1376	6.3149	8.8684	10.5	8.6482	8.4996	11.2155	9.7103	8.7913	10.7725	8.0594	1.1777	0.6549	3.0598	-2.3168	3.5688	0.9686	4.1631	1.5877
4.4301	7.454	7.355	6.4717	9.1243	10.6982	8.8381	8.6895	11.4136	9.9195	8.9482	10.9651	8.2575	1.1089	0.7319	3.1368	-2.182	3.5991	1.0456	4.1934	1.6207
4.6117	7.6769	7.5944	6.6478	9.3279	10.899	9.0087	8.8959	11.6392	10.1121	9.1243	11.2265	8.4529	1.0373	0.7952	3.2469	-2.0472	3.6458	1.1529	4.2595	1.6977
4.8345	7.8805	7.8035	6.8102	9.548	11.1109	9.2041	9.0912	11.8621	10.3074	9.3141	11.4604	8.6207	0.9686	0.8695	3.3487	-1.9068	3.6541	1.2272	4.3062	1.761
5.0244	8.0704	8.0429	7.0138	9.7681	11.3145	9.3774	9.2783	12.0905	10.5111	9.5012	11.6997	8.8161	0.919	0.9741	3.4863	-1.7913	3.7256	1.3125	4.3723	1.8133
5.2198	8.2603	8.2355	7.1789	9.9635	11.5099	9.5425	9.4682	12.2968	10.7257	9.6608	11.9281	9.0004	0.8557	1.0456	3.5468	-1.6647	3.7449	1.4363	4.4301	1.9151
5.4316	8.4584	8.4529	7.3467	10.1368	11.6887	9.7351	9.6361	12.5087	10.9348	9.8507	12.173	9.1765	0.7842	1.0979	3.6211	-1.5436	3.7862	1.5464	4.4686	1.9949
5.6407	8.6455	8.6647	7.5366	10.3405	11.8621	9.9057	9.8342	12.7233	11.1357	10.046	12.4152	9.3774	0.7154	1.1612	3.7311	-1.4198	3.8357	1.6482	4.5181	2.0885
5.8306	8.8326	8.8684	7.7209	10.5303	12.0657	10.068	10.013	12.9214	11.3145	10.2166	12.6353	9.548	0.6714	1.23	3.8027	-1.318	3.8797	1.761	4.5759	2.1572
6.0205	8.9784	9.0775	7.8888	10.6954	12.2473	10.2414	10.1644	13.103	11.5126	10.3845	12.8169	9.7296	0.6219	1.2602	3.8412	-1.2107	3.9045	1.8656	4.6172	2.2205
6.1663	9.127	9.2481	8.0484	10.8688	12.4096	10.39	10.3019	13.2819	11.7025	10.5276	13.0205	9.903	0.5778	1.307	3.8825	-1.1226	3.932	1.9701	4.6804	2.3196
6.3204	9.2756	9.4407	8.2025	10.9953	12.572	10.5496	10.4258	13.4387	11.8786	10.6266	13.1801	10.0378	0.5256	1.3153	3.9183	-1.0346	3.9788	2.0609	4.73	2.3636
6.436	9.3939	9.6085	8.3566	11.1026	12.7041	10.6872	10.5413	13.5681	12.0107	10.6872	13.3177	10.2084	0.5008	1.3483	3.9595	-0.9686	3.9898	2.1352	4.7712	2.3801
6.557	9.4792	9.7681	8.4996	11.221	12.8416	10.8385	10.6239	13.6891	12.195	10.7559	13.4085	10.3102	0.4705	1.3345	3.965	-0.919	4.0421	2.2095	4.8125	2.4407
6.6561	9.5783	9.9002	8.6372	11.276	12.9847	10.9816	10.6706	13.7827	12.3326	10.7642	13.491	10.4368	0.4595	1.329	3.9815	-0.886	4.0668	2.2756	4.8786	2.4407
6.7689	9.6966	10.0653	8.7721	11.3833	13.1168	11.1054	10.7367	13.9093	12.4894	10.811	13.5571	10.5523	0.4513	1.318	3.9925	-0.875	4.1164	2.3554	4.9391	2.4764
6.8597	9.7296	10.1589	8.8986	11.4191	13.2131	11.2182	10.7394	13.9725	12.6078	10.7559	13.6148	10.6349	0.4485	1.3125	3.9925	-0.8667	4.1301	2.3856	4.9804	2.4517
6.945	9.7791	10.3047	9.028	11.4466	13.3232	11.3393	10.7532	14.0358	12.7151	10.7229	13.6424	10.7147	0.454	1.3153	4.0146	-0.8888	4.1659	2.4709	5.0244	2.4682
6.9835	9.8259	10.4147	9.1325	11.4714	13.4332	11.4521	10.767	14.0854	12.8031	10.6679	13.6479	10.7697	0.4733	1.2822	3.9925	-0.908	4.1714	2.4819	5.0602	2.4599
7.0661	9.8562	10.5193	9.2591	11.5016	13.5295	11.5539	10.7532	14.1239	12.9049	10.6211	13.6479	10.833	0.4788	1.2877	4.0311	-0.952	4.1797	2.5342	5.1042	2.4434
7.1321	9.8754	10.6101	9.3636	11.5016	13.6121	11.653	10.7367	14.2037	12.9985	10.5551	13.6314	10.8825	0.5173	1.2657	4.0558	-0.9961	4.2127	2.5507	5.1675	2.3994
7.1734	9.9112	10.6927	9.4462	11.4741	13.6946	11.752	10.7229	14.1927	13.07	10.4808	13.5873	10.9018	0.5256	1.252	4.0613	-1.0346	4.2292	2.5755	5.228	2.3801
7.2367	9.9057	10.7725	9.5425	11.4851	13.7689	11.8291	10.7009	14.2257	13.1416	10.423	13.5901	10.9458	0.5503	1.2382	4.1136	-1.0841	4.2484	2.5892	5.2803	2.3691
7.2889	9.9057	10.844	9.6498	11.4686	13.846	11.9199	10.6651	14.2642	13.2214	10.3652	13.5653	10.9761	0.5971	1.263	4.1879	-1.1474	4.2925	2.6305	5.3491	2.3223
7.3522	9.936	10.932	9.7461	11.4686	13.9038	11.9914	10.6321	14.2697	13.2516	10.2744	13.5213	11.0008	0.6136	1.2547	4.254	-1.2107	4.3062	2.6443	5.3986	2.3278
7.3963	9.9195	10.9816	9.8177	11.4438	13.945	12.0492	10.5798	14.2422	13.2847	10.2056	13.4525	11.0146	0.6549	1.263	4.32	-1.2905	4.342	2.6553	5.4894	2.3031
7.4375	9.9057	11.0008	9.8919	11.4081	13.9725	12.0905	10.5221	14.2532	13.3122	10.0956	13.3617	11.0201	0.6962	1.2822	4.4163	-1.373	4.3778	2.6498	5.5499	2.2591
7.454	9.8782	11.0311	9.9883	11.3585	13.9863	12.1345	10.4285	14.2037	13.3039	9.98	13.2489	10.9816	0.7457	1.3015	4.5016	-1.4638	4.3998	2.6305	5.6105	2.226
7.4926	9.8562	11.0449	10.013	11.3228	13.9808	12.1593	10.3432	14.1294	13.3287	9.8314	13.1251	10.9486	0.7952	1.3263	4.5924	-1.5657	4.4383	2.6168	5.7095	2.1655
7.4953	9.7901	11.0339	10.0625	11.232	13.9285	12.1455	10.2084	14.0111	13.2764	9.6443	12.949	10.8798	0.842	1.3428	4.6667	-1.6785	4.4631	2.581	5.7618	2.094
7.5173	9.7379	11.0118	10.0983	11.1219	13.8652	12.1538	10.0846	13.9065	13.2406	9.4269	12.7206	10.8027	0.9135	1.3593	4.7465	-1.7913	4.4933	2.5425	5.8389	2.0114
7.5228	9.6663	10.9761	10.1093	11.0118	13.7744	12.1262	9.9442	13.7717	13.1553	9.1985	12.5032	10.7009	0.9658	1.362	4.8373	-1.8986	4.5209	2.4957	5.8994	1.9179
7.5256	9.57	10.9183	10.1203	10.8963	13.6699	12.0932	9.7791	13.6093	13.092	8.9757	12.2638	10.5633	1.0098	1.3648	4.9061	-2.0059	4.5264	2.4407	5.9737	1.8215
7.5091	9.4985	10.8715	10.1093	10.7807	13.5571	12.0574	9.6085	13.4277	12.9655	8.706	11.9666	10.3982	1.0594	1.3785	4.9996	-2.0967	4.5291	2.3746	6.0067	1.7197
7.5201	9.4049	10.8137	10.1396	10.6541	13.4497	12.0107	9.4517	13.2654	12.8857	8.4556	11.7273	10.2717	1.1226	1.4418	5.1235	-2.2068	4.5649	2.3306	6.092	1.6372
7.5146	9.3196	10.7752	10.1231	10.5386	13.3039	11.9611	9.2838	13.0563	12.7481	8.208	11.4383	10.1038	1.1557	1.4886	5.2225	-2.2948	4.5539	2.2921	6.114	1.5712
7.5036	9.2618	10.6872	10.0956	10.412	13.1608	11.8924	9.1298	12.8527	12.6298	7.9686	11.1659	9.914	1.1914	1.5161	5.3023	-2.3691	4.5676	2.2701	6.1828	1.5271
7.4926	9.171	10.6074	10.0846	10.2937	13.0315	11.8318	8.9784	12.6408	12.4839	7.7457	10.899	9.7406	1.241	1.5712	5.4261	-2.4352	4.5704	2.2535	6.2213	1.4611
7.5283	9.127	10.5551	10.0846	10.2194	12.9269	11.7768	8.8739	12.5197	12.3794	7.5448	10.6954	9.5755	1.274	1.6427	5.5334	-2.5067	4.5731	2.2948	6.2461	1.4556
7.5421	9.0582	10.5083	10.068	10.1258	12.7839	11.6997	8.7528	12.3326	12.2446	7.399	10.4753	9.3967	1.2877	1.7087	5.66	-2.5535	4.5786	2.3058	6.2736	1.4556
7.5586	8.9867	10.4092	10.0405	10.0185	12.6518	11.6227	8.6427	12.1675	12.085	7.2367	10.2469	9.2453	1.296	1.7913	5.7756	-2.592	4.5814	2.3416	6.3011	1.4666
7.5806	8.9592	10.3735	10.0488	9.969	12.561	11.5759	8.5574	12.0134	11.9776	7.1376	10.0625	9.0995	1.3235	1.8381	5.8471	-2.6195	4.5951	2.3801	6.3507	1.5079
7.5971	8.9206	10.3212	10.0543	9.9112	12.4784	11.5126	8.5079	11.8731	11.8593	7.0441	9.8837	8.9482	1.329	1.8848	5.9544	-2.636	4.6227	2.4269	6.3617	1.5519
7.6026	8.8821	10.2909	10.0268	9.8369	12.3711	11.4466	8.4309	11.7355	11.7383	6.956	9.6911	8.8051	1.3455	1.9564	6.015	-2.6553	4.6364	2.4874	6.3919	1.6042
7.6109	8.8271	10.2442	10.0268	9.7984	12.2776	11.4191	8.3621	11.6199	11.642	6.8625	9.5232	8.7143	1.3565	1.9866	6.0672	-2.6718	4.6667	2.5535	6.4305	1.6812
7.6081	8.761	10.1616	9.98	9.7021	12.1455	11.3448	8.2933	11.4493	11.4879	6.7469	9.3361	8.5519	1.3428	2.0362	6.103	-2.658	4.6777	2.5782	6.4305	1.7005
7.5861	8.7225	10.1176	9.958	9.6278	12.0629	11.2705	8.1942	11.3118	11.3723	6.6148	9.1408	8.3978	1.3373	2.0637	6.0838	-2.6278	4.6859	2.5892	6.4194	1.7335
7.5806	8.6675	10.0488	9.9085	9.5618	11.9446	11.2017	8.0924	11.1357	11.2595	6.5185	8.9316	8.2658	1.329	2.0719	6.0948	-2.6002	4.6694	2.6113	6.436	1.7803
7.5338	8.596	9.9855	9.8534	9.4544	11.8483	11.1412	7.9603	10.9651	11.1026	6.3699	8.717	8.1007	1.2795	2.0664	6.048	-2.5452	4.6612	2.614	6.4194	1.8023
7.5063	8.5162	9.925	9.8204	9.3774	11.7355	11.0586	7.8475	10.8275	10.9761	6.2433	8.5299	7.9631	1.2575	2.0857	5.9957	-2.4902	4.6667	2.6195	6.4029	1.8298
7.454	8.4419	9.8397	9.7269	9.2728	11.6144	10.9733	7.7347	10.6596	10.8192	6.1058	8.318	7.8255	1.2107	2.1022	5.9379	-2.4159	4.6419	2.5727	6.3617	1.8436
7.399	8.3511	9.7434	9.6498	9.1793	11.5044	10.8688	7.6329	10.4973	10.7009	5.9985	8.1117	7.6824	1.1722	2.0857	5.8581	-2.3168	4.6337	2.5452	6.3369	1.8491
7.3357	8.2603	9.6773	9.581	9.0692	11.3943	10.7862	7.5118	10.357	10.5688	5.8581	7.9438	7.5476	1.1226	2.0554	5.7838	-2.204	4.5924	2.526	6.2874	1.8601
7.2614	8.1832	9.5893	9.4682	8.9647	11.2787	10.6789	7.4045	10.2221	10.4588	5.7508	7.7952	7.4045	1.0484	1.9866	5.6848	-2.0802	4.5621	2.4874	6.2213	1.8436
7.1734	8.0842	9.482	9.3691	8.8629	11.1577	10.5743	7.3027	10.0791	10.3405	5.6683	7.6604	7.2917	0.9906	1.9674	5.5582	-1.9619	4.5016	2.4269	6.1608	1.8326
7.0551	7.9658	9.3829	9.2563	8.7528	11.0256	10.4753	7.2174	9.9497	10.2084	5.5857	7.5283	7.1789	0.93	1.9096	5.4399	-1.8243	4.4603	2.3554	6.081	1.8326
6.978	7.8585	9.2811	9.1188	8.6675	10.9238	10.3515	7.1349	9.8452	10.1203	5.5114	7.4348	7.0716	0.853	1.8381	5.3216	-1.6922	4.4108	2.3113	6.0067	1.8215
6.8432	7.7787	9.1738	9.0087	8.607	10.7972	10.2414	7.0496	9.7406	10.024	5.4729	7.333	6.9945	0.7925	1.75	5.173	-1.5546	4.342	2.2563	5.8939	1.7995
6.7551	7.6824	9.0527	8.8711	8.5327	10.7202	10.1368	7.0055	9.6718	9.9497	5.4784	7.3082	6.9312	0.7154	1.662	5.0492	-1.4116	4.276	2.1985	5.8224	1.8023
6.6121	7.5724	8.9316	8.7308	8.4611	10.6046	10.024	6.9422	9.5893	9.8644	5.4509	7.2339	6.8597	0.6494	1.5657	4.8896	-1.2712	4.2182	2.1627	5.7316	1.7968
6.502	7.4788	8.8353	8.6152	8.3868	10.5111	9.9277	6.9037	9.548	9.7819	5.4289	7.2036	6.7992	0.5943	1.4638	4.7437	-1.1447	4.1769	2.105	5.6463	1.7803
6.3727	7.3935	8.7143	8.4804	8.318	10.4147	9.8149	6.868	9.4737	9.7296	5.4399	7.1596	6.7606	0.5311	1.362	4.5814	-1.0291	4.1219	2.0747	5.5665	1.7638
6.2461	7.3137	8.6097	8.3786	8.296	10.3405	9.7269	6.8652	9.4407	9.6608	5.4454	7.1734	6.7441	0.4815	1.2575	4.4603	-0.9328	4.0861	2.0224	5.5197	1.7555
6.136	7.2504	8.5244	8.2437	8.2493	10.2772	9.6195	6.8377	9.4132	9.6223	5.4619	7.1514	6.7496	0.4348	1.1969	4.3227	-0.853	4.0448	1.9977	5.4399	1.739
6.0342	7.1844	8.4254	8.1474	8.23	10.2524	9.559	6.8514	9.4297	9.6223	5.4757	7.1596	6.7551	0.4182	1.1171	4.2099	-0.798	4.0586	1.9729	5.4041	1.728
5.9352	7.1266	8.3235	8.0456	8.2025	10.1919	9.482	6.8459	9.4077	9.592	5.4922	7.1844	6.7551	0.3852	1.0429	4.0861	-0.7512	4.0283	1.9344	5.3381	1.7087
5.8389	7.0386	8.241	7.9163	8.1722	10.1589	9.4132	6.8322	9.3802	9.5645	5.4922	7.1871	6.7606	0.3605	0.9713	4.0201	-0.7099	3.976	1.8876	5.2913	1.6344
5.7453	6.9918	8.1722	7.8585	8.1777	10.1176	9.3747	6.8735	9.4214	9.5838	5.5197	7.2559	6.8019	0.3715	0.9273	3.9595	-0.7154	3.9678	1.8601	5.261	1.6124
5.6628	6.9312	8.0649	7.7457	8.1529	10.0791	9.3196	6.8927	9.4187	9.5645	5.5554	7.2862	6.8157	0.3632	0.864	3.9017	-0.7127	3.943	1.8215	5.2253	1.5739
5.6022	6.901	7.9961	7.6797	8.1612	10.0708	9.2591	6.9065	9.4655	9.57	5.605	7.3605	6.8652	0.3962	0.8695	3.8907	-0.7567	3.943	1.7995	5.2032	1.5409
5.5362	6.8707	7.9548	7.6109	8.1612	10.0625	9.2398	6.9725	9.4985	9.603	5.6738	7.4595	6.9147	0.4265	0.853	3.9073	-0.809	3.9485	1.7995	5.2005	1.5271
5.4509	6.8019	7.8778	7.5063	8.1392	10.0185	9.171	6.9808	9.515	9.5975	5.7343	7.5366	6.978	0.4348	0.831	3.866	-0.842	3.91	1.7775	5.1647	1.4831
5.3986	6.7634	7.8007	7.4265	8.1364	10.0158	9.1077	7.0248	9.5645	9.6003	5.8003	7.6329	7.0248	0.4623	0.8392	3.8935	-0.9245	3.877	1.7803	5.1207	1.4418
5.3408	6.7496	7.7512	7.3632	8.1584	10.002	9.1105	7.1128	9.6361	9.6416	5.9049	7.7595	7.1266	0.52	0.864	3.9375	-1.0126	3.8907	1.8105	5.129	1.4446
5.2775	6.7139	7.6742	7.3027	8.1915	10.0103	9.094	7.1651	9.6828	9.6553	6.0012	7.9026	7.2449	0.5723	0.8833	3.9568	-1.1116	3.866	1.805	5.1097	1.4363
5.2335	6.7056	7.6522	7.2477	8.197	10.0103	9.0582	7.2422	9.7516	9.7269	6.1278	8.0401	7.3302	0.6301	0.9383	4.0146	-1.2162	3.8797	1.8408	5.1097	1.4143
5.1647	6.6561	7.5669	7.1926	8.197	9.9965	9.0224	7.2862	9.7956	9.7186	6.2241	8.1419	7.4073	0.6631	0.9768	4.0531	-1.3015	3.877	1.8408	5.1097	1.4061
5.1042	6.6533	7.5146	7.1541	8.2245	9.9965	9.0224	7.377	9.8507	9.7846	6.3259	8.2768	7.5256	0.7182	1.0263	4.0944	-1.4061	3.8742	1.8408	5.1069	1.3868
5.0299	6.6451	7.4458	7.0936	8.2245	9.9883	8.9949	7.4348	9.8947	9.8039	6.4305	8.3813	7.6164	0.7787	1.0979	4.1026	-1.5024	3.899	1.8381	5.129	1.3813
4.9556	6.5983	7.399	7.0496	8.2327	9.9993	8.9757	7.4678	9.925	9.8149	6.4937	8.4776	7.6989	0.8062	1.1502	4.1384	-1.5794	3.8715	1.8436	5.1207	1.351
4.8786	6.5625	7.333	7	8.2025	9.9635	8.9482	7.5091	9.9305	9.8232	6.5515	8.5464	7.7567	0.8475	1.1887	4.1411	-1.6537	3.8495	1.8215	5.1152	1.2987
4.8043	6.5378	7.2449	6.9753	8.2135	9.9497	8.9289	7.5091	9.9415	9.8369	6.6066	8.6097	7.8228	0.8833	1.2382	4.1191	-1.7197	3.8467	1.8408	5.1152	1.274
4.7437	6.5103	7.1816	6.945	8.1887	9.9222	8.9151	7.5311	9.914	9.8589	6.6396	8.651	7.8833	0.8998	1.285	4.1356	-1.783	3.8247	1.8188	5.1345	1.23
4.6749	6.4772	7.1073	6.9092	8.1695	9.8782	8.8931	7.5283	9.9085	9.8452	6.6588	8.6813	7.9191	0.9218	1.318	4.1384	-1.8326	3.822	1.805	5.1262	1.2245
4.6474	6.469	7.0523	6.8762	8.1557	9.8782	8.8849	7.5338	9.8892	9.8644	6.6808	8.7115	7.9631	0.9603	1.3648	4.1191	-1.8683	3.8027	1.7858	5.1152	1.1804
4.5814	6.425	6.9698	6.8487	8.1144	9.8452	8.8243	7.5146	9.8562	9.8259	6.6726	8.7088	7.9686	0.9576	1.4143	4.1191	-1.8848	3.7504	1.7803	5.0877	1.1474
4.5374	6.4029	6.9202	6.8294	8.1007	9.8094	8.8188	7.5063	9.8452	9.8066	6.6891	8.7088	7.9879	0.9576	1.4473	4.0916	-1.8903	3.7146	1.7693	5.0849	1.1144
4.5181	6.3892	6.879	6.8184	8.1007	9.8066	8.8051	7.5173	9.8149	9.8011	6.6808	8.7253	7.9768	0.9576	1.4638	4.0723	-1.8821	3.6486	1.7445	5.0767	1.1144
4.4603	6.3699	6.7717	6.7909	8.0814	9.7736	8.7831	7.4898	9.7956	9.7764	6.6836	8.7225	7.9438	0.9273	1.5189	4.0503	-1.8353	3.5771	1.7418	5.0106	1.0951
4.4328	6.3672	6.7772	6.7909	8.0731	9.7929	8.7583	7.4788	9.7846	9.7461	6.6753	8.706	7.9356	0.9025	1.5464	4.0421	-1.7803	3.4973	1.7307	5.0079	1.0621
4.4328	6.3754	6.7359	6.7992	8.0594	9.7709	8.7665	7.4733	9.7791	9.7626	6.6836	8.7115	7.8915	0.8695	1.5849	4.0723	-1.7225	3.412	1.7775	4.9804	1.0731
4.4218	6.3699	6.7029	6.8212	8.0842	9.7846	8.7693	7.5008	9.7929	9.7269	6.7001	8.7115	7.8915	0.842	1.5794	4.0256	-1.6317	3.3459	1.7693	4.9639	1.0594
4.408	6.4057	6.6781	6.8157	8.0924	9.8011	8.7721	7.4733	9.7764	9.7213	6.6726	8.7143	7.8503	0.7925	1.6042	4.0668	-1.5299	3.2524	1.7858	4.9033	1.0456
4.3888	6.4139	6.6781	6.8349	8.0814	9.8122	8.7803	7.443	9.7736	9.6938	6.6368	8.64	7.7952	0.7237	1.6152	4.0228	-1.4116	3.1533	1.816	4.8621	1.0429
4.3833	6.4222	6.6643	6.8349	8.1089	9.8094	8.7748	7.41	9.7489	9.6636	6.5818	8.5822	7.7182	0.6411	1.6372	4.0283	-1.2602	3.0405	1.8628	4.8373	1.0016
4.3805	6.4332	6.6561	6.8514	8.0676	9.7791	8.7748	7.3605	9.7131	9.6195	6.4772	8.4831	7.6439	0.5641	1.651	4.0311	-1.1089	2.9497	1.8628	4.7768	0.9851
4.3805	6.4497	6.6616	6.8597	8.0511	9.7984	8.7721	7.2834	9.6883	9.5645	6.3589	8.3786	7.5228	0.4843	1.6647	4.0311	-0.9465	2.8259	1.8436	4.7492	0.9108
4.3723	6.4442	6.6478	6.8569	8.0456	9.7819	8.7363	7.1789	9.6223	9.4902	6.1773	8.2272	7.3908	0.4045	1.673	4.0228	-0.7677	2.6773	1.8298	4.6529	0.8447
4.3695	6.4332	6.6231	6.8487	7.9631	9.7351	8.706	7.0275	9.515	9.3912	5.9627	8.0291	7.2092	0.2972	1.717	4.0201	-0.5668	2.526	1.7995	4.5759	0.7649
4.3695	6.4057	6.6203	6.8322	7.897	9.6883	8.6757	6.9065	9.4242	9.2976	5.7481	7.8283	7.0413	0.1926	1.7225	4.0448	-0.366	2.3884	1.7473	4.4906	0.6851
4.3695	6.3837	6.6176	6.8239	7.842	9.6526	8.6372	6.7551	9.3196	9.1655	5.4564	7.5999	6.8487	0.0881	1.7583	4.0586	-0.1596	2.2178	1.695	4.3805	0.5723
4.3558	6.3479	6.6066	6.8129	7.7347	9.5783	8.5767	6.5873	9.1655	9.0417	5.173	7.344	6.6313	-0.0138	1.8023	4.0834	0.0468	2.0637	1.6427	4.2787	0.4595
4.386	6.3176	6.579	6.7937	7.6301	9.5012	8.5024	6.3974	9.028	8.8821	4.8786	7.0853	6.3864	-0.1183	1.8271	4.1246	0.2642	1.8821	1.5574	4.1907	0.3302
4.4053	6.2874	6.5845	6.7827	7.5476	9.4434	8.4501	6.2158	8.9014	8.7253	4.5676	6.8019	6.1305	-0.2229	1.8656	4.1521	0.4485	1.684	1.4693	4.0613	0.2146
4.4328	6.2461	6.568	6.7772	7.4265	9.3471	8.3676	6.0067	8.7335	8.5409	4.2512	6.5213	5.8664	-0.3164	1.9096	4.2017	0.6549	1.5106	1.3785	3.9403	0.066
4.4493	6.2186	6.5653	6.7717	7.3357	9.2894	8.2988	5.8389	8.5519	8.3731	3.9183	6.2406	5.5912	-0.4045	1.9536	4.2374	0.82	1.285	1.3098	3.8302	-0.0605
4.4823	6.1718	6.568	6.7469	7.2147	9.1875	8.2162	5.6297	8.3758	8.1722	3.6046	5.9489	5.2858	-0.487	2.0252	4.3255	0.9823	1.1199	1.2162	3.6816	-0.1926
4.5264	6.1305	6.5818	6.7359	7.1541	9.1298	8.1557	5.4591	8.2327	8.0154	3.3157	5.6738	5.0464	-0.5476	2.0719	4.375	1.1309	0.9438	1.1309	3.5633	-0.3192
4.5649	6.0948	6.5845	6.7524	7.0386	9.039	8.0676	5.2528	8.0649	7.8338	2.9992	5.3793	4.7602	-0.6246	2.1215	4.4658	1.2575	0.7457	1.0786	3.456	-0.443
4.6117	6.0838	6.6038	6.7579	6.9698	8.9867	7.9961	5.1069	7.897	7.6632	2.7158	5.0932	4.4988	-0.6686	2.2068	4.5346	1.362	0.5861	1.0098	3.3184	-0.5558
4.6694	6.0507	6.6203	6.8019	6.8432	8.8959	7.9548	4.9143	7.7099	7.5008	2.4352	4.8043	4.2237	-0.7099	2.2563	4.6364	1.4363	0.4403	0.9218	3.2359	-0.6494
4.7465	6.026	6.6341	6.8102	6.7772	8.8408	7.8888	4.7382	7.5503	7.3302	2.1352	4.5071	3.9595	-0.7429	2.3581	4.7162	1.4804	0.2972	0.8723	3.1203	-0.7457
4.8125	6.0012	6.6588	6.8102	6.7166	8.7583	7.831	4.5511	7.355	7.1706	1.8188	4.1824	3.6899	-0.7512	2.4159	4.818	1.5189	0.1596	0.8062	3.024	-0.8888
4.8703	5.9654	6.6726	6.8542	6.6093	8.6427	7.7842	4.3475	7.1541	6.989	1.5134	3.855	3.4037	-0.7732	2.4737	4.9116	1.5381	0.0358	0.7429	2.9304	-0.9713
4.9363	5.9324	6.7001	6.89	6.5268	8.5574	7.7567	4.1769	6.9698	6.8267	1.1859	3.5275	3.1368	-0.7484	2.5507	5.0051	1.5106	-0.0523	0.6851	2.8864	-1.0841
5.0161	5.8884	6.6974	6.8955	6.4139	8.4584	7.6577	3.9595	6.7414	6.6396	0.875	3.1726	2.8589	-0.7402	2.6002	5.1014	1.4776	-0.1623	0.6164	2.7929	-1.1887
5.1097	5.8471	6.7249	6.9533	6.3314	8.3456	7.6219	3.7724	6.5515	6.4772	0.5311	2.8286	2.57	-0.6989	2.6718	5.2032	1.4088	-0.2366	0.5448	2.7433	-1.285
5.1565	5.8141	6.7331	6.967	6.2103	8.2437	7.5338	3.5743	6.3094	6.2929	0.2119	2.4682	2.2783	-0.6604	2.7461	5.3078	1.3235	-0.3384	0.4485	2.6828	-1.4116
5.239	5.7646	6.7194	6.9918	6.1195	8.1337	7.4926	3.3679	6.0755	6.1223	-0.0936	2.1407	2.0169	-0.6053	2.7819	5.3793	1.2107	-0.4265	0.3715	2.6443	-1.4941
5.2803	5.6958	6.7276	7.0028	5.9957	8.0236	7.4183	3.1643	5.8691	5.9517	-0.388	1.8023	1.7363	-0.5256	2.8314	5.4922	1.0621	-0.4898	0.3027	2.603	-1.5959
5.3601	5.649	6.6891	7.011	5.8636	7.8805	7.3357	2.969	5.638	5.7701	-0.6686	1.4748	1.4748	-0.4568	2.8369	5.5692	0.9328	-0.5366	0.1926	2.548	-1.7225
5.4179	5.605	6.7029	7.0441	5.7893	7.7925	7.3055	2.8121	5.4454	5.6518	-0.9163	1.2107	1.2465	-0.3797	2.8672	5.6407	0.7594	-0.5696	0.1321	2.5397	-1.7583
5.4481	5.5444	6.6864	7.0496	5.6848	7.6797	7.2559	2.6608	5.2638	5.4894	-1.1502	0.93	0.9961	-0.2889	2.8809	5.6903	0.6053	-0.5916	0.0495	2.5232	-1.8683
5.4894	5.4867	6.6588	7.0551	5.5802	7.5669	7.1541	2.4929	5.0794	5.3298	-1.3923	0.6576	0.7319	-0.2064	2.8644	5.7536	0.432	-0.6659	-0.022	2.4929	-1.9481
5.5224	5.4371	6.6561	7.0606	5.4867	7.4678	7.0798	2.3774	4.9033	5.1895	-1.5767	0.443	0.5366	-0.1321	2.8589	5.7893	0.2669	-0.6989	-0.0963	2.4929	-2.0334
5.5279	5.3904	6.6313	7.0798	5.3876	7.3605	7.0413	2.2618	4.752	5.0547	-1.7803	0.2339	0.3329	-0.0495	2.8039	5.8058	0.1211	-0.7099	-0.1596	2.4654	-2.0967
5.583	5.3271	6.6066	7.0468	5.3133	7.2697	7.0055	2.1352	4.5869	4.9584	-1.9509	0.0248	0.1596	0.0303	2.8011	5.8224	-0.0385	-0.7237	-0.2311	2.4654	-2.1627
5.5637	5.2748	6.5818	7.0358	5.2445	7.1761	6.9533	2.0169	4.4521	4.8565	-2.1077	-0.1321	0.011	0.1183	2.7543	5.8334	-0.1926	-0.7127	-0.3082	2.4847	-2.2425
5.561	5.2335	6.5515	7.0303	5.162	7.0963	6.9257	1.9261	4.3227	4.7547	-2.2315	-0.3082	-0.1101	0.1789	2.7131	5.8554	-0.3577	-0.6741	-0.377	2.4984	-2.2976
5.583	5.2253	6.5213	7.0386	5.0767	7.0303	6.9065	1.8353	4.2209	4.7135	-2.3774	-0.4595	-0.2284	0.2834	2.7021	5.8609	-0.5228	-0.6521	-0.4678	2.526	-2.3829
5.5885	5.14	6.4855	7.0193	5.0299	6.9588	6.868	1.7307	4.0971	4.6529	-2.5122	-0.5916	-0.3329	0.3467	2.6663	5.8554	-0.6714	-0.6026	-0.5558	2.57	-2.4407
5.5665	5.0959	6.4717	7.0055	4.9501	6.9147	6.8597	1.662	4.0228	4.6227	-2.6113	-0.6879	-0.4017	0.4292	2.6113	5.8499	-0.831	-0.5366	-0.5971	2.614	-2.4929
5.5499	5.0409	6.4222	6.978	4.8648	6.8184	6.8349	1.5712	3.9128	4.5841	-2.7351	-0.82	-0.4788	0.487	2.5947	5.8279	-0.9548	-0.4705	-0.6659	2.636	-2.537
5.5307	4.9969	6.3782	6.945	4.829	6.7689	6.8322	1.5051	3.8467	4.5731	-2.8259	-0.8888	-0.4953	0.5531	2.5425	5.8196	-1.0814	-0.3852	-0.7347	2.68	-2.5947
5.5224	4.9831	6.3562	6.9285	4.7933	6.7194	6.8322	1.4528	3.8192	4.5896	-2.8782	-0.9328	-0.509	0.6191	2.5177	5.8361	-1.2024	-0.3054	-0.787	2.7323	-2.6278
5.5032	4.9171	6.3286	6.9037	4.7107	6.6781	6.8322	1.4116	3.7559	4.5951	-2.9029	-0.9438	-0.52	0.6741	2.4709	5.7921	-1.3125	-0.1926	-0.8282	2.7819	-2.6525
5.4674	4.8896	6.2681	6.8762	4.6887	6.6341	6.8184	1.4033	3.7201	4.6364	-2.9167	-0.9328	-0.4898	0.7154	2.4296	5.7783	-1.3978	-0.1211	-0.8612	2.8341	-2.6745
5.4564	4.8593	6.2241	6.8294	4.6639	6.6231	6.8514	1.3978	3.7504	4.6832	-2.8782	-0.886	-0.3935	0.7567	2.4076	5.7618	-1.5024	-0.0248	-0.8833	2.8919	-2.6911
5.3986	4.8565	6.1993	6.7992	4.6612	6.6093	6.8707	1.4226	3.7807	4.7547	-2.8039	-0.8007	-0.2972	0.809	2.3581	5.7563	-1.5712	0.1018	-0.9025	2.9469	-2.7021
5.3546	4.8015	6.136	6.7524	4.6419	6.6066	6.901	1.4501	3.7999	4.8345	-2.7268	-0.7017	-0.2064	0.831	2.3306	5.693	-1.6234	0.1954	-0.908	2.9855	-2.6525
5.3161	4.8043	6.1003	6.7001	4.6749	6.5955	6.945	1.4859	3.855	4.9363	-2.6168	-0.5641	-0.0468	0.8667	2.2673	5.66	-1.6895	0.3192	-0.886	3.0598	-2.6168
5.2885	4.7933	6.0507	6.6919	4.6832	6.6038	6.967	1.5904	3.9403	5.0464	-2.4462	-0.399	0.1183	0.8805	2.2205	5.6407	-1.7363	0.4485	-0.8447	3.101	-2.5535
5.217	4.7657	6.0067	6.6203	4.6915	6.5955	7.0083	1.6344	4.0118	5.1537	-2.3306	-0.2311	0.2999	0.886	2.149	5.572	-1.7473	0.5641	-0.8447	3.1643	-2.5012
5.1565	4.7575	5.9737	6.5708	4.708	6.6038	7.0386	1.7197	4.1054	5.2748	-2.149	-0.0523	0.4815	0.908	2.094	5.5279	-1.7665	0.6879	-0.8007	3.2524	-2.4379
5.1152	4.7712	5.9352	6.546	4.7602	6.6396	7.0743	1.8326	4.2402	5.4509	-1.9206	0.1844	0.7044	0.9135	2.0252	5.4426	-1.7913	0.842	-0.7127	3.3377	-2.3251
5.0354	4.7685	5.8664	6.5213	4.7685	6.6643	7.1376	1.9041	4.342	5.6022	-1.7142	0.388	0.9245	0.9135	1.9426	5.3849	-1.7913	0.9631	-0.6576	3.3844	-2.248
4.9859	4.741	5.8251	6.5075	4.829	6.6753	7.1871	2.0169	4.4961	5.7811	-1.4996	0.6026	1.2024	0.919	1.8491	5.2968	-1.7968	1.0924	-0.5806	3.5055	-2.1435
4.9143	4.7272	5.7866	6.491	4.8676	6.7029	7.2394	2.1132	4.6199	5.9214	-1.318	0.8337	1.4528	0.9053	1.7638	5.2473	-1.7858	1.2245	-0.5338	3.5798	-2.0527
4.8455	4.7135	5.7563	6.4717	4.8923	6.7524	7.311	2.2398	4.763	6.1003	-1.0951	1.0676	1.6922	0.9273	1.6757	5.1455	-1.7968	1.362	-0.4815	3.6844	-1.9591
4.796	4.7135	5.7233	6.4415	4.9308	6.7772	7.3687	2.3829	4.9033	6.2654	-0.864	1.2987	1.9729	0.9218	1.5657	5.0794	-1.8078	1.4804	-0.41	3.7532	-1.8601
4.7162	4.6859	5.6848	6.447	4.9749	6.8157	7.41	2.4902	5.0354	6.4277	-0.6549	1.5519	2.2205	0.919	1.4666	4.9831	-1.7995	1.6042	-0.3522	3.8164	-1.7693
4.6639	4.6887	5.6215	6.436	4.9941	6.8514	7.4816	2.5975	5.1867	6.5955	-0.421	1.8078	2.4984	0.9163	1.3345	4.9088	-1.8023	1.7307	-0.2889	3.8852	-1.6785
4.5786	4.6419	5.572	6.4167	5.0134	6.8817	7.5366	2.7076	5.3408	6.7469	-0.2036	2.0582	2.7571	0.9163	1.2134	4.8373	-1.7858	1.8078	-0.2421	3.9403	-1.5932
4.5181	4.6006	5.5087	6.4057	5.0547	6.9147	7.5916	2.8424	5.4839	6.923	0.0468	2.3361	3.0102	0.908	1.1006	4.741	-1.7858	1.8821	-0.1981	3.9815	-1.5079
4.4521	4.5841	5.4894	6.4112	5.1124	6.956	7.6659	2.9745	5.682	7.0798	0.3219	2.6223	3.2551	0.897	0.9906	4.6502	-1.761	1.9701	-0.1156	4.0201	-1.4308
4.4273	4.5814	5.4839	6.4084	5.151	7.0275	7.7209	3.1065	5.8444	7.2724	0.5668	2.9112	3.5275	0.8888	0.9025	4.6364	-1.7473	2.0444	-0.0688	4.0641	-1.34
4.4025	4.5841	5.4784	6.447	5.2225	7.0963	7.7952	3.2771	6.0397	7.4348	0.875	3.2304	3.8164	0.8943	0.853	4.6117	-1.7528	2.1105	0.0083	4.1164	-1.2492
4.3915	4.5759	5.4509	6.4827	5.2638	7.1789	7.886	3.4257	6.2186	7.5889	1.1281	3.5385	4.0889	0.864	0.798	4.5759	-1.7225	2.1545	0.0688	4.1411	-1.1694
4.3943	4.5676	5.4922	6.5323	5.3463	7.2697	7.9768	3.6018	6.447	7.7732	1.4391	3.8687	4.3778	0.886	0.7539	4.6172	-1.7418	2.2205	0.1403	4.1797	-1.0704
4.4383	4.5924	5.5499	6.6258	5.4454	7.388	8.1007	3.7862	6.6671	7.9466	1.7418	4.1742	4.6309	0.8778	0.7319	4.6392	-1.7363	2.2866	0.2064	4.2347	-1.0043
4.4796	4.6282	5.5912	6.7029	5.5665	7.4871	8.2217	3.9595	6.8735	8.1282	2.0279	4.4878	4.9143	0.8915	0.7374	4.7135	-1.7528	2.3581	0.3054	4.287	-0.919
4.5319	4.697	5.671	6.8294	5.6545	7.6356	8.3456	4.1109	7.0853	8.3125	2.2866	4.7685	5.1867	0.8943	0.7484	4.763	-1.7528	2.4241	0.366	4.342	-0.8337
4.6392	4.7575	5.7756	6.956	5.7398	7.7815	8.5107	4.2897	7.3027	8.5079	2.5397	5.0657	5.4619	0.8998	0.7787	4.8538	-1.7528	2.4764	0.4155	4.386	-0.7842
4.7217	4.8318	5.8829	7.1073	5.8526	7.9328	8.6868	4.4658	7.5228	8.7198	2.7653	5.3353	5.715	0.8998	0.8502	4.9721	-1.7748	2.5535	0.4953	4.4878	-0.7237
4.8593	4.9198	6.0095	7.2779	5.9682	8.0759	8.8353	4.6282	7.7622	8.9096	2.9662	5.583	5.9764	0.908	0.9135	5.1069	-1.7748	2.6223	0.5531	4.5319	-0.6521
5.0161	5.0106	6.1608	7.4733	6.1003	8.23	9.0059	4.7465	7.9713	9.1105	3.1561	5.8031	6.2103	0.9135	1.0126	5.239	-1.7693	2.6911	0.6329	4.6172	-0.6466
5.1785	5.1262	6.3231	7.6274	6.2516	8.4143	9.1765	4.9033	8.1502	9.2701	3.3294	6.0287	6.4112	0.886	1.1199	5.4096	-1.7583	2.7296	0.6989	4.6667	-0.5943
5.3381	5.2555	6.4882	7.8117	6.3644	8.5767	9.3361	5.0354	8.3538	9.4434	3.4615	6.2158	6.6313	0.8833	1.2602	5.561	-1.7473	2.7791	0.7457	4.73	-0.6081
5.5032	5.3931	6.6313	7.9961	6.4882	8.7198	9.4875	5.1372	8.4996	9.5618	3.5716	6.3892	6.7909	0.875	1.3978	5.715	-1.7252	2.8231	0.7897	4.7933	-0.6026
5.7068	5.5032	6.8047	8.1502	6.5983	8.8518	9.6195	5.2445	8.673	9.7048	3.6596	6.5268	6.9588	0.8612	1.5657	5.8691	-1.6977	2.8396	0.8557	4.8483	-0.6081
5.8911	5.6352	6.9533	8.3346	6.7029	8.9949	9.7351	5.3271	8.8298	9.7846	3.6926	6.6561	7.0853	0.842	1.695	5.9957	-1.6565	2.8341	0.897	4.8703	-0.6164
6.0975	5.7481	7.1321	8.4969	6.8239	9.1325	9.8947	5.4179	8.9812	9.903	3.7532	6.7744	7.2009	0.831	1.8848	6.1388	-1.6262	2.8672	0.9273	4.9281	-0.6384
6.2681	5.9021	7.2779	8.629	6.9505	9.2646	9.9855	5.5004	9.1105	9.969	3.8275	6.8762	7.3055	0.809	2.0499	6.2709	-1.5877	2.8424	0.9686	4.9391	-0.6521
6.4552	6.0425	7.4155	8.7721	7.0303	9.3609	10.0378	5.5444	9.2151	10.0185	3.822	6.9422	7.3577	0.7649	2.1875	6.3699	-1.5189	2.8094	0.9823	4.9308	-0.6989
6.6148	6.1636	7.5559	8.8766	7.1376	9.4737	10.1423	5.616	9.3389	10.0598	3.8275	7.0138	7.3963	0.7567	2.3526	6.4992	-1.4776	2.7598	1.0126	4.9308	-0.7319
6.7964	6.2984	7.6962	8.9949	7.2202	9.5783	10.1919	5.6628	9.4132	10.068	3.8302	7.0661	7.4073	0.7154	2.5149	6.6038	-1.4006	2.7048	1.0291	4.9061	-0.798
6.934	6.4139	7.82	9.0802	7.2945	9.6691	10.2276	5.671	9.4902	10.0763	3.8302	7.0991	7.4018	0.6769	2.6553	6.7111	-1.34	2.6525	1.0346	4.8758	-0.8502
7.0908	6.5433	7.9686	9.171	7.3632	9.7379	10.2717	5.6985	9.5205	10.0515	3.7367	7.0633	7.3742	0.6576	2.8479	6.7992	-1.2712	2.559	1.0263	4.8373	-0.9108
7.2394	6.6396	8.0924	9.2343	7.4293	9.7874	10.2579	5.66	9.5315	9.9855	3.6183	7.011	7.3027	0.6136	2.9882	6.9065	-1.1997	2.4324	1.0318	4.7685	-1.0098
7.3577	6.7551	8.1887	9.2921	7.4623	9.8149	10.2359	5.6215	9.5177	9.9002	3.4753	6.8982	7.1541	0.5531	3.1506	7	-1.1061	2.3031	1.0043	4.6667	-1.1089
7.5201	6.8487	8.2933	9.3719	7.5008	9.8452	10.2221	5.5665	9.4847	9.8094	3.3047	6.7496	7.0055	0.5228	3.2936	7.0853	-1.0236	2.171	0.9713	4.6062	-1.2245
7.6494	6.9478	8.4254	9.4214	7.5091	9.8617	10.1754	5.5059	9.4159	9.6746	3.0955	6.59	6.8322	0.4788	3.4642	7.2202	-0.9328	2.0142	0.9328	4.5209	-1.307
7.7925	7.0578	8.5354	9.4875	7.5201	9.8782	10.1231	5.4261	9.3334	9.5177	2.8782	6.3837	6.6093	0.4265	3.6403	7.2972	-0.831	1.8243	0.8805	4.3943	-1.4583
7.9356	7.1321	8.6317	9.5342	7.5256	9.8782	10.0378	5.3326	9.2426	9.3774	2.6278	6.1415	6.3727	0.3742	3.8054	7.4403	-0.7237	1.6757	0.8145	4.2842	-1.5849
8.0621	7.2202	8.75	9.5645	7.5201	9.8809	9.9772	5.2253	9.1243	9.2041	2.3691	5.9214	6.0975	0.3329	3.9815	7.5531	-0.6521	1.4666	0.7759	4.1852	-1.7087
8.219	7.3	8.8711	9.5975	7.5091	9.8617	9.9057	5.1069	8.9949	8.9757	2.105	5.6352	5.7976	0.2972	4.1576	7.6934	-0.5586	1.2547	0.7017	4.0393	-1.8463
8.3593	7.3908	8.9784	9.6305	7.5201	9.8534	9.8011	4.9859	8.8629	8.7776	1.8353	5.3766	5.4894	0.2476	4.3585	7.8475	-0.476	1.0236	0.6659	3.9293	-1.9674
8.4886	7.4375	9.0995	9.6718	7.4953	9.8534	9.6993	4.8786	8.706	8.5464	1.5822	5.1124	5.1647	0.1899	4.5511	7.9631	-0.3825	0.8117	0.6081	3.7862	-2.0885
8.6152	7.4871	9.1875	9.6828	7.4678	9.8177	9.6003	4.7768	8.5657	8.318	1.3208	4.8373	4.8208	0.1458	4.7107	8.1227	-0.2834	0.5833	0.5393	3.6569	-2.2205
8.7473	7.5614	9.2783	9.7158	7.4678	9.8011	9.4902	4.6639	8.4171	8.0814	1.0924	4.6006	4.4686	0.0881	4.8703	8.2465	-0.1816	0.3467	0.52	3.5248	-2.3333
8.8491	7.6136	9.3912	9.7406	7.4513	9.7764	9.3719	4.5649	8.263	7.8585	0.8502	4.3117	4.1411	0.0385	5.0134	8.3951	-0.0495	0.1073	0.4733	3.3679	-2.4407
8.9784	7.6604	9.5012	9.7461	7.4843	9.7874	9.2756	4.4933	8.1309	7.6329	0.6604	4.0806	3.7999	-0.022	5.162	8.5382	0.0633	-0.1128	0.4403	3.2441	-2.5094
9.0637	7.6879	9.5865	9.7434	7.465	9.7516	9.1738	4.397	7.9713	7.4018	0.4595	3.855	3.434	-0.0963	5.2638	8.6702	0.2064	-0.3495	0.421	3.0983	-2.6058
9.1793	7.7292	9.7241	9.8066	7.4761	9.7571	9.0802	4.3365	7.8283	7.1899	0.2669	3.5936	3.1065	-0.1541	5.4041	8.8298	0.3192	-0.5668	0.3742	2.9525	-2.6525
9.2949	7.776	9.8232	9.8287	7.4761	9.7406	8.9784	4.2484	7.6879	6.9615	0.0853	3.3239	2.7598	-0.2339	5.5169	8.9647	0.4513	-0.787	0.366	2.8424	-2.7488
9.3664	7.7952	9.9195	9.8397	7.4568	9.7434	8.8959	4.1962	7.5366	6.7524	-0.0963	3.0708	2.4131	-0.2779	5.649	9.094	0.5641	-0.9851	0.3357	2.7213	-2.7984
9.4544	7.8145	10.0185	9.8809	7.4293	9.7158	8.8133	4.0751	7.3687	6.5405	-0.3329	2.7901	2.0609	-0.3495	5.7673	9.2316	0.6934	-1.2024	0.3137	2.5865	-2.8699
9.526	7.7952	10.0625	9.8617	7.3825	9.6526	8.717	3.9678	7.2036	6.2956	-0.5421	2.4957	1.7032	-0.4072	5.8554	9.3499	0.8227	-1.4336	0.2724	2.4489	-2.9552
9.5948	7.7842	10.1423	9.8809	7.3605	9.614	8.6482	3.8577	7.0083	6.092	-0.7622	2.2068	1.362	-0.465	5.9324	9.4765	0.9328	-1.6289	0.2036	2.3444	-3.0212
9.6498	7.743	10.2056	9.8947	7.2669	9.526	8.5354	3.7091	6.8102	5.8581	-1.0071	1.8986	1.0016	-0.5228	6.0095	9.5948	1.0566	-1.8518	0.1348	2.2425	-3.1065
9.6828	7.6934	10.2331	9.9057	7.1679	9.4737	8.4446	3.5716	6.6066	5.6022	-1.2877	1.5739	0.6164	-0.5943	6.081	9.6856	1.1584	-2.0527	0.0743	2.094	-3.1836
9.7103	7.6329	10.2689	9.9112	7.0743	9.3994	8.3483	3.4175	6.3809	5.3876	-1.5299	1.2437	0.2614	-0.6274	6.1305	9.7874	1.2465	-2.2563	-0.0055	2.0059	-3.2716
9.7131	7.5614	10.2909	9.8892	6.9395	9.2949	8.2465	3.2331	6.1773	5.1262	-1.7968	0.9025	-0.1156	-0.6686	6.125	9.8452	1.3455	-2.4489	-0.0991	1.9013	-3.3789
9.7241	7.4568	10.2744	9.8809	6.8267	9.2151	8.1392	3.0818	5.9654	4.9198	-2.0637	0.5971	-0.4705	-0.7017	6.158	9.8919	1.4226	-2.625	-0.1926	1.783	-3.4422
9.7213	7.3715	10.2634	9.8232	6.6891	9.0967	8.0484	2.9167	5.7618	4.6859	-2.3196	0.3054	-0.8227	-0.7374	6.1663	9.9222	1.4776	-2.8149	-0.2917	1.6592	-3.5303
9.6828	7.2807	10.2717	9.8011	6.5845	9.0417	7.9576	2.7626	5.5775	4.4796	-2.5012	0.0523	-1.1281	-0.7622	6.1553	9.9497	1.5216	-2.969	-0.3495	1.5794	-3.5881
9.6608	7.1844	10.2056	9.7461	6.447	8.9069	7.853	2.603	5.3849	4.2622	-2.7296	-0.2119	-1.4473	-0.787	6.1085	9.9607	1.5794	-3.1065	-0.4348	1.4721	-3.6348
9.6305	7.0826	10.1781	9.7186	6.3231	8.8216	7.7677	2.4599	5.2032	4.0696	-2.9002	-0.4348	-1.7087	-0.7897	6.0948	9.9662	1.5932	-3.2606	-0.5008	1.3978	-3.6981
9.57	6.978	10.1644	9.6498	6.1746	8.6923	7.6962	2.3168	5.0244	3.877	-3.068	-0.6659	-1.9756	-0.8007	6.0507	9.925	1.6014	-3.3624	-0.5668	1.318	-3.7201
