"FZ"	"FC3"	"FCZ"	"FC4"	"C3"	"CZ"	"C4"	"CP3"	"CPZ"	"CP4"	"P3"	"PZ"	"P4"	"OZ"	"FP1"	"FP2"	"A2"	"P8"	"TP7"	"TP8"	"P7"
0.3483	0.2392	0.8476	0.2182	0.4448	1.2211	0.4364	0.684	1.3889	1.0155	0.8854	1.2169	0.8854	0.0084	-1.1414	-0.9357	-0.0084	0.4574	-0.0755	-0.1301	0.0965
0.3063	0.1846	0.7847	0.2266	0.4028	1.1414	0.4322	0.6714	1.3386	1.0029	0.8434	1.1791	0.8728	0.042	-1.263	-0.9441	-0.0378	0.5035	-0.1175	-0.0965	0.0671
0.2602	0.1553	0.705	0.1846	0.3735	1.0868	0.4154	0.6336	1.3008	0.9651	0.8224	1.1749	0.877	0.0587	-1.3512	-0.9651	-0.0839	0.5161	-0.1595	-0.0923	0.0546
0.214	0.1091	0.6756	0.2056	0.3609	1.0071	0.4112	0.5833	1.2505	0.9315	0.7931	1.1497	0.8938	0.0546	-1.4435	-0.9861	-0.1049	0.5245	-0.214	-0.0713	0.0294
0.1846	0.1133	0.6504	0.2434	0.3399	0.9777	0.4028	0.5875	1.2211	0.919	0.7889	1.1539	0.9232	0.0755	-1.4729	-0.9609	-0.1469	0.5623	-0.2434	-0.042	0.0546
0.193	0.0923	0.5665	0.2224	0.3441	0.9525	0.3902	0.5749	1.1539	0.9315	0.7679	1.1162	0.9274	0.0797	-1.5526	-1.0071	-0.1469	0.5791	-0.2686	0.0336	0.0629
0.1804	0.0923	0.5665	0.2811	0.3525	0.898	0.4112	0.6168	1.1372	0.9399	0.8015	1.1288	0.9483	0.1133	-1.5358	-0.9987	-0.1637	0.6294	-0.2224	0.1175	0.1049
0.2014	0.1175	0.5707	0.2728	0.3735	0.8938	0.407	0.5917	1.1246	0.9609	0.7931	1.1497	0.9735	0.1007	-1.5736	-0.9945	-0.1595	0.6714	-0.2266	0.1762	0.1385
0.1553	0.1133	0.5581	0.256	0.3525	0.835	0.386	0.5875	1.0742	0.9022	0.8224	1.133	0.9861	0.0755	-1.6239	-0.9861	-0.1427	0.684	-0.2518	0.2014	0.1427
0.1553	0.1553	0.5161	0.2853	0.3693	0.835	0.4406	0.5959	1.0532	0.9148	0.835	1.1623	1.0029	0.0755	-1.6155	-0.9903	-0.1259	0.7679	-0.2769	0.3063	0.2014
0.1259	0.1637	0.4993	0.2853	0.3777	0.7679	0.4112	0.5665	0.9987	0.9232	0.8224	1.133	1.0323	0.0755	-1.6533	-0.9861	-0.1175	0.8057	-0.3105	0.3651	0.2014
0.0839	0.1553	0.4448	0.2644	0.3693	0.7637	0.3651	0.5371	0.9903	0.9148	0.8476	1.133	1.0281	0.0587	-1.6575	-1.0532	-0.1133	0.8099	-0.3483	0.4112	0.2056
0.042	0.1762	0.4196	0.2518	0.3483	0.7008	0.3777	0.5371	0.9735	0.898	0.8015	1.1036	1.049	0.0671	-1.6785	-1.0742	-0.1301	0.8938	-0.3777	0.491	0.2266
0	0.1637	0.3944	0.214	0.3231	0.6252	0.3567	0.491	0.9148	0.8392	0.8015	1.07	1.0323	0.0839	-1.6953	-1.1036	-0.1343	0.8938	-0.3902	0.5161	0.235
-0.0713	0.1049	0.2895	0.1637	0.2937	0.5875	0.2979	0.4532	0.8266	0.7805	0.7721	1.0365	0.9861	0.0839	-1.7078	-1.1497	-0.1553	0.9315	-0.4154	0.5539	0.2266
-0.1133	0.0797	0.2266	0.1175	0.2476	0.5455	0.256	0.3986	0.8057	0.7427	0.7217	0.9903	0.9735	0.1133	-1.6785	-1.1581	-0.2014	0.9357	-0.407	0.5917	0.235
-0.2014	0.0168	0.1343	0.0168	0.172	0.4742	0.2098	0.3147	0.7259	0.6588	0.6756	0.9232	0.919	0.1259	-1.6365	-1.1623	-0.2308	0.9441	-0.449	0.6084	0.2518
-0.256	-0.0126	0.0755	-0.0252	0.1469	0.3777	0.1553	0.2602	0.6504	0.6336	0.6546	0.8896	0.8602	0.1343	-1.5736	-1.1707	-0.2686	0.919	-0.4742	0.6126	0.235
-0.3399	-0.1049	-0.0294	-0.1343	0.0084	0.2979	0.0755	0.1595	0.5791	0.5413	0.5959	0.7805	0.7595	0.1595	-1.4812	-1.1623	-0.3105	0.8518	-0.5203	0.5749	0.2266
-0.3693	-0.1804	-0.0923	-0.2308	-0.0629	0.2224	0	0.1049	0.4993	0.4868	0.5497	0.7133	0.7133	0.193	-1.3554	-1.1162	-0.3651	0.8224	-0.5497	0.5539	0.2602
-0.4742	-0.2644	-0.2266	-0.3231	-0.1385	0.1175	-0.0755	0.0084	0.3902	0.3777	0.4868	0.642	0.6252	0.2224	-1.2798	-1.091	-0.3986	0.7805	-0.6252	0.5245	0.1888
-0.5413	-0.3819	-0.3105	-0.4574	-0.2686	0.0336	-0.1469	-0.0755	0.3147	0.3189	0.4448	0.5707	0.5077	0.235	-1.1707	-1.0784	-0.449	0.7092	-0.663	0.4616	0.1678
-0.6001	-0.5245	-0.4238	-0.5539	-0.3902	-0.0504	-0.2602	-0.1427	0.2392	0.2098	0.386	0.4993	0.4364	0.256	-1.0616	-1.0574	-0.4951	0.6504	-0.7175	0.4238	0.1217
-0.7175	-0.6588	-0.5329	-0.6924	-0.5245	-0.193	-0.3525	-0.1972	0.1511	0.1007	0.3273	0.4322	0.3441	0.2853	-1.0071	-1.0532	-0.5245	0.5581	-0.7721	0.3483	0.0923
-0.7763	-0.7721	-0.6504	-0.8015	-0.6462	-0.2769	-0.4364	-0.2811	0.0797	0.0336	0.2769	0.3525	0.2644	0.2979	-0.9483	-1.049	-0.5623	0.4784	-0.8015	0.2728	0.0629
-0.8728	-0.8896	-0.7385	-0.919	-0.7721	-0.3441	-0.4868	-0.3651	0	-0.0671	0.2098	0.2895	0.1553	0.3063	-0.9022	-1.0574	-0.5875	0.3735	-0.8392	0.1972	0.0168
-0.9567	-1.0365	-0.856	-1.0281	-0.8602	-0.4532	-0.5665	-0.3944	-0.0671	-0.1301	0.1846	0.214	0.0923	0.3147	-0.898	-1.0448	-0.5959	0.3063	-0.8602	0.1301	-0.0168
-0.9945	-1.1372	-0.9525	-1.1036	-0.9483	-0.5287	-0.6504	-0.449	-0.1553	-0.2224	0.1343	0.1678	0.021	0.3147	-0.856	-1.0406	-0.6126	0.2476	-0.8854	0.0336	-0.042
-1.0406	-1.2379	-1.0113	-1.1665	-0.9819	-0.6252	-0.7008	-0.4448	-0.2182	-0.2728	0.1007	0.1259	-0.0671	0.3147	-0.7805	-1.049	-0.6084	0.193	-0.9064	-0.0084	-0.0797
-1.0994	-1.2966	-1.0784	-1.2043	-1.0281	-0.6756	-0.7301	-0.4616	-0.3021	-0.3441	0.0839	0.0839	-0.1217	0.3189	-0.7343	-0.9735	-0.6001	0.1133	-0.8896	-0.0797	-0.1427
-1.1036	-1.3554	-1.0952	-1.2169	-1.0448	-0.7092	-0.7637	-0.4993	-0.3273	-0.4238	0.0713	0.0546	-0.1637	0.3021	-0.6966	-0.9064	-0.5833	0.0378	-0.8644	-0.1427	-0.1427
-1.0826	-1.3721	-1.112	-1.1833	-1.0197	-0.7427	-0.7805	-0.4658	-0.3735	-0.4532	0.0755	0.042	-0.2266	0.2979	-0.6168	-0.7973	-0.5623	0.0042	-0.8141	-0.193	-0.1427
-1.0952	-1.3889	-1.1204	-1.1665	-1.0281	-0.8141	-0.7973	-0.4658	-0.4196	-0.5287	0.0378	0	-0.2853	0.2644	-0.5833	-0.7133	-0.4993	-0.0504	-0.7511	-0.2224	-0.1595
-1.0868	-1.368	-1.091	-1.1372	-0.9861	-0.8266	-0.8015	-0.4826	-0.4532	-0.5707	0.0839	-0.0294	-0.2979	0.256	-0.5245	-0.6294	-0.4616	-0.0671	-0.6966	-0.2602	-0.1469
-0.9987	-1.326	-1.091	-1.091	-0.9315	-0.8183	-0.8015	-0.4322	-0.4658	-0.5875	0.0923	-0.0084	-0.3231	0.2308	-0.4322	-0.5371	-0.4322	-0.1007	-0.6378	-0.2728	-0.1091
-0.9357	-1.2463	-1.0532	-1.0406	-0.8686	-0.8141	-0.7595	-0.386	-0.4826	-0.6168	0.1301	-0.0504	-0.3609	0.2266	-0.3609	-0.3651	-0.4154	-0.0797	-0.5455	-0.2979	-0.0629
-0.8644	-1.1749	-1.0029	-0.919	-0.8099	-0.7931	-0.7595	-0.3609	-0.5035	-0.6378	0.1553	-0.0587	-0.3525	0.2182	-0.2602	-0.2602	-0.3902	-0.1007	-0.4574	-0.3147	-0.0042
-0.7763	-1.0868	-0.9232	-0.856	-0.7427	-0.8099	-0.7301	-0.3273	-0.5497	-0.6714	0.1637	-0.0965	-0.3525	0.2056	-0.1762	-0.0965	-0.3819	-0.0881	-0.3777	-0.3021	0.042
-0.6714	-0.9693	-0.8854	-0.7259	-0.7092	-0.7763	-0.6882	-0.2853	-0.5329	-0.6798	0.1846	-0.0629	-0.3483	0.1972	-0.1133	0.021	-0.3735	-0.0378	-0.2686	-0.2769	0.0923
-0.6001	-0.8728	-0.8224	-0.6462	-0.6714	-0.7595	-0.642	-0.2853	-0.5413	-0.6966	0.214	-0.1049	-0.3567	0.1888	0	0.1553	-0.3777	-0.0042	-0.1595	-0.2434	0.172
-0.5077	-0.8308	-0.7763	-0.5161	-0.6462	-0.7343	-0.5917	-0.2602	-0.5791	-0.6924	0.1888	-0.1343	-0.3399	0.1888	0.0504	0.256	-0.3777	0.0797	-0.0839	-0.214	0.214
-0.4028	-0.7217	-0.684	-0.3735	-0.5917	-0.684	-0.5119	-0.2182	-0.5875	-0.6714	0.2266	-0.1553	-0.3357	0.2098	0.1469	0.3819	-0.3986	0.1469	0.0336	-0.1762	0.2769
-0.386	-0.6588	-0.6504	-0.2518	-0.5833	-0.6924	-0.4532	-0.2224	-0.6084	-0.6756	0.214	-0.1888	-0.3105	0.1888	0.1678	0.4406	-0.3693	0.1678	0.0881	-0.1678	0.3399
-0.2979	-0.6001	-0.6126	-0.1259	-0.6252	-0.6714	-0.3399	-0.2434	-0.6588	-0.642	0.1972	-0.2308	-0.3021	0.1762	0.2182	0.4868	-0.3273	0.2476	0.1553	-0.1385	0.3693
-0.235	-0.5455	-0.5539	0.0084	-0.5665	-0.6504	-0.2686	-0.2182	-0.6462	-0.6546	0.1846	-0.2308	-0.2644	0.1595	0.2686	0.5245	-0.2979	0.2937	0.2644	-0.1133	0.4364
-0.1678	-0.449	-0.4784	0.1469	-0.5245	-0.642	-0.2182	-0.214	-0.705	-0.6168	0.1343	-0.2811	-0.2937	0.1091	0.3063	0.5749	-0.2098	0.3483	0.3147	-0.0965	0.449
-0.1259	-0.386	-0.4658	0.2518	-0.4951	-0.6462	-0.193	-0.256	-0.7637	-0.6126	0.0839	-0.3693	-0.2853	0.0587	0.3819	0.6168	-0.1133	0.3525	0.3986	-0.1007	0.4196
-0.0881	-0.3231	-0.428	0.3441	-0.4784	-0.6546	-0.1259	-0.2266	-0.7721	-0.6001	0.0336	-0.407	-0.2518	0.0252	0.4448	0.6714	-0.0336	0.3777	0.449	-0.1007	0.407
-0.0587	-0.2728	-0.3944	0.4112	-0.4322	-0.6588	-0.1133	-0.2811	-0.8518	-0.5833	-0.0042	-0.4742	-0.2728	-0.0378	0.4993	0.6798	0.0713	0.4112	0.5035	-0.0671	0.3986
-0.0462	-0.2182	-0.3735	0.4868	-0.4154	-0.6672	-0.0839	-0.2811	-0.8896	-0.5749	-0.0965	-0.5497	-0.2644	-0.0629	0.5833	0.7301	0.1553	0.428	0.5329	-0.0462	0.3441
-0.021	-0.193	-0.407	0.4868	-0.4322	-0.6966	-0.0587	-0.3105	-0.9399	-0.5833	-0.1427	-0.621	-0.2686	-0.1133	0.6714	0.7679	0.2476	0.428	0.5791	-0.0378	0.3231
-0.0336	-0.2392	-0.3693	0.4574	-0.4196	-0.705	-0.1091	-0.3525	-1.0029	-0.5833	-0.2518	-0.705	-0.2644	-0.1595	0.7008	0.7763	0.3273	0.4364	0.6001	-0.0378	0.2476
-0.1007	-0.2602	-0.4238	0.407	-0.4742	-0.7847	-0.1301	-0.428	-1.0952	-0.6252	-0.3567	-0.8015	-0.3147	-0.214	0.7259	0.6924	0.4322	0.3986	0.6001	-0.0546	0.1888
-0.1595	-0.3567	-0.4742	0.3063	-0.5413	-0.8308	-0.193	-0.4448	-1.1372	-0.6001	-0.4154	-0.8434	-0.3231	-0.2392	0.7259	0.6294	0.491	0.4112	0.5539	-0.042	0.1259
-0.2266	-0.4616	-0.5371	0.193	-0.6126	-0.9315	-0.2811	-0.5665	-1.2463	-0.6504	-0.5539	-0.9735	-0.3735	-0.2769	0.7092	0.5203	0.5665	0.3651	0.5077	-0.0713	0.0084
-0.3189	-0.5455	-0.6084	0.0671	-0.7217	-0.9987	-0.3483	-0.6546	-1.3344	-0.7133	-0.6714	-1.07	-0.4238	-0.3105	0.6924	0.3735	0.621	0.3063	0.4826	-0.1049	-0.0797
-0.3902	-0.6504	-0.6504	-0.042	-0.8057	-1.091	-0.4532	-0.7595	-1.4015	-0.7343	-0.8141	-1.1665	-0.4616	-0.3189	0.6126	0.256	0.6714	0.2392	0.407	-0.1385	-0.172
-0.4951	-0.7931	-0.7427	-0.2182	-0.9148	-1.1581	-0.5581	-0.8476	-1.4896	-0.7889	-0.9148	-1.2589	-0.5539	-0.3231	0.5413	0.0797	0.6882	0.1888	0.3567	-0.172	-0.2392
-0.6001	-0.8854	-0.8392	-0.3777	-0.9987	-1.2337	-0.6336	-0.9232	-1.5694	-0.8057	-1.0448	-1.3763	-0.6084	-0.3357	0.4658	-0.0755	0.705	0.1091	0.2434	-0.2392	-0.3231
-0.663	-0.9861	-0.8938	-0.5245	-1.0784	-1.2924	-0.7343	-1.0071	-1.6701	-0.856	-1.1707	-1.4896	-0.6756	-0.3525	0.3944	-0.1469	0.7092	-0.0336	0.1595	-0.3021	-0.4112
-0.7092	-1.0323	-0.9274	-0.6294	-1.1204	-1.347	-0.7805	-1.0574	-1.712	-0.8728	-1.2379	-1.5526	-0.7259	-0.3231	0.3273	-0.2728	0.684	-0.0839	0.0462	-0.3273	-0.5077
-0.8015	-1.07	-0.9651	-0.7175	-1.1456	-1.3847	-0.8644	-1.1162	-1.7372	-0.919	-1.305	-1.6323	-0.7847	-0.3231	0.2811	-0.3483	0.6546	-0.2056	-0.042	-0.4028	-0.5497
-0.8392	-1.1036	-0.9945	-0.8141	-1.1456	-1.4183	-0.898	-1.1665	-1.7498	-0.8896	-1.3805	-1.6869	-0.8015	-0.2937	0.2811	-0.3651	0.621	-0.2518	-0.1553	-0.4448	-0.6252
-0.8854	-1.1539	-1.0323	-0.9022	-1.1288	-1.4393	-0.9441	-1.2169	-1.7792	-0.9483	-1.4561	-1.7288	-0.8476	-0.2853	0.2098	-0.4238	0.5959	-0.3483	-0.235	-0.4826	-0.6672
-0.919	-1.1204	-0.9945	-0.9651	-1.0994	-1.4015	-0.9609	-1.2379	-1.7666	-0.9357	-1.4687	-1.7498	-0.9064	-0.2602	0.2098	-0.3609	0.5413	-0.3902	-0.2728	-0.4868	-0.7092
-0.9064	-1.07	-1.0071	-0.9609	-1.0658	-1.3847	-0.9525	-1.2421	-1.7582	-0.9148	-1.5022	-1.7414	-0.919	-0.2392	0.235	-0.3273	0.5119	-0.4826	-0.3231	-0.4951	-0.7427
-0.8183	-0.9987	-0.9148	-0.9525	-0.9609	-1.3176	-0.9064	-1.2001	-1.6953	-0.9022	-1.4938	-1.754	-0.9357	-0.235	0.3231	-0.2182	0.47	-0.5287	-0.3273	-0.4951	-0.7427
-0.7973	-0.8938	-0.8434	-0.9148	-0.8728	-1.2463	-0.856	-1.1581	-1.6407	-0.8308	-1.4938	-1.6994	-0.919	-0.2014	0.3902	-0.1133	0.4196	-0.6252	-0.2979	-0.5035	-0.7595
-0.6798	-0.7763	-0.7721	-0.8224	-0.7469	-1.1707	-0.7973	-1.0784	-1.5358	-0.8141	-1.4435	-1.6449	-0.9232	-0.1804	0.491	0.0252	0.3777	-0.6714	-0.235	-0.4826	-0.7427
-0.5665	-0.6252	-0.6588	-0.7259	-0.6294	-1.0532	-0.7133	-1.0239	-1.4351	-0.7511	-1.4309	-1.5945	-0.8896	-0.1595	0.5791	0.1888	0.3357	-0.7133	-0.2014	-0.4574	-0.7637
-0.4742	-0.4742	-0.5623	-0.6042	-0.5413	-0.9399	-0.6294	-0.9441	-1.3218	-0.7008	-1.3931	-1.5358	-0.8686	-0.1385	0.6924	0.2853	0.2895	-0.7469	-0.1511	-0.4112	-0.7679
-0.3483	-0.3063	-0.4448	-0.5077	-0.449	-0.8141	-0.5371	-0.8518	-1.2085	-0.6084	-1.3218	-1.4267	-0.8518	-0.1007	0.7889	0.4406	0.2308	-0.7805	-0.0839	-0.3735	-0.7511
-0.2308	-0.1678	-0.3105	-0.3902	-0.3357	-0.7092	-0.4238	-0.7805	-1.1372	-0.5665	-1.2756	-1.3638	-0.8183	-0.0797	0.8854	0.5413	0.1762	-0.8183	-0.0294	-0.3357	-0.7679
-0.1007	-0.0336	-0.2056	-0.256	-0.2811	-0.5791	-0.3525	-0.6924	-1.0113	-0.491	-1.2421	-1.2714	-0.8015	-0.0587	0.9399	0.5875	0.1427	-0.8476	-0.0126	-0.2769	-0.7595
0.0378	0.1217	-0.042	-0.1049	-0.1553	-0.4532	-0.2266	-0.5917	-0.8392	-0.386	-1.1204	-1.133	-0.7511	-0.042	1.0113	0.663	0.0923	-0.8476	0.0168	-0.235	-0.7343
0.1762	0.2811	0.0504	0	-0.0797	-0.3231	-0.1175	-0.4868	-0.7217	-0.3273	-1.0448	-1.0323	-0.7217	-0.0168	1.1078	0.7385	0.0587	-0.8686	0.0378	-0.2434	-0.7133
0.3063	0.428	0.2098	0.1553	0.0462	-0.172	0	-0.3986	-0.5581	-0.2728	-0.9399	-0.9064	-0.6756	0	1.1623	0.8644	0.0336	-0.8938	0.0839	-0.2014	-0.6588
0.4574	0.5959	0.3189	0.2853	0.1595	-0.021	0.1049	-0.256	-0.3944	-0.1972	-0.8183	-0.7931	-0.6252	-0.0126	1.2463	0.9483	0.0252	-0.9106	0.0923	-0.2056	-0.5665
0.5875	0.7637	0.4448	0.4406	0.3105	0.1385	0.2392	-0.1343	-0.2392	-0.1175	-0.7259	-0.6336	-0.5791	0.0126	1.305	1.049	-0.0042	-0.9315	0.1343	-0.172	-0.4784
0.7427	0.9357	0.5917	0.5959	0.4574	0.2644	0.3315	0.0126	-0.0755	-0.0294	-0.5959	-0.5245	-0.4951	0.0084	1.3512	1.2001	0.0126	-0.919	0.1637	-0.1385	-0.3693
0.8518	1.0868	0.7259	0.7385	0.6084	0.4238	0.4322	0.1175	0.1091	0.0336	-0.4616	-0.3609	-0.449	-0.0126	1.3931	1.2882	0.0378	-0.9525	0.1888	-0.1259	-0.2686
0.9861	1.2379	0.8686	0.8476	0.7343	0.5329	0.5077	0.256	0.256	0.1049	-0.3567	-0.2182	-0.4196	-0.021	1.4099	1.4435	0.0546	-0.9735	0.2266	-0.0965	-0.1678
1.1288	1.4099	1.0029	0.9861	0.9148	0.7217	0.621	0.428	0.449	0.2056	-0.214	-0.0629	-0.3189	-0.0168	1.4435	1.5652	0.0629	-0.9357	0.2979	-0.0504	-0.0881
1.2085	1.5358	1.0826	1.07	1.07	0.8308	0.705	0.5161	0.5833	0.2769	-0.0965	0.0462	-0.2434	-0.0546	1.4393	1.5987	0.1133	-0.9567	0.3441	-0.0546	-0.0504
1.3386	1.6785	1.2001	1.1539	1.2337	0.9987	0.8224	0.642	0.7427	0.3693	0.0504	0.1972	-0.1595	-0.0504	1.4351	1.6701	0.1385	-0.9274	0.4028	-0.0042	0.0462
1.4015	1.775	1.2756	1.2672	1.368	1.1162	0.9232	0.7847	0.9148	0.4742	0.172	0.3483	-0.1007	-0.0797	1.4267	1.7078	0.1804	-0.8686	0.4658	0.0294	0.1049
1.4645	1.8925	1.3889	1.3176	1.5148	1.2337	1.0155	0.9315	1.049	0.5497	0.3063	0.4658	-0.0126	-0.1091	1.4015	1.7204	0.2266	-0.8392	0.5329	0.0671	0.1553
1.5442	1.9806	1.4519	1.4183	1.6407	1.3428	1.1162	1.0239	1.2001	0.6504	0.386	0.5833	0.0713	-0.1259	1.3554	1.6743	0.256	-0.7889	0.5791	0.1175	0.2098
1.5484	1.989	1.498	1.3931	1.6785	1.4771	1.1665	1.0952	1.3092	0.705	0.4951	0.6882	0.1469	-0.1637	1.2882	1.5736	0.3231	-0.7427	0.6336	0.1301	0.2182
1.5568	2.0351	1.5316	1.3931	1.775	1.5106	1.2589	1.1917	1.4225	0.8057	0.5623	0.8141	0.2224	-0.172	1.2127	1.4896	0.3525	-0.663	0.684	0.1762	0.235
1.5442	2.0058	1.5442	1.3721	1.7834	1.5862	1.2714	1.2547	1.5358	0.8644	0.642	0.919	0.2853	-0.193	1.1288	1.3008	0.3944	-0.6084	0.7553	0.2098	0.2728
1.5358	1.9932	1.5358	1.3512	1.8379	1.6239	1.3008	1.3092	1.6197	0.9232	0.7092	1.0239	0.3735	-0.1972	1.0239	1.1791	0.4112	-0.5287	0.8015	0.235	0.2602
1.498	1.968	1.5484	1.2882	1.8505	1.6785	1.2924	1.3596	1.6701	0.9777	0.8015	1.112	0.428	-0.2014	0.9106	1.0239	0.4196	-0.4784	0.8434	0.2853	0.2895
1.4896	1.9554	1.5652	1.2672	1.8841	1.733	1.347	1.4183	1.7792	1.0365	0.8728	1.1959	0.5035	-0.1804	0.8224	0.8686	0.3819	-0.386	0.8896	0.3147	0.3399
1.4519	1.8967	1.5358	1.2211	1.9386	1.754	1.3302	1.4477	1.8589	1.0532	0.9315	1.2714	0.5581	-0.172	0.7469	0.6966	0.3525	-0.3525	0.9357	0.3567	0.3986
1.3512	1.8169	1.4477	1.1078	1.9093	1.7498	1.3008	1.4561	1.9051	1.0826	0.9945	1.3134	0.5707	-0.1678	0.6504	0.5077	0.3483	-0.3147	0.9274	0.3483	0.4154
1.2798	1.7498	1.4141	1.049	1.926	1.7834	1.2798	1.4812	1.9596	1.1078	1.0239	1.3973	0.642	-0.1301	0.5371	0.3315	0.2853	-0.2224	0.9399	0.3735	0.449
1.2211	1.6827	1.3763	0.9441	1.9176	1.7876	1.2505	1.4938	1.9806	1.1036	1.0742	1.4351	0.6378	-0.1217	0.4784	0.1427	0.235	-0.193	0.9651	0.3819	0.4742
1.1162	1.5526	1.2798	0.8308	1.8505	1.7414	1.1707	1.4477	1.968	1.0532	1.07	1.4519	0.6588	-0.0881	0.3651	-0.0252	0.1762	-0.1595	0.9106	0.3567	0.5035
0.9861	1.4477	1.2127	0.7217	1.8002	1.6827	1.1078	1.4057	1.9302	1.0406	1.0742	1.4477	0.6546	-0.0713	0.2392	-0.1972	0.1385	-0.1637	0.8896	0.3525	0.4742
0.8812	1.3428	1.0994	0.5791	1.7456	1.6239	1.0323	1.3554	1.9176	0.9735	1.0406	1.4519	0.6294	-0.0587	0.0923	-0.4322	0.1217	-0.1385	0.856	0.2979	0.4658
0.7469	1.1791	0.9903	0.4448	1.6197	1.5526	0.9483	1.2882	1.8547	0.9106	0.9903	1.3973	0.5959	-0.0504	-0.0336	-0.6042	0.1175	-0.1678	0.8476	0.2392	0.4238
0.6001	1.0365	0.8518	0.3021	1.5106	1.4477	0.8308	1.1917	1.7834	0.8308	0.9399	1.3512	0.5413	-0.0378	-0.1846	-0.7595	0.1175	-0.1804	0.8392	0.1678	0.3735
0.4826	0.9106	0.7511	0.1511	1.3931	1.347	0.7175	1.1078	1.6827	0.7427	0.8644	1.2714	0.4742	-0.0713	-0.2937	-0.8476	0.1553	-0.235	0.8183	0.0671	0.3231
0.3357	0.7427	0.5917	0.021	1.2211	1.2295	0.5791	0.9861	1.561	0.6378	0.7931	1.1833	0.3902	-0.0881	-0.3986	-0.9567	0.2098	-0.2769	0.7637	-0.0252	0.214
0.2602	0.6126	0.4951	-0.0923	1.0616	1.1204	0.4868	0.898	1.4393	0.5581	0.7343	1.1162	0.3273	-0.1133	-0.4154	-1.0113	0.2476	-0.3315	0.7637	-0.1175	0.1972
0.1804	0.4951	0.4196	-0.1846	0.9861	1.0448	0.3819	0.8224	1.368	0.47	0.6672	1.0532	0.2728	-0.1259	-0.4448	-0.9861	0.2895	-0.3609	0.7133	-0.1972	0.1091
0.0881	0.386	0.3231	-0.2769	0.8183	0.9525	0.3147	0.7679	1.2756	0.3777	0.5917	0.9315	0.2014	-0.1637	-0.4238	-0.919	0.3525	-0.4322	0.6882	-0.3021	0.0462
0.0168	0.2644	0.2434	-0.3483	0.7008	0.8518	0.214	0.6924	1.1414	0.2937	0.5287	0.8392	0.1469	-0.193	-0.3986	-0.877	0.428	-0.4784	0.6504	-0.3986	0
-0.0378	0.1804	0.2014	-0.4028	0.6252	0.7763	0.1678	0.6126	1.0616	0.2308	0.4616	0.7511	0.1007	-0.235	-0.3147	-0.7847	0.4993	-0.4993	0.642	-0.4868	-0.0336
-0.0629	0.1007	0.1469	-0.4364	0.5161	0.7092	0.0839	0.5707	0.9861	0.1469	0.449	0.663	0.0462	-0.2811	-0.2434	-0.6756	0.5833	-0.5413	0.621	-0.5791	-0.0462
-0.0797	0.0042	0.1133	-0.449	0.5035	0.642	0.0042	0.5245	0.9148	0.0839	0.386	0.6084	-0.0126	-0.3357	-0.1427	-0.5455	0.6924	-0.5791	0.663	-0.6462	-0.0546
-0.0755	-0.042	0.0671	-0.449	0.4532	0.621	-0.0378	0.4826	0.856	0.0294	0.3651	0.5455	-0.0084	-0.386	-0.0252	-0.3777	0.7931	-0.6001	0.6756	-0.7175	-0.0629
-0.1007	-0.0713	0.0587	-0.4574	0.428	0.5833	-0.0546	0.4742	0.8057	0.0042	0.3315	0.4784	-0.0546	-0.4154	0.0965	-0.214	0.8812	-0.6001	0.7008	-0.7427	-0.0587
-0.0713	-0.1175	0.0587	-0.428	0.4238	0.5707	-0.0755	0.491	0.7763	-0.021	0.3609	0.4616	-0.0546	-0.4742	0.1972	-0.021	0.9651	-0.6001	0.7469	-0.7679	-0.0168
-0.0587	-0.2014	0.0504	-0.4448	0.3986	0.5455	-0.1049	0.4826	0.7469	-0.0629	0.3147	0.4196	-0.0755	-0.5161	0.2853	0.1175	1.0532	-0.6001	0.7595	-0.8308	0.0252
-0.0629	-0.2518	0.0546	-0.4196	0.3777	0.5119	-0.1091	0.4574	0.7259	-0.0965	0.3147	0.3525	-0.0713	-0.5665	0.3902	0.256	1.133	-0.5833	0.7595	-0.8308	0.042
-0.0462	-0.2895	0.0168	-0.449	0.3525	0.4742	-0.1762	0.4322	0.6798	-0.1175	0.3147	0.3189	-0.0923	-0.6001	0.428	0.3357	1.2127	-0.5581	0.7553	-0.877	0.0881
-0.0252	-0.3189	0.0462	-0.4238	0.3525	0.4993	-0.1804	0.4448	0.6546	-0.1133	0.3357	0.3189	-0.0629	-0.6378	0.5203	0.449	1.2798	-0.5245	0.7385	-0.856	0.1427
-0.0336	-0.3441	-0.0168	-0.4322	0.3483	0.4574	-0.1804	0.4364	0.642	-0.1343	0.2853	0.2895	-0.0839	-0.6798	0.5497	0.491	1.3596	-0.4993	0.6882	-0.9064	0.193
-0.0042	-0.3735	-0.0084	-0.4196	0.2769	0.4574	-0.1888	0.4238	0.6168	-0.1469	0.2937	0.2644	-0.0797	-0.705	0.5917	0.6042	1.4393	-0.4742	0.6882	-0.8308	0.2728
0	-0.3819	-0.021	-0.449	0.2979	0.4322	-0.214	0.4028	0.5749	-0.1259	0.2853	0.2434	-0.0546	-0.7427	0.6126	0.6714	1.4896	-0.4658	0.6546	-0.8434	0.3399
0.0294	-0.3819	-0.0587	-0.4322	0.2811	0.3944	-0.1888	0.4112	0.5539	-0.1469	0.2811	0.2266	-0.0462	-0.7637	0.6756	0.7511	1.5358	-0.428	0.6504	-0.8015	0.3944
0.0294	-0.386	-0.0839	-0.4322	0.2182	0.3609	-0.193	0.3483	0.4951	-0.1637	0.256	0.1846	-0.0546	-0.7847	0.6756	0.7931	1.5736	-0.386	0.6126	-0.7595	0.4406
0.0294	-0.3777	-0.1007	-0.4406	0.1762	0.2979	-0.2266	0.3105	0.4322	-0.1846	0.2182	0.1553	-0.0546	-0.8015	0.642	0.8183	1.5987	-0.3693	0.5917	-0.7385	0.4993
0.021	-0.3777	-0.1511	-0.4322	0.1553	0.2728	-0.1762	0.2769	0.4112	-0.1762	0.2098	0.1301	-0.0504	-0.8057	0.6462	0.856	1.6155	-0.3273	0.5455	-0.6714	0.5245
-0.0084	-0.386	-0.2266	-0.4658	0.1007	0.193	-0.2056	0.2182	0.3399	-0.2098	0.1804	0.0881	-0.0713	-0.8183	0.5959	0.8518	1.6239	-0.3021	0.5245	-0.621	0.5287
-0.0504	-0.3693	-0.2853	-0.4784	0.0965	0.1427	-0.1972	0.1553	0.2853	-0.2056	0.1217	0.021	-0.0797	-0.8099	0.5077	0.8392	1.6155	-0.256	0.5077	-0.5623	0.5497
-0.1175	-0.3231	-0.3525	-0.5035	0.0923	0.0462	-0.2224	0.1133	0.2014	-0.256	0.0587	-0.0042	-0.1007	-0.8099	0.4742	0.7847	1.6197	-0.256	0.4616	-0.4658	0.5203
-0.1762	-0.3021	-0.4154	-0.5035	0.1049	-0.0294	-0.193	0.0378	0.1259	-0.2644	0.0168	-0.042	-0.1133	-0.7973	0.3986	0.7721	1.5862	-0.214	0.4406	-0.3902	0.5245
-0.2266	-0.2811	-0.491	-0.5119	0.1301	-0.0671	-0.2434	-0.0168	0.0671	-0.2895	-0.0504	-0.0881	-0.1175	-0.7889	0.3567	0.705	1.5903	-0.1972	0.3819	-0.3441	0.5035
-0.3063	-0.2098	-0.5371	-0.5497	0.1762	-0.1511	-0.2224	-0.0587	0.0252	-0.2686	-0.0713	-0.1133	-0.1301	-0.7931	0.2769	0.6252	1.5945	-0.1804	0.3483	-0.2811	0.4616
-0.3357	-0.1762	-0.6168	-0.5581	0.2224	-0.172	-0.2518	-0.0755	-0.0378	-0.2853	-0.1091	-0.1343	-0.1217	-0.7805	0.2686	0.5791	1.5736	-0.1678	0.3315	-0.235	0.4993
-0.4532	-0.1385	-0.6714	-0.6336	0.2308	-0.2392	-0.2728	-0.1427	-0.0965	-0.3357	-0.1637	-0.1637	-0.1888	-0.7931	0.1888	0.4993	1.5945	-0.2266	0.2853	-0.2518	0.4028
-0.5119	-0.1343	-0.7217	-0.6672	0.2392	-0.2895	-0.3399	-0.1595	-0.1217	-0.3819	-0.2014	-0.1846	-0.1972	-0.7889	0.1217	0.4238	1.5945	-0.2728	0.2434	-0.2392	0.386
-0.6042	-0.1133	-0.8015	-0.7175	0.2644	-0.3189	-0.3609	-0.2056	-0.1553	-0.407	-0.256	-0.235	-0.2434	-0.7847	0.0965	0.3483	1.5694	-0.2937	0.2056	-0.256	0.3105
-0.6462	-0.1511	-0.8392	-0.7721	0.256	-0.3902	-0.4364	-0.256	-0.2392	-0.4532	-0.3063	-0.2476	-0.3147	-0.7637	0.0336	0.256	1.54	-0.3441	0.1762	-0.2769	0.2266
-0.7175	-0.1804	-0.8854	-0.835	0.2098	-0.4238	-0.4616	-0.3063	-0.2644	-0.47	-0.3735	-0.2853	-0.3315	-0.7343	-0.0252	0.1469	1.4854	-0.3819	0.1175	-0.2811	0.1343
-0.7847	-0.214	-0.9399	-0.877	0.172	-0.4574	-0.5329	-0.3609	-0.2895	-0.5329	-0.4364	-0.2979	-0.3902	-0.7008	-0.0839	0.0378	1.4267	-0.449	0.0839	-0.3231	0.0504
-0.7805	-0.235	-0.9315	-0.8896	0.1301	-0.4448	-0.5455	-0.386	-0.2686	-0.5497	-0.5077	-0.3189	-0.4238	-0.6756	-0.0881	-0.0336	1.3512	-0.47	0.0713	-0.3735	-0.042
-0.7805	-0.2476	-0.9148	-0.9148	0.1133	-0.4238	-0.5623	-0.3902	-0.2728	-0.5287	-0.5287	-0.2937	-0.428	-0.6252	-0.1091	-0.0965	1.2589	-0.5245	0.0294	-0.3902	-0.1301
-0.7679	-0.2602	-0.9232	-0.9274	0.1007	-0.3944	-0.5959	-0.4238	-0.2979	-0.5539	-0.5791	-0.2895	-0.4322	-0.5959	-0.1091	-0.1007	1.1917	-0.5959	-0.0042	-0.4448	-0.2224
-0.7133	-0.235	-0.877	-0.8644	0.1175	-0.3483	-0.5707	-0.386	-0.2224	-0.5245	-0.6042	-0.2644	-0.4322	-0.5329	-0.0755	-0.1175	1.091	-0.6001	-0.0378	-0.449	-0.3105
-0.6966	-0.2224	-0.8266	-0.8308	0.1175	-0.2728	-0.5413	-0.3693	-0.193	-0.4993	-0.6462	-0.2098	-0.4154	-0.4951	-0.0546	-0.1133	1.0113	-0.6126	-0.0671	-0.4868	-0.407
-0.6084	-0.172	-0.7427	-0.7092	0.1469	-0.1678	-0.4868	-0.3273	-0.1217	-0.4616	-0.6588	-0.1637	-0.407	-0.4532	0.0378	-0.0378	0.9399	-0.6294	-0.0546	-0.5119	-0.4826
-0.5287	-0.1049	-0.6294	-0.6294	0.2056	-0.0755	-0.4154	-0.2518	-0.0126	-0.3735	-0.6378	-0.0923	-0.3399	-0.4154	0.1301	0.0168	0.8518	-0.621	-0.0462	-0.5203	-0.491
-0.4616	-0.042	-0.5707	-0.4993	0.2644	0.0168	-0.3819	-0.172	0.0755	-0.3357	-0.6462	-0.0252	-0.3315	-0.386	0.1888	0.0378	0.7847	-0.6294	0.0042	-0.5245	-0.5203
-0.3357	0.0629	-0.4574	-0.4028	0.386	0.1343	-0.2979	-0.1007	0.1637	-0.2602	-0.5791	0.0713	-0.2518	-0.3567	0.2853	0.0965	0.7301	-0.6001	0.0671	-0.5077	-0.5119
-0.2308	0.1846	-0.3399	-0.2602	0.5077	0.2644	-0.235	0.0126	0.2728	-0.1888	-0.5287	0.172	-0.193	-0.3315	0.3735	0.1637	0.663	-0.5707	0.1678	-0.4742	-0.4826
-0.1259	0.256	-0.2434	-0.1217	0.6001	0.3483	-0.1637	0.0755	0.3819	-0.0839	-0.491	0.2266	-0.1259	-0.3021	0.4406	0.2014	0.6294	-0.5035	0.2266	-0.4448	-0.4826
-0.0546	0.3399	-0.1427	-0.0084	0.6966	0.4448	-0.1007	0.1804	0.4532	0.0084	-0.449	0.3357	-0.0881	-0.2937	0.5035	0.2392	0.6084	-0.5203	0.2686	-0.4406	-0.428
0.0378	0.3777	-0.0336	0.1007	0.7385	0.5455	-0.0671	0.235	0.5623	0.0923	-0.3944	0.3986	-0.0294	-0.2811	0.5665	0.2602	0.5833	-0.4784	0.3231	-0.3902	-0.3609
0.0839	0.4322	0.021	0.1637	0.8224	0.6168	-0.0378	0.3147	0.6336	0.1469	-0.3399	0.491	0.0126	-0.2644	0.621	0.2686	0.5581	-0.4406	0.3525	-0.3651	-0.3357
0.1553	0.449	0.0965	0.2686	0.8392	0.7217	0.0042	0.3986	0.7343	0.2014	-0.3021	0.5413	0.0923	-0.2392	0.6756	0.3231	0.5203	-0.407	0.3902	-0.3147	-0.2644
0.2098	0.449	0.1595	0.3567	0.8686	0.7511	0.0504	0.428	0.7847	0.2476	-0.2895	0.6084	0.1217	-0.2308	0.7259	0.3693	0.491	-0.3944	0.4154	-0.2686	-0.256
0.2686	0.4448	0.2182	0.3944	0.8602	0.8308	0.0965	0.4616	0.856	0.3147	-0.2811	0.6504	0.1595	-0.2014	0.7637	0.4658	0.4532	-0.3147	0.4238	-0.2518	-0.2056
0.3399	0.4784	0.3063	0.4574	0.8728	0.8686	0.1469	0.5203	0.9148	0.3777	-0.2518	0.705	0.1846	-0.193	0.9064	0.5119	0.407	-0.2937	0.5119	-0.193	-0.1427
0.386	0.4574	0.3441	0.4993	0.8602	0.8812	0.1637	0.5287	0.9441	0.4112	-0.2434	0.7217	0.2098	-0.1888	0.9357	0.6168	0.3902	-0.2686	0.5119	-0.1595	-0.1133
0.4238	0.4658	0.3609	0.5161	0.835	0.9315	0.214	0.5707	1.0155	0.4406	-0.2308	0.7343	0.2266	-0.1678	1.049	0.7133	0.3777	-0.2686	0.5455	-0.1553	-0.0671
0.5161	0.4742	0.4616	0.5707	0.877	0.9693	0.2098	0.621	1.0658	0.4868	-0.1846	0.8057	0.256	-0.1637	1.1623	0.8308	0.3483	-0.2476	0.6378	-0.0923	0
0.5371	0.4322	0.4532	0.5581	0.856	0.9567	0.2476	0.6252	1.0742	0.5329	-0.1678	0.7889	0.256	-0.172	1.2505	0.919	0.3693	-0.2602	0.6504	-0.1007	0.0462
0.5497	0.407	0.4784	0.5077	0.8644	0.9525	0.2434	0.6588	1.0868	0.5413	-0.1762	0.8015	0.2434	-0.193	1.368	1.0155	0.3944	-0.2728	0.7175	-0.1175	0.1175
0.5791	0.428	0.5035	0.5203	0.8812	0.9357	0.2266	0.6882	1.07	0.5497	-0.1637	0.8015	0.2182	-0.2098	1.4729	1.1288	0.4238	-0.2769	0.7217	-0.1133	0.1343
0.5665	0.3819	0.5161	0.5329	0.8938	0.9148	0.2476	0.684	1.1036	0.5455	-0.1217	0.8015	0.214	-0.2266	1.5778	1.2463	0.47	-0.2979	0.7427	-0.1007	0.1762
0.5413	0.3021	0.4784	0.4574	0.8812	0.856	0.2014	0.6756	1.0365	0.5119	-0.1511	0.7595	0.1637	-0.2476	1.6239	1.2798	0.5203	-0.3441	0.7092	-0.1133	0.1678
0.5161	0.214	0.428	0.4196	0.8602	0.8266	0.1804	0.6294	1.0113	0.4784	-0.1553	0.7217	0.1637	-0.2686	1.6659	1.3344	0.5581	-0.3777	0.6546	-0.1133	0.172
0.449	0.1595	0.3902	0.2937	0.8434	0.7175	0.1007	0.6084	0.9399	0.4112	-0.1846	0.684	0.0965	-0.3063	1.6617	1.3554	0.6168	-0.428	0.5917	-0.1217	0.1469
0.386	0.0671	0.3105	0.2014	0.7847	0.6252	0.0294	0.5245	0.8686	0.3609	-0.2686	0.5959	0	-0.3147	1.6785	1.3973	0.663	-0.5119	0.4784	-0.172	0.1133
0.3063	-0.0084	0.2182	0.0923	0.7259	0.5119	-0.1007	0.4238	0.7553	0.2182	-0.3231	0.4826	-0.0839	-0.3483	1.6743	1.4519	0.7092	-0.621	0.3819	-0.2266	0.0587
0.1972	-0.1385	0.0965	-0.042	0.6378	0.407	-0.2182	0.3483	0.6462	0.1385	-0.3944	0.386	-0.1762	-0.3609	1.6533	1.4938	0.7427	-0.6798	0.3105	-0.2895	0.021
0.1511	-0.2308	0.0084	-0.1637	0.5539	0.2602	-0.3525	0.2686	0.4993	-0.0042	-0.491	0.2434	-0.3315	-0.3944	1.6659	1.54	0.7763	-0.8015	0.1888	-0.3651	-0.0797
0.0923	-0.3063	-0.0797	-0.3189	0.4658	0.1007	-0.4784	0.1301	0.3735	-0.1217	-0.5791	0.1091	-0.449	-0.3986	1.6491	1.5736	0.7847	-0.8896	0.0755	-0.4406	-0.1343
0	-0.4154	-0.235	-0.4448	0.3483	-0.042	-0.621	0	0.1846	-0.2979	-0.663	-0.0336	-0.5707	-0.3651	1.6155	1.6197	0.7637	-0.9525	-0.0336	-0.47	-0.2392
-0.1007	-0.4742	-0.3525	-0.5749	0.2434	-0.2182	-0.7637	-0.0923	0.0336	-0.4238	-0.8141	-0.1804	-0.7008	-0.3651	1.5945	1.6029	0.7427	-1.0658	-0.1217	-0.5581	-0.3231
-0.2098	-0.5959	-0.4993	-0.7175	0.1091	-0.3777	-0.898	-0.235	-0.1259	-0.5959	-0.9148	-0.3651	-0.856	-0.3483	1.5274	1.6197	0.7133	-1.1288	-0.2434	-0.642	-0.4742
-0.3441	-0.6672	-0.6378	-0.8476	-0.0336	-0.5287	-1.0323	-0.3902	-0.2853	-0.7343	-1.0281	-0.5203	-0.9777	-0.3315	1.498	1.5945	0.6798	-1.2253	-0.3483	-0.6882	-0.5917
-0.4532	-0.7301	-0.7679	-0.9232	-0.1175	-0.6924	-1.1497	-0.4826	-0.4826	-0.8518	-1.1204	-0.6546	-1.0868	-0.3021	1.4603	1.5568	0.6168	-1.2714	-0.3944	-0.7427	-0.684
-0.5203	-0.7763	-0.9064	-1.0406	-0.1804	-0.8224	-1.2253	-0.5539	-0.621	-0.9441	-1.2043	-0.8183	-1.1707	-0.2769	1.4477	1.5274	0.5707	-1.284	-0.4826	-0.7805	-0.7637
-0.6378	-0.8434	-1.0532	-1.1204	-0.2308	-0.9651	-1.347	-0.6462	-0.7427	-1.0532	-1.3008	-0.9315	-1.2589	-0.2476	1.4015	1.4854	0.5119	-1.3176	-0.5203	-0.8224	-0.8644
-0.7511	-0.8812	-1.1414	-1.1372	-0.2853	-1.0616	-1.3638	-0.7175	-0.835	-1.1162	-1.3344	-1.0197	-1.3008	-0.1972	1.3973	1.4519	0.4448	-1.263	-0.5581	-0.8141	-0.9399
-0.8476	-0.8686	-1.2547	-1.1497	-0.2518	-1.1288	-1.3847	-0.7385	-0.9064	-1.1707	-1.3596	-1.0868	-1.2966	-0.1678	1.3889	1.4183	0.3651	-1.2211	-0.5707	-0.8183	-0.9861
-0.8812	-0.8476	-1.3092	-1.1456	-0.235	-1.1707	-1.3805	-0.7008	-0.919	-1.1581	-1.3638	-1.091	-1.2798	-0.1343	1.3596	1.3847	0.2937	-1.133	-0.5581	-0.8015	-1.0155
-0.9735	-0.8392	-1.3721	-1.133	-0.1846	-1.1707	-1.347	-0.6714	-0.898	-1.1497	-1.3428	-1.1036	-1.263	-0.0965	1.326	1.305	0.2224	-1.0826	-0.5245	-0.7637	-1.0113
-1.0742	-0.7847	-1.4477	-1.0742	-0.1301	-1.1959	-1.3008	-0.6252	-0.8854	-1.1078	-1.326	-1.0742	-1.1917	-0.0671	1.2463	1.2379	0.1553	-0.9777	-0.4826	-0.7301	-0.9903
-1.112	-0.705	-1.4477	-1.0113	-0.0587	-1.133	-1.2337	-0.5539	-0.8141	-1.0742	-1.2127	-1.0155	-1.1036	-0.0378	1.1623	1.1456	0.0671	-0.8476	-0.4028	-0.6756	-0.9315
-1.2001	-0.6882	-1.5064	-0.9609	0.0252	-1.1036	-1.1456	-0.4951	-0.7385	-0.9609	-1.1456	-0.9819	-0.9987	0.0084	1.0616	1.0365	0.0042	-0.7133	-0.3609	-0.6378	-0.8476
-1.2421	-0.6126	-1.5064	-0.9148	0.1091	-1.049	-1.1036	-0.4112	-0.663	-0.856	-1.0448	-0.8938	-0.8812	0.042	0.9399	0.9357	-0.0755	-0.5665	-0.2895	-0.5665	-0.7805
-1.3386	-0.6378	-1.5568	-0.8686	0.1259	-1.0155	-0.9945	-0.3651	-0.5791	-0.7931	-0.9777	-0.8308	-0.7679	0.0923	0.7847	0.7973	-0.1427	-0.4028	-0.2518	-0.4951	-0.7092
-1.4015	-0.6126	-1.582	-0.8686	0.1343	-0.9525	-0.9525	-0.2644	-0.4993	-0.7008	-0.8896	-0.7595	-0.6546	0.1133	0.6252	0.6378	-0.2098	-0.2895	-0.2098	-0.4364	-0.5623
-1.498	-0.6504	-1.6239	-0.8686	0.1553	-0.9106	-0.8686	-0.2266	-0.4238	-0.6042	-0.8057	-0.6966	-0.5455	0.1343	0.4364	0.4951	-0.2518	-0.1427	-0.1846	-0.407	-0.4532
-1.5987	-0.6714	-1.6827	-0.8644	0.1259	-0.8644	-0.8057	-0.2014	-0.3525	-0.5287	-0.7427	-0.6084	-0.4238	0.1511	0.2476	0.3483	-0.3021	-0.0042	-0.1637	-0.3735	-0.3651
-1.6743	-0.7259	-1.7036	-0.8518	0.1007	-0.8518	-0.7553	-0.1804	-0.2895	-0.4574	-0.6756	-0.5077	-0.3357	0.1804	0.021	0.2182	-0.3357	0.1427	-0.1595	-0.3021	-0.2308
-1.7792	-0.7721	-1.775	-0.8686	0.0671	-0.8057	-0.6882	-0.1553	-0.2056	-0.3567	-0.5791	-0.449	-0.2098	0.1804	-0.1427	0.0671	-0.3609	0.2895	-0.1385	-0.2644	-0.0881
-1.9009	-0.856	-1.8631	-0.9274	-0.0084	-0.8015	-0.6756	-0.2014	-0.1846	-0.3357	-0.5623	-0.3944	-0.1385	0.193	-0.3777	-0.0797	-0.3525	0.3944	-0.1637	-0.235	-0.021
-1.9848	-0.9441	-1.8967	-0.9903	-0.1049	-0.7889	-0.6756	-0.2014	-0.1469	-0.2769	-0.5077	-0.3567	-0.0546	0.1888	-0.5707	-0.1804	-0.3399	0.4951	-0.1553	-0.2182	0.1091
-2.1023	-1.0113	-1.989	-1.0658	-0.1637	-0.8141	-0.6882	-0.2392	-0.1469	-0.2602	-0.491	-0.3063	0	0.1804	-0.7511	-0.2811	-0.3147	0.5791	-0.193	-0.2098	0.1846
-2.2114	-1.0826	-2.0855	-1.1497	-0.2434	-0.8728	-0.7553	-0.2728	-0.1595	-0.2728	-0.5077	-0.2937	0.0587	0.1511	-0.9945	-0.3902	-0.2686	0.6462	-0.2098	-0.2392	0.2895
-2.3792	-1.2211	-2.2114	-1.2966	-0.386	-0.9609	-0.7847	-0.3525	-0.1888	-0.2979	-0.4993	-0.3231	0.0587	0.1175	-1.1875	-0.4868	-0.193	0.6672	-0.2476	-0.2602	0.3525
-2.5009	-1.326	-2.3121	-1.4141	-0.4616	-0.9945	-0.856	-0.4448	-0.2392	-0.3567	-0.5287	-0.3483	0.0713	0.0755	-1.3596	-0.6001	-0.1175	0.7259	-0.2434	-0.2644	0.4112
-2.6184	-1.4183	-2.4254	-1.5652	-0.5623	-1.0868	-0.9441	-0.5161	-0.2769	-0.407	-0.5497	-0.3483	0.0671	0.042	-1.5022	-0.6504	-0.042	0.7553	-0.2266	-0.3063	0.4826
-2.7275	-1.498	-2.5764	-1.7246	-0.6252	-1.2001	-1.0742	-0.6001	-0.3483	-0.4993	-0.5623	-0.386	0.0504	-0.0126	-1.6785	-0.7008	0.0629	0.7469	-0.2392	-0.3357	0.5245
-2.8618	-1.6113	-2.6855	-1.8925	-0.7301	-1.305	-1.2295	-0.6756	-0.4364	-0.5665	-0.6168	-0.4364	0.0168	-0.0713	-1.7792	-0.7595	0.1595	0.7511	-0.2266	-0.3944	0.5833
-2.9583	-1.7204	-2.824	-2.0561	-0.8392	-1.4099	-1.347	-0.7721	-0.5665	-0.6588	-0.6462	-0.4993	-0.0168	-0.1091	-1.8757	-0.7847	0.2602	0.7595	-0.2602	-0.4238	0.5623
-3.038	-1.796	-2.9163	-2.2156	-0.919	-1.5064	-1.4603	-0.8308	-0.6504	-0.7595	-0.684	-0.5371	-0.0629	-0.1678	-1.9722	-0.8308	0.3525	0.7092	-0.2518	-0.4448	0.5917
-3.1303	-1.8673	-3.0087	-2.3624	-0.9777	-1.6197	-1.582	-0.9106	-0.7469	-0.8476	-0.7301	-0.6084	-0.1091	-0.193	-2.01	-0.856	0.4364	0.7133	-0.235	-0.4574	0.6168
-3.1555	-1.9344	-3.1136	-2.4883	-1.0658	-1.6953	-1.6911	-0.9735	-0.8602	-0.9441	-0.7595	-0.6798	-0.1343	-0.256	-2.0309	-0.9106	0.5287	0.6798	-0.2308	-0.4993	0.6462
-3.1513	-1.9554	-3.1555	-2.589	-1.1246	-1.7582	-1.8044	-1.0029	-0.9441	-1.0281	-0.8015	-0.7343	-0.2014	-0.2895	-2.0645	-0.9567	0.6001	0.6714	-0.2056	-0.5077	0.6798
-3.1849	-2.0058	-3.2227	-2.6939	-1.1791	-1.8211	-1.8799	-1.0826	-1.0616	-1.1204	-0.8308	-0.7679	-0.2602	-0.3105	-2.1065	-0.9777	0.6588	0.6294	-0.2308	-0.5203	0.7133
-3.1891	-2.0226	-3.2394	-2.7779	-1.1749	-1.8673	-1.9386	-1.1036	-1.1288	-1.1791	-0.8392	-0.8183	-0.2979	-0.3525	-2.0897	-1.0239	0.7133	0.6168	-0.2308	-0.5329	0.7385
-3.1597	-2.01	-3.2185	-2.803	-1.1917	-1.9051	-1.9932	-1.1204	-1.2085	-1.2589	-0.8434	-0.8518	-0.3399	-0.3609	-2.1065	-1.0197	0.7469	0.5581	-0.2182	-0.5371	0.8099
-3.101	-1.9344	-3.1723	-2.7737	-1.1749	-1.9218	-2.0267	-1.1036	-1.2295	-1.2756	-0.835	-0.8812	-0.3735	-0.3651	-2.0645	-1.0281	0.7637	0.5623	-0.2476	-0.5329	0.8518
-3.0045	-1.8505	-3.1178	-2.7485	-1.112	-1.8673	-2.0309	-1.091	-1.2379	-1.2714	-0.8099	-0.8812	-0.3777	-0.3777	-2.0519	-1.0448	0.7553	0.5707	-0.2266	-0.5245	0.9064
-2.9247	-1.7876	-2.9961	-2.6604	-1.0281	-1.7876	-1.9722	-1.0155	-1.2295	-1.2798	-0.7511	-0.8392	-0.3609	-0.3693	-2.0226	-1.0532	0.7385	0.5875	-0.2056	-0.47	0.9525
-2.824	-1.6281	-2.8954	-2.5345	-0.9148	-1.7162	-1.8883	-0.9483	-1.1707	-1.2463	-0.6924	-0.7511	-0.2895	-0.3231	-1.9554	-1.0281	0.6798	0.6294	-0.1972	-0.3986	0.9861
-2.6478	-1.4938	-2.7023	-2.3457	-0.7847	-1.5736	-1.7876	-0.8602	-1.133	-1.1791	-0.6168	-0.6672	-0.2602	-0.3147	-1.9428	-1.0239	0.6252	0.705	-0.1637	-0.3399	1.0658
-2.4799	-1.326	-2.4925	-2.1065	-0.5833	-1.3721	-1.6113	-0.7301	-0.9651	-1.0365	-0.491	-0.5287	-0.172	-0.2686	-1.8253	-0.9735	0.5581	0.7805	-0.1595	-0.2434	1.133
-2.2366	-1.0826	-2.2408	-1.8589	-0.4364	-1.1581	-1.4309	-0.5707	-0.7973	-0.9357	-0.3567	-0.3819	-0.0504	-0.2476	-1.7372	-0.9274	0.5035	0.8686	-0.0965	-0.1678	1.1875
-1.9974	-0.835	-1.9554	-1.54	-0.2266	-0.9274	-1.1959	-0.4238	-0.6378	-0.7259	-0.1972	-0.1804	0.1007	-0.1972	-1.5903	-0.8392	0.4322	0.9609	-0.0546	-0.0504	1.2547
-1.7288	-0.6084	-1.6533	-1.2211	-0.0084	-0.6588	-0.9651	-0.2644	-0.4028	-0.5623	-0.0629	0.0126	0.2182	-0.1888	-1.4603	-0.7763	0.4028	1.0532	0.0168	0.0336	1.2924
-1.4309	-0.3063	-1.2966	-0.8728	0.2308	-0.3273	-0.6966	-0.0629	-0.1595	-0.3273	0.1217	0.256	0.4238	-0.1762	-1.3344	-0.7343	0.3567	1.1665	0.0755	0.1762	1.3596
-1.0952	-0.0252	-0.9441	-0.5035	0.4742	0.0126	-0.4154	0.1637	0.1133	-0.1007	0.3315	0.5245	0.6126	-0.1511	-1.1372	-0.6378	0.3357	1.2924	0.1678	0.2937	1.4351
-0.7427	0.2769	-0.5371	-0.0965	0.7385	0.3483	-0.1343	0.4154	0.4448	0.1385	0.5413	0.7847	0.7889	-0.1553	-0.9945	-0.5665	0.3483	1.3554	0.2308	0.3986	1.4938
-0.4028	0.5875	-0.1595	0.256	1.0029	0.7385	0.1637	0.6588	0.7679	0.4196	0.7763	1.0742	1.0029	-0.1511	-0.8434	-0.4532	0.3399	1.5022	0.3273	0.5371	1.54
-0.0084	0.9483	0.2811	0.6882	1.3428	1.1623	0.5119	0.9777	1.1623	0.7259	1.0239	1.4225	1.2672	-0.1427	-0.6042	-0.3525	0.3021	1.6407	0.4322	0.6966	1.5945
0.3693	1.305	0.7259	1.049	1.6533	1.5694	0.8392	1.2882	1.6029	1.0658	1.2924	1.7624	1.5022	-0.1469	-0.4112	-0.2308	0.3021	1.7456	0.5119	0.8015	1.6575
0.7721	1.6533	1.1581	1.4477	1.9806	2.01	1.1665	1.6113	2.0058	1.3721	1.5568	2.1191	1.7876	-0.1427	-0.2266	-0.0881	0.2895	1.8715	0.6252	0.9735	1.7372
1.1917	2.0226	1.6281	1.8295	2.3624	2.4673	1.54	1.9302	2.4464	1.6953	1.8505	2.4715	2.0645	-0.1217	-0.0084	0.0629	0.2644	2.0058	0.7595	1.1288	1.7624
1.5987	2.4086	2.0477	2.2449	2.7317	2.9121	1.9009	2.2911	2.9037	2.0687	2.1442	2.8828	2.3415	-0.1049	0.1804	0.2098	0.2182	2.1526	0.8602	1.2756	1.8295
1.9932	2.8072	2.5051	2.5932	3.1429	3.3779	2.3037	2.6562	3.3779	2.4673	2.4464	3.2646	2.631	-0.0713	0.4448	0.3735	0.1678	2.2827	1.0071	1.4141	1.8799
2.375	3.1681	2.9751	2.9961	3.508	3.8731	2.6562	3.0087	3.8815	2.8366	2.7611	3.68	2.9541	-0.0587	0.6756	0.5833	0.1301	2.4338	1.1623	1.5778	1.9051
2.8114	3.6087	3.4199	3.4073	3.9612	4.3556	3.08	3.3653	4.406	3.2352	3.0464	4.1332	3.2772	-0.0126	0.8938	0.8099	0.0629	2.5639	1.347	1.712	1.9806
3.2269	4.0241	3.936	3.8269	4.3976	4.8801	3.4744	3.764	4.9305	3.6591	3.3821	4.5528	3.6129	0.0252	1.2169	1.0868	-0.021	2.6897	1.5484	1.8715	2.0603
3.6591	4.4689	4.4102	4.2088	4.8256	5.3669	3.8857	4.171	5.4508	4.0661	3.7136	4.985	3.9444	0.0713	1.5442	1.4015	-0.0965	2.8492	1.733	2.0351	2.1358
4.1122	4.8843	4.9011	4.6368	5.2746	5.8872	4.3262	4.578	6.0089	4.4731	4.0493	5.4382	4.2927	0.1007	1.8883	1.775	-0.1637	2.9625	1.8925	2.1946	2.2324
4.5696	5.3291	5.4047	5.0522	5.711	6.4034	4.7039	4.9431	6.546	4.8801	4.3724	5.8872	4.6368	0.1427	2.2743	2.1484	-0.2518	3.0716	2.0981	2.3457	2.3457
5.027	5.7739	5.925	5.476	6.1432	6.8859	5.1361	5.3249	7.1041	5.283	4.6829	6.311	4.9557	0.1888	2.6772	2.5639	-0.3315	3.1639	2.2617	2.4967	2.4212
5.455	6.1893	6.3698	5.8578	6.5838	7.3601	5.5096	5.6732	7.6202	5.6648	4.9599	6.6845	5.2662	0.2392	3.0674	2.9499	-0.4364	3.2772	2.4632	2.6184	2.5135
5.925	6.6467	6.8691	6.2691	6.995	7.8594	5.8704	6.0551	8.107	6.0593	5.2578	7.0915	5.5473	0.256	3.487	3.4031	-0.4951	3.315	2.652	2.7317	2.6226
6.3404	7.0244	7.3181	6.6593	7.3349	8.3042	6.2481	6.3698	8.5938	6.3866	5.5096	7.444	5.8033	0.2979	3.8605	3.8311	-0.5665	3.3779	2.8324	2.8324	2.7317
6.7348	7.3769	7.7461	7.0244	7.6664	8.7364	6.567	6.6341	9.0302	6.7432	5.7236	7.7923	6.0635	0.3357	4.2423	4.2423	-0.6252	3.3863	2.9709	2.9079	2.7988
7.1545	7.7335	8.1532	7.3643	7.9727	9.0973	6.8985	6.9321	9.433	7.037	5.925	8.0776	6.2397	0.3609	4.6032	4.641	-0.663	3.4031	3.1136	3.0003	2.866
7.4692	8.0105	8.5266	7.7	8.2077	9.4707	7.2174	7.1377	9.7939	7.3055	6.097	8.3546	6.4159	0.386	4.9221	5.0564	-0.6882	3.3779	3.252	3.0716	2.9163
7.7755	8.2916	8.8581	7.9895	8.4679	9.798	7.4944	7.3517	10.1337	7.5573	6.2229	8.577	6.588	0.3735	5.241	5.4214	-0.7092	3.3401	3.3863	3.1052	2.9457
8.0399	8.4846	9.156	8.2664	8.6567	10.096	7.7251	7.4902	10.4191	7.7461	6.2817	8.7532	6.7097	0.3819	5.5222	5.7529	-0.7133	3.3024	3.466	3.1303	2.9121
8.2832	8.6609	9.4036	8.4805	8.8245	10.3268	7.9517	7.5909	10.6289	7.9224	6.332	8.8917	6.7978	0.3819	5.7236	6.0635	-0.7092	3.2269	3.5122	3.1555	2.9037
8.4637	8.7658	9.6218	8.6483	8.9252	10.4904	8.1196	7.658	10.7841	8.0482	6.3278	8.984	6.8272	0.3525	5.904	6.3404	-0.6882	3.1178	3.529	3.1555	2.8534
8.5812	8.8245	9.7771	8.7868	8.9756	10.6667	8.2664	7.6832	10.931	8.1615	6.2649	9.0302	6.8481	0.3693	6.0928	6.5376	-0.6756	3.0087	3.529	3.1639	2.7527
8.7029	8.8749	9.8862	8.8959	9.0176	10.7506	8.3755	7.6496	10.994	8.2077	6.2187	9.0343	6.8188	0.3231	6.181	6.7474	-0.6294	2.8786	3.5038	3.0968	2.652
8.7574	8.8917	9.9953	8.9882	8.984	10.8429	8.4427	7.5867	11.0107	8.2329	6.1306	8.9924	6.7726	0.3315	6.2817	6.9321	-0.6126	2.7485	3.4451	3.0758	2.5597
8.8036	8.8749	10.0582	9.0427	8.9882	10.8513	8.4763	7.5153	10.994	8.1951	6.0047	8.9504	6.7181	0.3189	6.353	7.0915	-0.5875	2.5932	3.4115	3.0296	2.3918
8.791	8.7952	10.054	9.0427	8.9001	10.8597	8.4679	7.3727	10.9058	8.1112	5.8453	8.791	6.6132	0.2895	6.3446	7.2006	-0.5413	2.4422	3.3443	2.9331	2.2366
8.7826	8.6987	10.0498	9.026	8.8329	10.8177	8.4553	7.2384	10.8177	8.0399	5.6648	8.6609	6.4999	0.2728	6.353	7.251	-0.4951	2.2911	3.2394	2.8744	2.0939
8.7448	8.5644	10.0204	9.0176	8.7029	10.7632	8.4133	7.0999	10.7002	7.9601	5.4466	8.5014	6.3572	0.2392	6.353	7.3223	-0.4448	2.1568	3.1429	2.7695	1.9009
8.6525	8.4217	9.9407	8.9546	8.5434	10.6583	8.3294	6.8775	10.5072	7.8175	5.2536	8.3126	6.2061	0.2056	6.2775	7.3811	-0.386	1.989	3.0338	2.6814	1.7288
8.556	8.2245	9.8526	8.8707	8.3462	10.5282	8.2413	6.6761	10.3352	7.6664	5.0102	8.0818	6.0467	0.172	6.2397	7.3895	-0.3231	1.8379	2.9373	2.5764	1.5778
8.4595	8.0147	9.7435	8.7448	8.1112	10.3687	8.1112	6.4411	10.1086	7.4902	4.7501	7.83	5.8537	0.1385	6.139	7.3769	-0.2518	1.6491	2.7863	2.4254	1.368
8.342	7.8091	9.5673	8.5979	7.8468	10.2051	7.935	6.1935	9.8316	7.272	4.4941	7.5741	5.6229	0.1217	6.0383	7.3559	-0.1888	1.5274	2.6604	2.3163	1.1959
8.2035	7.5783	9.4414	8.4301	7.6118	10.0204	7.7839	5.9544	9.6134	7.0873	4.2297	7.3433	5.4424	0.0755	5.946	7.3643	-0.1175	1.3889	2.5135	2.1946	1.0239
8.065	7.3223	9.2358	8.2832	7.3223	9.7897	7.5783	5.6732	9.3323	6.8649	3.9989	7.0705	5.2536	0.0336	5.862	7.3013	-0.0504	1.2547	2.3876	2.0897	0.8812
7.9056	7.0789	9.0595	8.0776	7.0873	9.584	7.4104	5.4382	9.0763	6.6593	3.743	6.8146	5.048	0	5.7655	7.2636	0.0252	1.091	2.2366	1.9428	0.7175
7.7251	6.8104	8.8539	7.8846	6.802	9.3658	7.2132	5.1823	8.7658	6.4285	3.4954	6.5125	4.8466	-0.0336	5.6355	7.1796	0.1133	0.9693	2.1149	1.8044	0.5791
7.5531	6.546	8.6315	7.6664	6.5418	9.1141	7.0076	4.9095	8.4846	6.1893	3.2394	6.2229	4.6116	-0.0881	5.5305	7.0789	0.2014	0.8728	1.968	1.6659	0.449
7.3643	6.3278	8.4133	7.4524	6.2859	8.8791	6.8104	4.6619	8.1909	5.9544	3.0087	5.946	4.4228	-0.1511	5.4173	6.9447	0.3063	0.7301	1.8757	1.5232	0.3273
7.1587	6.0886	8.1615	7.188	6.0593	8.6231	6.5754	4.4186	7.9098	5.7278	2.803	5.6606	4.2171	-0.193	5.2956	6.7768	0.3986	0.5959	1.7582	1.3889	0.2602
6.9447	5.8662	7.935	6.9656	5.8201	8.3881	6.3614	4.1794	7.6286	5.4676	2.631	5.4214	4.0241	-0.2392	5.2242	6.6467	0.491	0.5119	1.6575	1.2547	0.1846
6.739	5.6145	7.6916	6.7265	5.6019	8.128	6.1264	3.957	7.3265	5.2284	2.4044	5.1109	3.8269	-0.2979	5.1277	6.4453	0.5917	0.3819	1.5736	1.091	0.1007
6.5125	5.4005	7.4398	6.4579	5.3669	7.8762	5.862	3.7304	7.0454	4.9683	2.224	4.8759	3.6171	-0.3483	4.9431	6.2523	0.7092	0.2602	1.4309	0.9525	0.0629
6.3068	5.2242	7.23	6.2481	5.2032	7.6538	5.6774	3.5458	6.7978	4.7585	2.0813	4.6494	3.4492	-0.3986	4.9179	6.076	0.8057	0.193	1.368	0.8224	0.0252
6.118	5.0522	6.9782	6.0005	5.0228	7.4188	5.4592	3.3443	6.5376	4.5822	1.9512	4.4228	3.2982	-0.4532	4.8004	5.8537	0.9064	0.1217	1.2756	0.6882	0.021
5.9166	4.8676	6.7684	5.7655	4.8466	7.1587	5.2494	3.1597	6.2901	4.3598	1.8044	4.2171	3.1429	-0.4951	4.6955	5.6187	1.0071	0.0462	1.2043	0.5875	-0.0126
5.711	4.6997	6.5376	5.5809	4.6661	6.9447	5.069	3.0296	6.0719	4.1794	1.7246	4.0661	3.0338	-0.5497	4.599	5.4256	1.1078	0.021	1.1288	0.4784	0.0168
5.5557	4.5403	6.3194	5.4005	4.4941	6.7097	4.8969	2.866	5.8704	4.0115	1.6617	3.8982	2.9289	-0.5917	4.4899	5.2494	1.2085	0	1.0658	0.4028	0.0168
5.4173	4.3934	6.1893	5.2536	4.3556	6.5502	4.7836	2.7611	5.7026	3.915	1.6155	3.7849	2.8744	-0.621	4.4312	5.0858	1.263	0.0126	1.0071	0.3189	0.0713
5.2536	4.2213	5.9963	5.0774	4.192	6.311	4.6368	2.6688	5.5389	3.7975	1.5736	3.68	2.8198	-0.6756	4.3304	4.9557	1.3721	0.021	0.9777	0.2602	0.0881
5.1319	4.0619	5.8537	4.9515	4.0199	6.1684	4.5235	2.5429	5.3501	3.6968	1.5274	3.5709	2.7485	-0.7385	4.2213	4.7836	1.4603	0.0629	0.9232	0.214	0.1385
5.006	3.8857	5.7194	4.8592	3.9066	6.0215	4.4102	2.4464	5.2158	3.6339	1.5232	3.529	2.7443	-0.7427	4.1458	4.6661	1.5148	0.1259	0.8812	0.2056	0.172
4.8927	3.743	5.5641	4.7836	3.7598	5.8746	4.343	2.3792	5.1109	3.5961	1.5442	3.4954	2.7527	-0.7763	4.0745	4.6032	1.561	0.2056	0.8266	0.1888	0.2602
4.7501	3.5877	5.4089	4.6913	3.6507	5.6942	4.2759	2.2743	4.9683	3.5625	1.5274	3.4367	2.7485	-0.8057	3.9486	4.5109	1.6281	0.256	0.7553	0.172	0.3021
4.62	3.4283	5.2788	4.62	3.5038	5.5641	4.2171	2.2198	4.8676	3.5122	1.5652	3.4157	2.7527	-0.8266	3.8563	4.427	1.6659	0.3525	0.6924	0.1846	0.3651
4.4605	3.2604	5.1361	4.5361	3.3821	5.4256	4.1332	2.1484	4.7459	3.4828	1.582	3.3947	2.7988	-0.8476	3.7304	4.3682	1.7036	0.4406	0.6126	0.193	0.4154
4.364	3.1261	5.0186	4.5067	3.3318	5.3165	4.1164	2.1191	4.6787	3.4912	1.6575	3.4199	2.8576	-0.8602	3.6339	4.3304	1.712	0.5413	0.5539	0.1888	0.4868
4.2339	2.9835	4.9011	4.5025	3.2352	5.1781	4.0493	2.0645	4.5948	3.4828	1.6785	3.4325	2.9037	-0.8686	3.4996	4.3011	1.754	0.6294	0.4784	0.1888	0.5791
4.1039	2.8282	4.7375	4.4144	3.1429	5.0648	3.9738	2.0184	4.5235	3.4828	1.7624	3.4451	2.9499	-0.877	3.3779	4.2969	1.7582	0.7301	0.4364	0.1888	0.6672
3.9738	2.7065	4.6368	4.3808	3.0842	4.9599	3.9444	1.9974	4.4605	3.4786	1.8169	3.4786	3.0296	-0.9022	3.2436	4.2549	1.7834	0.835	0.3986	0.193	0.7931
3.8898	2.5974	4.5319	4.3472	3.0422	4.8717	3.894	2.01	4.385	3.4996	1.8841	3.5583	3.1261	-0.8938	3.1597	4.2969	1.775	1.0197	0.3777	0.172	0.8812
3.764	2.4757	4.4228	4.3011	2.9793	4.7878	3.8143	2.0058	4.3472	3.4912	2.0016	3.5793	3.2352	-0.8854	3.0296	4.3388	1.7834	1.1581	0.3399	0.2182	1.0239
3.6507	2.3499	4.2843	4.2339	2.887	4.6787	3.7514	1.9764	4.2717	3.4912	2.0687	3.6297	3.294	-0.8938	2.9583	4.364	1.7666	1.2882	0.3273	0.2182	1.1665
3.5416	2.2156	4.1836	4.1794	2.8114	4.5654	3.6968	1.9722	4.2297	3.5248	2.1694	3.6968	3.3863	-0.877	2.8534	4.4018	1.754	1.4561	0.3189	0.2098	1.3092
3.4786	2.0813	4.0493	4.1332	2.7023	4.4605	3.6381	1.947	4.1584	3.529	2.2408	3.7262	3.4409	-0.8476	2.8324	4.4605	1.7204	1.5987	0.2853	0.2182	1.4393
3.3737	1.9512	3.9276	4.0493	2.6058	4.343	3.5583	1.926	4.0955	3.5038	2.2911	3.7556	3.529	-0.856	2.7737	4.4815	1.6994	1.7204	0.2602	0.1762	1.5945
3.2814	1.7918	3.7933	3.9738	2.4757	4.2423	3.5122	1.8967	4.0409	3.5122	2.3876	3.7766	3.6171	-0.8476	2.7443	4.4857	1.6617	1.8631	0.2308	0.1469	1.7498
3.2143	1.6197	3.6758	3.8857	2.3499	4.1206	3.4199	1.8337	3.9738	3.487	2.3918	3.7933	3.6842	-0.8099	2.7107	4.5277	1.6365	1.989	0.1637	0.1301	1.8547
3.0926	1.4687	3.5458	3.8143	2.224	3.9696	3.3527	1.8127	3.8731	3.4241	2.438	3.764	3.7178	-0.8141	2.652	4.4647	1.6113	2.1023	0.1217	0.0713	1.989
2.9793	1.2882	3.3821	3.6884	2.0813	3.8143	3.2478	1.6994	3.7388	3.3863	2.4422	3.7178	3.7388	-0.7847	2.6394	4.4395	1.5862	2.2156	0.0713	0.0336	2.0435
2.845	1.133	3.2059	3.6045	1.9176	3.6507	3.1555	1.6071	3.6087	3.3108	2.4212	3.6549	3.7598	-0.7721	2.5219	4.3346	1.582	2.3163	-0.021	0.0084	2.1023
2.6981	0.9903	3.038	3.4912	1.8085	3.4912	3.0422	1.5274	3.508	3.273	2.4254	3.6213	3.7682	-0.7805	2.4464	4.2465	1.5778	2.4296	-0.0587	-0.0546	2.2366
2.5177	0.8308	2.8576	3.3485	1.7036	3.315	2.9415	1.4309	3.3443	3.1387	2.375	3.5206	3.722	-0.7889	2.3457	4.1039	1.5736	2.5135	-0.1343	-0.1385	2.2533
2.354	0.6798	2.6562	3.2017	1.5568	3.0968	2.7905	1.2756	3.1765	3.038	2.3582	3.4325	3.7136	-0.7973	2.203	3.894	1.582	2.6226	-0.1762	-0.2266	2.3331
2.1317	0.5035	2.438	3.0045	1.4099	2.887	2.6184	1.1623	3.0338	2.887	2.3037	3.2982	3.6591	-0.8099	2.0226	3.68	1.6197	2.6981	-0.2182	-0.2602	2.3918
1.8925	0.3063	2.1862	2.7653	1.2714	2.6562	2.4422	1.0113	2.824	2.7233	2.2449	3.1597	3.6213	-0.8057	1.8211	3.4115	1.6365	2.7905	-0.2853	-0.3357	2.4002
1.6617	0.1217	1.9218	2.5806	1.0994	2.4506	2.2575	0.8854	2.6478	2.5639	2.1862	3.0338	3.5709	-0.8015	1.6113	3.1052	1.6281	2.8744	-0.3231	-0.386	2.4506
1.3805	-0.0587	1.6617	2.3079	0.9525	2.203	2.0603	0.7385	2.4338	2.3582	2.0603	2.8912	3.508	-0.8015	1.3176	2.7317	1.6323	2.9751	-0.4028	-0.4364	2.4464
1.0868	-0.2895	1.4015	2.0435	0.7553	1.9764	1.8337	0.5539	2.2072	2.1778	1.9764	2.7233	3.3905	-0.7973	1.0365	2.3624	1.6407	3.0506	-0.4532	-0.4826	2.4464
0.7805	-0.5203	1.091	1.7498	0.5707	1.6827	1.6113	0.3902	2.0058	1.9596	1.8757	2.5429	3.3024	-0.8183	0.7805	1.9974	1.6449	3.101	-0.5161	-0.5455	2.4548
0.4742	-0.7511	0.8015	1.4938	0.3651	1.4057	1.3973	0.2182	1.7582	1.7834	1.7498	2.3624	3.1933	-0.8099	0.4742	1.5652	1.6449	3.1975	-0.5539	-0.5665	2.4799
0.1637	-0.9987	0.4951	1.2127	0.1595	1.0994	1.1497	0.0587	1.519	1.582	1.6281	2.203	3.0968	-0.8183	0.172	1.1917	1.6449	3.2478	-0.6504	-0.5833	2.4841
-0.1049	-1.1959	0.214	0.9483	-0.021	0.877	0.9567	-0.1049	1.3092	1.347	1.498	2.0184	2.9709	-0.8015	-0.0713	0.8602	1.6071	3.2856	-0.6882	-0.642	2.5009
-0.3986	-1.4099	-0.0504	0.7133	-0.2392	0.6252	0.7511	-0.2602	1.0784	1.1749	1.3973	1.8463	2.866	-0.7805	-0.3735	0.4951	1.582	3.3192	-0.7511	-0.642	2.4967
-0.7217	-1.6365	-0.3777	0.4196	-0.4448	0.3357	0.5413	-0.4196	0.8686	0.9819	1.2756	1.6869	2.7569	-0.7847	-0.6378	0.193	1.5652	3.3611	-0.7763	-0.6546	2.4967
-0.9609	-1.8589	-0.6001	0.1846	-0.6546	0.0881	0.3315	-0.5497	0.6588	0.7679	1.1581	1.4938	2.6142	-0.7595	-0.8896	-0.0587	1.5064	3.3905	-0.8434	-0.6714	2.459
-1.2211	-2.0813	-0.835	-0.0587	-0.8434	-0.1595	0.172	-0.684	0.4658	0.621	1.07	1.3596	2.5135	-0.7175	-1.1162	-0.2392	1.4435	3.4283	-0.8728	-0.6588	2.4338
-1.4603	-2.2869	-1.1288	-0.3147	-1.0323	-0.3735	-0.0126	-0.8392	0.2895	0.4196	0.9609	1.2085	2.396	-0.684	-1.3008	-0.386	1.3763	3.4283	-0.9274	-0.6336	2.4044
-1.712	-2.4673	-1.3805	-0.5539	-1.2337	-0.6042	-0.2098	-0.9819	0.0881	0.2434	0.8434	1.0742	2.2995	-0.6462	-1.4561	-0.47	1.305	3.4241	-0.9861	-0.6252	2.3792
-1.9512	-2.6772	-1.6155	-0.7637	-1.3763	-0.8392	-0.3735	-1.091	-0.0923	0.0923	0.7301	0.9106	2.1736	-0.6042	-1.5903	-0.4826	1.2169	3.4325	-1.0868	-0.5875	2.3121
-2.1442	-2.8576	-1.8253	-0.9651	-1.5526	-1.0574	-0.5161	-1.2043	-0.235	-0.042	0.6462	0.7931	2.1023	-0.5707	-1.6994	-0.47	1.1456	3.4367	-1.133	-0.5665	2.2995
-2.3163	-3.0003	-2.0519	-1.1707	-1.6617	-1.2421	-0.6462	-1.3218	-0.3525	-0.1678	0.5539	0.7008	2.0058	-0.5035	-1.754	-0.3944	1.0406	3.4157	-1.1749	-0.5539	2.2743
-2.459	-3.1429	-2.2533	-1.3344	-1.7666	-1.3931	-0.7889	-1.3931	-0.4951	-0.2518	0.4993	0.5791	1.9302	-0.47	-1.7666	-0.3147	0.9525	3.466	-1.2211	-0.5203	2.2659
-2.61	-3.2478	-2.4296	-1.5022	-1.8841	-1.5903	-0.9148	-1.4435	-0.6084	-0.3735	0.4406	0.47	1.8295	-0.4406	-1.7834	-0.1469	0.919	3.4786	-1.2798	-0.5035	2.2533
-2.7065	-3.3737	-2.5597	-1.6365	-1.9428	-1.7498	-1.0155	-1.5022	-0.7217	-0.4742	0.3986	0.428	1.754	-0.4154	-1.733	0.021	0.8644	3.4912	-1.3218	-0.4742	2.224
-2.8114	-3.4409	-2.7149	-1.775	-2.0226	-1.8757	-1.1078	-1.582	-0.7973	-0.5161	0.3609	0.3735	1.7498	-0.407	-1.6953	0.1846	0.8266	3.5248	-1.3218	-0.3902	2.2449
-2.8576	-3.5038	-2.845	-1.9051	-2.0855	-1.9764	-1.1707	-1.582	-0.8644	-0.5707	0.3441	0.3063	1.7372	-0.3777	-1.5568	0.3986	0.7805	3.5961	-1.3008	-0.3777	2.2785
-2.8996	-3.5709	-2.9331	-1.9806	-2.1358	-2.0687	-1.2253	-1.582	-0.9441	-0.6126	0.3483	0.2811	1.7204	-0.3609	-1.4435	0.5245	0.7343	3.6633	-1.2882	-0.3441	2.2911
-2.9205	-3.6213	-3.0087	-2.0729	-2.182	-2.1778	-1.263	-1.6155	-0.9903	-0.6378	0.3315	0.2602	1.7078	-0.3357	-1.3805	0.7343	0.6924	3.7052	-1.2882	-0.2811	2.3079
-2.9541	-3.68	-3.1261	-2.2072	-2.2491	-2.2575	-1.3092	-1.6323	-1.0448	-0.6882	0.3441	0.2266	1.6953	-0.3231	-1.2589	0.8728	0.6504	3.764	-1.2882	-0.2476	2.2953
-3.0254	-3.7514	-3.2017	-2.2491	-2.3205	-2.3415	-1.3386	-1.6785	-1.091	-0.7008	0.3147	0.2098	1.6869	-0.2644	-1.1414	1.0071	0.5791	3.8185	-1.2589	-0.1762	2.2785
-3.0758	-3.8101	-3.2898	-2.3499	-2.3918	-2.4464	-1.347	-1.7372	-1.1581	-0.7175	0.2937	0.1595	1.6953	-0.2476	-1.0658	1.0952	0.5077	3.8689	-1.2505	-0.1469	2.2491
-3.1429	-3.957	-3.4534	-2.4757	-2.4715	-2.5513	-1.4225	-1.8421	-1.2337	-0.7679	0.2224	0.0671	1.6491	-0.2266	-1.0155	1.1791	0.4616	3.8898	-1.2882	-0.1385	2.2282
-3.2143	-4.0535	-3.5625	-2.5848	-2.5681	-2.6688	-1.4645	-1.9176	-1.3134	-0.7637	0.1846	0.0168	1.6323	-0.1637	-0.9609	1.2589	0.3693	3.936	-1.2882	-0.0965	2.161
-3.3443	-4.2255	-3.7346	-2.7317	-2.6772	-2.8072	-1.5526	-2.0016	-1.3973	-0.8434	0.1049	-0.0462	1.5862	-0.1385	-0.9274	1.2714	0.3147	3.9528	-1.284	-0.0629	2.1652
-3.4828	-4.4186	-3.8898	-2.8954	-2.7905	-2.9331	-1.6197	-2.1023	-1.5022	-0.856	0.0168	-0.1259	1.5442	-0.1133	-0.9525	1.2421	0.2434	3.9906	-1.3386	-0.0671	2.1233
-3.6045	-4.5696	-4.0661	-3.0674	-2.9373	-3.0758	-1.6743	-2.2324	-1.6071	-0.9106	-0.0671	-0.214	1.4854	-0.0755	-1.0239	1.1917	0.1553	4.0115	-1.3596	-0.0462	2.0813
-3.7724	-4.792	-4.2507	-3.231	-3.0548	-3.231	-1.7918	-2.3499	-1.712	-0.9525	-0.1553	-0.3063	1.4351	-0.0378	-1.0826	1.133	0.0923	4.0283	-1.4561	-0.0462	2.0477
-3.9528	-5.0186	-4.4647	-3.4199	-3.1891	-3.3611	-1.8967	-2.4757	-1.8253	-0.9861	-0.2308	-0.4028	1.4057	-0.0042	-1.1623	1.0029	0.042	4.0325	-1.54	-0.0336	2.0309
-4.0871	-5.1949	-4.6326	-3.6003	-3.3192	-3.4954	-1.9932	-2.5806	-1.8925	-1.0323	-0.2979	-0.4616	1.3805	0.021	-1.2421	0.8938	-0.0378	4.0997	-1.5778	-0.0252	2.0435
-4.2591	-5.3627	-4.8088	-3.7598	-3.4409	-3.6087	-2.0603	-2.6436	-1.9512	-1.0616	-0.3651	-0.4868	1.3763	0.0504	-1.3512	0.7259	-0.0881	4.129	-1.6533	0.0126	2.0267
-4.4228	-5.5431	-4.9683	-3.9108	-3.55	-3.701	-2.1526	-2.7485	-1.989	-1.0574	-0.4322	-0.5539	1.3721	0.0713	-1.4225	0.5917	-0.1133	4.1458	-1.712	0.0252	2.0058
-4.5738	-5.6816	-5.1193	-4.0451	-3.6507	-3.7766	-2.1988	-2.8072	-2.0184	-1.0742	-0.4574	-0.5623	1.3847	0.0965	-1.5106	0.449	-0.1678	4.1794	-1.7708	0.0755	2.0267
-4.6535	-5.7613	-5.22	-4.1542	-3.7178	-3.7933	-2.2366	-2.8156	-2.0267	-1.0281	-0.449	-0.5497	1.4267	0.1259	-1.561	0.3315	-0.2056	4.2507	-1.796	0.1427	2.0142
-4.7585	-5.8914	-5.3333	-4.2969	-3.7891	-3.8605	-2.3037	-2.8618	-2.0309	-1.0281	-0.4742	-0.5875	1.4435	0.1343	-1.6407	0.1762	-0.2266	4.2801	-1.8127	0.1595	2.0142
-4.8801	-5.925	-5.4214	-4.3556	-3.8563	-3.8647	-2.3121	-2.8408	-1.9848	-1.0029	-0.4658	-0.5539	1.4812	0.1427	-1.6953	0.0462	-0.2518	4.3011	-1.8337	0.193	2.0184
-4.9095	-5.946	-5.4424	-4.3556	-3.8647	-3.8311	-2.3163	-2.8366	-1.968	-0.9232	-0.4448	-0.4868	1.5106	0.1595	-1.6953	-0.0965	-0.2895	4.364	-1.8127	0.2434	2.0184
-4.9892	-5.9795	-5.497	-4.4144	-3.8605	-3.8143	-2.3331	-2.8114	-1.947	-0.8938	-0.449	-0.4826	1.5652	0.1678	-1.7498	-0.2056	-0.3105	4.3934	-1.8505	0.2811	1.9974
-5.048	-6.0257	-5.5473	-4.4228	-3.8982	-3.8059	-2.3457	-2.803	-1.9051	-0.8476	-0.4238	-0.4448	1.6071	0.1846	-1.8085	-0.3315	-0.3273	4.4521	-1.8505	0.3441	2.0016
-5.1025	-6.0089	-5.5725	-4.4144	-3.8898	-3.7766	-2.3163	-2.7443	-1.8505	-0.8099	-0.4028	-0.428	1.6575	0.193	-1.8044	-0.4448	-0.3441	4.4773	-1.8505	0.3693	2.0142
-5.1361	-6.0215	-5.5641	-4.4144	-3.8731	-3.7388	-2.3163	-2.6939	-1.7834	-0.7553	-0.3902	-0.3693	1.6953	0.1888	-1.8673	-0.5455	-0.3609	4.4647	-1.8379	0.407	1.9848
-5.2116	-6.0257	-5.5977	-4.3934	-3.8605	-3.7094	-2.2995	-2.6772	-1.7456	-0.7133	-0.3693	-0.3399	1.7162	0.2098	-1.9218	-0.6294	-0.3819	4.4773	-1.8505	0.4322	1.9638
-5.2074	-5.9753	-5.5977	-4.3262	-3.7933	-3.6255	-2.2408	-2.6268	-1.6743	-0.6336	-0.3315	-0.2937	1.796	0.214	-1.926	-0.7092	-0.3944	4.5193	-1.8757	0.4532	1.9512
-5.2074	-5.9208	-5.5599	-4.2801	-3.7346	-3.5583	-2.2156	-2.5471	-1.5987	-0.5707	-0.3105	-0.2224	1.8379	0.2266	-1.9512	-0.7385	-0.4238	4.5612	-1.8925	0.5287	1.9302
-5.2242	-5.904	-5.5222	-4.1626	-3.701	-3.466	-2.1442	-2.4757	-1.498	-0.4742	-0.235	-0.1553	1.926	0.2434	-1.9512	-0.7595	-0.4406	4.599	-1.9176	0.5875	1.926
-5.1571	-5.7949	-5.4676	-4.0451	-3.6129	-3.3863	-2.0435	-2.3666	-1.4099	-0.3693	-0.1595	-0.0629	2.0058	0.256	-1.9512	-0.705	-0.4868	4.641	-1.8967	0.6504	1.9302
-5.1361	-5.7152	-5.4256	-3.9066	-3.5248	-3.2436	-1.9009	-2.2953	-1.2798	-0.2686	-0.0839	0.0336	2.1023	0.2644	-1.9512	-0.6924	-0.4868	4.6829	-1.8799	0.7175	1.947
-5.0396	-5.6103	-5.304	-3.722	-3.3989	-3.1303	-1.7876	-2.1526	-1.1539	-0.1217	0.0126	0.1637	2.2072	0.2686	-1.9344	-0.6504	-0.5203	4.7626	-1.8379	0.8183	1.9974
-4.9557	-5.4802	-5.2074	-3.529	-3.3108	-2.9877	-1.6659	-2.0393	-1.0071	0.0084	0.1637	0.2979	2.3415	0.2895	-1.9344	-0.5707	-0.5203	4.855	-1.775	0.898	2.0561
-4.8676	-5.3501	-5.1109	-3.3737	-3.1765	-2.8702	-1.5022	-1.8505	-0.8602	0.1511	0.3147	0.4658	2.4673	0.2895	-1.9009	-0.4993	-0.5497	4.9515	-1.6659	0.9735	2.1484
-4.7836	-5.2536	-4.9976	-3.1891	-3.0758	-2.7401	-1.3763	-1.712	-0.6966	0.2979	0.4574	0.6126	2.6058	0.2769	-1.8589	-0.407	-0.5203	5.048	-1.6155	1.0868	2.2324
-4.6871	-5.1361	-4.8801	-3.0128	-2.9415	-2.5723	-1.1959	-1.561	-0.5371	0.449	0.6252	0.7847	2.7737	0.2853	-1.8253	-0.3105	-0.5245	5.1403	-1.5148	1.1917	2.3079
-4.578	-5.0312	-4.7626	-2.8282	-2.8324	-2.4338	-1.07	-1.3805	-0.3609	0.621	0.8057	0.9861	2.9331	0.2853	-1.7666	-0.2308	-0.5329	5.2536	-1.4057	1.3092	2.438
-4.4605	-4.9053	-4.6787	-2.7023	-2.6855	-2.3079	-0.919	-1.1875	-0.2014	0.7637	0.9987	1.1917	3.0506	0.2728	-1.7372	-0.1217	-0.5119	5.3711	-1.3218	1.3973	2.5471
-4.3514	-4.7878	-4.5486	-2.5513	-2.5513	-2.1568	-0.7889	-0.9987	-0.0126	0.9148	1.1707	1.3889	3.2185	0.3021	-1.6743	-0.021	-0.5455	5.4718	-1.2295	1.54	2.6562
-4.2507	-4.6745	-4.4521	-2.4338	-2.4212	-2.0184	-0.6588	-0.8183	0.1678	1.0784	1.4015	1.5987	3.3695	0.2937	-1.6449	0.0504	-0.5665	5.5767	-1.1665	1.5987	2.7821
-4.1962	-4.5612	-4.3808	-2.3121	-2.2743	-1.9302	-0.5581	-0.6756	0.3273	1.2337	1.5526	1.8253	3.5164	0.3105	-1.6239	0.0923	-0.5749	5.6858	-1.1204	1.6785	2.8534
-4.1039	-4.4563	-4.2969	-2.2408	-2.1442	-1.8085	-0.428	-0.5161	0.5077	1.3638	1.7162	1.9932	3.6591	0.3147	-1.6113	0.1385	-0.6168	5.7949	-1.0952	1.7666	2.9625
-4.0493	-4.3976	-4.2255	-2.1694	-2.0729	-1.7372	-0.3357	-0.3944	0.6798	1.4812	1.8547	2.2114	3.7891	0.3315	-1.6071	0.1637	-0.6126	5.8872	-1.0868	1.8127	3.0422
-3.9906	-4.3556	-4.1794	-2.1065	-1.9722	-1.6365	-0.2434	-0.3147	0.7889	1.6155	2.0016	2.375	3.8898	0.3483	-1.6155	0.1427	-0.642	5.9711	-1.1078	1.8715	3.0884
-3.9989	-4.3304	-4.1248	-2.0813	-1.8715	-1.5778	-0.1762	-0.2224	0.9441	1.7456	2.14	2.6016	4.0493	0.3483	-1.6575	0.1427	-0.6546	6.0341	-1.1162	1.8967	3.1723
-3.9486	-4.343	-4.1164	-2.0771	-1.8379	-1.498	-0.0923	-0.1343	1.091	1.8589	2.203	2.7401	4.1542	0.3483	-1.6911	0.1259	-0.6546	6.0802	-1.1665	1.9176	3.1807
-3.9906	-4.3556	-4.0955	-2.0435	-1.8169	-1.4854	-0.0168	-0.1091	1.2127	1.9554	2.3079	2.9079	4.2423	0.3441	-1.7456	0.0755	-0.6798	6.139	-1.1707	1.9722	3.2185
-3.9444	-4.3724	-4.0493	-2.0393	-1.8002	-1.3931	0.0797	-0.0378	1.347	2.0897	2.417	3.1387	4.364	0.3819	-1.7834	0.0713	-0.705	6.1684	-1.1917	1.968	3.2352
-3.915	-4.406	-4.0073	-2.0142	-1.7792	-1.368	0.1762	0.0168	1.5106	2.2072	2.5219	3.3108	4.5151	0.386	-1.8085	0.0713	-0.7427	6.1977	-1.1665	2.01	3.2688
-3.9066	-4.427	-3.9696	-1.968	-1.7708	-1.2379	0.3021	0.0797	1.6617	2.3247	2.6436	3.5164	4.6284	0.407	-1.8337	0.0294	-0.7931	6.2145	-1.1372	2.0519	3.2604
-3.8269	-4.4689	-3.894	-1.9218	-1.7288	-1.1623	0.3819	0.1259	1.8421	2.4883	2.7401	3.701	4.7543	0.4406	-1.8337	0.0671	-0.8602	6.2607	-1.0994	2.0603	3.2269
-3.7598	-4.4563	-3.7933	-1.8799	-1.7078	-1.0365	0.5287	0.172	2.0309	2.6604	2.8408	3.9066	4.9053	0.4868	-1.8253	0.0755	-0.9357	6.2649	-1.0742	2.1149	3.2185
-3.6968	-4.4857	-3.7472	-1.8505	-1.733	-0.9525	0.6672	0.2224	2.1862	2.8366	2.8912	4.0913	5.0396	0.5161	-1.8211	0.0839	-1.0071	6.3026	-1.0406	2.1694	3.1933
-3.5835	-4.4563	-3.6003	-1.7582	-1.6827	-0.7973	0.8099	0.2895	2.375	3.0212	3.0087	4.3053	5.1613	0.5581	-1.754	0.1343	-1.1078	6.2733	-0.9651	2.2156	3.1387
-3.4702	-4.4437	-3.4786	-1.6575	-1.6575	-0.6546	0.9987	0.3944	2.5848	3.2269	3.0674	4.5151	5.3501	0.6001	-1.7162	0.1469	-1.1791	6.2943	-0.9064	2.3037	3.0674
-3.3821	-4.4144	-3.3401	-1.5568	-1.5903	-0.5203	1.1875	0.4616	2.7863	3.4157	3.1345	4.7123	5.4844	0.6294	-1.6743	0.1804	-1.2547	6.2943	-0.8728	2.3499	2.9961
-3.2604	-4.3766	-3.2185	-1.4225	-1.5484	-0.3609	1.3763	0.5287	3.0212	3.6591	3.2478	4.9179	5.648	0.6756	-1.6029	0.2266	-1.3386	6.3026	-0.8057	2.4757	2.9625
-3.1052	-4.3137	-3.0674	-1.2924	-1.4393	-0.1762	1.5694	0.6042	3.2352	3.894	3.3066	5.1277	5.7991	0.7175	-1.4854	0.3147	-1.4099	6.2984	-0.7595	2.5429	2.8702
-2.9751	-4.2465	-2.8912	-1.0952	-1.3721	0	1.7834	0.7008	3.4534	4.1248	3.4283	5.3207	5.9628	0.7595	-1.4141	0.3944	-1.4896	6.3152	-0.7385	2.6688	2.8576
-2.8198	-4.1878	-2.7401	-0.9525	-1.2421	0.1762	1.9932	0.835	3.6674	4.3472	3.4828	5.5012	6.1222	0.8099	-1.2672	0.4993	-1.561	6.332	-0.6924	2.7821	2.8072
-2.6981	-4.1332	-2.5639	-0.7973	-1.1372	0.3525	2.1778	0.9022	3.8982	4.578	3.5374	5.6816	6.2859	0.8266	-1.1539	0.6168	-1.6029	6.3194	-0.663	2.8702	2.7946
-2.5974	-4.0661	-2.417	-0.663	-1.0532	0.5245	2.3415	0.9819	4.0367	4.7752	3.6129	5.8327	6.4159	0.8266	-1.0616	0.7175	-1.6491	6.3404	-0.6126	2.9583	2.7695
-2.4715	-4.0031	-2.2701	-0.4574	-0.9315	0.705	2.5303	1.0868	4.2465	5.0186	3.6549	6.0089	6.5544	0.8686	-0.9315	0.8644	-1.6869	6.3404	-0.5371	3.0422	2.7275
-2.3373	-3.9276	-2.1358	-0.3273	-0.8015	0.856	2.6981	1.1791	4.427	5.2074	3.7304	6.139	6.6971	0.856	-0.8141	0.9651	-1.7162	6.353	-0.4406	3.1429	2.7443
-2.2743	-3.894	-2.0477	-0.2224	-0.7175	0.9819	2.8492	1.2672	4.5822	5.4005	3.8311	6.2607	6.781	0.8602	-0.705	1.07	-1.6994	6.332	-0.3525	3.2059	2.7443
-2.1442	-3.764	-1.8967	-0.0504	-0.5749	1.133	3.0003	1.3889	4.7501	5.5893	3.8857	6.3908	6.8775	0.8686	-0.5959	1.2085	-1.7036	6.2901	-0.1762	3.2688	2.7821
-2.0184	-3.6591	-1.7792	0.0797	-0.4364	1.2966	3.1555	1.519	4.9221	5.7823	3.9654	6.5334	6.9992	0.8686	-0.47	1.3302	-1.7078	6.311	-0.0336	3.3401	2.8282
-1.9135	-3.5374	-1.6407	0.2224	-0.2937	1.4393	3.336	1.6197	5.048	5.9795	4.0493	6.6383	7.1125	0.8686	-0.3819	1.4603	-1.6869	6.2817	0.1217	3.4157	2.8744
-1.7666	-3.3569	-1.519	0.3986	-0.1511	1.6071	3.4576	1.7498	5.1907	6.1012	4.108	6.7516	7.1629	0.8434	-0.2392	1.5568	-1.6491	6.2733	0.2853	3.4576	2.9457
-1.6533	-3.2352	-1.4099	0.5077	0.0042	1.6994	3.5625	1.8421	5.3165	6.2397	4.192	6.8439	7.2468	0.8224	-0.1343	1.7078	-1.6071	6.2187	0.4574	3.5038	3.0087
-1.5274	-3.059	-1.2756	0.642	0.1343	1.8379	3.6423	1.9806	5.4466	6.3656	4.2843	6.8943	7.2929	0.7931	-0.0336	1.8589	-1.5526	6.1893	0.6126	3.55	3.0674
-1.4309	-2.9037	-1.2169	0.7427	0.2602	1.9135	3.7262	2.0897	5.5347	6.4747	4.3095	6.9698	7.3685	0.7553	0.0671	1.9722	-1.4729	6.1474	0.705	3.5206	3.1387
-1.2966	-2.7317	-1.0994	0.8434	0.407	2.0603	3.8101	2.182	5.6229	6.5502	4.3892	7.0202	7.4104	0.7301	0.1972	2.1233	-1.4267	6.1054	0.8518	3.5793	3.1891
-1.1959	-2.5806	-1.0155	0.9693	0.5497	2.1233	3.8521	2.2869	5.6774	6.6551	4.4521	7.0789	7.4692	0.7092	0.256	2.2072	-1.3805	6.0677	0.9735	3.6087	3.294
-1.1036	-2.4464	-0.9441	1.0406	0.642	2.2114	3.8898	2.3499	5.7152	6.6803	4.4773	7.0747	7.4524	0.6714	0.3315	2.3289	-1.3218	5.9837	1.0532	3.6339	3.3318
-1.0197	-2.3163	-0.8644	1.1162	0.7427	2.2617	3.9528	2.4506	5.8075	6.7558	4.5235	7.0999	7.4818	0.6504	0.3651	2.4128	-1.2756	5.9795	1.1162	3.6674	3.4199
-0.9987	-2.2366	-0.8518	1.1917	0.7889	2.2785	3.9276	2.4548	5.7991	6.76	4.5486	7.1083	7.4986	0.621	0.428	2.4841	-1.2169	5.9292	1.1665	3.6716	3.4912
-0.9148	-2.14	-0.8183	1.2463	0.8476	2.3289	3.9402	2.4967	5.8578	6.7894	4.5948	7.1167	7.5237	0.6084	0.4658	2.5009	-1.1623	5.8998	1.2295	3.7052	3.5332
-0.8602	-2.0771	-0.7889	1.2966	0.9232	2.375	3.936	2.5471	5.8662	6.8481	4.6326	7.1461	7.5489	0.5707	0.5119	2.5261	-1.1162	5.8704	1.263	3.7262	3.6087
-0.8099	-2.0142	-0.7385	1.3092	0.9525	2.4296	3.9486	2.5723	5.9166	6.8439	4.6829	7.1377	7.5699	0.5245	0.5119	2.5723	-1.049	5.8453	1.2798	3.7891	3.6381
-0.7511	-1.9093	-0.7301	1.3596	0.9819	2.4548	3.9738	2.5932	5.9418	6.8985	4.6997	7.1796	7.6077	0.5077	0.5875	2.6184	-1.0113	5.8662	1.284	3.8353	3.6674
-0.6966	-1.8127	-0.6924	1.4057	1.049	2.5009	4.0031	2.6478	5.9837	6.9195	4.7585	7.2384	7.6244	0.5035	0.6084	2.6604	-0.9945	5.8872	1.3134	3.9108	3.7262
-0.663	-1.7288	-0.6546	1.4351	1.0826	2.5219	4.0493	2.7107	6.0635	6.9782	4.7836	7.2552	7.679	0.5077	0.6252	2.6981	-0.9861	5.8998	1.3008	3.9738	3.743
-0.6168	-1.6449	-0.6336	1.4561	1.133	2.5639	4.0829	2.7485	6.1012	7.0118	4.8466	7.3307	7.7335	0.5119	0.663	2.7191	-0.9945	5.9166	1.3176	4.0325	3.7724
-0.5581	-1.5862	-0.5959	1.5148	1.1875	2.6016	4.129	2.8198	6.1516	7.0789	4.9095	7.402	7.7797	0.5119	0.6798	2.7401	-1.0155	5.9586	1.326	4.1416	3.8185
-0.5287	-1.5106	-0.5959	1.5442	1.2379	2.631	4.2255	2.866	6.2103	7.1209	4.9515	7.4608	7.8342	0.5329	0.6882	2.7359	-1.0406	5.9921	1.3134	4.2255	3.8185
-0.4993	-1.4141	-0.5497	1.5694	1.2714	2.6814	4.2969	2.9079	6.2439	7.2006	5.027	7.5111	7.8846	0.5623	0.7133	2.7275	-1.1078	6.0425	1.2672	4.3095	3.8521
-0.4784	-1.3428	-0.491	1.5945	1.284	2.7023	4.4018	3.0045	6.3236	7.2594	5.0564	7.5993	7.9559	0.6001	0.6924	2.6772	-1.1707	6.1138	1.263	4.3514	3.8815
-0.4616	-1.284	-0.4826	1.5903	1.3512	2.7275	4.4605	3.0716	6.3866	7.3391	5.1277	7.6622	8.0147	0.6462	0.6924	2.61	-1.2672	6.1474	1.2085	4.4395	3.8898
-0.4784	-1.2253	-0.4616	1.6197	1.3973	2.7737	4.5277	3.1261	6.4369	7.3936	5.1949	7.7251	8.0944	0.6798	0.6336	2.5261	-1.3386	6.2103	1.1707	4.5277	3.8479
-0.5413	-1.1749	-0.4868	1.5945	1.4141	2.7695	4.5948	3.1639	6.4915	7.444	5.2242	7.7965	8.1615	0.7259	0.5791	2.4422	-1.4393	6.2817	1.1246	4.5864	3.8647
-0.5119	-1.1539	-0.4574	1.6197	1.4729	2.7905	4.6535	3.2059	6.525	7.4818	5.2662	7.8594	8.2245	0.7931	0.491	2.2911	-1.5232	6.3236	1.0826	4.6242	3.8227
-0.5875	-1.1414	-0.47	1.6071	1.5148	2.8198	4.7081	3.2604	6.5418	7.5363	5.2704	7.935	8.2539	0.8057	0.4196	2.1904	-1.6029	6.3656	1.091	4.6326	3.7891
-0.6294	-1.1246	-0.4532	1.5987	1.5652	2.7988	4.7752	3.3024	6.588	7.5825	5.2956	7.9811	8.3	0.856	0.3231	2.0645	-1.6869	6.4117	1.0616	4.6577	3.7388
-0.6546	-1.1078	-0.4742	1.6071	1.5945	2.803	4.813	3.3276	6.6425	7.5951	5.2998	8.0566	8.3504	0.8938	0.2518	1.9806	-1.7456	6.4411	1.0532	4.6871	3.6842
-0.6924	-1.1288	-0.4532	1.6323	1.6155	2.8072	4.8592	3.3695	6.6803	7.6412	5.3417	8.0608	8.4259	0.8938	0.1259	1.8631	-1.7792	6.4747	1.0658	4.6577	3.6129
-0.705	-1.112	-0.428	1.6869	1.6365	2.8408	4.9263	3.3905	6.7307	7.6622	5.3375	8.1532	8.4553	0.919	0.0587	1.7918	-1.8127	6.5166	1.0448	4.6997	3.6003
-0.7385	-1.1749	-0.4154	1.6994	1.6365	2.845	4.9725	3.3401	6.7348	7.6874	5.3291	8.149	8.5098	0.9274	-0.0462	1.7036	-1.8169	6.5376	1.0239	4.6619	3.508
-0.7427	-1.2085	-0.386	1.754	1.6323	2.8618	5.0396	3.3779	6.8062	7.7545	5.3459	8.2539	8.5938	0.9357	-0.0923	1.6911	-1.8421	6.5796	1.0239	4.6787	3.487
-0.7637	-1.2505	-0.3441	1.7918	1.5903	2.8576	5.0858	3.3443	6.8272	7.7797	5.3333	8.321	8.6105	0.919	-0.1888	1.6323	-1.8253	6.5838	1.0113	4.6452	3.4367
-0.7511	-1.2798	-0.2853	1.8799	1.5862	2.9457	5.1781	3.3821	6.9405	7.872	5.3375	8.3755	8.6861	0.9399	-0.214	1.6365	-1.8337	6.6216	1.0281	4.6829	3.3989
-0.7133	-1.3008	-0.2056	1.947	1.5987	3.0087	5.2872	3.4031	7.0328	7.9475	5.3669	8.4679	8.749	0.9483	-0.2686	1.6071	-1.8337	6.7055	1.0197	4.6913	3.3695
-0.6882	-1.2966	-0.1343	2.0771	1.5987	3.0632	5.3921	3.4367	7.0999	8.0524	5.434	8.5602	8.8203	0.9441	-0.2602	1.6113	-1.8421	6.7516	1.0239	4.6997	3.336
-0.5875	-1.2714	-0.0042	2.1904	1.6155	3.1555	5.4886	3.4409	7.2048	8.149	5.4508	8.6525	8.9127	0.9483	-0.235	1.6197	-1.8421	6.7642	1.0448	4.7375	3.294
-0.491	-1.2253	0.1217	2.3121	1.6239	3.2856	5.6271	3.5332	7.3349	8.2874	5.5347	8.7742	9.0176	0.9483	-0.2098	1.6113	-1.8673	6.8398	1.0784	4.771	3.3234
-0.3986	-1.1581	0.2602	2.4296	1.6994	3.3905	5.7697	3.5877	7.4398	8.3839	5.5725	8.8917	9.0889	0.9525	-0.1762	1.6281	-1.8673	6.8523	1.1036	4.792	3.3443
-0.2979	-1.0574	0.4322	2.5932	1.7834	3.55	5.9208	3.6842	7.5615	8.5224	5.6732	8.9924	9.177	0.9609	-0.0797	1.6743	-1.8757	6.9027	1.1707	4.8382	3.3695
-0.1972	-0.9525	0.5917	2.7653	1.8757	3.7136	6.0802	3.7849	7.7419	8.6609	5.7991	9.1225	9.3071	0.9609	-0.0252	1.6994	-1.8757	6.9363	1.2169	4.8969	3.4618
-0.0713	-0.8183	0.7469	2.9247	1.989	3.8647	6.2397	3.8857	7.893	8.7826	5.8662	9.2525	9.3533	0.9651	0.0629	1.7624	-1.8841	6.9824	1.2924	4.9389	3.5542
0.0587	-0.7092	0.919	3.0632	2.1149	4.0115	6.3488	4.0031	8.0273	8.8875	5.9963	9.3533	9.4498	0.9651	0.1385	1.8547	-1.8925	6.9992	1.3134	4.9473	3.6549
0.1511	-0.5833	1.0532	3.1681	2.2072	4.1332	6.5083	4.1248	8.1406	8.9966	6.1474	9.4791	9.5379	0.9693	0.193	1.9051	-1.8967	7.0454	1.368	4.9934	3.7766
0.2686	-0.4028	1.2085	3.336	2.3792	4.3179	6.6425	4.2717	8.3084	9.1183	6.2733	9.5966	9.6008	0.9819	0.2853	1.9722	-1.9176	7.0663	1.4477	5.048	3.9024
0.3483	-0.2853	1.3428	3.4786	2.5639	4.4395	6.76	4.406	8.4301	9.2148	6.3908	9.7057	9.6554	0.9861	0.3273	2.0351	-1.9344	7.0957	1.5274	5.0564	4.0493
0.4364	-0.1343	1.4938	3.6003	2.7359	4.5822	6.8691	4.5361	8.5392	9.2735	6.5544	9.7813	9.7309	0.9693	0.407	2.0603	-1.9135	7.0999	1.5903	5.0606	4.2004
0.4868	0	1.6071	3.6716	2.8786	4.7039	6.9279	4.6787	8.6777	9.3239	6.6803	9.9072	9.7603	0.9483	0.4322	2.1191	-1.8883	7.1041	1.6491	5.0522	4.343
0.5287	0.1175	1.6911	3.764	3.0254	4.8088	6.9698	4.8172	8.77	9.391	6.8146	9.9827	9.7771	0.9357	0.4951	2.1484	-1.8337	7.0873	1.7036	5.0774	4.4815
0.5749	0.2224	1.7708	3.8269	3.1597	4.9221	7.0286	4.9725	8.8791	9.4288	6.9656	10.096	9.8484	0.9148	0.5329	2.1904	-1.8044	7.0621	1.796	5.069	4.6535
0.6126	0.3609	1.8589	3.8773	3.315	5.027	7.0873	5.0941	8.9336	9.4707	7.0873	10.1841	9.8694	0.9106	0.5413	2.2282	-1.7708	7.0663	1.8841	5.048	4.792
0.6168	0.4154	1.9009	3.9066	3.3569	5.1277	7.1167	5.22	9.0721	9.5253	7.2258	10.2512	9.882	0.8602	0.6084	2.2449	-1.712	7.0621	1.9051	5.0522	4.9263
0.6798	0.4826	2.01	4.0073	3.4786	5.2326	7.1838	5.3333	9.1267	9.5715	7.3601	10.3268	9.9197	0.8644	0.6378	2.2785	-1.6953	7.058	1.9512	5.0774	5.0606
0.7301	0.5539	2.0435	4.0493	3.4954	5.3123	7.2258	5.434	9.2106	9.5966	7.486	10.3981	9.9323	0.8476	0.6672	2.3163	-1.6743	7.0286	1.9722	5.0396	5.1697
0.7679	0.5791	2.1107	4.0829	3.5709	5.3879	7.2636	5.5473	9.2735	9.6428	7.5993	10.4694	9.9785	0.8141	0.7301	2.3624	-1.6281	7.0244	2.01	4.9934	5.2746
0.7847	0.6294	2.1652	4.1542	3.6213	5.4592	7.2887	5.6187	9.3407	9.6764	7.6832	10.5324	10.0079	0.8057	0.7469	2.4002	-1.582	7.0034	2.0435	4.9389	5.3837
0.835	0.6882	2.2491	4.1962	3.6842	5.5389	7.3139	5.732	9.4456	9.7477	7.7545	10.6415	10.0372	0.7847	0.7847	2.438	-1.5442	6.9866	2.0855	4.9095	5.4718
0.8686	0.7511	2.2785	4.2549	3.7598	5.6271	7.3559	5.8285	9.5211	9.7771	7.8762	10.6918	10.0204	0.7385	0.8392	2.4925	-1.4687	6.9321	2.1317	4.8885	5.5305
0.9106	0.8266	2.3708	4.3095	3.8395	5.6984	7.402	5.9334	9.6092	9.8358	7.9601	10.7674	10.0624	0.7301	0.919	2.5261	-1.4183	6.9027	2.2114	4.8424	5.6145
0.9945	0.9609	2.417	4.4102	3.9318	5.8369	7.4692	6.0425	9.6973	9.8946	8.0399	10.8555	10.1295	0.7092	0.9693	2.5597	-1.3638	6.9069	2.2617	4.8256	5.711
1.0365	1.07	2.5555	4.4941	4.0829	5.9124	7.5195	6.1684	9.798	9.9743	8.1406	10.9352	10.1883	0.6714	1.0365	2.5555	-1.3092	6.9195	2.3457	4.792	5.7823
1.091	1.1875	2.6268	4.599	4.2213	6.0215	7.5909	6.3068	9.8904	10.0624	8.2664	11.0317	10.2512	0.6378	1.0868	2.5764	-1.2463	6.9153	2.4128	4.7962	5.8872
1.1959	1.3134	2.7401	4.7039	4.3598	6.1264	7.6664	6.4243	9.9827	10.1379	8.3336	11.124	10.3226	0.6126	1.1833	2.5764	-1.2043	6.9447	2.4967	4.7752	5.946
1.2253	1.4561	2.8198	4.7668	4.4773	6.1977	7.7713	6.5125	10.054	10.2386	8.4259	11.187	10.3897	0.6001	1.2295	2.5639	-1.1749	6.974	2.5471	4.7878	6.0005
1.2756	1.5484	2.9121	4.8466	4.5612	6.2901	7.83	6.609	10.1673	10.3142	8.493	11.2961	10.4652	0.5917	1.2589	2.5135	-1.1581	7.0118	2.5974	4.8004	6.0299
1.326	1.6785	2.9793	4.9179	4.6619	6.3656	7.9182	6.7013	10.2428	10.4149	8.5434	11.3255	10.5408	0.5917	1.263	2.4715	-1.1623	7.0831	2.6058	4.8172	6.097
1.3763	1.7624	3.0212	4.9809	4.7585	6.4411	7.9895	6.7684	10.31	10.524	8.5938	11.4094	10.6583	0.6042	1.2589	2.417	-1.2001	7.1419	2.6478	4.8676	6.1012
1.4267	1.8505	3.1094	5.0102	4.8298	6.4999	8.0608	6.7936	10.3603	10.6163	8.6189	11.4513	10.7464	0.6294	1.2924	2.3289	-1.2505	7.2258	2.6855	4.9557	6.1138
1.4687	1.9218	3.1555	5.0438	4.8508	6.5208	8.1112	6.802	10.4107	10.7086	8.6189	11.4933	10.8219	0.663	1.2756	2.2785	-1.305	7.2929	2.6646	5.0102	6.076
1.519	2.0016	3.1975	5.0774	4.8676	6.5712	8.2161	6.8523	10.461	10.8135	8.6273	11.5395	10.9436	0.7133	1.2714	2.2408	-1.4099	7.3853	2.6897	5.0816	6.076
1.5694	2.0393	3.2688	5.1361	4.8508	6.6048	8.3126	6.8146	10.4988	10.9142	8.5979	11.552	10.9898	0.7637	1.3092	2.203	-1.5022	7.465	2.673	5.1445	6.0047
1.6029	2.0855	3.336	5.1781	4.8676	6.6257	8.3797	6.8146	10.4988	11.0023	8.577	11.5898	11.0905	0.8308	1.2714	2.1191	-1.6281	7.5783	2.6855	5.262	5.9669
1.6239	2.0981	3.3821	5.22	4.834	6.6467	8.4721	6.7852	10.5198	11.0695	8.5518	11.594	11.1744	0.898	1.263	2.0645	-1.7582	7.679	2.6814	5.3249	5.8956
1.6575	2.1484	3.4241	5.262	4.8382	6.6551	8.5434	6.7348	10.524	11.1576	8.493	11.6066	11.2289	0.9567	1.1833	1.9386	-1.8799	7.7671	2.6772	5.4173	5.7991
1.7036	2.2072	3.4534	5.3459	4.8256	6.6845	8.6147	6.6929	10.5408	11.2038	8.4553	11.6318	11.3255	1.0113	1.1581	1.8505	-2.0016	7.8888	2.6939	5.5389	5.7362
1.7078	2.2072	3.508	5.3669	4.834	6.7055	8.7196	6.6383	10.5408	11.2541	8.4133	11.6024	11.3842	1.0616	1.1078	1.7372	-2.1149	8.0231	2.7023	5.6313	5.6648
1.712	2.224	3.5416	5.4173	4.8508	6.6677	8.7784	6.5712	10.4862	11.3297	8.3252	11.5562	11.4471	1.1246	1.0197	1.6407	-2.2114	8.0692	2.6562	5.7068	5.5515
1.7624	2.2575	3.5961	5.4508	4.8843	6.7097	8.8371	6.5208	10.4862	11.3674	8.3252	11.5898	11.5143	1.1665	0.9903	1.5484	-2.2953	8.1615	2.6478	5.7949	5.518
1.7834	2.2533	3.6297	5.497	4.8927	6.7013	8.8875	6.5125	10.4904	11.4178	8.2664	11.5646	11.5353	1.2001	0.9567	1.4896	-2.3666	8.2161	2.6562	5.862	5.4718
1.8211	2.2827	3.7052	5.5347	4.8885	6.7265	8.9462	6.4747	10.4652	11.4388	8.2581	11.5479	11.573	1.2169	0.877	1.4561	-2.417	8.2916	2.652	5.9376	5.4298
1.8547	2.2617	3.7262	5.5641	4.9053	6.7307	8.9966	6.4327	10.4401	11.4597	8.2119	11.5353	11.6234	1.2337	0.835	1.4015	-2.438	8.3504	2.6352	6.0425	5.3921
1.8421	2.2701	3.7514	5.5977	4.8969	6.739	9.026	6.3572	10.4359	11.4346	8.1825	11.4975	11.6108	1.2127	0.7805	1.3386	-2.417	8.3755	2.6142	6.0719	5.3375
1.8715	2.224	3.7724	5.6019	4.8801	6.7265	9.0679	6.3404	10.3813	11.4304	8.1657	11.4471	11.615	1.2085	0.7385	1.326	-2.4002	8.3588	2.5932	6.1348	5.3585
1.8799	2.1317	3.7891	5.6187	4.8088	6.6929	9.0679	6.2901	10.3603	11.422	8.1406	11.4262	11.594	1.2043	0.6966	1.2924	-2.3834	8.3965	2.5974	6.1348	5.3417
1.8883	2.0771	3.8101	5.6145	4.771	6.7181	9.0889	6.2733	10.3142	11.4304	8.149	11.4094	11.594	1.2043	0.6756	1.2798	-2.3624	8.3797	2.5681	6.1977	5.3543
1.9009	2.0226	3.8101	5.6145	4.7417	6.6845	9.0511	6.2313	10.268	11.3968	8.1112	11.3884	11.5856	1.1959	0.6546	1.2672	-2.3373	8.3672	2.5639	6.2439	5.3837
1.9512	1.9135	3.8059	5.5935	4.6535	6.6761	9.0847	6.1935	10.247	11.3716	8.1657	11.4052	11.5562	1.1749	0.6168	1.2672	-2.3079	8.3714	2.5764	6.2397	5.4508
1.9302	1.8127	3.7724	5.5767	4.5822	6.6509	9.0637	6.2019	10.2177	11.3842	8.2119	11.3926	11.573	1.1581	0.6126	1.2505	-2.2743	8.3839	2.589	6.2649	5.5138
1.9302	1.7498	3.7472	5.5222	4.5277	6.6132	9.026	6.1852	10.1589	11.3758	8.2161	11.3884	11.5479	1.1414	0.5749	1.2001	-2.2324	8.3504	2.5974	6.3152	5.6103
1.8967	1.6533	3.722	5.455	4.4941	6.6006	8.9882	6.1684	10.1505	11.3464	8.279	11.4178	11.5269	1.1204	0.5455	1.1749	-2.2072	8.321	2.5932	6.3278	5.6732
1.8841	1.6029	3.7052	5.4131	4.4647	6.5838	8.9756	6.1935	10.1589	11.3548	8.3378	11.4304	11.5562	1.0952	0.4826	1.1539	-2.1568	8.3042	2.5764	6.3362	5.7739
1.8211	1.5316	3.6171	5.4005	4.4228	6.5628	8.9462	6.2103	10.1295	11.3297	8.4133	11.4723	11.5437	1.0616	0.4364	1.1372	-2.1107	8.279	2.5764	6.3236	5.883
1.775	1.498	3.5709	5.3375	4.3934	6.5041	8.942	6.2145	10.1254	11.3255	8.5266	11.5311	11.5646	1.0406	0.3609	1.07	-2.0477	8.2748	2.6142	6.3278	6.0131
1.6911	1.4183	3.5038	5.2578	4.3934	6.4999	8.8791	6.2691	10.1421	11.3129	8.5812	11.5856	11.5562	0.9987	0.2644	1.0197	-1.9638	8.2245	2.6352	6.3194	6.0802
1.6407	1.3805	3.4576	5.22	4.385	6.5041	8.8623	6.3152	10.1883	11.338	8.707	11.6444	11.615	0.9693	0.1846	0.9903	-1.8967	8.2958	2.652	6.3026	6.1852
1.5526	1.3176	3.4157	5.1907	4.3682	6.4453	8.8749	6.374	10.2219	11.3632	8.8078	11.7577	11.6444	0.8896	0.0965	0.8896	-1.7792	8.2958	2.7023	6.3194	6.2859
1.4603	1.2463	3.3443	5.1613	4.3472	6.4327	8.8371	6.4075	10.2722	11.3674	8.9169	11.8164	11.6905	0.8518	-0.0252	0.8141	-1.6701	8.3168	2.7317	6.311	6.4075
1.4099	1.2253	3.2898	5.1655	4.3724	6.4621	8.8833	6.4999	10.3687	11.4262	9.0176	11.9717	11.7325	0.8057	-0.1049	0.7595	-1.582	8.363	2.824	6.3194	6.5041
1.326	1.1749	3.2562	5.1403	4.3766	6.4579	8.8707	6.5754	10.461	11.4807	9.177	12.0598	11.8038	0.7427	-0.2014	0.663	-1.4477	8.3881	2.8828	6.3026	6.588
1.2714	1.1497	3.2394	5.1613	4.3976	6.4957	8.9378	6.6593	10.5659	11.5646	9.3113	12.257	11.9087	0.6924	-0.2644	0.5875	-1.3638	8.4427	2.9625	6.2859	6.7348
1.2169	1.1036	3.2059	5.1571	4.3976	6.525	8.9756	6.7726	10.6792	11.6234	9.4624	12.3745	12.0136	0.6378	-0.3357	0.5245	-1.2589	8.4805	2.9919	6.2733	6.8398
1.1959	1.0952	3.2227	5.2326	4.4437	6.6048	9.0595	6.8775	10.8093	11.7325	9.6638	12.5633	12.1395	0.6126	-0.3902	0.4406	-1.2127	8.5644	3.1136	6.311	6.9614
1.2085	1.1078	3.273	5.2704	4.5151	6.6677	9.156	7.0496	10.994	11.85	9.861	12.7605	12.299	0.5833	-0.4196	0.3735	-1.1623	8.6903	3.1933	6.3614	7.0999
1.1665	1.1288	3.252	5.3165	4.5612	6.7474	9.2064	7.1964	11.1156	11.9759	10.0204	12.941	12.4207	0.5539	-0.47	0.256	-1.0994	8.77	3.2562	6.3908	7.209
1.1875	1.1414	3.252	5.3291	4.6326	6.7894	9.2945	7.3013	11.2541	12.085	10.1967	13.1172	12.5675	0.5539	-0.4951	0.1762	-1.0616	8.9127	3.2898	6.4285	7.3055
1.2001	1.1665	3.2982	5.3879	4.7039	6.8817	9.3826	7.4818	11.4388	12.2192	10.3939	13.3354	12.7144	0.5371	-0.4993	0.1427	-1.0742	9.0385	3.3443	6.4915	7.4188
1.1917	1.1665	3.3066	5.434	4.7836	6.9782	9.4917	7.6286	11.573	12.3409	10.5576	13.5075	12.8319	0.5455	-0.5287	0.0294	-1.0826	9.1476	3.3485	6.5586	7.5237
1.1875	1.2169	3.3443	5.4508	4.855	7.0663	9.5505	7.7461	11.7157	12.45	10.7044	13.6753	12.9704	0.5581	-0.5539	-0.0587	-1.112	9.2525	3.3192	6.6174	7.5825
1.1665	1.2295	3.3443	5.4634	4.9473	7.1419	9.6428	7.8762	11.8835	12.5843	10.8471	13.8306	13.0962	0.6001	-0.5707	-0.1595	-1.1623	9.3491	3.3024	6.6635	7.6035
1.1875	1.2589	3.3821	5.518	5.027	7.2006	9.7057	7.9853	11.9884	12.6514	10.973	13.9606	13.1676	0.621	-0.6084	-0.2476	-1.2085	9.4078	3.2772	6.7013	7.6622
1.1497	1.2672	3.3737	5.5138	5.1277	7.2594	9.7771	8.107	12.0808	12.748	11.1115	14.0991	13.2641	0.6462	-0.684	-0.3735	-1.284	9.4875	3.2269	6.6971	7.7084
1.1246	1.3218	3.3821	5.5431	5.1991	7.3475	9.8148	8.2245	12.1983	12.7983	11.1828	14.225	13.348	0.684	-0.7511	-0.4238	-1.3554	9.5337	3.2185	6.7139	7.7587
1.1288	1.3596	3.3863	5.5389	5.2788	7.3978	9.8736	8.321	12.2864	12.8864	11.2751	14.3089	13.4026	0.7343	-0.8057	-0.5287	-1.4393	9.5547	3.1891	6.7265	7.7629
1.1204	1.4435	3.4157	5.5389	5.4173	7.4608	9.9281	8.4049	12.3787	12.9116	11.3506	14.4054	13.4361	0.7847	-0.8518	-0.5833	-1.5358	9.5547	3.1849	6.7307	7.7965
1.0994	1.5232	3.4325	5.5557	5.497	7.5657	9.9617	8.5014	12.4416	12.9578	11.4346	14.4768	13.4403	0.8224	-0.8602	-0.6378	-1.6323	9.5505	3.1849	6.7265	7.8007
1.133	1.5903	3.4492	5.518	5.5809	7.6035	9.9869	8.5896	12.5256	13.0123	11.5437	14.5439	13.4487	0.8812	-0.9022	-0.6798	-1.733	9.5253	3.1975	6.7223	7.8007
1.133	1.6365	3.4702	5.5096	5.6858	7.637	9.9785	8.7196	12.5885	13.0039	11.6024	14.6111	13.4907	0.9441	-0.9441	-0.6924	-1.8295	9.5337	3.1807	6.7265	7.8007
1.1707	1.7498	3.5164	5.5138	5.7697	7.7168	10.0288	8.7742	12.6682	13.0585	11.6905	14.6908	13.4949	0.9903	-0.9735	-0.6966	-1.9428	9.5253	3.2269	6.7348	7.7965
1.2169	1.8044	3.5416	5.5264	5.8495	7.7629	10.0288	8.8623	12.727	13.0669	11.7157	14.7453	13.4991	1.0281	-0.9987	-0.6546	-2.0226	9.4624	3.2562	6.7055	7.7587
1.2505	1.8799	3.5751	5.5138	5.925	7.8384	10.033	8.9169	12.7773	13.0627	11.7702	14.7831	13.4571	1.0658	-1.0071	-0.6504	-2.1065	9.3952	3.2352	6.6929	7.7335
1.3134	1.947	3.6381	5.5138	5.9711	7.893	9.9911	8.9966	12.7983	13.0753	11.7828	14.8335	13.4277	1.1078	-1.0532	-0.5917	-2.1778	9.3533	3.2562	6.6887	7.7042
1.3596	2.0226	3.6465	5.5389	6.0215	7.9433	10.0163	9.0427	12.8696	13.0962	11.85	14.8796	13.4235	1.1456	-1.0616	-0.5413	-2.2617	9.3029	3.2688	6.6929	7.6706
1.4309	2.0729	3.7178	5.5473	6.0341	7.9769	9.9827	9.0637	12.8948	13.0753	11.8458	14.8838	13.3522	1.1665	-1.07	-0.47	-2.3079	9.2148	3.2143	6.6509	7.5783
1.4309	2.0771	3.722	5.5683	6.0635	8.0273	9.9911	9.1057	12.9578	13.0543	11.8542	14.909	13.3564	1.1959	-1.0784	-0.386	-2.354	9.1518	3.1765	6.6299	7.4986
1.4687	2.0771	3.7388	5.6103	6.0802	8.0441	9.9491	9.1057	12.9452	13.0459	11.8458	14.9174	13.3102	1.2043	-1.1246	-0.3231	-2.4044	9.0553	3.0968	6.609	7.4566
1.4896	2.0729	3.7514	5.6355	6.0677	8.0482	9.9365	9.1183	12.9745	13.0333	11.8248	14.93	13.2473	1.2463	-1.112	-0.2937	-2.4715	9.026	3.0087	6.5838	7.3601
1.5106	2.0309	3.7849	5.6355	6.076	8.0902	9.8946	9.1393	12.9829	13.0081	11.8122	14.9258	13.2053	1.2756	-1.133	-0.2434	-2.5135	8.963	2.9499	6.5754	7.2678
1.5274	2.0058	3.7849	5.6606	6.0593	8.086	9.8862	9.0931	12.941	12.962	11.7451	14.9132	13.1382	1.2924	-1.1581	-0.1511	-2.5513	8.8917	2.8702	6.546	7.1251
1.5064	1.9932	3.7766	5.6858	6.0509	8.0902	9.8694	9.0805	12.9536	12.9452	11.6947	14.8796	13.0711	1.326	-1.1414	-0.0839	-2.5974	8.8413	2.803	6.5041	7.0202
1.4938	1.8967	3.743	5.69	6.0215	8.086	9.8568	9.0385	12.9494	12.9326	11.6528	14.846	13.0249	1.3176	-1.1665	-0.042	-2.6184	8.7826	2.7233	6.4747	6.8901
1.4729	1.8379	3.7388	5.6984	5.9963	8.0566	9.8106	8.9924	12.8864	12.8696	11.5562	14.7999	12.9452	1.326	-1.1623	0.0462	-2.61	8.6861	2.6897	6.4243	6.739
1.4351	1.754	3.7052	5.7026	5.9334	8.0441	9.8232	8.963	12.8822	12.8529	11.4807	14.7663	12.8822	1.3344	-1.1456	0.0881	-2.6352	8.6483	2.6646	6.3698	6.6467
1.4057	1.6575	3.6591	5.6858	5.9082	7.9979	9.7897	8.9252	12.8571	12.8109	11.4094	14.674	12.8109	1.347	-1.1581	0.1511	-2.6436	8.5644	2.6688	6.3404	6.525
1.3721	1.5862	3.6465	5.7026	5.8662	7.9685	9.798	8.8959	12.8403	12.8109	11.38	14.6698	12.7773	1.3554	-1.1917	0.193	-2.6688	8.5392	2.6814	6.2943	6.4159
1.3302	1.4771	3.5542	5.6984	5.7991	7.9559	9.8022	8.8245	12.7815	12.7773	11.2877	14.5985	12.7228	1.3596	-1.2169	0.193	-2.6814	8.5056	2.6981	6.2523	6.2817
1.305	1.3931	3.529	5.69	5.7487	7.8972	9.8064	8.7868	12.748	12.7563	11.2415	14.5775	12.664	1.3596	-1.2001	0.2476	-2.6897	8.4427	2.6939	6.2061	6.1935
1.2924	1.2924	3.466	5.6313	5.669	7.851	9.7855	8.7406	12.7186	12.7563	11.1828	14.5229	12.6389	1.3596	-1.2127	0.2853	-2.6897	8.4301	2.6897	6.1684	6.1138
1.2169	1.1917	3.4031	5.5641	5.5389	7.8217	9.7561	8.6819	12.6472	12.664	11.0905	14.4432	12.534	1.3554	-1.2085	0.3105	-2.6814	8.363	2.6939	6.097	6.0089
1.1665	1.1288	3.3401	5.5096	5.497	7.7923	9.7897	8.6273	12.6179	12.6556	11.0191	14.397	12.5172	1.347	-1.2127	0.3105	-2.6604	8.3252	2.6436	6.0383	5.8956
1.0994	1.0071	3.2772	5.4382	5.4089	7.7251	9.7771	8.5686	12.5927	12.6137	10.9646	14.3341	12.4668	1.3344	-1.1749	0.386	-2.6268	8.3	2.6394	6.0005	5.8285
1.0742	0.9525	3.2059	5.3837	5.3333	7.7209	9.7771	8.5476	12.5507	12.5423	10.9142	14.2921	12.429	1.3134	-1.2001	0.3986	-2.5848	8.2581	2.5974	5.9334	5.7571
0.9861	0.8644	3.1261	5.3082	5.2746	7.679	9.798	8.4763	12.5256	12.5298	10.8429	14.2418	12.3955	1.2924	-1.1581	0.4532	-2.5471	8.2119	2.5471	5.904	5.711
0.9819	0.8057	3.059	5.2368	5.2074	7.6454	9.7813	8.4259	12.513	12.4962	10.7841	14.1579	12.3241	1.2463	-1.1204	0.5455	-2.4715	8.1532	2.5219	5.8537	5.6271
0.9483	0.7595	3.0296	5.1949	5.1697	7.637	9.798	8.3881	12.5088	12.471	10.7296	14.1495	12.3032	1.2211	-1.0952	0.5581	-2.4128	8.0776	2.4799	5.7949	5.6019
0.9232	0.7511	3.0296	5.1571	5.1571	7.637	9.84	8.4007	12.5381	12.4458	10.6918	14.1285	12.278	1.2085	-1.0071	0.6588	-2.354	8.0524	2.4715	5.7949	5.5725
0.9022	0.7217	2.9667	5.0941	5.1571	7.6496	9.84	8.3672	12.5465	12.45	10.6415	14.0949	12.2738	1.1539	-1.0071	0.6756	-2.2827	7.9769	2.438	5.7865	5.5305
0.8938	0.7175	2.9919	5.1025	5.1907	7.6958	9.8694	8.3965	12.5675	12.4542	10.6205	14.0991	12.2444	1.1539	-0.9651	0.7427	-2.2491	7.9685	2.3792	5.7949	5.476
0.8812	0.7385	2.9793	5.0564	5.2242	7.7209	9.9072	8.3923	12.6347	12.4794	10.6079	14.1243	12.2444	1.1204	-0.9064	0.835	-2.2114	7.914	2.3708	5.7865	5.4592
0.9274	0.8015	3.0045	5.0564	5.2914	7.7881	9.9743	8.4427	12.7186	12.4962	10.5953	14.1369	12.2528	1.112	-0.8434	0.8602	-2.1652	7.872	2.3624	5.7823	5.455
0.9777	0.8392	3.0842	5.1151	5.3543	7.8384	10.0246	8.5056	12.7605	12.5381	10.6457	14.1747	12.2612	1.091	-0.8057	0.9106	-2.14	7.8091	2.3415	5.7865	5.4298
1.0406	0.9315	3.1178	5.1361	5.4214	7.914	10.0876	8.5602	12.8403	12.5885	10.6583	14.204	12.2864	1.0826	-0.7721	0.9819	-2.1317	7.7503	2.2995	5.8075	5.3795
1.1372	1.0448	3.2562	5.2116	5.5222	8.0441	10.1757	8.6903	12.9662	12.6431	10.7002	14.3173	12.2948	1.0784	-0.6882	0.9987	-2.1149	7.7084	2.3289	5.8369	5.3711
1.2253	1.133	3.3527	5.3375	5.6355	8.128	10.2722	8.7742	13.0878	12.6976	10.7506	14.3509	12.3116	1.0868	-0.6504	1.0658	-2.1149	7.6496	2.354	5.8495	5.3921
1.3931	1.2924	3.4912	5.4424	5.7781	8.2623	10.3687	8.942	13.2221	12.7773	10.8513	14.4432	12.3535	1.091	-0.5707	1.133	-2.1358	7.5783	2.3876	5.8788	5.4256
1.5274	1.4225	3.6381	5.5683	5.9208	8.3881	10.4568	9.0427	13.3186	12.8529	10.9772	14.5397	12.3661	1.091	-0.4784	1.2547	-2.161	7.5321	2.4296	5.8914	5.476
1.6617	1.5736	3.8017	5.732	6.0593	8.5518	10.5743	9.2148	13.4907	12.9116	11.0695	14.6404	12.4081	1.1036	-0.449	1.3218	-2.1736	7.4524	2.4925	5.925	5.5305
1.8547	1.7582	4.0073	5.9502	6.2229	8.728	10.6918	9.3784	13.6208	13.0165	11.2164	14.7789	12.4416	1.1204	-0.3315	1.4477	-2.2156	7.4062	2.5639	5.9837	5.5431
2.0435	1.9386	4.2004	6.1096	6.3992	8.8791	10.8429	9.5631	13.7886	13.1214	11.3297	14.8922	12.4962	1.1372	-0.256	1.5358	-2.2366	7.3601	2.6562	6.0341	5.6061
2.2072	2.1065	4.385	6.3152	6.5544	9.0302	10.9436	9.6889	13.9019	13.1676	11.4304	14.9887	12.5256	1.1414	-0.1762	1.6869	-2.2659	7.3265	2.6897	6.0467	5.6732
2.4002	2.2533	4.5738	6.5208	6.7265	9.2064	11.0779	9.8568	14.0656	13.2305	11.573	15.1104	12.5717	1.1497	-0.0713	1.8295	-2.2659	7.2636	2.7401	6.0677	5.7446
2.5806	2.4506	4.8004	6.7432	6.9489	9.3784	11.1576	10.0121	14.2376	13.348	11.6737	15.2531	12.6095	1.1497	0.0671	1.9596	-2.2617	7.2216	2.7946	6.097	5.8159
2.7779	2.6562	5.027	7.0118	7.1587	9.5463	11.3171	10.1925	14.3929	13.4487	11.8206	15.3496	12.6598	1.1539	0.1804	2.1484	-2.2617	7.1754	2.866	6.1222	5.8746
3.0128	2.8198	5.262	7.2594	7.3475	9.7225	11.4597	10.3687	14.5565	13.4991	11.9297	15.4545	12.6766	1.1414	0.3189	2.2953	-2.224	7.1293	2.9289	6.1222	5.9669
3.2269	3.0296	5.5138	7.4986	7.5573	9.8988	11.615	10.5618	14.7453	13.6166	12.0808	15.5972	12.7354	1.1246	0.4993	2.4841	-2.2156	7.0915	3.017	6.1768	6.076
3.4283	3.2185	5.7236	7.7587	7.7461	10.0876	11.7577	10.7254	14.8544	13.7131	12.2025	15.6895	12.7857	1.1162	0.6084	2.6352	-2.1862	7.058	3.0842	6.1642	6.1977
3.6549	3.4367	5.9879	8.0105	7.9559	10.2764	11.9129	10.8807	15.0433	13.8138	12.3619	15.8489	12.8571	1.1246	0.7679	2.7988	-2.1988	7.0663	3.1891	6.2187	6.3026
3.8982	3.6465	6.2145	8.2832	8.1532	10.4568	12.0724	11.0485	15.2321	13.9565	12.5088	15.9916	12.962	1.1246	0.9525	2.9919	-2.2114	7.0915	3.2982	6.2775	6.4537
4.1122	3.8521	6.4705	8.5728	8.3336	10.675	12.2612	11.2541	15.4461	14.1159	12.6724	16.1385	13.0878	1.1581	1.1288	3.1681	-2.2575	7.1419	3.4241	6.3698	6.567
4.3514	4.0493	6.7055	8.8287	8.535	10.8681	12.4626	11.422	15.6349	14.2754	12.8025	16.3315	13.2263	1.1707	1.2882	3.3234	-2.3037	7.2048	3.5374	6.4621	6.6803
4.599	4.2549	6.974	9.0847	8.7029	11.0611	12.6766	11.5646	15.8363	14.4852	12.9745	16.5245	13.3732	1.2085	1.4645	3.5248	-2.3666	7.2929	3.6465	6.5838	6.8188
4.8592	4.4605	7.2174	9.3784	8.9001	11.3045	12.8696	11.8038	16.0755	14.695	13.155	16.7133	13.5536	1.2463	1.6491	3.7178	-2.4254	7.4062	3.7849	6.7097	6.9572
5.1067	4.7165	7.4818	9.6554	9.0973	11.5017	13.0836	11.9884	16.3273	14.888	13.3354	16.9399	13.7424	1.2714	1.8505	3.9486	-2.4799	7.5237	3.9402	6.8356	7.0999
5.3207	4.9263	7.7209	9.9072	9.2945	11.7073	13.2977	12.1563	16.5245	15.0726	13.4991	17.1329	13.9229	1.2756	2.0309	4.1416	-2.5093	7.6412	4.0997	6.953	7.2132
5.5641	5.1319	7.9685	10.1463	9.4749	11.9213	13.5033	12.3577	16.7469	15.274	13.7089	17.3428	14.1285	1.2882	2.2324	4.3808	-2.5345	7.7671	4.2633	7.0957	7.3559
5.7781	5.3333	8.1657	10.3687	9.7015	12.1143	13.7131	12.5591	17.0071	15.4964	13.9145	17.5861	14.3299	1.2924	2.4128	4.557	-2.5345	7.935	4.4563	7.2552	7.5069
5.9418	5.5347	8.3881	10.5911	9.8778	12.3367	13.9313	12.7438	17.2546	15.723	14.0991	17.8211	14.5649	1.2966	2.6394	4.7668	-2.5303	8.1028	4.62	7.3978	7.6496
6.139	5.6984	8.5728	10.78	10.096	12.513	14.1117	12.9452	17.4728	15.9203	14.2796	18.0183	14.7537	1.2756	2.8114	4.9431	-2.5093	8.2539	4.792	7.5153	7.7713
6.3236	5.8453	8.7868	10.9688	10.268	12.7102	14.3173	13.1256	17.6617	16.151	14.4306	18.224	14.9509	1.2589	3.0087	5.0816	-2.4715	8.4175	4.9725	7.679	7.8762
6.4621	5.9795	8.9252	11.124	10.4401	12.8864	14.5061	13.2767	17.8589	16.3189	14.5817	18.4338	15.1817	1.2253	3.1807	5.2368	-2.417	8.556	5.1235	7.7587	7.9727
6.5754	6.076	9.0553	11.2331	10.5869	13.0585	14.6656	13.4403	18.0603	16.5245	14.7243	18.6478	15.3664	1.2127	3.3443	5.3711	-2.375	8.6735	5.2326	7.8846	8.0441
6.6761	6.1474	9.1812	11.3506	10.717	13.2095	14.7705	13.5788	18.224	16.684	14.8376	18.7862	15.572	1.1833	3.4744	5.4718	-2.3163	8.8413	5.3585	7.9769	8.107
6.7348	6.1893	9.3029	11.38	10.8177	13.3396	14.8838	13.6879	18.3834	16.8308	14.9677	18.9583	15.7314	1.1497	3.6045	5.5935	-2.2785	8.9504	5.5138	8.0692	8.1154
6.8146	6.1935	9.3407	11.4136	10.8723	13.4361	14.9677	13.7634	18.5177	16.9693	15.0307	19.1219	15.8825	1.1246	3.6926	5.732	-2.2156	9.0385	5.6145	8.1322	8.1196
6.8565	6.2061	9.4162	11.4304	10.931	13.583	15.0517	13.8641	18.6729	17.1036	15.1314	19.2436	16.0252	1.1036	3.8227	5.8369	-2.1904	9.1518	5.7152	8.1867	8.1532
6.9069	6.1558	9.4666	11.4136	10.9436	13.6669	15.1272	13.9355	18.7653	17.1959	15.2111	19.3695	16.1301	1.0952	3.894	5.9502	-2.1568	9.2316	5.7991	8.2497	8.1573
6.9321	6.139	9.5169	11.422	10.9478	13.8012	15.1817	14.0068	18.8786	17.2882	15.3034	19.4954	16.2811	1.0868	3.9822	6.0719	-2.1358	9.3113	5.9208	8.3	8.1741
6.9405	6.0635	9.5337	11.3926	10.9394	13.8893	15.2447	14.0656	18.9709	17.3931	15.3538	19.6087	16.386	1.0784	4.0409	6.1977	-2.1191	9.3868	5.9628	8.3168	8.1573
6.9237	5.9921	9.5505	11.359	10.8849	13.9565	15.2657	14.1117	19.0674	17.4686	15.3999	19.6968	16.4783	1.0742	4.0829	6.311	-2.1023	9.4582	6.0131	8.342	8.1448
6.9195	5.8998	9.5463	11.3297	10.8513	14.0068	15.295	14.1537	19.1093	17.5148	15.4377	19.7598	16.5539	1.049	4.0997	6.3908	-2.0897	9.4959	6.1096	8.3294	8.128
6.9027	5.8243	9.5211	11.2625	10.8219	14.0446	15.3034	14.183	19.1765	17.5694	15.4964	19.8143	16.6294	1.0616	4.1122	6.4369	-2.0939	9.5589	6.1558	8.3294	8.1154
6.8356	5.7404	9.4959	11.2247	10.759	14.1159	15.316	14.1872	19.1807	17.5819	15.5048	19.873	16.6672	1.049	4.0577	6.4789	-2.0813	9.6134	6.181	8.3084	8.1112
6.7978	5.6313	9.4707	11.1954	10.6876	14.1075	15.3118	14.1872	19.2142	17.5777	15.4755	19.8563	16.6756	1.0406	4.0451	6.4957	-2.0603	9.6596	6.1768	8.2958	8.0231
6.7013	5.5473	9.4204	11.1492	10.6499	14.1369	15.3076	14.1663	19.1975	17.5861	15.4797	19.8814	16.6882	1.0406	3.9738	6.5292	-2.0519	9.668	6.1726	8.2706	8.0063
6.6635	5.4844	9.4036	11.1282	10.6121	14.1411	15.316	14.1369	19.1933	17.5861	15.4587	19.8395	16.6756	1.0365	3.9402	6.546	-2.0435	9.668	6.118	8.2581	7.914
6.6048	5.4298	9.37	11.1366	10.5659	14.1285	15.3286	14.0907	19.1639	17.5694	15.4209	19.8353	16.663	1.0281	3.8773	6.5334	-2.0351	9.6722	6.0551	8.2371	7.8468
6.5586	5.4131	9.3239	11.1198	10.545	14.1327	15.2908	14.0823	19.1177	17.519	15.379	19.7849	16.6042	1.0239	3.8227	6.5208	-2.0309	9.6722	5.9795	8.1867	7.7629
6.546	5.4005	9.3029	11.1408	10.5366	14.1201	15.2782	14.0446	19.0842	17.4644	15.3286	19.7556	16.5623	1.0197	3.7807	6.4999	-2.0226	9.6554	5.8914	8.1448	7.7
6.4831	5.3837	9.2274	11.124	10.503	14.0739	15.2195	13.99	19.0002	17.4351	15.2573	19.6884	16.4951	1.0113	3.6968	6.4705	-1.9974	9.6218	5.7446	8.0986	7.6286
6.4999	5.4214	9.2274	11.1576	10.5618	14.0697	15.2153	13.9858	18.9709	17.3973	15.2153	19.6297	16.4112	1.0197	3.6926	6.4957	-1.9974	9.6218	5.6438	8.086	7.5615
6.4957	5.4382	9.24	11.1996	10.5743	14.0781	15.2027	13.9187	18.9079	17.3344	15.1524	19.5877	16.3692	1.0071	3.6842	6.4873	-1.9974	9.5715	5.5222	8.0273	7.4818
6.4957	5.455	9.2022	11.2289	10.5953	14.0781	15.1943	13.8977	18.8618	17.3008	15.102	19.5415	16.3063	1.0029	3.701	6.4789	-1.9932	9.5337	5.3921	8.0021	7.4524
6.5083	5.4634	9.1812	11.2499	10.5576	13.9984	15.1272	13.8306	18.7695	17.2085	15.0307	19.4534	16.1762	1.0197	3.7388	6.525	-2.0184	9.4875	5.241	7.9056	7.4356
6.5418	5.497	9.2106	11.3129	10.5534	13.9816	15.0978	13.7718	18.6981	17.1413	14.9761	19.3821	16.1133	1.0365	3.7556	6.5796	-2.0393	9.4498	5.1151	7.872	7.4146
6.5292	5.476	9.1309	11.2919	10.4946	13.9145	15.0475	13.7047	18.6058	17.0364	14.867	19.2772	16.0126	1.0406	3.8059	6.5796	-2.0351	9.3616	4.9557	7.7839	7.3936
6.5922	5.5054	9.1225	11.3506	10.503	13.8977	15.0349	13.6795	18.5345	16.9819	14.8418	19.1933	15.9245	1.0406	3.9066	6.6803	-2.0477	9.3533	4.8214	7.7461	7.3895
6.6006	5.5138	9.0973	11.3674	10.4862	13.8599	14.9971	13.6292	18.4547	16.8812	14.7831	19.1177	15.8154	1.0323	3.9822	6.7055	-2.0477	9.2567	4.7081	7.679	7.3391
6.6299	5.5473	9.1015	11.3758	10.4988	13.8138	14.9551	13.5704	18.3834	16.7973	14.6992	19.0254	15.7188	1.0239	4.0661	6.7516	-2.0226	9.1896	4.6074	7.5951	7.3223
6.6467	5.5515	9.0679	11.3716	10.524	13.7383	14.888	13.5368	18.2911	16.7301	14.6446	18.9583	15.6223	1.0155	4.0871	6.7936	-1.9974	9.1728	4.5235	7.5657	7.2929
6.6174	5.5599	9.0008	11.3422	10.5282	13.6879	14.8335	13.4823	18.1694	16.621	14.5691	18.8408	15.4839	0.9945	4.1668	6.7978	-1.9386	9.1015	4.4312	7.4986	7.188
6.5796	5.5809	8.9798	11.2835	10.5534	13.6082	14.7663	13.4361	18.0939	16.5371	14.5229	18.7401	15.4041	0.9735	4.2255	6.7852	-1.9218	9.0176	4.406	7.4272	7.1754
6.5292	5.5557	8.8959	11.2122	10.5534	13.5242	14.6824	13.3942	17.989	16.4154	14.4012	18.6142	15.2531	0.9315	4.2297	6.7432	-1.8631	8.9043	4.3514	7.3936	7.0915
6.4831	5.5473	8.8245	11.1198	10.5618	13.4487	14.5733	13.3396	17.8673	16.3021	14.3425	18.5219	15.0894	0.9232	4.2297	6.7055	-1.8295	8.791	4.3262	7.2803	6.995
6.3698	5.4928	8.7364	10.9982	10.5785	13.3648	14.4432	13.3186	17.7414	16.1594	14.2586	18.354	14.9384	0.898	4.2088	6.6174	-1.8002	8.6651	4.3137	7.1922	6.9195
6.311	5.434	8.6147	10.8723	10.5618	13.2389	14.3257	13.2179	17.5903	16.0252	14.1243	18.1904	14.7705	0.8938	4.171	6.5544	-1.7582	8.5182	4.3053	7.1167	6.8314
6.2103	5.4005	8.5266	10.7128	10.5366	13.1214	14.1998	13.1844	17.4686	15.8867	14.0614	18.0477	14.6446	0.8812	4.1416	6.4453	-1.7372	8.4133	4.3095	7.0705	6.7684
6.1516	5.3711	8.4091	10.5869	10.5324	13.0417	14.0823	13.1592	17.3679	15.7776	13.9858	17.926	14.5187	0.877	4.1206	6.3488	-1.733	8.3084	4.3304	6.9866	6.6929
6.0299	5.2872	8.3168	10.4485	10.5366	12.9242	14.0026	13.1046	17.2295	15.6475	13.9229	17.8085	14.3803	0.8518	4.0913	6.2775	-1.6785	8.1867	4.3221	6.9237	6.6216
5.9669	5.2662	8.2413	10.2932	10.5072	12.8067	13.8767	13.0795	17.1162	15.5342	13.8264	17.6826	14.246	0.8476	4.0829	6.1977	-1.6491	8.086	4.343	6.8733	6.5628
5.8998	5.22	8.1322	10.1589	10.4778	12.7102	13.7802	13.0249	16.9861	15.3999	13.7299	17.5568	14.1369	0.8183	4.0787	6.1474	-1.6197	7.9727	4.3724	6.823	6.5166
5.8369	5.1655	8.0441	10.0079	10.4065	12.5885	13.6837	12.9829	16.8854	15.3244	13.6795	17.4309	14.0026	0.8057	4.0745	6.0719	-1.5862	7.8888	4.3682	6.802	6.4663
5.7865	5.1025	7.9601	9.8904	10.3687	12.5046	13.604	12.92	16.7721	15.2195	13.6082	17.3134	13.9019	0.7847	4.0703	6.0089	-1.5652	7.8091	4.385	6.7642	6.4117
5.6816	4.9809	7.872	9.7813	10.2386	12.3871	13.5284	12.8487	16.6504	15.123	13.5201	17.2001	13.7844	0.7847	4.0997	5.9837	-1.54	7.7209	4.385	6.7432	6.3698
5.5935	4.9221	7.7713	9.647	10.1799	12.2738	13.4487	12.7773	16.5623	15.0181	13.4445	17.0826	13.6753	0.7721	4.0997	5.925	-1.5106	7.6538	4.4228	6.7055	6.3194
5.5305	4.792	7.6706	9.4917	10.0204	12.1185	13.3312	12.6556	16.3902	14.909	13.3228	16.9357	13.562	0.7721	4.0955	5.8872	-1.4896	7.5195	4.3766	6.6593	6.2775
5.3963	4.6494	7.5447	9.3575	9.9239	12.001	13.2347	12.5801	16.2769	14.7873	13.2515	16.8224	13.4529	0.7427	4.0787	5.8495	-1.4603	7.4356	4.385	6.6174	6.2649
5.3291	4.5444	7.4356	9.2693	9.7855	11.8793	13.155	12.4836	16.172	14.6824	13.1927	16.7133	13.3354	0.7343	4.1374	5.8578	-1.4603	7.3559	4.4018	6.5586	6.2607
5.2284	4.4353	7.3601	9.1812	9.7141	11.7619	13.0836	12.4249	16.0419	14.5943	13.1004	16.6294	13.2599	0.7301	4.1542	5.8578	-1.4519	7.2803	4.427	6.5418	6.2859
5.1697	4.3179	7.2762	9.0889	9.5757	11.636	12.9871	12.3283	15.9245	14.4894	13.0081	16.5077	13.1508	0.7343	4.171	5.9166	-1.4561	7.188	4.4186	6.4705	6.2984
5.0858	4.1836	7.1712	9.0176	9.4624	11.5185	12.8948	12.2276	15.8154	14.3929	12.9116	16.3609	13.0459	0.7469	4.192	5.904	-1.4561	7.1377	4.4018	6.4285	6.3152
5.0228	4.0661	7.1041	8.9462	9.37	11.401	12.8109	12.1185	15.6811	14.2921	12.8193	16.2601	12.941	0.7427	4.2339	5.9502	-1.4729	7.0831	4.3598	6.374	6.3194
4.9725	3.9402	6.9866	8.8581	9.1896	11.2709	12.7186	11.9968	15.5384	14.1705	12.706	16.1301	12.8193	0.7511	4.2297	6.0047	-1.4771	6.995	4.2969	6.3236	6.3068
4.8634	3.8185	6.8817	8.7616	9.0721	11.1492	12.5927	11.8752	15.3873	14.0949	12.6011	16	12.7522	0.7637	4.2088	5.9879	-1.5022	6.9279	4.2465	6.2523	6.2523
4.8088	3.68	6.7726	8.6861	8.9252	11.0023	12.4962	11.7535	15.2447	13.9648	12.45	15.8741	12.6389	0.7763	4.192	6.0047	-1.54	6.8523	4.171	6.1852	6.1852
4.6955	3.5416	6.6425	8.6063	8.7448	10.8597	12.3661	11.6108	15.0978	13.8474	12.2948	15.7146	12.5214	0.8015	4.1668	5.9963	-1.5945	6.781	4.0913	6.1558	6.0886
4.6116	3.4241	6.5041	8.5182	8.556	10.717	12.2738	11.4639	14.9426	13.7508	12.1143	15.5678	12.4249	0.8308	4.129	6.0089	-1.6533	6.7265	4.0115	6.1138	5.9669
4.5528	3.3276	6.395	8.4175	8.4091	10.5618	12.1605	11.3171	14.7873	13.6459	11.9926	15.4251	12.3409	0.8854	4.108	6.0425	-1.7414	6.6887	3.9276	6.0719	5.8662
4.4563	3.1807	6.2439	8.3252	8.1993	10.4065	12.0136	11.1534	14.6194	13.5578	11.8164	15.2824	12.2402	0.919	4.0409	6.0844	-1.8127	6.6425	3.8437	6.0551	5.732
4.3766	3.059	6.139	8.1741	8.0063	10.2596	11.8752	10.994	14.4684	13.4487	11.6653	15.1272	12.1395	0.9525	3.9906	6.1306	-1.8757	6.6006	3.7724	5.9879	5.5809
4.2507	2.9121	5.9837	8.0482	7.8468	10.1086	11.7241	10.8639	14.3299	13.3396	11.5395	15.0013	12.085	0.9609	3.957	6.139	-1.9135	6.5838	3.6968	5.9837	5.4382
4.129	2.7737	5.8453	7.893	7.6454	9.9323	11.5688	10.6625	14.1663	13.2221	11.3464	14.8335	11.9968	0.9777	3.8898	6.1726	-1.947	6.5586	3.6297	5.9418	5.2242
3.9444	2.631	5.6145	7.7209	7.4482	9.7351	11.4178	10.4736	13.9732	13.1088	11.1408	14.6614	11.9087	0.9987	3.8353	6.1348	-1.9764	6.5544	3.55	5.9124	5.0732
3.7807	2.4799	5.4173	7.5573	7.2887	9.5169	11.2373	10.3184	13.8054	12.9745	10.9604	14.4684	11.8206	1.0155	3.7262	6.1012	-2.0226	6.5418	3.4828	5.862	4.8801
3.6213	2.3079	5.2326	7.3978	7.1167	9.3071	11.0485	10.1295	13.5998	12.8445	10.7632	14.2879	11.6989	1.049	3.68	6.076	-2.0519	6.5166	3.3653	5.8243	4.7123
3.4576	2.1736	5.0228	7.2174	6.9279	9.1267	10.8974	9.9659	13.4319	12.7354	10.5659	14.1033	11.5898	1.049	3.6045	6.0677	-2.0897	6.5083	3.2646	5.7739	4.5444
3.2856	1.9806	4.8424	7.0202	6.7474	8.9294	10.7044	9.8022	13.2221	12.6053	10.3729	13.9355	11.4807	1.0826	3.5164	6.0131	-2.1358	6.4957	3.1681	5.7907	4.3766
3.1261	1.8547	4.6661	6.8985	6.5754	8.7448	10.5492	9.6008	13.0417	12.4752	10.1673	13.7047	11.4052	1.1288	3.466	5.9963	-2.1988	6.4663	3.0884	5.7487	4.1668
2.9667	1.7078	4.5109	6.7516	6.4579	8.5602	10.4107	9.4162	12.8654	12.3409	9.9995	13.5452	11.3171	1.1623	3.4031	5.9082	-2.2575	6.4831	2.9835	5.711	4.0367
2.803	1.5778	4.3221	6.6216	6.2984	8.3797	10.2806	9.2777	12.7186	12.1983	9.7939	13.3522	11.1702	1.1665	3.3318	5.8537	-2.3247	6.4537	2.8912	5.69	3.8605
2.673	1.4351	4.1416	6.4873	6.1474	8.149	10.1631	9.1141	12.492	12.0724	9.626	13.1634	11.0485	1.2085	3.2352	5.8075	-2.3792	6.4117	2.7779	5.69	3.7052
2.5681	1.305	4.0241	6.4327	6.0299	8.0524	10.0708	8.9798	12.3493	11.9675	9.4624	12.9913	10.9604	1.2379	3.1891	5.7487	-2.4506	6.3908	2.7107	5.6774	3.6003
2.5177	1.1959	3.8982	6.4243	5.9124	7.914	10.0163	8.8497	12.1941	11.85	9.3029	12.8277	10.8681	1.2882	3.1723	5.6942	-2.5429	6.4034	2.6058	5.7068	3.5038
2.4128	1.1036	3.8059	6.3698	5.7697	7.7377	9.9365	8.7029	12.0388	11.7283	9.1141	12.6389	10.759	1.326	3.1303	5.6229	-2.631	6.3278	2.5135	5.7487	3.3863
2.3792	1.0197	3.7052	6.353	5.6984	7.6202	9.9113	8.6189	11.9003	11.657	8.9714	12.4794	10.6583	1.3973	3.1136	5.5431	-2.7485	6.353	2.438	5.8033	3.3108
2.3247	0.9609	3.5919	6.3446	5.5767	7.5111	9.882	8.5224	11.7493	11.5437	8.8413	12.3074	10.5282	1.4603	3.1052	5.4592	-2.8702	6.3446	2.396	5.8327	3.252
2.2701	0.8728	3.5164	6.3488	5.5054	7.3978	9.8736	8.4343	11.615	11.4304	8.7238	12.1479	10.4065	1.498	3.08	5.3837	-2.9499	6.3026	2.3247	5.862	3.231
2.2575	0.8099	3.4241	6.374	5.4466	7.2845	9.84	8.3504	11.4555	11.3422	8.5644	11.9843	10.2722	1.5358	3.0758	5.3249	-3.038	6.2439	2.2827	5.8369	3.1933
2.2282	0.7847	3.3821	6.3698	5.3627	7.1922	9.84	8.2832	11.3506	11.2331	8.4888	11.8332	10.1547	1.5778	3.1261	5.2998	-3.1052	6.1642	2.2911	5.862	3.2059
2.224	0.7511	3.294	6.4117	5.3501	7.0789	9.8274	8.2077	11.2164	11.1324	8.3881	11.6737	9.9869	1.5987	3.1597	5.3165	-3.1639	6.0844	2.3331	5.8327	3.2185
2.182	0.6882	3.2352	6.4621	5.3249	6.9656	9.8106	8.1573	11.0611	11.0233	8.2958	11.552	9.8652	1.6113	3.1891	5.3123	-3.1975	5.9669	2.3247	5.8159	3.2562
2.1904	0.6588	3.1387	6.5041	5.2956	6.8481	9.7897	8.1196	10.9226	10.8891	8.2413	11.3926	9.6931	1.6113	3.2394	5.3417	-3.1891	5.8159	2.3499	5.7991	3.2604
2.1317	0.5749	3.0548	6.4831	5.2326	6.7726	9.7645	8.0273	10.7716	10.7632	8.128	11.2247	9.5295	1.582	3.2436	5.3207	-3.1513	5.6816	2.3792	5.711	3.2856
2.1065	0.5245	2.9625	6.5041	5.2242	6.6677	9.7393	7.9937	10.6373	10.6289	8.0399	11.0779	9.3365	1.5736	3.2562	5.3333	-3.1094	5.5347	2.4212	5.6648	3.3234
2.0603	0.4742	2.8912	6.4789	5.2116	6.5418	9.6806	7.9391	10.5114	10.4694	7.9769	10.8974	9.1351	1.5316	3.294	5.3291	-3.0254	5.3501	2.4715	5.5599	3.336
1.9974	0.407	2.7779	6.4411	5.1823	6.4159	9.6554	7.8972	10.3687	10.3226	7.9308	10.7632	8.942	1.4729	3.2772	5.2956	-2.9247	5.1865	2.4883	5.4634	3.3863
1.9638	0.4154	2.7275	6.4034	5.1739	6.332	9.5798	7.8888	10.289	10.2177	7.8846	10.6457	8.7532	1.4183	3.3108	5.3249	-2.8198	5.0312	2.5597	5.3501	3.4576
1.9512	0.4322	2.6478	6.374	5.22	6.2397	9.5253	7.872	10.1883	10.0666	7.872	10.5366	8.6021	1.3763	3.3276	5.3501	-2.7065	4.8843	2.6268	5.262	3.5416
1.9386	0.449	2.6142	6.3068	5.2242	6.1852	9.4791	7.8762	10.1379	9.9533	7.8636	10.4568	8.4511	1.3008	3.3401	5.3963	-2.5471	4.7417	2.7065	5.1781	3.6129
1.9176	0.4993	2.5471	6.2523	5.2494	6.0719	9.4162	7.893	10.0708	9.8106	7.8678	10.3855	8.279	1.2001	3.3653	5.4173	-2.396	4.5864	2.7275	5.069	3.6926
1.947	0.5875	2.5303	6.2313	5.3333	6.0383	9.3952	7.9433	10.033	9.7477	7.8888	10.3184	8.1615	1.1246	3.4576	5.4886	-2.2282	4.4521	2.8072	4.9515	3.764
1.9512	0.6252	2.4925	6.1893	5.3501	6.0005	9.3155	7.9517	9.9995	9.668	7.8888	10.247	8.0315	1.0532	3.4702	5.5935	-2.0729	4.3514	2.8198	4.8592	3.7975
1.9722	0.684	2.4883	6.1558	5.3627	5.9753	9.2777	7.9601	9.9533	9.5631	7.9224	10.2135	7.9266	0.9609	3.4954	5.669	-1.8967	4.2046	2.887	4.771	3.8017
1.9848	0.7133	2.4673	6.0844	5.3711	5.925	9.2609	7.9769	9.9239	9.4833	7.9308	10.1673	7.8342	0.8812	3.5458	5.7781	-1.7582	4.1122	2.9163	4.6703	3.8311
1.9764	0.7595	2.4296	6.0886	5.3879	5.904	9.2442	7.9727	9.9365	9.4624	7.9266	10.1547	7.7671	0.8183	3.5793	5.9124	-1.6197	4.0367	2.9415	4.5948	3.8101
1.9638	0.7679	2.4002	6.0089	5.3669	5.8411	9.198	7.9937	9.9155	9.37	7.914	10.1379	7.6706	0.7637	3.6339	6.0005	-1.5064	3.936	2.9541	4.5193	3.8017
1.9638	0.8224	2.3792	5.9544	5.3627	5.8075	9.1644	7.9685	9.8946	9.3407	7.893	10.1086	7.6328	0.7175	3.6633	6.139	-1.4183	3.8773	3.0003	4.4521	3.7849
1.9344	0.8602	2.3457	5.9208	5.3753	5.7404	9.1309	7.9475	9.8652	9.2987	7.9014	10.075	7.5741	0.6714	3.6716	6.2187	-1.3386	3.8017	2.9793	4.364	3.7514
1.9302	0.9022	2.3289	5.8704	5.3837	5.7236	9.1518	7.9433	9.8694	9.2777	7.851	10.0792	7.5531	0.663	3.6842	6.3152	-1.2882	3.722	2.9961	4.3011	3.6842
1.9093	0.9399	2.3121	5.8327	5.3921	5.6816	9.1099	7.9014	9.84	9.2567	7.8426	10.0918	7.5111	0.6378	3.6968	6.4034	-1.2547	3.6674	2.9877	4.2591	3.6381
1.8799	0.9819	2.3079	5.7613	5.4424	5.6774	9.0973	7.8972	9.819	9.2693	7.8384	10.075	7.5153	0.6336	3.7346	6.525	-1.2505	3.6297	2.9877	4.2381	3.5961
1.8673	1.0448	2.2869	5.732	5.4718	5.6438	9.1099	7.893	9.819	9.2819	7.8091	10.0876	7.5027	0.6336	3.7262	6.5796	-1.2337	3.5961	2.9541	4.1962	3.5374
1.8505	1.0994	2.2827	5.7026	5.4634	5.6103	9.1057	7.8636	9.8232	9.2861	7.7587	10.1002	7.5363	0.621	3.7682	6.6719	-1.2169	3.5835	2.9163	4.1668	3.4828
1.9009	1.1959	2.3037	5.69	5.5557	5.648	9.1309	7.8888	9.8862	9.3365	7.7881	10.1295	7.5657	0.6378	3.7766	6.7558	-1.2463	3.6003	2.9163	4.1626	3.4241
1.8841	1.2211	2.2743	5.648	5.5809	5.6438	9.1434	7.872	9.8652	9.3952	7.7251	10.1547	7.6035	0.6252	3.7933	6.802	-1.2337	3.5835	2.8786	4.1039	3.3695
1.9093	1.2756	2.2953	5.6271	5.6187	5.6355	9.1728	7.8552	9.9155	9.4372	7.7335	10.1547	7.6454	0.6504	3.8563	6.8985	-1.2672	3.6129	2.8828	4.1248	3.2814
1.9093	1.3134	2.2827	5.6145	5.6271	5.6355	9.1854	7.8804	9.9659	9.5211	7.7293	10.2261	7.7293	0.663	3.8647	6.9321	-1.3008	3.6297	2.8828	4.1416	3.2227
1.9093	1.2966	2.2785	5.5641	5.6187	5.6355	9.1686	7.8762	9.9533	9.5798	7.7419	10.2596	7.7839	0.6714	3.9192	6.9656	-1.3218	3.6674	2.8786	4.1542	3.2227
1.9093	1.2714	2.2827	5.5389	5.6271	5.648	9.1812	7.8678	9.9911	9.6176	7.7168	10.2806	7.8552	0.6966	3.9528	7.0286	-1.3596	3.7094	2.8366	4.171	3.1765
1.9093	1.2547	2.2659	5.5222	5.5809	5.6648	9.1644	7.872	10.0372	9.668	7.7	10.3268	7.8972	0.7175	4.0283	7.0244	-1.3931	3.7598	2.824	4.2046	3.1765
1.9218	1.2463	2.2701	5.497	5.5809	5.669	9.1351	7.8594	10.0498	9.6973	7.7042	10.3394	7.9685	0.7343	4.0703	7.0538	-1.4099	3.7514	2.7905	4.2423	3.1471
1.8883	1.1623	2.2366	5.4676	5.5473	5.6396	9.0931	7.872	10.0876	9.7225	7.6622	10.3519	7.9811	0.7217	4.171	7.0663	-1.4225	3.7849	2.7485	4.2591	3.1849
1.8799	1.1372	2.224	5.4844	5.5557	5.648	9.0889	7.8846	10.1505	9.7687	7.6664	10.3561	8.0231	0.7301	4.213	7.037	-1.4225	3.7807	2.7485	4.2591	3.2101
1.8421	1.0784	2.1946	5.3963	5.5389	5.6396	9.0218	7.8678	10.1421	9.7897	7.6496	10.3561	8.0441	0.7092	4.2675	7.0202	-1.3721	3.7766	2.7149	4.2423	3.2185
1.8421	1.0742	2.2282	5.4424	5.5809	5.648	8.9546	7.8846	10.2093	9.798	7.6412	10.3813	8.0482	0.6714	4.3221	7.0034	-1.326	3.7682	2.7569	4.2507	3.2772
1.8295	1.0281	2.1736	5.3921	5.5809	5.6396	8.8791	7.9014	10.1967	9.798	7.6035	10.3477	8.0231	0.6378	4.343	6.9698	-1.263	3.7262	2.7401	4.2675	3.315
1.8295	1.0281	2.1988	5.4131	5.6019	5.69	8.8245	7.9014	10.2596	9.8064	7.6202	10.3645	8.0399	0.6001	4.4102	6.9279	-1.1875	3.7094	2.7401	4.2549	3.3821
1.8295	1.0448	2.2366	5.4256	5.669	5.7026	8.7868	7.9266	10.2764	9.7897	7.6035	10.3561	8.0399	0.5707	4.427	6.8985	-1.133	3.6842	2.803	4.2381	3.466
1.8379	1.0323	2.2449	5.4718	5.7152	5.7236	8.7406	7.9391	10.331	9.7897	7.6077	10.3687	8.0357	0.5455	4.4521	6.8817	-1.0658	3.6926	2.803	4.2549	3.4954
1.8673	1.049	2.2408	5.4802	5.7487	5.7446	8.7238	7.9475	10.3855	9.7939	7.5951	10.3855	8.0315	0.4993	4.4983	6.8565	-0.9903	3.6758	2.8198	4.2717	3.5542
1.9344	1.0952	2.3163	5.5725	5.8285	5.8243	8.749	8.0021	10.4568	9.8232	7.6118	10.4359	8.0608	0.4784	4.5235	6.8649	-0.9441	3.6842	2.8408	4.3011	3.6003
1.9806	1.0952	2.3792	5.6438	5.8537	5.8578	8.7238	8.0105	10.5114	9.8106	7.5741	10.4401	8.0399	0.4364	4.5361	6.8649	-0.877	3.6549	2.7946	4.3137	3.5835
2.01	1.112	2.4296	5.7026	5.8746	5.9292	8.7532	8.0482	10.5366	9.8526	7.5657	10.4694	8.0441	0.407	4.5444	6.8523	-0.8141	3.6758	2.7779	4.3682	3.5625
2.0939	1.1414	2.4883	5.7949	5.904	5.9711	8.7658	8.0315	10.6121	9.8736	7.5489	10.4694	8.065	0.4028	4.5444	6.8523	-0.7805	3.6758	2.7485	4.427	3.5416
2.1526	1.1791	2.5345	5.8537	5.9418	6.0131	8.7952	8.0482	10.675	9.8778	7.5363	10.5156	8.0608	0.3819	4.578	6.8481	-0.7469	3.68	2.7233	4.4479	3.508
2.2366	1.2337	2.589	5.925	5.9376	6.0886	8.812	8.0357	10.7254	9.8652	7.5237	10.5198	8.0776	0.3735	4.6242	6.8733	-0.7092	3.6507	2.6814	4.4941	3.4618
2.3121	1.2924	2.6855	5.9753	5.9586	6.139	8.8371	8.0399	10.7883	9.903	7.486	10.5743	8.0734	0.3567	4.6326	6.8649	-0.6966	3.6423	2.6604	4.5193	3.3863
2.3876	1.3386	2.7233	6.0173	5.9544	6.1935	8.8665	8.0147	10.8051	9.8946	7.4776	10.5492	8.0524	0.3609	4.6494	6.9153	-0.7008	3.6213	2.6772	4.5025	3.3066
2.4548	1.3973	2.7821	6.0425	5.9669	6.2397	8.8791	8.0105	10.8303	9.8946	7.444	10.5911	8.065	0.3777	4.6368	6.9111	-0.7301	3.6003	2.6394	4.5486	3.2269
2.5219	1.4812	2.845	6.1096	6.0131	6.2775	8.9211	7.9937	10.91	9.9407	7.465	10.6037	8.1028	0.3986	4.6577	6.9782	-0.7805	3.6045	2.6478	4.5738	3.1555
2.5345	1.5484	2.8954	6.16	6.0215	6.3026	8.9756	8.0021	10.9268	9.9365	7.4188	10.6079	8.0734	0.4322	4.6703	6.995	-0.856	3.6129	2.652	4.578	3.0464
2.6058	1.6239	2.9667	6.2229	6.0635	6.3404	9.0134	7.9643	10.9646	9.9365	7.4146	10.6247	8.0776	0.4868	4.7039	7.0705	-0.9399	3.5919	2.6478	4.5822	2.9667
2.6772	1.6953	3.0087	6.2649	6.0802	6.3782	9.0679	7.9643	10.9604	9.9407	7.4188	10.6331	8.0776	0.5245	4.7039	7.1335	-1.0448	3.5751	2.6646	4.599	2.8744
2.7065	1.7582	3.059	6.2984	6.1096	6.4201	9.0973	7.9433	10.9478	9.9365	7.3685	10.6289	8.0818	0.5833	4.6955	7.1796	-1.133	3.5248	2.6436	4.5696	2.7821
2.7905	1.8337	3.0884	6.3572	6.181	6.4327	9.1267	7.9601	10.9814	9.9869	7.3685	10.6541	8.0692	0.6294	4.7207	7.2678	-1.2295	3.5122	2.6604	4.578	2.7107
2.824	1.9176	3.1261	6.3908	6.1935	6.4369	9.2022	7.9475	10.9814	9.9533	7.3559	10.6709	8.0902	0.6798	4.7039	7.3601	-1.3218	3.4576	2.6646	4.5822	2.6226
2.8954	2.0184	3.1849	6.4579	6.2733	6.4957	9.2651	7.9853	11.0191	10.0372	7.3936	10.6918	8.1028	0.7343	4.7752	7.4944	-1.4309	3.4576	2.6855	4.5948	2.6016
2.9583	2.0645	3.2185	6.5083	6.3152	6.5292	9.3029	7.9895	10.9688	10.0414	7.402	10.6709	8.1322	0.7679	4.7794	7.5951	-1.4854	3.4073	2.6562	4.5654	2.5345
3.017	2.1484	3.2856	6.5125	6.3572	6.546	9.3197	8.0357	11.0065	10.0372	7.4272	10.7212	8.107	0.7889	4.8214	7.6706	-1.561	3.3737	2.631	4.5486	2.4925
3.0968	2.2366	3.3443	6.5628	6.3908	6.5796	9.3742	8.0776	11.0485	10.0918	7.4776	10.7296	8.1406	0.8308	4.8717	7.8091	-1.6197	3.3779	2.5932	4.5444	2.5093
3.1807	2.3205	3.4115	6.567	6.4453	6.6425	9.391	8.1615	11.0863	10.117	7.5489	10.7506	8.1573	0.8602	4.9305	7.9433	-1.6617	3.3485	2.6016	4.5319	2.5009
3.2646	2.3918	3.4576	6.6174	6.4705	6.6719	9.4246	8.1909	11.1073	10.1295	7.5867	10.7758	8.1909	0.8518	5.0102	8.0692	-1.6953	3.3192	2.5848	4.5151	2.5303
3.3527	2.4715	3.5248	6.6174	6.4957	6.7307	9.4456	8.2706	11.145	10.1799	7.6496	10.8261	8.2161	0.877	5.0774	8.2077	-1.7288	3.336	2.5345	4.5403	2.5723
3.4492	2.5093	3.5919	6.6257	6.5166	6.7474	9.4707	8.3168	11.1828	10.2177	7.7251	10.8765	8.2413	0.8812	5.1571	8.342	-1.7624	3.3318	2.5051	4.5361	2.6478
3.4954	2.5345	3.6171	6.6467	6.4873	6.781	9.5043	8.3504	11.2122	10.2554	7.7545	10.8849	8.2581	0.9022	5.2452	8.493	-1.775	3.3192	2.4757	4.5361	2.6688
3.5919	2.5471	3.6549	6.6467	6.5125	6.802	9.4959	8.4007	11.1996	10.2386	7.8217	10.9058	8.279	0.9106	5.3459	8.6441	-1.8044	3.3108	2.4506	4.5277	2.7317
3.6339	2.5681	3.7346	6.7139	6.4999	6.7978	9.5505	8.4721	11.2667	10.2764	7.8888	10.9562	8.3252	0.9274	5.4592	8.7742	-1.8253	3.336	2.4422	4.557	2.7988
3.6507	2.5555	3.7052	6.6677	6.4663	6.8188	9.5085	8.4511	11.2499	10.268	7.8888	10.931	8.3	0.9106	5.5305	8.8791	-1.8169	3.2814	2.3834	4.5025	2.8156
3.6842	2.4925	3.6968	6.6845	6.4705	6.8062	9.4959	8.4469	11.2247	10.2554	7.9182	10.9226	8.2748	0.919	5.6103	8.9966	-1.8044	3.2688	2.3499	4.4647	2.8912
3.7262	2.4841	3.7346	6.7348	6.4285	6.8062	9.5001	8.4679	11.2331	10.2638	7.9014	10.91	8.2748	0.9274	5.6942	9.0889	-1.796	3.231	2.3582	4.4647	2.9415
3.7304	2.4212	3.722	6.6929	6.4201	6.7684	9.4498	8.4469	11.2247	10.2386	7.9224	10.8639	8.2539	0.898	5.7194	9.1728	-1.7624	3.2185	2.3415	4.4228	2.9793
3.7136	2.3373	3.6884	6.6887	6.3404	6.7265	9.4078	8.4049	11.1492	10.1337	7.8636	10.7967	8.1741	0.8812	5.7907	9.2064	-1.712	3.1639	2.2785	4.385	3.0087
3.743	2.2785	3.6968	6.6971	6.2775	6.6803	9.37	8.3714	11.1324	10.096	7.8091	10.7296	8.0986	0.8434	5.8411	9.2777	-1.6701	3.1261	2.2449	4.3724	3.0422
3.7514	2.2198	3.6339	6.6677	6.2355	6.6048	9.2777	8.3168	11.0695	10.0246	7.7461	10.6415	8.0315	0.8308	5.9208	9.3616	-1.6407	3.0842	2.2156	4.3137	3.059
3.722	2.1275	3.6129	6.6635	6.181	6.5418	9.2525	8.2455	11.0065	9.9533	7.6706	10.5156	7.9475	0.8308	5.9544	9.3868	-1.6239	3.0548	2.1694	4.2885	3.0422
3.7346	2.0897	3.5877	6.6509	6.1138	6.4915	9.1602	8.2035	10.931	9.861	7.5825	10.4065	7.8552	0.8224	6.0173	9.433	-1.5945	2.9877	2.1149	4.2549	3.0254
3.7724	2.0477	3.5542	6.6551	6.0593	6.4495	9.1351	8.1448	10.8849	9.7939	7.5195	10.331	7.7839	0.8308	6.0802	9.4875	-1.6323	2.9625	2.0729	4.2171	3.0212
3.8017	2.0142	3.55	6.6719	6.0215	6.3824	9.0889	8.1112	10.8429	9.7309	7.444	10.2386	7.7	0.8392	6.16	9.5463	-1.6533	2.9709	2.0226	4.2423	2.9793
3.8101	1.9974	3.5583	6.6803	5.9669	6.3488	9.0553	8.0315	10.8093	9.6806	7.3601	10.2009	7.6538	0.8644	6.2187	9.5715	-1.6869	2.9877	2.0267	4.2549	2.9415
3.8857	2.0058	3.5751	6.7348	5.9418	6.3278	9.0302	8.0273	10.7925	9.6428	7.3013	10.1128	7.6118	0.8938	6.2649	9.6302	-1.7456	2.9793	2.0184	4.2633	2.8954
3.9234	2.01	3.6045	6.7474	5.9586	6.2901	9.0385	7.9937	10.7632	9.584	7.2552	10.0372	7.5573	0.9232	6.3152	9.7015	-1.8085	2.9667	2.01	4.2801	2.8618
3.9696	2.0519	3.6129	6.7684	5.9418	6.2901	9.0343	7.9643	10.7506	9.5253	7.209	10.0121	7.5279	0.9441	6.4075	9.7393	-1.8757	2.9961	2.0309	4.2843	2.8366
4.0115	2.0603	3.6507	6.802	5.9669	6.2901	9.0302	7.9517	10.7716	9.5001	7.1629	9.9449	7.4818	0.9903	6.4034	9.7687	-1.9428	3.0128	2.0184	4.2927	2.7821
4.0451	2.0897	3.6591	6.823	5.9502	6.3278	9.0343	7.935	10.7674	9.433	7.1209	9.9113	7.4314	1.0281	6.4159	9.7813	-2.0142	3.017	2.0184	4.3011	2.7527
4.0913	2.1275	3.7136	6.9027	5.9837	6.332	9.026	7.9433	10.7758	9.4162	7.0873	9.8988	7.423	1.0742	6.4285	9.8106	-2.1191	3.0296	2.0435	4.3095	2.7275
4.1122	2.1442	3.7472	6.8985	6.0173	6.3404	9.0302	7.9224	10.8009	9.3826	7.058	9.8862	7.3685	1.1204	6.4117	9.8064	-2.203	3.0548	2.0267	4.343	2.6855
4.1248	2.1778	3.7682	6.953	6.0131	6.353	9.0218	7.9056	10.7925	9.3365	6.9908	9.8442	7.3139	1.133	6.374	9.8148	-2.2324	2.9961	2.0351	4.3179	2.6436
4.1248	2.2072	3.8185	6.995	6.0551	6.3866	9.0218	7.9266	10.8093	9.2903	6.953	9.8022	7.2762	1.1665	6.3068	9.7561	-2.2869	2.9751	2.0687	4.3221	2.6058
4.1542	2.2533	3.8479	7.0454	6.0844	6.3992	9.0092	7.8636	10.8219	9.2232	6.9111	9.7771	7.2048	1.1707	6.3152	9.6931	-2.3121	2.9499	2.0435	4.2969	2.5806
4.1626	2.2659	3.8185	7.0621	6.0844	6.4159	9.0092	7.8091	10.7758	9.1518	6.823	9.7099	7.1419	1.1791	6.2061	9.6218	-2.3289	2.8576	1.989	4.2591	2.4673
4.213	2.3666	3.9444	7.1377	6.1474	6.4579	9.0343	7.8007	10.7716	9.0847	6.7768	9.6722	7.0915	1.2127	6.1852	9.6218	-2.3666	2.8576	2.0519	4.2507	2.4044
4.2255	2.4464	3.9612	7.1796	6.139	6.4579	9.0218	7.7797	10.7464	9.0469	6.6929	9.6218	7.0328	1.2169	6.1264	9.5966	-2.3834	2.7821	2.0603	4.2255	2.3247
4.2759	2.5009	4.0199	7.2468	6.1558	6.5334	9.0553	7.7629	10.7422	9.005	6.6593	9.6008	6.9447	1.2337	6.1558	9.584	-2.4254	2.7149	2.0603	4.2088	2.2366
4.3598	2.5764	4.108	7.2887	6.1684	6.5544	9.0805	7.7461	10.7212	8.9504	6.567	9.5295	6.8649	1.2421	6.1768	9.6722	-2.4506	2.6772	2.1023	4.1542	2.1568
4.4773	2.7065	4.1878	7.3895	6.2439	6.6341	9.1225	7.7797	10.7464	8.9504	6.5586	9.5505	6.8481	1.263	6.2523	9.7225	-2.5135	2.631	2.1526	4.1332	2.1023
4.6158	2.8576	4.3095	7.5069	6.3488	6.7474	9.1812	7.8259	10.8093	8.9462	6.5544	9.5505	6.8356	1.3176	6.3572	9.8694	-2.6016	2.6268	2.2198	4.1374	2.0519
4.7291	2.9751	4.4312	7.6077	6.4117	6.8062	9.2358	7.8384	10.8135	8.9504	6.5376	9.5337	6.8188	1.3386	6.4663	9.9953	-2.6562	2.6142	2.2449	4.1374	2.0058
4.8885	3.1345	4.5612	7.6958	6.5166	6.8943	9.2945	7.8804	10.8387	8.9756	6.5292	9.5715	6.781	1.3847	6.6425	10.2093	-2.7359	2.5806	2.2869	4.108	1.9722
5.0438	3.2772	4.7081	7.8133	6.6551	7.0244	9.3616	7.9853	10.9352	9.0176	6.5418	9.6344	6.8104	1.4435	6.7726	10.4233	-2.8408	2.6058	2.3415	4.171	1.9386
5.22	3.4451	4.8466	7.9098	6.7726	7.1251	9.4288	7.9811	10.9688	9.0092	6.5166	9.6134	6.7894	1.4771	6.9363	10.6163	-2.9163	2.5723	2.3373	4.1668	1.8841
5.3963	3.5961	4.9641	8.0231	6.9027	7.2258	9.454	8.0315	11.0023	9.0385	6.5166	9.6512	6.8062	1.5274	7.0999	10.8765	-3.0003	2.5932	2.354	4.2171	1.8379
5.5305	3.743	5.0732	8.0776	7.0118	7.2845	9.4875	8.0357	11.0275	9.0469	6.4915	9.6092	6.7894	1.54	7.2426	11.1282	-3.0632	2.5681	2.3582	4.2004	1.7666
5.6732	3.8605	5.1697	8.1364	7.0957	7.3643	9.4833	8.0399	11.0443	9.0595	6.4453	9.6008	6.7558	1.582	7.4062	11.359	-3.1178	2.5723	2.354	4.2297	1.7372
5.7739	3.9444	5.2872	8.1867	7.2006	7.4356	9.4959	8.0189	11.0359	9.0469	6.4034	9.584	6.7474	1.5987	7.5405	11.552	-3.1681	2.5597	2.2953	4.2759	1.6197
5.883	4.0241	5.3627	8.1993	7.2845	7.4902	9.4959	8.0273	11.0527	9.0343	6.3236	9.5379	6.7181	1.6239	7.6496	11.7702	-3.2185	2.5303	2.2617	4.2675	1.54
5.9669	4.0829	5.4005	8.1951	7.3097	7.5111	9.5001	7.9643	11.0107	9.0092	6.2481	9.4875	6.6551	1.6407	7.7839	11.9549	-3.2352	2.5009	2.203	4.2927	1.4687
6.0089	4.0955	5.4131	8.1615	7.3433	7.5111	9.4204	7.893	10.9814	8.9798	6.181	9.3994	6.6006	1.6407	7.8594	12.1017	-3.231	2.417	2.14	4.2213	1.3889
6.0215	4.0829	5.4298	8.1154	7.3055	7.5111	9.3365	7.8007	10.9142	8.9252	6.0425	9.3197	6.5166	1.6071	7.9266	12.1857	-3.1891	2.3499	2.0561	4.1878	1.2882
6.0509	4.0493	5.3921	8.0189	7.2258	7.486	9.2693	7.6958	10.8681	8.8455	5.9711	9.2358	6.4369	1.582	7.9769	12.3199	-3.1219	2.2827	1.9596	4.15	1.2295
6.0425	3.978	5.3753	7.9098	7.1671	7.444	9.177	7.5657	10.8219	8.7868	5.8662	9.1602	6.3446	1.5442	8.0608	12.4249	-3.038	2.203	1.8505	4.0619	1.1372
6.0047	3.915	5.3249	7.8049	7.0328	7.402	9.0847	7.4734	10.7632	8.7154	5.7236	9.0343	6.2607	1.4812	8.0986	12.4416	-2.9037	2.0981	1.7288	3.978	1.07
5.9795	3.7766	5.2746	7.6496	6.9363	7.3559	8.984	7.3475	10.6918	8.6063	5.6187	8.9462	6.1726	1.4183	8.1196	12.4626	-2.7653	2.0309	1.6449	3.8773	0.9777
5.925	3.6507	5.2116	7.5657	6.7936	7.3307	8.9211	7.23	10.6247	8.556	5.5389	8.8791	6.1012	1.347	8.1573	12.4962	-2.6352	1.9722	1.5316	3.8269	0.9274
5.8914	3.5416	5.1403	7.4608	6.6551	7.3055	8.8245	7.1335	10.6037	8.5266	5.455	8.8245	6.0928	1.2672	8.1909	12.5088	-2.5093	1.9302	1.4393	3.764	0.9022
5.8369	3.3905	5.1067	7.3517	6.4999	7.2552	8.77	7.0202	10.5408	8.4888	5.3921	8.7784	6.0425	1.2043	8.1909	12.513	-2.3624	1.8883	1.3805	3.6926	0.877
5.8243	3.2478	5.0816	7.3139	6.3782	7.2384	8.728	6.9195	10.5492	8.4888	5.3459	8.7448	6.0299	1.1414	8.2203	12.5381	-2.2198	1.8589	1.2966	3.6758	0.856
5.7529	3.1387	5.0522	7.2887	6.2565	7.251	8.7406	6.8649	10.5827	8.4846	5.3291	8.749	6.0551	1.091	8.2832	12.534	-2.1149	1.8505	1.2589	3.6339	0.856
5.7487	3.0045	5.027	7.2762	6.1516	7.2174	8.7532	6.7768	10.5743	8.4846	5.2956	8.7112	6.0383	1.0071	8.2958	12.5423	-1.9806	1.8085	1.2295	3.6129	0.877
5.7236	2.9331	5.006	7.3223	6.0802	7.2426	8.7868	6.7348	10.6079	8.5266	5.304	8.7154	6.0844	0.9483	8.3084	12.5549	-1.8589	1.8253	1.2043	3.6129	0.8854
5.6942	2.8492	5.006	7.3265	6.0047	7.2552	8.8161	6.7013	10.6121	8.5434	5.2914	8.7238	6.1012	0.877	8.3462	12.5675	-1.7414	1.8379	1.2043	3.6381	0.9232
5.6438	2.7401	4.9934	7.3727	5.9795	7.209	8.8875	6.6803	10.6163	8.5896	5.2956	8.7406	6.1348	0.8434	8.3336	12.5381	-1.6491	1.8463	1.2085	3.6926	0.9399
5.648	2.7065	5.0186	7.423	5.9586	7.2552	8.9462	6.7055	10.6415	8.6399	5.3291	8.7532	6.1893	0.7973	8.3378	12.492	-1.5694	1.8715	1.2672	3.7388	1.0113
5.6061	2.652	4.9683	7.444	5.9418	7.2216	8.9588	6.6509	10.6247	8.6357	5.3501	8.7112	6.1935	0.7595	8.2748	12.4374	-1.4771	1.8883	1.284	3.7849	1.0281
5.6019	2.631	4.985	7.5069	5.9753	7.2468	9.0092	6.6929	10.6331	8.6525	5.3543	8.6987	6.2187	0.7217	8.2245	12.3325	-1.4141	1.9093	1.368	3.8689	1.0448
5.5599	2.6058	4.9976	7.5531	6.0005	7.2636	9.0721	6.7223	10.6541	8.6903	5.3879	8.7029	6.2649	0.6924	8.1657	12.2402	-1.3763	1.9512	1.4099	3.9192	1.0616
5.5599	2.6226	4.9892	7.5783	6.0215	7.2594	9.1015	6.7768	10.6541	8.707	5.4214	8.6903	6.2733	0.6924	8.0818	12.0975	-1.347	1.9218	1.4519	3.9906	1.1162
5.518	2.6226	4.9683	7.5867	6.0341	7.2468	9.0805	6.7558	10.6247	8.6945	5.4298	8.6567	6.2733	0.684	7.9853	11.9171	-1.3386	1.9135	1.4687	4.0493	1.1036
5.4634	2.6016	4.9767	7.6077	6.076	7.2132	9.1015	6.8188	10.5995	8.7196	5.4089	8.6735	6.3026	0.6798	7.8552	11.7115	-1.3428	1.9218	1.4854	4.0871	1.1497
5.3837	2.5681	4.9263	7.5825	6.0425	7.1461	9.1015	6.7684	10.5408	8.6693	5.4131	8.6021	6.2775	0.6882	7.7126	11.4933	-1.3512	1.8841	1.4771	4.1164	1.1372
5.3459	2.5219	4.9137	7.5405	5.9753	7.0999	9.0302	6.8104	10.5072	8.6567	5.3837	8.5434	6.2984	0.684	7.5699	11.2457	-1.347	1.8421	1.4812	4.129	1.1749
5.2536	2.4632	4.855	7.4986	5.925	7.0454	8.9588	6.7307	10.4317	8.6147	5.3627	8.4805	6.2523	0.6924	7.3895	11.0191	-1.368	1.8253	1.4351	4.1206	1.1456
5.1991	2.3582	4.8382	7.4818	5.883	6.9782	8.9043	6.6887	10.331	8.577	5.3291	8.4427	6.2187	0.6882	7.2132	10.8009	-1.3638	1.7876	1.4267	4.1122	1.1833
5.1025	2.3205	4.7794	7.4398	5.8033	6.9027	8.8245	6.6383	10.2345	8.535	5.2914	8.3588	6.2061	0.6882	7.0705	10.5618	-1.3889	1.7624	1.3763	4.0913	1.2001
5.0144	2.224	4.7291	7.3769	5.7529	6.8146	8.7364	6.5796	10.1421	8.4385	5.241	8.2664	6.1684	0.705	6.9153	10.4149	-1.4099	1.733	1.3386	4.0913	1.2085
4.9515	2.14	4.6452	7.3475	5.6984	6.7223	8.6777	6.5292	10.0708	8.3923	5.2158	8.2371	6.1642	0.7217	6.781	10.2638	-1.4519	1.7036	1.2924	4.0871	1.2379
4.8927	2.1191	4.6242	7.3223	5.6522	6.6887	8.6063	6.4789	10.0163	8.3504	5.2074	8.1783	6.1516	0.7469	6.6971	10.1925	-1.4854	1.7162	1.1875	4.0787	1.2882
4.8592	2.0855	4.5822	7.3181	5.648	6.6174	8.5224	6.4201	9.9281	8.2832	5.1445	8.1196	6.1096	0.7595	6.6383	10.1631	-1.519	1.6827	1.112	4.0535	1.2882
4.8759	2.1023	4.5948	7.3391	5.6271	6.567	8.4846	6.3866	9.84	8.2287	5.1193	8.0357	6.1054	0.7973	6.6383	10.2428	-1.5652	1.7036	1.0323	4.0367	1.2798
4.8927	2.14	4.6326	7.3853	5.6271	6.5712	8.4511	6.3362	9.8106	8.2245	5.0732	7.9937	6.1096	0.8099	6.6467	10.3268	-1.6281	1.7372	0.9819	4.0115	1.2966
4.9347	2.1233	4.6158	7.423	5.5683	6.5334	8.4301	6.2523	9.7645	8.1657	5.0186	7.9098	6.097	0.8476	6.7055	10.4862	-1.6827	1.7162	0.8854	3.978	1.2672
4.9641	2.1526	4.62	7.465	5.5683	6.4831	8.4049	6.2229	9.7267	8.1532	4.9641	7.8636	6.0928	0.877	6.8188	10.6331	-1.7498	1.7414	0.8141	4.0115	1.2043
5.006	2.1862	4.6577	7.5489	5.5389	6.4579	8.3965	6.16	9.6344	8.1112	4.8843	7.8217	6.0844	0.9064	6.8733	10.8387	-1.8169	1.775	0.7259	4.0157	1.1539
