"FZ"	"FC3"	"FCZ"	"FC4"	"C3"	"CZ"	"C4"	"CP3"	"CPZ"	"CP4"	"P3"	"PZ"	"P4"	"OZ"	"FP1"	"FP2"	"A2"	"P8"	"TP7"	"TP8"	"P7"
-0.2098	-0.0294	0.042	-0.2434	0.2811	0.663	-0.1637	0.621	1.1204	0.5455	0.7973	1.133	0.7553	-0.6714	-1.112	-1.07	1.3176	0.4868	-0.0504	-0.7763	0.7259
-0.2476	-0.0755	-0.0126	-0.2895	0.2182	0.5791	-0.2056	0.6042	1.0658	0.4658	0.7469	1.0952	0.7008	-0.6756	-1.1372	-1.0868	1.3008	0.4448	0.0378	-0.8015	0.6378
-0.2895	-0.1049	-0.0629	-0.3399	0.2266	0.5413	-0.214	0.5665	0.9945	0.3944	0.7092	1.0742	0.663	-0.6588	-1.1456	-1.1623	1.2798	0.449	0.0546	-0.8141	0.5623
-0.3189	-0.1637	-0.1091	-0.3651	0.2056	0.5077	-0.2266	0.5287	0.9315	0.3525	0.663	1.0448	0.6168	-0.6546	-1.1833	-1.2547	1.2589	0.4154	0.0587	-0.7805	0.491
-0.3399	-0.172	-0.1133	-0.3609	0.1846	0.4742	-0.193	0.5497	0.898	0.3609	0.6966	1.0281	0.5749	-0.6252	-1.2001	-1.2756	1.2169	0.3986	0.1133	-0.7721	0.4028
-0.3819	-0.1804	-0.1385	-0.3944	0.1637	0.4574	-0.1762	0.4993	0.856	0.3315	0.6546	1.0029	0.5791	-0.6001	-1.2421	-1.368	1.1665	0.3902	0.1259	-0.6966	0.3399
-0.386	-0.2098	-0.1553	-0.3609	0.1469	0.4406	-0.1259	0.5077	0.8308	0.3189	0.6126	0.9945	0.5497	-0.5623	-1.2547	-1.4435	1.0952	0.4112	0.1217	-0.6252	0.2434
-0.3902	-0.2056	-0.1259	-0.3986	0.1637	0.3986	-0.1217	0.5119	0.7847	0.3021	0.6294	0.9567	0.5413	-0.5287	-1.3092	-1.4645	1.0113	0.407	0.1259	-0.5623	0.1888
-0.4406	-0.2392	-0.172	-0.4028	0.1301	0.3399	-0.1385	0.4784	0.7595	0.2895	0.6126	0.9483	0.5119	-0.491	-1.3134	-1.5274	0.9274	0.4574	0.1007	-0.4951	0.1343
-0.4448	-0.2728	-0.193	-0.4112	0.1511	0.3273	-0.0629	0.449	0.7343	0.3063	0.5917	0.9232	0.5539	-0.4448	-1.326	-1.6155	0.8266	0.4826	0.1049	-0.4112	0.1133
-0.4112	-0.256	-0.1553	-0.4028	0.1678	0.3483	-0.0336	0.47	0.7133	0.3357	0.5917	0.8938	0.5581	-0.3777	-1.3008	-1.5903	0.7259	0.5161	0.1049	-0.3231	0.1217
-0.4364	-0.2602	-0.1678	-0.3986	0.1595	0.3357	-0.0126	0.449	0.6756	0.3273	0.6168	0.8896	0.5749	-0.3021	-1.2882	-1.5694	0.5833	0.5413	0.1049	-0.2266	0.1175
-0.428	-0.2434	-0.1343	-0.407	0.1553	0.3147	0.0168	0.4364	0.6504	0.3189	0.6168	0.8644	0.5875	-0.2602	-1.2463	-1.5736	0.4616	0.5539	0.1343	-0.1762	0.1511
-0.4322	-0.2644	-0.1637	-0.4532	0.1804	0.2895	0.021	0.4238	0.6252	0.3063	0.5749	0.8224	0.5917	-0.2014	-1.2001	-1.5232	0.3693	0.5791	0.1343	-0.0881	0.193
-0.428	-0.2644	-0.1637	-0.4574	0.193	0.2644	0.0462	0.4406	0.6001	0.3189	0.5623	0.835	0.5833	-0.1385	-1.1497	-1.5106	0.2434	0.5875	0.1469	0.0042	0.235
-0.4028	-0.2476	-0.172	-0.5077	0.214	0.256	0.0504	0.47	0.5707	0.3399	0.5707	0.8434	0.5833	-0.0755	-1.1078	-1.4267	0.1175	0.5833	0.1595	0.0546	0.2644
-0.4112	-0.2308	-0.1637	-0.5077	0.2266	0.2308	0.0587	0.4448	0.5413	0.3357	0.5539	0.7805	0.5623	-0.021	-1.0448	-1.3763	0.0252	0.5833	0.1385	0.1091	0.3021
-0.4196	-0.214	-0.1553	-0.5287	0.2182	0.1972	0.0252	0.428	0.5119	0.3105	0.5245	0.7679	0.5791	0.0168	-0.9945	-1.3428	-0.0462	0.5791	0.1511	0.1511	0.3567
-0.47	-0.1888	-0.1343	-0.5203	0.2476	0.1888	0.0462	0.428	0.4993	0.2979	0.5161	0.7385	0.5791	0.0629	-0.9525	-1.3344	-0.1595	0.6084	0.1553	0.1972	0.3735
-0.4616	-0.2056	-0.1678	-0.5329	0.2476	0.1804	0.0378	0.4322	0.4448	0.2937	0.4826	0.6924	0.5581	0.1091	-0.9232	-1.3134	-0.235	0.5875	0.1595	0.2769	0.4154
-0.4616	-0.1637	-0.1217	-0.5119	0.2686	0.1259	0.0587	0.4196	0.4028	0.2434	0.4532	0.663	0.5119	0.1217	-0.8686	-1.2756	-0.3021	0.5539	0.1595	0.3021	0.4154
-0.4616	-0.1301	-0.1637	-0.5329	0.2853	0.1049	0.0671	0.3567	0.3609	0.2476	0.386	0.5707	0.5161	0.1637	-0.8392	-1.2672	-0.3651	0.5371	0.1133	0.3231	0.3735
-0.449	-0.1217	-0.1595	-0.4951	0.2644	0.0713	0.0462	0.3189	0.3231	0.2056	0.3315	0.5287	0.449	0.172	-0.8308	-1.2001	-0.3986	0.491	0.0839	0.3399	0.3819
-0.4322	-0.0713	-0.1427	-0.4826	0.2644	0.0713	0.0462	0.2811	0.2769	0.1762	0.2811	0.4742	0.4196	0.193	-0.7553	-1.1497	-0.4238	0.4364	0.0755	0.3483	0.3735
-0.4028	-0.0126	-0.1133	-0.4112	0.2728	0.0462	0.0713	0.2476	0.2476	0.1553	0.214	0.4322	0.3735	0.214	-0.6966	-1.0658	-0.4364	0.4112	0.0294	0.3399	0.3105
-0.3944	0.0168	-0.1301	-0.3567	0.235	0.0168	0.0294	0.1762	0.172	0.1217	0.1678	0.3735	0.3021	0.1846	-0.642	-0.9819	-0.4028	0.3483	-0.0084	0.2937	0.2644
-0.3609	0.0629	-0.0755	-0.3063	0.2644	0.0378	0.0713	0.1427	0.172	0.0923	0.0965	0.3105	0.2686	0.1846	-0.6168	-0.8938	-0.3693	0.2728	-0.042	0.2811	0.214
-0.3189	0.0881	-0.0713	-0.2434	0.2308	-0.0084	0.0504	0.042	0.1091	0.021	-0.0126	0.2308	0.1972	0.1553	-0.5707	-0.7679	-0.3063	0.172	-0.0965	0.2644	0.1007
-0.2895	0.1091	-0.0671	-0.193	0.1804	0	0.0462	-0.021	0.0629	-0.0042	-0.0965	0.1762	0.1301	0.1217	-0.5287	-0.6588	-0.2434	0.1091	-0.1133	0.1972	0.0629
-0.2686	0.1091	-0.021	-0.1427	0.1259	0.0168	0.0378	-0.1133	0.021	-0.0587	-0.1637	0.1301	0.0881	0.0755	-0.5329	-0.5833	-0.1846	0.021	-0.1553	0.1553	0.0084
-0.2182	0.0923	0	-0.1133	0.0881	-0.0294	0.0294	-0.1972	-0.0042	-0.0965	-0.2476	0.0713	0.0546	0.0504	-0.5119	-0.47	-0.1301	-0.0294	-0.1972	0.0965	-0.0629
-0.2182	0.0629	-0.0042	-0.0252	0.0168	-0.0126	0	-0.2895	-0.0378	-0.1175	-0.2853	0.021	-0.0084	0.042	-0.5035	-0.3483	-0.1007	-0.0629	-0.2434	0.0671	-0.1637
-0.1972	0.0252	-0.0126	-0.0378	-0.0629	-0.0546	-0.0168	-0.3944	-0.0797	-0.1553	-0.3944	-0.042	-0.042	0.0168	-0.4951	-0.2266	-0.0546	-0.1217	-0.3315	0.0294	-0.2644
-0.1804	0.0042	0.0252	-0.0042	-0.1511	-0.0713	-0.042	-0.47	-0.0965	-0.1888	-0.4364	-0.0755	-0.0965	-0.0042	-0.5161	-0.1007	-0.0168	-0.1637	-0.3735	0.021	-0.3063
-0.1511	-0.042	0.021	0.0336	-0.1972	-0.0671	-0.0504	-0.5455	-0.1217	-0.2182	-0.5161	-0.1259	-0.1049	-0.0042	-0.4826	0.0084	-0.0252	-0.172	-0.4238	0.0084	-0.3902
-0.1343	-0.0797	0.0042	0.0336	-0.2728	-0.0504	-0.0671	-0.6294	-0.1343	-0.2434	-0.5791	-0.1427	-0.1553	-0.0084	-0.491	0.0965	-0.0126	-0.2266	-0.5245	-0.0252	-0.4406
-0.1553	-0.1049	0	-0.0042	-0.3651	-0.0923	-0.1175	-0.7133	-0.1762	-0.2937	-0.6168	-0.2182	-0.2014	-0.0252	-0.5287	0.1595	0.0126	-0.2308	-0.5959	-0.0629	-0.491
-0.1301	-0.1259	0.0042	0.0168	-0.4028	-0.0713	-0.1427	-0.7343	-0.1804	-0.2979	-0.6252	-0.2182	-0.2434	-0.021	-0.5161	0.2434	-0.0084	-0.2434	-0.6462	-0.0923	-0.4993
-0.0965	-0.1301	0.0042	-0.0084	-0.3986	-0.0923	-0.2056	-0.7805	-0.2308	-0.3105	-0.663	-0.235	-0.2811	-0.021	-0.4951	0.3021	0.0252	-0.2224	-0.7008	-0.1259	-0.5455
-0.1091	-0.1385	0	-0.0504	-0.4574	-0.1007	-0.2602	-0.8183	-0.2602	-0.3525	-0.6882	-0.2979	-0.3483	-0.0336	-0.491	0.3819	0.0504	-0.2728	-0.7385	-0.1846	-0.5371
-0.0755	-0.1175	-0.0084	-0.0839	-0.407	-0.0839	-0.256	-0.7847	-0.2644	-0.3609	-0.6546	-0.3147	-0.3735	-0.0587	-0.4993	0.449	0.0755	-0.2769	-0.7595	-0.2434	-0.4658
-0.1049	-0.1343	-0.0294	-0.1385	-0.4364	-0.1091	-0.3651	-0.7847	-0.3105	-0.407	-0.6378	-0.3651	-0.4322	-0.0839	-0.449	0.4784	0.1175	-0.2979	-0.835	-0.3189	-0.4322
-0.1217	-0.1343	-0.042	-0.1553	-0.4616	-0.1091	-0.3902	-0.7889	-0.3441	-0.4238	-0.6168	-0.3819	-0.4658	-0.0797	-0.3944	0.5287	0.1385	-0.3609	-0.8602	-0.3525	-0.3483
-0.1301	-0.1049	-0.0755	-0.2308	-0.4322	-0.1385	-0.4406	-0.7679	-0.3693	-0.449	-0.5791	-0.3902	-0.5035	-0.0923	-0.3525	0.5791	0.1427	-0.3944	-0.877	-0.4238	-0.2308
-0.1469	-0.1259	-0.0839	-0.2518	-0.4448	-0.1469	-0.5035	-0.7511	-0.4112	-0.4784	-0.5707	-0.4238	-0.5497	-0.1049	-0.3105	0.5665	0.1762	-0.4196	-0.8728	-0.4658	-0.1804
-0.193	-0.1846	-0.1133	-0.3525	-0.4574	-0.193	-0.5413	-0.7469	-0.449	-0.5161	-0.5203	-0.4448	-0.5875	-0.1133	-0.2728	0.5413	0.193	-0.4616	-0.8728	-0.5035	-0.1175
-0.2182	-0.1637	-0.172	-0.3986	-0.4574	-0.2224	-0.6126	-0.6924	-0.4658	-0.5287	-0.5077	-0.4951	-0.6336	-0.1259	-0.2098	0.5287	0.2056	-0.4784	-0.8266	-0.5287	-0.0504
-0.2602	-0.1888	-0.2098	-0.4406	-0.428	-0.2434	-0.6462	-0.6882	-0.5245	-0.5623	-0.47	-0.5287	-0.6714	-0.1427	-0.1427	0.5077	0.2224	-0.5077	-0.8266	-0.5413	0.0294
-0.3147	-0.2182	-0.2602	-0.4951	-0.4364	-0.3189	-0.6588	-0.6588	-0.5581	-0.5875	-0.4616	-0.5539	-0.663	-0.1427	-0.0713	0.4742	0.256	-0.5413	-0.7763	-0.5623	0.0252
-0.3441	-0.2518	-0.3231	-0.5245	-0.4574	-0.3357	-0.6672	-0.663	-0.6168	-0.5959	-0.4406	-0.5875	-0.6966	-0.172	-0.0336	0.4238	0.2853	-0.5749	-0.7385	-0.5539	0.0504
-0.3609	-0.2811	-0.3651	-0.5203	-0.4364	-0.3693	-0.6798	-0.6168	-0.6714	-0.5833	-0.4406	-0.642	-0.7385	-0.1888	0.0252	0.3693	0.3231	-0.5917	-0.6672	-0.5497	0.0629
-0.4322	-0.3357	-0.4154	-0.5371	-0.4364	-0.4364	-0.684	-0.5707	-0.6882	-0.6168	-0.4574	-0.663	-0.6966	-0.1972	0.0755	0.2979	0.3777	-0.5791	-0.5833	-0.5119	0.0587
-0.4742	-0.3693	-0.4574	-0.5581	-0.449	-0.4868	-0.6798	-0.5665	-0.7385	-0.6084	-0.4364	-0.7133	-0.7133	-0.2266	0.0881	0.1846	0.4364	-0.6084	-0.5203	-0.5119	0.0797
-0.4784	-0.3525	-0.47	-0.5161	-0.4196	-0.4868	-0.6294	-0.5329	-0.7427	-0.5791	-0.407	-0.7008	-0.6714	-0.2476	0.1553	0.1049	0.4658	-0.5749	-0.4448	-0.47	0.0839
-0.5371	-0.386	-0.5077	-0.491	-0.407	-0.4993	-0.6042	-0.4993	-0.7595	-0.5749	-0.4196	-0.705	-0.6714	-0.2769	0.1217	0.0042	0.5035	-0.5749	-0.3651	-0.4742	0.0797
-0.5413	-0.3693	-0.5119	-0.4532	-0.3819	-0.5245	-0.5623	-0.4658	-0.7763	-0.5329	-0.3693	-0.6924	-0.6336	-0.2686	0.1762	-0.1049	0.5035	-0.5329	-0.2644	-0.4154	0.1133
-0.5245	-0.4112	-0.491	-0.4238	-0.3986	-0.4951	-0.4951	-0.4112	-0.7343	-0.4868	-0.3609	-0.7008	-0.6001	-0.2769	0.1343	-0.2224	0.5119	-0.4448	-0.1888	-0.3735	0.0629
-0.5119	-0.4028	-0.4826	-0.3525	-0.3735	-0.5287	-0.4616	-0.3609	-0.7301	-0.4658	-0.3315	-0.7092	-0.5665	-0.2853	0.1217	-0.3483	0.5245	-0.4406	-0.1175	-0.3525	0.0839
-0.5203	-0.3819	-0.4826	-0.3105	-0.3357	-0.4951	-0.4112	-0.3441	-0.6882	-0.407	-0.3105	-0.6504	-0.5161	-0.2728	0.0797	-0.4951	0.5119	-0.386	-0.021	-0.3105	0.0965
-0.491	-0.3902	-0.4826	-0.2602	-0.3231	-0.47	-0.3777	-0.3063	-0.6546	-0.3777	-0.2937	-0.6588	-0.4616	-0.2811	-0.0084	-0.6294	0.5161	-0.3609	0.0168	-0.3063	0.1217
-0.5035	-0.386	-0.47	-0.1972	-0.3105	-0.4574	-0.3399	-0.2728	-0.6168	-0.3357	-0.2686	-0.6168	-0.4322	-0.2644	-0.0252	-0.7931	0.491	-0.3189	0.0546	-0.2979	0.1343
-0.449	-0.3735	-0.4322	-0.1637	-0.2602	-0.4364	-0.2937	-0.2392	-0.5875	-0.2937	-0.2476	-0.6126	-0.3902	-0.2434	-0.1469	-0.9567	0.4448	-0.2853	0.1301	-0.2853	0.1595
-0.4322	-0.3483	-0.3944	-0.0797	-0.2392	-0.4028	-0.2476	-0.193	-0.5539	-0.256	-0.2182	-0.5959	-0.3357	-0.2224	-0.235	-1.0826	0.4028	-0.2644	0.1553	-0.2895	0.1553
-0.4154	-0.3651	-0.3902	-0.0504	-0.2518	-0.4112	-0.2308	-0.172	-0.5203	-0.2224	-0.2014	-0.5959	-0.3189	-0.214	-0.3231	-1.2211	0.3651	-0.2266	0.1637	-0.2853	0.1637
-0.3902	-0.3231	-0.3819	0.021	-0.2476	-0.3567	-0.1846	-0.1469	-0.5077	-0.214	-0.1804	-0.5791	-0.2853	-0.1553	-0.4154	-1.3386	0.2728	-0.1846	0.193	-0.2392	0.1343
-0.4112	-0.3399	-0.3609	0.0713	-0.2518	-0.3567	-0.1553	-0.1678	-0.491	-0.1888	-0.1846	-0.5413	-0.2476	-0.1175	-0.4868	-1.4057	0.193	-0.1595	0.1678	-0.1972	0.0881
-0.3944	-0.3357	-0.3483	0.1133	-0.2937	-0.3693	-0.1217	-0.1553	-0.4868	-0.1553	-0.1678	-0.5455	-0.2392	-0.0713	-0.5455	-1.4938	0.1049	-0.1553	0.1804	-0.172	0.0504
-0.3777	-0.3315	-0.3231	0.1553	-0.2602	-0.3399	-0.0671	-0.1385	-0.491	-0.1469	-0.1888	-0.5749	-0.214	-0.0084	-0.6084	-1.5022	-0.0252	-0.1217	0.1678	-0.1175	0.0084
-0.3357	-0.3399	-0.3273	0.2098	-0.2937	-0.3483	-0.0252	-0.1427	-0.4784	-0.0923	-0.2014	-0.5497	-0.1804	0.0462	-0.6462	-1.5022	-0.1469	-0.0629	0.1804	-0.042	-0.042
-0.3273	-0.3399	-0.3231	0.2602	-0.3273	-0.3231	0.0336	-0.1678	-0.47	-0.0546	-0.2224	-0.5497	-0.1553	0.1259	-0.6252	-1.4309	-0.3063	-0.0042	0.1469	0.021	-0.1133
-0.3021	-0.3525	-0.2769	0.2937	-0.3357	-0.3189	0.0629	-0.172	-0.4658	-0.021	-0.2182	-0.5497	-0.1385	0.2182	-0.6126	-1.305	-0.47	0.0336	0.1007	0.1049	-0.1637
-0.2853	-0.3525	-0.2811	0.3315	-0.3819	-0.3105	0.0881	-0.1804	-0.4574	-0.0084	-0.2602	-0.5707	-0.1007	0.2979	-0.5035	-1.1707	-0.6252	0.0881	0.1133	0.1888	-0.2308
-0.2476	-0.3735	-0.2728	0.3483	-0.4238	-0.3021	0.1427	-0.2224	-0.4868	-0.0126	-0.2769	-0.5833	-0.1091	0.3777	-0.3944	-0.9441	-0.7805	0.1133	0.0546	0.2518	-0.2853
-0.1972	-0.3357	-0.235	0.3693	-0.4154	-0.3231	0.1637	-0.193	-0.4868	0.0336	-0.2728	-0.5749	-0.0923	0.4322	-0.214	-0.6924	-0.9232	0.1301	0.0713	0.3189	-0.3357
-0.1217	-0.3021	-0.2266	0.3651	-0.4196	-0.3231	0.1637	-0.2014	-0.491	0.0168	-0.2769	-0.6042	-0.0881	0.4951	-0.042	-0.407	-1.0365	0.1343	0.0294	0.3777	-0.3819
-0.0797	-0.2937	-0.2182	0.3777	-0.4112	-0.3147	0.1762	-0.2098	-0.4574	0.0168	-0.3231	-0.5791	-0.1217	0.5371	0.172	-0.1301	-1.091	0.1175	0.0126	0.386	-0.4238
-0.0294	-0.2518	-0.1804	0.4028	-0.407	-0.2895	0.1553	-0.1972	-0.4742	-0.0084	-0.3105	-0.6001	-0.1049	0.5455	0.3441	0.1762	-1.1288	0.1217	0.021	0.4154	-0.4364
0.0336	-0.2434	-0.1595	0.3986	-0.3651	-0.2853	0.1678	-0.193	-0.4532	-0.0084	-0.3147	-0.5455	-0.0881	0.5581	0.5749	0.4868	-1.133	0.1049	0.0252	0.4154	-0.4532
0.1049	-0.1637	-0.0797	0.4196	-0.3315	-0.2434	0.1972	-0.1511	-0.407	-0.0042	-0.2476	-0.5203	-0.1007	0.5539	0.7637	0.7763	-1.133	0.0797	0.0839	0.4322	-0.4406
0.214	-0.0713	-0.0546	0.4196	-0.2686	-0.214	0.1595	-0.0965	-0.3777	-0.0168	-0.2434	-0.4951	-0.0713	0.5287	0.9777	1.07	-1.0952	0.0629	0.1259	0.4448	-0.4112
0.3063	0.0252	0.0252	0.4322	-0.1804	-0.1553	0.2014	-0.0294	-0.3147	0.021	-0.1888	-0.428	-0.0797	0.5161	1.1833	1.3302	-1.0406	0.0504	0.214	0.4238	-0.3944
0.4196	0.0965	0.0797	0.4658	-0.1049	-0.1259	0.193	0.0462	-0.2434	0.021	-0.1385	-0.3735	-0.0713	0.47	1.3847	1.5987	-0.9735	0.0336	0.2686	0.407	-0.386
0.5581	0.2182	0.2014	0.4742	-0.0294	-0.0462	0.214	0.1217	-0.193	0.0462	-0.0755	-0.2853	-0.0504	0.4364	1.5736	1.8547	-0.8896	-0.0126	0.3483	0.4196	-0.3273
0.6504	0.3357	0.3063	0.5077	0.0671	-0.0126	0.2434	0.193	-0.1259	0.0713	-0.0336	-0.2811	-0.0336	0.3777	1.6953	2.0729	-0.7889	-0.0168	0.4112	0.386	-0.3063
0.7931	0.4868	0.3819	0.5287	0.1678	0.0713	0.2686	0.2811	-0.0504	0.0923	0.021	-0.2224	-0.021	0.3399	1.8841	2.2617	-0.7092	-0.0587	0.491	0.386	-0.2895
0.898	0.5917	0.4784	0.5749	0.2518	0.1133	0.2937	0.3231	0.0042	0.0839	0.0587	-0.1427	-0.021	0.2811	2.0016	2.4548	-0.5749	-0.0881	0.5287	0.3483	-0.2518
1.0071	0.7092	0.5959	0.6126	0.3399	0.2056	0.3315	0.4238	0.0881	0.1259	0.1301	-0.0881	0.0042	0.2308	2.1317	2.589	-0.4993	-0.0839	0.6252	0.386	-0.2098
1.1078	0.8057	0.6546	0.6294	0.4028	0.2518	0.3777	0.4784	0.1511	0.1469	0.1385	-0.0713	0	0.1804	2.1862	2.6939	-0.3986	-0.1301	0.6294	0.3693	-0.214
1.2379	0.9525	0.7679	0.7008	0.4993	0.3357	0.449	0.5161	0.2056	0.214	0.1972	0.0168	0.0378	0.1469	2.3121	2.8114	-0.3315	-0.1259	0.642	0.4028	-0.172
1.3386	1.0365	0.8392	0.7679	0.5707	0.3651	0.4826	0.5875	0.3063	0.2602	0.235	0.0713	0.0546	0.1175	2.3582	2.8702	-0.2853	-0.1343	0.6462	0.4406	-0.1427
1.4351	1.1162	0.9357	0.8099	0.6294	0.4406	0.5749	0.6504	0.3609	0.3105	0.2728	0.1385	0.0881	0.1007	2.3918	2.8828	-0.256	-0.1343	0.663	0.4826	-0.0881
1.4896	1.1456	0.9861	0.8602	0.6546	0.4951	0.6756	0.663	0.4406	0.3399	0.3147	0.2056	0.1175	0.0839	2.3834	2.8744	-0.2266	-0.1259	0.6714	0.5455	-0.0462
1.5148	1.2127	1.049	0.9274	0.705	0.5371	0.7679	0.705	0.5035	0.4028	0.3567	0.2392	0.1595	0.0755	2.375	2.8156	-0.2014	-0.1049	0.6546	0.5875	-0.0042
1.54	1.1917	1.0952	0.9525	0.7385	0.5665	0.835	0.6966	0.5581	0.4406	0.407	0.3273	0.2014	0.0797	2.2911	2.7443	-0.1762	-0.0923	0.6504	0.6504	0.0504
1.5568	1.1833	1.0868	0.9735	0.7301	0.5749	0.856	0.7175	0.5791	0.4826	0.4448	0.3483	0.2182	0.0546	2.1988	2.6016	-0.1637	-0.1049	0.6378	0.6966	0.0923
1.5232	1.1749	1.0742	0.9861	0.7763	0.6084	0.9148	0.684	0.5959	0.5077	0.4238	0.3651	0.2182	0.0504	2.1107	2.4086	-0.1343	-0.0797	0.6294	0.7133	0.1091
1.4771	1.1372	1.0658	1.0155	0.7553	0.6001	0.9483	0.6714	0.6168	0.5455	0.4658	0.3944	0.256	0.0546	1.9722	2.2072	-0.1343	-0.0671	0.5707	0.7427	0.1175
1.4351	1.0994	1.0448	1.0071	0.7679	0.5917	0.9987	0.6924	0.6378	0.5623	0.4784	0.4196	0.2979	0.0587	1.8799	2.0058	-0.1553	-0.0629	0.5707	0.7637	0.1678
1.3805	1.0448	0.9819	0.9861	0.7511	0.5581	1.0071	0.6126	0.6294	0.5875	0.4868	0.4196	0.3021	0.0671	1.7162	1.7708	-0.1678	-0.042	0.5329	0.7973	0.1469
1.3092	1.0113	0.9357	1.0071	0.7343	0.5455	1.0239	0.5959	0.6294	0.5959	0.4574	0.449	0.2979	0.0755	1.5652	1.5232	-0.1846	-0.0252	0.5035	0.8266	0.1678
1.2379	0.9357	0.856	1.0029	0.7217	0.4993	1.049	0.5665	0.6001	0.5833	0.4574	0.4154	0.2686	0.0881	1.4141	1.284	-0.2014	-0.0336	0.47	0.8476	0.1469
1.1036	0.8602	0.7679	0.9567	0.6966	0.4238	1.0239	0.5119	0.5581	0.5791	0.428	0.386	0.2728	0.0587	1.2463	1.0239	-0.1846	-0.1049	0.4322	0.7805	0.1553
0.9735	0.7637	0.6756	0.9064	0.6462	0.3651	0.9861	0.4826	0.5077	0.5287	0.4028	0.3441	0.2266	0.0797	1.0868	0.7721	-0.1804	-0.1091	0.3777	0.7553	0.1343
0.8644	0.7092	0.5455	0.856	0.6001	0.2937	0.9274	0.4364	0.4658	0.4868	0.3525	0.2686	0.2476	0.0587	1.0071	0.5875	-0.1469	-0.1217	0.2811	0.7175	0.1175
0.7553	0.6588	0.449	0.7931	0.5539	0.2392	0.8812	0.3735	0.4154	0.407	0.3189	0.2392	0.2056	0.0294	0.877	0.4154	-0.0923	-0.1678	0.2728	0.642	0.1091
0.6252	0.5203	0.3483	0.6966	0.5203	0.1511	0.7805	0.3021	0.3609	0.3902	0.3021	0.2014	0.1511	0.0084	0.7721	0.2686	-0.0378	-0.1888	0.2098	0.5707	0.1091
0.5329	0.491	0.2224	0.6001	0.5161	0.0629	0.7133	0.2895	0.3021	0.3273	0.2937	0.1637	0.1385	-0.0294	0.6924	0.1343	0.0168	-0.2098	0.2224	0.5245	0.1133
0.4448	0.4154	0.1049	0.5245	0.4826	-0.0084	0.6252	0.2644	0.256	0.2895	0.2644	0.1049	0.0923	-0.0546	0.621	0.0336	0.0839	-0.256	0.2644	0.4322	0.1217
0.3315	0.386	0	0.4448	0.4616	-0.0587	0.5119	0.2476	0.193	0.2434	0.2518	0.0546	0.042	-0.0797	0.5833	0.0042	0.1343	-0.2769	0.2644	0.3693	0.1175
0.256	0.3273	-0.0923	0.3735	0.4784	-0.1469	0.4448	0.256	0.1385	0.193	0.2686	0.0168	0.0294	-0.1049	0.5287	-0.0504	0.1637	-0.2895	0.3063	0.3063	0.1553
0.1678	0.2853	-0.1469	0.2644	0.47	-0.1804	0.3651	0.3021	0.1133	0.1553	0.2728	0.0168	0.0546	-0.1091	0.5161	-0.0629	0.193	-0.2895	0.3189	0.2686	0.193
0.0839	0.2392	-0.2014	0.1972	0.449	-0.2476	0.3063	0.2853	0.0881	0.1385	0.3147	-0.0168	0.0252	-0.1301	0.4868	-0.1301	0.2056	-0.2979	0.3567	0.2014	0.2392
0.0168	0.2224	-0.2895	0.0923	0.4574	-0.2979	0.2224	0.2434	0.0294	0.0797	0.2979	-0.042	0.021	-0.1259	0.428	-0.1301	0.2266	-0.2937	0.3777	0.1804	0.2392
-0.0168	0.2308	-0.3021	0	0.491	-0.2937	0.1595	0.3147	0.0294	0.0839	0.3651	-0.0294	0.0294	-0.1301	0.4028	-0.1888	0.2014	-0.2811	0.4322	0.1511	0.3231
-0.0629	0.2056	-0.3189	-0.0629	0.4868	-0.3231	0.1301	0.3399	0.0252	0.0713	0.407	-0.021	0.0629	-0.1259	0.3357	-0.2266	0.1972	-0.2853	0.4826	0.1175	0.3819
-0.0839	0.2224	-0.3399	-0.0839	0.5077	-0.3273	0.1091	0.3902	0.021	0.0965	0.4616	0.0042	0.0755	-0.1049	0.2853	-0.2811	0.1804	-0.2518	0.5413	0.1175	0.4238
-0.1343	0.1762	-0.3651	-0.1637	0.4951	-0.3441	0.0797	0.407	0.0042	0.0839	0.4826	-0.0084	0.1049	-0.1091	0.2266	-0.3441	0.1972	-0.235	0.5749	0.1007	0.4616
-0.1553	0.172	-0.3609	-0.2392	0.5371	-0.3189	0.0546	0.4406	0.0126	0.1049	0.5497	0.0168	0.1385	-0.1133	0.1972	-0.4112	0.1888	-0.1762	0.6462	0.0839	0.5161
-0.1637	0.1343	-0.3944	-0.2518	0.5413	-0.3399	0.0294	0.449	0.0084	0.1175	0.5665	0.0042	0.1175	-0.1091	0.1133	-0.4616	0.1972	-0.1678	0.663	0.0294	0.5413
-0.172	0.0923	-0.3777	-0.3105	0.4951	-0.3315	0	0.4532	0.0126	0.1091	0.6084	0.0462	0.1469	-0.1007	0.0629	-0.4574	0.1888	-0.1469	0.6966	0.0336	0.5917
-0.1595	0.0797	-0.3567	-0.3483	0.4951	-0.3357	-0.0252	0.4406	-0.0042	0.1007	0.6042	0.0252	0.1469	-0.1049	0.0629	-0.4574	0.1762	-0.1385	0.6714	0	0.6336
-0.1678	0.0294	-0.3735	-0.4112	0.4238	-0.3651	-0.0504	0.428	-0.0294	0.0587	0.6084	0.0042	0.1301	-0.1091	0.0504	-0.449	0.172	-0.1553	0.6504	-0.0462	0.6252
-0.1385	0.021	-0.3609	-0.4028	0.4112	-0.3567	-0.0504	0.386	-0.021	0.0294	0.5917	-0.0042	0.1217	-0.1007	0.042	-0.4238	0.1595	-0.1301	0.6504	-0.0504	0.6672
-0.1301	-0.0504	-0.3819	-0.4406	0.3651	-0.3735	-0.0755	0.3651	-0.0587	0.0168	0.5539	-0.021	0.0671	-0.0797	0.0839	-0.3399	0.1427	-0.1259	0.6294	-0.0462	0.6336
-0.1217	-0.1259	-0.3441	-0.4196	0.3273	-0.3944	-0.1217	0.3105	-0.1259	-0.0252	0.5287	-0.0881	0.0042	-0.0839	0.1343	-0.2644	0.1301	-0.1553	0.5707	-0.0671	0.6252
-0.0797	-0.1637	-0.3651	-0.4658	0.2392	-0.407	-0.1091	0.2308	-0.1678	-0.0923	0.4658	-0.1427	-0.042	-0.0713	0.1595	-0.1804	0.1259	-0.193	0.5665	-0.1007	0.5749
-0.0587	-0.214	-0.386	-0.4448	0.1637	-0.449	-0.1469	0.1595	-0.1846	-0.1217	0.4028	-0.193	-0.0965	-0.0671	0.193	-0.1049	0.0965	-0.2056	0.5287	-0.1343	0.5161
-0.0336	-0.2979	-0.3735	-0.4322	0.0881	-0.4532	-0.1553	0.0881	-0.256	-0.1972	0.3147	-0.2644	-0.1637	-0.0629	0.1846	-0.0923	0.1049	-0.2434	0.4742	-0.1553	0.4406
0.0168	-0.3651	-0.3735	-0.4322	-0.0042	-0.4951	-0.1762	0	-0.2937	-0.2686	0.2308	-0.3441	-0.2434	-0.0546	0.2098	-0.0378	0.0587	-0.3063	0.4028	-0.1637	0.3609
0.0378	-0.407	-0.3609	-0.3819	-0.0965	-0.4826	-0.1511	-0.1091	-0.3231	-0.3273	0.1385	-0.407	-0.3105	-0.0378	0.2182	-0.0042	0.0084	-0.3315	0.3735	-0.1888	0.2728
0.0504	-0.4574	-0.3567	-0.3441	-0.1637	-0.5245	-0.1678	-0.1804	-0.3483	-0.3441	0.0713	-0.4658	-0.3819	-0.0126	0.2182	0.021	-0.021	-0.386	0.3273	-0.1553	0.1846
0.1007	-0.47	-0.3105	-0.3357	-0.2182	-0.5245	-0.1343	-0.235	-0.3777	-0.407	-0.0084	-0.4868	-0.449	0.021	0.2308	0.0629	-0.0923	-0.3819	0.2686	-0.1427	0.0797
0.1678	-0.4826	-0.2769	-0.2602	-0.2434	-0.491	-0.1259	-0.2937	-0.3819	-0.4406	-0.0587	-0.5329	-0.5077	0.0504	0.2518	0.1175	-0.1762	-0.4196	0.2224	-0.1469	0
0.172	-0.4993	-0.2392	-0.2476	-0.256	-0.4993	-0.1301	-0.3273	-0.4112	-0.449	-0.1049	-0.5707	-0.5413	0.0965	0.214	0.0923	-0.2266	-0.449	0.1511	-0.1259	-0.0755
0.2434	-0.4742	-0.2182	-0.2308	-0.2937	-0.428	-0.1175	-0.3609	-0.4112	-0.5203	-0.1678	-0.5833	-0.5833	0.1301	0.2392	0.1301	-0.2853	-0.4742	0.1091	-0.1343	-0.1175
0.2644	-0.4742	-0.1678	-0.235	-0.3021	-0.4406	-0.1469	-0.3819	-0.4112	-0.5245	-0.2014	-0.6168	-0.6378	0.1511	0.2266	0.1678	-0.3273	-0.4993	0.0755	-0.1427	-0.1846
0.3189	-0.4364	-0.1133	-0.2224	-0.2518	-0.3902	-0.1385	-0.3777	-0.3735	-0.5413	-0.214	-0.5917	-0.6294	0.1762	0.2895	0.1972	-0.3944	-0.4784	0.0629	-0.1217	-0.1762
0.3651	-0.428	-0.0629	-0.2308	-0.2518	-0.3609	-0.1259	-0.3651	-0.3315	-0.5497	-0.2014	-0.5875	-0.6714	0.2014	0.3063	0.2518	-0.449	-0.4616	0.042	-0.0965	-0.172
0.3693	-0.3525	0.0084	-0.2644	-0.1972	-0.2769	-0.1175	-0.3441	-0.3021	-0.5581	-0.214	-0.5833	-0.684	0.2224	0.3357	0.2518	-0.4658	-0.4826	0.021	-0.0923	-0.1595
0.3944	-0.3231	0.0671	-0.2811	-0.1678	-0.2308	-0.1469	-0.3147	-0.2769	-0.5623	-0.1762	-0.5665	-0.6966	0.2266	0.3189	0.2266	-0.4951	-0.4658	0.0294	-0.1007	-0.1301
0.4364	-0.2728	0.1385	-0.2811	-0.1343	-0.1469	-0.1133	-0.2602	-0.214	-0.5371	-0.1301	-0.5287	-0.6714	0.2308	0.3189	0.2266	-0.5077	-0.47	-0.0084	-0.0881	-0.0923
0.4742	-0.2266	0.214	-0.2644	-0.0881	-0.0881	-0.1175	-0.235	-0.1595	-0.5245	-0.0965	-0.491	-0.6546	0.2392	0.3441	0.2434	-0.5161	-0.428	0	-0.0797	-0.0546
0.4951	-0.172	0.2686	-0.2769	-0.0755	-0.0546	-0.1343	-0.235	-0.1175	-0.5371	-0.0839	-0.47	-0.6798	0.2224	0.3525	0.1972	-0.4951	-0.428	-0.0084	-0.0839	-0.0378
0.5749	-0.1175	0.3609	-0.214	-0.0168	0.021	-0.1133	-0.1678	-0.0546	-0.5119	-0.0378	-0.4196	-0.6504	0.2224	0.3357	0.2224	-0.4826	-0.4196	-0.0168	-0.0713	0.0336
0.6084	-0.0671	0.428	-0.1637	-0.0252	0.0462	-0.1133	-0.172	0	-0.4993	0.0084	-0.3735	-0.6378	0.214	0.3483	0.2602	-0.4532	-0.4196	-0.0252	-0.0713	0.0546
0.6756	-0.0168	0.5077	-0.1553	0.0084	0.1301	-0.1091	-0.1259	0.0252	-0.5161	0.0546	-0.3441	-0.6336	0.1888	0.3651	0.2686	-0.4112	-0.3944	-0.0378	-0.0839	0.0881
0.6882	0.0084	0.5455	-0.0965	0.0336	0.1804	-0.1175	-0.1175	0.0797	-0.5035	0.0923	-0.3189	-0.6084	0.1595	0.3735	0.3189	-0.3567	-0.4154	-0.0378	-0.1049	0.1049
0.7469	0.0797	0.6336	-0.042	0.0546	0.214	-0.0797	-0.0797	0.1049	-0.5161	0.1385	-0.2686	-0.6126	0.1427	0.3902	0.3735	-0.3189	-0.3944	-0.0252	-0.1427	0.1427
0.7805	0.1259	0.6672	0.0168	0.0755	0.235	-0.1217	-0.0629	0.1469	-0.5623	0.1637	-0.2308	-0.6294	0.1049	0.4238	0.4406	-0.2602	-0.4196	-0.0504	-0.193	0.1427
0.8057	0.1343	0.7217	0.0629	0.0839	0.2728	-0.1217	-0.0797	0.1385	-0.5791	0.1762	-0.2098	-0.621	0.0923	0.4238	0.4951	-0.2224	-0.4196	-0.0629	-0.214	0.172
0.8266	0.1637	0.7637	0.0923	0.0671	0.2811	-0.1301	-0.0629	0.1553	-0.5707	0.2098	-0.2266	-0.6084	0.0839	0.4154	0.5371	-0.2056	-0.3986	-0.0797	-0.2224	0.172
0.7805	0.1595	0.7259	0.0965	0.0252	0.2644	-0.1427	-0.1049	0.1301	-0.6252	0.2056	-0.2224	-0.621	0.0671	0.3525	0.5455	-0.1804	-0.4238	-0.1385	-0.2518	0.1469
0.7427	0.0881	0.6798	0.0504	-0.0546	0.2224	-0.1972	-0.1595	0.0713	-0.6672	0.172	-0.256	-0.6252	0.0671	0.2937	0.5203	-0.1846	-0.407	-0.193	-0.2853	0.1343
0.6756	0.0546	0.6252	0.042	-0.1091	0.1553	-0.2434	-0.2224	0.0252	-0.7133	0.1343	-0.2811	-0.6504	0.0755	0.1972	0.4322	-0.1888	-0.4364	-0.2518	-0.3063	0.0462
0.5875	-0.0084	0.5791	0.0168	-0.2182	0.0839	-0.2979	-0.2602	-0.0378	-0.7427	0.0839	-0.3021	-0.6798	0.0923	0.0713	0.3441	-0.2266	-0.4322	-0.2895	-0.3105	-0.0042
0.491	-0.1217	0.4826	-0.0923	-0.3399	0.0084	-0.3609	-0.3777	-0.1091	-0.8183	0.0126	-0.3693	-0.7092	0.1007	-0.0378	0.2182	-0.2392	-0.4322	-0.3189	-0.3315	-0.0839
0.4196	-0.1637	0.428	-0.1511	-0.407	-0.0671	-0.3819	-0.4658	-0.1846	-0.9022	-0.0546	-0.407	-0.7679	0.1007	-0.1511	0.1427	-0.2769	-0.449	-0.3693	-0.3315	-0.2392
0.3525	-0.2644	0.3357	-0.2098	-0.5581	-0.1469	-0.4028	-0.5287	-0.256	-0.9232	-0.1175	-0.47	-0.7805	0.1553	-0.2224	0.0294	-0.3105	-0.4154	-0.4112	-0.3147	-0.3357
0.2811	-0.3231	0.2853	-0.2937	-0.6042	-0.193	-0.4574	-0.5791	-0.3105	-0.9483	-0.1972	-0.4993	-0.8015	0.1343	-0.2811	-0.042	-0.3273	-0.4238	-0.4574	-0.3483	-0.4364
0.1972	-0.3819	0.2392	-0.3483	-0.6798	-0.2392	-0.5035	-0.6252	-0.3777	-0.9777	-0.2308	-0.5161	-0.8183	0.1678	-0.2895	-0.1175	-0.3693	-0.4238	-0.47	-0.3399	-0.5413
0.1637	-0.4406	0.1846	-0.407	-0.7679	-0.3231	-0.5329	-0.7092	-0.449	-1.0155	-0.3105	-0.5917	-0.8518	0.172	-0.3693	-0.1595	-0.3819	-0.449	-0.4868	-0.3357	-0.642
0.1427	-0.4658	0.1427	-0.4364	-0.8057	-0.3441	-0.5245	-0.7217	-0.4951	-1.0532	-0.3399	-0.6042	-0.8644	0.1888	-0.3357	-0.193	-0.4238	-0.4406	-0.4951	-0.3273	-0.6924
0.1133	-0.4658	0.1637	-0.4658	-0.835	-0.386	-0.4951	-0.7511	-0.5077	-1.0406	-0.3567	-0.6294	-0.8644	0.214	-0.3399	-0.1846	-0.4658	-0.428	-0.5329	-0.2937	-0.7595
0.1259	-0.4364	0.2014	-0.4238	-0.8266	-0.3357	-0.47	-0.7763	-0.5035	-1.0071	-0.3819	-0.6042	-0.8392	0.2392	-0.256	-0.1469	-0.5203	-0.4028	-0.5245	-0.2895	-0.7847
0.1972	-0.4364	0.2224	-0.4238	-0.8141	-0.3063	-0.449	-0.7511	-0.4951	-0.9819	-0.3651	-0.5707	-0.8099	0.2602	-0.2392	-0.1553	-0.5623	-0.3819	-0.5329	-0.2182	-0.7931
0.2392	-0.3735	0.2937	-0.3525	-0.7763	-0.2811	-0.386	-0.7553	-0.4784	-0.9064	-0.3483	-0.5161	-0.7763	0.2853	-0.1427	-0.0965	-0.6084	-0.3315	-0.5623	-0.1762	-0.7847
0.2937	-0.3231	0.3735	-0.3189	-0.7595	-0.2224	-0.3315	-0.7301	-0.4658	-0.8686	-0.3063	-0.4951	-0.7469	0.2979	-0.1049	-0.0587	-0.6672	-0.3021	-0.5497	-0.1427	-0.7553
0.3651	-0.2686	0.4532	-0.2308	-0.7133	-0.172	-0.256	-0.6966	-0.407	-0.7721	-0.3105	-0.4532	-0.6546	0.3525	-0.0252	0.0126	-0.7217	-0.2686	-0.5791	-0.0378	-0.7469
0.449	-0.2392	0.5497	-0.172	-0.663	-0.1049	-0.1637	-0.684	-0.3567	-0.7217	-0.2895	-0.449	-0.6168	0.3693	-0.0336	0.0042	-0.7679	-0.1762	-0.5707	0.0084	-0.7511
0.5287	-0.193	0.5875	-0.1091	-0.6294	-0.0755	-0.1259	-0.684	-0.3315	-0.663	-0.2853	-0.4112	-0.5623	0.3944	0	-0.0294	-0.8015	-0.1427	-0.6042	0.0629	-0.7259
0.5749	-0.1469	0.6756	-0.0336	-0.5791	-0.0042	-0.042	-0.663	-0.3231	-0.6001	-0.2602	-0.3986	-0.5119	0.407	0.0378	-0.0546	-0.8434	-0.0629	-0.6168	0.1343	-0.7343
0.6294	-0.1007	0.7385	0.0252	-0.5329	0.021	0.042	-0.6798	-0.2769	-0.5329	-0.2853	-0.3651	-0.428	0.4196	0.021	-0.0881	-0.8728	-0.021	-0.6798	0.2056	-0.7385
0.6966	-0.0462	0.8183	0.0965	-0.5035	0.0755	0.1133	-0.6462	-0.2644	-0.4532	-0.2769	-0.3693	-0.386	0.4406	-0.0168	-0.1804	-0.919	0.0462	-0.6966	0.2686	-0.7427
0.7595	0	0.8644	0.1637	-0.4868	0.0965	0.193	-0.6546	-0.2434	-0.3986	-0.3273	-0.3944	-0.3231	0.47	-0.0042	-0.2686	-0.9525	0.1301	-0.7679	0.3357	-0.7805
0.8099	0.042	0.9399	0.2014	-0.4406	0.1385	0.2434	-0.6336	-0.2434	-0.3441	-0.3357	-0.386	-0.2811	0.4742	-0.0336	-0.3483	-0.9735	0.2056	-0.8057	0.3693	-0.7763
0.8854	0.1259	1.0113	0.2937	-0.3986	0.1595	0.2769	-0.642	-0.2266	-0.2686	-0.3525	-0.4322	-0.214	0.4784	-0.0713	-0.4196	-0.9945	0.2937	-0.8434	0.4112	-0.7805
0.9022	0.1846	1.0365	0.3021	-0.3231	0.1804	0.2979	-0.6756	-0.2979	-0.2392	-0.3777	-0.4826	-0.1972	0.4784	-0.1427	-0.5539	-0.9945	0.3525	-0.8141	0.4574	-0.8266
0.9609	0.2686	1.1078	0.3651	-0.256	0.1637	0.3525	-0.6252	-0.256	-0.193	-0.386	-0.4826	-0.1553	0.4993	-0.1511	-0.6378	-1.0113	0.449	-0.8266	0.5119	-0.8308
0.9903	0.3315	1.1456	0.3819	-0.1846	0.1972	0.3819	-0.621	-0.2937	-0.1637	-0.3944	-0.5203	-0.1175	0.4868	-0.2308	-0.7763	-0.9861	0.491	-0.8476	0.5161	-0.8057
0.9987	0.3902	1.1917	0.4028	-0.1259	0.2224	0.4112	-0.621	-0.3189	-0.1511	-0.4406	-0.5707	-0.1133	0.449	-0.2979	-0.898	-0.9399	0.5413	-0.8476	0.5035	-0.8518
1.0532	0.4658	1.2295	0.4112	-0.0504	0.2266	0.4154	-0.6252	-0.3273	-0.1343	-0.4154	-0.621	-0.1259	0.4322	-0.3609	-0.9567	-0.8938	0.6001	-0.8434	0.5035	-0.835
1.112	0.5749	1.3008	0.4406	0.0462	0.2602	0.4532	-0.5665	-0.3273	-0.1007	-0.4028	-0.6294	-0.0629	0.4196	-0.3525	-0.9903	-0.8602	0.663	-0.8476	0.5371	-0.7931
1.1497	0.6756	1.3638	0.4574	0.1091	0.2811	0.4742	-0.4993	-0.3399	-0.0755	-0.3693	-0.6672	-0.0336	0.3693	-0.3735	-1.0197	-0.7889	0.7343	-0.8057	0.5119	-0.7259
1.2085	0.7721	1.4393	0.4868	0.2014	0.3399	0.5119	-0.4574	-0.3231	-0.0629	-0.3105	-0.6462	0.0042	0.3483	-0.3693	-1.0323	-0.7175	0.7805	-0.7889	0.5245	-0.6462
1.2589	0.8728	1.4938	0.5077	0.2937	0.3735	0.5245	-0.407	-0.3147	-0.021	-0.2476	-0.6504	0.0168	0.2937	-0.3399	-1.0406	-0.6084	0.835	-0.7385	0.5119	-0.5413
1.347	0.9651	1.5736	0.5371	0.3819	0.4238	0.5539	-0.2853	-0.2979	0.0252	-0.1469	-0.642	0.0881	0.2434	-0.3021	-1.0155	-0.5245	0.8686	-0.642	0.4826	-0.4028
1.3889	1.0616	1.6407	0.5665	0.4784	0.449	0.6126	-0.2056	-0.2476	0.0629	-0.0378	-0.621	0.1637	0.1972	-0.2644	-1.0113	-0.4238	0.9315	-0.5623	0.4993	-0.2602
1.4393	1.1414	1.7288	0.6042	0.5371	0.5035	0.6294	-0.1175	-0.235	0.1469	0.0671	-0.5161	0.2098	0.1595	-0.2476	-0.9861	-0.3441	1.0071	-0.4616	0.4742	-0.0923
1.4854	1.1917	1.7372	0.5875	0.5875	0.5329	0.6336	0.0042	-0.172	0.1804	0.1972	-0.4951	0.2769	0.1049	-0.2308	-1.0239	-0.256	1.0658	-0.3399	0.4616	0.0797
1.5526	1.3008	1.8253	0.6168	0.642	0.5749	0.6588	0.1049	-0.1469	0.256	0.3735	-0.4154	0.3693	0.0839	-0.2644	-1.0532	-0.193	1.1372	-0.2056	0.47	0.2728
1.5274	1.2882	1.8253	0.5707	0.6966	0.6168	0.6714	0.1804	-0.1175	0.2769	0.5161	-0.3483	0.4196	0.0252	-0.2728	-1.0658	-0.1217	1.1875	-0.1091	0.449	0.4658
1.5568	1.326	1.8463	0.5707	0.7427	0.642	0.7175	0.2895	-0.0587	0.3693	0.7008	-0.235	0.5371	0.0294	-0.2644	-1.1288	-0.0881	1.284	0.0378	0.47	0.6672
1.561	1.3805	1.8589	0.5539	0.7553	0.6336	0.7679	0.3902	-0.0294	0.407	0.8392	-0.1595	0.6252	0	-0.3063	-1.1875	-0.0378	1.3763	0.1259	0.4784	0.8938
1.5862	1.368	1.8925	0.5917	0.7553	0.6504	0.7553	0.4826	0.0168	0.4364	1.0239	-0.0546	0.7301	-0.021	-0.3651	-1.2337	-0.0042	1.4603	0.2098	0.5161	1.0868
1.5568	1.3596	1.8799	0.5623	0.7679	0.642	0.8015	0.5539	0.042	0.5329	1.1791	0.0629	0.8224	-0.0168	-0.3735	-1.263	-0.0126	1.5568	0.2644	0.5161	1.2798
1.5778	1.3554	1.8631	0.5623	0.7427	0.6294	0.8141	0.6042	0.0378	0.5623	1.3134	0.1385	0.9022	-0.0462	-0.4154	-1.3134	0.0252	1.6239	0.3147	0.5119	1.4561
1.561	1.3596	1.8715	0.6084	0.7511	0.6252	0.8686	0.6882	0.1049	0.621	1.4854	0.2811	1.0197	-0.042	-0.449	-1.3763	0.0378	1.7162	0.3986	0.5455	1.6533
1.5778	1.3596	1.8673	0.642	0.7679	0.6126	0.919	0.7595	0.1553	0.6882	1.6449	0.386	1.1372	-0.0378	-0.4532	-1.4183	0.042	1.8085	0.4532	0.5707	1.8127
1.5484	1.3805	1.8799	0.642	0.7679	0.5917	0.9483	0.8392	0.172	0.7175	1.7792	0.5203	1.2421	-0.0629	-0.5035	-1.5022	0.0881	1.8841	0.4993	0.5623	1.968
1.6155	1.3721	1.8715	0.7008	0.8057	0.6001	0.9945	0.9232	0.2392	0.8183	1.9386	0.663	1.3386	-0.0671	-0.5329	-1.5484	0.1091	2.0184	0.6168	0.6001	2.1191
1.5736	1.347	1.8463	0.7217	0.7847	0.5539	1.0448	0.9567	0.2811	0.8392	2.0603	0.7805	1.4351	-0.1007	-0.5581	-1.6281	0.1511	2.0981	0.6378	0.621	2.2072
1.6029	1.3008	1.8379	0.7511	0.8308	0.5791	1.091	1.0532	0.3567	0.9064	2.224	0.9315	1.5652	-0.1259	-0.6168	-1.7036	0.1972	2.2156	0.7259	0.6504	2.3415
1.5862	1.305	1.8547	0.8057	0.8476	0.5833	1.1456	1.1414	0.4364	0.9987	2.3582	1.0742	1.6827	-0.1427	-0.663	-1.7918	0.2266	2.3121	0.8308	0.6924	2.4296
1.5903	1.2882	1.8463	0.8057	0.8854	0.5875	1.1875	1.2001	0.4951	1.049	2.4715	1.2169	1.7918	-0.1553	-0.7427	-1.8673	0.256	2.4296	0.9106	0.7092	2.5303
1.6029	1.2714	1.8715	0.856	0.9357	0.6084	1.2337	1.2966	0.621	1.1414	2.6352	1.3763	1.968	-0.1469	-0.8099	-1.9512	0.2602	2.5345	1.0113	0.7763	2.6016
1.5945	1.2714	1.9009	0.9148	0.9777	0.6672	1.2966	1.4183	0.7259	1.2505	2.7905	1.5694	2.0813	-0.1553	-0.8308	-2.0226	0.256	2.6184	1.1665	0.8476	2.7191
1.5987	1.2672	1.9176	0.9357	1.0448	0.7301	1.3638	1.498	0.8308	1.3512	2.9079	1.7288	2.2156	-0.1469	-0.9232	-2.1191	0.2644	2.7023	1.2253	0.9274	2.7821
1.6575	1.2966	1.968	0.9987	1.1372	0.8266	1.4519	1.6533	0.9987	1.4854	3.08	1.9344	2.3876	-0.1427	-0.9903	-2.161	0.2602	2.8156	1.347	0.9777	2.8744
1.6953	1.3512	2.0184	1.0532	1.2379	0.9022	1.498	1.7834	1.133	1.6071	3.2269	2.1065	2.4883	-0.1511	-0.9861	-2.1736	0.256	2.8996	1.4393	1.0448	2.9583
1.7414	1.4309	2.1107	1.1372	1.3763	1.0406	1.582	1.9218	1.305	1.7582	3.4115	2.3247	2.6855	-0.1385	-0.9903	-2.1778	0.2266	3.0254	1.5022	1.112	3.059
1.796	1.5274	2.1946	1.2211	1.54	1.1749	1.6869	2.0771	1.4812	1.9135	3.5164	2.4925	2.8072	-0.1301	-1.0239	-2.1904	0.2182	3.0968	1.5652	1.2169	3.1555
1.9302	1.6281	2.3163	1.3092	1.6449	1.3596	1.8379	2.2114	1.6575	2.0519	3.6716	2.6814	3.0045	-0.1091	-0.9861	-2.1023	0.1678	3.2185	1.6491	1.3428	3.1933
1.9932	1.712	2.4086	1.4687	1.8169	1.4938	1.9512	2.3582	1.8505	2.2156	3.8101	2.8954	3.1849	-0.0839	-0.9441	-2.0267	0.1217	3.336	1.6869	1.4561	3.2646
2.1358	1.8799	2.5597	1.6533	1.9806	1.7204	2.14	2.5093	2.0687	2.4548	3.936	3.101	3.3695	-0.021	-0.8308	-1.8589	0.0126	3.4744	1.7414	1.5903	3.3485
2.2995	2.0226	2.7359	1.8253	2.1317	1.9176	2.3247	2.652	2.2701	2.6478	4.0871	3.2688	3.5625	0.0252	-0.7721	-1.6869	-0.0881	3.6003	1.8169	1.7246	3.3989
2.4296	2.1358	2.8786	2.0309	2.2449	2.0645	2.5093	2.7611	2.4422	2.8282	4.1416	3.4576	3.7178	0.0671	-0.7175	-1.5526	-0.1762	3.6926	1.8211	1.8631	3.3947
2.6184	2.2659	3.0926	2.2533	2.375	2.2827	2.7401	2.8912	2.6604	3.0758	4.2801	3.6339	3.9402	0.1217	-0.5959	-1.3763	-0.2979	3.8605	1.8379	2.0226	3.4073
2.7695	2.4128	3.2394	2.5345	2.5219	2.4883	2.9205	3.0087	2.866	3.2604	4.343	3.8101	4.1039	0.1846	-0.5371	-1.2043	-0.4238	3.9738	1.8631	2.1946	3.3989
2.9751	2.589	3.4576	2.7821	2.631	2.7065	3.1597	3.08	3.0632	3.508	4.3892	4.0157	4.3179	0.2518	-0.4238	-0.9945	-0.5329	4.1248	1.8673	2.3331	3.3695
3.1723	2.7191	3.6507	3.0632	2.7443	2.8996	3.4115	3.1723	3.2436	3.7304	4.4395	4.1542	4.5277	0.3189	-0.3231	-0.8266	-0.6714	4.2843	1.8505	2.5177	3.3066
3.3821	2.866	3.8605	3.3443	2.8744	3.1219	3.6842	3.2688	3.4534	3.9822	4.5151	4.3221	4.7081	0.3777	-0.2392	-0.6042	-0.7973	4.4521	1.8379	2.7107	3.252
3.5961	3.0632	4.0829	3.6926	3.0003	3.336	3.9654	3.3695	3.6465	4.213	4.578	4.4773	4.9053	0.4448	-0.1217	-0.3651	-0.9148	4.5738	1.8253	2.9079	3.1975
3.8563	3.231	4.3262	3.9864	3.1765	3.5961	4.2255	3.4618	3.8731	4.4689	4.6158	4.6745	5.0983	0.5035	0.0084	-0.2056	-1.0323	4.7626	1.8337	3.1219	3.1261
4.1164	3.4199	4.5822	4.3011	3.3066	3.8311	4.5067	3.6129	4.0955	4.7291	4.6829	4.8592	5.2788	0.5749	0.1385	-0.0084	-1.1875	4.9095	1.8169	3.3276	3.08
4.3556	3.6633	4.8046	4.5738	3.4618	4.1039	4.7752	3.6968	4.3221	4.9809	4.7291	4.9809	5.4844	0.6294	0.2769	0.1846	-1.3176	5.0941	1.8211	3.5416	2.9919
4.6242	3.8605	5.0732	4.8634	3.6339	4.3388	5.0522	3.8101	4.5444	5.262	4.771	5.1445	5.6564	0.7008	0.3986	0.3357	-1.4351	5.2452	1.8002	3.7807	2.9121
4.8676	4.0955	5.3501	5.1445	3.8479	4.5906	5.3375	3.9444	4.771	5.497	4.8382	5.3165	5.8495	0.7553	0.5035	0.4826	-1.5526	5.4131	1.7918	4.0367	2.8408
5.1067	4.343	5.5809	5.4466	4.0283	4.855	5.6061	4.0745	5.0186	5.7613	4.8843	5.476	6.0257	0.8308	0.6126	0.6126	-1.6617	5.5725	1.7414	4.2465	2.7233
5.3585	4.5906	5.8746	5.6606	4.2297	5.1823	5.883	4.213	5.304	6.0005	4.9431	5.669	6.2439	0.8896	0.7217	0.705	-1.7834	5.7194	1.733	4.4773	2.6604
5.5809	4.8634	6.1474	5.9376	4.4647	5.5138	6.1432	4.364	5.5725	6.2775	5.0018	5.862	6.4075	0.9399	0.835	0.8057	-1.8925	5.8704	1.7246	4.6913	2.5471
5.8369	5.0941	6.4369	6.16	4.6787	5.8117	6.3824	4.4983	5.8537	6.5376	5.069	6.0257	6.588	0.9861	0.9441	0.8812	-1.9932	5.9502	1.7246	4.9221	2.4757
6.1012	5.3795	6.76	6.4117	4.9305	6.1474	6.6887	4.6997	6.181	6.8356	5.1529	6.2565	6.7936	1.0532	1.07	0.9777	-2.1107	6.1138	1.7414	5.1697	2.4044
6.3908	5.6858	7.0999	6.6929	5.2116	6.5208	6.9363	4.9137	6.5334	7.1083	5.2494	6.4579	6.9489	1.0994	1.2127	1.0532	-2.2282	6.2313	1.8127	5.4005	2.3457
6.6299	5.9586	7.4146	6.9321	5.4676	6.8733	7.209	5.0732	6.8523	7.3559	5.3459	6.6803	7.1209	1.1497	1.3554	1.1539	-2.3121	6.311	1.8673	5.5977	2.2869
6.9069	6.2397	7.7587	7.1419	5.6984	7.23	7.4272	5.2998	7.1796	7.5909	5.4424	6.8733	7.2636	1.1959	1.5064	1.263	-2.4044	6.3572	1.9218	5.7781	2.2324
7.23	6.5544	8.1322	7.3853	5.9921	7.6118	7.6832	5.5222	7.5489	7.8804	5.6019	7.0747	7.4272	1.2337	1.6953	1.368	-2.4967	6.4285	2.0351	5.9753	2.2156
7.4944	6.8272	8.4679	7.5699	6.2649	7.9811	7.893	5.7236	7.8636	8.0944	5.69	7.3013	7.5489	1.263	1.8841	1.519	-2.5597	6.4453	2.1484	6.1348	2.1946
7.7965	7.1754	8.8455	7.7881	6.5376	8.3755	8.1238	5.9544	8.2329	8.2706	5.8117	7.5153	7.6874	1.3092	2.1149	1.6575	-2.6184	6.4579	2.2701	6.2229	2.1946
8.086	7.4356	9.2358	7.9685	6.8188	8.7406	8.2916	6.1768	8.5938	8.4888	5.9753	7.7293	7.7671	1.3134	2.354	1.796	-2.6478	6.4243	2.396	6.3194	2.1778
8.3755	7.7168	9.5547	8.1573	7.0873	9.1393	8.4511	6.4117	8.9001	8.6483	6.0593	7.893	7.83	1.326	2.5932	1.9848	-2.6688	6.353	2.5345	6.3992	2.1778
8.6651	8.0189	9.9239	8.363	7.3685	9.4833	8.6357	6.6341	9.2525	8.7994	6.16	8.0734	7.8888	1.3344	2.8534	2.1568	-2.673	6.2984	2.652	6.4285	2.1946
8.942	8.3042	10.289	8.5434	7.6118	9.819	8.7868	6.8104	9.5337	8.9211	6.2355	8.2287	7.914	1.3134	3.1303	2.3499	-2.6436	6.1642	2.7821	6.4327	2.182
9.2022	8.5266	10.5785	8.7154	7.8762	10.1086	8.942	6.9782	9.798	9.0385	6.2943	8.3755	7.9308	1.2966	3.4073	2.5429	-2.5932	6.0467	2.8324	6.4159	2.1736
9.4372	8.728	10.8807	8.8833	8.0357	10.4023	9.0637	7.0915	10.0121	9.1099	6.3152	8.4721	7.8972	1.2547	3.6465	2.7107	-2.5093	5.8578	2.8576	6.3488	2.0729
9.6596	8.9001	11.1198	9.0385	8.1825	10.6289	9.1644	7.1754	10.2093	9.1351	6.3446	8.5518	7.851	1.1917	3.8815	2.9079	-2.4086	5.6984	2.8786	6.2481	2.0309
9.84	9.0511	11.401	9.2064	8.3042	10.8471	9.2651	7.2636	10.3981	9.1854	6.3614	8.6105	7.7671	1.1414	4.1332	3.0968	-2.3079	5.5264	2.8954	6.1726	1.9596
10.0414	9.1728	11.5898	9.3365	8.4259	11.0401	9.3784	7.3097	10.524	9.2148	6.3068	8.6315	7.6832	1.07	4.3724	3.2856	-2.1568	5.3333	2.8744	6.0257	1.9051
10.1757	9.2819	11.7577	9.4498	8.4763	11.1828	9.4498	7.3391	10.6289	9.1686	6.2691	8.6231	7.5699	0.9861	4.5738	3.3905	-1.9806	5.0941	2.845	5.8411	1.8253
10.31	9.3658	11.9087	9.5673	8.5434	11.2877	9.4959	7.3181	10.6499	9.1015	6.1977	8.5854	7.444	0.8896	4.7501	3.5709	-1.8044	4.8759	2.7988	5.648	1.7414
10.3729	9.391	12.0094	9.6512	8.5266	11.3338	9.5253	7.2887	10.696	9.0218	6.097	8.5392	7.2678	0.7889	4.9179	3.7766	-1.6029	4.6494	2.7359	5.4256	1.6407
10.461	9.4456	12.0598	9.7099	8.535	11.4094	9.4959	7.23	10.6625	8.9043	6.0005	8.4427	7.0915	0.7008	5.0774	3.9696	-1.4015	4.3934	2.673	5.1949	1.561
10.5492	9.4749	12.1395	9.7855	8.514	11.4513	9.5127	7.2048	10.6583	8.812	5.8956	8.3588	6.9405	0.5833	5.2536	4.1836	-1.2085	4.15	2.5806	4.9599	1.4812
10.5701	9.4749	12.1689	9.8358	8.4595	11.4346	9.4456	7.1125	10.5869	8.6819	5.7446	8.2455	6.7558	0.4826	5.4005	4.3808	-0.9987	3.894	2.4757	4.6913	1.368
10.5869	9.4456	12.1731	9.8148	8.3839	11.4178	9.3742	6.9908	10.4736	8.514	5.6355	8.107	6.5376	0.3902	5.5096	4.5864	-0.8057	3.6171	2.4044	4.427	1.2714
10.6121	9.4456	12.1647	9.8904	8.321	11.3548	9.3239	6.8985	10.3687	8.3755	5.4928	7.9391	6.3572	0.2895	5.5893	4.7626	-0.6252	3.3695	2.2953	4.171	1.1623
10.6037	9.3826	12.0934	9.8568	8.2077	11.2793	9.2484	6.802	10.2303	8.2077	5.3291	7.8049	6.1516	0.1972	5.6648	4.9473	-0.428	3.1345	2.2366	3.9276	1.0742
10.5743	9.3029	12.022	9.819	8.1028	11.166	9.1518	6.6509	10.0456	7.9979	5.1445	7.5825	5.9376	0.1007	5.7026	5.0858	-0.2392	2.8786	2.161	3.68	0.9441
10.482	9.2148	11.8752	9.7435	7.9559	11.0065	8.9882	6.5083	9.8778	7.83	5.0018	7.3853	5.7194	-0.0084	5.6942	5.241	-0.0336	2.631	2.0855	3.4367	0.8518
10.3939	9.1183	11.7577	9.6428	7.8342	10.8429	8.8329	6.3614	9.6722	7.6328	4.8172	7.1796	5.5138	-0.0923	5.6606	5.2914	0.1469	2.4002	2.0477	3.2269	0.7889
10.2596	8.963	11.5646	9.5211	7.6706	10.675	8.6651	6.1977	9.4246	7.3853	4.6494	6.9489	5.3291	-0.1762	5.6103	5.3543	0.2979	2.1988	1.9806	3.017	0.6966
10.0876	8.7994	11.338	9.3323	7.4944	10.4317	8.4091	6.0131	9.1644	7.1293	4.4521	6.6845	5.0858	-0.2602	5.5096	5.3753	0.449	1.9932	1.8925	2.8198	0.5917
9.8568	8.5854	11.0821	9.1057	7.2929	10.1631	8.1406	5.8411	8.9001	6.8859	4.2675	6.4537	4.855	-0.3105	5.3963	5.3879	0.5749	1.8085	1.8044	2.6352	0.4951
9.6344	8.3881	10.7883	8.8539	7.0831	9.8694	7.8846	5.6187	8.5686	6.6341	4.0367	6.1726	4.6158	-0.3525	5.2746	5.3543	0.6504	1.6491	1.7288	2.459	0.3944
9.3491	8.1112	10.4946	8.5644	6.8188	9.5924	7.5699	5.3963	8.2581	6.374	3.8605	5.8914	4.4144	-0.3693	5.1109	5.2956	0.7092	1.4896	1.6449	2.2911	0.3231
9.0973	7.8384	10.1421	8.2371	6.5586	9.24	7.2678	5.1361	7.9098	6.0719	3.6213	5.6145	4.1836	-0.428	4.9767	5.2536	0.7805	1.3218	1.5568	2.0645	0.2224
8.7448	7.5615	9.7687	7.9014	6.2817	8.9043	6.9656	4.8759	7.5489	5.8033	3.4157	5.304	3.9654	-0.4112	4.8088	5.1865	0.7805	1.2169	1.4687	1.9344	0.1259
8.4721	7.2762	9.4624	7.5699	6.0257	8.6021	6.6593	4.6661	7.2006	5.5473	3.1891	5.0102	3.7724	-0.428	4.6368	5.0983	0.8057	1.0952	1.3638	1.7414	0.0546
8.1406	7.0034	9.1225	7.2384	5.7529	8.2664	6.3866	4.4102	6.8649	5.283	2.9751	4.7375	3.5961	-0.3986	4.4689	5.0354	0.7805	1.049	1.2798	1.6197	-0.0168
7.8217	6.7097	8.7826	6.8985	5.4802	7.9475	6.0928	4.1668	6.4915	5.048	2.7821	4.4521	3.4157	-0.386	4.2759	4.9179	0.7427	0.9861	1.1875	1.4896	-0.0504
7.5027	6.4243	8.4091	6.5628	5.22	7.6202	5.8453	3.9108	6.16	4.8172	2.5764	4.1584	3.2436	-0.3651	4.1248	4.8004	0.6966	0.9777	1.0868	1.3847	-0.0797
7.1796	6.1348	8.0734	6.2397	4.9431	7.3013	5.5977	3.68	5.8369	4.5822	2.3834	3.9024	3.1136	-0.3525	3.9192	4.6955	0.642	0.9483	0.9945	1.3008	-0.1217
6.8356	5.8495	7.7671	5.9418	4.6913	6.995	5.3711	3.4492	5.497	4.3976	2.2366	3.6381	2.9709	-0.2853	3.7094	4.5109	0.5581	0.9861	0.8938	1.2379	-0.1175
6.5334	5.6061	7.4398	5.6816	4.4647	6.6929	5.2032	3.252	5.1823	4.2004	2.0771	3.3905	2.8576	-0.2434	3.4576	4.3179	0.4616	1.0197	0.8015	1.1833	-0.1007
6.1893	5.3082	7.0999	5.4131	4.2046	6.3908	4.9976	3.017	4.8508	4.0073	1.8925	3.1136	2.7191	-0.2182	3.2352	4.0913	0.3735	1.0448	0.7092	1.1456	-0.1133
5.8662	5.069	6.8146	5.1991	3.9738	6.1474	4.8046	2.803	4.5235	3.8227	1.7162	2.8534	2.6184	-0.1637	2.9961	3.8353	0.2895	1.112	0.6294	1.1539	-0.1091
5.5389	4.8298	6.4957	4.9473	3.7388	5.8327	4.6284	2.5974	4.2171	3.6003	1.5736	2.6268	2.4757	-0.1427	2.7023	3.5374	0.2182	1.1707	0.5539	1.1078	-0.0839
5.2872	4.6074	6.2355	4.7459	3.487	5.5683	4.4731	2.3624	3.915	3.4115	1.4393	2.3708	2.3499	-0.1133	2.4254	3.2478	0.1678	1.2085	0.4742	1.0826	-0.0462
4.9809	4.3262	5.9711	4.5109	3.294	5.3123	4.3011	2.1736	3.6129	3.2227	1.2882	2.1568	2.2533	-0.0965	2.1233	2.8954	0.1091	1.284	0.4112	1.049	-0.0126
4.6871	4.1039	5.6858	4.3221	3.0506	5.0396	4.129	1.9386	3.2982	3.0422	1.1623	1.9176	2.0939	-0.0713	1.8044	2.5848	0.0755	1.3386	0.3063	1.0365	0.0252
4.4018	3.8395	5.4256	4.1416	2.7988	4.771	3.978	1.7204	3.0128	2.8366	1.0155	1.6869	1.9974	-0.0587	1.5106	2.2198	0.0546	1.4183	0.2056	0.9651	0.0546
4.1332	3.5542	5.1193	3.9696	2.5345	4.4647	3.7891	1.4729	2.673	2.6352	0.8728	1.4477	1.8421	-0.0546	1.2337	1.9009	0.0546	1.4812	0.0965	0.9232	0.0252
3.8227	3.3108	4.8424	3.7724	2.2701	4.1668	3.5709	1.2589	2.3792	2.3834	0.6966	1.2253	1.6994	-0.0839	0.9525	1.5484	0.0839	1.4771	-0.0042	0.8308	0.0378
3.5919	3.0338	4.5738	3.5709	2.0016	3.8982	3.3737	1.0239	2.0729	2.161	0.5245	0.9777	1.5316	-0.1007	0.7217	1.2798	0.1217	1.54	-0.1259	0.7847	0.0168
3.3485	2.7191	4.2969	3.3611	1.6994	3.5961	3.1765	0.7301	1.7162	1.947	0.3441	0.7175	1.3847	-0.1175	0.4658	0.9945	0.1972	1.5358	-0.2811	0.6882	-0.0336
3.0758	2.4632	4.0115	3.1471	1.4435	3.294	2.9415	0.4951	1.4435	1.7036	0.1762	0.5077	1.2295	-0.1762	0.2602	0.7133	0.2937	1.561	-0.4112	0.6042	-0.0294
2.8408	2.1484	3.722	2.8702	1.1581	3.017	2.7107	0.2434	1.1162	1.4477	0.0168	0.2686	1.07	-0.2392	0.1175	0.4951	0.3944	1.561	-0.4993	0.5035	-0.0378
2.5681	1.8715	3.4325	2.652	0.877	2.6939	2.4715	0	0.8183	1.2211	-0.1259	0.0336	0.9022	-0.2811	-0.0462	0.2853	0.5161	1.5778	-0.6294	0.4238	-0.0378
2.3624	1.5903	3.2059	2.4002	0.5749	2.4086	2.2156	-0.2182	0.5371	0.9735	-0.2434	-0.172	0.7931	-0.3399	-0.1637	0.1385	0.621	1.6281	-0.7259	0.3819	-0.0168
2.1191	1.2798	2.9163	2.1526	0.2979	2.1065	2.0016	-0.4364	0.235	0.7595	-0.407	-0.3735	0.6378	-0.4028	-0.3021	-0.0629	0.7427	1.6575	-0.8476	0.3105	0.0042
1.8841	0.9819	2.6058	1.8799	0.042	1.8085	1.7162	-0.6504	-0.0378	0.4951	-0.5287	-0.5413	0.5287	-0.4532	-0.3735	-0.2434	0.8392	1.712	-0.9777	0.2602	0.0713
1.6617	0.7385	2.3792	1.6197	-0.2224	1.54	1.4938	-0.8518	-0.3105	0.3021	-0.6126	-0.7092	0.3944	-0.4742	-0.491	-0.4574	0.919	1.7708	-1.0742	0.214	0.1217
1.4309	0.4406	2.1484	1.3428	-0.4532	1.2337	1.2421	-1.0155	-0.5539	0.0839	-0.705	-0.8854	0.2937	-0.5245	-0.5497	-0.6126	1.0029	1.8211	-1.1623	0.1637	0.1678
1.1959	0.1846	1.8673	1.0532	-0.6966	0.9777	1.0281	-1.1875	-0.8057	-0.1343	-0.7889	-1.0616	0.1553	-0.5833	-0.6756	-0.8183	1.091	1.8253	-1.2337	0.0881	0.2476
1.0071	-0.0336	1.6533	0.8392	-0.8896	0.7511	0.8308	-1.3134	-1.0239	-0.2937	-0.8266	-1.1623	0.1049	-0.6001	-0.7133	-0.9441	1.133	1.8925	-1.3344	0.0546	0.3357
0.8224	-0.2644	1.4057	0.5959	-1.0952	0.5035	0.6336	-1.4771	-1.2043	-0.5035	-0.919	-1.2966	0.0252	-0.6084	-0.7553	-1.0994	1.1665	1.9638	-1.3973	0.0252	0.4154
0.5875	-0.4993	1.2043	0.3441	-1.305	0.2224	0.4028	-1.6365	-1.4519	-0.684	-1.0113	-1.4351	-0.0755	-0.6252	-0.7889	-1.2127	1.2043	2.0058	-1.4645	-0.042	0.449
0.4154	-0.705	0.9525	0.1133	-1.4645	0.0084	0.2056	-1.7498	-1.6365	-0.877	-1.0616	-1.5568	-0.172	-0.6378	-0.8476	-1.3092	1.2001	2.0351	-1.4938	-0.0797	0.47
0.2895	-0.8854	0.7679	-0.1217	-1.6239	-0.1888	0.021	-1.8421	-1.796	-1.0155	-1.1204	-1.6743	-0.2266	-0.6126	-0.835	-1.368	1.1791	2.0897	-1.5148	-0.1049	0.5329
0.1343	-1.0784	0.5455	-0.3021	-1.775	-0.407	-0.1469	-1.9218	-1.9554	-1.1623	-1.1791	-1.7792	-0.2811	-0.5833	-0.8476	-1.4057	1.1288	2.1568	-1.5316	-0.1301	0.5497
-0.0126	-1.2211	0.3357	-0.4784	-1.9051	-0.621	-0.2895	-2.0561	-2.161	-1.347	-1.2043	-1.8925	-0.3483	-0.5623	-0.8728	-1.3973	1.0784	2.1946	-1.5484	-0.2014	0.5959
-0.1469	-1.368	0.1553	-0.6546	-2.0561	-0.8266	-0.4574	-2.1275	-2.3163	-1.4645	-1.2505	-1.968	-0.4322	-0.5413	-0.8812	-1.4057	1.0155	2.2324	-1.561	-0.256	0.6252
-0.2644	-1.5274	-0.0629	-0.8308	-2.1526	-1.0365	-0.6378	-2.1988	-2.4422	-1.5652	-1.2798	-2.0645	-0.4574	-0.4993	-0.8938	-1.4015	0.9483	2.3037	-1.5442	-0.2937	0.6084
-0.4028	-1.6239	-0.2266	-0.9777	-2.2491	-1.2085	-0.7637	-2.2491	-2.6016	-1.6869	-1.2714	-2.1065	-0.5119	-0.4532	-0.9483	-1.3344	0.8728	2.3499	-1.5064	-0.3441	0.6378
-0.5203	-1.7078	-0.3902	-1.1288	-2.3331	-1.3847	-0.898	-2.2659	-2.7359	-1.7918	-1.2924	-2.1946	-0.5539	-0.4238	-0.9483	-1.2505	0.7847	2.4086	-1.5022	-0.3609	0.663
-0.684	-1.8757	-0.6126	-1.3134	-2.4464	-1.6197	-1.0323	-2.3457	-2.9037	-1.9051	-1.3218	-2.2785	-0.6168	-0.3902	-0.9819	-1.2463	0.7301	2.4422	-1.5274	-0.3777	0.6546
-0.7931	-2.0226	-0.8057	-1.4854	-2.5513	-1.8085	-1.133	-2.417	-3.0338	-1.989	-1.3008	-2.3708	-0.642	-0.3483	-1.0616	-1.1581	0.6672	2.4632	-1.5694	-0.4028	0.6588
-0.9567	-2.1233	-1.0197	-1.6533	-2.6688	-2.0058	-1.2756	-2.4506	-3.1429	-2.0939	-1.305	-2.4422	-0.6714	-0.3315	-1.091	-1.133	0.5917	2.5093	-1.5652	-0.3944	0.7133
-1.1078	-2.2953	-1.1959	-1.8169	-2.7653	-2.1862	-1.4099	-2.4841	-3.3066	-2.1778	-1.3302	-2.5093	-0.7133	-0.2979	-1.112	-1.0784	0.5245	2.5723	-1.6071	-0.3735	0.7385
-1.2001	-2.4086	-1.3638	-1.9135	-2.8408	-2.354	-1.4729	-2.5135	-3.3989	-2.2366	-1.284	-2.5387	-0.6882	-0.2308	-1.1665	-1.0113	0.428	2.6394	-1.5987	-0.3315	0.8015
-1.4057	-2.589	-1.5987	-2.1023	-2.9709	-2.5974	-1.6029	-2.5764	-3.5542	-2.2953	-1.2924	-2.652	-0.7469	-0.2098	-1.2253	-0.9693	0.3651	2.6772	-1.6533	-0.3315	0.8518
-1.5526	-2.7359	-1.8002	-2.2617	-3.0842	-2.7821	-1.7204	-2.6436	-3.7178	-2.3666	-1.3008	-2.7359	-0.7973	-0.172	-1.2463	-0.9232	0.2979	2.7107	-1.7078	-0.3231	0.9064
-1.7288	-2.8996	-2.0435	-2.417	-3.2101	-3.0128	-1.8085	-2.7443	-3.8731	-2.4715	-1.3302	-2.8324	-0.8434	-0.1637	-1.3218	-0.9441	0.256	2.7359	-1.7582	-0.3231	0.9483
-1.8883	-3.101	-2.2617	-2.5471	-3.3192	-3.2394	-1.9176	-2.8324	-4.0535	-2.5471	-1.3302	-2.9415	-0.9022	-0.1343	-1.3554	-0.9399	0.214	2.7695	-1.8253	-0.3105	1.0197
-2.0897	-3.2562	-2.5177	-2.7275	-3.466	-3.4325	-2.0226	-2.9163	-4.2255	-2.6436	-1.3512	-3.0254	-0.9483	-0.1217	-1.4183	-0.9567	0.1804	2.803	-1.8883	-0.2979	1.0868
-2.2995	-3.4786	-2.7653	-2.9247	-3.5793	-3.6884	-2.1568	-3.0296	-4.385	-2.7317	-1.3931	-3.1513	-1.0239	-0.1007	-1.5106	-1.0365	0.1553	2.8114	-1.9302	-0.3063	1.1581
-2.4925	-3.6633	-3.0003	-3.1387	-3.7346	-3.8982	-2.3037	-3.1219	-4.557	-2.845	-1.4435	-3.2562	-1.1078	-0.0965	-1.5862	-1.1036	0.1301	2.8198	-2.01	-0.3105	1.1875
-2.7569	-3.8731	-3.273	-3.3443	-3.8898	-4.1626	-2.4757	-3.2101	-4.7501	-2.9583	-1.4854	-3.3779	-1.1749	-0.0839	-1.7288	-1.2211	0.1343	2.8156	-2.0939	-0.3189	1.2169
-3.0045	-4.0619	-3.5667	-3.5793	-4.0325	-4.4144	-2.6268	-3.3485	-4.9473	-3.0884	-1.5358	-3.5038	-1.2589	-0.0797	-1.8379	-1.3302	0.1049	2.8198	-2.1526	-0.3357	1.2798
-3.2436	-4.2927	-3.8479	-3.8227	-4.1794	-4.6494	-2.7988	-3.4702	-5.1151	-3.2227	-1.582	-3.6045	-1.3176	-0.042	-1.9596	-1.4771	0.0378	2.8828	-2.2408	-0.3189	1.3218
-3.487	-4.5361	-4.1164	-4.0829	-4.3472	-4.8885	-2.9961	-3.6003	-5.304	-3.336	-1.6785	-3.7094	-1.3973	-0.0294	-2.1149	-1.6743	-0.0042	2.8954	-2.3163	-0.3231	1.3638
-3.7472	-4.7752	-4.4018	-4.3556	-4.5151	-5.1235	-3.1597	-3.7262	-5.4718	-3.4534	-1.712	-3.8395	-1.4603	0	-2.2617	-1.8589	-0.0587	2.9205	-2.375	-0.3441	1.3596
-4.0073	-5.0522	-4.6997	-4.578	-4.7081	-5.3753	-3.3485	-3.8647	-5.648	-3.5877	-1.7876	-3.9402	-1.519	0.042	-2.4044	-2.0016	-0.1133	2.9373	-2.4296	-0.3609	1.4057
-4.2381	-5.3249	-4.9473	-4.8466	-4.9095	-5.5767	-3.529	-4.0031	-5.8159	-3.7346	-1.8673	-4.0535	-1.5987	0.0504	-2.5345	-2.1778	-0.1595	2.9415	-2.4715	-0.3986	1.3805
-4.4605	-5.5431	-5.1655	-5.0774	-5.069	-5.7907	-3.6591	-4.0997	-5.9376	-3.7933	-1.926	-4.1584	-1.6449	0.0839	-2.652	-2.3499	-0.2224	2.9583	-2.4967	-0.3819	1.3596
-4.6871	-5.7823	-5.4089	-5.3123	-5.2284	-5.9921	-3.8059	-4.2171	-6.0719	-3.9234	-2.0184	-4.2465	-1.7456	0.1007	-2.7946	-2.5051	-0.256	2.9751	-2.5303	-0.407	1.3554
-4.8424	-5.9795	-5.6313	-5.4802	-5.3921	-6.1516	-3.9528	-4.343	-6.1893	-4.0115	-2.0813	-4.343	-1.7918	0.1175	-2.9121	-2.652	-0.2895	2.9667	-2.5471	-0.4196	1.305
-5.0018	-6.2103	-5.8411	-5.6774	-5.5515	-6.3152	-4.0577	-4.4395	-6.2859	-4.1458	-2.1568	-4.4144	-1.8505	0.1427	-3.0254	-2.7695	-0.3567	2.9709	-2.5848	-0.428	1.3008
-5.1781	-6.395	-6.0131	-5.8243	-5.6942	-6.4621	-4.1878	-4.5948	-6.3824	-4.2507	-2.2324	-4.4941	-1.9302	0.1678	-3.1094	-2.887	-0.4028	2.9625	-2.631	-0.449	1.2714
-5.3123	-6.567	-6.1852	-5.9753	-5.8746	-6.6216	-4.3262	-4.6955	-6.4747	-4.3179	-2.3457	-4.599	-2.0393	0.2182	-3.2059	-2.9835	-0.4742	2.9121	-2.6981	-0.449	1.1372
-5.434	-6.7558	-6.3278	-6.1012	-5.9753	-6.7223	-4.4647	-4.7962	-6.5418	-4.427	-2.438	-4.7039	-2.1065	0.2392	-3.3192	-3.1303	-0.5371	2.9247	-2.7737	-0.4784	1.1036
-5.518	-6.8565	-6.4411	-6.2145	-6.0844	-6.8062	-4.5864	-4.8885	-6.6216	-4.5151	-2.5261	-4.771	-2.1694	0.2853	-3.3401	-3.1681	-0.642	2.9331	-2.7988	-0.4784	1.0281
-5.6229	-6.9866	-6.5838	-6.3572	-6.2313	-6.9447	-4.7165	-5.0102	-6.6803	-4.6368	-2.6352	-4.8424	-2.2449	0.3315	-3.4199	-3.2604	-0.6966	2.9331	-2.8366	-0.47	0.9525
-5.6774	-7.0663	-6.6719	-6.3992	-6.311	-7.0244	-4.8382	-5.0858	-6.7223	-4.6871	-2.7149	-4.9095	-2.3079	0.3567	-3.4451	-3.3066	-0.7595	2.9037	-2.8996	-0.4993	0.8602
-5.7152	-7.1587	-6.7474	-6.5083	-6.374	-7.1251	-4.9263	-5.1613	-6.781	-4.7459	-2.7653	-4.9683	-2.3708	0.3944	-3.4492	-3.3527	-0.8476	2.9037	-2.9289	-0.5119	0.8057
-5.7613	-7.209	-6.8523	-6.567	-6.4705	-7.1754	-5.0228	-5.1949	-6.7726	-4.855	-2.845	-5.027	-2.4086	0.4322	-3.4325	-3.3863	-0.8896	2.9457	-2.9583	-0.4826	0.7469
-5.8075	-7.2971	-6.9237	-6.6174	-6.5376	-7.23	-5.1277	-5.283	-6.7894	-4.9179	-2.9289	-5.0564	-2.4673	0.4322	-3.466	-3.4451	-0.898	2.9289	-2.9667	-0.5119	0.6882
-5.8159	-7.3643	-6.9489	-6.6635	-6.588	-7.2678	-5.1739	-5.2914	-6.7768	-4.9305	-2.9583	-5.0564	-2.4799	0.449	-3.4492	-3.4912	-0.9232	2.9667	-2.9835	-0.4616	0.6462
-5.8495	-7.402	-7.0076	-6.7013	-6.6593	-7.3055	-5.2578	-5.3249	-6.7768	-4.9473	-2.9793	-5.069	-2.4883	0.4574	-3.466	-3.529	-0.9315	2.9709	-3.0045	-0.407	0.621
-5.9334	-7.5321	-7.0915	-6.76	-6.7684	-7.4062	-5.3123	-5.3963	-6.781	-5.006	-3.0632	-5.0983	-2.5429	0.4322	-3.4828	-3.6003	-0.9022	2.9793	-3.038	-0.4406	0.5623
-5.9711	-7.5909	-7.1545	-6.7936	-6.7978	-7.3978	-5.3921	-5.3921	-6.739	-5.0144	-3.08	-5.0816	-2.5051	0.4238	-3.508	-3.6674	-0.8644	3.0045	-3.038	-0.428	0.5455
-6.0299	-7.6622	-7.1964	-6.8356	-6.8733	-7.465	-5.4089	-5.4298	-6.6971	-5.006	-3.0884	-5.0983	-2.4967	0.4028	-3.487	-3.7346	-0.8434	3.038	-3.0422	-0.4028	0.5329
-6.0131	-7.6958	-7.23	-6.7978	-6.8649	-7.444	-5.4089	-5.4005	-6.6299	-4.9515	-3.0716	-5.0354	-2.4464	0.4028	-3.4786	-3.7514	-0.8224	3.0842	-3.0212	-0.3441	0.5539
-6.0677	-7.7251	-7.2594	-6.781	-6.9069	-7.465	-5.4131	-5.3879	-6.6048	-4.9431	-3.0716	-5.0018	-2.417	0.386	-3.508	-3.7891	-0.7931	3.0842	-3.0128	-0.3021	0.5119
-6.0509	-7.7251	-7.2845	-6.739	-6.8733	-7.444	-5.3753	-5.3333	-6.5208	-4.8676	-3.0338	-4.9179	-2.3247	0.3735	-3.4996	-3.7849	-0.7763	3.1639	-2.9541	-0.2098	0.5077
-6.118	-7.7587	-7.3013	-6.7307	-6.9279	-7.4398	-5.3291	-5.3123	-6.4285	-4.813	-3.0212	-4.8466	-2.2617	0.3609	-3.5248	-3.8353	-0.7427	3.1849	-2.9247	-0.1427	0.5203
-6.1222	-7.7587	-7.3517	-6.6845	-6.9111	-7.4272	-5.3123	-5.2452	-6.3656	-4.7249	-2.9667	-4.7836	-2.1694	0.3483	-3.55	-3.8563	-0.7092	3.2562	-2.8912	-0.0629	0.5287
-6.16	-7.7797	-7.3643	-6.6551	-6.9111	-7.4146	-5.2998	-5.2284	-6.2943	-4.6535	-2.9457	-4.7375	-2.1275	0.3315	-3.5751	-3.8605	-0.6756	3.2856	-2.866	-0.0168	0.491
-6.2145	-7.7713	-7.402	-6.6132	-6.8733	-7.3936	-5.2368	-5.1781	-6.2187	-4.599	-2.9163	-4.6661	-2.0435	0.3105	-3.6423	-3.8647	-0.6462	3.3276	-2.8156	0.0252	0.5161
-6.2229	-7.7839	-7.4146	-6.5418	-6.8943	-7.3936	-5.1403	-5.1361	-6.1222	-4.4983	-2.8702	-4.5738	-1.9638	0.3105	-3.6381	-3.8731	-0.6336	3.3989	-2.7779	0.1175	0.5413
-6.2481	-7.7545	-7.4272	-6.4957	-6.8398	-7.3517	-5.0941	-5.0774	-6.0383	-4.406	-2.8156	-4.4815	-1.8505	0.3147	-3.7136	-3.8311	-0.6336	3.4451	-2.7443	0.1511	0.5371
-6.2733	-7.7419	-7.4314	-6.4034	-6.8356	-7.3223	-5.0228	-5.006	-5.9502	-4.2969	-2.7485	-4.3724	-1.7372	0.2937	-3.7304	-3.7724	-0.6252	3.508	-2.7023	0.2182	0.5287
-6.3236	-7.7377	-7.4776	-6.374	-6.802	-7.2929	-4.9683	-4.9557	-5.8243	-4.192	-2.6981	-4.2885	-1.6323	0.3021	-3.743	-3.7346	-0.6336	3.5667	-2.631	0.2853	0.5539
-6.3488	-7.7084	-7.5069	-6.3278	-6.781	-7.2426	-4.8717	-4.834	-5.6858	-4.1122	-2.5764	-4.171	-1.5358	0.2979	-3.7472	-3.6297	-0.642	3.6591	-2.5219	0.3357	0.5959
-6.3698	-7.6664	-7.5153	-6.2733	-6.7223	-7.1545	-4.7836	-4.7585	-5.5851	-3.9948	-2.4715	-4.0325	-1.3931	0.3231	-3.764	-3.55	-0.6798	3.722	-2.4422	0.407	0.6294
-6.3488	-7.637	-7.5447	-6.1935	-6.6803	-7.1083	-4.6913	-4.6619	-5.4256	-3.8437	-2.3457	-3.8898	-1.2714	0.3231	-3.722	-3.4534	-0.6924	3.8101	-2.3582	0.4616	0.6672
-6.353	-7.5909	-7.5069	-6.1222	-6.5964	-7.0286	-4.5486	-4.5444	-5.2956	-3.7304	-2.224	-3.7346	-1.112	0.3525	-3.6968	-3.3024	-0.7469	3.9234	-2.2701	0.5455	0.7301
-6.3194	-7.5405	-7.4776	-6.0467	-6.5502	-6.9279	-4.4395	-4.4312	-5.1277	-3.55	-2.0603	-3.55	-0.9861	0.3609	-3.6339	-3.1933	-0.7595	4.0409	-2.1946	0.621	0.8224
-6.2775	-7.4944	-7.4692	-5.9711	-6.4789	-6.823	-4.2969	-4.2675	-4.9809	-3.4073	-1.9176	-3.3695	-0.8099	0.3819	-3.5877	-3.0632	-0.7931	4.129	-2.0981	0.684	0.919
-6.2523	-7.423	-7.4146	-5.9208	-6.4201	-6.7348	-4.1752	-4.1584	-4.7878	-3.273	-1.7708	-3.1849	-0.6672	0.3902	-3.5542	-2.8954	-0.8141	4.2088	-2.0603	0.7175	0.9987
-6.2691	-7.3978	-7.3936	-5.8788	-6.332	-6.609	-4.0787	-4.0241	-4.6452	-3.101	-1.6155	-3.0296	-0.491	0.3902	-3.5374	-2.7653	-0.8392	4.3221	-1.9848	0.7763	1.112
-6.181	-7.2845	-7.3517	-5.7907	-6.2103	-6.4999	-3.8982	-3.8731	-4.4353	-2.9163	-1.4351	-2.8072	-0.3021	0.4322	-3.4996	-2.6352	-0.8938	4.4689	-1.9722	0.877	1.1959
-6.1348	-7.23	-7.2384	-5.7362	-6.0928	-6.3572	-3.7766	-3.7388	-4.2507	-2.7443	-1.2672	-2.6184	-0.1553	0.4532	-3.4912	-2.5177	-0.9232	4.5444	-1.926	0.9274	1.2547
-6.0677	-7.0915	-7.1671	-5.648	-5.9418	-6.2229	-3.6045	-3.5583	-4.0325	-2.5974	-1.0994	-2.3918	0.0168	0.4784	-3.4451	-2.3582	-0.9903	4.6577	-1.8379	0.9945	1.3721
-6.0131	-7.0076	-7.0831	-5.5893	-5.8243	-6.118	-3.4576	-3.4367	-3.8605	-2.4254	-0.9399	-2.2072	0.1972	0.4826	-3.4325	-2.2659	-1.0155	4.7375	-1.8295	1.0616	1.4309
-5.9124	-6.8775	-6.9447	-5.5012	-5.6522	-5.9502	-3.3024	-3.2604	-3.6255	-2.1946	-0.7637	-1.9596	0.4028	0.5119	-3.4325	-2.1442	-1.0616	4.8759	-1.8127	1.1414	1.5526
-5.8075	-6.7516	-6.8314	-5.4131	-5.4676	-5.8033	-3.1513	-3.059	-3.4031	-2.0142	-0.6001	-1.7792	0.5875	0.5287	-3.4031	-2.0267	-1.1036	4.9641	-1.8295	1.2169	1.6323
-5.7362	-6.6383	-6.6971	-5.3207	-5.3207	-5.6648	-3.0045	-2.9079	-3.1975	-1.8295	-0.4616	-1.5694	0.7721	0.5581	-3.3989	-1.9176	-1.1623	5.0858	-1.8253	1.3008	1.7036
-5.6313	-6.525	-6.588	-5.2158	-5.1739	-5.5012	-2.8702	-2.7695	-3.0128	-1.6575	-0.2979	-1.3512	0.9315	0.5959	-3.3779	-1.8379	-1.2127	5.1361	-1.8337	1.3554	1.754
-5.5599	-6.4453	-6.4747	-5.1907	-5.0522	-5.4005	-2.7359	-2.631	-2.824	-1.4729	-0.1595	-1.1707	1.1078	0.621	-3.3611	-1.7456	-1.2756	5.2032	-1.8799	1.4477	1.8211
-5.497	-6.4075	-6.3698	-5.1403	-4.9515	-5.2914	-2.652	-2.5345	-2.6897	-1.326	-0.0252	-0.9945	1.2798	0.6504	-3.3905	-1.7204	-1.347	5.2914	-1.9386	1.5316	1.8883
-5.4424	-6.3194	-6.2733	-5.0648	-4.8843	-5.1781	-2.5135	-2.3918	-2.5135	-1.1665	0.0713	-0.8224	1.4141	0.684	-3.3695	-1.6785	-1.4099	5.3753	-1.9932	1.6071	1.9218
-5.3627	-6.3026	-6.1893	-5.0102	-4.8256	-5.0858	-2.4422	-2.3079	-2.3499	-0.9819	0.1678	-0.6756	1.6029	0.7133	-3.3234	-1.6869	-1.4896	5.4718	-2.0729	1.712	1.9344
-5.3165	-6.2649	-6.0802	-4.9431	-4.7375	-4.9767	-2.3205	-2.2114	-2.1904	-0.8015	0.2979	-0.4658	1.7582	0.7721	-3.315	-1.7162	-1.582	5.6145	-2.1317	1.8044	1.9764
-5.262	-6.2607	-5.9963	-4.8843	-4.6913	-4.8759	-2.1862	-2.1233	-2.0267	-0.6546	0.386	-0.3021	1.9386	0.8266	-3.315	-1.754	-1.6575	5.7152	-2.182	1.9386	1.968
-5.2158	-6.1977	-5.9124	-4.8088	-4.6242	-4.7752	-2.0729	-2.0309	-1.8967	-0.4742	0.4742	-0.1343	2.0981	0.8392	-3.3318	-1.8169	-1.7246	5.8201	-2.1988	2.0687	1.9638
-5.1697	-6.1893	-5.8117	-4.7165	-4.5948	-4.6745	-1.9764	-1.9512	-1.7666	-0.3021	0.5581	0.0336	2.2449	0.8602	-3.336	-1.9176	-1.754	5.9334	-2.2198	2.1484	1.9512
-5.1277	-6.139	-5.69	-4.6368	-4.5235	-4.5612	-1.8589	-1.8169	-1.5736	-0.1301	0.6798	0.214	2.4212	0.9064	-3.3234	-1.9932	-1.8253	6.0551	-2.1946	2.2659	1.9764
-5.0858	-6.1306	-5.6774	-4.5612	-4.4857	-4.4983	-1.7624	-1.7498	-1.4812	0.0294	0.7595	0.3483	2.5471	0.9148	-3.3695	-2.1275	-1.8715	6.1222	-2.161	2.375	1.9554
-5.0228	-6.0719	-5.6061	-4.4647	-4.4102	-4.3934	-1.6701	-1.6617	-1.347	0.1762	0.8602	0.5245	2.6939	0.9441	-3.3905	-2.2533	-1.9302	6.2313	-2.0855	2.4841	1.9428
-5.0144	-6.0509	-5.5222	-4.4186	-4.3598	-4.3011	-1.582	-1.561	-1.2253	0.2979	0.9567	0.6672	2.8072	0.9861	-3.4367	-2.3582	-1.9806	6.2775	-2.0309	2.5806	1.9093
-4.9683	-5.9921	-5.4928	-4.3262	-4.3262	-4.2759	-1.4938	-1.4687	-1.1162	0.4238	1.0784	0.8015	2.9415	1.0071	-3.4492	-2.4548	-2.0309	6.3446	-1.9596	2.673	1.9135
-4.9263	-5.9418	-5.4424	-4.2423	-4.2255	-4.1962	-1.4183	-1.3344	-1.0071	0.5623	1.1749	0.9609	3.0548	1.0448	-3.4576	-2.5555	-2.0855	6.4075	-1.8589	2.7443	1.9135
-4.8843	-5.8788	-5.4005	-4.171	-4.15	-4.1542	-1.3218	-1.2672	-0.8938	0.6672	1.2589	1.0784	3.1471	1.0616	-3.4534	-2.5555	-2.1275	6.4243	-1.7792	2.845	1.8799
-4.792	-5.7823	-5.2956	-4.0577	-4.0661	-4.0325	-1.2211	-1.0994	-0.7259	0.7973	1.4057	1.2421	3.2646	1.0952	-3.3821	-2.5806	-2.1862	6.4915	-1.6785	2.9331	1.9093
-4.7081	-5.69	-5.1865	-3.9318	-3.9402	-3.9234	-1.0868	-0.9777	-0.5791	0.9148	1.54	1.4099	3.3779	1.112	-3.3569	-2.5261	-2.224	6.4915	-1.561	3.0296	1.9428
-4.6116	-5.5935	-5.0941	-3.8185	-3.8269	-3.8437	-1.0197	-0.8728	-0.4616	1.0197	1.6323	1.5358	3.4492	1.133	-3.2352	-2.4338	-2.2617	6.5125	-1.4435	3.0968	1.968
-4.4815	-5.4634	-4.9767	-3.6465	-3.6968	-3.7388	-0.8812	-0.7008	-0.3147	1.1288	1.796	1.7078	3.5542	1.1456	-3.1387	-2.3373	-2.2953	6.5292	-1.3092	3.1681	2.0226
-4.3472	-5.3543	-4.8214	-3.487	-3.55	-3.6171	-0.7595	-0.5749	-0.1469	1.2714	1.9512	1.8715	3.6591	1.1707	-3.0128	-2.1904	-2.3457	6.5838	-1.1917	3.2814	2.0771
-4.1794	-5.22	-4.7039	-3.2646	-3.3863	-3.4786	-0.5833	-0.407	0.0252	1.3931	2.1023	2.0477	3.743	1.1833	-2.845	-1.9764	-2.3834	6.5712	-1.0448	3.3779	2.1694
-4.0241	-5.0564	-4.5528	-3.0716	-3.2143	-3.3318	-0.4574	-0.2686	0.172	1.5064	2.224	2.224	3.8395	1.1875	-2.7149	-1.7834	-2.396	6.5586	-0.9315	3.4451	2.2575
-3.8857	-4.9641	-4.3892	-2.8996	-3.1052	-3.2185	-0.3399	-0.1217	0.3231	1.6197	2.396	2.3499	3.957	1.1875	-2.5555	-1.5652	-2.3834	6.5922	-0.8015	3.5332	2.3582
-3.6926	-4.8382	-4.2088	-2.6814	-2.9121	-3.0758	-0.1637	0.0713	0.5245	1.7582	2.5303	2.5093	4.0283	1.1833	-2.3415	-1.3134	-2.375	6.5796	-0.6714	3.6087	2.438
-3.5751	-4.6955	-4.0619	-2.4632	-2.7611	-2.9037	-0.0084	0.2014	0.684	1.8967	2.6772	2.6855	4.1248	1.1539	-2.1946	-1.1162	-2.3331	6.5502	-0.5581	3.6674	2.5345
-3.3611	-4.578	-3.9108	-2.2743	-2.6142	-2.7527	0.1427	0.3651	0.8308	1.9932	2.8198	2.8114	4.192	1.133	-1.9596	-0.8392	-2.2743	6.5208	-0.4154	3.7136	2.6226
-3.231	-4.4437	-3.7388	-2.0771	-2.4548	-2.6226	0.2895	0.4993	0.9735	2.1149	2.9247	2.9373	4.2591	1.0952	-1.7834	-0.5959	-2.2114	6.5041	-0.3105	3.7807	2.6939
-3.0464	-4.3053	-3.5625	-1.8757	-2.2785	-2.4673	0.4574	0.6336	1.1497	2.2072	3.0254	3.0548	4.3179	1.0574	-1.582	-0.3525	-2.1442	6.4369	-0.1846	3.8269	2.7863
-2.8996	-4.1962	-3.4031	-1.6575	-2.1484	-2.3163	0.6001	0.7469	1.2672	2.3205	3.1261	3.1555	4.3472	1.0365	-1.3721	-0.1175	-2.0813	6.3992	-0.0713	3.8731	2.8702
-2.7485	-4.0619	-3.2604	-1.4687	-1.989	-2.1778	0.7595	0.898	1.4225	2.396	3.2059	3.273	4.3892	0.9945	-1.1665	0.0965	-2.0142	6.3572	0.0378	3.9066	2.9037
-2.5932	-3.936	-3.0842	-1.2966	-1.8799	-2.0477	0.898	0.9903	1.5064	2.5177	3.2562	3.3569	4.4353	0.9567	-1.0071	0.2979	-1.9302	6.311	0.1007	3.9066	2.9499
-2.4422	-3.8227	-2.9541	-1.1288	-1.7414	-1.9512	1.049	1.0658	1.6197	2.5974	3.3024	3.4199	4.4353	0.9441	-0.8266	0.4532	-1.8631	6.2439	0.1385	3.9318	2.9751
-2.3247	-3.6758	-2.8198	-0.9735	-1.6029	-1.8379	1.1581	1.133	1.7162	2.6562	3.3401	3.4828	4.5067	0.9064	-0.684	0.5833	-1.8295	6.2187	0.1972	3.9612	2.9877
-2.2575	-3.5667	-2.7191	-0.8518	-1.4938	-1.7456	1.284	1.2169	1.796	2.7527	3.3695	3.5248	4.5319	0.8896	-0.5959	0.6294	-1.7666	6.16	0.2224	3.978	2.9793
-2.1358	-3.4492	-2.6562	-0.7343	-1.4015	-1.6449	1.4141	1.2547	1.8883	2.8156	3.3737	3.5583	4.5612	0.8518	-0.4868	0.6672	-1.7204	6.1138	0.235	3.9864	2.9667
-2.0897	-3.3695	-2.5848	-0.663	-1.3344	-1.6281	1.4812	1.2882	1.9135	2.866	3.3611	3.6003	4.5361	0.8308	-0.449	0.6798	-1.6701	6.0425	0.2014	3.9906	2.9415
-2.0267	-3.2982	-2.5009	-0.5749	-1.2463	-1.5484	1.5778	1.3344	1.9722	2.8996	3.3401	3.6213	4.5403	0.8057	-0.4112	0.6294	-1.6365	6.0131	0.1804	4.0157	2.9583
-1.9596	-3.1891	-2.4296	-0.5119	-1.1833	-1.519	1.6239	1.347	1.9806	2.9289	3.3192	3.5961	4.5277	0.7931	-0.3902	0.5791	-1.5862	5.925	0.1427	4.0241	2.8786
-1.8967	-3.08	-2.3582	-0.4364	-1.1288	-1.4351	1.733	1.3763	2.0142	3.017	3.294	3.6087	4.5403	0.7805	-0.3777	0.5119	-1.5694	5.9208	0.1385	4.0535	2.8492
-1.8085	-2.9793	-2.2575	-0.3399	-1.0281	-1.3596	1.8463	1.4225	2.1023	3.101	3.3066	3.6423	4.578	0.7763	-0.3986	0.4406	-1.54	5.9124	0.1259	4.1248	2.8324
-1.7204	-2.887	-2.1904	-0.235	-0.9693	-1.305	1.9135	1.4435	2.1317	3.1723	3.2688	3.6381	4.6074	0.7679	-0.3735	0.3609	-1.5358	5.904	0.0965	4.1794	2.8072
-1.6827	-2.7821	-2.0897	-0.1595	-0.9106	-1.2085	2.0393	1.4477	2.1694	3.2478	3.2394	3.6129	4.6074	0.7469	-0.3944	0.2392	-1.5148	5.862	0.0881	4.2213	2.7485
-1.5694	-2.673	-1.968	-0.021	-0.8141	-1.1204	2.1484	1.5022	2.203	3.2982	3.2101	3.6716	4.62	0.7301	-0.407	0.1511	-1.4812	5.883	0.0755	4.2759	2.7149
-1.4687	-2.5639	-1.8505	0.1049	-0.7133	-1.0532	2.2827	1.5316	2.2827	3.3695	3.2143	3.6842	4.6242	0.7217	-0.3819	0.0881	-1.4603	5.8411	0.0839	4.3346	2.6604
-1.3596	-2.4002	-1.7036	0.2518	-0.5875	-0.9148	2.4338	1.6197	2.3499	3.4954	3.2185	3.6842	4.7207	0.7133	-0.3693	0.0755	-1.4519	5.8914	0.1301	4.4479	2.631
-1.2127	-2.2617	-1.5484	0.3944	-0.4826	-0.7847	2.5639	1.6491	2.438	3.5667	3.2185	3.7514	4.7501	0.7175	-0.3063	0.0797	-1.4561	5.9166	0.1762	4.5444	2.5932
-1.0784	-2.1065	-1.3805	0.5665	-0.4028	-0.6672	2.7023	1.6994	2.5093	3.6591	3.2478	3.7682	4.8004	0.7343	-0.2895	0.0336	-1.4519	5.9418	0.256	4.6535	2.589
-0.9567	-1.9806	-1.2295	0.6798	-0.2895	-0.5245	2.7946	1.7624	2.5597	3.764	3.2688	3.8143	4.8508	0.7092	-0.2392	0.0504	-1.4393	5.9586	0.3315	4.7165	2.5597
-0.8183	-1.8379	-1.0784	0.8015	-0.1972	-0.4196	2.8912	1.796	2.6268	3.8311	3.2814	3.8143	4.8592	0.7008	-0.214	0.0587	-1.4351	5.9795	0.407	4.813	2.5387
-0.6546	-1.7036	-0.8728	0.9274	-0.0965	-0.2476	3.0254	1.8925	2.7275	3.8898	3.315	3.8479	4.9137	0.7175	-0.1427	0.1343	-1.4519	5.9921	0.4742	4.8885	2.5597
-0.4993	-1.5484	-0.7385	1.0281	0.0336	-0.1217	3.0506	1.9932	2.7737	3.9989	3.3485	3.9108	4.9557	0.6966	-0.1091	0.1385	-1.4225	6.0047	0.5707	4.9389	2.5848
-0.3693	-1.3847	-0.5959	1.1414	0.1678	0.0336	3.1723	2.0603	2.8912	4.0535	3.3947	3.936	4.9809	0.7008	-0.0504	0.2224	-1.4393	6.0341	0.663	4.9976	2.631
-0.2224	-1.2379	-0.386	1.2421	0.2811	0.1846	3.2101	2.1442	2.9751	4.1122	3.4409	3.9864	5.0228	0.7008	-0.0042	0.2644	-1.4225	6.0173	0.7889	5.0186	2.673
-0.0797	-1.0658	-0.2266	1.3092	0.4028	0.2979	3.2478	2.2072	3.059	4.1836	3.4996	4.0283	5.0228	0.6882	0.0378	0.3189	-1.4057	6.0047	0.9148	5.0228	2.7275
0.1007	-0.8812	-0.0713	1.4183	0.5413	0.4532	3.3108	2.354	3.1597	4.2339	3.6129	4.1039	5.0648	0.684	0.1343	0.4364	-1.4015	6.0467	1.0323	5.0312	2.8408
0.2769	-0.6798	0.1595	1.5274	0.705	0.6336	3.3527	2.4673	3.2856	4.2969	3.6758	4.1878	5.1025	0.6672	0.172	0.5665	-1.3805	6.0509	1.1456	5.0018	2.8912
0.428	-0.4826	0.3021	1.6155	0.8518	0.7931	3.3569	2.5806	3.4367	4.3598	3.7682	4.2507	5.1235	0.6546	0.2728	0.7092	-1.3302	6.0341	1.2211	4.9934	2.9331
0.5875	-0.2979	0.4868	1.6827	0.9945	0.9315	3.3527	2.6981	3.5206	4.3808	3.8395	4.3472	5.1319	0.621	0.3063	0.8476	-1.2798	6.0131	1.3302	4.9599	3.0128
0.7217	-0.0755	0.6168	1.7414	1.1288	1.0742	3.3737	2.8282	3.6507	4.4312	3.9486	4.406	5.1697	0.621	0.4028	0.9861	-1.263	6.0089	1.4561	4.9389	3.0926
0.856	0.0839	0.7679	1.7876	1.263	1.2169	3.3485	2.9289	3.7682	4.4521	4.0325	4.4731	5.1739	0.5749	0.4406	1.0784	-1.1875	5.9711	1.54	4.8592	3.1513
0.9987	0.2728	0.9232	1.8169	1.4099	1.3805	3.3443	3.0926	3.9108	4.4605	4.1122	4.5612	5.1865	0.5539	0.5245	1.1539	-1.1414	5.9082	1.6617	4.7878	3.2017
1.1036	0.4448	1.0616	1.8379	1.54	1.4603	3.3276	3.1723	3.9948	4.4647	4.2255	4.6368	5.1949	0.5203	0.5875	1.2253	-1.0742	5.8578	1.7666	4.7207	3.252
1.2379	0.6336	1.2085	1.8715	1.733	1.6365	3.3443	3.3192	4.1878	4.5361	4.3388	4.7543	5.2326	0.4868	0.6378	1.2756	-1.0071	5.7991	1.8505	4.6494	3.2898
1.3344	0.7805	1.3554	1.9176	1.8715	1.7582	3.3401	3.4492	4.3053	4.5948	4.4312	4.8801	5.2494	0.4532	0.684	1.2966	-0.9567	5.7739	1.9344	4.5906	3.3527
1.4771	0.9357	1.4938	1.9428	2.0016	1.8967	3.3653	3.5835	4.4731	4.6284	4.5361	4.9976	5.2998	0.449	0.7343	1.3386	-0.9232	5.7194	1.9932	4.5403	3.4241
1.5736	1.112	1.6155	1.9554	2.1694	2.0771	3.4157	3.701	4.641	4.6997	4.6577	5.1319	5.3753	0.428	0.7805	1.3512	-0.8854	5.6942	2.0351	4.5067	3.4996
1.6953	1.2421	1.7708	2.01	2.3163	2.224	3.4828	3.8605	4.834	4.7962	4.7836	5.2788	5.4466	0.4196	0.8224	1.284	-0.8644	5.711	2.1023	4.4983	3.5625
1.8295	1.3931	1.926	2.0603	2.4799	2.3834	3.5793	4.0157	5.0396	4.9053	4.9053	5.4298	5.5389	0.3986	0.8938	1.3092	-0.8518	5.732	2.1484	4.4983	3.6003
1.9344	1.5148	2.0603	2.0897	2.61	2.5303	3.6507	4.1206	5.1949	4.9934	5.0144	5.5683	5.6313	0.3902	0.9399	1.2882	-0.8141	5.7571	2.1736	4.4815	3.6633
2.0477	1.6365	2.2114	2.1946	2.7317	2.6939	3.7598	4.2801	5.3921	5.1361	5.1403	5.7362	5.7781	0.386	0.9945	1.2672	-0.7973	5.8285	2.2156	4.4983	3.7136
2.1317	1.7498	2.3582	2.2701	2.8744	2.8618	3.8982	4.3808	5.5557	5.283	5.2578	5.8788	5.8956	0.3777	1.0323	1.2337	-0.7721	5.8998	2.2282	4.5235	3.7514
2.2491	1.8337	2.5009	2.3499	3.0087	3.038	4.0535	4.5151	5.7446	5.4089	5.3837	6.0299	6.0383	0.3441	1.0448	1.1917	-0.7427	5.9711	2.2491	4.5738	3.8185
2.3708	1.9638	2.6562	2.4254	3.1219	3.2101	4.1962	4.6494	5.9669	5.5851	5.518	6.2229	6.2229	0.3525	1.112	1.133	-0.7301	6.097	2.2575	4.6368	3.9192
2.4548	2.0477	2.7946	2.5177	3.2646	3.4073	4.3598	4.7668	6.139	5.7487	5.6229	6.3614	6.3782	0.3399	1.1707	1.1456	-0.7008	6.2061	2.2995	4.7081	3.9822
2.5723	2.1484	2.9457	2.61	3.3737	3.6129	4.5193	4.9221	6.3404	5.9292	5.7697	6.5586	6.546	0.3399	1.2295	1.0994	-0.7133	6.3362	2.3205	4.7752	4.1039
2.6604	2.2324	3.0968	2.7317	3.5122	3.7556	4.6913	5.069	6.4915	6.0802	5.8662	6.7055	6.6929	0.3357	1.2798	1.0826	-0.705	6.4075	2.3205	4.8382	4.1668
2.7863	2.354	3.2143	2.824	3.6507	3.9528	4.8424	5.1907	6.7055	6.2355	5.9963	6.8607	6.8733	0.3483	1.3344	1.0616	-0.7343	6.5334	2.375	4.9011	4.2717
2.8534	2.4254	3.3318	2.9079	3.7514	4.0745	4.9892	5.2578	6.8188	6.3488	6.0635	6.9698	6.9656	0.3567	1.3512	1.0574	-0.7427	6.6006	2.438	4.9557	4.3262
2.9289	2.5051	3.4618	2.9919	3.8563	4.2297	5.1529	5.3837	6.9614	6.4999	6.1935	7.1083	7.1041	0.3777	1.3512	1.0071	-0.7763	6.7265	2.4883	5.0438	4.4144
2.9877	2.5848	3.5919	3.1136	3.9654	4.3724	5.2872	5.5054	7.0789	6.6174	6.2817	7.2258	7.2048	0.3902	1.347	0.9441	-0.8099	6.802	2.5639	5.09	4.4773
3.0926	2.6646	3.6884	3.1933	4.0703	4.4815	5.4005	5.5935	7.1964	6.7223	6.3572	7.3223	7.2929	0.407	1.347	0.9274	-0.8434	6.823	2.61	5.1193	4.5444
3.1303	2.6981	3.7807	3.2604	4.1416	4.5906	5.5138	5.669	7.3139	6.8062	6.4369	7.3601	7.3433	0.3902	1.2714	0.8476	-0.8224	6.8481	2.6604	5.1445	4.6158
3.1723	2.7359	3.8437	3.3318	4.1962	4.6955	5.5977	5.732	7.3601	6.8859	6.4831	7.402	7.423	0.3902	1.1707	0.7889	-0.8266	6.8943	2.7233	5.1361	4.6703
3.2017	2.7905	3.9612	3.4031	4.3137	4.8172	5.711	5.8453	7.4566	6.9908	6.5502	7.4902	7.4818	0.3819	1.0784	0.684	-0.8183	6.9153	2.803	5.1739	4.7459
3.2646	2.866	4.0577	3.5374	4.4018	4.9137	5.8033	5.8998	7.5279	7.037	6.6425	7.5573	7.5531	0.3902	1.0029	0.6504	-0.8057	6.9572	2.8534	5.1823	4.7962
3.3234	2.9457	4.1836	3.6297	4.4857	5.0102	5.8914	5.9795	7.5741	7.0999	6.6887	7.616	7.6035	0.3693	0.8938	0.6042	-0.7679	6.974	2.8996	5.1781	4.8676
3.4115	3.0422	4.2969	3.7514	4.6032	5.1109	6.0005	6.076	7.6874	7.2048	6.8062	7.7084	7.6916	0.3399	0.8392	0.6168	-0.7427	7.0454	2.9541	5.2116	4.9221
3.5206	3.1639	4.4228	3.8815	4.7375	5.2284	6.097	6.1935	7.7671	7.3055	6.9027	7.7923	7.8049	0.3357	0.7973	0.663	-0.705	7.0999	2.9961	5.2662	4.9892
3.6087	3.294	4.557	4.0157	4.834	5.3501	6.2271	6.2859	7.8804	7.402	6.9824	7.8636	7.8804	0.3231	0.7763	0.7427	-0.6546	7.1503	3.0338	5.3123	5.027
3.6884	3.4115	4.6787	4.1542	4.9809	5.4424	6.2984	6.395	7.9601	7.4944	7.0873	7.9727	7.9433	0.2728	0.7343	0.8057	-0.5875	7.2174	3.0464	5.3585	5.0774
3.8185	3.5583	4.8004	4.343	5.1277	5.5389	6.4159	6.5125	8.065	7.6035	7.1377	8.065	8.0734	0.2434	0.7595	0.8938	-0.5287	7.2762	3.0632	5.4089	5.1235
3.8815	3.6339	4.8969	4.4815	5.2326	5.6271	6.5208	6.5838	8.1448	7.7	7.2342	8.1573	8.1573	0.214	0.7259	1.0029	-0.47	7.3181	3.08	5.4592	5.1403
4.0031	3.7598	5.006	4.641	5.3417	5.7068	6.6132	6.6677	8.2245	7.8007	7.3055	8.2119	8.2329	0.1846	0.7847	1.1497	-0.4196	7.3853	3.1094	5.5515	5.1697
4.0829	3.8395	5.1109	4.8298	5.455	5.8117	6.7181	6.7726	8.2916	7.9056	7.3601	8.2874	8.3336	0.1888	0.7805	1.2714	-0.4028	7.4356	3.1387	5.6438	5.1613
4.1248	3.915	5.1613	4.9389	5.5138	5.8495	6.7726	6.8104	8.3378	7.9391	7.402	8.321	8.3839	0.1637	0.7973	1.3931	-0.3525	7.4692	3.1513	5.6984	5.1235
4.2171	3.9612	5.2494	5.0732	5.5683	5.8872	6.8733	6.8649	8.4049	8.0524	7.4314	8.3797	8.4595	0.1637	0.8392	1.5148	-0.3651	7.4818	3.1975	5.7991	5.0983
4.2171	4.0073	5.2914	5.1907	5.6145	5.9124	6.9572	6.9111	8.4385	8.1112	7.4692	8.4133	8.535	0.1804	0.8728	1.5862	-0.3735	7.5195	3.2143	5.8788	5.0564
4.2255	3.9696	5.283	5.2326	5.6271	5.9124	6.9698	6.9069	8.4175	8.1783	7.4524	8.3839	8.5602	0.1804	0.8896	1.6239	-0.3735	7.5447	3.2143	5.946	4.9892
4.2004	3.9486	5.283	5.283	5.6145	5.9166	6.9866	6.9111	8.3839	8.1741	7.4188	8.3797	8.556	0.1846	0.8938	1.6869	-0.3902	7.486	3.2394	6.0047	4.9263
4.1752	3.8898	5.283	5.3249	5.5893	5.9166	6.995	6.8859	8.3839	8.1699	7.3936	8.3462	8.5686	0.1972	0.9106	1.733	-0.4196	7.4566	3.2227	6.0509	4.8508
4.1248	3.7849	5.2536	5.304	5.5557	5.8746	6.9782	6.8523	8.3252	8.1406	7.3265	8.2874	8.5476	0.2182	0.9357	1.7288	-0.4574	7.4734	3.2143	6.097	4.7752
4.0577	3.6758	5.2116	5.283	5.5096	5.8537	6.9782	6.823	8.2874	8.149	7.2803	8.2539	8.5518	0.2224	0.9483	1.7204	-0.4784	7.4524	3.2017	6.139	4.6997
4.0115	3.6129	5.1655	5.2704	5.4718	5.8243	6.9782	6.7558	8.2287	8.1322	7.2258	8.2161	8.5392	0.2602	0.9777	1.7078	-0.5245	7.4482	3.1723	6.181	4.6368
3.894	3.4828	5.1067	5.1991	5.4005	5.732	6.9489	6.6929	8.1322	8.0944	7.1545	8.149	8.4805	0.2644	0.9609	1.6281	-0.5497	7.3936	3.1891	6.2187	4.5696
3.7975	3.3695	4.9976	5.1655	5.3375	5.6942	6.9489	6.6803	8.0818	8.0734	7.0999	8.0734	8.4427	0.2811	0.9693	1.5568	-0.5791	7.3601	3.1597	6.2439	4.4563
3.6716	3.2478	4.9137	5.0522	5.2704	5.6061	6.8607	6.609	7.9559	8.0021	7.0244	7.9769	8.363	0.2811	0.9232	1.4603	-0.5959	7.2762	3.0926	6.2103	4.3892
3.5751	3.1597	4.8172	4.9976	5.2284	5.5641	6.8272	6.5796	7.851	7.9475	6.9405	7.8888	8.321	0.3105	0.8938	1.3512	-0.6504	7.2384	3.1052	6.2229	4.3514
3.4325	3.0254	4.7207	4.855	5.1613	5.4844	6.7558	6.5418	7.7545	7.8972	6.8943	7.8133	8.2413	0.3483	0.8266	1.2043	-0.7008	7.2048	3.0632	6.2271	4.3221
3.315	2.9205	4.6074	4.8046	5.09	5.3711	6.7223	6.4915	7.6412	7.8259	6.823	7.7042	8.1867	0.3567	0.7763	1.0616	-0.7511	7.1377	3.0842	6.2145	4.2843
3.1891	2.8324	4.5109	4.6703	5.0312	5.2746	6.6467	6.4621	7.5363	7.7629	6.7726	7.6412	8.1154	0.407	0.7092	0.9819	-0.8183	7.0663	3.0758	6.2019	4.2801
3.059	2.7653	4.3766	4.5067	5.0312	5.2074	6.5544	6.4705	7.4524	7.7503	6.7558	7.5573	8.0692	0.4238	0.5623	0.856	-0.8854	7.016	3.0254	6.1935	4.2927
2.9541	2.7149	4.2843	4.3808	4.9641	5.1487	6.5125	6.4663	7.3685	7.679	6.7307	7.5195	8.0063	0.47	0.5245	0.7679	-0.9819	6.9656	3.0296	6.1726	4.3346
2.8744	2.7149	4.2297	4.3053	4.985	5.1067	6.4957	6.4999	7.3055	7.6706	6.7474	7.5069	7.9979	0.5203	0.3986	0.6756	-1.0658	6.9405	3.0464	6.1768	4.385
2.8282	2.6981	4.171	4.2088	4.9976	5.0648	6.4453	6.5166	7.251	7.637	6.7768	7.5195	7.9853	0.5665	0.3399	0.6504	-1.1623	6.9447	3.0632	6.2145	4.4605
2.7653	2.7149	4.1248	4.1374	5.0312	5.0606	6.4285	6.5418	7.23	7.6496	6.8104	7.5405	7.9937	0.6042	0.2056	0.5539	-1.2337	6.9363	3.0926	6.2187	4.5067
2.7359	2.7401	4.0871	4.0577	5.0522	5.0438	6.4117	6.6174	7.2342	7.6454	6.8523	7.5489	8.0021	0.6462	0.1427	0.4993	-1.3134	6.9153	3.1345	6.2397	4.599
2.7149	2.8324	4.1039	4.0199	5.1025	5.0648	6.4369	6.7055	7.2426	7.6748	6.9405	7.6077	8.0482	0.684	0.0546	0.4616	-1.3763	6.9405	3.1807	6.2607	4.6997
2.6855	2.8996	4.0913	3.9822	5.1949	5.0858	6.4663	6.7726	7.3013	7.7335	7.0202	7.6832	8.0776	0.6798	-0.0587	0.4448	-1.4015	6.9447	3.2185	6.2984	4.8256
2.7275	3.0087	4.1248	3.9318	5.2704	5.1487	6.4663	6.8439	7.3307	7.7671	7.1083	7.7713	8.128	0.6924	-0.1385	0.428	-1.4183	6.9572	3.273	6.311	4.9431
2.7275	3.1219	4.1416	3.8857	5.2998	5.1949	6.4999	6.9279	7.3895	7.8259	7.2006	7.8342	8.1615	0.6966	-0.2434	0.3567	-1.4141	6.995	3.2898	6.3026	5.0396
2.7569	3.2394	4.2004	3.8815	5.4173	5.2494	6.546	7.0454	7.486	7.8972	7.3265	7.9182	8.2623	0.6924	-0.3441	0.3357	-1.4141	7.0454	3.3611	6.353	5.1697
2.7821	3.3401	4.213	3.8395	5.497	5.2956	6.5754	7.1209	7.5489	7.9895	7.4398	8.0231	8.3042	0.6966	-0.449	0.3147	-1.4015	7.1041	3.3863	6.3572	5.2788
2.8324	3.466	4.2801	3.8353	5.5767	5.3753	6.6257	7.1964	7.637	8.0273	7.5489	8.1448	8.3881	0.684	-0.5203	0.2644	-1.3805	7.1545	3.3947	6.3824	5.3543
2.8618	3.5583	4.3137	3.8059	5.6606	5.4298	6.6383	7.2803	7.7335	8.0944	7.6412	8.2329	8.4888	0.6546	-0.5623	0.2853	-1.3638	7.23	3.4241	6.3908	5.4089
2.9331	3.7388	4.3724	3.8437	5.7655	5.5222	6.7223	7.3811	7.8552	8.1825	7.7839	8.3797	8.6189	0.684	-0.5917	0.2769	-1.3763	7.3265	3.4451	6.4537	5.5347
2.9877	3.8857	4.4312	3.8395	5.883	5.6103	6.7936	7.5069	7.9979	8.3	7.9308	8.5098	8.7322	0.6714	-0.5917	0.2979	-1.3973	7.4272	3.5122	6.5125	5.6355
3.0674	4.0241	4.5151	3.8647	6.0173	5.7278	6.8272	7.6328	8.1028	8.3923	8.0734	8.6483	8.8455	0.6924	-0.5959	0.3105	-1.4141	7.5237	3.55	6.5754	5.7152
3.1345	4.1752	4.5738	3.8815	6.1348	5.7739	6.9069	7.7629	8.2203	8.4805	8.2077	8.7826	8.963	0.7133	-0.5749	0.3273	-1.4267	7.6286	3.5835	6.6174	5.7781
3.2269	4.3262	4.6535	3.9066	6.2607	5.8872	6.9698	7.851	8.3378	8.5812	8.3126	8.9211	9.0763	0.705	-0.5497	0.3525	-1.4351	7.7084	3.6507	6.6761	5.8285
3.2856	4.4479	4.7333	3.9528	6.3656	5.946	7.0412	7.9811	8.4679	8.6609	8.4679	9.0469	9.1644	0.7259	-0.4993	0.3525	-1.4519	7.8217	3.7304	6.7558	5.8998
3.3443	4.5277	4.7501	3.957	6.4663	6.0089	7.0328	8.065	8.5518	8.7532	8.577	9.1602	9.2819	0.705	-0.5077	0.3441	-1.4477	7.8762	3.7933	6.7894	5.9292
3.4073	4.6535	4.8046	3.9822	6.5922	6.0719	7.0999	8.1741	8.6483	8.8329	8.6903	9.3071	9.3784	0.6966	-0.47	0.3273	-1.4351	7.9266	3.8479	6.8104	5.9418
3.487	4.7291	4.8634	4.0451	6.6383	6.1558	7.1293	8.2581	8.749	8.9127	8.7952	9.4456	9.4959	0.7133	-0.449	0.3189	-1.4603	7.9937	3.936	6.8607	5.9795
3.5751	4.8256	4.9473	4.0745	6.7223	6.2103	7.2006	8.3504	8.8833	9.0343	8.9043	9.5966	9.6008	0.7259	-0.407	0.3063	-1.4603	8.0399	4.0115	6.9195	6.0299
3.6549	4.8466	4.9809	4.1542	6.802	6.2859	7.2258	8.4007	8.984	9.1309	9.0469	9.7141	9.6889	0.7175	-0.3609	0.3021	-1.4729	8.1028	4.0577	6.9489	6.0802
3.7514	4.9221	5.0564	4.2004	6.8775	6.3446	7.3013	8.5056	9.0679	9.2274	9.1351	9.8652	9.8064	0.7133	-0.3231	0.3063	-1.4938	8.1573	4.0997	6.9866	6.1096
3.8143	4.9683	5.1151	4.3137	6.9279	6.4159	7.3853	8.5686	9.177	9.37	9.24	10.0079	9.9281	0.7385	-0.256	0.3021	-1.519	8.1825	4.1458	7.0244	6.16
3.8647	4.9473	5.1655	4.3976	6.9698	6.4705	7.4398	8.6231	9.2358	9.4666	9.3365	10.1044	10.0204	0.7259	-0.2056	0.2769	-1.5022	8.2035	4.1752	7.016	6.2061
3.9402	5.0102	5.262	4.4563	7.0034	6.5376	7.5237	8.7029	9.3533	9.6008	9.4288	10.247	10.1002	0.7301	-0.1343	0.2476	-1.5148	8.2413	4.2213	7.0873	6.2355
3.978	4.985	5.2872	4.5277	7.0496	6.5796	7.6035	8.7448	9.4162	9.7141	9.4791	10.3603	10.2177	0.7427	-0.0965	0.2056	-1.5232	8.2623	4.2381	7.1209	6.2565
4.0073	4.9641	5.3417	4.557	7.0663	6.6341	7.6622	8.7658	9.4875	9.8694	9.5715	10.4694	10.3142	0.7259	-0.0797	0.1469	-1.5148	8.3126	4.2255	7.1377	6.2859
4.0325	4.9473	5.3963	4.6074	7.0496	6.6509	7.7126	8.7868	9.5253	9.9743	9.5966	10.5366	10.3897	0.7343	-0.0168	0.0881	-1.5106	8.3252	4.1962	7.1335	6.2481
4.0409	4.8927	5.4173	4.6242	7.0412	6.6677	7.7629	8.7952	9.5421	10.0708	9.6134	10.6331	10.482	0.7343	0.0252	0.0378	-1.519	8.3588	4.1752	7.1964	6.2439
4.0409	4.8172	5.4047	4.6326	6.9824	6.6761	7.7839	8.749	9.5673	10.1883	9.6134	10.6583	10.5492	0.7511	0.042	-0.0671	-1.5106	8.3755	4.1416	7.1922	6.2019
4.0199	4.7249	5.4047	4.6242	6.9489	6.6677	7.8594	8.6987	9.5589	10.2596	9.5924	10.6918	10.6331	0.7385	0.0671	-0.172	-1.5106	8.4049	4.0787	7.2048	6.1348
4.0325	4.641	5.4089	4.6326	6.8356	6.6174	7.8762	8.6357	9.5211	10.3142	9.5295	10.7128	10.6499	0.7343	0.0462	-0.2728	-1.5022	8.4133	4.0283	7.1796	6.0593
3.9528	4.5109	5.3543	4.6074	6.7516	6.5922	7.8762	8.5602	9.4749	10.3687	9.5001	10.7086	10.7086	0.7427	0.0084	-0.3441	-1.4896	8.4343	3.9612	7.1754	5.9544
3.9276	4.4437	5.3375	4.6116	6.6677	6.5292	7.8972	8.4888	9.433	10.4443	9.4204	10.7296	10.738	0.7259	-0.0126	-0.4238	-1.498	8.4301	3.9234	7.1838	5.883
3.8898	4.3262	5.2998	4.5612	6.5838	6.5334	7.9308	8.4175	9.3826	10.4736	9.3575	10.6918	10.759	0.7343	-0.0713	-0.4784	-1.5022	8.4511	3.8857	7.209	5.7613
3.7724	4.1752	5.2284	4.5277	6.4453	6.4495	7.9266	8.2832	9.2693	10.4736	9.2525	10.6373	10.738	0.7553	-0.1595	-0.5623	-1.5106	8.4091	3.8269	7.1838	5.6187
3.7346	4.0871	5.1571	4.4731	6.3236	6.3782	7.914	8.1867	9.198	10.5198	9.1686	10.5827	10.7296	0.7553	-0.2266	-0.5917	-1.5442	8.4049	3.7766	7.1503	5.497
3.6674	3.9864	5.1235	4.4521	6.2061	6.3362	7.9224	8.0776	9.1267	10.5198	9.0805	10.5492	10.7296	0.7763	-0.3105	-0.621	-1.5903	8.3881	3.7849	7.1419	5.3501
3.6339	3.8773	5.0648	4.4018	6.1474	6.3026	7.9475	7.9979	9.0511	10.5576	8.9966	10.5114	10.7296	0.8266	-0.3609	-0.5959	-1.6533	8.3923	3.7556	7.1461	5.2578
3.5877	3.8101	4.9934	4.3766	6.0425	6.2439	7.8972	7.9308	8.9588	10.5408	8.9211	10.4443	10.7338	0.8308	-0.4574	-0.5581	-1.7036	8.3462	3.7178	7.0957	5.1445
3.5625	3.7766	4.9767	4.3556	6.0173	6.2733	7.9475	7.8846	8.9127	10.5534	8.8539	10.4233	10.7338	0.8896	-0.4658	-0.4868	-1.7834	8.3672	3.7052	7.0747	5.0564
3.5332	3.764	4.9557	4.3682	6.0047	6.2607	7.9433	7.83	8.8875	10.5743	8.8245	10.3855	10.717	0.9064	-0.4742	-0.3902	-1.8379	8.321	3.68	7.0454	4.9683
3.5248	3.7598	4.9431	4.3766	5.9921	6.2355	7.9601	7.8217	8.8581	10.5743	8.7574	10.3561	10.7128	0.9357	-0.4448	-0.2602	-1.8841	8.2958	3.6633	7.0118	4.8927
3.5877	3.8185	4.9683	4.4186	6.0425	6.2817	8.0105	7.8091	8.8581	10.5995	8.7616	10.3436	10.717	0.9567	-0.4028	-0.1091	-1.9428	8.2916	3.6087	6.9698	4.8634
3.6297	3.8605	5.0144	4.4731	6.0467	6.3068	8.0482	7.8007	8.8833	10.6163	8.7322	10.3394	10.7128	0.9735	-0.3777	0.0546	-1.9806	8.2497	3.5709	6.9363	4.813
3.6968	3.9276	5.0396	4.5403	6.1306	6.3782	8.1196	7.8007	8.8665	10.6457	8.7238	10.3436	10.7254	0.9987	-0.3189	0.2518	-2.0226	8.2455	3.5625	6.9069	4.7585
3.7388	3.9864	5.0522	4.6284	6.1474	6.3992	8.1573	7.7377	8.8791	10.6289	8.6609	10.2974	10.738	1.0071	-0.256	0.4322	-2.0309	8.1951	3.4786	6.8817	4.6913
3.7766	4.0787	5.1193	4.7123	6.2229	6.4453	8.2287	7.7671	8.9001	10.6457	8.6315	10.2806	10.7254	1.0071	-0.2056	0.6672	-2.0435	8.1532	3.4451	6.8356	4.641
3.8773	4.1836	5.1571	4.8256	6.2649	6.4831	8.2874	7.7545	8.9085	10.6583	8.5812	10.2764	10.7086	1.0071	-0.1259	0.8728	-2.0477	8.107	3.3821	6.7936	4.5822
3.9528	4.2969	5.2032	4.9599	6.3194	6.5208	8.3294	7.7377	8.9127	10.6709	8.5392	10.2177	10.6876	1.0029	-0.0168	1.0784	-2.0435	8.0818	3.3192	6.781	4.5277
4.0157	4.3598	5.2494	5.048	6.353	6.5586	8.4007	7.7168	8.9211	10.6625	8.4846	10.1673	10.6625	0.9945	0.0671	1.2505	-2.0058	8.0021	3.2185	6.76	4.4228
4.0745	4.406	5.2956	5.1781	6.3782	6.5712	8.4385	7.6832	8.8959	10.6289	8.3965	10.117	10.6247	0.9819	0.1427	1.3721	-1.9806	7.9727	3.1345	6.7265	4.3262
4.1416	4.5235	5.3333	5.283	6.4285	6.6132	8.4805	7.6496	8.9127	10.6247	8.3168	10.096	10.5701	0.9525	0.214	1.5106	-1.9302	7.9014	3.059	6.6971	4.2423
4.1836	4.599	5.3711	5.3837	6.4411	6.6299	8.5182	7.6454	8.9001	10.6583	8.2497	10.0456	10.545	0.9357	0.235	1.5862	-1.8673	7.8678	2.9541	6.6887	4.1584
4.213	4.6577	5.4173	5.4634	6.4831	6.6551	8.5602	7.5951	8.8707	10.5911	8.1741	9.9701	10.5198	0.9064	0.2937	1.6533	-1.8127	7.7797	2.8912	6.6257	4.0955
4.2549	4.7081	5.4256	5.5473	6.5292	6.6887	8.5812	7.5783	8.8875	10.5911	8.1448	9.9113	10.4652	0.8686	0.3189	1.6953	-1.7456	7.7042	2.8324	6.6048	4.0199
4.2549	4.771	5.4676	5.5809	6.546	6.7097	8.6147	7.5867	8.9169	10.5995	8.086	9.8904	10.4401	0.8392	0.3357	1.6659	-1.6869	7.6412	2.7569	6.5796	3.9486
4.2843	4.8088	5.4844	5.6438	6.5628	6.6887	8.6441	7.5615	8.9169	10.5953	8.0566	9.8778	10.3939	0.7931	0.3693	1.6617	-1.6281	7.5699	2.7065	6.5754	3.8982
4.3262	4.8424	5.5725	5.6942	6.6048	6.7432	8.6777	7.5657	8.942	10.5911	8.0357	9.8442	10.3729	0.8015	0.3819	1.6575	-1.5903	7.5237	2.673	6.5922	3.9066
4.3472	4.8843	5.5641	5.7362	6.6383	6.7768	8.728	7.5993	8.9588	10.5953	8.0399	9.8484	10.3352	0.7595	0.4028	1.6323	-1.5442	7.4608	2.6478	6.5964	3.9066
4.3388	4.9263	5.6187	5.7236	6.6761	6.7978	8.7322	7.6077	8.9882	10.5911	7.9895	9.8484	10.2974	0.7343	0.4112	1.6281	-1.519	7.423	2.652	6.5922	3.915
4.385	4.9431	5.6313	5.7613	6.7223	6.8356	8.7322	7.6538	9.005	10.6079	8.0273	9.8652	10.2596	0.7259	0.4028	1.5862	-1.4896	7.3853	2.6436	6.6299	3.9192
4.4018	4.9725	5.6606	5.7446	6.7516	6.8565	8.7406	7.6874	9.0595	10.5911	8.0231	9.84	10.2554	0.7133	0.4154	1.6029	-1.4603	7.2762	2.6646	6.6341	3.9696
4.427	5.0018	5.7194	5.7404	6.7978	6.8649	8.7448	7.7251	9.1057	10.5869	8.0482	9.8736	10.2135	0.7133	0.449	1.582	-1.4393	7.209	2.7107	6.6425	4.0241
4.4647	5.0564	5.7529	5.7362	6.8817	6.9153	8.77	7.7881	9.1309	10.5785	8.086	9.9072	10.1673	0.7217	0.4532	1.5945	-1.4477	7.1335	2.803	6.6383	4.0871
4.4899	5.0564	5.7655	5.711	6.9237	6.9363	8.7406	7.8888	9.2106	10.5785	8.1406	9.9239	10.1463	0.7175	0.4658	1.5778	-1.4645	7.0454	2.8492	6.6551	4.1542
4.5319	5.0774	5.7739	5.6606	7.0034	6.9866	8.7154	7.9182	9.2651	10.5911	8.1783	9.9617	10.1128	0.7427	0.4658	1.54	-1.4938	6.9614	2.9625	6.6677	4.2088
4.578	5.1739	5.8578	5.6313	7.1167	7.0621	8.7196	8.0399	9.3239	10.5827	8.2748	10.0204	10.117	0.7469	0.4658	1.5862	-1.5358	6.9069	3.0716	6.6887	4.3053
4.5906	5.2116	5.904	5.6229	7.209	7.1167	8.7154	8.1238	9.3952	10.6205	8.342	10.075	10.1128	0.7595	0.4993	1.582	-1.5778	6.8398	3.1723	6.6803	4.4018
4.6955	5.2872	6.0089	5.6648	7.3349	7.1922	8.749	8.2413	9.5211	10.6709	8.4385	10.1421	10.1212	0.7973	0.5497	1.6323	-1.6281	6.7978	3.2772	6.6929	4.4605
4.771	5.3543	6.0928	5.6816	7.4272	7.3139	8.8161	8.342	9.6344	10.7338	8.5644	10.2806	10.1715	0.8224	0.6042	1.7036	-1.6659	6.7852	3.3905	6.739	4.5612
4.8969	5.4718	6.2229	5.7655	7.5699	7.4566	8.9252	8.4972	9.7813	10.8513	8.6903	10.4023	10.2596	0.8476	0.6756	1.7834	-1.712	6.823	3.5206	6.7978	4.6577
5.0144	5.5725	6.3698	5.8914	7.7377	7.6244	9.0427	8.6567	10.0079	11.0191	8.8455	10.5785	10.4107	0.8644	0.7847	1.9009	-1.7372	6.8775	3.6968	6.8859	4.7668
5.1823	5.7194	6.5544	5.9837	7.8846	7.7881	9.1896	8.8455	10.1631	11.166	9.005	10.759	10.5408	0.8644	0.9022	2.0519	-1.7624	6.9363	3.8773	6.9698	4.8969
5.3753	5.8578	6.7348	6.1516	8.0608	7.9685	9.3784	9.0385	10.4065	11.3632	9.1938	10.9604	10.6834	0.877	1.0574	2.2114	-1.7792	7.0202	4.0997	7.0747	5.0144
5.5725	6.0131	6.9782	6.3362	8.2161	8.2077	9.5757	9.2316	10.6541	11.5688	9.4078	11.2038	10.8723	0.877	1.2085	2.354	-1.8002	7.1209	4.2927	7.209	5.1781
5.7865	6.1642	7.1712	6.525	8.4385	8.4595	9.7687	9.4582	10.9142	11.8038	9.6008	11.4471	11.0737	0.9022	1.3596	2.5555	-1.8211	7.2258	4.4731	7.3181	5.3249
5.9963	6.3236	7.3936	6.739	8.6063	8.6609	10.0288	9.6638	11.145	12.0346	9.8274	11.6444	11.2625	0.8938	1.5442	2.7275	-1.8253	7.3181	4.6535	7.423	5.4592
6.1977	6.4915	7.6118	6.9656	8.7574	8.8959	10.2638	9.8568	11.4052	12.2612	9.9953	11.8835	11.4471	0.898	1.6827	2.9289	-1.8421	7.4314	4.7962	7.5321	5.5599
6.4075	6.6257	7.8342	7.1922	8.942	9.1393	10.4904	10.0372	11.6695	12.5004	10.1925	12.1269	11.6402	0.9357	1.8463	3.1178	-1.8757	7.5783	4.9389	7.6706	5.6858
6.5838	6.7768	8.0147	7.3895	9.0679	9.3407	10.738	10.1883	11.8877	12.7018	10.3855	12.3283	11.8584	0.9274	1.9596	3.252	-1.8925	7.7209	5.0396	7.7839	5.8243
6.7516	6.9153	8.2329	7.6035	9.2064	9.5673	10.952	10.3519	12.1185	12.9284	10.5576	12.5549	12.043	0.9693	2.1442	3.4199	-1.9554	7.8846	5.1529	7.9643	5.883
6.9237	7.0328	8.4007	7.7923	9.3323	9.7519	11.1702	10.4778	12.3535	13.1382	10.6834	12.7312	12.2444	1.0029	2.2869	3.5583	-1.9974	7.9937	5.2326	8.0944	5.9795
7.0496	7.1293	8.556	7.9224	9.3742	9.9365	11.3422	10.5701	12.5214	13.3396	10.8051	12.9116	12.3745	1.0323	2.3834	3.6549	-2.0645	8.086	5.2494	8.2161	6.0467
7.209	7.2216	8.7238	8.086	9.4917	10.117	11.5437	10.6709	12.7144	13.5159	10.9016	13.0669	12.5885	1.0742	2.4799	3.7136	-2.1568	8.2497	5.2998	8.3546	6.1138
7.2971	7.272	8.8455	8.2119	9.5379	10.2303	11.657	10.7338	12.8277	13.6375	10.9772	13.2053	12.706	1.1036	2.5764	3.7598	-2.2156	8.3462	5.3082	8.4511	6.139
7.3895	7.3055	8.942	8.3126	9.5924	10.3855	11.8164	10.7841	12.9913	13.7928	11.0611	13.3228	12.8445	1.1288	2.6352	3.8101	-2.2869	8.4133	5.3207	8.5686	6.1432
7.4356	7.2803	8.9756	8.4133	9.5924	10.4904	11.9213	10.8303	13.0753	13.9061	11.1115	13.4361	12.9787	1.1539	2.7107	3.8185	-2.3373	8.4888	5.3165	8.6693	6.139
7.4986	7.3055	9.0721	8.4511	9.6092	10.5701	12.0178	10.8513	13.176	14.0026	11.1492	13.5117	13.0585	1.1959	2.7359	3.8437	-2.4002	8.514	5.2956	8.7406	6.118
7.4986	7.2636	9.1267	8.514	9.5673	10.6121	12.0598	10.8429	13.2431	14.0907	11.1492	13.5494	13.1172	1.1959	2.7821	3.8185	-2.4128	8.5728	5.2242	8.7742	6.0802
7.5279	7.23	9.1393	8.5182	9.5463	10.6499	12.1353	10.8261	13.2809	14.1327	11.145	13.5914	13.1844	1.2043	2.8408	3.8437	-2.4464	8.5728	5.1949	8.8036	6.0425
7.5867	7.1754	9.219	8.6189	9.5001	10.717	12.1857	10.8177	13.3606	14.1998	11.1534	13.6585	13.2221	1.2295	2.8996	3.8815	-2.4841	8.5938	5.1613	8.8539	6.0467
7.6077	7.1377	9.219	8.6399	9.4666	10.7422	12.1941	10.8051	13.3648	14.2292	11.1618	13.6795	13.2599	1.2505	2.9205	3.936	-2.5135	8.5938	5.09	8.9169	5.9879
7.5909	7.1125	9.2484	8.6357	9.412	10.7632	12.215	10.7674	13.3816	14.225	11.145	13.6627	13.2683	1.2505	2.9625	3.9696	-2.5387	8.5686	5.0186	8.9085	5.8956
7.6286	7.0999	9.2693	8.6567	9.3784	10.7632	12.2192	10.738	13.3984	14.2334	11.1324	13.7089	13.2935	1.263	3.038	4.0787	-2.5639	8.5812	5.0186	8.9294	5.8788
7.6035	7.0538	9.2651	8.6525	9.3281	10.7464	12.1731	10.6918	13.3942	14.1788	11.0905	13.6795	13.2599	1.2756	3.038	4.15	-2.5764	8.5518	4.9389	8.9294	5.7781
7.6286	7.0538	9.2777	8.6357	9.3029	10.7338	12.1563	10.6709	13.3774	14.1705	11.0695	13.6795	13.2515	1.2882	3.101	4.2171	-2.6016	8.5308	4.9221	8.9588	5.7613
7.6035	6.9908	9.2358	8.5896	9.2735	10.7254	12.0934	10.6457	13.3228	14.1159	11.0317	13.625	13.2095	1.3008	3.1094	4.2843	-2.6436	8.4763	4.8801	8.9294	5.6858
7.5531	6.9782	9.1728	8.5182	9.219	10.6667	12.0388	10.5785	13.2767	14.032	10.973	13.5494	13.134	1.3218	3.1303	4.364	-2.6562	8.4217	4.8046	8.8665	5.5851
7.5279	6.9447	9.1351	8.4595	9.1938	10.6205	11.9759	10.5534	13.2179	13.9355	10.9436	13.5075	13.0669	1.3302	3.1387	4.4605	-2.7065	8.3839	4.7962	8.8287	5.518
7.486	6.9279	9.0721	8.3378	9.156	10.5618	11.8626	10.524	13.1214	13.8222	10.8765	13.4193	12.962	1.3428	3.1723	4.5277	-2.7065	8.3168	4.7752	8.7616	5.434
7.4272	6.8901	8.9798	8.2371	9.1015	10.4527	11.7493	10.461	13.0081	13.6837	10.7925	13.327	12.8696	1.368	3.1891	4.6032	-2.7401	8.2497	4.7039	8.6861	5.3249
7.3391	6.8901	8.9294	8.1238	9.0931	10.3729	11.6444	10.4317	12.9242	13.5494	10.7464	13.2347	12.7605	1.3638	3.2227	4.7081	-2.7569	8.1783	4.6871	8.6063	5.2662
7.2929	6.8649	8.8245	8.0315	9.0469	10.2806	11.5353	10.3519	12.8109	13.4235	10.6792	13.1424	12.6389	1.3638	3.2269	4.7543	-2.7611	8.107	4.6745	8.5182	5.2158
7.2636	6.8775	8.749	7.9433	9.0469	10.247	11.4597	10.3477	12.727	13.3102	10.6163	13.0585	12.5759	1.3596	3.273	4.855	-2.7569	8.0566	4.6619	8.4595	5.1655
7.23	6.8691	8.6861	7.8552	9.0302	10.1547	11.359	10.3142	12.6305	13.1927	10.5492	12.9578	12.4752	1.3721	3.3401	4.9431	-2.7527	8.0105	4.6619	8.363	5.09
7.2342	6.8901	8.6357	7.8384	9.0008	10.1002	11.3255	10.2764	12.5465	13.1004	10.4694	12.8654	12.4081	1.347	3.3653	5.069	-2.7233	7.9517	4.6955	8.3084	5.048
7.2006	6.9237	8.6063	7.8259	9.0176	10.0414	11.3003	10.2428	12.471	13.0291	10.461	12.8067	12.3032	1.3302	3.4073	5.1277	-2.7065	7.9475	4.6745	8.2287	4.9892
7.2258	6.9321	8.5854	7.8426	9.0008	10.033	11.3003	10.2261	12.4165	12.9829	10.3645	12.748	12.2738	1.3302	3.4744	5.2074	-2.6939	7.914	4.6619	8.1993	4.9221
7.2216	6.974	8.5686	7.8468	9.0092	9.9953	11.2877	10.1967	12.3409	12.9368	10.3226	12.6934	12.2025	1.3176	3.5164	5.2746	-2.6562	7.8846	4.6955	8.1448	4.855
7.2552	6.995	8.556	7.9517	9.0385	9.9785	11.3255	10.1925	12.3074	12.8864	10.2638	12.6221	12.1353	1.3176	3.6129	5.3207	-2.6562	7.8678	4.6787	8.107	4.7962
7.3181	7.0244	8.5644	8.0357	9.0176	9.9701	11.3422	10.1589	12.2612	12.878	10.2093	12.5549	12.0892	1.3218	3.6465	5.3543	-2.6478	7.8426	4.6787	8.0776	4.7165
7.3307	6.9908	8.556	8.0776	9.0553	9.9323	11.38	10.1295	12.2108	12.8277	10.1128	12.4668	12.0304	1.3218	3.6591	5.3459	-2.6436	7.8007	4.6619	8.0441	4.6368
7.3559	7.037	8.5728	8.1615	9.0595	9.9407	11.4136	10.117	12.2066	12.8193	10.0876	12.4081	11.9843	1.3218	3.7052	5.3543	-2.6478	7.7755	4.6577	8.0524	4.6032
7.3685	7.0034	8.5686	8.2161	9.0218	9.9072	11.4513	10.075	12.1689	12.7983	9.9617	12.3577	11.9129	1.3092	3.743	5.3165	-2.6436	7.7461	4.599	8.0441	4.5654
7.3643	6.9489	8.514	8.2916	8.984	9.8736	11.4639	10.0246	12.1101	12.7354	9.8862	12.2612	11.8416	1.2966	3.743	5.3459	-2.6352	7.7126	4.5654	8.0566	4.4899
7.3475	6.8817	8.4763	8.2916	8.9043	9.8358	11.4262	9.9491	12.0598	12.7018	9.7771	12.1437	11.7702	1.305	3.7849	5.3165	-2.6226	7.6832	4.5151	8.0147	4.4186
7.3559	6.8146	8.4595	8.3378	8.8749	9.7939	11.4304	9.882	12.0136	12.664	9.6931	12.0724	11.7199	1.2966	3.8185	5.3417	-2.6016	7.6664	4.4773	8.0357	4.385
7.2929	6.7139	8.3881	8.3168	8.8161	9.7309	11.4136	9.8232	11.9717	12.6095	9.5798	11.9675	11.6234	1.2672	3.8563	5.3795	-2.5764	7.6286	4.3892	8.0231	4.2927
7.272	6.6509	8.3755	8.3168	8.728	9.7057	11.38	9.7771	11.9381	12.5717	9.5085	11.9171	11.5814	1.284	3.9066	5.434	-2.5932	7.6035	4.3724	8.0147	4.2633
7.2132	6.525	8.3042	8.2706	8.6147	9.647	11.3297	9.6638	11.8793	12.5004	9.4078	11.8332	11.4891	1.2756	3.9192	5.4592	-2.5555	7.5615	4.3011	8.0147	4.2213
7.1209	6.3908	8.2035	8.1867	8.4805	9.5589	11.2499	9.5757	11.8248	12.4374	9.2693	11.7702	11.3926	1.2672	3.9024	5.455	-2.5513	7.5321	4.2004	7.9895	4.129
7.0412	6.2943	8.1154	8.1238	8.3714	9.5001	11.1912	9.5169	11.8038	12.3745	9.198	11.6863	11.3338	1.2756	3.9066	5.4634	-2.5723	7.5111	4.1584	7.9937	4.0451
6.9614	6.139	8.0357	8.0399	8.2329	9.4162	11.1282	9.4204	11.7535	12.3493	9.0847	11.636	11.2667	1.2756	3.8479	5.4424	-2.5806	7.486	4.0787	7.9853	3.9654
6.8398	5.9586	7.9601	7.914	8.1028	9.3281	11.0821	9.3449	11.7115	12.299	8.9882	11.573	11.2164	1.284	3.7472	5.3795	-2.5932	7.4566	4.0325	7.9937	3.8982
6.7642	5.8285	7.8468	7.8468	7.9895	9.2819	11.0233	9.2861	11.6989	12.2738	8.9294	11.5227	11.1954	1.2966	3.6842	5.3249	-2.6142	7.4692	3.9822	8.0021	3.8437
6.6299	5.6396	7.7168	7.7545	7.8133	9.1854	10.9604	9.198	11.6318	12.236	8.8455	11.4597	11.1156	1.3218	3.5542	5.2284	-2.631	7.4062	3.9276	7.9643	3.7472
6.4831	5.4466	7.6244	7.6496	7.6454	9.0721	10.8219	9.1015	11.5646	12.1521	8.7322	11.38	11.0443	1.3218	3.4283	5.1277	-2.6562	7.3643	3.8857	7.9308	3.6758
6.374	5.2662	7.5153	7.5447	7.5279	9.0092	10.7422	9.0134	11.5311	12.1227	8.6903	11.338	10.9898	1.3344	3.3192	5.0396	-2.6855	7.3097	3.8773	7.9391	3.6003
6.2187	5.0858	7.402	7.4104	7.3936	8.9127	10.6792	8.9211	11.4429	12.0514	8.5686	11.2499	10.9226	1.347	3.1261	4.9641	-2.7191	7.2468	3.8353	7.9266	3.4996
6.1054	4.9221	7.2845	7.3391	7.2762	8.8036	10.5995	8.8371	11.3968	12.0136	8.4972	11.2038	10.8555	1.3805	2.9919	4.8969	-2.7779	7.2174	3.8185	7.8888	3.4115
6.0089	4.7836	7.1712	7.2258	7.1461	8.7112	10.5156	8.7364	11.3255	11.9423	8.3714	11.145	10.7925	1.3931	2.866	4.8046	-2.8072	7.1503	3.7975	7.872	3.3443
5.883	4.5948	7.058	7.1209	6.9866	8.6231	10.4149	8.6399	11.2667	11.871	8.3042	11.0695	10.7338	1.4141	2.7023	4.7417	-2.845	7.0747	3.7724	7.851	3.2352
5.8075	4.4647	6.9782	7.058	6.9027	8.5476	10.3729	8.5308	11.187	11.8122	8.1951	10.9814	10.6709	1.4603	2.6268	4.7291	-2.9163	7.0286	3.7849	7.8552	3.1178
5.669	4.2969	6.823	6.953	6.7684	8.4217	10.2764	8.4007	11.0653	11.7073	8.0399	10.8681	10.5576	1.4645	2.4757	4.6703	-2.9415	6.9237	3.6884	7.8049	2.9835
5.6229	4.1794	6.7684	6.9363	6.6803	8.3336	10.268	8.3168	11.0065	11.6737	7.9601	10.7925	10.5366	1.5022	2.4002	4.6745	-3.0212	6.9153	3.7052	7.8217	2.8744
5.5264	4.0409	6.6719	6.9195	6.5712	8.279	10.2345	8.2161	10.9226	11.6444	7.8217	10.717	10.4862	1.5232	2.2953	4.6535	-3.0464	6.8481	3.6297	7.8049	2.7737
5.4886	3.936	6.6425	6.9195	6.5208	8.2455	10.2386	8.149	10.8723	11.6402	7.7797	10.6876	10.4694	1.5526	2.224	4.6787	-3.1052	6.8314	3.6171	7.8342	2.673
5.4886	3.8647	6.5796	6.9111	6.4789	8.2035	10.2177	8.1028	10.8261	11.5982	7.6874	10.6457	10.4401	1.5484	2.2072	4.7081	-3.1303	6.8146	3.5919	7.8342	2.6226
5.497	3.8059	6.5628	6.9405	6.4411	8.1573	10.2303	8.0608	10.7925	11.6234	7.6874	10.6205	10.4275	1.5736	2.2156	4.7375	-3.1471	6.802	3.5458	7.8846	2.6142
5.5012	3.7807	6.5586	6.9656	6.4495	8.1657	10.289	8.0566	10.8009	11.6528	7.658	10.6205	10.4443	1.5778	2.2408	4.813	-3.1555	6.8188	3.5374	7.9224	2.6142
5.5347	3.7682	6.588	6.9614	6.4537	8.2035	10.3142	8.0944	10.8429	11.6779	7.6706	10.6373	10.4988	1.5778	2.3163	4.9011	-3.1639	6.8104	3.5667	7.9643	2.6352
5.5809	3.7807	6.6216	7.0076	6.4663	8.2119	10.3729	8.1322	10.8639	11.6905	7.7	10.6583	10.4988	1.5694	2.4086	5.006	-3.1387	6.8146	3.5835	7.9685	2.652
5.6313	3.8395	6.6509	6.995	6.5418	8.2455	10.4191	8.1657	10.8932	11.7409	7.7377	10.6792	10.524	1.5736	2.4883	5.1025	-3.1387	6.823	3.6381	8.0021	2.7275
5.6816	3.8563	6.7013	7.037	6.588	8.2958	10.4778	8.2413	10.9184	11.787	7.7629	10.7212	10.5324	1.5442	2.5303	5.2158	-3.1261	6.8146	3.6716	8.0273	2.7737
5.7571	3.9402	6.7223	7.0412	6.6845	8.363	10.5492	8.3126	10.994	11.8248	7.8133	10.78	10.5534	1.5568	2.6352	5.2956	-3.1178	6.802	3.7682	8.0315	2.8324
5.8117	4.0535	6.7978	7.0915	6.7516	8.4175	10.5995	8.363	11.0149	11.8584	7.8384	10.7967	10.5743	1.5358	2.7233	5.3585	-3.0968	6.781	3.8311	8.0566	2.8492
5.8788	4.1374	6.8523	7.1461	6.8398	8.4343	10.6457	8.4133	11.0485	11.8877	7.8804	10.8135	10.6079	1.5484	2.8072	5.4718	-3.1052	6.7726	3.9192	8.0818	2.8996
5.9376	4.2213	6.8775	7.1419	6.9111	8.4595	10.6583	8.4595	11.0779	11.8919	7.872	10.8093	10.5911	1.5274	2.8744	5.5054	-3.08	6.7432	3.9444	8.0566	2.887
5.946	4.2759	6.8859	7.1629	6.9279	8.4511	10.7128	8.4972	11.0905	11.9087	7.8468	10.7967	10.5785	1.5274	2.9289	5.5599	-3.0674	6.7474	3.9989	8.0734	2.8996
5.9921	4.3556	6.8901	7.1754	6.9489	8.4469	10.7044	8.493	11.0947	11.8961	7.8384	10.78	10.5366	1.5064	2.9919	5.6313	-3.0338	6.7181	4.0199	8.086	2.9163
6.0089	4.4018	6.8859	7.1712	7.0034	8.4553	10.696	8.4846	11.1031	11.9129	7.7881	10.7632	10.5198	1.5106	3.0674	5.7278	-3.0296	6.7013	4.0325	8.0986	2.9121
6.0173	4.4395	6.8607	7.1503	6.9824	8.4175	10.6834	8.4511	11.0485	11.8835	7.7084	10.7002	10.4946	1.4854	3.1136	5.7949	-2.9877	6.6551	3.9948	8.0818	2.866
5.9837	4.4102	6.8188	7.1125	6.9153	8.3714	10.6625	8.3965	10.9982	11.8332	7.616	10.6121	10.4359	1.4645	3.1639	5.8201	-2.9331	6.6383	3.9612	8.0357	2.8282
5.9711	4.385	6.76	7.0789	6.8817	8.3042	10.6079	8.3504	10.9394	11.7954	7.5153	10.5408	10.3855	1.4309	3.1723	5.8914	-2.8786	6.6257	3.9486	8.0273	2.7821
5.9586	4.3808	6.6971	7.1041	6.8607	8.2497	10.5785	8.279	10.9016	11.7744	7.4482	10.482	10.3771	1.4057	3.2436	5.925	-2.8366	6.6132	3.8689	8.0021	2.7233
5.8998	4.2927	6.6299	7.0663	6.7474	8.1783	10.5156	8.2035	10.8219	11.7451	7.3349	10.3729	10.3016	1.3973	3.2646	6.0047	-2.7905	6.567	3.8143	7.9308	2.6688
5.862	4.2255	6.5586	7.0328	6.6467	8.0986	10.461	8.1028	10.7464	11.6863	7.2342	10.3016	10.2554	1.3973	3.3108	6.0131	-2.7863	6.5376	3.7472	7.8846	2.6016
5.7697	4.0913	6.4537	7.0034	6.5125	8.0105	10.4191	7.9643	10.6499	11.6402	7.1083	10.1799	10.1799	1.3763	3.2856	6.0257	-2.7569	6.4999	3.68	7.8552	2.4883
5.69	3.9318	6.353	6.9405	6.3782	7.9266	10.3352	7.8552	10.5701	11.5814	7.0118	10.0834	10.1002	1.3638	3.273	6.0131	-2.7359	6.4621	3.6087	7.7881	2.4296
5.5725	3.7682	6.2103	6.8356	6.2313	7.8133	10.2554	7.7251	10.4485	11.5059	6.8817	9.9659	10.0372	1.3428	3.2017	5.9669	-2.7065	6.4159	3.5332	7.7042	2.3079
5.4508	3.5919	6.097	6.7642	6.0383	7.6664	10.1757	7.5783	10.3477	11.4094	6.7432	9.84	9.9407	1.3344	3.1933	5.9334	-2.6855	6.3572	3.4157	7.6412	2.2072
5.3375	3.4241	5.9669	6.6761	5.9082	7.5825	10.1128	7.4776	10.247	11.3464	6.6425	9.7435	9.8526	1.326	3.1429	5.9082	-2.6772	6.3068	3.336	7.5573	2.1107
5.2074	3.2017	5.8327	6.5796	5.7362	7.4482	9.9869	7.2845	10.096	11.2331	6.5334	9.6176	9.7435	1.3302	3.08	5.8662	-2.673	6.181	3.2143	7.4944	2.01
5.1403	3.0422	5.732	6.4999	5.5935	7.3349	9.9197	7.1712	10.0079	11.1408	6.4159	9.5085	9.6344	1.3386	3.0422	5.8201	-2.6897	6.1306	3.1597	7.4314	1.9344
5.0102	2.8954	5.6313	6.3908	5.4634	7.272	9.8484	7.0538	9.9239	11.0779	6.353	9.3994	9.5547	1.3386	2.9625	5.7697	-2.7023	6.0886	3.0674	7.3769	1.8715
4.9431	2.7695	5.5347	6.3068	5.3333	7.2006	9.7729	6.9405	9.8232	10.952	6.2607	9.2777	9.4582	1.3386	2.9079	5.7236	-2.7149	6.0089	3.0212	7.3391	1.8337
4.8927	2.6814	5.4802	6.2355	5.2536	7.1629	9.7351	6.8481	9.7225	10.8681	6.1852	9.177	9.3658	1.3386	2.8702	5.7194	-2.7275	5.9166	2.9751	7.2929	1.7792
4.8676	2.5681	5.4424	6.2271	5.1529	7.1125	9.7267	6.7726	9.6344	10.7883	6.1222	9.0805	9.2987	1.3805	2.8366	5.7446	-2.7737	5.8746	2.9289	7.2426	1.7246
4.855	2.5219	5.4047	6.2145	5.1067	7.1251	9.7057	6.7348	9.5798	10.7632	6.0928	9.0511	9.219	1.3763	2.7946	5.7529	-2.7946	5.8033	2.887	7.2258	1.7162
4.834	2.5009	5.4131	6.2229	5.069	7.1377	9.7267	6.6845	9.5463	10.7464	6.0635	8.9966	9.1686	1.4183	2.7905	5.7571	-2.8492	5.8075	2.866	7.2426	1.6953
4.855	2.459	5.4466	6.2439	5.0396	7.1545	9.7393	6.6509	9.5085	10.7254	6.0509	8.9462	9.1309	1.4225	2.7863	5.8411	-2.8954	5.7781	2.824	7.2468	1.6827
4.8634	2.4632	5.4466	6.2943	5.0186	7.1838	9.7771	6.6299	9.4833	10.7254	6.0215	8.8875	9.0931	1.4645	2.7779	5.8998	-2.9373	5.7865	2.8072	7.2426	1.6491
4.8969	2.4422	5.4802	6.3446	4.9892	7.1964	9.8274	6.6048	9.4414	10.6918	6.0341	8.8413	9.0343	1.4645	2.7821	5.9711	-2.9793	5.7446	2.7485	7.251	1.6533
4.9263	2.438	5.5096	6.3824	4.9767	7.2006	9.8694	6.5796	9.3742	10.675	6.0089	8.7994	8.9882	1.4854	2.8114	6.0425	-3.0003	5.7236	2.673	7.2342	1.5862
4.9389	2.438	5.5389	6.4243	4.9641	7.2342	9.9197	6.5922	9.3742	10.6709	5.9753	8.7574	8.9504	1.4896	2.8156	6.1348	-3.017	5.732	2.6352	7.2552	1.5778
4.9767	2.4212	5.5641	6.5334	4.9347	7.2552	9.9449	6.567	9.3407	10.6625	5.9628	8.7154	8.9169	1.5064	2.8198	6.2397	-3.038	5.732	2.589	7.2552	1.561
5.0354	2.4548	5.6313	6.6299	4.9557	7.3013	10.0246	6.588	9.3239	10.6876	5.9753	8.7238	8.8833	1.5232	2.8534	6.3488	-3.0464	5.7362	2.5806	7.272	1.54
5.1361	2.5177	5.6984	6.7516	4.9976	7.3475	10.1044	6.6006	9.3197	10.7086	6.0131	8.6861	8.9043	1.5316	2.9625	6.4537	-3.0884	5.732	2.5848	7.3055	1.5232
5.1781	2.5009	5.7362	6.8314	4.9976	7.3601	10.1589	6.5796	9.2903	10.7002	6.0047	8.6651	8.8833	1.5358	3.0087	6.5376	-3.0884	5.7613	2.6016	7.3223	1.519
5.2788	2.5639	5.8159	7.0118	5.0354	7.4062	10.2722	6.6425	9.3071	10.7758	6.0341	8.6651	8.8917	1.561	3.0968	6.6803	-3.1345	5.7949	2.6142	7.3769	1.5484
5.3417	2.6226	5.883	7.1083	5.069	7.4566	10.3645	6.6383	9.3197	10.7883	6.0551	8.6483	8.9001	1.5526	3.1975	6.7768	-3.1471	5.8075	2.61	7.4356	1.5358
5.4256	2.673	5.9544	7.272	5.09	7.5153	10.4568	6.6383	9.3113	10.8345	6.0551	8.6693	8.9169	1.6071	3.273	6.8817	-3.2059	5.8495	2.631	7.5069	1.5526
5.5431	2.7946	6.0635	7.4902	5.1655	7.5573	10.5827	6.7013	9.3197	10.9058	6.0886	8.7196	8.963	1.6617	3.4241	7.016	-3.3024	5.9208	2.6562	7.616	1.582
5.6145	2.8492	6.139	7.6202	5.2116	7.6202	10.6918	6.7223	9.3449	10.9562	6.1138	8.6945	9.0008	1.6785	3.5709	7.1251	-3.3779	5.9795	2.6688	7.6748	1.6197
5.6774	2.9121	6.1768	7.7209	5.2368	7.6454	10.7632	6.739	9.3575	10.994	6.1096	8.6945	9.0176	1.7078	3.6884	7.1964	-3.4325	6.0173	2.6814	7.7126	1.5987
5.7865	3.0128	6.2439	7.872	5.3123	7.6706	10.8681	6.7684	9.37	11.0107	6.1138	8.7029	9.026	1.7498	3.8479	7.3433	-3.529	6.0467	2.6772	7.8133	1.5903
5.8033	3.0338	6.2649	7.9266	5.3501	7.6622	10.8891	6.7642	9.3407	11.0695	6.1222	8.6777	9.0511	1.7792	3.9864	7.4272	-3.5793	6.0802	2.6897	7.8636	1.6071
5.8495	3.0716	6.2649	7.9979	5.3627	7.6328	10.9562	6.7642	9.3071	11.1115	6.0677	8.6609	9.0511	1.796	4.129	7.5405	-3.6087	6.0802	2.6688	7.9224	1.5862
5.8704	3.1136	6.2607	8.0063	5.3627	7.5909	10.9856	6.7223	9.2567	11.1073	6.0341	8.6231	9.0511	1.8085	4.2633	7.637	-3.6255	6.0844	2.6688	7.9308	1.561
5.9166	3.1387	6.2565	8.0273	5.3543	7.5531	11.0191	6.7139	9.2232	11.1031	6.0005	8.5854	9.0385	1.8085	4.4395	7.7545	-3.6297	6.0719	2.6646	7.9643	1.5526
5.9208	3.1681	6.2397	8.0231	5.3711	7.5027	11.0107	6.7013	9.198	11.1282	5.9418	8.5854	9.0343	1.8085	4.5864	7.851	-3.6003	6.0467	2.7191	7.9727	1.5106
5.946	3.2059	6.2187	8.0231	5.3669	7.4776	11.0233	6.6719	9.1644	11.1282	5.9418	8.5938	9.0427	1.8002	4.7626	7.9727	-3.5961	6.0551	2.7653	7.9937	1.5148
5.9166	3.1681	6.1558	7.9517	5.3543	7.3853	10.9898	6.6677	9.1141	11.0737	5.9124	8.5266	8.963	1.7624	4.8801	8.086	-3.5416	5.9628	2.7737	7.9475	1.4812
5.9376	3.2143	6.1516	7.935	5.3837	7.3349	11.0107	6.6551	9.1015	11.0863	5.8662	8.5308	8.9756	1.7792	4.9976	8.1741	-3.5374	5.9208	2.8156	7.935	1.4854
5.9586	3.2688	6.1096	7.8762	5.4047	7.3097	11.0065	6.6467	9.0427	11.0653	5.8327	8.5098	8.9504	1.7498	5.0941	8.2287	-3.508	5.8411	2.866	7.9308	1.4812
5.946	3.2856	6.097	7.8217	5.4382	7.2174	10.9646	6.6174	8.9924	11.0233	5.8243	8.4846	8.9211	1.7456	5.1823	8.3042	-3.4744	5.7571	2.8912	7.8678	1.4519
5.883	3.2856	6.0215	7.6832	5.4005	7.1251	10.931	6.5754	8.9252	10.952	5.732	8.4301	8.8245	1.7162	5.1991	8.3042	-3.4409	5.5893	2.9163	7.8049	1.3847
5.8495	3.3276	5.9376	7.616	5.4214	7.0412	10.8974	6.5544	8.8455	10.9226	5.6858	8.4007	8.77	1.7036	5.2452	8.3126	-3.4115	5.4676	2.9247	7.7419	1.3638
5.7907	3.3276	5.8537	7.4986	5.4005	6.953	10.8387	6.4999	8.7952	10.8429	5.6229	8.3	8.6651	1.6911	5.2494	8.2329	-3.3821	5.2998	2.9121	7.6748	1.263
5.7487	3.336	5.7865	7.4314	5.3837	6.8565	10.7967	6.4243	8.6903	10.7632	5.5431	8.2329	8.577	1.6785	5.2116	8.1657	-3.3569	5.1403	2.9079	7.5951	1.1707
5.669	3.3401	5.6816	7.3265	5.3711	6.7474	10.7296	6.3782	8.6105	10.6918	5.4173	8.1448	8.4511	1.6659	5.1781	8.0524	-3.3192	4.9683	2.866	7.5027	1.0532
5.6313	3.3527	5.6229	7.23	5.3165	6.6593	10.6834	6.2901	8.5266	10.5953	5.3123	8.0608	8.3294	1.6449	5.1109	7.9391	-3.294	4.8046	2.7905	7.4104	0.9399
5.5347	3.336	5.5138	7.1251	5.2746	6.5502	10.5869	6.2061	8.4133	10.4904	5.2074	7.9685	8.2119	1.6659	5.0732	7.7881	-3.3108	4.641	2.6981	7.3013	0.7973
5.4802	3.336	5.455	7.0747	5.2326	6.4789	10.5701	6.1306	8.3546	10.4149	5.1319	7.8888	8.1364	1.6659	5.0228	7.7	-3.3443	4.4899	2.6436	7.2258	0.6882
5.4131	3.3401	5.4047	6.995	5.1739	6.3572	10.4652	6.0844	8.2581	10.3142	5.0438	7.7881	8.0063	1.6827	4.9809	7.5783	-3.3695	4.3808	2.5345	7.1587	0.5707
5.3921	3.3527	5.3627	6.9614	5.1907	6.3446	10.4527	6.076	8.2371	10.2806	5.0018	7.7629	7.9433	1.712	5.0102	7.4818	-3.4451	4.2843	2.5135	7.1419	0.5077
5.3459	3.3653	5.3291	6.8859	5.1823	6.3026	10.4149	6.0719	8.1825	10.2219	4.9809	7.7377	7.914	1.754	4.9515	7.3811	-3.5122	4.1962	2.4422	7.0789	0.449
5.3501	3.4115	5.304	6.8398	5.1949	6.2397	10.3561	6.0677	8.2035	10.1505	4.9809	7.7335	7.8594	1.7918	4.9767	7.3433	-3.5877	4.129	2.4212	7.0747	0.4196
5.3165	3.4786	5.3165	6.781	5.2326	6.2439	10.2974	6.118	8.1951	10.1337	5.0102	7.7377	7.8384	1.8211	4.9892	7.3181	-3.6465	4.0829	2.3792	7.0454	0.407
5.3459	3.5164	5.304	6.7684	5.241	6.2355	10.3016	6.1432	8.2161	10.1254	5.0774	7.7629	7.8049	1.8547	4.9809	7.2887	-3.7178	4.0703	2.3499	7.0496	0.4448
5.3585	3.5709	5.3165	6.7558	5.3082	6.2103	10.247	6.1977	8.2497	10.0876	5.1361	7.8133	7.8384	1.8925	5.0228	7.2678	-3.7766	4.0619	2.3331	7.0412	0.4951
5.3669	3.6213	5.3543	6.7474	5.3837	6.2397	10.2638	6.2397	8.2832	10.0708	5.2158	7.8762	7.851	1.926	5.0396	7.2762	-3.8437	4.0997	2.3079	7.0747	0.5749
5.3795	3.68	5.3459	6.7097	5.4005	6.2229	10.2009	6.3026	8.2958	10.054	5.2746	7.9098	7.8636	1.9428	5.069	7.3013	-3.8773	4.0997	2.2617	7.058	0.6126
5.4047	3.722	5.3669	6.7265	5.4802	6.2565	10.1841	6.3572	8.3252	10.033	5.3459	7.9769	7.851	1.947	5.1361	7.3685	-3.915	4.1332	2.2785	7.0873	0.705
5.4424	3.7807	5.3753	6.7013	5.5054	6.2313	10.1547	6.4034	8.3336	10.0163	5.4382	8.0189	7.851	1.968	5.1865	7.4398	-3.9486	4.2004	2.2575	7.1209	0.8183
5.434	3.7975	5.3837	6.6887	5.5096	6.2271	10.1295	6.4285	8.3168	9.9701	5.5389	8.0441	7.8426	1.9848	5.1991	7.4776	-3.957	4.2465	2.2785	7.1167	0.9483
5.434	3.8017	5.3333	6.6593	5.5305	6.1642	10.0624	6.4495	8.3	9.8988	5.5473	8.0441	7.7965	1.9848	5.2158	7.5573	-3.9612	4.2381	2.3121	7.1125	1.0323
5.4382	3.7556	5.3249	6.6174	5.4676	6.097	9.9869	6.3992	8.2832	9.8232	5.5683	8.0273	7.7671	1.9722	5.241	7.5657	-3.9318	4.2507	2.2995	7.0873	1.1162
5.4005	3.7346	5.2788	6.6048	5.4592	6.0719	9.903	6.3908	8.2329	9.7645	5.6061	8.0231	7.7419	1.9806	5.2578	7.6202	-3.9486	4.2843	2.3373	7.0789	1.1917
5.3543	3.6674	5.1865	6.5418	5.3963	5.9628	9.8148	6.332	8.1322	9.6848	5.5893	7.9266	7.6664	1.9596	5.1907	7.5741	-3.9192	4.2759	2.354	7.0244	1.2672
5.3291	3.6255	5.1487	6.5418	5.3543	5.8872	9.7435	6.3152	8.086	9.5924	5.5431	7.8972	7.6035	1.9722	5.1907	7.5867	-3.9276	4.2927	2.396	7.0034	1.3008
5.2998	3.5709	5.069	6.4621	5.2788	5.7865	9.6596	6.2313	7.9853	9.4749	5.5557	7.8426	7.5489	1.9764	5.1193	7.5909	-3.936	4.2717	2.4506	6.9824	1.3344
5.283	3.5164	5.0606	6.4579	5.2032	5.7404	9.626	6.1935	7.9308	9.4456	5.5389	7.8049	7.486	1.9848	5.0858	7.5363	-3.957	4.2927	2.4841	6.9866	1.4015
5.2578	3.508	5.0102	6.4453	5.1907	5.6522	9.6134	6.1768	7.8846	9.4162	5.5599	7.8049	7.5027	2.0184	5.069	7.5321	-4.0073	4.3304	2.5555	6.974	1.4225
5.283	3.4492	5.0018	6.4495	5.1445	5.5977	9.5798	6.1642	7.8636	9.3491	5.5557	7.8007	7.4566	2.0226	5.069	7.5237	-4.0367	4.3262	2.5932	6.9782	1.4519
5.2914	3.4618	4.9683	6.4579	5.1613	5.5557	9.5715	6.16	7.8259	9.3407	5.5515	7.7629	7.4482	2.0435	5.0774	7.5111	-4.0787	4.385	2.6897	6.9824	1.4771
5.3249	3.4325	4.9599	6.4411	5.1151	5.5138	9.5379	6.1264	7.7671	9.3155	5.6019	7.7335	7.4608	2.0519	5.1025	7.5195	-4.1039	4.3514	2.7569	6.953	1.4938
5.3375	3.4115	4.9725	6.4621	5.1109	5.497	9.5547	6.1432	7.7335	9.2987	5.5725	7.7293	7.4692	2.0855	5.1487	7.4944	-4.1584	4.3808	2.8198	6.9656	1.5232
5.3375	3.3779	4.9389	6.4705	5.0941	5.4298	9.5631	6.1096	7.6748	9.2819	5.5851	7.6916	7.4482	2.0771	5.1697	7.4818	-4.171	4.364	2.8576	6.9572	1.5106
5.3501	3.336	4.9515	6.4873	5.0606	5.3837	9.5547	6.0928	7.6496	9.2609	5.5473	7.6622	7.4314	2.0981	5.1697	7.4398	-4.1878	4.4018	2.9037	6.9698	1.4812
5.3669	3.3108	4.8969	6.5334	5.0522	5.3585	9.5757	6.0928	7.6118	9.2693	5.5389	7.6286	7.4398	2.0939	5.2116	7.3811	-4.1794	4.364	2.9289	6.9698	1.4141
5.3585	3.2478	4.8927	6.5376	4.9934	5.3082	9.5673	6.0593	7.5741	9.2777	5.4844	7.5699	7.3853	2.0855	5.2242	7.3139	-4.171	4.3304	2.9457	6.9614	1.3763
5.3417	3.1849	4.8759	6.5922	4.9473	5.2704	9.5715	5.9711	7.5153	9.2651	5.4089	7.5153	7.3601	2.0813	5.2032	7.23	-4.1416	4.2969	2.8996	6.9572	1.3008
5.3459	3.1094	4.8508	6.609	4.9053	5.2158	9.6008	5.9586	7.4356	9.2358	5.3585	7.4398	7.3013	2.0519	5.22	7.1293	-4.1122	4.2885	2.8954	6.9363	1.2379
5.3123	3.0548	4.8172	6.6132	4.8088	5.1655	9.6176	5.883	7.3475	9.2274	5.2914	7.3433	7.2678	2.0393	5.2326	7.058	-4.0829	4.2465	2.8324	6.9153	1.1372
5.3082	3.017	4.8256	6.6929	4.771	5.1487	9.6218	5.8327	7.3181	9.24	5.2494	7.3013	7.2258	2.0393	5.2158	7.0076	-4.0787	4.1878	2.7988	6.9321	1.0448
5.3501	2.9877	4.834	6.7558	4.7668	5.1235	9.668	5.7739	7.272	9.2442	5.1403	7.209	7.1922	2.0267	5.2452	6.9908	-4.0451	4.15	2.7569	6.9447	0.9441
5.3543	2.9415	4.8508	6.8565	4.6997	5.1445	9.7057	5.7152	7.2384	9.2693	5.048	7.1209	7.1503	2.0184	5.2662	6.9824	-4.0199	4.0913	2.7107	6.9656	0.8854
5.4298	2.9541	4.9095	6.9698	4.6745	5.1655	9.7813	5.6522	7.23	9.2819	5.0186	7.058	7.1293	2.0058	5.304	7.0328	-3.9906	4.0703	2.6688	6.953	0.8015
5.518	2.9373	4.9809	7.1293	4.6745	5.2242	9.903	5.6522	7.2342	9.37	4.9557	7.0412	7.0957	1.989	5.3963	7.1503	-3.9948	4.0283	2.6184	6.9908	0.7427
5.6061	3.0003	5.0438	7.2803	4.6787	5.2788	10.0121	5.6061	7.23	9.4078	4.9263	6.995	7.0747	1.9722	5.455	7.2845	-3.9444	3.9696	2.5555	6.953	0.684
5.7613	3.059	5.1739	7.4356	4.7081	5.3963	10.1379	5.6355	7.2845	9.4707	4.9305	6.9992	7.0873	1.9596	5.5809	7.4692	-3.9402	3.9234	2.5009	6.9782	0.7217
5.9082	3.1513	5.3249	7.6412	4.7585	5.5054	10.268	5.6606	7.3181	9.5547	4.9137	7.0118	7.0831	1.9638	5.6942	7.7293	-3.9402	3.8982	2.459	6.995	0.7175
6.0802	3.2562	5.476	7.8259	4.8466	5.6564	10.4275	5.732	7.4398	9.6848	4.9725	7.0454	7.1503	1.9764	5.8411	7.9601	-3.936	3.894	2.4296	7.037	0.6924
6.2397	3.3485	5.6271	8.0231	4.9179	5.7613	10.5366	5.7907	7.5489	9.7771	5.0228	7.0789	7.1712	1.9596	5.9711	8.1783	-3.9192	3.9024	2.3792	7.0412	0.7301
6.3908	3.4492	5.7907	8.2371	5.0102	5.8956	10.6834	5.8285	7.6118	9.8358	5.069	7.1083	7.1754	1.9386	6.139	8.4385	-3.9108	3.894	2.3289	7.058	0.7511
6.5544	3.5625	5.946	8.4091	5.1067	6.0551	10.8051	5.9166	7.7293	9.9533	5.1025	7.1922	7.2216	1.9638	6.3068	8.7029	-3.9234	3.915	2.2869	7.0873	0.7889
6.7516	3.6674	6.0844	8.556	5.1781	6.1642	10.9226	5.9502	7.7923	10.0204	5.1319	7.2006	7.2132	1.9428	6.4411	8.9546	-3.9108	3.915	2.2701	7.0747	0.8099
6.8481	3.8059	6.2229	8.6819	5.2872	6.2943	11.0191	6.0383	7.9266	10.096	5.2242	7.272	7.2468	1.9722	6.6216	9.1602	-3.936	3.9402	2.2659	7.1167	0.8728
6.9992	3.8815	6.3362	8.7952	5.3333	6.4159	11.0905	6.0844	7.9895	10.1379	5.2536	7.3181	7.3139	1.9764	6.7432	9.4036	-3.9486	3.9444	2.2408	7.1335	0.8896
7.1419	3.9696	6.4453	8.8707	5.4089	6.5125	11.1408	6.1474	8.086	10.1925	5.2788	7.3601	7.3139	1.9932	6.8859	9.5715	-3.9696	3.9528	2.2366	7.1335	0.9022
7.2552	4.0703	6.5544	8.9336	5.4676	6.609	11.1534	6.1726	8.1825	10.1925	5.2914	7.3853	7.2971	2.0142	7.0244	9.8064	-4.0157	3.9192	2.2869	7.1083	0.8896
7.3559	4.1164	6.6299	8.9588	5.5222	6.7055	11.187	6.2187	8.2539	10.2135	5.3207	7.4146	7.3097	2.0142	7.1335	9.9785	-4.0283	3.9276	2.2743	7.1335	0.877
7.4608	4.1668	6.7223	8.9756	5.5767	6.7558	11.1618	6.2565	8.3168	10.2051	5.3375	7.4188	7.2887	2.0309	7.23	10.1212	-4.0451	3.8982	2.3037	7.1335	0.9022
7.5573	4.2465	6.7978	8.9756	5.6103	6.8398	11.187	6.311	8.3965	10.2219	5.3753	7.4524	7.2971	2.0603	7.3559	10.2932	-4.1039	3.9108	2.3582	7.1503	0.9106
7.6202	4.2717	6.8691	8.984	5.6355	6.8859	11.1996	6.332	8.4385	10.2219	5.3753	7.465	7.3055	2.0771	7.3936	10.4023	-4.1332	3.8857	2.3876	7.1503	0.9274
7.6874	4.3514	6.9027	8.9672	5.69	6.9279	11.1828	6.353	8.5014	10.2219	5.3669	7.4818	7.3055	2.1023	7.4608	10.4988	-4.192	3.8815	2.4464	7.2006	0.9441
7.7377	4.3304	6.9363	8.9504	5.6522	6.9572	11.1828	6.3614	8.5266	10.2051	5.3543	7.486	7.3181	2.1358	7.4608	10.5618	-4.2381	3.9066	2.4715	7.23	0.9274
7.7839	4.3472	6.9992	8.9127	5.69	7.0034	11.1576	6.3572	8.577	10.1883	5.3837	7.4818	7.3349	2.1568	7.4902	10.6205	-4.2885	3.9192	2.4967	7.2845	0.9315
7.7965	4.3682	7.0034	8.8581	5.6858	7.0244	11.145	6.374	8.6063	10.1715	5.3753	7.4944	7.3223	2.182	7.4608	10.5743	-4.3472	3.9612	2.5345	7.3433	0.9525
7.7965	4.3221	6.9908	8.7826	5.648	7.0244	11.0905	6.3362	8.6105	10.117	5.3249	7.465	7.3181	2.2072	7.3853	10.545	-4.4018	3.9612	2.5387	7.3936	0.9483
7.7461	4.2843	6.974	8.7112	5.6271	7.0202	11.0569	6.3152	8.5979	10.0834	5.2704	7.4272	7.3055	2.2324	7.3055	10.4568	-4.4479	3.9654	2.5093	7.4314	0.9357
7.7084	4.2213	6.9363	8.5979	5.5389	6.9656	10.9772	6.2439	8.5896	10.0288	5.2032	7.3936	7.2636	2.2533	7.1922	10.3142	-4.4731	3.9654	2.4548	7.4482	0.9106
7.5951	4.1039	6.823	8.4511	5.4298	6.8733	10.8681	6.1096	8.5056	9.9239	5.0858	7.2762	7.1712	2.2491	7.0076	10.1086	-4.4857	3.9738	2.3582	7.4356	0.8224
7.4944	3.9864	6.7516	8.3252	5.2872	6.7978	10.7758	5.9837	8.4427	9.8484	4.9767	7.1838	7.0915	2.2491	6.8859	9.9113	-4.4815	3.9066	2.2827	7.4482	0.7511
7.3643	3.8521	6.6383	8.1993	5.1781	6.6887	10.6709	5.8327	8.3378	9.7435	4.834	7.0999	7.0328	2.2449	6.7348	9.7267	-4.4815	3.915	2.1778	7.4104	0.6672
7.2384	3.6968	6.5334	8.0986	5.0354	6.5838	10.5827	5.7068	8.2119	9.6092	4.6829	6.9237	6.9363	2.2156	6.609	9.5127	-4.4437	3.8815	2.0393	7.3727	0.5245
7.1125	3.5709	6.4034	8.0021	4.8759	6.4831	10.4862	5.5347	8.107	9.4959	4.5403	6.802	6.8104	2.1946	6.4747	9.2903	-4.4102	3.7891	1.8925	7.3097	0.4532
7.0202	3.4618	6.3194	7.914	4.7417	6.374	10.4275	5.4005	7.9895	9.3784	4.3808	6.6845	6.7139	2.1904	6.4243	9.1225	-4.3892	3.7304	1.7918	7.2678	0.3063
6.8817	3.315	6.2523	7.8426	4.6242	6.2901	10.3436	5.2578	7.8888	9.2651	4.2046	6.5334	6.6174	2.1736	6.3488	8.9882	-4.364	3.6549	1.6869	7.209	0.1972
6.8146	3.1849	6.1684	7.8217	4.4647	6.1893	10.3016	5.09	7.7923	9.156	4.0283	6.4201	6.5166	2.1946	6.3026	8.8833	-4.3766	3.5709	1.5568	7.1922	0.0671
6.7516	3.0968	6.0928	7.7713	4.3472	6.16	10.2722	4.9809	7.7042	9.0931	3.894	6.3068	6.4117	2.203	6.2901	8.77	-4.3976	3.529	1.4477	7.1503	-0.0671
6.6803	2.9877	6.0383	7.7335	4.2423	6.0844	10.2345	4.855	7.6202	8.9924	3.7262	6.1768	6.3026	2.1904	6.2901	8.707	-4.406	3.4451	1.3721	7.1083	-0.1678
6.6425	2.8912	6.0089	7.6916	4.129	6.0425	10.1757	4.7375	7.5657	8.9169	3.6087	6.0802	6.1977	2.1988	6.2943	8.6777	-4.4144	3.3905	1.2756	7.0663	-0.2895
6.6216	2.8198	5.9753	7.7042	4.0535	6.0131	10.1547	4.6452	7.5111	8.8497	3.5038	5.9879	6.1138	2.2366	6.3068	8.7196	-4.4605	3.3401	1.1791	7.037	-0.3609
6.588	2.7527	5.9544	7.6832	3.9989	5.9921	10.117	4.5612	7.423	8.749	3.3653	5.8788	6.0173	2.224	6.353	8.7448	-4.4731	3.273	1.133	6.9656	-0.4406
6.609	2.7275	5.9502	7.7084	3.9318	5.9753	10.1337	4.5067	7.423	8.7238	3.2898	5.862	5.9376	2.2449	6.4285	8.8497	-4.5067	3.2227	1.0826	6.9698	-0.47
6.6257	2.6897	5.9418	7.7335	3.9234	5.9753	10.1212	4.4815	7.3853	8.6651	3.252	5.7907	5.8369	2.2617	6.4705	8.8917	-4.5235	3.1639	1.049	6.9195	-0.4742
6.6216	2.6478	5.9082	7.6748	3.8857	5.9376	10.0624	4.406	7.3349	8.5812	3.1765	5.7152	5.7613	2.2575	6.5041	9.0008	-4.4899	3.1052	1.0406	6.8565	-0.5455
6.609	2.631	5.8746	7.7042	3.8479	5.8998	10.0204	4.3892	7.2845	8.5014	3.0926	5.6732	5.6396	2.2408	6.5208	9.0889	-4.4647	3.0045	1.0365	6.8314	-0.5203
6.6677	2.631	5.862	7.7084	3.8437	5.8788	10.0246	4.3724	7.3013	8.4511	3.0842	5.6145	5.5767	2.2156	6.5586	9.2232	-4.427	2.9751	1.0658	6.7936	-0.5287
6.6467	2.61	5.8411	7.6664	3.7807	5.8578	9.9659	4.3388	7.2258	8.3881	3.0296	5.5347	5.4928	2.1652	6.546	9.2735	-4.3514	2.8954	1.07	6.7516	-0.5581
6.6719	2.61	5.8495	7.6874	3.7933	5.8495	9.9869	4.3514	7.2384	8.3252	3.0212	5.4886	5.4256	2.1526	6.5628	9.3323	-4.3095	2.845	1.1204	6.7474	-0.5161
6.6887	2.6058	5.8411	7.7042	3.8143	5.8327	9.9449	4.3514	7.2048	8.2916	3.017	5.4676	5.3669	2.1149	6.5334	9.3868	-4.2423	2.8198	1.1665	6.7223	-0.4826
6.7223	2.6394	5.862	7.7042	3.8101	5.8285	9.9407	4.364	7.1838	8.2413	2.9919	5.4424	5.2914	2.0897	6.5083	9.4498	-4.1878	2.803	1.2253	6.7307	-0.4196
6.7474	2.6478	5.8704	7.6748	3.7975	5.8075	9.903	4.3514	7.1754	8.2203	2.9793	5.4089	5.2242	2.0477	6.4495	9.4666	-4.1164	2.7863	1.263	6.6803	-0.4196
6.7768	2.6688	5.8746	7.6832	3.8311	5.8075	9.9281	4.3892	7.1922	8.2119	3.0212	5.3963	5.2032	2.0309	6.3866	9.5253	-4.0409	2.7863	1.326	6.6845	-0.3902
6.76	2.6855	5.8998	7.679	3.8311	5.7991	9.9113	4.385	7.1838	8.1825	2.9961	5.3753	5.1319	1.968	6.3236	9.5379	-3.9654	2.7107	1.4057	6.6257	-0.3944
6.7516	2.6688	5.8662	7.6202	3.7933	5.7655	9.8904	4.385	7.1587	8.128	2.9835	5.3375	5.0858	1.9428	6.2439	9.5463	-3.8815	2.6939	1.4477	6.5796	-0.3735
6.8062	2.6897	5.9376	7.6077	3.7933	5.7781	9.9072	4.4186	7.209	8.1196	3.017	5.3543	5.0396	1.9051	6.2103	9.5589	-3.8185	2.6772	1.5148	6.5502	-0.3189
6.823	2.6814	5.9166	7.5909	3.7807	5.7529	9.903	4.427	7.1964	8.0818	3.0212	5.3291	5.006	1.8715	6.1264	9.5169	-3.7304	2.61	1.5652	6.4915	-0.3231
6.8146	2.6604	5.9502	7.5573	3.7724	5.7571	9.8988	4.4353	7.2048	8.065	3.0548	5.3207	4.9809	1.8337	6.076	9.5211	-3.6633	2.6016	1.6407	6.4117	-0.2979
6.8314	2.631	5.9753	7.5573	3.764	5.7613	9.9323	4.4563	7.2342	8.0776	3.0884	5.3669	4.9767	1.7918	6.0047	9.4791	-3.5961	2.6016	1.7036	6.3866	-0.2602
6.8439	2.61	5.9711	7.5195	3.7598	5.7571	9.9365	4.4983	7.2636	8.0734	3.1387	5.3837	4.9934	1.7708	5.9711	9.4204	-3.5667	2.5806	1.7876	6.3152	-0.214
6.8272	2.5345	5.9628	7.5279	3.7388	5.7487	9.9575	4.5067	7.2887	8.065	3.1849	5.3837	5.0144	1.7288	5.9082	9.3575	-3.4702	2.5681	1.8547	6.2775	-0.1846
6.823	2.5261	5.9544	7.5279	3.722	5.7487	9.9785	4.5319	7.3013	8.1028	3.2394	5.4173	5.0186	1.7078	5.8453	9.2987	-3.4283	2.5513	1.9176	6.2481	-0.1469
6.8062	2.4673	5.9795	7.4944	3.701	5.7571	9.9995	4.5486	7.3307	8.1112	3.2604	5.4424	5.048	1.6953	5.7781	9.2358	-3.3905	2.5261	1.9596	6.2019	-0.0923
6.8188	2.4086	5.946	7.486	3.6297	5.7487	10.0246	4.5319	7.3517	8.107	3.3276	5.4634	5.0354	1.6617	5.7152	9.1518	-3.3276	2.4841	1.9764	6.1726	-0.0378
6.7726	2.3499	5.946	7.4776	3.6171	5.7404	10.0079	4.5319	7.3475	8.107	3.3695	5.4634	5.0564	1.6365	5.7278	9.0805	-3.294	2.459	2.0016	6.1264	-0.0084
6.7684	2.2617	5.9334	7.4818	3.5961	5.732	10.0037	4.5486	7.3643	8.0776	3.3989	5.4718	5.0396	1.6113	5.7026	9.0427	-3.2478	2.4296	2.0435	6.0928	0.0546
6.76	2.2617	5.9124	7.444	3.5919	5.732	9.9785	4.557	7.3853	8.0902	3.4409	5.4886	5.048	1.5903	5.7068	9.0218	-3.2017	2.4086	2.0645	6.0593	0.1385
6.7894	2.2156	5.9376	7.4188	3.5961	5.732	9.9449	4.599	7.4062	8.086	3.5122	5.5138	5.0606	1.5778	5.711	9.0218	-3.1555	2.3708	2.0855	6.0341	0.2098
6.7936	2.203	5.9418	7.4104	3.6129	5.7068	9.9197	4.5948	7.4062	8.0902	3.5667	5.518	5.0606	1.5274	5.7152	9.0134	-3.0716	2.3373	2.0855	6.0005	0.2728
6.8188	2.1694	5.9586	7.3559	3.6129	5.711	9.8694	4.599	7.4272	8.065	3.5919	5.5431	5.0732	1.4938	5.7487	9.005	-2.9877	2.2911	2.0645	5.9669	0.3609
6.8272	2.1778	5.9669	7.3601	3.6507	5.7068	9.8526	4.6284	7.4398	8.0524	3.6381	5.5557	5.0858	1.4393	5.7278	9.0218	-2.9121	2.2491	2.0687	5.946	0.4532
6.8733	2.1904	6.0131	7.3601	3.6633	5.732	9.819	4.6619	7.4734	8.0482	3.7052	5.5431	5.0858	1.3973	5.7571	9.0302	-2.7988	2.2366	2.0939	5.9124	0.5077
6.8985	2.1778	6.0299	7.3349	3.6633	5.7404	9.8022	4.6745	7.4608	8.0524	3.7388	5.5767	5.0941	1.3386	5.7404	9.0176	-2.6814	2.2408	2.1065	5.9124	0.5833
