"FZ"	"FC3"	"FCZ"	"FC4"	"C3"	"CZ"	"C4"	"CP3"	"CPZ"	"CP4"	"P3"	"PZ"	"P4"	"OZ"	"FP1"	"FP2"	"A2"	"P8"	"TP7"	"TP8"	"P7"	"VEOG"	"HEOG"
-0.2055	-0.7707	-0.9283	0.0308	-1.7504	-1.8634	-1.0687	-2.3293	-2.8808	-2.1238	-2.5485	-3.1206	-2.4697	0.0137	-0.62	-1.4318	-0.0719	-1.0585	-0.9797	-0.2706	-2.0758	-1.4044	0.4453
-0.1439	-0.6577	-0.9112	0	-1.6168	-1.836	-1.1201	-2.2197	-2.8465	-2.1375	-2.4766	-3.1035	-2.48	-0.0206	-0.7159	-1.5963	0.0137	-1.0824	-0.8906	-0.3049	-2.0142	-1.514	0.3665
-0.0822	-0.5618	-0.8495	-0.0103	-1.4935	-1.7607	-1.103	-2.0895	-2.8157	-2.1203	-2.4081	-3.1	-2.4697	-0.0274	-0.7947	-1.7196	0.0548	-1.1167	-0.7673	-0.3186	-1.9388	-1.5552	0.2775
-0.0582	-0.4761	-0.8187	-0.0171	-1.3668	-1.7127	-1.103	-1.9559	-2.7472	-2.1272	-2.3019	-3.0384	-2.4697	-0.048	-0.829	-1.7401	0.0651	-1.1407	-0.6748	-0.3186	-1.86	-1.5826	0.2158
-0.0582	-0.435	-0.8255	-0.0411	-1.2708	-1.6545	-1.1133	-1.8429	-2.6992	-2.0998	-2.2265	-3.0041	-2.4595	-0.048	-0.8803	-1.7778	0.0754	-1.1852	-0.572	-0.3425	-1.8018	-1.5586	0.1541
-0.0925	-0.3939	-0.8153	-0.1062	-1.1784	-1.5997	-1.1475	-1.747	-2.6787	-2.1409	-2.1478	-2.9733	-2.4834	-0.0308	-0.8975	-1.7196	0.0582	-1.2503	-0.4967	-0.4008	-1.7401	-1.4935	0.0891
-0.0925	-0.3665	-0.8187	-0.1747	-1.0961	-1.5346	-1.1338	-1.6305	-2.617	-2.1101	-2.0724	-2.9322	-2.4766	-0.0206	-0.8975	-1.6065	0.0274	-1.2845	-0.4316	-0.4316	-1.699	-1.4044	0.0377
-0.1884	-0.3562	-0.8495	-0.2364	-1.0482	-1.5106	-1.1715	-1.5552	-2.5896	-2.1238	-2.0142	-2.9288	-2.4971	0.0069	-0.9043	-1.449	-0.024	-1.3085	-0.3597	-0.4796	-1.6648	-1.3085	-0.024
-0.2603	-0.3631	-0.8838	-0.298	-0.9865	-1.5106	-1.2058	-1.4729	-2.5554	-2.1135	-1.9662	-2.8876	-2.5074	0.0377	-0.8769	-1.2743	-0.0856	-1.3565	-0.2946	-0.5241	-1.5894	-1.1784	-0.0548
-0.3186	-0.3836	-0.9283	-0.4008	-0.9591	-1.4764	-1.2195	-1.425	-2.5348	-2.1203	-1.9011	-2.8431	-2.5143	0.0754	-0.8803	-1.1064	-0.1576	-1.401	-0.2706	-0.5858	-1.5689	-1.0413	-0.0891
-0.4487	-0.4042	-0.9968	-0.483	-0.9523	-1.4627	-1.2434	-1.3668	-2.4937	-2.1066	-1.8395	-2.8157	-2.48	0.1165	-0.8529	-0.9009	-0.2364	-1.449	-0.2398	-0.6269	-1.4935	-0.894	-0.1336
-0.5652	-0.4659	-1.0619	-0.5858	-0.9214	-1.449	-1.3154	-1.3256	-2.4697	-2.0964	-1.8223	-2.8089	-2.4697	0.1507	-0.8427	-0.733	-0.3186	-1.4866	-0.2192	-0.668	-1.4695	-0.781	-0.1781
-0.6748	-0.5275	-1.1338	-0.6645	-0.9146	-1.4729	-1.3496	-1.2914	-2.4697	-2.1306	-1.7847	-2.7643	-2.4903	0.1781	-0.8324	-0.5858	-0.3871	-1.5312	-0.2021	-0.7467	-1.4421	-0.6577	-0.2021
-0.805	-0.5583	-1.2092	-0.781	-0.9112	-1.4764	-1.377	-1.2503	-2.4526	-2.1135	-1.7675	-2.7369	-2.5108	0.2158	-0.8221	-0.4111	-0.4556	-1.5312	-0.1953	-0.7707	-1.3907	-0.6132	-0.2466
-0.8838	-0.596	-1.2537	-0.8255	-0.8598	-1.4661	-1.3942	-1.1955	-2.4184	-2.0827	-1.7196	-2.7232	-2.4971	0.2466	-0.7913	-0.2638	-0.5104	-1.5346	-0.2124	-0.7913	-1.3668	-0.5549	-0.2946
-0.9523	-0.6269	-1.3256	-0.894	-0.8324	-1.4524	-1.3907	-1.1578	-2.3944	-2.0416	-1.6785	-2.6581	-2.4595	0.2638	-0.7776	-0.1233	-0.5412	-1.5483	-0.1747	-0.8153	-1.2845	-0.5549	-0.3425
-1.0345	-0.6474	-1.3599	-0.9386	-0.8324	-1.4524	-1.3942	-1.0996	-2.3567	-2.0039	-1.6168	-2.6136	-2.3841	0.2912	-0.781	-0.0206	-0.572	-1.5414	-0.1541	-0.8187	-1.2297	-0.5412	-0.3768
-1.1201	-0.6645	-1.401	-0.9763	-0.7913	-1.4524	-1.4044	-1.0379	-2.2848	-1.9731	-1.5552	-2.5348	-2.3327	0.274	-0.7879	0.0445	-0.572	-1.5312	-0.1233	-0.8187	-1.1407	-0.5618	-0.4179
-1.1372	-0.668	-1.4216	-1.0071	-0.7262	-1.4592	-1.377	-0.9625	-2.2231	-1.8943	-1.4695	-2.4526	-2.2574	0.2672	-0.7707	0.0754	-0.5789	-1.5038	-0.0754	-0.8153	-1.0619	-0.596	-0.4419
-1.1886	-0.7125	-1.4353	-1.0413	-0.6919	-1.449	-1.3907	-0.8872	-2.1615	-1.8223	-1.3839	-2.3704	-2.1752	0.2809	-0.8392	0.0651	-0.5618	-1.4866	-0.0685	-0.7879	-0.9728	-0.6303	-0.4761
-1.216	-0.7091	-1.4695	-1.0345	-0.644	-1.4695	-1.3633	-0.8153	-2.1066	-1.7504	-1.3291	-2.3019	-2.1032	0.2638	-0.8906	0.0788	-0.5344	-1.4318	-0.0411	-0.781	-0.8838	-0.6577	-0.4898
-1.2674	-0.7125	-1.5072	-1.055	-0.5755	-1.4455	-1.3256	-0.7228	-2.0347	-1.6922	-1.2434	-2.2197	-2.0279	0.2466	-0.8872	0.0822	-0.5172	-1.3976	0.0069	-0.757	-0.7913	-0.7091	-0.4864
-1.3051	-0.7056	-1.5243	-1.0824	-0.5138	-1.4387	-1.3154	-0.6371	-1.9457	-1.61	-1.1235	-2.1032	-1.908	0.2398	-0.9454	0.048	-0.5001	-1.353	0.0514	-0.7193	-0.6885	-0.7091	-0.4933
-1.353	-0.7262	-1.5312	-1.0824	-0.4693	-1.4353	-1.2982	-0.5412	-1.8771	-1.5346	-1.0311	-1.9936	-1.86	0.2295	-0.9557	0.0548	-0.4659	-1.3256	0.1165	-0.6919	-0.5926	-0.7228	-0.4693
-1.3976	-0.7228	-1.5826	-1.1064	-0.4145	-1.4216	-1.2914	-0.4556	-1.7744	-1.4592	-0.894	-1.8943	-1.7264	0.2021	-0.99	0.0411	-0.4145	-1.264	0.1473	-0.644	-0.4693	-0.7091	-0.4659
-1.4318	-0.7433	-1.6168	-1.1133	-0.346	-1.4044	-1.2743	-0.3699	-1.7127	-1.3839	-0.7673	-1.771	-1.6271	0.1576	-1.0139	0	-0.3254	-1.2126	0.2055	-0.62	-0.3562	-0.6954	-0.4487
-1.4901	-0.733	-1.6202	-1.127	-0.274	-1.4044	-1.2229	-0.2535	-1.6168	-1.2845	-0.6474	-1.6579	-1.5175	0.1233	-0.9865	-0.0274	-0.2364	-1.1544	0.2775	-0.5995	-0.2329	-0.6851	-0.4145
-1.5072	-0.7296	-1.6168	-1.0996	-0.1918	-1.3599	-1.1818	-0.0754	-1.5003	-1.1715	-0.4522	-1.4969	-1.3976	0.0582	-0.942	-0.0993	-0.1302	-1.0824	0.3802	-0.5583	-0.0685	-0.668	-0.4179
-1.5449	-0.7228	-1.6271	-1.0927	-0.113	-1.3154	-1.1475	0.0206	-1.377	-1.079	-0.3049	-1.3462	-1.264	-0.0069	-0.9557	-0.185	0.0034	-1.0174	0.4522	-0.5035	0.0822	-0.6371	-0.4076
-1.5243	-0.6885	-1.5928	-1.0824	-0.0103	-1.2845	-1.0824	0.1713	-1.2503	-0.99	-0.113	-1.1578	-1.1544	-0.0719	-0.9043	-0.3151	0.1267	-0.9249	0.5652	-0.4487	0.2432	-0.6132	-0.4042
-1.5449	-0.6748	-1.5826	-1.0585	0.0754	-1.2263	-1.0242	0.3425	-1.1167	-0.8906	0.0651	-0.9831	-0.9934	-0.1507	-0.8838	-0.4624	0.2672	-0.8392	0.6782	-0.4419	0.4111	-0.6063	-0.4145
-1.5517	-0.6337	-1.5757	-1.0345	0.1644	-1.1886	-0.99	0.4522	-1.0139	-0.7913	0.2432	-0.8598	-0.8735	-0.2124	-0.8735	-0.6645	0.4008	-0.781	0.7844	-0.4076	0.5755	-0.5446	-0.4042
-1.5586	-0.6166	-1.5414	-1.0311	0.2603	-1.1235	-0.942	0.5823	-0.8769	-0.6954	0.4248	-0.6919	-0.7433	-0.2775	-0.8529	-0.8187	0.5446	-0.7467	0.894	-0.4042	0.7399	-0.5275	-0.4145
-1.5175	-0.5823	-1.4901	-1.0139	0.3562	-1.0585	-0.9009	0.7467	-0.7365	-0.5823	0.6132	-0.5001	-0.62	-0.3391	-0.8735	-1.0208	0.668	-0.6611	1.0139	-0.3562	0.9077	-0.5207	-0.4248
-1.4661	-0.5275	-1.4421	-0.9934	0.435	-1.0037	-0.8632	0.8803	-0.62	-0.5035	0.7844	-0.3494	-0.4967	-0.3974	-0.8769	-1.2092	0.7776	-0.6029	1.1098	-0.3494	1.0859	-0.5138	-0.4316
-1.4353	-0.4898	-1.4147	-0.9968	0.5035	-0.9523	-0.8392	0.9865	-0.5309	-0.4556	0.9043	-0.209	-0.4111	-0.4727	-0.9557	-1.449	0.9077	-0.6029	1.1852	-0.3562	1.1749	-0.5309	-0.4385
-1.353	-0.4248	-1.3599	-0.9523	0.6097	-0.8769	-0.7913	1.1064	-0.4145	-0.3494	1.0859	-0.0445	-0.2877	-0.4967	-0.9763	-1.6168	0.966	-0.5207	1.3119	-0.3254	1.3017	-0.5549	-0.4556
-1.288	-0.3836	-1.3154	-0.9214	0.6543	-0.8495	-0.757	1.2126	-0.298	-0.2877	1.2023	0.0959	-0.209	-0.5378	-1.0139	-1.7915	1.0379	-0.4727	1.3633	-0.3391	1.401	-0.6097	-0.4659
-1.2366	-0.322	-1.2571	-0.9146	0.7056	-0.8016	-0.7365	1.264	-0.1918	-0.2295	1.2948	0.2055	-0.1336	-0.5652	-1.0413	-1.9388	1.0927	-0.4453	1.4113	-0.3323	1.4558	-0.6645	-0.4864
-1.1852	-0.3049	-1.2126	-0.918	0.6988	-0.781	-0.7433	1.3291	-0.1439	-0.1815	1.377	0.3049	-0.048	-0.5823	-1.0996	-2.1032	1.1372	-0.4282	1.4387	-0.3836	1.5312	-0.7228	-0.5275
-1.1407	-0.2809	-1.1818	-0.9077	0.7159	-0.7502	-0.7433	1.3359	-0.0788	-0.1302	1.4387	0.4179	0.0137	-0.6063	-1.1475	-2.2265	1.1784	-0.4145	1.4661	-0.4008	1.5723	-0.7742	-0.5481
-1.0756	-0.2295	-1.0996	-0.8735	0.757	-0.6885	-0.7125	1.3942	0.0171	-0.1199	1.5106	0.5241	0.0719	-0.6063	-1.1681	-2.3087	1.1818	-0.3939	1.449	-0.4111	1.6237	-0.8084	-0.5652
-1.0071	-0.1953	-1.0413	-0.8735	0.7639	-0.6611	-0.7193	1.4113	0.0822	-0.0514	1.5414	0.6063	0.1233	-0.6097	-1.1681	-2.3396	1.1921	-0.3425	1.4661	-0.4385	1.6271	-0.8324	-0.596
-0.9797	-0.1747	-0.9968	-0.8735	0.7262	-0.644	-0.6954	1.3942	0.1507	-0.0343	1.5586	0.6885	0.2055	-0.6166	-1.1544	-2.3327	1.2229	-0.3254	1.4044	-0.459	1.6339	-0.8153	-0.6234
-0.9043	-0.1028	-0.9351	-0.8427	0.7604	-0.5789	-0.6782	1.4318	0.2295	-0.0034	1.6271	0.7776	0.274	-0.6234	-1.0824	-2.206	1.2092	-0.3117	1.4113	-0.4659	1.6237	-0.7913	-0.6645
-0.8598	-0.0788	-0.8598	-0.8153	0.733	-0.5275	-0.6714	1.4147	0.3014	0.0377	1.6374	0.8975	0.3357	-0.6269	-1.0105	-2.0792	1.2092	-0.2569	1.3668	-0.459	1.6134	-0.7125	-0.6885
-0.8016	-0.0617	-0.7776	-0.8084	0.7433	-0.4761	-0.6371	1.4216	0.3905	0.113	1.6682	1.0071	0.4179	-0.6132	-0.9009	-1.8497	1.1886	-0.2158	1.3462	-0.4659	1.6271	-0.6269	-0.7125
-0.7467	-0.0308	-0.6851	-0.7502	0.733	-0.3939	-0.5995	1.4044	0.507	0.161	1.6819	1.0859	0.4967	-0.6063	-0.7947	-1.6031	1.1715	-0.1713	1.2708	-0.4659	1.6031	-0.5207	-0.7365
-0.6919	0.0343	-0.6029	-0.7056	0.733	-0.3288	-0.5446	1.3736	0.5755	0.2124	1.7024	1.1544	0.5618	-0.596	-0.6645	-1.3565	1.1475	-0.1165	1.2263	-0.4624	1.5689	-0.3905	-0.7228
-0.6371	0.048	-0.5207	-0.7125	0.7365	-0.2843	-0.5001	1.3702	0.6611	0.2569	1.6887	1.2332	0.6269	-0.5892	-0.5549	-1.103	1.127	-0.0719	1.1715	-0.4556	1.5552	-0.2638	-0.7502
-0.5858	0.1028	-0.3974	-0.6645	0.733	-0.1884	-0.4556	1.3428	0.7502	0.2946	1.6853	1.3154	0.7159	-0.5789	-0.4179	-0.8495	1.0893	-0.0103	1.0927	-0.4385	1.5072	-0.1439	-0.7262
-0.5378	0.113	-0.3117	-0.6097	0.7467	-0.0856	-0.3905	1.3325	0.8392	0.3665	1.6922	1.4079	0.7742	-0.5412	-0.3186	-0.6063	1.0345	0.048	1.0516	-0.3974	1.4524	-0.0069	-0.7125
-0.4659	0.1233	-0.1953	-0.5549	0.7091	-0.0069	-0.3117	1.2708	0.9249	0.4213	1.6716	1.5038	0.8769	-0.5275	-0.2261	-0.4556	0.9968	0.113	0.9523	-0.3631	1.4181	0.137	-0.6919
-0.3768	0.161	-0.0856	-0.5035	0.6988	0.0993	-0.2227	1.2434	1.0002	0.483	1.675	1.5791	0.9694	-0.4727	-0.0925	-0.2535	0.9146	0.1747	0.8872	-0.3528	1.3736	0.2261	-0.6406
-0.3562	0.1781	0.0171	-0.4659	0.6885	0.2021	-0.1336	1.2126	1.1064	0.5583	1.6511	1.6579	1.0482	-0.4282	-0.0274	-0.1439	0.8324	0.2877	0.8118	-0.2775	1.3359	0.3391	-0.5926
-0.274	0.1815	0.1096	-0.3939	0.6988	0.3049	-0.0514	1.1647	1.1818	0.6406	1.6305	1.7024	1.1372	-0.3631	0.0548	-0.0034	0.7262	0.346	0.7604	-0.2261	1.2811	0.4248	-0.5549
-0.2055	0.2261	0.2295	-0.3631	0.6748	0.4042	0.0411	1.1304	1.2914	0.7228	1.5894	1.8018	1.2366	-0.322	0.0993	0.0959	0.6303	0.4316	0.6714	-0.1713	1.2195	0.507	-0.4864
-0.1199	0.2775	0.3391	-0.3049	0.6851	0.5104	0.1267	1.0996	1.3668	0.7879	1.5689	1.8463	1.3222	-0.2912	0.1404	0.1953	0.5515	0.5104	0.6132	-0.1267	1.1852	0.5789	-0.4419
-0.0788	0.3049	0.4316	-0.2398	0.6645	0.6234	0.2295	1.0687	1.4661	0.8358	1.5243	1.9045	1.4216	-0.2432	0.1541	0.2912	0.4522	0.6029	0.5309	-0.0514	1.127	0.6303	-0.3734
-0.0274	0.3288	0.5309	-0.1884	0.6817	0.7433	0.3151	1.055	1.5312	0.9728	1.4764	1.9628	1.514	-0.1918	0.161	0.3665	0.3562	0.7193	0.4624	0.0411	1.0927	0.6406	-0.322
0.0617	0.3699	0.6337	-0.0891	0.6645	0.8769	0.435	1.0139	1.6545	1.0276	1.4592	2.0381	1.6168	-0.1439	0.1918	0.5104	0.2603	0.781	0.3836	0.1165	1.0379	0.6337	-0.2466
0.1267	0.3939	0.7193	-0.0274	0.6748	0.9763	0.507	0.9934	1.7196	1.103	1.425	2.0827	1.699	-0.0959	0.1815	0.6166	0.1781	0.8803	0.298	0.1576	0.9728	0.6029	-0.1953
0.1884	0.4316	0.8084	0.024	0.6782	1.0859	0.6337	0.9557	1.8223	1.2058	1.3907	2.158	1.7778	-0.0582	0.1576	0.7193	0.0822	0.9934	0.2329	0.2501	0.942	0.5549	-0.1336
0.2672	0.459	0.8872	0.0445	0.7056	1.1715	0.733	0.9283	1.9045	1.288	1.3633	2.206	1.8497	-0.0171	0.1233	0.7981	-0.0034	1.0961	0.1576	0.3186	0.8598	0.5172	-0.0822
0.322	0.459	0.9454	0.1165	0.6988	1.2537	0.8118	0.8872	1.9662	1.3668	1.3119	2.2197	1.9148	0.0308	0.0719	0.8598	-0.0891	1.1338	0.0548	0.4111	0.7844	0.4727	-0.0411
0.3974	0.4967	1.0071	0.1507	0.6954	1.3462	0.8872	0.8427	2.0347	1.4318	1.2434	2.23	1.9765	0.0754	0	0.8564	-0.1678	1.216	-0.0137	0.4933	0.7399	0.4248	0.0206
0.4864	0.5138	1.0824	0.2398	0.7022	1.4284	0.9763	0.8153	2.0861	1.5277	1.1921	2.2711	2.0381	0.1096	-0.0582	0.8187	-0.2466	1.288	-0.1199	0.5618	0.6543	0.3939	0.0445
0.5446	0.5446	1.1407	0.2912	0.7056	1.4935	1.055	0.7707	2.1375	1.5757	1.1201	2.2813	2.0929	0.1404	-0.1302	0.7193	-0.3083	1.353	-0.2124	0.62	0.5926	0.3974	0.0856
0.6645	0.5515	1.2058	0.3562	0.6817	1.5552	1.1201	0.6919	2.158	1.6305	1.0687	2.2813	2.1203	0.1781	-0.1987	0.5995	-0.3768	1.4113	-0.3083	0.6645	0.5001	0.3665	0.1233
0.7399	0.596	1.2948	0.4453	0.6645	1.6065	1.2434	0.6543	2.2163	1.7161	0.9694	2.2848	2.1752	0.1918	-0.2124	0.4727	-0.4111	1.4592	-0.3734	0.7399	0.4248	0.3734	0.1473
0.8324	0.5995	1.3428	0.5207	0.6303	1.6408	1.2982	0.5892	2.1991	1.7573	0.8906	2.2505	2.1786	0.2124	-0.2227	0.2843	-0.4522	1.514	-0.4624	0.7879	0.3562	0.3871	0.1644
0.9386	0.5926	1.377	0.5926	0.6166	1.6579	1.3805	0.5412	2.182	1.8052	0.7981	2.2128	2.1649	0.2398	-0.2124	0.1302	-0.4693	1.5277	-0.5481	0.8118	0.2603	0.4042	0.1815
1.0002	0.62	1.4284	0.6817	0.6337	1.7059	1.4284	0.4727	2.1889	1.8223	0.7262	2.182	2.1546	0.2398	-0.1678	-0.048	-0.4933	1.562	-0.6337	0.8632	0.1644	0.4385	0.2227
1.0961	0.6371	1.4455	0.781	0.572	1.7264	1.4969	0.4111	2.1649	1.86	0.6303	2.1169	2.1409	0.2432	-0.0617	-0.1713	-0.4898	1.5689	-0.6782	0.894	0.0685	0.5001	0.274
1.1578	0.62	1.514	0.8187	0.5344	1.7298	1.5517	0.3117	2.1306	1.8566	0.5275	2.0553	2.1101	0.2329	0.0445	-0.2809	-0.4898	1.5723	-0.7639	0.8975	-0.0171	0.5549	0.3083
1.2571	0.62	1.5517	0.942	0.5138	1.7401	1.6065	0.2466	2.1135	1.8874	0.4282	1.9799	2.0827	0.2329	0.2364	-0.3186	-0.4864	1.5723	-0.7981	0.9317	-0.0959	0.6234	0.3734
1.3291	0.6474	1.6339	1.0653	0.5104	1.7607	1.6716	0.1987	2.0861	1.9045	0.3528	1.9114	2.0553	0.2261	0.4248	-0.2775	-0.4796	1.5654	-0.8392	0.9557	-0.1781	0.7056	0.4248
1.401	0.6645	1.6545	1.1167	0.4316	1.7504	1.7093	0.1028	2.0176	1.8943	0.2603	1.8497	1.9731	0.2261	0.6406	-0.1678	-0.4624	1.538	-0.8906	0.9351	-0.2638	0.7776	0.4933
1.4764	0.6885	1.7196	1.2229	0.4042	1.7333	1.7881	0.0548	1.9628	1.9182	0.1781	1.7641	1.9422	0.2295	0.8769	0.0171	-0.459	1.5552	-0.9077	0.9728	-0.3186	0.8495	0.5481
1.538	0.6782	1.7298	1.2948	0.3631	1.7538	1.7915	-0.0103	1.9148	1.86	0.0822	1.675	1.884	0.2124	1.0585	0.2192	-0.4248	1.5209	-0.9523	0.9557	-0.4111	0.918	0.5995
1.61	0.6919	1.771	1.3633	0.322	1.7196	1.8258	-0.0891	1.8497	1.8429	0.0034	1.5928	1.8052	0.209	1.2845	0.483	-0.4248	1.4969	-0.9591	0.9523	-0.4487	0.99	0.6577
1.6339	0.6988	1.7984	1.425	0.2501	1.7024	1.8155	-0.1473	1.771	1.8052	-0.0822	1.4695	1.7401	0.2124	1.4764	0.7947	-0.4145	1.4455	-1.0071	0.942	-0.5104	1.0482	0.6988
1.7264	0.6851	1.8258	1.4901	0.1987	1.699	1.8395	-0.2021	1.6956	1.7607	-0.161	1.401	1.6442	0.2192	1.7127	1.1372	-0.4248	1.377	-1.0105	0.9317	-0.5618	1.0927	0.7673
1.7504	0.7022	1.8806	1.5243	0.1678	1.6853	1.8395	-0.2535	1.6031	1.7059	-0.1918	1.2914	1.5723	0.2329	1.8737	1.449	-0.4556	1.353	-0.9968	0.9317	-0.5515	1.1475	0.8153
1.8223	0.7159	1.8908	1.6031	0.1165	1.6887	1.8189	-0.3151	1.5312	1.6545	-0.2775	1.216	1.5003	0.2535	2.0587	1.7401	-0.5035	1.3188	-0.9865	0.9043	-0.6063	1.1818	0.8632
1.8326	0.6714	1.884	1.61	0.0411	1.6442	1.7881	-0.3631	1.4284	1.562	-0.346	1.0927	1.3668	0.2603	2.1717	1.9799	-0.5309	1.2434	-1.0174	0.8872	-0.6303	1.2537	0.9214
1.8395	0.6269	1.8874	1.6476	-0.0308	1.5791	1.7264	-0.435	1.3188	1.4901	-0.4145	0.9591	1.264	0.2843	2.2402	2.1957	-0.5823	1.1647	-1.0002	0.8461	-0.6508	1.2914	0.9728
1.8395	0.5892	1.8943	1.6682	-0.0925	1.5449	1.699	-0.4864	1.216	1.3873	-0.459	0.8564	1.1407	0.322	2.2848	2.3738	-0.6371	1.1098	-1.0242	0.8324	-0.6954	1.3325	1.0139
1.8189	0.5515	1.8223	1.6579	-0.1987	1.4695	1.6237	-0.5549	1.079	1.2811	-0.5446	0.6919	1.0311	0.3391	2.343	2.5383	-0.6885	1.0208	-1.0482	0.7879	-0.7159	1.3873	1.0311
1.7984	0.4933	1.7949	1.6408	-0.2706	1.3976	1.5517	-0.6063	0.9625	1.1921	-0.5926	0.5858	0.9112	0.3597	2.3499	2.6205	-0.7228	0.9454	-1.0516	0.7296	-0.6988	1.4216	1.0619
1.7778	0.4693	1.771	1.6442	-0.3425	1.3462	1.5003	-0.6577	0.8598	1.0585	-0.6371	0.4727	0.7776	0.3836	2.343	2.7541	-0.7707	0.8872	-1.0276	0.7022	-0.668	1.4387	1.0756
1.7024	0.4179	1.7024	1.6065	-0.4179	1.2811	1.3633	-0.6748	0.733	0.9351	-0.6782	0.346	0.6817	0.4042	2.3156	2.7952	-0.7879	0.781	-1.0242	0.644	-0.668	1.4387	1.0722
1.6613	0.3836	1.6579	1.5791	-0.4967	1.2263	1.288	-0.7228	0.6097	0.8255	-0.7193	0.2295	0.5515	0.4076	2.3053	2.8671	-0.8016	0.7228	-1.0139	0.6166	-0.6645	1.425	1.0653
1.6374	0.3425	1.6065	1.5826	-0.5344	1.1133	1.2126	-0.7604	0.5138	0.733	-0.7467	0.113	0.4659	0.4042	2.2437	2.8534	-0.8016	0.6611	-0.9797	0.5686	-0.6132	1.3907	1.0585
1.562	0.2603	1.5312	1.538	-0.6269	1.0448	1.1235	-0.7776	0.4076	0.572	-0.7913	-0.0171	0.3151	0.4042	2.1752	2.8534	-0.7947	0.5378	-0.9625	0.4933	-0.5789	1.3462	1.055
1.5517	0.2638	1.4798	1.5106	-0.6611	0.9694	1.0276	-0.8153	0.322	0.4624	-0.8221	-0.1336	0.2329	0.4008	2.1066	2.7849	-0.7844	0.4967	-0.942	0.4693	-0.5241	1.2606	1.0002
1.5003	0.2432	1.4216	1.4695	-0.6919	0.9112	0.9454	-0.8118	0.2158	0.3528	-0.8187	-0.2021	0.1473	0.3905	2.045	2.6855	-0.7742	0.4316	-0.9112	0.4042	-0.4898	1.1681	0.966
1.4592	0.209	1.377	1.4421	-0.7193	0.8529	0.8666	-0.8324	0.1644	0.2672	-0.8187	-0.3014	0.0377	0.3905	1.9902	2.5828	-0.7502	0.3631	-0.8803	0.3836	-0.4213	1.0859	0.9283
1.4113	0.1953	1.3222	1.3873	-0.7296	0.7844	0.7707	-0.8221	0.1062	0.1541	-0.805	-0.4179	-0.0445	0.3802	1.9148	2.3944	-0.7399	0.298	-0.8324	0.346	-0.3699	1.0105	0.8906
1.3907	0.1713	1.2743	1.3462	-0.7365	0.7536	0.7262	-0.7947	0.0274	0.0788	-0.7844	-0.4727	-0.1165	0.3631	1.8497	2.2265	-0.7193	0.2398	-0.7742	0.3186	-0.3014	0.9249	0.8221
1.3496	0.1747	1.2297	1.3085	-0.7433	0.7193	0.6406	-0.7776	-0.0445	-0.0103	-0.7776	-0.5446	-0.1713	0.346	1.7949	2.0073	-0.6817	0.209	-0.7125	0.3151	-0.2192	0.8769	0.7707
1.3291	0.1644	1.1989	1.2743	-0.7228	0.6954	0.5755	-0.7365	-0.0411	-0.0891	-0.7467	-0.5995	-0.2329	0.3049	1.7093	1.7847	-0.6371	0.1815	-0.668	0.2809	-0.1439	0.829	0.6919
1.2845	0.1884	1.1715	1.2571	-0.668	0.6543	0.5344	-0.6988	-0.0856	-0.1439	-0.7056	-0.6474	-0.2775	0.298	1.6819	1.6134	-0.596	0.1404	-0.5926	0.2877	-0.0651	0.805	0.6097
1.2777	0.185	1.1475	1.2195	-0.6645	0.62	0.4727	-0.6645	-0.137	-0.1953	-0.6954	-0.6919	-0.3186	0.274	1.6545	1.4318	-0.5378	0.1233	-0.5241	0.2672	0.0411	0.7707	0.5275
1.2195	0.185	1.1304	1.1681	-0.6097	0.5858	0.4111	-0.6371	-0.1507	-0.2432	-0.6611	-0.7262	-0.3425	0.2192	1.6134	1.2708	-0.4522	0.1096	-0.4385	0.2501	0.1302	0.7673	0.4659
1.1989	0.1987	1.103	1.1064	-0.5789	0.5549	0.3802	-0.5926	-0.1884	-0.2877	-0.6166	-0.7776	-0.3631	0.1815	1.5449	1.1372	-0.3768	0.0754	-0.3494	0.2569	0.2055	0.7604	0.3905
1.1681	0.1987	1.0585	1.055	-0.5309	0.4864	0.3014	-0.5583	-0.2364	-0.3494	-0.5926	-0.8221	-0.4145	0.1507	1.5346	0.9865	-0.3117	0.0617	-0.2638	0.2569	0.2638	0.7707	0.3186
1.1167	0.2295	1.0105	0.9763	-0.459	0.435	0.2124	-0.5378	-0.3014	-0.3905	-0.5789	-0.8803	-0.4556	0.1165	1.5072	0.894	-0.2466	0.0617	-0.2021	0.274	0.3186	0.7467	0.2329
1.0653	0.2055	0.9454	0.9112	-0.459	0.3939	0.1678	-0.507	-0.3357	-0.4453	-0.5755	-0.9214	-0.4761	0.0993	1.4901	0.7947	-0.1918	0.0514	-0.1336	0.2912	0.3905	0.757	0.1815
0.9763	0.2227	0.8529	0.8221	-0.4213	0.2946	0.0754	-0.5172	-0.4522	-0.5309	-0.5823	-1.0002	-0.5309	0.0651	1.4592	0.6748	-0.1507	0	-0.0548	0.2775	0.4179	0.7228	0.1165
0.9112	0.2364	0.7673	0.733	-0.3871	0.1953	0	-0.5241	-0.5035	-0.5892	-0.6303	-1.0824	-0.572	0.0548	1.4284	0.5207	-0.1165	-0.0343	-0.0445	0.2946	0.4248	0.6885	0.0651
0.7947	0.2124	0.6611	0.62	-0.4213	0.0719	-0.0993	-0.5549	-0.6166	-0.6782	-0.6543	-1.1681	-0.6611	0.0582	1.4079	0.3734	-0.1165	-0.0617	-0.0274	0.2569	0.4076	0.6577	0.0103
0.7125	0.1781	0.5344	0.5241	-0.4008	-0.0788	-0.1918	-0.5823	-0.733	-0.7262	-0.6817	-1.2708	-0.7125	0.0445	1.3873	0.2706	-0.1028	-0.0822	-0.0137	0.2672	0.4248	0.5995	-0.0617
0.6029	0.1815	0.4282	0.3939	-0.3939	-0.209	-0.3014	-0.62	-0.8598	-0.7879	-0.733	-1.3428	-0.7639	0.0514	1.3805	0.1473	-0.1199	-0.1028	0	0.274	0.4008	0.5378	-0.0993
0.507	0.1781	0.3049	0.3151	-0.3974	-0.3151	-0.3665	-0.6474	-0.9557	-0.8358	-0.805	-1.4353	-0.781	0.0719	1.4079	0.0343	-0.1678	-0.1199	0.0137	0.2946	0.3631	0.4693	-0.137
0.4111	0.1267	0.1473	0.1713	-0.4453	-0.4727	-0.4761	-0.6885	-1.0756	-0.9146	-0.8324	-1.5209	-0.8358	0.0959	1.3873	-0.0582	-0.1987	-0.1336	0.0034	0.2809	0.2946	0.4179	-0.1747
0.298	0.1165	0.0069	0.024	-0.4522	-0.6063	-0.5378	-0.7296	-1.1647	-0.9523	-0.8495	-1.5757	-0.8632	0.1233	1.3942	-0.1404	-0.2501	-0.1096	-0.0137	0.298	0.2466	0.3494	-0.1678
0.185	0.0788	-0.1439	-0.0788	-0.4761	-0.7262	-0.62	-0.7673	-1.2743	-0.966	-0.9317	-1.6545	-0.9077	0.1507	1.3873	-0.2055	-0.3151	-0.1096	-0.0514	0.3288	0.1953	0.3254	-0.1884
0.0925	0.0411	-0.2501	-0.1815	-0.4864	-0.8324	-0.6851	-0.805	-1.3736	-1.0071	-0.9557	-1.7264	-0.9249	0.1884	1.3839	-0.2775	-0.3905	-0.1199	-0.0651	0.3597	0.1439	0.298	-0.1507
0.0171	0.0206	-0.3802	-0.2775	-0.5104	-0.9454	-0.7536	-0.8221	-1.4524	-1.0139	-0.9865	-1.7915	-0.9591	0.2192	1.3805	-0.3288	-0.4556	-0.1404	-0.0788	0.3939	0.1062	0.2912	-0.1404
-0.0754	-0.0274	-0.5138	-0.3665	-0.5344	-1.0619	-0.8153	-0.8495	-1.5346	-1.0345	-1.0002	-1.8395	-0.9865	0.2603	1.3291	-0.3665	-0.5172	-0.1199	-0.0993	0.3974	0.0377	0.2877	-0.0925
-0.1678	-0.0617	-0.6132	-0.4522	-0.572	-1.1784	-0.8598	-0.8701	-1.6168	-1.0242	-1.0448	-1.8737	-0.9763	0.2843	1.2708	-0.3631	-0.5755	-0.113	-0.1096	0.4316	-0.0171	0.2877	-0.0445
-0.2501	-0.1062	-0.7433	-0.5344	-0.5858	-1.2708	-0.9077	-0.8906	-1.6853	-1.0345	-1.0482	-1.8943	-1.0071	0.3083	1.2263	-0.3631	-0.6269	-0.1302	-0.137	0.4659	-0.0754	0.274	0.0343
-0.3151	-0.1404	-0.8701	-0.5926	-0.5823	-1.3599	-0.9077	-0.8632	-1.7573	-1.0174	-1.0379	-1.9251	-0.9831	0.3494	1.1201	-0.2672	-0.6919	-0.0959	-0.137	0.5275	-0.113	0.2501	0.1028
-0.4111	-0.1644	-0.9865	-0.6577	-0.5892	-1.4181	-0.9351	-0.8598	-1.7915	-1.0037	-1.0653	-1.9251	-0.9934	0.346	1.0037	-0.2364	-0.7091	-0.0959	-0.1439	0.5549	-0.1233	0.2261	0.1678
-0.4659	-0.1953	-1.055	-0.6817	-0.6029	-1.4969	-0.9317	-0.8461	-1.8189	-0.9523	-1.0311	-1.9251	-0.9728	0.3528	0.9077	-0.1678	-0.7365	-0.0856	-0.1576	0.6097	-0.137	0.1541	0.2432
-0.5344	-0.2227	-1.1578	-0.7262	-0.5892	-1.5517	-0.9112	-0.8084	-1.8292	-0.9146	-1.0071	-1.8943	-0.9454	0.3597	0.8392	-0.0582	-0.7536	-0.048	-0.1267	0.6645	-0.1336	0.1096	0.3323
-0.6132	-0.2672	-1.2571	-0.7913	-0.5926	-1.6031	-0.918	-0.7707	-1.86	-0.8461	-0.966	-1.8703	-0.8838	0.3562	0.7159	-0.0069	-0.7365	-0.0069	-0.1507	0.7125	-0.1507	0.0685	0.3939
-0.6748	-0.2843	-1.3222	-0.8016	-0.5823	-1.6305	-0.918	-0.7262	-1.8463	-0.8427	-0.9249	-1.8429	-0.8598	0.3391	0.6234	0.0343	-0.7091	0.0274	-0.1096	0.7707	-0.1199	0.0411	0.4624
-0.7193	-0.3049	-1.3736	-0.8084	-0.5823	-1.675	-0.8803	-0.6474	-1.8018	-0.7604	-0.8255	-1.7641	-0.8392	0.3254	0.5583	0.0719	-0.6954	0.0754	-0.0685	0.8118	-0.0822	0.0206	0.5241
-0.8084	-0.3254	-1.4524	-0.8564	-0.5549	-1.7059	-0.8803	-0.596	-1.8086	-0.7091	-0.7604	-1.723	-0.7707	0.3186	0.459	0.0617	-0.6474	0.0685	-0.0617	0.8427	-0.0514	0.0343	0.5823
-0.8221	-0.3425	-1.4832	-0.8495	-0.5446	-1.7093	-0.8598	-0.5241	-1.7641	-0.6508	-0.7022	-1.6648	-0.757	0.2843	0.4179	0.0069	-0.5823	0.0891	0	0.8187	0.0137	0.0308	0.6234
-0.8598	-0.3391	-1.5072	-0.8495	-0.5138	-1.7333	-0.8358	-0.4659	-1.723	-0.5618	-0.5995	-1.562	-0.6919	0.2432	0.322	-0.0685	-0.5104	0.0822	0.0343	0.8427	0.0719	0.0548	0.668
-0.8392	-0.3186	-1.4901	-0.8221	-0.4556	-1.699	-0.781	-0.3425	-1.6442	-0.5241	-0.4761	-1.4592	-0.6406	0.2192	0.2843	-0.1439	-0.4556	0.1267	0.1199	0.8529	0.1507	0.0411	0.6817
-0.8564	-0.3186	-1.5106	-0.7639	-0.4213	-1.675	-0.7604	-0.2432	-1.5826	-0.4487	-0.3699	-1.3633	-0.572	0.1918	0.2124	-0.2809	-0.3768	0.1336	0.1713	0.8666	0.2432	0.0206	0.7022
-0.8324	-0.322	-1.4661	-0.7365	-0.3871	-1.6579	-0.7091	-0.1576	-1.5003	-0.4111	-0.2603	-1.2606	-0.5344	0.1473	0.161	-0.4453	-0.2912	0.1199	0.2672	0.8153	0.3494	-0.0103	0.7193
-0.829	-0.3288	-1.4661	-0.7022	-0.3631	-1.6339	-0.6817	-0.0582	-1.3942	-0.3528	-0.1404	-1.1612	-0.4933	0.1096	0.1439	-0.6132	-0.2192	0.1062	0.3494	0.7844	0.4316	-0.0617	0.7296
-0.7604	-0.2809	-1.4044	-0.644	-0.2912	-1.5826	-0.6371	0.0308	-1.3188	-0.3151	-0.0206	-1.0242	-0.435	0.0788	0.1336	-0.8084	-0.1713	0.0959	0.4213	0.7502	0.5309	-0.1336	0.7433
-0.7467	-0.2775	-1.3702	-0.5995	-0.2706	-1.5277	-0.6406	0.1028	-1.2229	-0.274	0.0891	-0.9214	-0.4008	0.0411	0.1267	-0.9831	-0.1062	0.0514	0.4933	0.6851	0.6337	-0.1678	0.733
-0.7262	-0.2946	-1.3599	-0.5583	-0.2432	-1.4832	-0.6097	0.1815	-1.1715	-0.2535	0.2124	-0.8187	-0.3802	0.0206	0.1302	-1.1578	-0.048	0.0034	0.5446	0.6132	0.7296	-0.2158	0.757
-0.6988	-0.2843	-1.3119	-0.5172	-0.185	-1.4592	-0.5686	0.2775	-1.0824	-0.2295	0.322	-0.7159	-0.3357	0	0.1507	-1.2674	0.0034	-0.0514	0.6269	0.5275	0.829	-0.274	0.7742
-0.644	-0.298	-1.2845	-0.4556	-0.1781	-1.4113	-0.5446	0.3528	-0.99	-0.2124	0.4145	-0.5892	-0.3083	-0.0445	0.1644	-1.3565	0.0514	-0.113	0.6885	0.435	0.9386	-0.3254	0.781
-0.6269	-0.3288	-1.2537	-0.4487	-0.1576	-1.3702	-0.5344	0.4145	-0.9043	-0.1815	0.5378	-0.4796	-0.2706	-0.0754	0.2261	-1.377	0.113	-0.185	0.733	0.346	1.0311	-0.3665	0.781
-0.596	-0.3186	-1.2195	-0.4179	-0.1199	-1.3393	-0.5275	0.4796	-0.805	-0.1815	0.644	-0.3597	-0.2843	-0.1028	0.2501	-1.3325	0.185	-0.2364	0.8084	0.2432	1.1235	-0.4282	0.7947
-0.5892	-0.3323	-1.2058	-0.4008	-0.1302	-1.3085	-0.5172	0.4898	-0.7228	-0.161	0.7399	-0.2638	-0.2638	-0.1507	0.3151	-1.2503	0.2569	-0.3151	0.8392	0.137	1.2332	-0.459	0.8118
-0.5652	-0.3494	-1.1886	-0.3974	-0.1302	-1.2845	-0.5344	0.5652	-0.6371	-0.1644	0.8392	-0.1541	-0.209	-0.1713	0.3734	-1.127	0.3288	-0.3871	0.894	0.0514	1.3359	-0.5241	0.8221
-0.5755	-0.3734	-1.2092	-0.4145	-0.1267	-1.2606	-0.5446	0.5926	-0.5823	-0.1644	0.918	-0.0651	-0.1953	-0.2192	0.4179	-1.0345	0.4111	-0.4076	0.9625	-0.0411	1.4147	-0.5789	0.8324
-0.5549	-0.4213	-1.1955	-0.4213	-0.1267	-1.2469	-0.5549	0.6097	-0.5104	-0.1404	0.9865	0.0274	-0.1953	-0.2535	0.4898	-0.8769	0.4864	-0.4659	1.0002	-0.1439	1.5072	-0.644	0.8564
-0.5686	-0.459	-1.2229	-0.4659	-0.1541	-1.2674	-0.5892	0.6337	-0.4659	-0.1678	1.0413	0.1062	-0.1713	-0.298	0.5035	-0.7433	0.5755	-0.5446	1.0037	-0.2329	1.5894	-0.7296	0.8769
-0.5995	-0.5378	-1.2434	-0.4967	-0.2124	-1.264	-0.6132	0.6166	-0.4522	-0.209	1.0756	0.1576	-0.1781	-0.3391	0.5241	-0.6063	0.6508	-0.6166	1.0448	-0.3323	1.6408	-0.8016	0.8769
-0.6543	-0.5995	-1.3119	-0.5652	-0.2364	-1.2914	-0.6543	0.6234	-0.4213	-0.2227	1.103	0.2055	-0.1541	-0.3802	0.5481	-0.4933	0.7262	-0.6714	1.055	-0.4145	1.7059	-0.8735	0.9077
-0.6885	-0.6919	-1.3736	-0.6508	-0.2843	-1.3496	-0.7159	0.5789	-0.4179	-0.2329	1.1372	0.2466	-0.1541	-0.4213	0.596	-0.3631	0.805	-0.733	1.0653	-0.507	1.7504	-0.9728	0.8701
-0.7879	-0.7707	-1.4387	-0.7467	-0.3665	-1.3942	-0.7742	0.5515	-0.4213	-0.2535	1.1098	0.2329	-0.1815	-0.4522	0.6337	-0.3014	0.8632	-0.7844	1.0722	-0.5926	1.7675	-1.0345	0.8701
-0.8872	-0.8769	-1.5175	-0.8598	-0.4179	-1.449	-0.8495	0.5309	-0.435	-0.3014	1.1064	0.2501	-0.1781	-0.4796	0.644	-0.274	0.9043	-0.8255	1.0687	-0.6748	1.7812	-1.079	0.9077
-0.9728	-1.0002	-1.6271	-0.9694	-0.5446	-1.562	-0.9317	0.459	-0.4898	-0.3597	1.0448	0.2021	-0.2192	-0.5138	0.6337	-0.2501	0.9763	-0.9077	1.0071	-0.7707	1.7607	-1.127	0.894
-1.0756	-1.1201	-1.7127	-1.0619	-0.6097	-1.6374	-0.9968	0.3939	-0.5241	-0.4145	1.0037	0.1576	-0.2227	-0.5207	0.6371	-0.2158	0.9968	-0.966	0.9728	-0.8255	1.771	-1.1407	0.8769
-1.1852	-1.2195	-1.8155	-1.1852	-0.6851	-1.7024	-1.0653	0.3117	-0.5926	-0.459	0.9488	0.1267	-0.2329	-0.5412	0.6234	-0.2501	1.0311	-0.9694	0.9523	-0.8803	1.747	-1.1338	0.8632
-1.2948	-1.3291	-1.9011	-1.3085	-0.7844	-1.8189	-1.1304	0.2569	-0.6645	-0.4898	0.8975	0.0822	-0.274	-0.5515	0.6029	-0.2329	1.055	-1.0002	0.8906	-0.9283	1.7196	-1.1372	0.8803
-1.4079	-1.4113	-1.9868	-1.3839	-0.8564	-1.908	-1.1852	0.1884	-0.7125	-0.5138	0.8187	0.0103	-0.2809	-0.572	0.5755	-0.1987	1.0859	-1.0276	0.8358	-0.9763	1.6785	-1.1475	0.8975
-1.5277	-1.5003	-2.0655	-1.4661	-0.9077	-1.9902	-1.2537	0.1165	-0.7707	-0.5275	0.7296	-0.0274	-0.2843	-0.5823	0.5583	-0.1747	1.1098	-1.0516	0.7776	-0.9934	1.6408	-1.1612	0.9146
-1.6202	-1.5586	-2.1272	-1.5312	-0.9694	-2.0724	-1.2811	0.0582	-0.8461	-0.5618	0.6577	-0.1062	-0.2843	-0.5892	0.5001	-0.1987	1.1235	-1.0653	0.7399	-1.0139	1.5791	-1.1647	0.9488
-1.6853	-1.6065	-2.1854	-1.586	-1.0482	-2.1375	-1.3017	-0.048	-0.9283	-0.5755	0.5515	-0.2055	-0.2809	-0.6132	0.5104	-0.1815	1.1681	-1.0927	0.6851	-1.0276	1.5106	-1.2092	0.9694
-1.7333	-1.6648	-2.2368	-1.6134	-1.1064	-2.2163	-1.3085	-0.0993	-0.9934	-0.5995	0.4761	-0.2775	-0.298	-0.6029	0.5001	-0.1747	1.1647	-1.0961	0.6337	-1.0105	1.4387	-1.2229	0.9728
-1.7778	-1.7127	-2.2711	-1.6442	-1.1544	-2.2779	-1.3256	-0.1576	-1.1064	-0.62	0.3631	-0.4008	-0.3391	-0.5995	0.4898	-0.2124	1.1715	-1.1098	0.5789	-1.0105	1.353	-1.2195	1.0208
-1.8292	-1.7298	-2.3293	-1.6613	-1.2058	-2.3362	-1.3496	-0.2432	-1.2023	-0.6508	0.274	-0.5035	-0.3768	-0.5926	0.4967	-0.2432	1.1509	-1.1235	0.5172	-1.0071	1.2743	-1.2092	1.0379
-1.884	-1.7881	-2.367	-1.7161	-1.2914	-2.4218	-1.3805	-0.3665	-1.3325	-0.7125	0.1267	-0.6645	-0.4419	-0.5995	0.5001	-0.2912	1.1647	-1.1681	0.4111	-1.0276	1.1304	-1.2092	1.0619
-1.9251	-1.8155	-2.4149	-1.7161	-1.3565	-2.5143	-1.4181	-0.4556	-1.4558	-0.7776	-0.0171	-0.8118	-0.5378	-0.5789	0.4864	-0.3631	1.1338	-1.1989	0.3254	-1.0311	0.9934	-1.1407	1.0927
-1.9491	-1.8497	-2.4286	-1.7264	-1.4421	-2.5862	-1.4387	-0.5583	-1.5997	-0.8118	-0.1815	-0.9831	-0.6166	-0.5652	0.5104	-0.4898	1.1167	-1.2297	0.2364	-1.0002	0.8529	-1.0824	1.1133
-2.0073	-1.8771	-2.4629	-1.7504	-1.4969	-2.7061	-1.449	-0.6954	-1.747	-0.9043	-0.3597	-1.1715	-0.7262	-0.5549	0.5035	-0.6029	1.0824	-1.2708	0.1267	-0.9968	0.6988	-0.9968	1.127
-2.021	-1.9388	-2.5246	-1.7641	-1.5757	-2.7952	-1.5003	-0.8016	-1.8977	-0.9557	-0.5309	-1.3633	-0.829	-0.5412	0.5344	-0.6954	1.0413	-1.3119	0.024	-0.99	0.5618	-0.9112	1.1372
-2.0655	-1.9662	-2.5588	-1.771	-1.7024	-2.9048	-1.5175	-0.9488	-2.0621	-1.055	-0.7159	-1.5723	-0.9386	-0.5275	0.5378	-0.7742	1.0208	-1.3599	-0.0993	-0.9968	0.3562	-0.8084	1.1372
-2.0587	-2.0073	-2.6102	-1.771	-1.7847	-3.0144	-1.5517	-1.0961	-2.2334	-1.1475	-0.918	-1.7778	-1.1064	-0.5138	0.5686	-0.8118	0.9968	-1.4079	-0.2329	-0.9865	0.1781	-0.7091	1.1647
-2.0827	-2.021	-2.6273	-1.7915	-1.8703	-3.0966	-1.6031	-1.24	-2.3944	-1.2503	-1.0961	-2.0073	-1.2537	-0.507	0.5618	-0.805	0.9797	-1.4832	-0.3425	-1.0071	0	-0.62	1.1921
-2.069	-2.0347	-2.6479	-1.771	-1.9525	-3.1822	-1.6339	-1.3565	-2.5759	-1.3393	-1.2811	-2.2265	-1.4284	-0.4864	0.5652	-0.7707	0.9386	-1.5209	-0.4624	-0.9865	-0.1576	-0.5378	1.1989
-2.1169	-2.1238	-2.713	-1.8018	-2.0621	-3.2884	-1.6853	-1.514	-2.7712	-1.4935	-1.4969	-2.4389	-1.6031	-0.4898	0.5515	-0.6851	0.9454	-1.61	-0.5755	-1.0311	-0.3151	-0.4898	1.2229
-2.1375	-2.1409	-2.7712	-1.8189	-2.1546	-3.3843	-1.7333	-1.6545	-2.9356	-1.5997	-1.6545	-2.6479	-1.7641	-0.4659	0.5001	-0.6029	0.9043	-1.6887	-0.6817	-1.0379	-0.4624	-0.4556	1.2366
-2.1306	-2.1786	-2.8089	-1.836	-2.2368	-3.4905	-1.8086	-1.7778	-3.0966	-1.7401	-1.8258	-2.8534	-1.9319	-0.4624	0.483	-0.5035	0.8803	-1.7847	-0.781	-1.0893	-0.6166	-0.4316	1.2708
-2.1854	-2.2231	-2.8739	-1.8703	-2.3567	-3.5625	-1.8566	-1.9011	-3.2439	-1.908	-1.9799	-3.0589	-2.0998	-0.435	0.4624	-0.3905	0.829	-1.8532	-0.894	-1.127	-0.757	-0.4248	1.3154
-2.206	-2.2813	-2.9288	-1.8806	-2.4321	-3.6618	-1.9422	-2.0176	-3.4015	-2.0279	-2.1135	-3.2131	-2.2916	-0.4008	0.4213	-0.2877	0.7536	-1.9388	-1.0037	-1.1681	-0.8701	-0.3905	1.3633
-2.2094	-2.3224	-2.963	-1.9045	-2.4903	-3.7577	-2.0073	-2.1101	-3.5316	-2.182	-2.2197	-3.3706	-2.4321	-0.3562	0.4008	-0.1404	0.6748	-2.0039	-1.0893	-1.2434	-0.9386	-0.3836	1.4216
-2.2642	-2.3875	-3.0178	-1.9251	-2.5759	-3.8296	-2.0758	-2.2094	-3.6515	-2.3087	-2.3053	-3.5008	-2.5794	-0.3049	0.3425	-0.0788	0.5926	-2.0518	-1.1509	-1.3085	-1.0037	-0.3288	1.4695
-2.295	-2.4389	-3.0726	-1.9696	-2.665	-3.9221	-2.1615	-2.295	-3.744	-2.4423	-2.3636	-3.5899	-2.6958	-0.2775	0.322	-0.0377	0.5138	-2.1238	-1.2229	-1.3702	-1.0653	-0.2912	1.538
-2.3464	-2.5314	-3.1617	-2.0107	-2.7232	-3.9667	-2.2368	-2.3499	-3.8433	-2.5896	-2.3841	-3.6789	-2.7986	-0.2261	0.2809	-0.0171	0.4213	-2.1923	-1.2845	-1.4729	-1.0756	-0.2466	1.61
-2.3944	-2.5862	-3.1857	-2.0416	-2.7883	-4.0283	-2.3087	-2.4081	-3.9016	-2.6924	-2.3841	-3.7269	-2.8671	-0.1713	0.2501	0	0.322	-2.2128	-1.3359	-1.5175	-1.0653	-0.2055	1.6476
-2.4355	-2.6479	-3.237	-2.0724	-2.8328	-4.0626	-2.3636	-2.4218	-3.9358	-2.7678	-2.3636	-3.7406	-2.9219	-0.1267	0.2432	0.0514	0.2261	-2.2437	-1.3599	-1.5791	-1.0174	-0.1713	1.7093
-2.4595	-2.6718	-3.2644	-2.1032	-2.85	-4.0831	-2.4355	-2.4149	-3.9427	-2.8465	-2.2916	-3.6995	-2.9459	-0.0856	0.2227	0.0411	0.1439	-2.2437	-1.353	-1.6305	-0.9831	-0.1473	1.7504
-2.4903	-2.7301	-3.2816	-2.0998	-2.8808	-4.0866	-2.4971	-2.4012	-3.953	-2.8876	-2.1923	-3.6207	-2.8876	-0.0514	0.1541	0.0308	0.0788	-2.2128	-1.3325	-1.6682	-0.8975	-0.1404	1.7812
-2.4766	-2.7506	-3.2987	-2.1203	-2.8739	-4.0694	-2.5108	-2.3259	-3.8707	-2.9116	-2.0553	-3.5214	-2.826	-0.0171	0.1199	0.0103	0.0171	-2.1752	-1.2948	-1.6887	-0.7707	-0.1233	1.8223
-2.4697	-2.7506	-3.2644	-2.1169	-2.8705	-4.0009	-2.5485	-2.2676	-3.7885	-2.8945	-1.8771	-3.3672	-2.7267	0	0.0617	0	-0.024	-2.1032	-1.2606	-1.699	-0.6611	-0.137	1.8634
-2.4423	-2.7849	-3.2233	-2.1203	-2.8363	-3.9358	-2.5246	-2.1615	-3.6926	-2.8774	-1.675	-3.1822	-2.5999	0.0206	-0.0411	-0.0754	-0.0548	-2.0039	-1.1715	-1.6716	-0.4796	-0.1302	1.8806
-2.4149	-2.7335	-3.1651	-2.0861	-2.7678	-3.8399	-2.5006	-2.0518	-3.5316	-2.7849	-1.4079	-2.9527	-2.4184	0.0308	-0.1302	-0.1267	-0.0822	-1.8395	-1.0585	-1.6339	-0.2569	-0.1233	1.884
-2.3567	-2.7027	-3.1035	-2.0484	-2.6821	-3.7406	-2.4663	-1.8908	-3.333	-2.7095	-1.1441	-2.6753	-2.1786	0.0343	-0.2398	-0.2261	-0.0617	-1.675	-0.942	-1.6031	-0.048	-0.1062	1.908
-2.2985	-2.6239	-3.011	-2.0005	-2.5759	-3.5659	-2.391	-1.699	-3.1309	-2.5588	-0.8255	-2.3704	-1.9148	0.0274	-0.3288	-0.3323	-0.048	-1.4558	-0.7844	-1.5038	0.2021	-0.0548	1.9045
-2.2265	-2.5862	-2.9151	-1.9388	-2.4869	-3.4152	-2.343	-1.538	-2.8979	-2.3944	-0.4796	-2.045	-1.6271	-0.0034	-0.4248	-0.4761	0.0171	-1.2503	-0.6406	-1.4387	0.4693	0.0137	1.8806
-2.1752	-2.5246	-2.8157	-1.8977	-2.3738	-3.2713	-2.2505	-1.3222	-2.6581	-2.2471	-0.1404	-1.7024	-1.2948	-0.048	-0.4967	-0.6132	0.0685	-1.0037	-0.4967	-1.3119	0.7228	0.1267	1.8908
-2.1341	-2.4766	-2.7267	-1.8566	-2.2608	-3.0966	-2.1923	-1.1372	-2.3978	-2.0758	0.2055	-1.3496	-0.9557	-0.0754	-0.5755	-0.7228	0.1302	-0.7604	-0.3357	-1.1921	1.0139	0.2466	1.884
-2.1135	-2.4252	-2.6376	-1.7949	-2.1375	-2.9459	-2.1203	-0.9214	-2.1443	-1.8463	0.5858	-0.9488	-0.62	-0.113	-0.6371	-0.8632	0.2124	-0.4761	-0.1747	-1.0722	1.3051	0.3699	1.8634
-2.0621	-2.3841	-2.5383	-1.7607	-2.0142	-2.7849	-2.045	-0.6954	-1.8703	-1.675	0.966	-0.5344	-0.2192	-0.137	-0.6988	-0.9625	0.2706	-0.1781	-0.0034	-0.9146	1.5963	0.4796	1.8497
-2.0107	-2.2985	-2.48	-1.7367	-1.86	-2.5999	-1.9525	-0.4419	-1.5826	-1.4387	1.3462	-0.137	0.1541	-0.1815	-0.7399	-1.0927	0.3288	0.1165	0.161	-0.7673	1.8737	0.596	1.8189
-2.0073	-2.2745	-2.3841	-1.6922	-1.7641	-2.4595	-1.8669	-0.2158	-1.3359	-1.2229	1.7127	0.2706	0.5412	-0.2055	-0.7947	-1.2058	0.3905	0.4248	0.3083	-0.6132	2.1478	0.668	1.8086
-2.0005	-2.23	-2.3224	-1.6716	-1.6134	-2.3224	-1.7984	-0.0034	-1.079	-1.0071	2.0792	0.6508	0.9317	-0.2158	-0.8564	-1.3428	0.4248	0.7193	0.4385	-0.459	2.4184	0.7502	1.7949
-2.0005	-2.1854	-2.2642	-1.6648	-1.4832	-2.1649	-1.7127	0.185	-0.8392	-0.7981	2.4458	1.0037	1.2982	-0.2261	-0.9077	-1.4798	0.4419	1.0105	0.572	-0.3049	2.6479	0.7879	1.7949
-2.0039	-2.1478	-2.2231	-1.6408	-1.3873	-2.0553	-1.6476	0.3768	-0.5995	-0.5755	2.7609	1.3736	1.6374	-0.2295	-0.9763	-1.7024	0.4419	1.3017	0.6817	-0.161	2.8568	0.8324	1.7984
-2.0005	-2.1135	-2.2026	-1.6511	-1.288	-1.9457	-1.5928	0.5652	-0.3665	-0.4111	3.0829	1.7059	2.0244	-0.2124	-1.0653	-1.9045	0.4179	1.586	0.7707	-0.0034	3.0726	0.8427	1.7949
-2.0313	-2.1066	-2.1786	-1.6271	-1.1818	-1.8669	-1.538	0.7228	-0.1781	-0.2295	3.3467	2.021	2.319	-0.2021	-1.1612	-2.1135	0.4042	1.8395	0.8666	0.1404	3.2919	0.8255	1.8155
-2.0347	-2.0758	-2.1786	-1.6511	-1.1133	-1.7607	-1.4798	0.8838	-0.0069	-0.0617	3.5933	2.3087	2.6068	-0.1884	-1.2743	-2.3807	0.3631	2.0895	0.9317	0.2569	3.4528	0.8084	1.8258
-2.0724	-2.0758	-2.1786	-1.6682	-1.0139	-1.7196	-1.4592	1.0208	0.1439	0.1302	3.8365	2.5417	2.8808	-0.1644	-1.3599	-2.6376	0.3014	2.3156	1.0208	0.3939	3.5762	0.7502	1.8634
-2.1341	-2.0929	-2.206	-1.675	-0.9865	-1.6887	-1.4421	1.103	0.2432	0.2364	4.0249	2.778	3.124	-0.1233	-1.5312	-2.9356	0.2432	2.5554	1.0379	0.5001	3.72	0.7399	1.8908
-2.1889	-2.0621	-2.2368	-1.7298	-0.9386	-1.6716	-1.4353	1.2092	0.346	0.3288	4.2133	2.963	3.2884	-0.0959	-1.6271	-3.2165	0.1747	2.7369	1.079	0.6097	3.857	0.6782	1.9114
-2.2231	-2.0895	-2.2985	-1.7675	-0.8906	-1.6648	-1.4524	1.2777	0.4008	0.4042	4.3298	3.1137	3.5008	-0.0651	-1.747	-3.5145	0.1096	2.9151	1.1235	0.6851	3.9221	0.6406	1.9491
-2.295	-2.1306	-2.3293	-1.8395	-0.8769	-1.6648	-1.4592	1.3599	0.4659	0.4453	4.4291	3.237	3.6412	-0.0274	-1.8669	-3.7988	0.0411	3.0555	1.1509	0.7502	3.9804	0.5926	1.9765
-2.343	-2.1032	-2.3875	-1.8703	-0.8221	-1.6956	-1.4901	1.4216	0.5104	0.4898	4.5319	3.3672	3.7851	0.0069	-1.9388	-4.0043	-0.0274	3.1994	1.1749	0.8255	4.0386	0.5344	1.997
-2.4081	-2.1238	-2.4697	-1.9559	-0.8084	-1.6956	-1.5277	1.4866	0.5309	0.5207	4.573	3.4494	3.8913	0.0308	-2.0381	-4.227	-0.0685	3.3227	1.1921	0.894	4.1037	0.4898	2.0176
-2.4115	-2.0929	-2.4903	-1.9696	-0.7879	-1.6956	-1.5449	1.514	0.5241	0.5686	4.5935	3.4905	3.9941	0.0617	-2.1032	-4.4154	-0.1233	3.4289	1.216	0.9694	4.1277	0.4659	2.0381
-2.4732	-2.0827	-2.5485	-2.021	-0.7844	-1.7401	-1.586	1.5243	0.5344	0.5755	4.6072	3.5179	4.0352	0.0685	-2.1889	-4.5353	-0.161	3.4802	1.1989	1.0242	4.1379	0.4282	2.0553
-2.4903	-2.0895	-2.6136	-2.0587	-0.733	-1.7881	-1.6202	1.5791	0.5618	0.5823	4.6243	3.5556	4.0763	0.0993	-2.23	-4.6072	-0.2192	3.5762	1.216	1.0687	4.1516	0.4213	2.0553
-2.48	-2.0381	-2.6376	-2.0792	-0.7091	-1.7915	-1.6271	1.5826	0.5446	0.6029	4.6004	3.559	4.0694	0.1302	-2.2848	-4.662	-0.2809	3.5933	1.2023	1.1098	4.1311	0.4248	2.0621
-2.4629	-2.0176	-2.6547	-2.069	-0.6988	-1.7949	-1.6476	1.6545	0.5755	0.6132	4.6038	3.5453	4.1105	0.1644	-2.319	-4.71	-0.346	3.6549	1.2297	1.1544	4.1516	0.4487	2.0313
-2.4526	-1.9765	-2.689	-2.069	-0.6645	-1.8223	-1.6613	1.6511	0.5446	0.62	4.5661	3.5214	4.1071	0.1884	-2.3944	-4.6894	-0.4008	3.6481	1.2058	1.1989	4.1208	0.507	2.0381
-2.3944	-1.9388	-2.6924	-2.045	-0.62	-1.8326	-1.6442	1.7127	0.5583	0.6543	4.5593	3.5214	4.1208	0.2124	-2.4081	-4.6689	-0.4659	3.6721	1.2503	1.264	4.1071	0.5549	2.021
-2.3122	-1.8497	-2.6479	-1.9765	-0.5481	-1.8052	-1.6065	1.7641	0.5652	0.6885	4.5353	3.5385	4.0866	0.2432	-2.4218	-4.6243	-0.5035	3.6721	1.3051	1.3188	4.0968	0.6337	1.9628
-2.2197	-1.7744	-2.5862	-1.9217	-0.5172	-1.7812	-1.586	1.8052	0.596	0.6919	4.5147	3.5042	4.0591	0.2603	-2.4218	-4.5558	-0.5309	3.7029	1.3393	1.3633	4.0797	0.7091	1.9388
-2.1546	-1.6682	-2.5622	-1.8223	-0.4487	-1.7436	-1.5277	1.8669	0.6303	0.7399	4.4908	3.4768	4.0146	0.2672	-2.4115	-4.5182	-0.5481	3.6584	1.377	1.4318	4.0454	0.7776	1.8806
-1.9868	-1.562	-2.4526	-1.723	-0.3631	-1.6819	-1.449	1.9388	0.6611	0.7742	4.4359	3.4631	4.0043	0.2809	-2.319	-4.4085	-0.5789	3.6686	1.4318	1.4901	4.0352	0.8427	1.8121
-1.8806	-1.4353	-2.3464	-1.5928	-0.2672	-1.5963	-1.3154	1.9765	0.7296	0.8153	4.4257	3.4391	3.9701	0.298	-2.2471	-4.2818	-0.596	3.6515	1.4798	1.538	4.0043	0.9557	1.7298
-1.7127	-1.3222	-2.2163	-1.4387	-0.1644	-1.5175	-1.2263	2.0587	0.7776	0.9077	4.4051	3.4563	3.9769	0.3151	-2.1101	-4.1311	-0.6337	3.607	1.5243	1.61	3.9667	1.0824	1.6613
-1.5689	-1.1921	-2.0827	-1.2982	-0.0754	-1.4421	-1.0961	2.1169	0.8427	0.9488	4.3777	3.4494	3.9084	0.3288	-1.9594	-3.9256	-0.6543	3.5967	1.5791	1.6819	3.9256	1.2469	1.5757
-1.401	-1.0585	-1.9319	-1.1544	0.0034	-1.3291	-0.9831	2.1786	0.8975	1.0002	4.3126	3.4117	3.8468	0.3357	-1.7504	-3.6447	-0.6748	3.5556	1.6134	1.6887	3.8605	1.425	1.4901
-1.2263	-0.8803	-1.7744	-0.942	0.137	-1.2195	-0.829	2.2539	0.9591	1.0345	4.2887	3.4117	3.8125	0.3562	-1.5277	-3.3056	-0.7193	3.4905	1.6545	1.7573	3.8194	1.6648	1.4181
-1.0448	-0.757	-1.5791	-0.7707	0.2501	-1.0585	-0.6714	2.3396	1.055	1.1167	4.2544	3.4152	3.7646	0.3768	-1.2708	-2.9151	-0.7433	3.4357	1.6887	1.7915	3.7406	1.8874	1.3668
-0.8358	-0.5618	-1.377	-0.5618	0.3734	-0.9386	-0.4933	2.4012	1.1612	1.1886	4.179	3.3946	3.6789	0.3905	-1.0345	-2.504	-0.7673	3.3501	1.7127	1.8429	3.6241	2.1375	1.3154
-0.6166	-0.3802	-1.1441	-0.3494	0.4933	-0.7673	-0.3186	2.4526	1.2434	1.264	4.1242	3.3672	3.6104	0.3836	-0.7433	-2.0347	-0.781	3.2473	1.7367	1.86	3.5316	2.4012	1.2845
-0.3425	-0.1781	-0.8735	-0.1028	0.668	-0.5755	-0.1233	2.552	1.3668	1.3496	4.09	3.4083	3.5727	0.4008	-0.4419	-1.4866	-0.7981	3.1548	1.7812	1.8943	3.4837	2.6444	1.288
-0.0925	0.0171	-0.6029	0.137	0.7981	-0.3974	0.0719	2.5965	1.4592	1.4387	4.0352	3.3912	3.5111	0.3768	-0.137	-1.0037	-0.7742	3.0384	1.7949	1.9148	3.3775	2.9116	1.2777
0.1884	0.2432	-0.3288	0.3939	0.9591	-0.1884	0.2843	2.6581	1.5963	1.5277	3.9941	3.3946	3.4597	0.3802	0.2021	-0.507	-0.7742	2.9013	1.8086	1.9319	3.2473	3.1857	1.2914
0.4761	0.4864	-0.0274	0.6645	1.1064	0.0206	0.4761	2.6684	1.7024	1.6065	3.9119	3.3878	3.3878	0.3802	0.5618	-0.024	-0.7467	2.7472	1.7847	1.9388	3.1446	3.4528	1.2914
0.781	0.7228	0.3117	0.9146	1.2777	0.2603	0.6988	2.7472	1.8532	1.6956	3.8673	3.4186	3.309	0.3631	0.9214	0.4179	-0.7296	2.5657	1.7744	1.9319	3.0144	3.7337	1.3154
1.0756	0.9249	0.6234	1.1578	1.4113	0.4693	0.9043	2.7849	1.9696	1.771	3.7851	3.4015	3.2713	0.3597	1.2606	0.8187	-0.7022	2.3807	1.7675	1.9319	2.8739	4.0009	1.3393
1.4079	1.1989	1.0037	1.4524	1.6065	0.7467	1.1201	2.8328	2.1101	1.8497	3.72	3.3912	3.2028	0.3562	1.5997	1.1407	-0.6988	2.1923	1.7401	1.8874	2.7267	4.251	1.3839
1.699	1.4353	1.3428	1.6819	1.7504	0.9968	1.3222	2.8671	2.2368	1.9354	3.6378	3.422	3.1	0.3254	1.9148	1.4455	-0.6543	1.9559	1.6819	1.8018	2.5588	4.4942	1.4079
2.045	1.6853	1.6819	1.9594	1.9251	1.2674	1.5414	2.9253	2.391	2.0313	3.583	3.4528	3.0623	0.3151	2.2231	1.675	-0.6337	1.747	1.6648	1.7607	2.4047	4.6894	1.4284
2.3875	1.9422	2.0518	2.2471	2.1032	1.5586	1.7401	2.9425	2.5554	2.1409	3.5419	3.4974	3.0281	0.2912	2.4903	1.8874	-0.5686	1.5038	1.5963	1.7024	2.2437	4.8881	1.4421
2.7472	2.206	2.4492	2.5246	2.2916	1.836	1.9696	2.9938	2.7369	2.2642	3.4871	3.5042	2.9767	0.2501	2.7643	2.1341	-0.507	1.2777	1.562	1.6476	2.1032	5.0491	1.4901
3.0863	2.4423	2.8328	2.8054	2.4423	2.1409	2.1957	3.0315	2.9185	2.3773	3.4391	3.5659	2.9596	0.2124	3.0521	2.3327	-0.4453	1.079	1.5243	1.5997	1.9731	5.1964	1.5346
3.4323	2.7267	3.1925	3.1035	2.6547	2.4629	2.4355	3.0897	3.1274	2.5074	3.4015	3.6412	2.9699	0.1815	3.2953	2.5211	-0.3836	0.8906	1.4798	1.5586	1.8258	5.3129	1.5757
3.7885	2.9904	3.559	3.3741	2.8328	2.7746	2.6479	3.1411	3.3295	2.665	3.3843	3.6961	2.987	0.1576	3.5385	2.7609	-0.3254	0.6748	1.425	1.5277	1.675	5.4362	1.6305
4.114	3.2233	3.9153	3.6344	3.0486	3.0795	2.8808	3.1857	3.5282	2.8191	3.3741	3.7885	2.9938	0.1404	3.7748	3.0589	-0.2706	0.5138	1.3668	1.4627	1.5277	5.5526	1.6716
4.3948	3.4494	4.2441	3.8331	3.1788	3.3775	3.0932	3.1925	3.7132	2.9219	3.3227	3.8433	3.011	0.1062	4.0386	3.3672	-0.2227	0.3151	1.2777	1.425	1.353	5.676	1.723
4.662	3.6515	4.5182	4.0934	3.3261	3.6412	3.2679	3.237	3.8879	3.076	3.285	3.9084	3.0247	0.1028	4.2989	3.7714	-0.1953	0.185	1.1989	1.3907	1.2126	5.7924	1.7949
4.9361	3.8331	4.8093	4.2818	3.4802	3.9119	3.446	3.2713	4.0626	3.237	3.2713	3.9701	3.0589	0.0993	4.5558	4.2064	-0.1815	0.0411	1.1407	1.3462	1.0824	5.8986	1.8669
5.1484	4.018	5.0491	4.4634	3.5659	4.1448	3.6036	3.2816	4.2201	3.3398	3.237	4.0454	3.0966	0.0925	4.7716	4.6449	-0.1713	-0.0856	1.0482	1.3256	0.9523	5.9979	1.9148
5.3471	4.1722	5.2683	4.6141	3.6926	4.3743	3.7577	3.2747	4.3537	3.446	3.1754	4.1071	3.1309	0.0788	4.9977	5.0251	-0.1678	-0.2364	0.9351	1.2503	0.7947	6.0767	1.9833
5.5047	4.2921	5.4396	4.7853	3.768	4.5524	3.881	3.2781	4.4634	3.5762	3.1548	4.1448	3.1822	0.0993	5.1861	5.4019	-0.1884	-0.3528	0.8495	1.2195	0.644	6.1487	2.0313
5.6383	4.3674	5.5766	4.8984	3.8399	4.71	3.9872	3.2439	4.5456	3.6549	3.0932	4.179	3.1788	0.1028	5.4019	5.7787	-0.2055	-0.4624	0.733	1.1715	0.507	6.1487	2.0827
5.7547	4.4051	5.6828	4.9909	3.8433	4.8127	4.0763	3.2165	4.6038	3.744	3.0144	4.1551	3.2062	0.1233	5.604	6.0767	-0.2535	-0.5104	0.6371	1.1235	0.3665	6.1384	2.1272
5.789	4.4359	5.7684	5.0423	3.8399	4.9087	4.1482	3.1514	4.6449	3.7885	2.9185	4.1345	3.2199	0.1439	5.7513	6.3165	-0.2809	-0.5755	0.5241	1.1064	0.2295	6.087	2.182
5.8198	4.4257	5.7479	5.0834	3.8296	4.9326	4.1825	3.0315	4.638	3.8331	2.8397	4.0968	3.2165	0.1507	5.8609	6.4741	-0.3151	-0.6371	0.3939	1.0413	0.0891	6.0082	2.2334
5.7924	4.3948	5.7445	5.1313	3.792	4.9326	4.1996	2.963	4.6004	3.8742	2.7678	4.0557	3.1959	0.1747	5.95	6.6008	-0.3768	-0.6782	0.2843	1.0413	-0.0308	5.902	2.2882
5.741	4.3161	5.6691	5.1519	3.6892	4.9087	4.203	2.8328	4.5284	3.8845	2.6376	3.9804	3.1788	0.209	6.0151	6.6385	-0.435	-0.7056	0.1541	1.0174	-0.1781	5.7787	2.3259
5.6623	4.203	5.5869	5.1039	3.5796	4.8402	4.1859	2.6787	4.4394	3.857	2.4903	3.8433	3.1548	0.2295	6.0219	6.6008	-0.4727	-0.7296	0.0377	0.9625	-0.3049	5.6862	2.3636
5.5252	4.0797	5.4499	5.0936	3.4254	4.7374	4.1311	2.5177	4.3024	3.8605	2.3533	3.7269	3.124	0.2603	5.9979	6.4878	-0.5344	-0.7193	-0.1199	0.9249	-0.459	5.5903	2.4321
5.3916	3.9324	5.3094	5.0285	3.2781	4.6072	4.0934	2.3499	4.1551	3.7954	2.1957	3.5933	3.0692	0.2843	5.9157	6.3302	-0.5823	-0.7056	-0.2569	0.9249	-0.6029	5.5081	2.504
5.2512	3.7748	5.121	4.9737	3.1206	4.4428	4.0489	2.1957	4.0146	3.744	2.0758	3.422	3.0452	0.3083	5.837	6.1281	-0.644	-0.6577	-0.3939	0.9283	-0.7091	5.4225	2.6033
5.1073	3.6275	4.9669	4.9258	2.9288	4.2715	3.9975	1.9833	3.8331	3.7132	1.8874	3.261	2.9938	0.3391	5.6657	5.8301	-0.6919	-0.6063	-0.5172	0.942	-0.8324	5.3677	2.6581
4.9224	3.4357	4.7785	4.8436	2.7575	4.0866	3.9358	1.7812	3.6515	3.6138	1.7264	3.076	2.9459	0.3699	5.4533	5.4944	-0.733	-0.5618	-0.6714	0.9214	-0.9557	5.3094	2.7438
4.7203	3.2473	4.573	4.7819	2.5622	3.8673	3.8673	1.6374	3.4357	3.5351	1.6031	2.8945	2.8876	0.3836	5.2409	5.1039	-0.7844	-0.4898	-0.7844	0.9557	-1.0276	5.2341	2.8602
4.5079	3.0486	4.3537	4.6963	2.367	3.6652	3.8091	1.4387	3.2268	3.4905	1.4147	2.6821	2.8226	0.4042	4.984	4.6963	-0.805	-0.4213	-0.8906	0.9763	-1.1064	5.193	2.9493
4.3263	2.8534	4.1242	4.6278	2.1889	3.47	3.7509	1.2606	3.0007	3.4117	1.2845	2.4903	2.7815	0.4282	4.7853	4.2818	-0.8529	-0.322	-1.0071	1.0379	-1.1784	5.1484	3.0349
4.1311	2.641	3.8947	4.5319	1.9696	3.237	3.6789	1.0859	2.7746	3.3056	1.1235	2.2711	2.7438	0.4316	4.5079	3.8673	-0.8632	-0.2501	-1.1133	1.0208	-1.2469	5.121	3.1411
3.9153	2.4321	3.6789	4.4325	1.7984	3.0247	3.6036	0.918	2.5725	3.2302	1.0174	2.0792	2.6992	0.4453	4.2715	3.4357	-0.9009	-0.1507	-1.1886	1.0516	-1.2503	5.121	3.2302
3.6892	2.2368	3.4391	4.3332	1.5757	2.7746	3.5351	0.781	2.3259	3.1446	0.8701	1.8703	2.6376	0.4522	4.042	3.1343	-0.9043	-0.0514	-1.2811	1.0824	-1.2811	5.1279	3.2816
3.4734	2.0347	3.237	4.2613	1.4113	2.5965	3.47	0.6508	2.1135	3.0692	0.7844	1.7161	2.5999	0.459	3.8331	2.8123	-0.918	0.0445	-1.353	1.1201	-1.288	5.1793	3.3432
3.261	1.8223	3.0178	4.1688	1.264	2.3773	3.4117	0.5412	1.9114	2.987	0.6885	1.5209	2.5691	0.4453	3.6686	2.5896	-0.9249	0.1507	-1.3942	1.1441	-1.2571	5.2272	3.4015
3.0384	1.6579	2.8054	4.0557	1.0893	2.2128	3.3501	0.435	1.7298	2.9082	0.6097	1.3462	2.5177	0.4453	3.5111	2.4012	-0.9112	0.2809	-1.4421	1.1955	-1.2434	5.3266	3.4323
2.826	1.4935	2.6513	3.9975	0.9557	2.0313	3.3227	0.3631	1.5928	2.8705	0.5755	1.2297	2.5417	0.459	3.4049	2.3396	-0.918	0.4145	-1.4661	1.2606	-1.1955	5.419	3.4768
2.6068	1.3256	2.4595	3.8605	0.8392	1.8669	3.2507	0.3014	1.4318	2.7952	0.5309	1.0859	2.4903	0.4419	3.2747	2.3156	-0.8906	0.5309	-1.4901	1.2571	-1.1407	5.5047	3.5214
2.4355	1.1818	2.3087	3.8194	0.7365	1.747	3.2096	0.2775	1.3393	2.7678	0.5104	0.9728	2.5006	0.4316	3.172	2.3567	-0.8872	0.6817	-1.5038	1.3119	-1.0893	5.6006	3.5659
2.2437	1.0276	2.1649	3.7509	0.6337	1.6065	3.2062	0.209	1.1955	2.7198	0.507	0.8838	2.4937	0.435	3.0555	2.4595	-0.8872	0.8392	-1.5312	1.353	-1.0276	5.6554	3.5933
2.0724	0.9009	2.0381	3.6858	0.5446	1.5517	3.1891	0.1987	1.1064	2.7027	0.4933	0.7707	2.4937	0.4316	2.8979	2.5485	-0.8803	0.9386	-1.5757	1.3805	-0.9488	5.7205	3.5967
1.9182	0.7913	1.9011	3.6173	0.4693	1.4558	3.1651	0.1747	1.0242	2.6821	0.4898	0.7022	2.4971	0.4419	2.7335	2.6444	-0.8769	1.0927	-1.5757	1.4216	-0.8906	5.7753	3.6275
1.7881	0.7091	1.836	3.5762	0.4042	1.3942	3.1583	0.1884	0.966	2.6718	0.5001	0.6406	2.5177	0.4282	2.5691	2.7027	-0.8803	1.24	-1.5689	1.4558	-0.8118	5.8267	3.6241
1.6545	0.6337	1.7744	3.5419	0.4076	1.3873	3.1685	0.1987	0.966	2.6958	0.5207	0.6097	2.5657	0.4453	2.3875	2.7506	-0.8803	1.3873	-1.5826	1.514	-0.7056	5.8575	3.631
1.562	0.5618	1.7401	3.5625	0.4076	1.3805	3.2096	0.2501	0.9625	2.7404	0.5652	0.6132	2.6273	0.4316	2.2265	2.7917	-0.8906	1.5689	-1.538	1.562	-0.6097	5.8712	3.6481
1.5106	0.5309	1.7333	3.5796	0.4179	1.4455	3.2507	0.3117	0.99	2.778	0.6474	0.6303	2.6787	0.4487	2.0792	2.8226	-0.9249	1.723	-1.5277	1.6476	-0.5172	5.8849	3.6412
1.3702	0.4487	1.699	3.5522	0.3974	1.4455	3.2644	0.3597	1.0276	2.8054	0.7159	0.6508	2.7575	0.4693	1.9491	2.7952	-0.9249	1.8771	-1.5175	1.6853	-0.4282	5.8883	3.6378
1.3462	0.4385	1.7093	3.5453	0.4248	1.5277	3.309	0.459	1.1098	2.8911	0.8187	0.7056	2.8465	0.4761	1.8532	2.8191	-0.9763	2.0827	-1.4592	1.747	-0.3186	5.8609	3.6549
1.2845	0.4111	1.7196	3.5762	0.4727	1.5963	3.3809	0.572	1.216	2.9733	0.9351	0.7844	2.9562	0.5035	1.7367	2.8191	-1.0208	2.2608	-1.4113	1.8292	-0.1815	5.8027	3.6481
1.2503	0.4008	1.7367	3.5933	0.5344	1.6819	3.4563	0.668	1.3359	3.0966	1.0585	0.8701	3.0966	0.5549	1.6613	2.8568	-1.1098	2.4834	-1.3668	1.9319	-0.048	5.7376	3.6755
1.1921	0.3871	1.7778	3.631	0.5892	1.8018	3.5282	0.7879	1.4627	3.1994	1.1886	0.9865	3.2302	0.572	1.5963	2.8431	-1.1612	2.6821	-1.3017	2.021	0.0856	5.6486	3.7098
1.1304	0.4008	1.7984	3.6241	0.6577	1.9114	3.6036	0.9112	1.6065	3.333	1.3428	1.1133	3.4152	0.6097	1.5209	2.8363	-1.2297	2.9219	-1.2674	2.1066	0.2432	5.5458	3.7269
1.0996	0.4111	1.8463	3.6789	0.7536	2.045	3.6858	1.0379	1.7573	3.4837	1.5072	1.2708	3.5693	0.6611	1.4592	2.826	-1.3256	3.1514	-1.1886	2.2334	0.4042	5.4328	3.7577
1.0893	0.4385	1.8977	3.7029	0.8324	2.1615	3.7406	1.1612	1.9319	3.6241	1.6511	1.4147	3.7543	0.7056	1.3976	2.7472	-1.4044	3.3912	-1.1235	2.3567	0.572	5.3403	3.7817
1.0585	0.4693	1.9354	3.7166	0.9488	2.3053	3.8433	1.3119	2.1238	3.7509	1.8258	1.5689	3.9358	0.7399	1.2845	2.7027	-1.4661	3.607	-1.0585	2.4492	0.7536	5.2581	3.8125
1.0071	0.4761	1.9628	3.7303	1.0105	2.4286	3.9119	1.4421	2.2813	3.8947	2.0039	1.7504	4.1379	0.7707	1.1955	2.6307	-1.5414	3.8433	-0.9934	2.5725	0.918	5.1621	3.857
0.9831	0.5172	2.0142	3.7406	1.1372	2.5554	3.9906	1.61	2.48	4.042	2.1752	1.9422	4.3469	0.805	1.1235	2.528	-1.6065	4.09	-0.9043	2.6753	1.0996	5.1005	3.881
0.9557	0.5515	2.0553	3.7543	1.24	2.6855	4.0489	1.7812	2.6616	4.1927	2.367	2.1135	4.5387	0.8324	1.0516	2.3704	-1.6545	4.3058	-0.8118	2.7746	1.2606	5.032	3.8947
0.9454	0.6029	2.0929	3.7714	1.3599	2.7917	4.1242	1.9114	2.8363	4.3606	2.5657	2.2848	4.7716	0.8529	0.9625	2.2128	-1.6922	4.5421	-0.7125	2.8979	1.4592	4.9737	3.9256
0.9009	0.6543	2.0929	3.7474	1.4764	2.9185	4.1619	2.0621	2.9904	4.4942	2.7541	2.4766	4.96	0.8427	0.8906	1.9936	-1.6853	4.7785	-0.644	2.9938	1.6271	4.9326	3.9187
0.8701	0.6885	2.1341	3.7714	1.5894	3.0178	4.2407	2.2265	3.1891	4.6346	2.9562	2.6787	5.1656	0.8392	0.8872	1.7847	-1.675	5.0148	-0.5241	3.1172	1.8223	4.8881	3.8982
0.894	0.7433	2.1991	3.7748	1.7436	3.1377	4.2989	2.3978	3.3878	4.8025	3.172	2.8945	5.4019	0.8392	0.829	1.538	-1.6682	5.2786	-0.4179	3.2816	2.0347	4.8573	3.8845
0.8906	0.7742	2.2197	3.7714	1.8223	3.2302	4.3435	2.5622	3.5488	4.9258	3.3672	3.0829	5.5903	0.8016	0.7639	1.2845	-1.5928	5.5013	-0.3357	3.3809	2.2265	4.8573	3.8639
0.9283	0.8461	2.2848	3.7817	1.9833	3.3364	4.4291	2.7369	3.7235	5.1073	3.5762	3.2884	5.8233	0.7673	0.733	1.0585	-1.5449	5.7856	-0.1918	3.5419	2.4629	4.8744	3.8365
0.9454	0.8906	2.319	3.8159	2.1066	3.4426	4.4873	2.9048	3.9084	5.2546	3.7954	3.5282	6.0767	0.7433	0.6954	0.8666	-1.4832	5.9945	-0.0719	3.6755	2.6821	4.8778	3.8194
0.9043	0.9112	2.319	3.7748	2.2128	3.4974	4.5113	3.0897	4.066	5.3951	4.0283	3.7063	6.2994	0.6954	0.6611	0.6645	-1.3976	6.2446	0.0617	3.8296	2.8876	4.9087	3.7988
0.9077	0.9488	2.3019	3.7543	2.3499	3.5899	4.5764	3.2507	4.1893	5.5047	4.2236	3.9153	6.5049	0.6645	0.6132	0.5446	-1.3325	6.4946	0.1815	3.9632	3.1172	4.9532	3.7885
0.9009	0.99	2.3362	3.7474	2.4663	3.6481	4.6209	3.4357	4.3777	5.6554	4.4668	4.1414	6.731	0.6269	0.6097	0.4796	-1.2674	6.731	0.3254	4.0968	3.3569	4.9909	3.8091
0.9112	1.0448	2.3156	3.7748	2.5999	3.7337	4.7168	3.6344	4.5456	5.8233	4.7134	4.3537	6.9536	0.6132	0.6063	0.4693	-1.2297	6.9982	0.507	4.2647	3.5762	5.0423	3.8057
0.8461	1.0619	2.3259	3.7303	2.7061	3.7509	4.7374	3.8228	4.6586	5.9157	4.9361	4.5182	7.1455	0.5892	0.5583	0.4864	-1.1749	7.2345	0.6303	4.412	3.7988	5.1005	3.8365
0.7844	1.0653	2.295	3.6824	2.7986	3.7988	4.7614	3.9667	4.8059	6.0082	5.1382	4.7168	7.3339	0.5446	0.5035	0.5241	-1.1201	7.4264	0.8016	4.5079	4.0009	5.2101	3.8365
0.7159	1.0824	2.2608	3.6549	2.9288	3.8159	4.7751	4.1585	4.9326	6.1041	5.3711	4.8847	7.512	0.5618	0.483	0.5858	-1.0996	7.6593	0.9488	4.6449	4.2407	5.2683	3.8845
0.668	1.0619	2.2094	3.6173	3.011	3.8194	4.8059	4.3024	5.032	6.1932	5.5869	5.0662	7.673	0.5412	0.3871	0.6234	-1.0756	7.8169	1.0756	4.7579	4.4325	5.3677	3.9153
0.6097	1.0585	2.1375	3.559	3.0658	3.8365	4.799	4.4702	5.1245	6.272	5.8096	5.2272	7.8271	0.5446	0.3083	0.6988	-1.0927	7.9916	1.2229	4.847	4.638	5.4362	3.929
0.5104	1.0482	2.0861	3.5145	3.1343	3.8091	4.7922	4.6106	5.2204	6.3302	6.0185	5.3574	7.9676	0.5515	0.209	0.668	-1.103	8.1457	1.3839	4.9189	4.8504	5.5115	3.9838
0.4556	1.055	2.0244	3.4837	3.2233	3.8159	4.7888	4.7853	5.2683	6.3645	6.2172	5.5013	8.0977	0.572	0.0617	0.5892	-1.1372	8.3135	1.5106	5.0011	5.0388	5.5766	4.0078
0.3665	1.0824	1.9559	3.4083	3.2747	3.7783	4.7648	4.9224	5.3163	6.4056	6.4022	5.6486	8.2074	0.5755	-0.113	0.4864	-1.1612	8.4506	1.6648	5.0594	5.2546	5.6109	4.042
0.3014	1.0516	1.9114	3.3878	3.333	3.7748	4.7442	5.0423	5.3985	6.4433	6.5803	5.7753	8.2861	0.5823	-0.2946	0.3186	-1.1852	8.5431	1.8052	5.0971	5.443	5.6691	4.0626
0.209	1.0413	1.8326	3.3295	3.3775	3.7611	4.7168	5.1861	5.4088	6.4638	6.7618	5.8678	8.3786	0.5892	-0.483	0.0993	-1.1955	8.615	1.9457	5.1553	5.628	5.6897	4.066
0.1987	1.0859	1.7778	3.3261	3.4494	3.6995	4.6963	5.3334	5.4602	6.4946	6.9331	6.0014	8.4471	0.596	-0.7502	-0.1576	-1.2058	8.7109	2.1101	5.193	5.8575	5.6828	4.0626
0.1713	1.1133	1.747	3.3227	3.5385	3.7132	4.6826	5.4841	5.5081	6.5152	7.1044	6.0767	8.5122	0.6063	-1.0208	-0.4659	-1.2092	8.7589	2.2539	5.2135	6.0528	5.6965	4.0352
0.1576	1.1544	1.7401	3.3124	3.6344	3.6995	4.6552	5.6006	5.5355	6.5186	7.2551	6.1624	8.5431	0.596	-1.2948	-0.8084	-1.1852	8.7794	2.391	5.2135	6.2275	5.6965	4.0146
0.1199	1.2092	1.6956	3.261	3.6721	3.6721	4.6243	5.7068	5.5561	6.5323	7.3921	6.2309	8.5807	0.5686	-1.562	-1.1475	-1.1681	8.8	2.5588	5.2101	6.4124	5.6691	3.9838
0.1541	1.2743	1.7196	3.2919	3.7646	3.6515	4.5901	5.8609	5.6109	6.57	7.5428	6.3268	8.6321	0.5755	-1.8121	-1.4764	-1.1647	8.8274	2.713	5.2169	6.6043	5.6486	3.9256
0.1678	1.3256	1.699	3.2473	3.8262	3.6515	4.5627	5.9671	5.6212	6.5803	7.6661	6.3816	8.6527	0.5583	-2.0347	-1.7915	-1.1338	8.8068	2.8397	5.1998	6.7858	5.6246	3.8879
0.1781	1.4181	1.7333	3.2542	3.9393	3.6686	4.5456	6.0596	5.6486	6.5631	7.7997	6.4433	8.6698	0.5618	-2.2094	-1.997	-1.1167	8.7863	2.963	5.1861	6.9708	5.58	3.857
0.2158	1.4661	1.747	3.2268	4.0078	3.6275	4.5182	6.2103	5.6897	6.5563	7.9196	6.5186	8.6835	0.5378	-2.3464	-2.158	-1.0824	8.7554	3.1	5.1621	7.1215	5.5766	3.7954
0.2466	1.5791	1.7538	3.2199	4.0968	3.6584	4.4908	6.3131	5.7273	6.5803	8.0361	6.5871	8.6801	0.5275	-2.3807	-2.2574	-1.055	8.7589	3.2439	5.1519	7.2654	5.5629	3.7509
0.3083	1.7059	1.8121	3.2096	4.2201	3.6824	4.5113	6.4398	5.7719	6.5871	8.1526	6.6556	8.704	0.5138	-2.3807	-2.2916	-1.0276	8.7143	3.3706	5.1416	7.4161	5.5698	3.7063
0.3117	1.7915	1.8429	3.1857	4.3263	3.7132	4.5045	6.5563	5.8164	6.6214	8.2485	6.7036	8.7349	0.4727	-2.3464	-2.2574	-0.9454	8.6732	3.5008	5.1176	7.56	5.6143	3.6824
0.3734	1.9011	1.884	3.1548	4.4359	3.7406	4.4839	6.6488	5.8746	6.6282	8.3615	6.7824	8.7315	0.4419	-2.2505	-2.1786	-0.8906	8.6561	3.6344	5.0936	7.6935	5.6897	3.6344
0.4145	2.0244	1.9662	3.1514	4.5593	3.8159	4.525	6.7378	5.9705	6.6659	8.43	6.8475	8.7691	0.4248	-2.1306	-1.9833	-0.8495	8.6458	3.7748	5.1005	7.8306	5.7856	3.6036
0.4796	2.1272	2.0518	3.148	4.662	3.8776	4.525	6.8612	6.0459	6.7002	8.5259	6.9468	8.7863	0.3871	-1.9868	-1.7744	-0.781	8.6355	3.8879	5.0936	7.9573	5.902	3.5796
0.5515	2.2642	2.1238	3.1377	4.7785	3.9667	4.5524	6.9536	6.135	6.755	8.6184	7.0324	8.8445	0.3699	-1.8189	-1.4866	-0.7365	8.6321	4.0009	5.1073	8.0601	6.0391	3.5727
0.5926	2.3636	2.1683	3.1103	4.8847	4.0112	4.5798	7.053	6.2069	6.7961	8.6698	7.0941	8.8685	0.3494	-1.6476	-1.1544	-0.6919	8.6253	4.0831	5.0902	8.1389	6.1932	3.5385
0.6611	2.504	2.2848	3.1	4.9874	4.09	4.6175	7.1283	6.3199	6.8577	8.7212	7.1969	8.8924	0.3151	-1.4627	-0.7467	-0.6577	8.6184	4.1722	5.1005	8.2142	6.3576	3.5145
0.7022	2.5554	2.319	3.011	5.0868	4.1037	4.6038	7.2071	6.3782	6.8749	8.752	7.2517	8.8959	0.2912	-1.2914	-0.3117	-0.6132	8.567	4.2304	5.0799	8.2656	6.546	3.4768
0.7536	2.6787	2.3944	2.9904	5.1895	4.2236	4.6586	7.2619	6.4433	6.9023	8.8205	7.3304	8.9336	0.2912	-1.0824	0.1302	-0.6063	8.5499	4.2955	5.0936	8.3033	6.7378	3.4357
0.8187	2.7575	2.4663	2.9356	5.2683	4.2681	4.6312	7.3099	6.522	6.9091	8.8	7.3853	8.9164	0.2706	-0.8598	0.5549	-0.5583	8.4745	4.3366	5.0594	8.3341	6.9331	3.3741
0.829	2.8226	2.4903	2.8808	5.3197	4.2989	4.6346	7.3476	6.5734	6.9365	8.8274	7.4127	8.8959	0.2775	-0.5995	1.0242	-0.5549	8.4266	4.3777	5.0491	8.3444	7.1283	3.333
0.8598	2.9013	2.5211	2.7952	5.3505	4.3229	4.6038	7.3441	6.6043	6.9194	8.8068	7.464	8.8753	0.2569	-0.3768	1.3839	-0.5412	8.3273	4.3846	4.9874	8.317	7.327	3.2576
0.8632	2.8945	2.5177	2.7404	5.3848	4.364	4.5935	7.3647	6.6728	6.9194	8.8239	7.5223	8.8445	0.2638	-0.1541	1.7333	-0.5344	8.2553	4.412	4.9532	8.3135	7.5394	3.1788
0.9043	2.9562	2.552	2.6718	5.4259	4.3948	4.5764	7.3373	6.6967	6.916	8.7931	7.5497	8.8239	0.2672	0.0582	1.997	-0.5344	8.1697	4.3914	4.9052	8.2827	7.7209	3.1172
0.9009	2.9801	2.5657	2.5931	5.4259	4.4085	4.525	7.3441	6.731	6.9057	8.7417	7.5839	8.7794	0.2706	0.2912	2.1957	-0.5344	8.0703	4.4085	4.8573	8.2382	7.8922	3.0315
0.9317	3.011	2.5691	2.5246	5.4293	4.4085	4.4942	7.2962	6.7447	6.868	8.6972	7.6045	8.7109	0.274	0.5275	2.3293	-0.5583	7.947	4.4222	4.7648	8.18	8.019	2.9596
0.9249	3.0007	2.5383	2.4732	5.4156	4.3914	4.4222	7.2345	6.7241	6.8372	8.6424	7.6045	8.6595	0.2706	0.7125	2.3396	-0.5515	7.8203	4.3811	4.6997	8.0875	8.156	2.8842
0.9386	3.0281	2.5485	2.4047	5.3882	4.3914	4.364	7.1832	6.731	6.7858	8.5568	7.5668	8.5602	0.2809	0.8735	2.2848	-0.5789	7.6798	4.3469	4.6141	8.0224	8.2587	2.8157
0.942	3.0247	2.5006	2.3396	5.3334	4.3469	4.2681	7.1009	6.6933	6.7413	8.4471	7.5325	8.4711	0.2912	1.0413	2.158	-0.5926	7.5497	4.2989	4.5593	7.9025	8.3512	2.7438
0.9386	3.0007	2.4595	2.2231	5.2478	4.3024	4.1927	7.0119	6.6454	6.6454	8.341	7.4743	8.3821	0.298	1.1784	2.0244	-0.5995	7.4058	4.2373	4.4702	7.7997	8.4232	2.6855
0.942	2.963	2.4081	2.1752	5.1998	4.2441	4.114	6.8783	6.594	6.5529	8.2108	7.4058	8.2519	0.298	1.2811	1.8189	-0.6029	7.2277	4.1722	4.3606	7.6696	8.5088	2.6068
0.942	2.9459	2.3533	2.1203	5.1313	4.1996	4.0078	6.7824	6.5186	6.4501	8.084	7.3579	8.1354	0.3049	1.377	1.6271	-0.6097	7.1078	4.114	4.2989	7.5325	8.5739	2.5828
0.9831	2.9013	2.3122	2.069	5.0457	4.1277	3.905	6.6419	6.4398	6.3405	7.9539	7.2791	8.0018	0.3049	1.4798	1.4627	-0.6063	6.9468	4.0386	4.2373	7.3853	8.6355	2.5177
0.9934	2.8739	2.2163	2.0039	4.9566	4.0489	3.7714	6.5083	6.3405	6.2583	7.7929	7.1934	7.8614	0.298	1.5243	1.2811	-0.6097	6.8064	3.9804	4.1722	7.2414	8.6903	2.5006
1.0345	2.8568	2.1512	1.9662	4.871	4.0043	3.6961	6.4056	6.248	6.1555	7.625	7.0941	7.7518	0.2912	1.5449	1.0824	-0.596	6.683	3.905	4.1037	7.0804	8.7623	2.4869
1.0756	2.8054	2.0998	1.9662	4.7545	3.9153	3.5967	6.2617	6.1555	6.0425	7.4606	7.0222	7.6079	0.2843	1.586	0.942	-0.5755	6.5186	3.8091	4.0489	6.9091	8.8137	2.4937
1.0824	2.778	2.0176	1.9354	4.6449	3.8296	3.4974	6.1144	6.0562	5.926	7.2791	6.892	7.4914	0.2912	1.5894	0.8118	-0.5789	6.3919	3.744	4.0043	6.7721	8.8856	2.5108
1.1372	2.7027	1.9559	1.9045	4.5421	3.7406	3.3843	5.9705	5.9294	5.8198	7.1112	6.8029	7.3579	0.274	1.6065	0.7056	-0.5823	6.2583	3.6652	3.9598	6.594	8.9164	2.504
1.1578	2.6753	1.8874	1.9045	4.4154	3.6515	3.3056	5.8061	5.8061	5.6931	6.9194	6.6625	7.2106	0.2946	1.6134	0.6063	-0.5823	6.1041	3.5556	3.9119	6.409	8.9438	2.5417
1.1818	2.6136	1.836	1.9011	4.2921	3.5282	3.2439	5.6246	5.6828	5.5869	6.731	6.5666	7.0838	0.298	1.6168	0.5035	-0.5995	5.974	3.4597	3.881	6.2412	8.9781	2.5759
1.2297	2.5931	1.7778	1.9491	4.1927	3.5008	3.1788	5.491	5.5835	5.4978	6.5803	6.4535	6.9913	0.3014	1.6648	0.4008	-0.6097	5.8541	3.3706	3.8399	6.0596	8.9918	2.6239
1.2606	2.528	1.7161	1.9662	4.0729	3.3912	3.1206	5.3266	5.467	5.3951	6.3782	6.3165	6.8543	0.3117	1.6579	0.2912	-0.6234	5.7273	3.2507	3.768	5.8644	9.0295	2.641
1.3154	2.504	1.6819	2.0244	3.9735	3.3467	3.0795	5.1895	5.3779	5.3231	6.2206	6.2343	6.7207	0.3186	1.7059	0.2158	-0.6406	5.6212	3.1685	3.7611	5.6999	9.0397	2.6616
1.3702	2.4869	1.6408	2.069	3.881	3.2781	3.0829	5.0491	5.282	5.2444	6.0459	6.0973	6.6385	0.3288	1.7573	0.1439	-0.6817	5.4978	3.0795	3.7098	5.5355	9.0534	2.6924
1.353	2.4355	1.6271	2.1169	3.7783	3.1925	3.0623	4.8984	5.1793	5.1656	5.8712	6.0082	6.5289	0.3425	1.7744	0.0891	-0.6885	5.4019	2.987	3.6892	5.3677	9.1048	2.7061
1.4113	2.4184	1.6271	2.2094	3.6686	3.1617	3.0726	4.7305	5.0868	5.1108	5.6931	5.8815	6.4433	0.3528	1.8669	0.0993	-0.7091	5.3026	2.8534	3.6824	5.1895	9.1288	2.7301
1.4421	2.391	1.6134	2.2505	3.5659	3.0966	3.0521	4.5798	4.9703	5.0525	5.5115	5.7616	6.361	0.3734	1.908	0.1439	-0.7296	5.2272	2.7438	3.6618	5.0114	9.2007	2.7438
1.4661	2.3293	1.6065	2.3156	3.4563	3.0692	3.0658	4.4222	4.895	5.0148	5.3471	5.6657	6.2788	0.3665	1.9868	0.2569	-0.7365	5.1519	2.6307	3.6104	4.8573	9.2692	2.7643
1.5038	2.3259	1.6031	2.4047	3.3809	3.0178	3.124	4.2887	4.8127	5.0011	5.1895	5.5766	6.248	0.3699	2.0587	0.4556	-0.7467	5.0902	2.5451	3.6481	4.6929	9.3652	2.8191
1.5106	2.2916	1.5894	2.456	3.2884	2.9733	3.1514	4.1448	4.734	4.96	5.0354	5.4602	6.1624	0.3734	2.1272	0.7022	-0.7502	5.0251	2.4458	3.6481	4.5456	9.4542	2.8363
1.5586	2.2745	1.5826	2.528	3.2131	2.9219	3.1617	4.0317	4.6757	4.9498	4.8915	5.4053	6.1144	0.3802	2.182	0.9351	-0.757	4.9669	2.3464	3.6515	4.4154	9.5775	2.8739
1.562	2.2368	1.5791	2.5554	3.0966	2.8671	3.1754	3.9016	4.5798	4.9189	4.7579	5.2889	6.0562	0.3699	2.2026	1.2023	-0.7707	4.9361	2.2539	3.6481	4.2578	9.7146	2.8876
1.6168	2.2197	1.6237	2.6136	3.0795	2.85	3.2439	3.8057	4.5319	4.9292	4.662	5.2341	6.0459	0.4008	2.2368	1.5003	-0.7947	4.895	2.1512	3.6412	4.1448	9.8447	2.9596
1.6031	2.1854	1.586	2.617	2.987	2.7917	3.2816	3.6995	4.4531	4.9189	4.5558	5.1724	6.0288	0.3974	2.2437	1.7504	-0.805	4.847	2.0655	3.6378	4.0215	9.9509	3.0075
1.5826	2.1991	1.5826	2.6718	2.9562	2.7815	3.3021	3.6344	4.4017	4.8915	4.4634	5.1279	6.0151	0.4145	2.2163	2.021	-0.8324	4.8093	1.9936	3.6549	3.9221	10.0571	3.0692
1.61	2.1889	1.5928	2.6958	2.9151	2.7541	3.3672	3.5864	4.3674	4.9087	4.4085	5.1039	6.0082	0.4385	2.1957	2.2505	-0.8632	4.7888	1.9388	3.6721	3.8468	10.153	3.1
1.5963	2.1854	1.5654	2.6992	2.9116	2.7267	3.398	3.5488	4.3332	4.9121	4.3263	5.0799	5.9945	0.4522	2.1443	2.4389	-0.9009	4.7545	1.8737	3.6755	3.7714	10.2592	3.1411
1.5894	2.1854	1.5586	2.7198	2.8774	2.7061	3.4289	3.5111	4.3024	4.9258	4.2818	5.0423	5.9842	0.4761	2.0655	2.6033	-0.9317	4.71	1.8189	3.6789	3.6721	10.3517	3.1822
1.5586	2.1854	1.562	2.7164	2.8637	2.665	3.4597	3.5351	4.2852	4.9635	4.2613	5.0525	5.9808	0.5001	2.0073	2.7404	-0.9865	4.6723	1.7847	3.6515	3.6481	10.451	3.2268
1.514	2.1923	1.5552	2.6992	2.8705	2.6547	3.4597	3.5145	4.2475	4.9669	4.2338	5.0423	5.95	0.5001	1.9148	2.8054	-1.0037	4.6312	1.7367	3.6412	3.5659	10.5709	3.2644
1.4729	2.2026	1.514	2.6718	2.8602	2.6513	3.4665	3.5008	4.2784	4.9909	4.2475	5.0525	5.9568	0.5172	1.8497	2.8431	-1.0516	4.5832	1.7161	3.6447	3.5316	10.7011	3.2987
1.425	2.1923	1.5038	2.6958	2.8945	2.6239	3.4905	3.5316	4.2647	5.0114	4.2578	5.0525	5.9603	0.5309	1.7093	2.8876	-1.0722	4.5456	1.7093	3.6138	3.4871	10.8415	3.3295
1.3599	2.182	1.4353	2.6616	2.9082	2.5794	3.494	3.5556	4.2544	5.0217	4.2475	5.0662	5.9534	0.5583	1.6511	2.8568	-1.1201	4.4839	1.6579	3.5625	3.4597	10.9888	3.3364
1.3188	2.206	1.3873	2.6136	2.9253	2.5451	3.4837	3.6036	4.2475	5.0114	4.2784	5.0936	5.9534	0.572	1.5723	2.8089	-1.1509	4.3914	1.6476	3.5214	3.4254	11.1224	3.3364
1.2743	2.2128	1.3325	2.5725	2.963	2.5348	3.4597	3.6549	4.2647	5.0217	4.3229	5.1176	5.9397	0.596	1.4969	2.6924	-1.1852	4.3092	1.6545	3.4597	3.4117	11.2629	3.3398
1.2058	2.2197	1.2811	2.5006	2.9836	2.5074	3.4391	3.72	4.2784	5.0114	4.3229	5.1347	5.9157	0.6029	1.4181	2.5794	-1.1955	4.2099	1.6237	3.3775	3.3604	11.4101	3.3227
1.1372	2.1991	1.2229	2.456	3.0281	2.4834	3.422	3.7714	4.2818	5.0217	4.3674	5.1484	5.8986	0.6166	1.3565	2.4663	-1.216	4.1208	1.6271	3.3056	3.3672	11.5403	3.2781
1.0687	2.2231	1.1784	2.3704	3.0692	2.4492	3.3878	3.8433	4.2852	5.0114	4.4222	5.2067	5.8952	0.6063	1.3359	2.2779	-1.216	4.0043	1.6305	3.2199	3.3569	11.6842	3.2302
1.0208	2.2231	1.1372	2.3156	3.1411	2.4458	3.3364	3.9221	4.3161	5.0525	4.5045	5.3026	5.9123	0.6132	1.2982	2.1341	-1.2195	3.9632	1.6853	3.1685	3.3878	11.8109	3.1959
1.0002	2.2505	1.0996	2.2471	3.2405	2.4526	3.3193	4.0454	4.3709	5.0491	4.5935	5.3779	5.9603	0.6166	1.2571	1.9594	-1.2366	3.8742	1.7059	3.0966	3.4049	11.9582	3.1069
0.9249	2.2676	1.0516	2.158	3.2987	2.4458	3.3056	4.1585	4.4222	5.0765	4.7031	5.4499	5.9911	0.6166	1.2469	1.7607	-1.2297	3.8091	1.7607	3.011	3.4494	12.0815	3.0521
0.8701	2.2916	0.9968	2.0998	3.3638	2.456	3.2679	4.2304	4.501	5.1279	4.8059	5.5698	6.0185	0.6132	1.1647	1.5483	-1.216	3.7714	1.7984	2.9356	3.4631	12.2254	2.987
0.8427	2.3224	0.966	2.0381	3.4631	2.4629	3.2576	4.364	4.5867	5.1758	4.9258	5.6691	6.0939	0.6166	1.1578	1.3051	-1.2229	3.7303	1.8532	2.8568	3.5453	12.3487	2.9013
0.8153	2.3499	0.942	1.9936	3.5625	2.456	3.261	4.4873	4.6586	5.1964	5.0662	5.7719	6.1521	0.5823	1.103	1.0379	-1.2023	3.6652	1.9182	2.7986	3.6344	12.4823	2.802
0.7879	2.3841	0.9112	1.9833	3.6275	2.4903	3.2439	4.6346	4.7237	5.2786	5.2307	5.9089	6.2103	0.6097	1.0276	0.7159	-1.2092	3.6618	2.0107	2.7678	3.7132	12.6604	2.7404
0.7193	2.3807	0.8358	1.8943	3.6892	2.4869	3.2473	4.7168	4.7853	5.2992	5.3334	6.0151	6.2651	0.5823	0.9591	0.3562	-1.1612	3.6412	2.0621	2.6821	3.7543	12.7906	2.689
0.6919	2.4184	0.7776	1.8703	3.7611	2.504	3.2199	4.8402	4.8744	5.3505	5.4944	6.1692	6.3336	0.5686	0.9009	-0.0274	-1.1338	3.6001	2.1135	2.6342	3.857	12.955	2.6376
0.6474	2.4047	0.733	1.8326	3.8194	2.4697	3.2542	4.9532	4.9395	5.4225	5.6006	6.296	6.4193	0.5446	0.8118	-0.4042	-1.0893	3.5796	2.1923	2.6033	3.9324	13.1194	2.5725
0.596	2.4184	0.6714	1.7984	3.9119	2.5006	3.2302	5.0662	5.0285	5.491	5.7445	6.4022	6.4844	0.5275	0.7536	-0.7399	-1.0345	3.5762	2.2676	2.5931	4.0043	13.301	2.528
0.5481	2.4321	0.5995	1.7538	3.9598	2.4732	3.2439	5.2101	5.1005	5.5561	5.8952	6.5563	6.5529	0.483	0.7296	-1.0653	-0.966	3.5693	2.3396	2.5554	4.0831	13.4825	2.4834
0.5309	2.4423	0.5892	1.8018	4.042	2.504	3.2781	5.3129	5.1964	5.6246	6.0596	6.683	6.6351	0.4556	0.6954	-1.3085	-0.9112	3.5967	2.4081	2.5657	4.1893	13.6675	2.4766
0.5001	2.4458	0.4933	1.771	4.0866	2.5006	3.3021	5.4053	5.2718	5.6897	6.2035	6.8543	6.7139	0.4316	0.6645	-1.4866	-0.8529	3.607	2.4869	2.5622	4.2715	13.8765	2.4629
0.4727	2.4492	0.4693	1.7607	4.1516	2.5074	3.3158	5.5218	5.3642	5.7479	6.3336	6.9845	6.8338	0.3939	0.6645	-1.6237	-0.7707	3.6378	2.5794	2.5931	4.388	14.082	2.4492
0.4213	2.456	0.4282	1.7573	4.1756	2.5211	3.3432	5.604	5.4156	5.813	6.457	7.142	6.892	0.3323	0.6919	-1.675	-0.6885	3.6584	2.6479	2.5931	4.4976	14.2807	2.4355
0.3974	2.4492	0.3631	1.7538	4.2475	2.504	3.3878	5.7205	5.5115	5.8781	6.5803	7.2448	6.9708	0.3014	0.6885	-1.6785	-0.6234	3.6961	2.7164	2.6479	4.5867	14.4725	2.4492
0.3151	2.4115	0.2946	1.7264	4.2818	2.504	3.4083	5.8061	5.5937	5.9671	6.7104	7.399	7.0701	0.2398	0.7125	-1.5826	-0.5378	3.7543	2.8089	2.6958	4.6894	14.654	2.4697
0.298	2.4047	0.2364	1.7436	4.3058	2.4971	3.47	5.8815	5.6554	6.0562	6.844	7.5428	7.1695	0.2261	0.7159	-1.4421	-0.4556	3.8331	2.8671	2.7678	4.7888	14.8048	2.4937
0.2569	2.3704	0.1713	1.7504	4.3366	2.5006	3.5145	5.9705	5.7479	6.1213	6.9502	7.6901	7.2928	0.1747	0.7399	-1.2571	-0.3768	3.881	2.9493	2.8123	4.8676	14.9555	2.5383
0.2466	2.4012	0.1336	1.7573	4.3777	2.504	3.5899	6.0665	5.8644	6.2343	7.1215	7.8614	7.4058	0.1507	0.8221	-0.9591	-0.3049	3.9701	3.0178	2.9013	4.984	15.0651	2.5828
0.2055	2.3636	0.0719	1.7778	4.4017	2.528	3.6584	6.1213	5.9226	6.3405	7.2106	8.0018	7.4949	0.0993	0.8769	-0.6645	-0.2227	4.0694	3.0863	2.9801	5.0834	15.1747	2.6307
0.1336	2.3533	0.0274	1.7675	4.4051	2.4971	3.7029	6.2069	6.0048	6.4159	7.3202	8.132	7.5771	0.0685	0.942	-0.3049	-0.1336	4.1311	3.124	3.0486	5.1416	15.2638	2.713
0.0925	2.3499	0.0034	1.7915	4.4462	2.5588	3.7817	6.2686	6.1007	6.522	7.4366	8.2622	7.7278	0.0411	1.0105	0.0445	-0.0856	4.2475	3.1994	3.1583	5.2204	15.3768	2.7712
0.0719	2.319	-0.0308	1.8292	4.4565	2.5896	3.8433	6.3302	6.1863	6.6077	7.5325	8.3958	7.81	0.0206	1.0653	0.4076	-0.0445	4.3298	3.2439	3.2336	5.2992	15.4727	2.8328
0.0069	2.319	-0.0514	1.836	4.4771	2.6136	3.9084	6.3782	6.2446	6.6693	7.5908	8.4951	7.8922	0	1.1201	0.7365	-0.0137	4.3846	3.2816	3.2987	5.3505	15.5892	2.9082
-0.0445	2.3362	-0.0959	1.836	4.4942	2.6376	3.9495	6.3987	6.3062	6.7173	7.6387	8.5979	7.947	-0.0034	1.1201	0.9831	-0.0103	4.4359	3.2679	3.3295	5.354	15.7159	2.987
-0.1165	2.2848	-0.113	1.8532	4.4839	2.6342	3.9975	6.4159	6.3747	6.7618	7.7141	8.6801	7.9881	0.0034	1.0961	1.2092	-0.024	4.4771	3.2919	3.3741	5.3882	15.9009	3.0452
-0.161	2.2471	-0.1781	1.8634	4.4805	2.6753	4.0146	6.4467	6.4261	6.8098	7.7346	8.7589	8.0258	0.0274	1.0482	1.3393	-0.0617	4.4976	3.2747	3.3946	5.3985	16.0756	3.1411
-0.2329	2.2197	-0.1884	1.8395	4.4668	2.6616	4.0317	6.4467	6.4433	6.8166	7.7346	8.8171	8.0532	0.0514	0.9831	1.425	-0.113	4.5353	3.2781	3.4083	5.3916	16.2811	3.2028
-0.2877	2.2163	-0.2055	1.86	4.4736	2.7095	4.0352	6.4433	6.5015	6.8338	7.7689	8.8582	8.0806	0.0959	0.9351	1.4318	-0.1747	4.5593	3.2439	3.4015	5.3642	16.5004	3.2781
-0.3391	2.1683	-0.2535	1.8532	4.4188	2.7301	4.018	6.4227	6.5289	6.8235	7.7518	8.8856	8.0669	0.1165	0.8118	1.4147	-0.2227	4.5113	3.1891	3.3946	5.3129	16.7299	3.3364
-0.3939	2.1443	-0.2398	1.8463	4.4188	2.7678	4.0283	6.4124	6.5597	6.8098	7.7415	8.913	8.0703	0.137	0.7125	1.3428	-0.2775	4.5147	3.1548	3.3706	5.2581	16.9868	3.3843
-0.4282	2.1135	-0.2432	1.8086	4.3811	2.778	3.9941	6.3816	6.6008	6.7824	7.7004	8.9199	8.0738	0.161	0.6029	1.2503	-0.3288	4.4873	3.0795	3.3467	5.1964	17.2403	3.4494
-0.459	2.0895	-0.2124	1.8189	4.3846	2.8191	4.0078	6.3713	6.6522	6.8064	7.7038	8.9644	8.0429	0.2055	0.4796	1.1989	-0.4145	4.4805	3.0486	3.2919	5.1724	17.4903	3.494
-0.4693	2.0964	-0.1713	1.836	4.4017	2.8911	4.0078	6.361	6.6899	6.779	7.6764	8.9678	8.019	0.2364	0.3665	1.1441	-0.4727	4.4325	2.9938	3.2747	5.0868	17.7506	3.559
-0.4693	2.0861	-0.1336	1.8463	4.4051	2.9356	3.9838	6.3645	6.755	6.7721	7.6764	9.0397	8.0121	0.274	0.2501	1.0482	-0.5344	4.4359	2.9836	3.2507	5.0662	18.0315	3.5933
-0.4727	2.0998	-0.0822	1.8566	4.4085	3.0247	4.0009	6.3679	6.844	6.7961	7.6661	9.0774	8.0155	0.298	0.1336	0.9694	-0.572	4.4462	2.9459	3.261	5.0217	18.3124	3.6412
-0.435	2.1203	0	1.836	4.4359	3.1411	3.9975	6.3645	6.8988	6.7858	7.6627	9.1322	7.9881	0.2912	0.0034	0.8735	-0.5858	4.4394	2.9116	3.2302	4.9874	18.607	3.6652
-0.3939	2.182	0.0788	1.8326	4.4805	3.2131	4.0009	6.3782	6.9674	6.8029	7.673	9.1494	8.0053	0.2912	-0.1678	0.7981	-0.5892	4.4359	2.9116	3.2336	4.9806	18.8947	3.6892
-0.3734	2.2505	0.1781	1.86	4.525	3.3124	3.9975	6.3679	7.0564	6.8098	7.6593	9.1973	7.9916	0.2809	-0.3357	0.6474	-0.572	4.4154	2.8774	3.2302	4.9361	19.2236	3.7166
-0.322	2.295	0.298	1.8634	4.5627	3.4186	3.9872	6.385	7.1557	6.7927	7.6867	9.2487	8.0018	0.274	-0.4727	0.5446	-0.5618	4.4222	2.8876	3.2131	4.9326	19.525	3.6995
-0.2877	2.3362	0.4179	1.8326	4.6209	3.5214	3.9701	6.3679	7.1934	6.8029	7.6285	9.2213	7.9916	0.2535	-0.6851	0.4282	-0.5104	4.388	2.8328	3.1925	4.9087	19.8402	3.6755
-0.274	2.4252	0.4693	1.8258	4.6483	3.6036	3.9804	6.3816	7.2825	6.7927	7.6045	9.2521	8.0018	0.2432	-0.8427	0.2877	-0.4864	4.4154	2.8397	3.1925	4.8778	20.145	3.6549
-0.2364	2.4595	0.5652	1.7675	4.6757	3.6892	3.9461	6.3234	7.3236	6.7995	7.5634	9.2453	7.9539	0.2158	-1.0345	0.1541	-0.459	4.4017	2.7986	3.1857	4.8333	20.4362	3.6104
-0.185	2.4971	0.6543	1.7641	4.686	3.7406	3.9598	6.3062	7.3339	6.7824	7.5051	9.2247	7.9128	0.2124	-1.1784	0.0034	-0.4213	4.3811	2.7849	3.2062	4.7922	20.7068	3.5351
-0.1404	2.5588	0.7262	1.7093	4.7374	3.7988	3.9187	6.2891	7.3818	6.7721	7.4401	9.2007	7.9025	0.1815	-1.3085	-0.1678	-0.3836	4.3469	2.7609	3.1822	4.7442	20.95	3.4563
-0.0788	2.6307	0.8153	1.7161	4.7374	3.9084	3.9187	6.248	7.4229	6.7515	7.3579	9.1973	7.8682	0.1747	-1.4044	-0.3014	-0.3631	4.3709	2.7575	3.1959	4.7203	21.2103	3.3912
-0.0377	2.6376	0.8803	1.7024	4.7477	3.9598	3.8879	6.2001	7.4366	6.7139	7.2791	9.1459	7.8237	0.1507	-1.4901	-0.4316	-0.322	4.3503	2.7232	3.1994	4.6415	21.4672	3.3056
0.0137	2.6787	0.9591	1.6613	4.7511	4.018	3.8639	6.1213	7.4332	6.7036	7.1832	9.0808	7.7518	0.137	-1.5586	-0.5309	-0.2843	4.3332	2.6821	3.1959	4.5935	21.7276	3.2165
0.0856	2.7061	1.0174	1.6511	4.7477	4.0523	3.8433	6.111	7.4709	6.6762	7.0975	9.0329	7.7175	0.113	-1.5826	-0.5858	-0.2432	4.3126	2.665	3.1822	4.549	22.0119	3.1035
0.137	2.7472	1.0448	1.6476	4.7614	4.0968	3.8194	6.0493	7.4538	6.6522	7.0153	9.0021	7.6456	0.1062	-1.562	-0.5686	-0.2124	4.3058	2.6479	3.2439	4.5079	22.2825	3.0247
0.1747	2.7678	1.103	1.6305	4.7648	4.1551	3.8468	6.0082	7.4812	6.6248	6.9434	8.9301	7.6216	0.0788	-1.562	-0.5344	-0.1747	4.2955	2.6718	3.2473	4.4462	22.5771	2.9253
0.2055	2.7369	1.1201	1.586	4.734	4.1174	3.8159	5.9534	7.4229	6.6145	6.8406	8.8582	7.5634	0.0651	-1.5346	-0.4727	-0.1404	4.2921	2.6513	3.2713	4.3743	22.8888	2.8397
0.2124	2.7472	1.1167	1.5654	4.6894	4.1448	3.7748	5.8815	7.3955	6.5666	6.7515	8.7965	7.5086	0.0617	-1.4729	-0.3699	-0.1302	4.2852	2.6376	3.2713	4.34	23.2176	2.7575
0.1953	2.7232	1.1133	1.5346	4.6689	4.1071	3.7748	5.8027	7.3681	6.5152	6.6762	8.7006	7.4298	0.0411	-1.3839	-0.3014	-0.113	4.2852	2.5931	3.2987	4.3092	23.5499	2.6581
0.1918	2.6616	1.0996	1.5003	4.5969	4.0866	3.7303	5.7171	7.2928	6.4809	6.5529	8.615	7.3613	0.0274	-1.3222	-0.2021	-0.1028	4.2441	2.5931	3.3056	4.227	23.8925	2.5759
0.1747	2.6239	1.055	1.4866	4.4942	4.0317	3.7509	5.6486	7.2208	6.4501	6.4433	8.4814	7.2893	0.0308	-1.264	-0.137	-0.1096	4.251	2.5554	3.3295	4.1893	24.2556	2.5246
0.0925	2.5348	0.9934	1.4627	4.4359	3.9632	3.7098	5.5252	7.1352	6.3713	6.3131	8.4026	7.2106	0.0377	-1.1886	-0.0959	-0.1062	4.2338	2.5485	3.3569	4.1071	24.6255	2.4834
0.0685	2.4492	0.9146	1.4695	4.3503	3.8913	3.6995	5.4259	7.0359	6.3268	6.2206	8.3033	7.1283	0.0411	-1.1372	-0.0514	-0.0993	4.227	2.5143	3.3672	4.0626	24.9783	2.4595
-0.0137	2.3293	0.8255	1.425	4.2064	3.7783	3.6858	5.306	6.9057	6.2686	6.0733	8.1594	7.0153	0.0308	-1.0927	-0.0822	-0.0891	4.1859	2.4766	3.3398	3.9804	25.3551	2.4218
-0.0822	2.2437	0.757	1.4079	4.114	3.6995	3.6721	5.193	6.8098	6.2001	5.9603	8.0464	6.9331	0.0274	-1.055	-0.0617	-0.0822	4.1653	2.4252	3.3672	3.9324	25.7216	2.4115
-0.1473	2.1409	0.6714	1.4216	3.9769	3.6104	3.6378	5.0697	6.6967	6.1555	5.8233	7.9025	6.844	0.0308	-1.0139	-0.0754	-0.0754	4.1379	2.3807	3.3706	3.8536	26.1156	2.4184
-0.2638	1.9868	0.5686	1.4353	3.8262	3.4905	3.6241	4.9224	6.5323	6.0562	5.6965	7.7758	6.7344	0.0137	-0.9968	-0.0993	-0.0548	4.09	2.3464	3.3741	3.7611	26.5129	2.4492
-0.2877	1.8771	0.5104	1.4524	3.6961	3.422	3.6104	4.8127	6.4467	6.0117	5.5629	7.6182	6.6145	0.0137	-0.9488	-0.1165	-0.024	4.0283	2.3122	3.3569	3.7063	26.9	2.4663
-0.3802	1.7367	0.4453	1.4592	3.5762	3.3398	3.5967	4.6757	6.3131	5.9534	5.443	7.5086	6.5289	-0.0206	-0.9591	-0.185	0.024	3.9941	2.2676	3.3467	3.6515	27.3145	2.4937
-0.435	1.6374	0.3528	1.449	3.4254	3.2576	3.559	4.5524	6.2035	5.8918	5.3197	7.3853	6.3885	-0.0582	-0.9797	-0.2603	0.0651	3.9153	2.2231	3.3227	3.5864	27.7221	2.5108
-0.4659	1.5312	0.2843	1.5106	3.333	3.1925	3.5899	4.4565	6.1178	5.8644	5.2135	7.2585	6.3199	-0.0617	-1.0105	-0.3083	0.1096	3.8502	2.2094	3.309	3.5659	28.1263	2.5417
-0.5104	1.4558	0.2501	1.5414	3.1959	3.1446	3.6207	4.3709	6.0048	5.813	5.1245	7.1557	6.2583	-0.0754	-1.0345	-0.4042	0.1507	3.8125	2.182	3.3193	3.5179	28.5476	2.5622
-0.5378	1.3393	0.1953	1.5928	3.0863	3.0829	3.583	4.2338	5.902	5.7753	4.9909	7.0359	6.1521	-0.1028	-1.0824	-0.4727	0.1918	3.7509	2.1546	3.309	3.4528	28.9587	2.6033
-0.5515	1.2743	0.1576	1.6237	2.9973	3.0555	3.6138	4.1311	5.8096	5.741	4.9052	6.9399	6.0596	-0.1233	-1.1235	-0.572	0.209	3.6686	2.1375	3.2713	3.4083	29.3971	2.617
-0.5618	1.1818	0.1541	1.6648	2.8842	3.0178	3.6036	4.0454	5.6965	5.6999	4.8196	6.8406	5.9911	-0.137	-1.2229	-0.6371	0.2261	3.6275	2.1101	3.2747	3.3809	29.839	2.641
-0.5823	1.0996	0.113	1.6819	2.7609	2.9459	3.6001	3.9119	5.6074	5.6554	4.6929	6.683	5.8815	-0.1165	-1.2708	-0.7091	0.2192	3.5351	2.045	3.2439	3.2816	30.2912	2.6855
-0.572	1.0379	0.1062	1.7127	2.6581	2.939	3.5933	3.8159	5.5184	5.6246	4.5764	6.57	5.8061	-0.113	-1.3154	-0.733	0.2124	3.4837	2.0244	3.2062	3.1994	30.7365	2.7438
-0.5618	0.9865	0.1404	1.7744	2.5348	2.8911	3.6173	3.6892	5.443	5.5766	4.4394	6.4501	5.6999	-0.1096	-1.3668	-0.6782	0.1815	3.3809	1.9696	3.2131	3.1206	31.1715	2.802
-0.5412	0.966	0.1541	1.8429	2.4903	2.8774	3.6207	3.631	5.3505	5.5047	4.364	6.3508	5.6006	-0.0856	-1.3805	-0.62	0.1678	3.3261	1.9148	3.2062	3.0349	31.6237	2.8705
-0.5035	0.9146	0.1576	1.884	2.3841	2.8705	3.607	3.494	5.2375	5.4636	4.2064	6.2309	5.4944	-0.0822	-1.401	-0.5104	0.1404	3.2439	1.8429	3.172	2.9151	32.0656	2.9562
-0.459	0.9009	0.2364	1.9491	2.3362	2.8568	3.6412	3.4152	5.1587	5.4396	4.1003	6.0904	5.4293	-0.0548	-1.3873	-0.3254	0.1096	3.1891	1.8086	3.1514	2.8226	32.48	3.0247
-0.3836	0.894	0.2912	2.0416	2.2642	2.8739	3.6378	3.3364	5.0834	5.3916	3.9598	5.9671	5.3231	-0.0445	-1.377	-0.0856	0.0719	3.1035	1.7367	3.1343	2.7061	32.8705	3.1035
-0.298	0.918	0.3665	2.1066	2.2402	2.8842	3.6515	3.2199	5.0011	5.3814	3.8365	5.8507	5.2444	-0.0274	-1.3291	0.1678	0.0171	3.0486	1.6613	3.1035	2.5794	33.2953	3.1822
-0.1918	0.9694	0.4796	2.2197	2.2334	2.9322	3.72	3.1651	4.96	5.3642	3.744	5.765	5.169	0.0274	-1.2606	0.4898	-0.0617	3.0247	1.6339	3.1035	2.5074	33.7132	3.2542
-0.0685	1.0071	0.5892	2.2848	2.1854	2.9322	3.7166	3.0932	4.871	5.3129	3.6104	5.6246	5.0971	0.0445	-1.1989	0.8118	-0.0993	2.9459	1.5654	3.1	2.3464	34.1517	3.3227
0.0788	1.0722	0.7091	2.3944	2.2094	3.0007	3.7748	3.0521	4.8299	5.3094	3.5111	5.5458	5.0285	0.0925	-1.103	1.1647	-0.1918	2.9013	1.5209	3.0795	2.2676	34.597	3.4049
0.185	1.1304	0.8255	2.5143	2.2402	3.0486	3.8125	3.0212	4.7819	5.282	3.4083	5.4739	4.9635	0.1199	-1.0242	1.4695	-0.2501	2.8397	1.4592	3.0692	2.1615	35.1005	3.4631
0.298	1.2195	0.9591	2.6136	2.2574	3.1137	3.8468	3.0007	4.7614	5.2615	3.3193	5.3985	4.9224	0.1541	-0.9694	1.7401	-0.3151	2.8054	1.4627	3.0692	2.0553	35.6657	3.5214
0.4385	1.3119	1.0927	2.7164	2.3019	3.172	3.9016	2.987	4.7237	5.282	3.2747	5.3197	4.8676	0.1815	-0.8427	2.0142	-0.3836	2.7575	1.425	3.0555	1.9868	36.2515	3.5864
0.5344	1.3702	1.1852	2.8191	2.319	3.2302	3.9119	2.9699	4.686	5.2375	3.1959	5.2581	4.8127	0.2021	-0.7467	2.2231	-0.4179	2.7232	1.3839	3.0281	1.8737	36.8783	3.6275
0.6611	1.4524	1.353	2.9013	2.3841	3.2919	3.9667	2.9767	4.6792	5.2615	3.1583	5.2101	4.8059	0.2192	-0.6303	2.4389	-0.459	2.7164	1.3736	3.0384	1.8018	37.5463	3.6686
0.781	1.5654	1.4935	2.9904	2.4834	3.3706	4.042	3.0075	4.6997	5.2855	3.1309	5.1861	4.7853	0.2295	-0.5378	2.5691	-0.4761	2.6821	1.3428	3.0486	1.7607	38.2485	3.7166
0.8838	1.6648	1.6237	3.0863	2.5211	3.4563	4.0694	3.0452	4.6929	5.3026	3.1206	5.169	4.7785	0.2535	-0.4213	2.641	-0.5035	2.6787	1.3393	3.0726	1.7059	39.0021	3.7337
0.9625	1.7298	1.7024	3.1377	2.5828	3.5248	4.1003	3.0863	4.686	5.2992	3.1206	5.1416	4.8162	0.2501	-0.3014	2.6616	-0.5001	2.689	1.3393	3.0623	1.675	39.7728	3.7851
1.0687	1.8326	1.7984	3.2062	2.6479	3.583	4.1208	3.1514	4.7168	5.3437	3.1548	5.1656	4.8127	0.2364	-0.1953	2.5828	-0.483	2.6855	1.3565	3.0829	1.6682	40.5607	3.8091
1.1098	1.8908	1.884	3.2644	2.7301	3.6618	4.1345	3.1994	4.7168	5.3677	3.1994	5.1895	4.8504	0.2364	-0.0719	2.528	-0.4761	2.6992	1.3736	3.0897	1.6579	41.328	3.8262
1.1544	1.9662	1.9765	3.285	2.7986	3.7098	4.1242	3.2816	4.7305	5.3951	3.2405	5.1895	4.8744	0.209	0	2.367	-0.4522	2.7369	1.3873	3.0966	1.6613	42.1329	3.8228
1.2092	2.0758	2.0416	3.2919	2.8911	3.7509	4.1551	3.3432	4.7579	5.3985	3.309	5.2169	4.9018	0.2055	0.0891	2.2779	-0.4522	2.7609	1.401	3.1206	1.6682	42.9139	3.8399
1.216	2.0895	2.0553	3.2987	2.9356	3.7714	4.1311	3.3809	4.7819	5.4053	3.3706	5.2409	4.9292	0.2021	0.1336	2.0929	-0.4282	2.7815	1.4147	3.1206	1.6956	43.6881	3.8331
1.2469	2.1478	2.1135	3.3056	3.0041	3.8296	4.1414	3.4974	4.8333	5.4362	3.4734	5.2855	5.0011	0.2021	0.1713	2.0073	-0.4248	2.8089	1.4353	3.1274	1.7298	44.4485	3.8605
1.2537	2.1991	2.1169	3.2816	3.1	3.8742	4.1653	3.5967	4.8573	5.4978	3.6001	5.3677	5.0594	0.2124	0.2261	1.9285	-0.4556	2.8876	1.4729	3.1446	1.8121	45.2158	3.8605
1.2297	2.1957	2.1272	3.2439	3.148	3.8879	4.1414	3.6892	4.9189	5.4978	3.7029	5.4293	5.145	0.2192	0.2227	1.8669	-0.4556	2.9596	1.4798	3.1548	1.8669	45.9831	3.8125
1.2229	2.2231	2.1135	3.2062	3.2096	3.8913	4.1516	3.7783	4.9635	5.5389	3.857	5.5252	5.2169	0.2295	0.274	1.8155	-0.4693	3.0007	1.5038	3.2028	1.9422	46.7402	3.8399
1.1989	2.2437	2.1101	3.1583	3.2816	3.9393	4.1448	3.9084	5.0183	5.5766	4.0146	5.6109	5.33	0.2329	0.2912	1.7607	-0.4864	3.0692	1.5483	3.2268	2.0381	47.5212	3.8296
1.1647	2.2608	2.0998	3.1103	3.3501	3.9632	4.1516	4.042	5.1245	5.6486	4.1585	5.7479	5.4499	0.2535	0.3186	1.7367	-0.5138	3.1822	1.5689	3.2644	2.1512	48.2885	3.7988
1.1235	2.2916	2.0758	3.1103	3.4494	4.0249	4.1825	4.179	5.1861	5.7342	4.3777	5.9089	5.6006	0.2569	0.3425	1.7127	-0.5344	3.2884	1.6511	3.3158	2.2813	49.0215	3.8057
1.0893	2.319	2.0758	3.0726	3.5556	4.0934	4.203	4.3366	5.3129	5.837	4.5935	6.0562	5.7479	0.2638	0.3357	1.6819	-0.5481	3.3946	1.699	3.3912	2.4286	49.7614	3.7611
1.0413	2.3327	2.0758	3.0726	3.6138	4.1516	4.2475	4.5079	5.4807	5.95	4.8333	6.2377	5.9226	0.2843	0.3288	1.6511	-0.5686	3.5282	1.747	3.4597	2.5862	50.4602	3.7474
1.0413	2.3773	2.1032	3.076	3.7406	4.2304	4.2921	4.6894	5.5972	6.0665	5.056	6.4296	6.0973	0.2912	0.298	1.5997	-0.5858	3.6447	1.8223	3.5316	2.7369	51.1076	3.7543
0.9934	2.391	2.0861	3.0486	3.8296	4.2955	4.3229	4.847	5.7342	6.1589	5.2855	6.6248	6.2686	0.2877	0.2364	1.5072	-0.5892	3.7474	1.884	3.559	2.8842	51.731	3.7337
0.9797	2.4629	2.1101	3.0384	3.9701	4.3983	4.3948	5.0628	5.9055	6.2891	5.515	6.8509	6.4638	0.3083	0.161	1.449	-0.6234	3.8776	1.9696	3.6652	3.0692	52.2997	3.7474
0.9523	2.5246	2.1752	3.0932	4.1037	4.4908	4.4634	5.2615	6.063	6.4398	5.7719	7.0735	6.6625	0.3323	0.0754	1.425	-0.6406	4.0283	2.0176	3.7063	3.2028	52.8169	3.7372
0.9591	2.5999	2.1615	3.1103	4.2236	4.6106	4.5353	5.4567	6.2343	6.5666	6.0219	7.2825	6.844	0.3391	-0.0343	1.3393	-0.6748	4.1208	2.1032	3.744	3.3569	53.3136	3.7098
0.9386	2.6753	2.2197	3.1069	4.3469	4.7271	4.6004	5.6417	6.3987	6.707	6.272	7.4777	7.0461	0.346	-0.185	1.2503	-0.6851	4.1996	2.1512	3.7885	3.4563	53.8103	3.6961
0.9797	2.7541	2.2676	3.1788	4.4942	4.8607	4.6723	5.8096	6.6008	6.844	6.4741	7.7141	7.1969	0.3631	-0.2809	1.1407	-0.7365	4.3024	2.2539	3.8057	3.6173	54.2898	3.6652
0.9865	2.8774	2.3499	3.237	4.6449	5.008	4.7682	6.0322	6.7961	6.9776	6.7378	7.9436	7.4127	0.4008	-0.3734	1.0824	-0.8016	4.388	2.3156	3.8776	3.7543	54.7865	3.6721
1.0311	2.9938	2.4012	3.285	4.7888	5.1382	4.8402	6.2001	6.9879	7.1318	6.9331	8.1697	7.56	0.4145	-0.4282	0.9523	-0.829	4.4291	2.3567	3.8776	3.8399	55.3106	3.6584
1.1064	3.1206	2.5074	3.3775	4.9326	5.2752	4.9326	6.3542	7.1695	7.2722	7.1523	8.3923	7.7209	0.4419	-0.459	0.8118	-0.8735	4.4908	2.4252	3.905	3.9495	55.8895	3.6481
1.1064	3.2302	2.5691	3.4323	5.1005	5.4156	5.0285	6.5768	7.3579	7.4127	7.3579	8.6116	7.8854	0.4487	-0.4659	0.6919	-0.9112	4.5079	2.4629	3.9221	4.0454	56.4958	3.6378
1.2058	3.3604	2.665	3.5077	5.2341	5.5526	5.1484	6.7173	7.5771	7.5394	7.5565	8.8342	8.0292	0.4624	-0.4145	0.5652	-0.942	4.5524	2.5314	3.953	4.1208	57.1295	3.6447
1.2708	3.4837	2.7815	3.5899	5.3985	5.6931	5.2204	6.8886	7.7381	7.6456	7.7209	9.0329	8.1594	0.4761	-0.3254	0.483	-0.9728	4.5558	2.617	3.953	4.1722	57.8078	3.6378
1.3633	3.6173	2.8671	3.6892	5.5458	5.8438	5.3231	7.0427	7.9333	7.7997	7.9059	9.2453	8.293	0.4967	-0.1918	0.4624	-1.0002	4.5695	2.6513	3.9804	4.2338	58.5031	3.6584
1.4935	3.7577	2.987	3.7851	5.6965	5.9705	5.4328	7.2037	8.132	7.9128	8.0635	9.4576	8.3992	0.5172	-0.0343	0.4967	-1.0413	4.5627	2.7095	3.9975	4.3092	59.2259	3.6789
1.5586	3.8639	3.0726	3.8399	5.8267	6.0973	5.5287	7.351	8.2998	8.019	8.2039	9.6221	8.5362	0.5275	0.1781	0.507	-1.0585	4.5593	2.7609	3.9975	4.3469	59.9863	3.7063
1.6339	3.9975	3.2302	3.9427	5.9842	6.2514	5.628	7.5051	8.4677	8.1423	8.3478	9.8447	8.6424	0.5446	0.4145	0.6337	-1.0927	4.5319	2.8294	4.0283	4.3914	60.7982	3.7269
1.7333	4.114	3.3021	3.9872	6.1076	6.361	5.6897	7.6011	8.639	8.2245	8.4506	9.9817	8.7246	0.5378	0.7022	0.7742	-1.0961	4.5147	2.8842	4.0352	4.4496	61.6271	3.7509
1.7984	4.2167	3.4186	4.0626	6.2103	6.4946	5.7924	7.7484	8.8205	8.341	8.5602	10.153	8.7965	0.5515	0.9865	0.9249	-1.1098	4.501	2.9527	4.0386	4.4908	62.4835	3.7577
1.884	4.3195	3.5453	4.1242	6.3576	6.5803	5.8541	7.834	8.961	8.43	8.6595	10.29	8.865	0.5515	1.2366	1.0585	-1.103	4.4736	3.0212	4.0489	4.5079	63.3536	3.7885
1.9525	4.4325	3.6549	4.1825	6.4398	6.6762	5.9157	7.9093	9.0877	8.478	8.7178	10.3962	8.889	0.5378	1.4866	1.1647	-1.0824	4.412	3.0589	4.0523	4.5284	64.2819	3.8125
2.0587	4.5387	3.7303	4.2304	6.5529	6.7755	6.0014	7.9847	9.2316	8.5156	8.7794	10.5093	8.913	0.5172	1.6922	1.2092	-1.0413	4.3469	3.1343	4.0249	4.5421	65.2067	3.8091
2.1443	4.6312	3.857	4.2852	6.6351	6.8612	6.0391	8.0669	9.3172	8.5807	8.8342	10.588	8.9062	0.4864	1.8874	1.2058	-0.9694	4.2784	3.2028	4.0112	4.5593	66.1282	3.8296
2.2608	4.7579	3.9804	4.3435	6.7413	6.9331	6.087	8.1217	9.4508	8.6287	8.8445	10.66	8.8993	0.4419	2.0724	1.1852	-0.9043	4.1996	3.2576	3.9838	4.5593	67.0462	3.8091
2.391	4.8813	4.1277	4.4085	6.8612	7.029	6.1521	8.1594	9.5159	8.6698	8.8787	10.7114	8.889	0.4008	2.2094	1.1441	-0.8153	4.1174	3.333	3.9495	4.5593	67.9779	3.8296
2.5485	5.008	4.2647	4.4771	6.9399	7.0872	6.1966	8.1731	9.5638	8.6732	8.8479	10.7319	8.8685	0.3562	2.3396	1.0927	-0.7159	4.042	3.3638	3.9427	4.5524	68.9165	3.8125
2.665	5.0902	4.4017	4.5353	7.0119	7.1523	6.2514	8.2074	9.6426	8.6698	8.8376	10.7627	8.8068	0.3049	2.4184	1.0071	-0.6097	3.9701	3.4357	3.9256	4.525	69.8893	3.8022
2.8328	5.2512	4.5147	4.5832	7.0804	7.214	6.2823	8.2211	9.6837	8.6527	8.8	10.7422	8.7315	0.2501	2.4937	0.9386	-0.5172	3.8502	3.5042	3.8707	4.5079	70.8587	3.8194
3.0281	5.354	4.6757	4.6792	7.1386	7.2619	6.2994	8.1937	9.6803	8.6664	8.7315	10.7627	8.6561	0.2124	2.5725	0.9386	-0.435	3.7474	3.5385	3.8468	4.4668	71.8658	3.8091
3.1959	5.4567	4.7922	4.7031	7.19	7.3133	6.3268	8.1731	9.7214	8.615	8.6424	10.6874	8.5602	0.1644	2.6684	0.9694	-0.3357	3.6138	3.5556	3.8057	4.4291	72.8626	3.8365
3.3878	5.5766	4.9429	4.7751	7.2106	7.3613	6.3747	8.1389	9.718	8.5944	8.5465	10.6189	8.4334	0.1439	2.7678	1.0996	-0.2843	3.494	3.6104	3.7577	4.3743	73.8936	3.857
3.5316	5.6794	5.0731	4.799	7.2414	7.3784	6.3439	8.0669	9.6906	8.5294	8.4232	10.5538	8.3375	0.1028	2.8534	1.2982	-0.2158	3.3741	3.6275	3.7063	4.3024	74.8904	3.8879
3.6755	5.7582	5.1758	4.8025	7.2208	7.3613	6.3302	7.9505	9.646	8.4334	8.2416	10.4099	8.18	0.0617	2.9562	1.562	-0.1404	3.2028	3.5967	3.6104	4.1927	75.8975	3.9016
3.8673	5.8164	5.3129	4.8607	7.2106	7.3955	6.3405	7.8682	9.5878	8.3615	8.1046	10.2969	8.0361	0.0514	3.0897	1.8703	-0.113	3.0521	3.5727	3.5933	4.114	76.8909	3.9427
3.9975	5.8986	5.443	4.8744	7.2106	7.399	6.2823	7.7792	9.533	8.2622	7.9333	10.1804	7.8922	0.0308	3.1857	2.2128	-0.0685	2.8671	3.5693	3.5077	4.0112	77.8637	3.9975
4.1722	5.9911	5.5561	4.9018	7.1969	7.399	6.2823	7.6593	9.4508	8.1834	7.7484	10.0194	7.7141	0.024	3.3021	2.5999	-0.0548	2.7027	3.5351	3.4254	3.881	78.7886	4.0489
4.2955	6.0425	5.6554	4.9155	7.1489	7.3784	6.2514	7.5154	9.3583	8.0566	7.5428	9.8413	7.4743	-0.0103	3.3843	2.9527	-0.0137	2.5006	3.446	3.3295	3.7474	79.6929	4.1071
4.4565	6.1178	5.7924	4.9395	7.1078	7.3818	6.2206	7.3373	9.2795	7.9573	7.3441	9.6837	7.303	0.0034	3.5248	3.3501	-0.0171	2.3087	3.4083	3.2336	3.5899	80.5664	4.1996
4.5901	6.1726	5.8781	4.9703	7.0598	7.3613	6.1966	7.2037	9.1528	7.8032	7.1044	9.4953	7.0975	0.0034	3.6138	3.7372	-0.024	2.1101	3.285	3.1446	3.4015	81.3885	4.2373
4.7442	6.2343	5.9877	5.0354	7.0461	7.3407	6.1795	7.0701	9.0569	7.7244	6.8954	9.348	6.916	0.0103	3.7372	4.1242	-0.0617	1.9114	3.2405	3.0658	3.2473	82.1969	4.2955
4.8984	6.2891	6.111	5.0868	7.0016	7.3647	6.1658	6.9091	8.9712	7.5942	6.6522	9.1596	6.7139	0.0445	3.8194	4.4634	-0.0856	1.7024	3.1411	2.9699	3.0486	82.995	4.3709
5.056	6.3336	6.2309	5.1279	6.9434	7.3304	6.1452	6.7447	8.8753	7.4949	6.4124	8.9815	6.522	0.0548	3.9358	4.7579	-0.1096	1.5038	3.0452	2.8774	2.8534	83.776	4.4291
5.2135	6.4056	6.3508	5.2067	6.9262	7.3921	6.1692	6.6145	8.7623	7.3784	6.1932	8.8171	6.3542	0.0582	4.0934	5.0799	-0.1541	1.3291	2.939	2.7849	2.689	84.5571	4.4908
5.3951	6.4604	6.4433	5.3094	6.9091	7.3955	6.1966	6.4878	8.7383	7.303	5.9945	8.7006	6.1898	0.0993	4.227	5.3471	-0.1953	1.1167	2.826	2.7404	2.4526	85.3757	4.5695
5.5424	6.5049	6.5768	5.3814	6.8372	7.3716	6.2103	6.3439	8.6184	7.2037	5.7821	8.5191	5.9979	0.0925	4.3948	5.5595	-0.2124	0.918	2.6992	2.6068	2.2676	86.2218	4.6483
5.676	6.5255	6.6728	5.5252	6.8166	7.4161	6.248	6.2138	8.5807	7.142	5.5937	8.4163	5.8335	0.1302	4.5456	5.7513	-0.2843	0.7604	2.5896	2.5622	2.045	87.0816	4.7203
5.8096	6.5563	6.779	5.6246	6.7447	7.4332	6.2754	6.0767	8.5156	7.0804	5.4225	8.2998	5.676	0.1644	4.7168	5.9123	-0.3425	0.5583	2.4971	2.4869	1.8566	87.9996	4.7922
5.9329	6.522	6.8372	5.7445	6.6659	7.4264	6.3234	5.9192	8.4471	7.0016	5.2067	8.1423	5.5047	0.1987	4.8984	6.0048	-0.4111	0.3597	2.343	2.4012	1.6339	88.9279	4.847
6.0425	6.546	6.9399	5.8781	6.6248	7.4709	6.385	5.8609	8.4197	6.9571	5.0697	8.0635	5.3848	0.2672	5.0868	6.1041	-0.5309	0.1987	2.2471	2.391	1.4695	89.8768	4.9224
6.135	6.5083	6.9982	5.9877	6.5734	7.4743	6.3987	5.7445	8.3444	6.9091	4.9155	7.9676	5.2512	0.3083	5.2444	6.1007	-0.62	0.0206	2.1272	2.3224	1.2743	90.8633	4.9737
6.2172	6.5083	7.0564	6.1281	6.5255	7.5154	6.4946	5.6691	8.3273	6.892	4.8059	7.8854	5.1621	0.3562	5.4053	6.0528	-0.7228	-0.1267	2.0279	2.2916	1.1064	91.867	5.0457
6.3165	6.5186	7.1386	6.2651	6.4981	7.5257	6.5803	5.5937	8.3033	6.8749	4.6929	7.8306	5.0251	0.4111	5.5595	5.9705	-0.8153	-0.2501	1.9696	2.2539	0.9591	92.8706	5.0902
6.4261	6.4912	7.1763	6.3919	6.4467	7.5668	6.618	5.5424	8.2553	6.844	4.5798	7.7758	4.9498	0.4385	5.6897	5.7821	-0.8872	-0.4008	1.9045	2.2094	0.8255	93.9188	5.145
6.457	6.4844	7.2243	6.5392	6.385	7.5634	6.6796	5.4704	8.2279	6.8338	4.4702	7.7278	4.847	0.4624	5.7821	5.5937	-0.9351	-0.5207	1.8532	2.182	0.7228	94.9807	5.1827
6.5118	6.4398	7.2414	6.6488	6.3645	7.56	6.707	5.4328	8.1834	6.8166	4.3743	7.6387	4.7579	0.4761	5.8472	5.3574	-0.9728	-0.6371	1.7881	2.1409	0.5892	96.0357	5.1827
6.5734	6.4159	7.2756	6.7858	6.3371	7.5908	6.8029	5.3779	8.18	6.8132	4.3229	7.6182	4.686	0.4898	5.9055	5.0251	-0.9694	-0.733	1.7675	2.1101	0.4967	97.1318	5.2032
6.5871	6.3747	7.2619	6.8851	6.2514	7.5531	6.8166	5.3163	8.1251	6.755	4.251	7.5737	4.5969	0.4624	5.8918	4.6826	-0.9351	-0.8427	1.7367	2.0792	0.4316	98.1937	5.2238
6.6454	6.3645	7.2825	7.0016	6.2343	7.5428	6.8886	5.2889	8.1012	6.7481	4.1756	7.5325	4.5147	0.4385	5.8472	4.3058	-0.8872	-0.9831	1.7504	2.0655	0.3494	99.259	5.1964
6.6762	6.3405	7.2962	7.0941	6.1863	7.5531	6.9365	5.2478	8.0566	6.7207	4.1105	7.4709	4.4222	0.4042	5.7479	3.905	-0.805	-1.0379	1.7333	2.0347	0.2843	100.2935	5.1998
6.6967	6.3131	7.2996	7.2003	6.1692	7.5497	6.9571	5.2204	8.019	6.6933	4.0729	7.4161	4.364	0.346	5.6109	3.4871	-0.7056	-1.1407	1.7573	1.9936	0.2501	101.3383	5.1793
6.731	6.2857	7.2996	7.2791	6.135	7.5257	6.9948	5.193	7.9539	6.6762	4.0283	7.3339	4.2715	0.2946	5.4533	3.0897	-0.5858	-1.2366	1.7573	1.9388	0.2021	102.3557	5.1656
6.7584	6.2446	7.2688	7.3339	6.0767	7.4606	6.9776	5.1587	7.8888	6.6077	3.9221	7.2791	4.1585	0.2329	5.2512	2.7917	-0.459	-1.3428	1.7847	1.884	0.1576	103.3456	5.1313
6.7584	6.2206	7.2585	7.3818	6.0459	7.4469	7.0187	5.1279	7.8511	6.5597	3.881	7.19	4.0797	0.1747	5.1142	2.5622	-0.3699	-1.4387	1.8155	1.8532	0.137	104.3355	5.0662
6.7481	6.1966	7.2517	7.375	6.0014	7.3818	6.9742	5.0799	7.786	6.4638	3.8194	7.077	3.9838	0.1302	4.9326	2.3875	-0.2775	-1.5552	1.836	1.7949	0.1096	105.305	5.0046
6.6933	6.1076	7.1797	7.3373	5.8883	7.3167	6.9502	5.0114	7.6627	6.3747	3.7269	6.9536	3.8331	0.0993	4.7853	2.2848	-0.1884	-1.6853	1.8292	1.6887	0.0411	106.2812	4.9566
6.6419	6.063	7.1249	7.2893	5.8472	7.2208	6.8714	4.9395	7.5257	6.2754	3.6378	6.7927	3.6686	0.0651	4.6072	2.2265	-0.1267	-1.836	1.8223	1.6065	-0.0206	107.2746	4.8778
6.5529	5.9637	7.0564	7.2345	5.7582	7.1181	6.8098	4.847	7.3921	6.135	3.5385	6.6282	3.5316	0.0411	4.4839	2.2231	-0.0788	-2.021	1.8292	1.5038	-0.0925	108.2851	4.8162
6.457	5.8883	6.9262	7.0941	5.6486	7.005	6.7104	4.7716	7.2414	6.0117	3.3946	6.433	3.3912	0.0206	4.3572	2.1957	-0.0343	-2.1717	1.8429	1.3633	-0.1336	109.3333	4.7408
6.3645	5.8164	6.8475	7.0256	5.5526	6.9057	6.6111	4.6655	7.1009	5.8335	3.3056	6.272	3.1788	-0.0103	4.2852	2.1991	-0.0103	-2.367	1.8258	1.2434	-0.1884	110.4089	4.6826
6.2583	5.7445	6.7584	6.9023	5.5047	6.8064	6.5186	4.5867	6.9708	5.7136	3.1822	6.0904	3.0349	-0.0103	4.2167	2.1889	0.0069	-2.5348	1.8395	1.1167	-0.2192	111.529	4.573
6.0939	5.6451	6.618	6.7241	5.3814	6.6351	6.4056	4.5113	6.8098	5.5629	3.0795	5.8883	2.8465	-0.024	4.1516	2.158	0.0308	-2.7164	1.8532	0.9831	-0.2638	112.6731	4.4908
5.9979	5.5972	6.5494	6.6145	5.3231	6.5666	6.3234	4.4496	6.6762	5.4122	2.9767	5.7136	2.6958	-0.0034	4.1414	2.1752	0.0137	-2.8808	1.8669	0.9077	-0.2877	113.8617	4.4085
5.8746	5.4944	6.4467	6.4501	5.2409	6.4398	6.2069	4.364	6.5255	5.2889	2.8671	5.5355	2.528	-0.024	4.1311	2.1169	0.0308	-3.0726	1.8634	0.7467	-0.3734	115.0743	4.3092
5.7582	5.4499	6.3439	6.3576	5.1861	6.3336	6.1315	4.3161	6.3987	5.169	2.778	5.3848	2.3807	-0.0171	4.1516	2.1341	0.0103	-3.1925	1.9182	0.644	-0.3528	116.3246	4.2338
5.6212	5.3848	6.2583	6.2103	5.1176	6.2651	6.0391	4.275	6.2686	5.0525	2.7369	5.2169	2.2745	-0.0137	4.1893	2.1615	0.0274	-3.3124	1.9148	0.5412	-0.3528	117.5954	4.1242
5.5047	5.3197	6.1624	6.0939	5.0868	6.1829	5.9877	4.2099	6.1487	4.9395	2.6376	5.0697	2.1546	-0.0274	4.2578	2.23	0.0411	-3.4597	1.9182	0.4453	-0.3939	118.904	4.0489
5.4225	5.2444	6.1076	6.0117	5.032	6.1247	5.9363	4.1893	6.0493	4.871	2.5965	4.96	2.0621	-0.0274	4.3263	2.2745	0.0548	-3.5522	1.9628	0.3631	-0.3905	120.2399	3.929
5.3471	5.2169	6.0733	5.8986	5.032	6.0767	5.8815	4.1585	5.974	4.8025	2.5485	4.847	1.9936	-0.0411	4.4736	2.3875	0.0754	-3.631	1.9559	0.2775	-0.3974	121.6066	3.8639
5.2786	5.1656	6.0219	5.8609	4.9977	6.0493	5.8712	4.1653	5.9329	4.7888	2.5383	4.7751	1.9731	-0.048	4.5593	2.4903	0.1199	-3.6824	1.9833	0.2466	-0.3871	123.0042	3.7577
5.2067	5.1279	6.0151	5.8061	5.0011	6.0425	5.8815	4.1688	5.8746	4.7305	2.5074	4.6997	1.9354	-0.0891	4.6792	2.5794	0.1644	-3.7303	2.0005	0.2021	-0.3871	124.4292	3.6652
5.169	5.1176	5.9842	5.7787	5.0148	6.0391	5.8678	4.1927	5.8335	4.7408	2.5177	4.6826	1.9319	-0.1062	4.8093	2.689	0.1987	-3.7406	2.021	0.1678	-0.3528	125.8233	3.5864
5.1484	5.1005	5.9808	5.7856	5.0251	6.0493	5.902	4.2099	5.8609	4.7716	2.5108	4.6243	1.9319	-0.1267	4.9361	2.7849	0.2329	-3.7543	2.0553	0.1233	-0.3357	127.2312	3.4871
5.1073	5.1108	6.0117	5.789	5.056	6.1076	5.9226	4.2338	5.8712	4.7751	2.5246	4.6209	1.9457	-0.1439	5.0114	2.8363	0.2603	-3.7303	2.0587	0.1028	-0.3357	128.6117	3.4254
5.1347	5.0936	6.0322	5.8198	5.0971	6.1555	5.9842	4.2715	5.9123	4.8093	2.5622	4.6278	2.0279	-0.1404	5.0628	2.8876	0.2775	-3.7098	2.0621	0.0959	-0.3049	129.9955	3.3741
5.1519	5.1142	6.0562	5.8438	5.1245	6.2172	6.0356	4.34	5.9397	4.8881	2.6376	4.6552	2.069	-0.1678	5.1039	2.9082	0.298	-3.6755	2.0758	0.113	-0.2672	131.352	3.2987
5.145	5.1279	6.1281	5.9089	5.1724	6.296	6.1213	4.3777	5.9945	4.9498	2.6616	4.7134	2.1272	-0.1644	5.1108	2.9219	0.3083	-3.6173	2.0553	0.1233	-0.2501	132.6605	3.237
5.1964	5.1484	6.1726	5.9431	5.2204	6.361	6.1795	4.4325	6.0562	5.0114	2.713	4.7511	2.206	-0.1576	5.1108	2.9048	0.2946	-3.5488	2.0587	0.1507	-0.2192	133.9793	3.1822
5.1895	5.1587	6.2035	6.0048	5.2341	6.4227	6.224	4.4599	6.1281	5.0628	2.7815	4.8162	2.3053	-0.1404	5.0491	2.8191	0.274	-3.4837	2.0244	0.1644	-0.1953	135.2913	3.1309
5.2101	5.1758	6.2549	6.0425	5.2718	6.5118	6.3131	4.5421	6.1932	5.1621	2.8534	4.8915	2.3978	-0.1404	5.0217	2.7232	0.2535	-3.3741	2.0005	0.2192	-0.1541	136.5724	3.076
5.2478	5.1861	6.3302	6.1007	5.3231	6.5803	6.3576	4.5832	6.2754	5.2272	2.9116	4.9909	2.5177	-0.113	4.9224	2.5965	0.209	-3.285	1.9696	0.2638	-0.1439	137.8741	3.0281
5.2272	5.1382	6.3268	6.1418	5.354	6.6351	6.3953	4.6106	6.3508	5.2889	2.9596	5.0697	2.5896	-0.0788	4.8367	2.4458	0.161	-3.1994	1.9148	0.3083	-0.1267	139.1723	2.9904
5.2752	5.1347	6.3885	6.1761	5.4053	6.7241	6.4535	4.6894	6.4193	5.3951	3.0555	5.1861	2.7164	-0.0582	4.7545	2.2985	0.0891	-3.0623	1.8943	0.3528	-0.1028	140.4637	2.9699
5.2272	5.0936	6.3816	6.1761	5.3916	6.7481	6.4707	4.7168	6.4844	5.4259	3.124	5.2786	2.8294	-0.0308	4.638	2.0792	0.0548	-2.939	1.8326	0.4076	-0.1096	141.7791	2.9493
5.2478	5.0799	6.3953	6.2035	5.4088	6.8064	6.5357	4.7579	6.5563	5.5013	3.1754	5.3608	2.9493	-0.0137	4.501	1.9251	0.0034	-2.8054	1.7881	0.4693	-0.0891	143.091	2.9527
5.2169	5.0183	6.409	6.2172	5.4225	6.8303	6.5083	4.7819	6.6248	5.5595	3.2644	5.4636	3.0452	0.0069	4.3983	1.7196	-0.048	-2.689	1.723	0.5241	-0.0993	144.4132	2.9767
5.1998	5.0148	6.4159	6.224	5.4499	6.8783	6.5631	4.8402	6.7207	5.6349	3.3295	5.5732	3.1857	0.0411	4.3366	1.5483	-0.1199	-2.5211	1.699	0.6063	-0.0788	145.732	3.0212
5.1895	4.9189	6.3885	6.2309	5.4225	6.8851	6.5768	4.8539	6.755	5.6897	3.3775	5.6383	3.2781	0.0651	4.2613	1.3873	-0.161	-2.3875	1.6168	0.6543	-0.0993	147.0714	3.0349
5.145	4.8607	6.3576	6.2069	5.4293	6.916	6.6008	4.8744	6.8201	5.741	3.4289	5.7376	3.4015	0.1096	4.2475	1.264	-0.2329	-2.2368	1.5654	0.733	-0.1199	148.4176	3.0658
5.0868	4.8162	6.3508	6.1966	5.4328	6.9057	6.5768	4.9052	6.8714	5.7547	3.4631	5.8301	3.5042	0.1439	4.2647	1.1372	-0.3083	-2.1066	1.514	0.7913	-0.1233	149.7843	3.1103
5.0011	4.6826	6.2583	6.1076	5.3677	6.8509	6.5015	4.8847	6.868	5.7753	3.5008	5.8609	3.559	0.1678	4.2681	1.0448	-0.3631	-1.9799	1.4353	0.8392	-0.1439	151.1785	3.1377
4.9326	4.6004	6.2309	6.0665	5.3334	6.8201	6.4981	4.8676	6.868	5.7616	3.5111	5.9089	3.6036	0.1987	4.2784	0.9625	-0.4385	-1.8943	1.353	0.8872	-0.1953	152.5829	3.1583
4.8367	4.5113	6.1658	6.0254	5.2718	6.7687	6.4296	4.8744	6.8646	5.7753	3.5385	5.9329	3.6515	0.2501	4.3469	0.894	-0.5275	-1.8052	1.288	0.9317	-0.2021	154.001	3.1891
4.7168	4.4188	6.0973	5.9774	5.2615	6.7344	6.3953	4.8367	6.8509	5.7308	3.5556	5.9534	3.6618	0.2946	4.3366	0.8632	-0.6097	-1.6887	1.24	0.9728	-0.209	155.4637	3.1788
4.6141	4.3366	6.0425	5.8883	5.2032	6.6728	6.3199	4.823	6.8269	5.7068	3.5727	5.974	3.6652	0.346	4.3777	0.8495	-0.6988	-1.6476	1.1715	0.9865	-0.2466	156.9092	3.1925
4.5216	4.2578	5.9603	5.8061	5.2101	6.6214	6.2617	4.8059	6.7961	5.6725	3.583	5.9774	3.6686	0.3768	4.3948	0.7913	-0.7673	-1.5894	1.1201	0.9865	-0.2603	158.3616	3.1343
4.4428	4.1927	5.9192	5.765	5.1587	6.5597	6.2001	4.7785	6.7721	5.6383	3.5727	5.9705	3.6789	0.4076	4.4325	0.7399	-0.8324	-1.5483	1.0585	1.0071	-0.2603	159.8346	3.0932
4.3606	4.1311	5.8233	5.676	5.1416	6.4844	6.1213	4.7614	6.7413	5.5595	3.5864	5.974	3.6549	0.4419	4.4634	0.6748	-0.8906	-1.5517	1.0448	0.9763	-0.3014	161.3007	3.0384
4.2784	4.09	5.813	5.6588	5.1519	6.4775	6.0733	4.7648	6.7241	5.5424	3.6275	5.9705	3.6481	0.459	4.4908	0.596	-0.9523	-1.4866	1.0105	1.0002	-0.2706	162.7531	2.9699
4.2407	4.0557	5.7856	5.6451	5.1484	6.433	6.0425	4.7956	6.7276	5.5184	3.6515	5.9877	3.6344	0.5035	4.5216	0.5412	-0.9865	-1.4695	0.9831	1.0276	-0.2603	164.2123	2.8671
4.2338	4.0591	5.7582	5.6143	5.1621	6.4056	6.0151	4.8162	6.707	5.515	3.6961	6.0117	3.6412	0.5104	4.5935	0.5172	-1.0174	-1.4113	1.0208	1.0516	-0.2364	165.6544	2.7849
4.227	4.0729	5.7616	5.604	5.193	6.4022	6.0185	4.823	6.6967	5.4876	3.7063	6.0254	3.607	0.5275	4.6346	0.4933	-1.0379	-1.3942	0.9968	1.0482	-0.2055	167.1068	2.6753
4.2133	4.0763	5.7787	5.5903	5.2341	6.385	5.9877	4.8333	6.7002	5.4704	3.7577	6.0493	3.6036	0.5241	4.7031	0.4864	-1.0482	-1.3942	1.0208	1.0893	-0.1644	168.5455	2.6033
4.2064	4.0968	5.7582	5.5903	5.2615	6.3885	5.9808	4.871	6.6899	5.4602	3.7851	6.0665	3.5796	0.5241	4.7442	0.4659	-1.0585	-1.4079	1.0276	1.0619	-0.1267	169.9739	2.5108
4.251	4.1071	5.789	5.5629	5.2855	6.3782	5.9979	4.8813	6.6967	5.4465	3.792	6.0596	3.5659	0.5172	4.7374	0.4179	-1.0516	-1.3907	1.0413	1.0619	-0.0993	171.4023	2.4286
4.2475	4.1105	5.789	5.5492	5.306	6.409	5.9842	4.9189	6.7241	5.4293	3.8296	6.0836	3.5385	0.5241	4.6792	0.3665	-1.0413	-1.3873	1.0345	1.0893	-0.0754	172.8341	2.3601
4.251	4.1345	5.813	5.5561	5.3437	6.3953	5.9842	4.9429	6.7413	5.443	3.8502	6.1178	3.5419	0.5309	4.6586	0.2569	-1.0482	-1.3633	1.0824	1.0961	-0.0411	174.2591	2.295
4.2407	4.1516	5.7787	5.5218	5.3231	6.4022	5.9774	4.9566	6.7276	5.4259	3.8742	6.1144	3.5111	0.5207	4.5867	0.137	-1.0208	-1.3599	1.0653	1.0859	-0.0103	175.6978	2.2197
4.2613	4.1653	5.813	5.515	5.3711	6.3987	6.0185	4.9429	6.7481	5.4362	3.9084	6.1281	3.494	0.5138	4.4839	0.0137	-0.9865	-1.3462	1.0824	1.1064	0.0274	177.1433	2.1889
4.2475	4.1653	5.7856	5.4978	5.354	6.409	5.9842	4.9566	6.7413	5.443	3.9153	6.1418	3.4837	0.4727	4.3743	-0.1473	-0.9283	-1.3154	1.0996	1.1235	0.0343	178.5923	2.1443
4.2544	4.1482	5.7856	5.4807	5.3642	6.4398	6.0082	4.9429	6.7858	5.4602	3.9495	6.1692	3.4974	0.435	4.2989	-0.3186	-0.8598	-1.2811	1.1167	1.1407	0.1028	180.0584	2.1203
4.2236	4.1619	5.741	5.4773	5.3403	6.4398	6.0082	4.9532	6.7892	5.5013	3.9769	6.1966	3.5214	0.3939	4.1688	-0.5481	-0.7947	-1.2263	1.1407	1.1749	0.1404	181.5553	2.0929
4.1962	4.179	5.741	5.4739	5.3814	6.4467	6.0391	4.9635	6.7858	5.5184	3.9941	6.2412	3.5282	0.3597	4.0591	-0.7707	-0.7091	-1.2092	1.1304	1.1749	0.1439	183.0728	2.0929
4.1893	4.1379	5.6965	5.4259	5.3403	6.4398	6.0391	4.9361	6.7892	5.5218	3.9872	6.2412	3.5145	0.3117	3.9153	-0.9728	-0.6166	-1.1886	1.1475	1.2195	0.1815	184.6211	2.0347
4.1551	4.1482	5.6383	5.4156	5.3129	6.4535	6.0117	4.9121	6.7927	5.515	3.9975	6.248	3.5077	0.2535	3.8022	-1.1784	-0.5138	-1.1749	1.1064	1.1955	0.2021	186.1933	2.0107
4.1105	4.1242	5.5869	5.3985	5.2546	6.4159	6.0391	4.8881	6.7927	5.4978	3.9906	6.272	3.5248	0.2055	3.6652	-1.3428	-0.435	-1.1441	1.1338	1.2092	0.1815	187.7485	1.9628
4.0523	4.0866	5.5081	5.3471	5.2444	6.3713	6.0185	4.8607	6.7892	5.5184	3.9838	6.2583	3.5145	0.1713	3.5419	-1.5003	-0.3597	-1.1509	1.0859	1.2058	0.1953	189.3311	1.9011
3.9975	4.066	5.4841	5.306	5.1895	6.3747	6.0014	4.8093	6.7858	5.5115	3.9564	6.2446	3.5077	0.1507	3.4254	-1.6887	-0.3083	-1.1509	1.0687	1.2023	0.2055	190.9136	1.8634
3.9838	4.0352	5.4328	5.306	5.1656	6.3713	5.9877	4.799	6.7824	5.5287	3.9838	6.2617	3.494	0.1404	3.3295	-1.8292	-0.2809	-1.1201	1.0996	1.2126	0.2124	192.4585	1.8326
3.9667	4.0283	5.3848	5.2615	5.1176	6.3439	5.9911	4.7682	6.7824	5.5013	3.953	6.2514	3.4597	0.1096	3.2199	-1.9902	-0.2398	-1.1201	1.0756	1.1955	0.2295	194.0136	1.771
3.9187	4.0043	5.3574	5.2512	5.0971	6.3165	5.9568	4.7408	6.7652	5.5013	3.9358	6.248	3.4631	0.1165	3.1137	-2.1169	-0.2329	-1.1338	1.0687	1.1955	0.1918	195.5517	1.6853
3.8742	3.9667	5.2992	5.2409	5.0388	6.3097	5.9534	4.6963	6.779	5.4739	3.905	6.2206	3.4323	0.113	3.0075	-2.2539	-0.2192	-1.1372	1.0276	1.1989	0.2055	197.0828	1.6168
3.8639	3.9632	5.2581	5.2272	5.0388	6.2788	5.9466	4.6826	6.7584	5.4499	3.8982	6.224	3.446	0.1165	2.8671	-2.3293	-0.2329	-1.127	1.0687	1.1852	0.2124	198.6003	1.5346
3.8228	3.9461	5.1998	5.193	4.9943	6.2617	5.9055	4.6757	6.7515	5.4465	3.8673	6.1898	3.4015	0.1165	2.778	-2.3636	-0.2466	-1.1509	1.0653	1.1647	0.2261	200.1281	1.4627
3.8057	3.9393	5.145	5.1484	4.9669	6.1932	5.8541	4.6243	6.6899	5.3642	3.8365	6.1692	3.3467	0.1336	2.689	-2.367	-0.274	-1.1852	1.0379	1.1304	0.2261	201.6798	1.401
3.7337	3.9084	5.0731	5.121	4.8847	6.1144	5.7958	4.5695	6.6454	5.3129	3.7783	6.1213	3.3124	0.137	2.5862	-2.3636	-0.2706	-1.1921	1.0242	1.1133	0.2227	203.2212	1.3633
3.6584	3.881	4.9909	5.0457	4.8573	6.0596	5.7102	4.5421	6.6111	5.2546	3.7611	6.0767	3.2576	0.1473	2.5725	-2.2608	-0.298	-1.2297	1.0345	1.0722	0.2535	204.7867	1.3051
3.5522	3.8433	4.8778	4.9635	4.7648	5.9637	5.6074	4.4702	6.5118	5.1656	3.6995	6.0082	3.1583	0.1644	2.5657	-2.1889	-0.3117	-1.3085	0.9797	1.0105	0.2295	206.3898	1.2537
3.4905	3.8091	4.8059	4.8984	4.7203	5.8644	5.5184	4.4051	6.4501	5.0731	3.6755	5.974	3.0897	0.1884	2.6102	-2.0929	-0.3631	-1.3462	0.9934	0.9865	0.2227	208.0031	1.2023
3.4186	3.7577	4.6929	4.847	4.6586	5.765	5.4225	4.3366	6.3782	4.9737	3.6001	5.8815	3.0281	0.1987	2.6718	-1.9868	-0.4076	-1.3599	0.9797	0.9454	0.1747	209.5994	1.1612
3.3364	3.7166	4.6072	4.7477	4.5901	5.6623	5.2957	4.2784	6.2925	4.8744	3.5419	5.8233	2.9596	0.2158	2.7712	-1.8532	-0.459	-1.4284	0.9625	0.9077	0.1781	211.1991	1.1544
3.2439	3.6686	4.4839	4.6929	4.4976	5.5424	5.1998	4.1996	6.1624	4.7511	3.4665	5.7239	2.8637	0.2569	2.9013	-1.7401	-0.5172	-1.4764	0.9694	0.829	0.137	212.7816	1.1201
3.1685	3.6001	4.3674	4.573	4.4188	5.4088	5.0799	4.1242	6.0596	4.638	3.3843	5.6417	2.7472	0.2672	3.0247	-1.6682	-0.5515	-1.5106	0.9283	0.7947	0.0754	214.3608	1.1098
3.1137	3.5214	4.2921	4.5182	4.3332	5.3266	4.9669	4.042	5.9157	4.5284	3.3021	5.5287	2.6581	0.3186	3.2199	-1.5997	-0.6166	-1.5552	0.8872	0.7502	0.0514	215.9433	1.0961
3.0178	3.47	4.1688	4.4736	4.2818	5.193	4.8504	3.9598	5.7993	4.4257	3.2302	5.4396	2.5828	0.3391	3.4117	-1.5277	-0.6714	-1.6065	0.894	0.7056	-0.0034	217.5087	1.0824
2.963	3.4083	4.0694	4.3537	4.179	5.0525	4.7511	3.8707	5.6588	4.2852	3.1309	5.3334	2.4697	0.3494	3.607	-1.5277	-0.6885	-1.6613	0.8529	0.6234	-0.0582	219.081	1.0687
2.9013	3.3295	3.9701	4.3024	4.0763	4.9087	4.6141	3.7817	5.5321	4.1653	3.0315	5.2135	2.3499	0.3802	3.7988	-1.4729	-0.7296	-1.7093	0.829	0.5926	-0.1267	220.667	1.079
2.7883	3.2336	3.8331	4.2099	3.9769	4.7203	4.4565	3.6549	5.3574	4.0043	2.9322	5.0697	2.2265	0.3734	3.953	-1.514	-0.7399	-1.8189	0.8084	0.5138	-0.2329	222.2564	1.0893
2.7404	3.1617	3.7337	4.1242	3.9153	4.5935	4.3503	3.5796	5.2169	3.8605	2.8637	4.9429	2.1101	0.3974	4.1585	-1.5106	-0.781	-1.8703	0.7639	0.4624	-0.2775	223.8321	1.0961
2.6444	3.0966	3.6138	4.0215	3.8125	4.4462	4.2236	3.4905	5.0525	3.7337	2.7369	4.8196	1.9731	0.3871	4.3229	-1.5038	-0.781	-1.9696	0.7467	0.3939	-0.3528	225.3907	1.0585
2.5828	3.0281	3.5008	3.9461	3.7235	4.3161	4.1071	3.4117	4.9224	3.5933	2.6547	4.7066	1.8532	0.4008	4.4976	-1.5209	-0.7913	-2.045	0.7399	0.3323	-0.4282	226.9219	1.0208
2.5074	2.9562	3.4049	3.8399	3.6241	4.1688	3.9495	3.3124	4.7648	3.4631	2.5931	4.5764	1.747	0.4111	4.6106	-1.5175	-0.781	-2.1101	0.7125	0.274	-0.4796	228.4496	1.0139
2.4663	2.9356	3.309	3.7817	3.583	4.0386	3.8742	3.237	4.6449	3.3638	2.528	4.4839	1.6374	0.3939	4.7579	-1.5175	-0.7707	-2.1786	0.7228	0.2192	-0.5241	229.9808	0.9728
2.4149	2.8842	3.2233	3.7029	3.494	3.905	3.768	3.1651	4.501	3.2096	2.4389	4.3709	1.5414	0.3905	4.847	-1.5243	-0.7536	-2.2985	0.7193	0.1541	-0.596	231.5188	0.9351
2.367	2.8739	3.1822	3.6104	3.4768	3.8262	3.6686	3.1411	4.3914	3.1343	2.4115	4.2955	1.4558	0.3665	4.9395	-1.562	-0.7296	-2.3464	0.733	0.137	-0.6234	233.0466	0.9112
2.3396	2.8431	3.1206	3.5762	3.4391	3.72	3.6241	3.0863	4.3058	3.0384	2.3841	4.2167	1.3633	0.346	5.0046	-1.6408	-0.6851	-2.4252	0.7536	0.0719	-0.6645	234.6017	0.918
2.343	2.8568	3.0795	3.5042	3.422	3.6481	3.5419	3.0452	4.2167	2.9493	2.3156	4.1379	1.3085	0.3151	5.056	-1.7504	-0.6166	-2.5177	0.7639	0.0377	-0.6954	236.1158	0.8872
2.3704	2.8774	3.0692	3.5179	3.4289	3.6001	3.5214	3.0589	4.1551	2.9013	2.2779	4.0968	1.2434	0.2775	5.0834	-1.8703	-0.5549	-2.5691	0.8084	0.0171	-0.7125	237.6298	0.8598
2.4081	2.9048	3.0726	3.5111	3.4254	3.5488	3.4734	3.011	4.09	2.8191	2.2505	4.042	1.1681	0.2192	5.0936	-2.0142	-0.4419	-2.617	0.829	-0.0137	-0.7604	239.1301	0.8701
2.4766	2.9493	3.1	3.5556	3.4254	3.5316	3.4802	2.9836	4.066	2.7643	2.2265	4.0043	1.1407	0.161	5.1108	-2.1478	-0.3288	-2.6924	0.8118	-0.0959	-0.7981	240.6099	0.8838
2.5383	3.011	3.1514	3.6138	3.446	3.5248	3.5145	2.9904	4.042	2.7712	2.1991	3.9495	1.0687	0.1096	5.1416	-2.2402	-0.2261	-2.7678	0.829	-0.1233	-0.8255	242.0863	0.8529
2.6239	3.076	3.1925	3.6858	3.4802	3.5214	3.5488	2.9767	4.018	2.7267	2.1512	3.9084	1.0311	0.048	5.1656	-2.3019	-0.0993	-2.8602	0.8529	-0.1815	-0.8838	243.6003	0.8187
2.6958	3.1274	3.2473	3.7509	3.4871	3.5659	3.5933	2.9664	4.0078	2.7506	2.1066	3.8536	0.9591	-0.0206	5.193	-2.3019	0.0171	-2.9288	0.8529	-0.2261	-0.9249	245.0904	0.7844
2.7986	3.1583	3.3261	3.8262	3.5111	3.5796	3.6207	2.9493	4.0215	2.713	2.0827	3.8331	0.9351	-0.0617	5.2512	-2.2608	0.113	-3.0281	0.8358	-0.2672	-0.9763	246.6319	0.7536
2.8774	3.2336	3.3912	3.8605	3.5248	3.6241	3.6789	2.9425	4.0454	2.7232	2.0279	3.7988	0.8735	-0.0959	5.2923	-2.1889	0.1781	-3.1	0.8529	-0.2809	-1.0482	248.187	0.7159
2.9733	3.2576	3.4802	3.9187	3.5316	3.6378	3.6721	2.9356	4.0146	2.6958	1.9662	3.768	0.8016	-0.1096	5.3745	-2.0964	0.2261	-3.1925	0.8632	-0.3117	-1.1064	249.7319	0.6543
3.0212	3.2542	3.5111	3.929	3.5282	3.6549	3.6652	2.8876	3.9941	2.6444	1.9045	3.6824	0.7022	-0.1507	5.419	-2.021	0.2843	-3.3124	0.8016	-0.3391	-1.1955	251.287	0.6166
3.0795	3.2884	3.6001	3.9564	3.5248	3.7063	3.6412	2.8397	3.9941	2.6136	1.8052	3.6173	0.5789	-0.1576	5.4704	-1.9182	0.3117	-3.446	0.7639	-0.3768	-1.3154	252.8388	0.5926
3.1343	3.2747	3.6447	3.9495	3.5008	3.7474	3.6207	2.7917	3.9427	2.528	1.7059	3.559	0.4693	-0.1576	5.5287	-1.7949	0.3083	-3.5796	0.7159	-0.4419	-1.4387	254.3391	0.5583
3.1959	3.3364	3.72	3.9804	3.4974	3.7783	3.6036	2.7232	3.9393	2.4697	1.6237	3.4768	0.3254	-0.1541	5.5389	-1.6819	0.2843	-3.7029	0.6611	-0.483	-1.5449	255.812	0.5309
3.2405	3.3295	3.7988	3.9667	3.4734	3.7988	3.5351	2.6821	3.9221	2.3636	1.4969	3.3775	0.1815	-0.1302	5.5732	-1.61	0.2432	-3.8707	0.6063	-0.5241	-1.6853	257.237	0.4796
3.3056	3.3432	3.8468	3.9667	3.446	3.8262	3.5042	2.6102	3.881	2.2813	1.3496	3.2644	0.0617	-0.0993	5.5766	-1.5517	0.1918	-4.0386	0.5241	-0.62	-1.8566	258.5969	0.4316
3.3672	3.3672	3.953	3.9838	3.4426	3.8673	3.4734	2.5622	3.8365	2.2026	1.2126	3.1617	-0.1096	-0.0514	5.6109	-1.5003	0.0993	-4.1859	0.435	-0.6611	-2.0073	259.9397	0.4042
3.4357	3.4186	4.0283	4.0009	3.4152	3.8913	3.422	2.4697	3.8125	2.0724	1.0516	3.0486	-0.274	0.0069	5.6006	-1.4558	0.0034	-4.3537	0.3425	-0.7296	-2.2128	261.2619	0.3357
3.4905	3.4323	4.09	4.0043	3.3775	3.9153	3.3775	2.3944	3.7543	1.9559	0.8803	2.8911	-0.459	0.048	5.6212	-1.4421	-0.1096	-4.5147	0.2329	-0.805	-2.3841	262.5636	0.3083
3.5864	3.5077	4.1893	4.0489	3.4015	3.9495	3.3467	2.3327	3.7132	1.884	0.7365	2.7712	-0.6269	0.1165	5.6383	-1.3873	-0.2364	-4.6552	0.1678	-0.8392	-2.5828	263.8447	0.2672
3.7166	3.5659	4.3024	4.0831	3.3843	3.9735	3.2953	2.2642	3.6686	1.7915	0.5618	2.6581	-0.781	0.1781	5.6897	-1.3496	-0.3528	-4.8025	0.0685	-0.894	-2.802	265.119	0.2227
3.8399	3.607	4.3674	4.1345	3.3809	4.0078	3.2987	2.1957	3.6481	1.675	0.3974	2.5417	-0.9112	0.2329	5.741	-1.3085	-0.4693	-4.9292	0	-0.942	-2.9425	266.3932	0.1747
3.953	3.7063	4.4942	4.2133	3.4015	4.0489	3.285	2.1615	3.6241	1.6511	0.2364	2.4629	-1.0242	0.298	5.8233	-1.2571	-0.5823	-5.0457	-0.0891	-0.9728	-3.1274	267.6435	0.1473
4.1105	3.8125	4.6004	4.2955	3.4323	4.114	3.309	2.0895	3.6104	1.5997	0.1028	2.3464	-1.1509	0.3357	5.8712	-1.2023	-0.6817	-5.1382	-0.1747	-1.0105	-3.309	268.8801	0.1336
4.2201	3.9187	4.7442	4.3914	3.4665	4.1585	3.3535	2.045	3.6036	1.5586	-0.0685	2.2711	-1.2332	0.3905	5.9397	-1.1372	-0.7776	-5.2341	-0.2364	-1.0208	-3.4665	270.0995	0.1199
4.3709	4.042	4.8299	4.4873	3.5111	4.2475	3.4186	2.0107	3.6173	1.5586	-0.1953	2.1923	-1.3119	0.4556	6.0185	-1.0585	-0.8906	-5.2581	-0.3151	-1.0105	-3.6515	271.3087	0.1165
4.4839	4.1208	4.9326	4.5832	3.5419	4.2613	3.4391	1.9799	3.6001	1.5277	-0.346	2.0895	-1.3736	0.4898	6.0596	-1.0345	-0.9797	-5.2992	-0.4213	-1.0174	-3.8022	272.5214	0.1096
4.6689	4.2852	5.0936	4.7442	3.6378	4.3948	3.559	2.0005	3.6481	1.5826	-0.4248	2.0861	-1.4113	0.5481	6.1418	-0.9591	-1.0893	-5.2992	-0.435	-0.966	-3.9256	273.6963	0.137
4.8402	4.4154	5.2101	4.8539	3.6961	4.4325	3.6378	1.9662	3.6618	1.5826	-0.5309	2.021	-1.4284	0.5686	6.2138	-0.9488	-1.1475	-5.306	-0.483	-0.9386	-4.0352	274.8575	0.1507
4.9635	4.5387	5.354	4.9943	3.7646	4.5147	3.7303	1.9696	3.6926	1.6476	-0.6234	2.0073	-1.4284	0.5892	6.3097	-0.9317	-1.1886	-5.2992	-0.5241	-0.9112	-4.1208	276.005	0.161
5.121	4.7066	5.4773	5.1279	3.8776	4.6072	3.8605	2.0176	3.7543	1.699	-0.6851	1.9799	-1.4284	0.6097	6.4296	-0.9591	-1.2229	-5.2889	-0.5207	-0.8769	-4.2099	277.1594	0.1747
5.2409	4.7956	5.5835	5.2512	3.9256	4.6655	3.929	2.045	3.7577	1.7367	-0.7604	1.9491	-1.4284	0.6166	6.4878	-1.0208	-1.2195	-5.2752	-0.5344	-0.8255	-4.3024	278.3001	0.1918
5.3471	4.9189	5.6486	5.3574	3.9941	4.7237	4.0557	2.0553	3.8057	1.7984	-0.8221	1.9319	-1.4079	0.6097	6.594	-1.1133	-1.2366	-5.2272	-0.5652	-0.829	-4.3572	279.4579	0.2192
5.419	4.9806	5.7136	5.4156	4.0557	4.7716	4.1208	2.0553	3.8228	1.8326	-0.8872	1.9045	-1.3942	0.6097	6.7036	-1.1818	-1.2195	-5.1861	-0.596	-0.7981	-4.4222	280.5746	0.2295
5.4876	5.0662	5.7445	5.4739	4.0934	4.8025	4.1893	2.0621	3.8194	1.8566	-0.9694	1.8943	-1.3668	0.6029	6.7447	-1.2914	-1.2058	-5.1347	-0.6234	-0.7707	-4.5045	281.7118	0.2329
5.5047	5.1279	5.7547	5.4944	4.114	4.799	4.2099	2.0518	3.8296	1.8908	-1.0105	1.8429	-1.3462	0.5926	6.8406	-1.3976	-1.1989	-5.1073	-0.6371	-0.757	-4.549	282.8182	0.2535
5.5081	5.1313	5.7513	5.4807	4.1105	4.7785	4.2475	2.0244	3.7885	1.8874	-1.0722	1.8223	-1.3599	0.5926	6.8475	-1.4935	-1.1818	-5.0834	-0.6988	-0.7981	-4.6106	283.9384	0.2877
5.4602	5.121	5.6965	5.4362	4.114	4.7168	4.2133	1.9868	3.7406	1.8737	-1.1475	1.7504	-1.3907	0.572	6.8851	-1.5826	-1.1578	-5.0525	-0.733	-0.8153	-4.6415	285.0242	0.2877
5.4225	5.1279	5.6554	5.3711	4.0968	4.6689	4.2064	1.9731	3.6789	1.8566	-1.2126	1.699	-1.401	0.572	6.9023	-1.6374	-1.1544	-5.0491	-0.7604	-0.8187	-4.6929	286.0861	0.3083
5.3129	5.0491	5.5287	5.2546	4.042	4.5832	4.1311	1.908	3.5762	1.8086	-1.2743	1.6202	-1.4455	0.572	6.8886	-1.699	-1.127	-5.0525	-0.8358	-0.8324	-4.7408	287.1411	0.3323
5.2272	5.0183	5.4567	5.1347	3.9769	4.4736	4.0523	1.86	3.4871	1.7264	-1.3325	1.5346	-1.5072	0.5652	6.8783	-1.7401	-1.1201	-5.0628	-0.8838	-0.8838	-4.7819	288.1585	0.3494
5.1073	4.9189	5.3677	4.9977	3.881	4.364	3.953	1.7778	3.3467	1.6511	-1.3942	1.4798	-1.5689	0.5686	6.8783	-1.7401	-1.1304	-5.1005	-0.9283	-0.8803	-4.823	289.1416	0.3562
4.9703	4.8196	5.1964	4.8127	3.792	4.1962	3.792	1.7059	3.2268	1.538	-1.449	1.353	-1.6511	0.5618	6.8543	-1.7744	-1.1167	-5.121	-0.9694	-0.9317	-4.8367	290.087	0.3425
4.823	4.6894	5.0251	4.6415	3.6789	4.0557	3.6686	1.6305	3.0726	1.4421	-1.5346	1.2674	-1.7333	0.5755	6.8406	-1.771	-1.127	-5.1621	-1.0276	-0.9523	-4.8367	290.9913	0.3391
4.6929	4.5764	4.8915	4.4531	3.5556	3.8913	3.4974	1.5449	2.9253	1.3154	-1.586	1.1509	-1.8121	0.5618	6.8406	-1.7744	-1.1304	-5.169	-1.0619	-0.9694	-4.823	291.8237	0.3357
4.5353	4.4565	4.7956	4.2921	3.4734	3.7337	3.4015	1.4901	2.7917	1.24	-1.5997	1.055	-1.8532	0.5583	6.8098	-1.7847	-1.1098	-5.193	-1.0653	-0.9763	-4.8025	292.639	0.3323
4.3709	4.3229	4.6415	4.1003	3.3535	3.6412	3.2507	1.425	2.641	1.1098	-1.6579	0.9488	-1.9525	0.5344	6.8098	-1.7984	-1.0619	-5.2238	-1.1235	-1.0174	-4.7819	293.3892	0.3425
4.2647	4.2236	4.5353	3.9461	3.2473	3.4905	3.0829	1.3668	2.5006	0.9968	-1.6511	0.8769	-2.0142	0.507	6.8166	-1.8189	-1.0174	-5.2272	-1.103	-1.0037	-4.7271	294.1153	0.3323
4.09	4.1071	4.3948	3.7783	3.1548	3.3604	2.963	1.3462	2.4115	0.9454	-1.6408	0.829	-2.0381	0.4933	6.7892	-1.8634	-0.966	-5.2512	-1.0927	-1.0379	-4.638	294.8004	0.3254
3.9667	3.9941	4.3024	3.6755	3.0589	3.2679	2.85	1.3085	2.295	0.8735	-1.6237	0.7604	-2.0827	0.459	6.7927	-1.9936	-0.9077	-5.2478	-1.0482	-1.0311	-4.573	295.4753	0.3323
3.857	3.8605	4.1859	3.5659	2.9836	3.1309	2.7678	1.2982	2.1786	0.781	-1.6031	0.7262	-2.1272	0.4282	6.7824	-2.1169	-0.8427	-5.2444	-1.0242	-1.0208	-4.4839	296.1364	0.3288
3.7646	3.768	4.114	3.4597	2.8945	3.0726	2.6753	1.2674	2.1066	0.7228	-1.5654	0.6954	-2.1306	0.3905	6.7584	-2.23	-0.7776	-5.2375	-0.966	-1.0345	-4.3709	296.7769	0.2946
3.6618	3.6755	4.0317	3.4083	2.826	2.9938	2.6205	1.2845	2.0587	0.6954	-1.4935	0.7056	-2.1203	0.3562	6.707	-2.3362	-0.7125	-5.2032	-0.8906	-0.99	-4.2681	297.3695	0.2775
3.583	3.5796	3.9598	3.3364	2.7678	2.9219	2.5657	1.2948	2.0039	0.6611	-1.4181	0.668	-2.1169	0.3186	6.6967	-2.4526	-0.6269	-5.1656	-0.8529	-0.9694	-4.1277	297.9758	0.2877
3.5419	3.5042	3.9256	3.3124	2.7301	2.9013	2.5177	1.3188	1.9628	0.6406	-1.3393	0.6748	-2.0827	0.2946	6.6728	-2.5177	-0.572	-5.1313	-0.7742	-0.9146	-3.9941	298.5513	0.2706
3.4734	3.4528	3.8913	3.2747	2.689	2.8876	2.48	1.3496	1.9525	0.6543	-1.2434	0.7091	-2.0484	0.2672	6.6351	-2.5999	-0.5207	-5.0765	-0.7091	-0.894	-3.8673	299.072	0.2843
3.4391	3.3569	3.8399	3.2473	2.6513	2.8294	2.4355	1.377	1.9319	0.6371	-1.1509	0.7125	-2.0244	0.2432	6.594	-2.6855	-0.483	-5.0354	-0.6234	-0.8324	-3.6961	299.596	0.3288
3.3775	3.2679	3.7885	3.2062	2.5896	2.7712	2.3807	1.3942	1.9182	0.62	-1.0893	0.7056	-2.0039	0.2432	6.4912	-2.8226	-0.4556	-4.9977	-0.572	-0.8084	-3.5899	300.0996	0.346
3.2747	3.172	3.6961	3.1411	2.5485	2.7267	2.3396	1.4044	1.8737	0.6132	-1.0174	0.7296	-2.0073	0.2124	6.4022	-3.0007	-0.435	-4.9532	-0.507	-0.7707	-3.4837	300.5997	0.3905
3.1925	3.0692	3.6241	3.1	2.5006	2.665	2.2882	1.4044	1.8669	0.5926	-0.9283	0.757	-1.9731	0.2295	6.2617	-3.1788	-0.4522	-4.9224	-0.4556	-0.7365	-3.3775	301.0484	0.4419
3.0966	2.9356	3.5488	3.0212	2.3944	2.5896	2.2265	1.3668	1.7984	0.5652	-0.9146	0.7056	-1.9765	0.2261	6.0939	-3.4049	-0.4522	-4.8813	-0.4624	-0.7228	-3.2781	301.4903	0.5378
2.9801	2.7917	3.4597	2.9493	2.3293	2.5108	2.1717	1.3428	1.7641	0.5789	-0.8598	0.7467	-1.9388	0.2501	5.9192	-3.6378	-0.483	-4.847	-0.3939	-0.6714	-3.1994	301.9082	0.6029
2.8431	2.6444	3.3261	2.8671	2.2197	2.4218	2.1135	1.3188	1.699	0.5412	-0.8324	0.7056	-1.9525	0.2638	5.741	-3.905	-0.5172	-4.8196	-0.4213	-0.62	-3.1343	302.3022	0.7056
2.6958	2.4834	3.2165	2.7506	2.1203	2.3053	2.045	1.2537	1.6511	0.4967	-0.8187	0.6782	-1.9319	0.3014	5.5287	-4.2064	-0.5686	-4.8025	-0.4111	-0.6029	-3.1035	302.6653	0.7879
2.5725	2.3362	3.0623	2.6513	1.9902	2.1923	1.9491	1.1921	1.5654	0.4419	-0.8392	0.6337	-1.9559	0.3117	5.3779	-4.4873	-0.6132	-4.7785	-0.4248	-0.5789	-3.0452	302.9496	0.9009
2.367	2.1512	2.9082	2.5348	1.8463	2.0758	1.9011	1.0893	1.5175	0.4213	-0.8392	0.6029	-1.9662	0.346	5.1861	-4.7545	-0.6543	-4.7648	-0.4624	-0.5618	-3.0418	303.203	1.0311
2.2163	2.0073	2.7815	2.4526	1.747	1.9799	1.8052	1.0242	1.4318	0.3699	-0.829	0.5823	-1.9594	0.3665	5.032	-4.96	-0.7159	-4.7305	-0.4556	-0.5378	-3.0212	303.3777	1.1304
2.069	1.8771	2.641	2.3396	1.6202	1.8737	1.7538	0.9694	1.3702	0.3117	-0.8598	0.5583	-1.9833	0.3734	4.895	-5.1484	-0.7536	-4.7203	-0.4693	-0.5241	-2.9767	303.501	1.2503
1.9354	1.7333	2.5074	2.2471	1.5243	1.7778	1.6922	0.8872	1.3291	0.2775	-0.8735	0.5378	-2.0039	0.4008	4.8127	-5.2923	-0.7707	-4.6929	-0.483	-0.5035	-2.9801	303.5798	1.3702
1.7812	1.5894	2.3636	2.1615	1.401	1.6819	1.6271	0.8255	1.2708	0.2158	-0.9043	0.4967	-1.997	0.3974	4.6894	-5.4156	-0.7707	-4.6792	-0.4864	-0.5035	-2.9356	303.6415	1.5072
1.6613	1.4661	2.2471	2.0861	1.3119	1.5723	1.5757	0.7673	1.2366	0.1884	-0.9351	0.4796	-2.0073	0.3836	4.6483	-5.443	-0.7742	-4.6757	-0.4864	-0.4864	-2.9356	303.662	1.6442
1.5312	1.3085	2.0758	1.9833	1.1818	1.4866	1.5277	0.668	1.1715	0.1439	-0.966	0.4453	-2.0244	0.3768	4.5969	-5.491	-0.7536	-4.6792	-0.4933	-0.4796	-2.9459	303.71	1.7881
1.401	1.2195	1.9662	1.9354	1.0859	1.401	1.4798	0.596	1.1441	0.1576	-1.0002	0.4316	-2.0176	0.3802	4.5764	-5.4328	-0.7536	-4.6586	-0.5241	-0.4693	-2.939	303.7511	1.9011
1.2606	1.0756	1.8223	1.8258	0.9728	1.2777	1.4181	0.4967	1.0824	0.0445	-1.0722	0.3425	-2.0724	0.3734	4.5113	-5.3471	-0.7262	-4.71	-0.5583	-0.483	-2.9904	303.8093	2.0381
1.1578	0.9625	1.6922	1.771	0.8803	1.216	1.3599	0.4248	1.0174	0.024	-1.1475	0.3083	-2.1306	0.3699	4.5319	-5.1998	-0.7159	-4.7271	-0.5823	-0.4967	-3.0178	303.8744	2.1306
1.0379	0.8427	1.5826	1.7264	0.7707	1.1167	1.3325	0.322	0.9728	-0.0308	-1.2126	0.2432	-2.1615	0.3699	4.5867	-5.0388	-0.7022	-4.7305	-0.6166	-0.4898	-3.0589	303.9326	2.2437
0.9043	0.6988	1.4318	1.6168	0.6577	0.9797	1.2674	0.2021	0.8906	-0.113	-1.353	0.1439	-2.2574	0.3562	4.6141	-4.8504	-0.6817	-4.7956	-0.6645	-0.5378	-3.124	303.9669	2.3156
0.7776	0.6166	1.3154	1.5552	0.5583	0.9214	1.2126	0.0925	0.8427	-0.1953	-1.4387	0.0617	-2.2985	0.3597	4.6997	-4.6209	-0.6885	-4.8367	-0.6954	-0.5378	-3.2096	304.0046	2.3841
0.6714	0.5104	1.1921	1.4524	0.4487	0.8016	1.1098	0.0034	0.7536	-0.2638	-1.5894	-0.0548	-2.4355	0.3425	4.7305	-4.3743	-0.6748	-4.9121	-0.757	-0.5652	-3.3056	303.9943	2.4458
