"FZ"	"FC3"	"FCZ"	"FC4"	"C3"	"CZ"	"C4"	"CP3"	"CPZ"	"CP4"	"P3"	"PZ"	"P4"	"OZ"	"FP1"	"FP2"	"A2"	"P8"	"TP7"	"TP8"	"P7"
-0.7567	-0.476	-0.8723	-0.3935	-0.4403	-0.6164	-0.2119	-0.2724	-0.6109	-0.0743	-0.2642	-0.3274	0.1128	0.066	-0.1761	0.0743	-0.1431	0.4568	-0.2972	0.366	0.2394
-0.7127	-0.4458	-0.8227	-0.3384	-0.41	-0.5778	-0.1651	-0.2229	-0.5421	-0.0413	-0.2504	-0.2889	0.1183	0.0715	-0.1238	0.0798	-0.1321	0.4045	-0.2862	0.2917	0.2421
-0.7209	-0.4182	-0.7649	-0.2972	-0.3632	-0.5063	-0.1073	-0.1981	-0.4595	0.011	-0.2091	-0.2559	0.1431	0.0605	-0.0963	0.055	-0.1238	0.3522	-0.2669	0.2229	0.2394
-0.7127	-0.41	-0.7512	-0.3082	-0.3302	-0.454	-0.0908	-0.1706	-0.3907	0.0715	-0.2091	-0.2339	0.1458	0.0605	-0.0908	0.0028	-0.1238	0.2972	-0.2724	0.1706	0.2064
-0.7017	-0.377	-0.7044	-0.2889	-0.3247	-0.4127	-0.0303	-0.1596	-0.3439	0.1073	-0.2036	-0.2284	0.1486	0.0633	-0.1073	-0.033	-0.1128	0.2642	-0.2669	0.0991	0.1871
-0.7154	-0.388	-0.6741	-0.3192	-0.3054	-0.3632	-0.0083	-0.1238	-0.2779	0.1183	-0.2036	-0.2174	0.1431	0.044	-0.1321	-0.1293	-0.1128	0.2201	-0.2752	0.0358	0.1623
-0.7044	-0.366	-0.6714	-0.3054	-0.2862	-0.3302	0.011	-0.1183	-0.2174	0.1678	-0.2229	-0.1816	0.1568	0.0495	-0.1541	-0.2064	-0.0963	0.1651	-0.2669	-0.022	0.1293
-0.7044	-0.3495	-0.6191	-0.3027	-0.2531	-0.3109	0.0165	-0.0853	-0.1623	0.1844	-0.1816	-0.1623	0.1733	0.0523	-0.2036	-0.2999	-0.1073	0.1761	-0.2697	-0.0303	0.0991
-0.7072	-0.3274	-0.6053	-0.3082	-0.2229	-0.2421	0.0523	-0.0633	-0.077	0.2256	-0.1678	-0.1266	0.2036	0.0605	-0.2394	-0.3687	-0.1156	0.1733	-0.2476	-0.0688	0.0798
-0.7182	-0.3219	-0.5751	-0.3192	-0.1926	-0.2256	0.0468	-0.055	-0.0578	0.2807	-0.1596	-0.0853	0.2311	0.044	-0.2531	-0.4375	-0.0936	0.1541	-0.2449	-0.0853	0.0881
-0.7209	-0.3082	-0.5558	-0.3439	-0.1844	-0.2146	0.066	-0.033	0.0055	0.3054	-0.1403	-0.0358	0.2559	0.033	-0.2972	-0.5283	-0.0743	0.1651	-0.2174	-0.0936	0.0853
-0.6989	-0.3027	-0.5421	-0.3357	-0.1706	-0.1761	0.0715	-0.022	0.0468	0.3219	-0.1101	0.0165	0.3054	0.0275	-0.3027	-0.6439	-0.0578	0.2174	-0.2201	-0.0881	0.0495
-0.6741	-0.2421	-0.4925	-0.3357	-0.1321	-0.1486	0.077	0.0165	0.1073	0.366	-0.0495	0.0936	0.3632	0.0193	-0.2752	-0.6962	-0.0385	0.2229	-0.1816	-0.055	0.0798
-0.6576	-0.2201	-0.4458	-0.3412	-0.0936	-0.1293	0.1046	0.055	0.1431	0.3935	-0.0275	0.1266	0.4127	0.0083	-0.2642	-0.7704	0	0.2339	-0.1458	-0.0275	0.0908
-0.6274	-0.1899	-0.41	-0.3467	-0.055	-0.1073	0.1073	0.0715	0.2009	0.4265	0.0248	0.1761	0.4568	-0.0055	-0.2256	-0.8117	0.0193	0.2642	-0.1183	0.0028	0.1073
-0.6329	-0.1678	-0.4127	-0.3742	-0.0275	-0.0853	0.0991	0.0633	0.2284	0.4237	0.0413	0.2284	0.4513	-0.0358	-0.2009	-0.8723	0.077	0.2476	-0.1046	0.0083	0.1266
-0.5888	-0.1321	-0.3495	-0.377	-0.011	-0.0853	0.0908	0.0881	0.2284	0.4458	0.0798	0.2642	0.487	-0.0605	-0.1486	-0.9273	0.1183	0.2476	-0.0578	0.0248	0.1623
-0.5531	-0.0991	-0.3384	-0.3852	0.0083	-0.0798	0.0908	0.0936	0.2394	0.4348	0.0963	0.3164	0.498	-0.0825	-0.1073	-0.9603	0.1623	0.2504	-0.0275	0.0358	0.1651
-0.5476	-0.066	-0.3082	-0.4072	0.0275	-0.0825	0.0963	0.1046	0.2449	0.421	0.1321	0.3219	0.5118	-0.1046	-0.055	-0.941	0.2119	0.2339	0.0028	0.0385	0.1871
-0.5063	-0.0688	-0.2917	-0.443	-0.0028	-0.1238	0.055	0.0633	0.2201	0.4017	0.1376	0.3274	0.5256	-0.1321	-0.0468	-0.9328	0.2559	0.2256	0.0275	0.0358	0.2256
-0.4568	-0.0468	-0.2834	-0.4348	0.011	-0.1376	0.055	0.0578	0.2091	0.41	0.1706	0.3329	0.5256	-0.1348	-0.0248	-0.9438	0.2779	0.2064	0.0495	0.0193	0.2504
-0.4513	-0.0358	-0.2531	-0.4733	-0.0303	-0.1678	0.0275	0.033	0.1623	0.3907	0.1651	0.3357	0.5256	-0.1376	-0.0358	-0.93	0.2807	0.2064	0.0936	0.0275	0.2449
-0.4237	-0.0303	-0.2421	-0.4513	-0.0715	-0.1816	0.011	0.0165	0.1321	0.3687	0.1678	0.3192	0.5283	-0.1541	-0.0385	-0.9025	0.2889	0.1899	0.1183	0.022	0.2834
-0.3852	-0.0358	-0.2256	-0.4843	-0.0908	-0.2256	-0.0028	-0.0248	0.0825	0.3439	0.1623	0.2917	0.5063	-0.1513	-0.0825	-0.9108	0.3082	0.2009	0.1376	0	0.2944
-0.3742	-0.0633	-0.2476	-0.498	-0.1321	-0.2421	-0.0165	-0.0715	0.0358	0.3164	0.1926	0.2779	0.509	-0.1403	-0.0936	-0.9053	0.2972	0.2064	0.1458	0.0055	0.3109
-0.3495	-0.0908	-0.2311	-0.487	-0.1844	-0.2944	-0.0495	-0.0963	0.0165	0.3109	0.1871	0.2669	0.5035	-0.1403	-0.1596	-0.9135	0.2889	0.2174	0.1486	0.0028	0.3137
-0.3357	-0.1183	-0.2339	-0.4733	-0.2311	-0.3247	-0.0495	-0.1266	-0.055	0.2999	0.1926	0.2394	0.5118	-0.1266	-0.1789	-0.9163	0.2642	0.2559	0.1706	0.022	0.3852
-0.3357	-0.1458	-0.2311	-0.4898	-0.2724	-0.3715	-0.0633	-0.1596	-0.0743	0.2642	0.2064	0.2366	0.5366	-0.1156	-0.2064	-0.919	0.2449	0.2889	0.1954	0.0303	0.4375
-0.3082	-0.1541	-0.2256	-0.4678	-0.3054	-0.377	-0.0605	-0.1651	-0.0991	0.2697	0.2504	0.2531	0.5586	-0.0936	-0.2256	-0.9025	0.2009	0.3467	0.2421	0.0936	0.4898
-0.3027	-0.1844	-0.2201	-0.4513	-0.3302	-0.4017	-0.0578	-0.1596	-0.1486	0.2614	0.2779	0.2421	0.5806	-0.0825	-0.2642	-0.9135	0.1651	0.4155	0.2642	0.1321	0.5613
-0.2614	-0.1871	-0.2284	-0.41	-0.3522	-0.432	-0.0743	-0.1623	-0.1541	0.2586	0.3302	0.2421	0.5971	-0.0578	-0.2421	-0.897	0.1211	0.4458	0.2834	0.1981	0.6246
-0.2972	-0.2284	-0.2366	-0.4127	-0.3797	-0.4513	-0.0688	-0.1541	-0.2009	0.2284	0.3495	0.2586	0.6109	-0.0385	-0.2752	-0.8778	0.0853	0.4953	0.3082	0.2201	0.6851
-0.2614	-0.2614	-0.2339	-0.377	-0.3962	-0.4733	-0.0715	-0.1403	-0.2091	0.2559	0.3935	0.2779	0.6356	-0.0165	-0.3082	-0.8365	0.055	0.5503	0.3274	0.2724	0.7704
-0.2724	-0.2669	-0.2339	-0.3495	-0.4045	-0.476	-0.0688	-0.1238	-0.2229	0.2146	0.4237	0.2752	0.6411	-0.011	-0.3054	-0.7649	0.0248	0.6081	0.3439	0.3219	0.809
-0.2531	-0.2999	-0.2752	-0.3137	-0.4045	-0.498	-0.0715	-0.1266	-0.2476	0.2421	0.465	0.2999	0.6411	0.0055	-0.3082	-0.6549	-0.011	0.6219	0.3495	0.3687	0.8557
-0.2586	-0.3274	-0.2752	-0.2779	-0.4237	-0.509	-0.0798	-0.0853	-0.2476	0.2229	0.4788	0.2999	0.6576	0.0193	-0.3082	-0.5888	-0.033	0.6686	0.3687	0.421	0.8833
-0.2339	-0.3302	-0.2697	-0.2311	-0.3962	-0.5145	-0.0578	-0.0715	-0.2504	0.2256	0.5283	0.2999	0.6521	0.0358	-0.3054	-0.4595	-0.066	0.6962	0.3742	0.4925	0.9108
-0.2311	-0.3467	-0.2807	-0.1899	-0.3852	-0.4925	-0.0385	-0.0303	-0.2779	0.2311	0.5448	0.3192	0.6411	0.0605	-0.2972	-0.3357	-0.0963	0.7209	0.3742	0.5476	0.9603
-0.2119	-0.3357	-0.2697	-0.1293	-0.366	-0.509	-0.044	-0.0028	-0.2642	0.2339	0.5861	0.3357	0.6521	0.0715	-0.2834	-0.2586	-0.1211	0.7292	0.399	0.5943	0.9878
-0.2009	-0.377	-0.3109	-0.1403	-0.3495	-0.5145	-0.055	0.0193	-0.2779	0.2064	0.6164	0.3357	0.6384	0.0688	-0.2642	-0.1981	-0.1266	0.7429	0.4403	0.5943	1.0236
-0.1899	-0.3605	-0.3027	-0.0963	-0.3219	-0.498	-0.0468	0.0688	-0.2504	0.2091	0.6494	0.3384	0.6384	0.0743	-0.2339	-0.1321	-0.1266	0.7539	0.4375	0.6384	1.0429
-0.1789	-0.3605	-0.3164	-0.0853	-0.2944	-0.509	-0.0605	0.1183	-0.2697	0.2036	0.6714	0.3082	0.5806	0.0688	-0.1899	-0.0605	-0.1321	0.7732	0.465	0.6466	1.0649
-0.1816	-0.355	-0.3329	-0.0991	-0.2807	-0.52	-0.0798	0.1403	-0.2559	0.2091	0.6934	0.3192	0.5943	0.0825	-0.2064	-0.033	-0.1376	0.7539	0.498	0.6824	1.0676
-0.2146	-0.3742	-0.3935	-0.1238	-0.2504	-0.5118	-0.0936	0.1789	-0.2669	0.1678	0.6714	0.3219	0.5613	0.0633	-0.1899	-0.033	-0.1128	0.7319	0.509	0.6769	1.0594
-0.2091	-0.3687	-0.388	-0.1293	-0.1981	-0.5311	-0.1348	0.2091	-0.2669	0.1458	0.7154	0.2999	0.5366	0.0633	-0.1348	-0.0358	-0.1101	0.7154	0.5256	0.6741	1.0869
-0.2174	-0.3742	-0.4292	-0.1596	-0.1981	-0.5145	-0.1623	0.2339	-0.2586	0.1156	0.7072	0.2559	0.4925	0.055	-0.1321	-0.0413	-0.0881	0.6824	0.5338	0.6466	1.0704
-0.2174	-0.3522	-0.4595	-0.2009	-0.1706	-0.5338	-0.1871	0.2394	-0.2476	0.0853	0.6934	0.2421	0.465	0.0523	-0.1101	-0.0825	-0.0881	0.6439	0.5696	0.6136	1.0539
-0.2504	-0.4072	-0.5008	-0.2504	-0.1871	-0.5778	-0.2504	0.2229	-0.2917	0.0193	0.6521	0.2036	0.3962	0.044	-0.0991	-0.0963	-0.066	0.5613	0.5228	0.5338	1.0071
-0.2697	-0.4072	-0.5338	-0.2697	-0.1706	-0.5888	-0.2779	0.2201	-0.2917	-0.0193	0.6356	0.1733	0.3467	0.0275	-0.0991	-0.1871	-0.055	0.509	0.5503	0.4898	0.9658
-0.2752	-0.399	-0.5531	-0.2862	-0.1706	-0.5943	-0.3192	0.2064	-0.3082	-0.044	0.6191	0.1376	0.2917	0.0303	-0.1018	-0.2531	-0.055	0.4568	0.5145	0.41	0.8915
-0.2972	-0.41	-0.6191	-0.3302	-0.1844	-0.6274	-0.355	0.1926	-0.3247	-0.0991	0.5393	0.0798	0.1954	0.022	-0.1046	-0.3632	-0.0385	0.3962	0.476	0.3357	0.82
-0.3219	-0.4127	-0.6604	-0.3577	-0.1899	-0.6494	-0.3935	0.1706	-0.3412	-0.1376	0.4925	0.0495	0.1596	0.0138	-0.1486	-0.5145	-0.0193	0.3219	0.4265	0.2586	0.7429
-0.3137	-0.443	-0.6686	-0.3577	-0.1789	-0.6686	-0.41	0.1321	-0.3577	-0.1706	0.4403	0.0165	0.1073	0.0248	-0.1981	-0.6741	-0.0385	0.2807	0.4072	0.1541	0.6686
-0.3522	-0.4265	-0.6824	-0.3935	-0.2091	-0.6962	-0.4375	0.1238	-0.3742	-0.2284	0.4155	-0.0055	0.0468	0.033	-0.2449	-0.8475	-0.0495	0.2504	0.3687	0.0936	0.5888
-0.366	-0.443	-0.6851	-0.3962	-0.2119	-0.6851	-0.4678	0.0825	-0.3825	-0.2559	0.366	-0.0468	-0.0193	0.033	-0.2917	-0.9823	-0.0578	0.1789	0.3137	0.033	0.4843
-0.3935	-0.4403	-0.6989	-0.4155	-0.2229	-0.6989	-0.4815	0.0523	-0.3577	-0.2697	0.3247	-0.0495	-0.0468	0.055	-0.3522	-1.1447	-0.0963	0.1376	0.2669	-0.033	0.421
-0.4017	-0.4485	-0.7264	-0.4375	-0.2531	-0.7044	-0.487	0.0138	-0.3962	-0.3219	0.2669	-0.0963	-0.1238	0.0825	-0.4155	-1.2712	-0.1293	0.1073	0.2174	-0.0908	0.3137
-0.399	-0.4292	-0.6934	-0.41	-0.2394	-0.6659	-0.487	-0.011	-0.3852	-0.3329	0.2091	-0.0936	-0.1458	0.0908	-0.4843	-1.3785	-0.1678	0.0825	0.1789	-0.1211	0.2476
-0.399	-0.4265	-0.6824	-0.399	-0.2394	-0.6466	-0.4788	-0.0468	-0.3852	-0.3467	0.1596	-0.1238	-0.2146	0.1128	-0.498	-1.3648	-0.2146	0.022	0.1156	-0.1513	0.1266
-0.3962	-0.4072	-0.6549	-0.399	-0.2614	-0.6136	-0.4595	-0.077	-0.3687	-0.3605	0.0963	-0.1376	-0.2449	0.1376	-0.5613	-1.3785	-0.2476	-0.0055	0.033	-0.1871	0.0303
-0.3852	-0.3715	-0.5888	-0.3439	-0.2394	-0.5668	-0.443	-0.1183	-0.3687	-0.3605	0.0633	-0.1623	-0.2614	0.1706	-0.5751	-1.2822	-0.2944	-0.0275	0.0028	-0.2174	-0.0688
-0.3467	-0.3329	-0.5448	-0.3274	-0.2394	-0.509	-0.421	-0.1651	-0.3467	-0.3412	-0.011	-0.1954	-0.3247	0.1844	-0.5971	-1.1199	-0.3302	-0.0798	-0.0743	-0.2311	-0.1761
-0.2807	-0.2889	-0.4843	-0.2862	-0.2201	-0.4678	-0.3825	-0.2036	-0.3522	-0.3797	-0.0881	-0.2339	-0.377	0.1816	-0.5971	-0.9438	-0.355	-0.1293	-0.1238	-0.2724	-0.2834
-0.2256	-0.2366	-0.399	-0.2009	-0.1981	-0.3935	-0.3357	-0.2009	-0.3192	-0.366	-0.1541	-0.2421	-0.41	0.2064	-0.5696	-0.6796	-0.3962	-0.1486	-0.1816	-0.2614	-0.4017
-0.1376	-0.1899	-0.3302	-0.1541	-0.1899	-0.3164	-0.2999	-0.2284	-0.2972	-0.3852	-0.2421	-0.2889	-0.4623	0.2284	-0.5586	-0.41	-0.4237	-0.1816	-0.2752	-0.2421	-0.5228
-0.0798	-0.1348	-0.2421	-0.0881	-0.1706	-0.2862	-0.2917	-0.2834	-0.2889	-0.399	-0.3054	-0.3192	-0.4953	0.2256	-0.52	-0.1458	-0.4403	-0.2311	-0.3247	-0.2614	-0.6356
0.0138	-0.0605	-0.1431	0	-0.1513	-0.1954	-0.2311	-0.2972	-0.2752	-0.4127	-0.3825	-0.3577	-0.5311	0.2449	-0.4678	0.1623	-0.4843	-0.2394	-0.3687	-0.2091	-0.7484
0.0908	-0.0165	-0.044	0.0743	-0.1348	-0.1348	-0.2229	-0.3495	-0.2586	-0.4072	-0.4788	-0.399	-0.5723	0.2476	-0.3907	0.4568	-0.498	-0.2752	-0.443	-0.1954	-0.875
0.1789	0.0413	0.0138	0.1128	-0.1348	-0.0688	-0.1981	-0.3605	-0.2311	-0.4155	-0.5448	-0.421	-0.6191	0.2586	-0.2999	0.7154	-0.5118	-0.3054	-0.5118	-0.1596	-0.9988
0.2586	0.0991	0.1046	0.1733	-0.0936	0.0083	-0.1678	-0.3907	-0.2091	-0.4513	-0.6439	-0.4733	-0.6411	0.2559	-0.2119	0.9823	-0.5311	-0.3439	-0.5696	-0.1348	-1.1171
0.3467	0.1376	0.2009	0.2476	-0.0853	0.055	-0.1513	-0.41	-0.2009	-0.465	-0.7457	-0.5063	-0.6659	0.2697	-0.0881	1.2217	-0.5338	-0.3797	-0.6164	-0.1128	-1.2465
0.4485	0.1871	0.3219	0.3274	-0.0825	0.1403	-0.1018	-0.4292	-0.1761	-0.4265	-0.8035	-0.5503	-0.6962	0.2917	0.0523	1.4583	-0.5531	-0.3852	-0.6824	-0.055	-1.3538
0.5145	0.2284	0.399	0.3715	-0.066	0.2119	-0.055	-0.4485	-0.1458	-0.4375	-0.8695	-0.5668	-0.7127	0.2752	0.1899	1.6317	-0.5448	-0.4403	-0.7154	-0.0193	-1.4253
0.6026	0.2752	0.4733	0.4072	-0.077	0.2559	-0.033	-0.487	-0.1403	-0.4292	-0.9328	-0.5916	-0.7347	0.2779	0.2834	1.7583	-0.5366	-0.4568	-0.7539	0	-1.5464
0.6906	0.3302	0.5476	0.4568	-0.0358	0.3384	0.0083	-0.4925	-0.1266	-0.3962	-1.0208	-0.6246	-0.7567	0.2614	0.4182	1.8215	-0.5118	-0.4843	-0.7952	0.0303	-1.6262
0.7347	0.3522	0.5971	0.4898	-0.0165	0.399	0.0358	-0.4953	-0.0798	-0.4017	-1.0456	-0.6164	-0.7732	0.2421	0.5228	1.8986	-0.476	-0.5338	-0.7952	0.0165	-1.695
0.7787	0.377	0.6604	0.52	-0.0275	0.4595	0.077	-0.5063	-0.0385	-0.4017	-1.0594	-0.6411	-0.7925	0.2146	0.6384	1.9096	-0.432	-0.5723	-0.8255	0.022	-1.739
0.7925	0.4045	0.7017	0.5283	0.0248	0.4953	0.0881	-0.5063	-0.022	-0.3935	-1.0924	-0.6576	-0.7952	0.1899	0.6879	1.8793	-0.3715	-0.5943	-0.8392	0.0083	-1.7528
0.82	0.4375	0.7429	0.5723	0.0578	0.5503	0.1128	-0.4568	0.0193	-0.3687	-1.0621	-0.6109	-0.7787	0.1651	0.7622	1.8793	-0.3247	-0.6164	-0.8172	-0.0055	-1.7335
0.8255	0.4513	0.7649	0.5641	0.0688	0.5943	0.1403	-0.443	0.0468	-0.3632	-1.0621	-0.5943	-0.7787	0.1266	0.7897	1.8353	-0.2559	-0.6604	-0.7815	-0.0495	-1.706
0.8255	0.4513	0.8035	0.5668	0.0825	0.6384	0.1541	-0.399	0.1073	-0.3384	-1.0318	-0.5586	-0.7759	0.0991	0.8282	1.794	-0.1871	-0.7044	-0.7594	-0.0798	-1.662
0.831	0.4788	0.8502	0.5751	0.1238	0.6824	0.1789	-0.355	0.1541	-0.3192	-1.0043	-0.5393	-0.7787	0.066	0.864	1.717	-0.1156	-0.7237	-0.7209	-0.1293	-1.6124
0.7842	0.4953	0.853	0.5943	0.1733	0.7182	0.2146	-0.2862	0.1954	-0.2889	-0.9245	-0.4925	-0.7347	0.0138	0.864	1.6042	-0.0275	-0.7649	-0.6549	-0.1761	-1.4969
0.7759	0.509	0.8723	0.5806	0.2201	0.7512	0.2284	-0.2174	0.2476	-0.2889	-0.8557	-0.4292	-0.7237	-0.0248	0.831	1.4831	0.0468	-0.7759	-0.5861	-0.2119	-1.3896
0.7567	0.5366	0.9053	0.5916	0.2586	0.8282	0.2752	-0.1596	0.2917	-0.2504	-0.7622	-0.3825	-0.7072	-0.066	0.8062	1.3043	0.1348	-0.7815	-0.5448	-0.2642	-1.2492
0.7402	0.5366	0.941	0.6109	0.3467	0.8612	0.2999	-0.0688	0.377	-0.2229	-0.6494	-0.2944	-0.6741	-0.0936	0.7732	1.1859	0.1981	-0.8035	-0.4513	-0.3082	-1.0979
0.7319	0.5998	0.9851	0.6109	0.4292	0.8998	0.2944	0.033	0.4265	-0.1844	-0.5283	-0.2174	-0.6356	-0.1348	0.7759	1.0401	0.2697	-0.809	-0.3302	-0.3302	-0.9493
0.7154	0.5806	0.9823	0.6136	0.4788	0.9383	0.3247	0.0853	0.465	-0.1899	-0.4623	-0.1596	-0.6109	-0.1761	0.7237	0.897	0.3467	-0.82	-0.2917	-0.4485	-0.7925
0.7044	0.5943	1.0236	0.6081	0.52	0.9741	0.3137	0.1678	0.5118	-0.1623	-0.3577	-0.1266	-0.6026	-0.2146	0.6962	0.7897	0.4182	-0.8255	-0.1954	-0.4925	-0.6796
0.6989	0.6549	1.0676	0.6109	0.5943	1.0208	0.3632	0.2669	0.5723	-0.1211	-0.2504	-0.0495	-0.5696	-0.2311	0.6521	0.7209	0.4595	-0.8062	-0.1211	-0.5283	-0.5421
0.7347	0.7072	1.1281	0.6411	0.6659	1.0676	0.377	0.355	0.6549	-0.0881	-0.1541	0.0028	-0.5366	-0.2614	0.6081	0.6714	0.509	-0.8227	-0.022	-0.5971	-0.377
0.7759	0.7677	1.1777	0.6686	0.7649	1.1309	0.4292	0.432	0.7182	-0.044	-0.0275	0.0936	-0.4705	-0.2642	0.6053	0.6576	0.5366	-0.7925	0.0495	-0.6384	-0.2642
0.8007	0.8172	1.2437	0.6686	0.8282	1.1859	0.454	0.5393	0.7842	0.0083	0.066	0.1623	-0.4265	-0.2834	0.5366	0.5943	0.5861	-0.7732	0.1486	-0.6659	-0.1128
0.8805	0.8612	1.3208	0.7319	0.9383	1.2492	0.465	0.6356	0.8695	0.066	0.1954	0.2394	-0.366	-0.3164	0.5173	0.6053	0.6109	-0.7402	0.2504	-0.6466	0.0385
0.919	0.9383	1.3896	0.7402	1.0098	1.3043	0.5118	0.7237	0.9438	0.1073	0.3027	0.2889	-0.3495	-0.3357	0.5008	0.5723	0.6686	-0.7182	0.3219	-0.7072	0.1568
0.9823	0.9906	1.4611	0.8035	1.0759	1.384	0.5448	0.8172	0.9933	0.1541	0.399	0.3605	-0.2834	-0.3605	0.4375	0.5503	0.7044	-0.6879	0.4127	-0.7127	0.3082
1.0759	1.0896	1.5601	0.8447	1.1859	1.4666	0.5888	0.9135	1.0951	0.2064	0.5228	0.4485	-0.2119	-0.366	0.4348	0.5806	0.7264	-0.6246	0.5338	-0.6962	0.465
1.1584	1.1749	1.6592	0.897	1.296	1.5381	0.6191	0.9906	1.1584	0.2421	0.6301	0.5228	-0.1376	-0.3742	0.388	0.5778	0.7622	-0.5861	0.6191	-0.6906	0.5668
1.2327	1.23	1.7445	0.9493	1.3703	1.5932	0.6109	1.0896	1.2355	0.2889	0.7017	0.5778	-0.0963	-0.3907	0.3825	0.6081	0.7952	-0.5421	0.6989	-0.6631	0.6796
1.3208	1.329	1.8105	1.0043	1.4363	1.6785	0.6659	1.1694	1.3125	0.3467	0.7842	0.6604	-0.0275	-0.4017	0.388	0.6329	0.8035	-0.4843	0.7787	-0.6053	0.7677
1.4171	1.3978	1.9124	1.0429	1.5106	1.739	0.7182	1.2492	1.3648	0.388	0.9053	0.7072	0.033	-0.4045	0.4127	0.6769	0.8255	-0.432	0.8447	-0.5916	0.8365
1.5106	1.4556	1.9591	1.1226	1.5657	1.7748	0.7127	1.2712	1.3951	0.4045	0.952	0.7429	0.0853	-0.4237	0.454	0.7154	0.8365	-0.3797	0.908	-0.5173	0.9218
1.5684	1.5134	2.0252	1.1419	1.6399	1.805	0.7347	1.34	1.4198	0.4017	0.9906	0.7622	0.1073	-0.4237	0.487	0.7429	0.8502	-0.377	0.9741	-0.5338	0.952
1.6482	1.5684	2.0802	1.1667	1.6592	1.8408	0.7182	1.3675	1.4336	0.41	1.0098	0.7429	0.1293	-0.421	0.5668	0.7925	0.842	-0.3357	1.0071	-0.476	0.9741
1.717	1.5877	2.1325	1.1887	1.6867	1.8711	0.7264	1.3785	1.4198	0.3962	1.0373	0.7484	0.1128	-0.4182	0.6026	0.831	0.82	-0.3054	1.0208	-0.432	0.9686
1.7638	1.6289	2.1655	1.1942	1.7005	1.8463	0.6769	1.3923	1.4198	0.3797	1.0318	0.7347	0.1211	-0.4155	0.6659	0.8888	0.8035	-0.2862	1.0676	-0.3962	0.9741
1.7885	1.6647	2.2068	1.2217	1.7363	1.8546	0.6494	1.3923	1.4308	0.377	1.0318	0.7402	0.1238	-0.399	0.7347	0.9355	0.7787	-0.2476	1.1006	-0.355	0.9768
1.7995	1.6675	2.204	1.2107	1.7142	1.8408	0.6136	1.384	1.3868	0.3219	0.9906	0.6824	0.0936	-0.3825	0.798	0.941	0.7622	-0.2559	1.1089	-0.3219	0.952
1.8023	1.6675	2.1875	1.1777	1.7115	1.7995	0.5668	1.373	1.329	0.2944	0.9576	0.6356	0.0495	-0.377	0.8227	1.0208	0.7484	-0.2669	1.1089	-0.2834	0.9108
1.7913	1.6537	2.171	1.1529	1.717	1.7885	0.5145	1.3538	1.2987	0.2256	0.9493	0.6081	0.022	-0.3742	0.9025	1.0291	0.7292	-0.2642	1.1089	-0.2697	0.8833
1.7665	1.6289	2.1435	1.1281	1.6867	1.7418	0.4623	1.34	1.2437	0.1761	0.8888	0.5448	0.0055	-0.3605	0.9355	1.0759	0.7127	-0.2504	1.1254	-0.2284	0.8502
1.7115	1.6124	2.0857	1.0704	1.6097	1.6647	0.3605	1.2795	1.1557	0.1018	0.8255	0.465	-0.0825	-0.3522	0.9713	1.0841	0.7044	-0.2614	1.1281	-0.2256	0.8255
1.6454	1.5299	2.0197	1.0071	1.5601	1.5822	0.2642	1.219	1.0704	-0.0083	0.7649	0.3577	-0.1431	-0.3467	0.9961	1.0704	0.6879	-0.2917	1.1034	-0.2284	0.7457
1.5822	1.4831	1.9289	0.9273	1.5271	1.5271	0.1926	1.1749	0.9851	-0.0936	0.6989	0.3054	-0.1981	-0.3412	0.9851	1.0181	0.6741	-0.2972	1.1061	-0.2697	0.7457
1.4611	1.4226	1.8381	0.8392	1.4391	1.4198	0.0715	1.0731	0.875	-0.1844	0.6109	0.2036	-0.2752	-0.3384	1.0208	0.9768	0.6741	-0.3054	1.1006	-0.2642	0.6934
1.3813	1.34	1.7225	0.7457	1.3593	1.3098	-0.0275	0.9686	0.7512	-0.3027	0.4953	0.066	-0.3825	-0.3357	0.9961	0.8833	0.6686	-0.3302	1.0539	-0.3109	0.6356
1.2465	1.2575	1.6014	0.6356	1.252	1.1722	-0.1733	0.8805	0.6246	-0.4045	0.4045	-0.0605	-0.487	-0.3384	0.9713	0.7897	0.6631	-0.3715	1.0346	-0.3632	0.5888
1.1447	1.2024	1.4831	0.5641	1.1557	1.0594	-0.2669	0.7649	0.498	-0.5393	0.2752	-0.1816	-0.5943	-0.3137	0.9548	0.7237	0.6384	-0.3935	0.9906	-0.3935	0.5311
1.0373	1.0896	1.3758	0.432	1.0539	0.952	-0.4045	0.6274	0.3522	-0.6604	0.1513	-0.3439	-0.7072	-0.3164	0.9163	0.6659	0.6274	-0.4237	0.9603	-0.4485	0.4898
0.9493	1.0208	1.2437	0.3577	0.9328	0.82	-0.5118	0.5008	0.2064	-0.7759	0.0385	-0.5035	-0.8227	-0.2917	0.8943	0.6246	0.5916	-0.4678	0.919	-0.5173	0.4155
0.842	0.9218	1.1144	0.2669	0.809	0.7017	-0.6081	0.3632	0.0468	-0.8833	-0.1183	-0.6631	-0.9576	-0.2889	0.853	0.5998	0.5613	-0.52	0.8695	-0.5778	0.355
0.8062	0.8612	1.0263	0.2201	0.7099	0.6053	-0.7154	0.2862	-0.0825	-0.9988	-0.2394	-0.82	-1.0924	-0.2724	0.8255	0.5696	0.5311	-0.5476	0.831	-0.6411	0.3137
0.7429	0.7952	0.9135	0.1348	0.6246	0.487	-0.798	0.1486	-0.2229	-1.0979	-0.3605	-0.9713	-1.2134	-0.2421	0.7704	0.6081	0.4843	-0.5971	0.7897	-0.6989	0.2642
0.6989	0.7072	0.8255	0.0798	0.5145	0.3742	-0.8888	-0.0028	-0.3687	-1.2052	-0.4898	-1.1254	-1.3428	-0.2339	0.7237	0.6026	0.4678	-0.6631	0.7402	-0.7704	0.2146
0.6851	0.6879	0.7787	0.044	0.443	0.3109	-0.9383	-0.077	-0.4815	-1.3015	-0.5888	-1.2822	-1.4308	-0.2119	0.7072	0.6521	0.4403	-0.6962	0.7044	-0.842	0.1761
0.6356	0.6384	0.6989	-0.044	0.355	0.2201	-1.0016	-0.1789	-0.5971	-1.3813	-0.6934	-1.4198	-1.5491	-0.2201	0.6494	0.6631	0.4292	-0.7457	0.6466	-0.8888	0.1486
0.6439	0.5971	0.6356	-0.0358	0.2862	0.1458	-1.0484	-0.2642	-0.7044	-1.4859	-0.787	-1.5436	-1.6372	-0.1981	0.6686	0.6906	0.3962	-0.8145	0.6246	-0.9383	0.1238
0.6439	0.5888	0.5888	-0.0825	0.2504	0.0688	-1.0924	-0.3329	-0.7897	-1.5326	-0.875	-1.6757	-1.7115	-0.1926	0.6384	0.7072	0.3852	-0.8365	0.6026	-0.9741	0.1156
0.6356	0.5833	0.5448	-0.077	0.1926	0.044	-1.1144	-0.41	-0.8585	-1.5712	-0.93	-1.7665	-1.7968	-0.1733	0.5943	0.7044	0.3715	-0.8612	0.5778	-1.0401	0.0936
0.6219	0.5558	0.4898	-0.1211	0.1458	-0.022	-1.1502	-0.4843	-0.9328	-1.6399	-1.0291	-1.8738	-1.8628	-0.1871	0.5393	0.6851	0.3715	-0.9383	0.5696	-1.0786	0.0468
0.6411	0.5888	0.4485	-0.1018	0.1156	-0.0688	-1.1694	-0.5311	-1.0016	-1.695	-1.0814	-1.9591	-1.9261	-0.1733	0.5476	0.6851	0.3632	-0.9603	0.5338	-1.1116	0.0413
0.6219	0.5641	0.41	-0.1293	0.0853	-0.0963	-1.1777	-0.5806	-1.0346	-1.7418	-1.1226	-2.0169	-1.9839	-0.1816	0.4705	0.6329	0.3687	-0.9878	0.5256	-1.1392	0.033
0.6301	0.5723	0.3605	-0.1568	0.0798	-0.1293	-1.1832	-0.6191	-1.0786	-1.7363	-1.1777	-2.0885	-2.0142	-0.1816	0.4595	0.6246	0.3632	-1.0153	0.5338	-1.1777	0.0303
0.6219	0.5558	0.3192	-0.1486	0.0688	-0.1541	-1.1639	-0.6219	-1.0841	-1.7665	-1.2134	-2.1352	-2.0692	-0.1761	0.41	0.5668	0.355	-1.0236	0.5256	-1.1749	0.0275
0.6164	0.5613	0.2669	-0.1513	0.0605	-0.1981	-1.1694	-0.6329	-1.1226	-1.794	-1.2437	-2.182	-2.1022	-0.1733	0.3467	0.5311	0.3715	-1.0456	0.5035	-1.1997	0.033
0.5916	0.5558	0.2064	-0.1706	0.0523	-0.2119	-1.1832	-0.6301	-1.1281	-1.8105	-1.2602	-2.204	-2.1325	-0.1954	0.3109	0.4375	0.3852	-1.0594	0.5173	-1.219	0.033
0.5448	0.5228	0.1486	-0.2036	0.0385	-0.2311	-1.1859	-0.6301	-1.1281	-1.8326	-1.2547	-2.226	-2.1462	-0.1871	0.2779	0.3495	0.3907	-1.0759	0.5008	-1.2217	0.0083
0.5118	0.4898	0.1183	-0.2091	0.0578	-0.2229	-1.1557	-0.6329	-1.1309	-1.8436	-1.2575	-2.2343	-2.138	-0.1954	0.2256	0.2559	0.399	-1.0759	0.5228	-1.2327	0.0028
0.4898	0.4623	0.0743	-0.2366	0.0358	-0.2449	-1.1474	-0.5861	-1.1116	-1.8078	-1.2382	-2.226	-2.149	-0.1899	0.1954	0.1733	0.3935	-1.1006	0.5366	-1.2492	0.022
0.4458	0.432	-0.0055	-0.2669	0.0358	-0.2944	-1.1584	-0.5723	-1.1089	-1.8243	-1.23	-2.237	-2.1325	-0.1981	0.1403	0.1018	0.4017	-1.1034	0.52	-1.23	-0.0028
0.4072	0.4072	-0.0275	-0.2917	0.0468	-0.2807	-1.1364	-0.5145	-1.0318	-1.7638	-1.1639	-2.1903	-2.1187	-0.1926	0.1431	0.066	0.4017	-1.1199	0.5228	-1.2245	0.0193
0.3522	0.4045	-0.0743	-0.2807	0.0908	-0.2614	-1.1116	-0.4458	-1.0126	-1.728	-1.0979	-2.1105	-2.0637	-0.1844	0.1073	0.0193	0.3742	-1.0731	0.5723	-1.1942	0.0578
0.3495	0.388	-0.0936	-0.2642	0.1321	-0.2421	-1.0704	-0.3384	-0.9273	-1.6537	-0.9988	-2.0362	-2.0169	-0.1761	0.1321	0.0083	0.3522	-1.0539	0.5861	-1.1529	0.1073
0.2862	0.3577	-0.1348	-0.2559	0.1844	-0.2064	-1.0263	-0.2366	-0.8502	-1.5794	-0.8943	-1.9179	-1.9068	-0.1623	0.1513	-0.0083	0.3439	-1.0043	0.6246	-1.1144	0.1486
0.2559	0.3302	-0.1568	-0.2531	0.2586	-0.2036	-0.9961	-0.1348	-0.7539	-1.5079	-0.7677	-1.816	-1.8298	-0.1816	0.1733	-0.0193	0.3439	-0.9961	0.6714	-1.0841	0.2146
0.1954	0.3192	-0.1981	-0.2394	0.3247	-0.1706	-0.9355	-0.0055	-0.6411	-1.4061	-0.6384	-1.6757	-1.7252	-0.1623	0.2091	0.0028	0.3357	-0.952	0.7264	-1.0346	0.2917
0.1568	0.3302	-0.2009	-0.2036	0.4127	-0.0991	-0.864	0.1073	-0.5228	-1.3098	-0.4678	-1.4996	-1.6372	-0.1678	0.2586	0.0633	0.3274	-0.9163	0.7677	-0.9741	0.377
0.1376	0.3412	-0.2284	-0.1926	0.476	-0.0578	-0.8282	0.2559	-0.388	-1.219	-0.3137	-1.3703	-1.5657	-0.1761	0.3329	0.1458	0.3495	-0.9245	0.831	-0.9631	0.4678
0.1101	0.3467	-0.2339	-0.1678	0.5751	-0.011	-0.7649	0.3935	-0.2779	-1.1006	-0.1761	-1.1887	-1.4171	-0.1596	0.421	0.2531	0.3329	-0.886	0.9135	-0.9053	0.5531
0.0798	0.3632	-0.2531	-0.1073	0.6741	0.0495	-0.6934	0.5393	-0.1046	-1.0071	0.0248	-1.0043	-1.2905	-0.1596	0.5008	0.421	0.3357	-0.8365	0.9631	-0.853	0.6219
0.0605	0.3715	-0.2559	-0.066	0.7649	0.1211	-0.6329	0.6686	0.0083	-0.8612	0.2009	-0.8035	-1.1557	-0.1623	0.6136	0.5888	0.3247	-0.809	1.0263	-0.8282	0.7319
0.044	0.377	-0.2669	-0.0303	0.8557	0.1954	-0.5586	0.809	0.1431	-0.7567	0.3715	-0.6219	-0.9988	-0.1541	0.6769	0.7319	0.3247	-0.7622	1.0786	-0.798	0.8117
0.044	0.4182	-0.2504	0.0083	0.9686	0.2724	-0.4623	0.9823	0.3329	-0.6136	0.5393	-0.4127	-0.8502	-0.1568	0.7704	0.8833	0.3164	-0.7182	1.1474	-0.7649	0.8915
0.0275	0.4375	-0.2311	0.0715	1.0759	0.3412	-0.3825	1.1144	0.4623	-0.476	0.7264	-0.2009	-0.6824	-0.1348	0.8833	1.0208	0.3027	-0.6301	1.1997	-0.6934	0.952
0.0798	0.465	-0.2174	0.1183	1.1529	0.432	-0.2999	1.2547	0.5998	-0.3412	0.8943	-0.0248	-0.5448	-0.1266	0.9631	1.1749	0.2917	-0.5861	1.2602	-0.6549	1.0043
0.1018	0.5283	-0.2009	0.1706	1.2712	0.5173	-0.2174	1.3868	0.7484	-0.1981	1.0649	0.1596	-0.3825	-0.1293	1.0759	1.3043	0.2697	-0.5311	1.3125	-0.5971	1.0594
0.0936	0.5503	-0.1844	0.2119	1.351	0.5806	-0.1403	1.5106	0.8667	-0.0743	1.1997	0.3274	-0.2366	-0.1211	1.1171	1.3785	0.2724	-0.4843	1.3455	-0.5668	1.1034
0.0963	0.5751	-0.1651	0.2614	1.4391	0.6796	-0.0358	1.6537	1.0181	0.0715	1.34	0.5035	-0.0468	-0.1238	1.1777	1.4473	0.2642	-0.4072	1.3923	-0.5173	1.1557
0.1348	0.6246	-0.1046	0.3247	1.5464	0.7815	0.0825	1.772	1.1639	0.2366	1.4886	0.7072	0.1156	-0.1073	1.2245	1.4969	0.2559	-0.2972	1.4418	-0.4375	1.2382
0.1128	0.6741	-0.1046	0.3577	1.6317	0.8502	0.1816	1.9041	1.2905	0.3715	1.6179	0.8695	0.2972	-0.1156	1.219	1.4886	0.2504	-0.1678	1.4886	-0.3467	1.2795
0.1623	0.7182	-0.077	0.4348	1.739	0.952	0.2999	2.0169	1.4308	0.5283	1.7583	1.0373	0.4843	-0.1046	1.2245	1.4941	0.2421	-0.0523	1.5491	-0.2834	1.3538
0.2009	0.7897	-0.0303	0.4925	1.8353	1.0649	0.4155	2.1462	1.5657	0.7154	1.8848	1.2217	0.6879	-0.1018	1.2355	1.4941	0.2201	0.077	1.6042	-0.1899	1.4253
0.1981	0.831	-0.0055	0.5173	1.9151	1.1364	0.5063	2.2343	1.651	0.82	1.9784	1.3565	0.853	-0.1046	1.1887	1.4446	0.2366	0.1899	1.6289	-0.1101	1.4611
0.2119	0.8723	0.0193	0.5751	2.0004	1.252	0.6164	2.3223	1.7748	0.9493	2.0912	1.4638	0.9933	-0.1238	1.1584	1.373	0.2586	0.2834	1.673	-0.0303	1.4996
0.2036	0.9163	0.0358	0.5943	2.0885	1.274	0.6521	2.4186	1.8326	1.0649	2.1627	1.5767	1.1419	-0.1238	1.1254	1.307	0.2752	0.4072	1.6977	0.0413	1.5299
0.1623	0.9355	0.0193	0.5778	2.116	1.3208	0.6989	2.4407	1.8656	1.1392	2.1985	1.6454	1.2712	-0.1403	1.0621	1.1914	0.3164	0.498	1.7473	0.0743	1.5409
0.1486	0.9465	0.022	0.5613	2.1215	1.351	0.7209	2.4544	1.8711	1.1832	2.2123	1.6537	1.34	-0.1541	1.0346	1.0869	0.3412	0.5723	1.7252	0.1348	1.5959
0.1293	0.9493	-0.022	0.5421	2.1435	1.3373	0.6962	2.4407	1.8491	1.1969	2.1848	1.6785	1.3951	-0.1871	0.9741	0.919	0.388	0.6604	1.7473	0.1568	1.5849
0.055	0.93	-0.0688	0.4843	2.105	1.2905	0.6604	2.3939	1.7555	1.1722	2.1352	1.6234	1.3896	-0.2146	0.9245	0.8007	0.4375	0.6934	1.7445	0.1761	1.6152
-0.0028	0.8915	-0.1403	0.4155	2.0417	1.2217	0.5998	2.3058	1.6454	1.1144	2.0637	1.4941	1.3565	-0.2311	0.8888	0.6521	0.487	0.7237	1.7032	0.1596	1.5877
-0.0963	0.8172	-0.2174	0.3247	1.9509	1.1364	0.509	2.1903	1.5326	1.0153	1.9399	1.362	1.3043	-0.2669	0.8695	0.5035	0.5256	0.7347	1.6647	0.1376	1.5959
-0.1706	0.7539	-0.3302	0.2201	1.8546	0.9906	0.4155	2.0527	1.3428	0.9025	1.8133	1.2024	1.2162	-0.2807	0.8282	0.3797	0.5558	0.7759	1.6399	0.1018	1.5849
-0.2669	0.6604	-0.4237	0.1211	1.7307	0.8943	0.3054	1.9481	1.1667	0.8062	1.6565	1.0208	1.1226	-0.2889	0.798	0.2807	0.5696	0.7897	1.5574	0.1018	1.5712
-0.3742	0.5586	-0.52	0.0358	1.5822	0.7567	0.2091	1.772	0.9906	0.6824	1.4804	0.831	1.0346	-0.2862	0.8282	0.2009	0.5778	0.831	1.5161	0.0908	1.5574
-0.476	0.4733	-0.6329	-0.1073	1.4336	0.5861	0.0798	1.5822	0.7292	0.5558	1.3153	0.5916	0.9053	-0.2889	0.831	0.1321	0.5833	0.8557	1.4501	0.0743	1.5381
-0.5586	0.3412	-0.7484	-0.2119	1.274	0.4375	-0.0633	1.4116	0.5283	0.4072	1.1447	0.399	0.8172	-0.2724	0.8585	0.0633	0.5668	0.8888	1.3813	0.077	1.5436
-0.6851	0.2339	-0.8612	-0.3412	1.1089	0.2779	-0.1486	1.2327	0.2862	0.2889	0.952	0.1651	0.7072	-0.2752	0.8365	0.011	0.5366	0.9438	1.3098	0.0825	1.5326
-0.787	0.0743	-0.9961	-0.4733	0.919	0.1238	-0.2697	1.0263	0.0605	0.1706	0.7567	-0.0633	0.6053	-0.2531	0.8255	-0.0605	0.5035	0.9823	1.1914	0.0991	1.4638
-0.9053	-0.055	-1.1061	-0.5806	0.7815	-0.0083	-0.355	0.8447	-0.1568	0.0633	0.5531	-0.2586	0.5118	-0.2284	0.8172	-0.1101	0.465	1.0759	1.0896	0.1348	1.4748
-1.0621	-0.1871	-1.2162	-0.7044	0.5998	-0.1376	-0.4458	0.6631	-0.3274	-0.044	0.377	-0.4485	0.476	-0.2036	0.798	-0.1761	0.4072	1.1281	0.9878	0.1513	1.4418
-1.219	-0.3632	-1.3565	-0.82	0.4155	-0.2972	-0.5503	0.4705	-0.5366	-0.1238	0.1651	-0.6026	0.3962	-0.1899	0.7099	-0.3164	0.377	1.1832	0.8723	0.1623	1.3648
-1.3868	-0.509	-1.4748	-0.9328	0.2697	-0.3797	-0.5696	0.3274	-0.6962	-0.1899	0.0028	-0.7319	0.4045	-0.1486	0.6081	-0.3907	0.2999	1.2767	0.7484	0.1871	1.296
-1.5574	-0.6824	-1.6565	-1.0896	0.1046	-0.5008	-0.6604	0.1568	-0.853	-0.2119	-0.1376	-0.8172	0.399	-0.1348	0.5173	-0.4898	0.2669	1.3538	0.5998	0.1899	1.2107
-1.7197	-0.82	-1.761	-1.1777	-0.0303	-0.5696	-0.6796	0.0193	-0.9328	-0.2229	-0.2697	-0.8888	0.421	-0.0991	0.3852	-0.5558	0.2091	1.4528	0.4898	0.2146	1.1281
-1.9179	-0.9823	-1.8958	-1.2877	-0.1596	-0.6714	-0.7154	-0.0853	-1.0373	-0.2311	-0.3742	-0.9328	0.4815	-0.0743	0.2476	-0.6356	0.1541	1.5244	0.3302	0.2614	1.0511
-2.1022	-1.1447	-2.0114	-1.3675	-0.2449	-0.7099	-0.7072	-0.1651	-1.0869	-0.1733	-0.4237	-0.9053	0.5943	-0.0275	0.0275	-0.7237	0.0908	1.6454	0.2146	0.3357	0.9796
-2.2673	-1.2987	-2.16	-1.4776	-0.3522	-0.7539	-0.7182	-0.2146	-1.1226	-0.1458	-0.4568	-0.8447	0.7237	-0.011	-0.1761	-0.7704	0.0138	1.7803	0.1046	0.3907	0.8998
-2.4324	-1.4116	-2.2288	-1.5601	-0.399	-0.7704	-0.6906	-0.2394	-1.1089	-0.044	-0.4568	-0.7484	0.8833	0.0495	-0.4072	-0.8282	-0.0881	1.9564	-0.0028	0.4788	0.8447
-2.5975	-1.5601	-2.3251	-1.6289	-0.443	-0.7374	-0.6604	-0.2256	-1.0511	0.0605	-0.41	-0.6026	1.0951	0.0991	-0.6439	-0.9465	-0.1761	2.1105	-0.0853	0.5531	0.7732
-2.7791	-1.6785	-2.4407	-1.6867	-0.5035	-0.7402	-0.6191	-0.2091	-0.9741	0.1789	-0.3164	-0.421	1.329	0.1513	-0.9328	-1.0208	-0.2862	2.3058	-0.1733	0.6686	0.7539
-2.9194	-1.8243	-2.537	-1.761	-0.5228	-0.7127	-0.5558	-0.1623	-0.8778	0.3522	-0.1954	-0.2119	1.6097	0.2036	-1.2685	-1.1419	-0.3962	2.5094	-0.2559	0.7952	0.7099
-3.1175	-1.9206	-2.636	-1.8133	-0.5283	-0.6934	-0.498	-0.077	-0.7539	0.509	-0.0083	0.0358	1.8958	0.2614	-1.6427	-1.3043	-0.5145	2.7461	-0.3054	0.9245	0.6962
-3.2826	-2.0224	-2.7241	-1.8628	-0.5283	-0.6714	-0.4623	0.0248	-0.6191	0.7154	0.1678	0.2944	2.204	0.3274	-2.0472	-1.4969	-0.6411	2.969	-0.3687	1.0429	0.7292
-3.4615	-2.1462	-2.8094	-1.9261	-0.5338	-0.6301	-0.4182	0.1183	-0.4623	0.9053	0.3742	0.5696	2.5397	0.3907	-2.5342	-1.7445	-0.7649	3.2221	-0.4155	1.1749	0.7567
-3.6403	-2.2453	-2.8864	-1.9729	-0.5338	-0.5751	-0.3522	0.2642	-0.3109	1.0814	0.6081	0.853	2.8589	0.4513	-2.9992	-1.9894	-0.886	3.4615	-0.432	1.2905	0.8172
-3.822	-2.3664	-2.9855	-2.0224	-0.5558	-0.5696	-0.2999	0.3632	-0.1431	1.274	0.864	1.1612	3.2194	0.5145	-3.4973	-2.2948	-0.9988	3.7201	-0.465	1.4363	0.8833
-3.9733	-2.4489	-3.0598	-2.0802	-0.5421	-0.5448	-0.2642	0.5256	-0.0083	1.4666	1.1392	1.4501	3.5826	0.5641	-4.0338	-2.6168	-1.1061	3.9788	-0.454	1.5629	0.9961
-4.1576	-2.5562	-3.1616	-2.1242	-0.5531	-0.5118	-0.2394	0.6631	0.1844	1.695	1.4418	1.761	3.954	0.6191	-4.5346	-2.98	-1.2245	4.298	-0.4403	1.7087	1.0951
-4.3227	-2.6498	-3.2194	-2.1875	-0.5778	-0.5063	-0.1954	0.809	0.3137	1.8903	1.739	2.0609	4.3227	0.6686	-5.0299	-3.3597	-1.296	4.5896	-0.4348	1.8298	1.2575
-4.4658	-2.7268	-3.3239	-2.2425	-0.5751	-0.5256	-0.1623	0.9631	0.4678	2.0637	2.0554	2.3636	4.7107	0.6934	-5.5197	-3.7834	-1.3813	4.8813	-0.3797	1.9399	1.4666
-4.6337	-2.8341	-3.4477	-2.3168	-0.6164	-0.5421	-0.1486	1.0869	0.5668	2.2618	2.3636	2.6525	5.1042	0.7292	-6.0122	-4.1962	-1.4391	5.2115	-0.3109	2.0747	1.6812
-4.7988	-2.9139	-3.5606	-2.3884	-0.6549	-0.5998	-0.1541	1.2355	0.6659	2.4186	2.6415	2.9249	5.4481	0.7539	-6.4552	-4.6639	-1.4804	5.5059	-0.2807	2.16	1.8738
-4.9171	-3.0157	-3.6486	-2.4407	-0.7017	-0.6164	-0.1403	1.3565	0.787	2.5782	2.9772	3.1781	5.8086	0.787	-6.9092	-5.0849	-1.5464	5.8306	-0.1899	2.2508	2.1187
-5.1042	-3.1286	-3.7504	-2.5205	-0.7457	-0.7044	-0.1513	1.4666	0.8612	2.7461	3.2579	3.4257	6.1553	0.82	-7.3165	-5.5197	-1.5904	6.125	-0.1183	2.3526	2.3746
-5.2528	-3.2606	-3.91	-2.6168	-0.8337	-0.809	-0.2119	1.5464	0.919	2.8479	3.5468	3.6321	6.4497	0.8337	-7.6714	-5.9407	-1.6454	6.4497	-0.0633	2.3939	2.625
-5.4124	-3.401	-4.0668	-2.7241	-0.9025	-0.9273	-0.2586	1.6124	0.908	2.9469	3.8137	3.822	6.7084	0.864	-8.0181	-6.3149	-1.695	6.7221	-0.011	2.4654	2.8919
-5.5995	-3.5193	-4.2512	-2.8644	-1.0456	-1.0731	-0.3605	1.6482	0.875	2.98	4.0118	3.9623	6.967	0.875	-8.318	-6.6891	-1.7252	6.9808	0.0413	2.4544	3.1341
-5.7756	-3.7009	-4.4411	-3.0102	-1.1914	-1.241	-0.4733	1.6482	0.8227	2.9992	4.2127	4.0476	7.1073	0.8888	-8.5409	-7.0055	-1.7473	7.2202	0.0825	2.4874	3.3872
-5.9379	-3.8935	-4.6447	-3.1726	-1.3483	-1.4721	-0.6274	1.6097	0.7347	2.9965	4.3805	4.1191	7.2559	0.908	-8.761	-7.2697	-1.7803	7.4485	0.1018	2.4627	3.6431
-6.1525	-4.1081	-4.8565	-3.3542	-1.5354	-1.6757	-0.7567	1.5216	0.5833	2.9304	4.4741	4.0971	7.344	0.919	-8.9399	-7.5641	-1.7995	7.6687	0.1128	2.4104	3.8164
-6.3672	-4.3145	-5.0987	-3.5661	-1.7307	-1.9316	-0.9493	1.4473	0.4375	2.8286	4.5649	4.0778	7.355	0.9245	-9.0637	-7.7622	-1.8133	7.8475	0.0881	2.3554	4.0503
-6.6093	-4.5676	-5.3683	-3.7972	-1.9729	-2.1958	-1.1474	1.3015	0.2366	2.7048	4.5896	3.9843	7.344	0.9273	-9.149	-7.9576	-1.8326	8.0209	0.0798	2.2866	4.1934
-6.8514	-4.8153	-5.6463	-4.0146	-2.2288	-2.4874	-1.3868	1.0924	-0.0083	2.5039	4.5594	3.8164	7.2504	0.9273	-9.2288	-8.1337	-1.8215	8.175	0.033	2.1545	4.32
-7.0936	-5.0959	-5.9489	-4.309	-2.5039	-2.7681	-1.6207	0.8998	-0.2642	2.3058	4.5043	3.6321	7.1211	0.9383	-9.2343	-8.3015	-1.8243	8.241	-0.0468	2.0224	4.419
-7.3742	-5.3546	-6.2654	-4.5896	-2.7901	-3.0873	-1.9068	0.6769	-0.5751	2.0554	4.4025	3.401	6.9367	0.9218	-9.2316	-8.4281	-1.8105	8.307	-0.1238	1.8656	4.4631
-7.6439	-5.6215	-6.535	-4.8731	-3.057	-3.3652	-2.182	0.4485	-0.8612	1.8078	4.2567	3.1698	6.7249	0.9273	-9.1875	-8.5354	-1.7913	8.3401	-0.2201	1.7335	4.5264
-7.8888	-5.9021	-6.8542	-5.1262	-3.3267	-3.6514	-2.4544	0.1871	-1.1557	1.5299	4.1219	2.8809	6.458	0.8998	-9.0995	-8.6372	-1.7638	8.3456	-0.3192	1.5519	4.5374
-8.164	-6.1746	-7.1101	-5.4234	-3.6046	-3.9293	-2.7488	-0.0248	-1.4473	1.2079	3.943	2.5865	6.1938	0.8833	-8.9949	-8.6895	-1.7252	8.3538	-0.399	1.373	4.5566
-8.4171	-6.4222	-7.355	-5.6903	-3.8495	-4.1962	-3.0295	-0.2697	-1.7115	0.9355	3.7917	2.3003	5.8829	0.853	-8.8271	-8.7143	-1.6867	8.2988	-0.52	1.1749	4.5649
-8.6207	-6.6451	-7.5751	-5.9462	-4.0338	-4.4053	-3.2992	-0.4788	-1.9674	0.6246	3.6486	2.0362	5.5885	0.842	-8.673	-8.7418	-1.6399	8.2272	-0.6109	0.9988	4.5814
-8.8216	-6.8459	-7.7787	-6.1883	-4.2099	-4.5814	-3.544	-0.6604	-2.2013	0.3192	3.4973	1.7528	5.261	0.809	-8.5051	-8.7335	-1.5849	8.1199	-0.6989	0.8365	4.5979
-8.9977	-7.0275	-7.9301	-6.3919	-4.3695	-4.7217	-3.7862	-0.8007	-2.3719	0.0495	3.4175	1.5299	4.9776	0.7897	-8.3235	-8.7418	-1.5409	8.0704	-0.7347	0.6604	4.6529
-9.1545	-7.1816	-8.0484	-6.5955	-4.4631	-4.8263	-3.9898	-0.8778	-2.5122	-0.1871	3.3459	1.3263	4.6777	0.7677	-8.1392	-8.6868	-1.4859	7.9493	-0.7594	0.509	4.719
-9.2453	-7.2559	-8.1254	-6.7937	-4.5043	-4.8593	-4.1907	-0.9383	-2.603	-0.4292	3.3239	1.1281	4.3915	0.7182	-7.9218	-8.6482	-1.4171	7.7897	-0.7787	0.3577	4.8153
-9.2949	-7.3027	-8.1529	-6.9478	-4.5016	-4.8208	-4.309	-0.908	-2.6388	-0.6164	3.3432	0.9961	4.1439	0.7017	-7.7237	-8.5547	-1.3675	7.6549	-0.7347	0.2174	4.9584
-9.3361	-7.2889	-8.1364	-7.0468	-4.4383	-4.7492	-4.4411	-0.8833	-2.5837	-0.7512	3.4175	0.9328	3.921	0.6686	-7.4981	-8.4254	-1.3153	7.5338	-0.6521	0.0963	5.1317
-9.2976	-7.2284	-8.0319	-7.1073	-4.3007	-4.6034	-4.5043	-0.7347	-2.4902	-0.8667	3.544	0.9053	3.7284	0.6411	-7.2669	-8.2823	-1.252	7.388	-0.5558	0.0165	5.3051
-9.2453	-7.1404	-7.9053	-7.1486	-4.1274	-4.4108	-4.5649	-0.5751	-2.3691	-0.9768	3.6844	0.9108	3.5853	0.5943	-7.0523	-8.1309	-1.1694	7.2312	-0.4292	-0.0715	5.5279
-9.1408	-6.9753	-7.7375	-7.1569	-3.8852	-4.1769	-4.5731	-0.3247	-2.1517	-1.0181	3.8852	0.9713	3.4395	0.5531	-6.8267	-7.9493	-1.0869	7.0468	-0.2669	-0.1431	5.7866
-8.9729	-6.7772	-7.4733	-7.0963	-3.5908	-3.8467	-4.5346	-0.0633	-1.9041	-1.0016	4.1521	1.0896	3.3679	0.5283	-6.5763	-7.732	-1.0373	6.9147	-0.0688	-0.1678	6.048
-8.7528	-6.5295	-7.2036	-7.0248	-3.2496	-3.4973	-4.4658	0.2779	-1.6014	-0.9906	4.4383	1.252	3.2992	0.4898	-6.3534	-7.5338	-0.9493	6.7221	0.1678	-0.2119	6.3479
-8.5162	-6.2406	-6.8927	-6.9092	-2.8672	-3.1175	-4.3558	0.6053	-1.2382	-0.8805	4.7878	1.4528	3.2799	0.443	-6.136	-7.3247	-0.8695	6.5708	0.4072	-0.2201	6.6643
-8.2795	-5.9434	-6.5488	-6.7717	-2.4462	-2.6553	-4.2264	1.0291	-0.8392	-0.8172	5.1537	1.7197	3.3102	0.4127	-5.9627	-7.1073	-0.7897	6.436	0.6879	-0.1981	6.9863
-7.9246	-5.5224	-6.1195	-6.5405	-1.9591	-2.1572	-4.0173	1.4638	-0.3715	-0.6246	5.5389	2.0114	3.3487	0.3715	-5.7673	-6.8487	-0.7154	6.2764	0.9713	-0.1623	7.2862
-7.5834	-5.129	-5.6738	-6.3176	-1.4336	-1.6207	-3.7779	1.9289	0.1266	-0.4458	5.9489	2.3746	3.4312	0.3467	-5.5885	-6.6258	-0.6439	6.092	1.3043	-0.0936	7.6164
-7.2202	-4.6887	-5.2225	-6.0315	-0.8833	-1.0621	-3.5193	2.4379	0.6301	-0.2366	6.3864	2.7433	3.5358	0.3027	-5.4289	-6.3947	-0.5751	5.9572	1.6124	-0.0358	7.9356
-6.7717	-4.1852	-4.7025	-5.7068	-0.3137	-0.4705	-3.1726	2.9662	1.2052	0.0303	6.8514	3.1808	3.6871	0.2752	-5.2638	-6.1113	-0.52	5.8113	1.9481	0.0853	8.2465
-6.3286	-3.7146	-4.2017	-5.3738	0.2944	0.1376	-2.8534	3.5055	1.7803	0.2999	7.2945	3.6128	3.8164	0.2366	-5.1097	-5.8389	-0.4513	5.6407	2.2673	0.1899	8.5354
-5.8416	-3.1836	-3.6431	-4.9776	0.8943	0.7622	-2.4957	4.0503	2.3966	0.6081	7.7705	4.0668	4.0118	0.2119	-4.9721	-5.5802	-0.41	5.5087	2.647	0.2917	8.8436
-5.3408	-2.6443	-3.057	-4.5814	1.5161	1.4253	-2.0747	4.5896	3.0047	0.9465	8.2493	4.5456	4.2072	0.1899	-4.7905	-5.283	-0.3577	5.3546	2.9635	0.4182	9.1022
-4.8263	-2.0637	-2.4737	-4.1219	2.1627	2.0692	-1.695	5.1565	3.6431	1.2712	8.6923	5.0189	4.3915	0.1706	-4.6419	-5.0051	-0.3164	5.1812	3.3019	0.5448	9.3554
-4.3227	-1.5326	-1.9234	-3.7064	2.7846	2.6883	-1.2767	5.704	4.2567	1.6042	9.1188	5.4977	4.6006	0.1486	-4.4906	-4.7327	-0.2752	5.0409	3.6376	0.6246	9.6113
-3.8109	-0.9796	-1.3483	-3.2551	3.3762	3.3212	-0.8227	6.2076	4.8428	1.9454	9.515	5.9462	4.796	0.1156	-4.3915	-4.4796	-0.2146	4.8758	3.9458	0.7099	9.8122
-3.2936	-0.4458	-0.7842	-2.8066	3.9788	3.932	-0.3825	6.7056	5.4261	2.2701	9.8892	6.4057	5.0299	0.0853	-4.2815	-4.2374	-0.1486	4.7162	4.2622	0.8007	9.9855
-2.7763	0.1046	-0.2366	-2.3471	4.5484	4.5126	0.0578	7.1706	5.9874	2.625	10.2276	6.8404	5.206	0.0688	-4.1356	-4.0173	-0.1101	4.5511	4.5456	0.9108	10.1121
-2.2838	0.6053	0.2862	-1.8711	5.0739	5.0657	0.4815	7.6081	6.524	2.9827	10.5523	7.2587	5.4289	0.0303	-4.0311	-3.8495	-0.0495	4.408	4.7988	0.9741	10.2331
-1.8326	1.1199	0.8145	-1.4363	5.605	5.6105	0.9108	8.0044	7.0358	3.3267	10.833	7.6632	5.6132	0.011	-3.9073	-3.7201	0.0028	4.2347	5.0189	1.0401	10.3239
-1.3978	1.5326	1.2547	-1.0153	6.0315	6.092	1.2987	8.3648	7.4623	3.6266	11.0311	7.9906	5.7811	-0.0275	-3.7752	-3.6128	0.0743	4.0641	5.1785	1.0841	10.3047
-0.9933	1.9646	1.673	-0.6109	6.4882	6.5323	1.7087	8.6647	7.9163	3.9293	11.2347	8.3566	5.9599	-0.0523	-3.6954	-3.5248	0.1183	3.9128	5.3711	1.1337	10.3047
-0.6164	2.3801	2.0857	-0.2229	6.8707	6.9615	2.094	8.9592	8.3098	4.2292	11.3861	8.6813	6.1113	-0.0715	-3.5413	-3.4532	0.1596	3.7697	5.5032	1.1804	10.2607
-0.2917	2.7323	2.4214	0.1183	7.1954	7.3275	2.4324	9.193	8.6813	4.4988	11.4576	8.9316	6.2764	-0.0908	-3.4395	-3.4312	0.2064	3.6376	5.5995	1.2355	10.1341
-0.0055	3.0405	2.7543	0.4375	7.5036	7.6494	2.7433	9.3664	9.0169	4.7575	11.5209	9.1958	6.4222	-0.1128	-3.3074	-3.423	0.2366	3.5138	5.6407	1.274	9.9772
0.2091	3.3102	2.9717	0.6989	7.7265	7.9301	3.0322	9.482	9.2728	4.9996	11.5071	9.4214	6.568	-0.1321	-3.1698	-3.3982	0.2697	3.39	5.6435	1.3208	9.7489
0.4017	3.533	3.2111	0.908	7.9136	8.1777	3.2689	9.5755	9.5012	5.1867	11.4714	9.5783	6.6671	-0.1431	-3.0515	-3.4285	0.2944	3.2661	5.6105	1.3565	9.4902
0.4898	3.6789	3.3432	1.0704	8.0401	8.318	3.4477	9.5865	9.6746	5.3518	11.3475	9.7186	6.7469	-0.1403	-2.9167	-3.478	0.3137	3.1561	5.4922	1.373	9.1848
0.5751	3.8082	3.434	1.1612	8.0952	8.4391	3.6046	9.5425	9.8094	5.4646	11.199	9.7874	6.8102	-0.1651	-2.8561	-3.5303	0.3357	3.046	5.3931	1.373	8.8161
0.5833	3.8577	3.478	1.23	8.1172	8.4996	3.7201	9.4517	9.8617	5.5692	11.0118	9.8287	6.8349	-0.1678	-2.7681	-3.5716	0.3274	2.9359	5.2143	1.3951	8.4474
0.5751	3.8797	3.456	1.2217	8.1007	8.5327	3.7752	9.3004	9.914	5.6297	10.7532	9.8204	6.8432	-0.1541	-2.7296	-3.6651	0.3412	2.8506	5.0134	1.3758	7.9823
0.4265	3.8302	3.3734	1.1612	7.9851	8.4914	3.7779	9.1132	9.8699	5.638	10.4615	9.7434	6.8184	-0.1568	-2.7076	-3.7036	0.3329	2.7626	4.774	1.3483	7.5256
0.3302	3.7724	3.2992	1.0869	7.886	8.4391	3.7834	8.9151	9.8122	5.6903	10.1423	9.6938	6.8404	-0.1403	-2.7158	-3.7669	0.2972	2.6966	4.5401	1.3455	7.0661
0.1706	3.6569	3.1313	0.9465	7.732	8.3263	3.7394	8.6455	9.7351	5.6545	9.7901	9.5535	6.8019	-0.1183	-2.7158	-3.7944	0.2697	2.6415	4.2732	1.3153	6.5543
-0.055	3.5055	2.9469	0.7925	7.5393	8.1695	3.6293	8.3593	9.5728	5.594	9.4104	9.3774	6.7414	-0.1046	-2.7213	-3.8082	0.2366	2.5865	3.9678	1.2712	6.0452
-0.2807	3.3432	2.7158	0.5613	7.322	7.9906	3.5028	8.0291	9.3967	5.5279	9.039	9.1958	6.6808	-0.077	-2.7763	-3.855	0.1844	2.5535	3.6541	1.2355	5.5224
-0.5366	3.1423	2.4654	0.3302	7.0523	7.8007	3.3872	7.7099	9.1958	5.4426	8.6262	8.9894	6.6176	-0.0523	-2.8039	-3.888	0.1321	2.5507	3.3349	1.1832	5.0629
-0.831	2.9112	2.2095	0.1018	6.8129	7.5724	3.2001	7.388	8.9812	5.3601	8.2327	8.7996	6.579	-0.0138	-2.8286	-3.8935	0.0413	2.5865	3.0488	1.1639	4.5869
-1.0979	2.6635	1.9124	-0.1651	6.5405	7.3412	3.024	7.0413	8.7555	5.2748	7.8393	8.5822	6.5158	0.0165	-2.8809	-3.9045	-0.0248	2.6278	2.7103	1.1171	4.0971
-1.362	2.4076	1.6262	-0.4458	6.2488	7.0963	2.8561	6.7029	8.5051	5.1647	7.4595	8.3511	6.4855	0.066	-2.9222	-3.899	-0.1101	2.68	2.3801	1.0594	3.6403
-1.651	2.1682	1.3345	-0.6769	5.9792	6.8735	2.6993	6.4057	8.3043	5.1235	7.0936	8.1502	6.4662	0.1128	-2.958	-3.899	-0.2064	2.8121	2.0857	1.0676	3.2441
-1.9151	1.8958	1.0621	-0.9576	5.6985	6.6148	2.5672	6.0865	8.0539	5.0492	6.7469	7.9191	6.48	0.1651	-2.98	-3.8522	-0.2972	2.9084	1.7913	0.9988	2.8094
-2.1572	1.684	0.7952	-1.1887	5.4564	6.3919	2.4159	5.8306	7.842	5.0134	6.4497	7.7485	6.5103	0.2036	-3.002	-3.7614	-0.4045	3.0653	1.5326	0.9713	2.4764
-2.3939	1.4501	0.5421	-1.4088	5.2308	6.1773	2.2948	5.5802	7.6356	4.9886	6.2186	7.5999	6.579	0.2889	-3.013	-3.6514	-0.5311	3.2386	1.2685	0.9851	2.1352
-2.5645	1.2217	0.2999	-1.6289	5.0024	5.9407	2.1793	5.3573	7.4348	5.0134	5.9819	7.4568	6.6753	0.3357	-3.024	-3.5165	-0.6576	3.4395	1.0511	0.9796	1.8546
-2.7901	0.9823	0.0715	-1.8133	4.7905	5.7426	2.0829	5.1675	7.2587	5.0161	5.7508	7.3082	6.7744	0.41	-3.0405	-3.3927	-0.7677	3.6651	0.8035	1.0126	1.6124
-2.9607	0.7732	-0.1596	-2.0004	4.5951	5.5334	1.9977	4.9969	7.0798	5.0382	5.6297	7.2422	6.9065	0.4568	-3.068	-3.2799	-0.897	3.91	0.6494	1.0291	1.4033
-3.1258	0.5723	-0.388	-2.1765	4.4135	5.294	1.9151	4.8318	6.89	5.0602	5.4564	7.1018	6.978	0.5035	-3.0955	-3.1478	-0.9933	4.1246	0.4513	1.0704	1.1942
-3.3047	0.3467	-0.5778	-2.3388	4.2182	5.0767	1.816	4.6749	6.7221	5.0767	5.3436	7	7.1239	0.5668	-3.1533	-3.0763	-1.1144	4.3613	0.3247	1.1116	1.0594
-3.445	0.1568	-0.7815	-2.4902	4.0476	4.8621	1.739	4.5621	6.5295	5.0849	5.2363	6.8927	7.2422	0.6411	-3.2304	-3.0405	-1.2437	4.6199	0.1981	1.1749	0.9631
-3.6046	-0.0468	-1.0071	-2.6608	3.8742	4.6337	1.651	4.4383	6.3452	5.129	5.1372	6.8047	7.3302	0.6824	-3.2936	-3.035	-1.3373	4.8263	0.077	1.2107	0.8695
-3.7367	-0.2697	-1.2355	-2.8121	3.6954	4.3915	1.5629	4.3337	6.147	5.1124	5.0519	6.7001	7.432	0.7319	-3.423	-3.0818	-1.4391	5.0271	-0.0358	1.2437	0.8172
-3.9045	-0.465	-1.4638	-2.969	3.5303	4.1274	1.4748	4.2264	5.9489	5.1179	4.9831	6.59	7.5201	0.787	-3.5523	-3.1396	-1.5354	5.228	-0.1101	1.2905	0.7677
-4.0641	-0.6741	-1.7087	-3.1561	3.3652	3.866	1.3868	4.1466	5.7426	5.1179	4.9584	6.5047	7.6191	0.82	-3.7339	-3.2606	-1.6207	5.4179	-0.1844	1.3153	0.7539
-4.2457	-0.8943	-1.9564	-3.3212	3.2111	3.6018	1.2822	4.0806	5.5444	5.1152	4.9308	6.4029	7.6879	0.8723	-3.9348	-3.4175	-1.6922	5.5857	-0.2476	1.3345	0.7815
-4.386	-1.1116	-2.2178	-3.4753	3.0405	3.3047	1.1942	4.0118	5.3546	5.0794	4.8923	6.3259	7.7622	0.8915	-4.1439	-3.5798	-1.7528	5.7563	-0.2724	1.3483	0.798
-4.5649	-1.329	-2.4654	-3.6321	2.8727	3.0377	1.1116	3.9485	5.151	5.0904	4.9171	6.2544	7.8255	0.9328	-4.353	-3.8027	-1.8133	5.9214	-0.3274	1.3483	0.8255
-4.7327	-1.5299	-2.7268	-3.7834	2.7158	2.7378	1.0236	3.8825	4.9831	5.0409	4.9418	6.1966	7.9163	0.9576	-4.6006	-4.0118	-1.8628	6.0865	-0.3467	1.3648	0.8915
-4.9171	-1.7115	-2.9827	-3.9073	2.5837	2.4682	0.9548	3.8605	4.8098	5.0657	4.9666	6.1636	8.0071	0.9686	-4.7712	-4.2402	-1.9013	6.2461	-0.355	1.384	0.9631
-5.1014	-1.9261	-3.2441	-4.0531	2.4599	2.1848	0.8998	3.844	4.6667	5.0712	5.0437	6.125	8.0594	0.9796	-5.0189	-4.5264	-1.9096	6.3452	-0.3605	1.3951	1.0484
-5.272	-2.1022	-3.4945	-4.1769	2.3141	1.9206	0.8282	3.8412	4.5209	5.0739	5.1014	6.1168	8.164	0.9851	-5.1812	-4.8153	-1.9289	6.4772	-0.3384	1.3951	1.1639
-5.4344	-2.2618	-3.7394	-4.2842	2.182	1.6482	0.7759	3.8247	4.3833	5.0794	5.1702	6.1058	8.2245	0.9906	-5.3738	-5.0877	-1.9509	6.6231	-0.355	1.4391	1.2602
-5.6105	-2.4352	-3.9953	-4.4245	2.0802	1.4143	0.7099	3.866	4.2622	5.0959	5.2748	6.1003	8.3456	1.0016	-5.5169	-5.3408	-1.9674	6.7634	-0.3082	1.4804	1.4006
-5.7508	-2.5892	-4.2154	-4.4988	1.9977	1.1914	0.6989	3.8935	4.1604	5.1152	5.3986	6.1333	8.4198	1.0126	-5.627	-5.6105	-1.9784	6.8845	-0.2614	1.5271	1.5216
-5.9269	-2.7296	-4.4493	-4.5731	1.8766	0.9686	0.6494	3.9183	4.0558	5.129	5.4949	6.1003	8.4859	1.0016	-5.7343	-5.8691	-1.9756	6.989	-0.2064	1.5684	1.6785
-6.0948	-2.8616	-4.6722	-4.6997	1.7995	0.7484	0.5888	3.965	3.9733	5.1372	5.6022	6.1113	8.5767	0.9961	-5.8334	-6.114	-1.9646	7.0908	-0.1376	1.6317	1.7885
-6.2351	-2.9855	-4.8813	-4.752	1.6895	0.5283	0.5421	3.9678	3.855	5.1427	5.704	6.1223	8.6317	1.0016	-5.8691	-6.3039	-1.9619	7.2147	-0.0936	1.6867	1.9344
-6.3809	-3.0955	-5.0739	-4.8235	1.6124	0.3412	0.4843	4.0118	3.7807	5.1207	5.8003	6.0948	8.6813	0.9823	-5.8994	-6.458	-1.9371	7.3027	-0.033	1.7418	2.0802
-6.5433	-3.2083	-5.2803	-4.9006	1.5381	0.1513	0.4458	4.0311	3.6816	5.162	5.8856	6.07	8.7665	0.9851	-5.9434	-6.579	-1.9151	7.4238	0.022	1.8188	2.2178
-6.6698	-3.3129	-5.4399	-4.9391	1.4611	-0.011	0.4155	4.0338	3.5853	5.1427	5.9654	6.0232	8.7886	0.9631	-5.9544	-6.6698	-1.8876	7.5118	0.0991	1.8903	2.3636
-6.7964	-3.3817	-5.6325	-4.9776	1.3951	-0.1789	0.3577	4.0889	3.5248	5.151	6.0727	6.0205	8.8766	0.9658	-5.9407	-6.7001	-1.8711	7.6329	0.1733	1.9701	2.537
-6.868	-3.4587	-5.7866	-4.9996	1.3483	-0.3384	0.3164	4.1219	3.4697	5.1455	6.1525	6.0177	8.9179	0.9465	-5.8884	-6.7359	-1.8436	7.7457	0.2339	2.0389	2.6966
-6.989	-3.544	-5.9462	-5.0382	1.2767	-0.476	0.2669	4.1411	3.4065	5.1317	6.2323	5.9874	8.9784	0.9245	-5.8884	-6.7276	-1.805	7.8613	0.2972	2.0582	2.8561
-7.0908	-3.6348	-6.1085	-5.0877	1.2107	-0.6191	0.2339	4.1852	3.3349	5.1317	6.3424	5.9985	9.0335	0.897	-5.8691	-6.7056	-1.7638	7.9548	0.3715	2.105	2.991
-7.1679	-3.6458	-6.2268	-5.0767	1.1722	-0.7347	0.1871	4.2237	3.2854	5.1317	6.4387	5.993	9.0912	0.8915	-5.8334	-6.6176	-1.7418	8.0731	0.4568	2.1435	3.1588
-7.2257	-3.7064	-6.3176	-5.0904	1.1171	-0.8282	0.1596	4.2705	3.2496	5.1455	6.557	6.0122	9.1793	0.875	-5.8086	-6.4937	-1.7115	8.186	0.5366	2.171	3.3267
-7.2532	-3.7009	-6.4029	-5.0739	1.0979	-0.9163	0.1238	4.3282	3.2331	5.1592	6.6533	6.0425	9.2206	0.8612	-5.7508	-6.3011	-1.673	8.3043	0.5943	2.1903	3.478
-7.2559	-3.7174	-6.436	-5.0354	1.0924	-0.9658	0.1156	4.375	3.2304	5.173	6.7772	6.0975	9.3196	0.8447	-5.682	-6.0755	-1.6482	8.4088	0.6549	2.2343	3.6211
-7.2642	-3.6926	-6.4992	-5.0216	1.1006	-1.0181	0.1183	4.4741	3.2469	5.2225	6.9037	6.1415	9.3967	0.82	-5.6352	-5.8389	-1.6124	8.5134	0.7512	2.248	3.7972
-7.2119	-3.6899	-6.524	-4.9859	1.0951	-1.0511	0.1183	4.5374	3.2716	5.228	7.0496	6.2186	9.482	0.8145	-5.5637	-5.583	-1.5932	8.64	0.82	2.2701	3.9348
-7.1844	-3.6624	-6.5268	-4.9446	1.0814	-1.1089	0.0991	4.6062	3.2634	5.2638	7.1596	6.2709	9.5508	0.8007	-5.5307	-5.3546	-1.5657	8.7776	0.8915	2.2976	4.1054
-7.1569	-3.6679	-6.546	-4.9198	1.0814	-1.1612	0.0578	4.6859	3.2909	5.2858	7.2834	6.3369	9.6526	0.8007	-5.4977	-5.1345	-1.5574	8.8794	0.9713	2.3333	4.2595
-7.0853	-3.6183	-6.5323	-4.8758	1.1006	-1.1584	0.0688	4.73	3.3184	5.3023	7.3825	6.4084	9.7021	0.7952	-5.4289	-4.8978	-1.5546	9.0169	1.0566	2.3719	4.408
-7.0551	-3.6046	-6.5295	-4.8703	1.1171	-1.1859	0.0385	4.8043	3.3157	5.3051	7.4953	6.4635	9.7516	0.7842	-5.4206	-4.7492	-1.5189	9.138	1.1199	2.3966	4.5374
-7.0028	-3.5936	-6.5158	-4.8538	1.1281	-1.2052	-0.0055	4.8428	3.3569	5.283	7.5944	6.502	9.7956	0.7759	-5.3959	-4.5869	-1.5079	9.2536	1.1914	2.4407	4.6832
-6.9147	-3.5798	-6.4882	-4.8483	1.1226	-1.2327	-0.0468	4.8841	3.3569	5.2665	7.6852	6.546	9.8369	0.7512	-5.3931	-4.4383	-1.4831	9.3279	1.2547	2.4682	4.7988
-6.8597	-3.5578	-6.48	-4.8455	1.1281	-1.2822	-0.1073	4.9198	3.3624	5.2583	7.754	6.5763	9.8342	0.7512	-5.3628	-4.3448	-1.4638	9.4352	1.318	2.5287	4.9611
-6.8404	-3.544	-6.491	-4.8621	1.0979	-1.3263	-0.1678	4.9501	3.3542	5.2253	7.831	6.6313	9.8562	0.7347	-5.4124	-4.298	-1.4336	9.537	1.3813	2.5672	5.0877
-6.7661	-3.5385	-6.458	-4.8758	1.1006	-1.3565	-0.2256	5.0051	3.3817	5.1675	7.9273	6.6781	9.9002	0.7374	-5.3986	-4.2292	-1.4226	9.6443	1.4748	2.6113	5.2803
-6.7524	-3.5578	-6.4855	-4.9143	1.1061	-1.4033	-0.3109	5.0657	3.3762	5.162	8.0484	6.7606	9.9277	0.7209	-5.4151	-4.2402	-1.3868	9.7131	1.5491	2.6278	5.4426
-6.6891	-3.5495	-6.447	-4.9116	1.1034	-1.4033	-0.3412	5.1014	3.4037	5.14	8.1557	6.8569	9.9772	0.7017	-5.4316	-4.2402	-1.3703	9.8066	1.6399	2.6855	5.5857
-6.6396	-3.544	-6.4194	-4.9226	1.1144	-1.4226	-0.3852	5.1702	3.4477	5.1124	8.2823	6.9753	10.0323	0.7044	-5.4399	-4.2732	-1.3565	9.8947	1.7115	2.7076	5.7756
-6.59	-3.5358	-6.3864	-4.9418	1.1226	-1.4391	-0.4458	5.1867	3.4863	5.0987	8.3951	7.0908	10.0653	0.6824	-5.4041	-4.276	-1.34	9.9745	1.8133	2.7296	5.9269
-6.513	-3.5523	-6.3672	-4.9418	1.1226	-1.4748	-0.487	5.272	3.5413	5.0794	8.5162	7.2009	10.1038	0.6796	-5.3683	-4.3255	-1.3318	10.035	1.8958	2.7626	6.0838
-6.4772	-3.5688	-6.3452	-4.9611	1.0896	-1.4831	-0.5283	5.3161	3.5743	5.0657	8.64	7.3082	10.1286	0.6686	-5.3298	-4.353	-1.3235	10.1066	1.9454	2.7681	6.2268
-6.4194	-3.5743	-6.3231	-4.9694	1.0786	-1.5024	-0.5833	5.3628	3.6238	5.0684	8.7418	7.4348	10.1754	0.6824	-5.272	-4.3778	-1.3345	10.1781	2.0224	2.7901	6.3672
-6.3864	-3.6128	-6.3534	-5.0382	1.0291	-1.5546	-0.6411	5.3656	3.5908	5.0189	8.8298	7.5228	10.1754	0.6906	-5.2225	-4.4245	-1.3318	10.2304	2.0802	2.7901	6.4827
-6.3837	-3.6844	-6.3754	-5.0959	0.9741	-1.6124	-0.7539	5.3738	3.5936	4.9556	8.9096	7.5806	10.1533	0.6824	-5.1592	-4.4658	-1.3263	10.2634	2.127	2.7929	6.5955
-6.3534	-3.7284	-6.3974	-5.1179	0.908	-1.6565	-0.8035	5.3876	3.6101	4.9088	8.9894	7.6522	10.1341	0.6906	-5.1124	-4.5401	-1.351	10.2717	2.1765	2.8259	6.6616
-6.3644	-3.7779	-6.4717	-5.2032	0.8365	-1.761	-0.9053	5.3601	3.555	4.8125	9.0059	7.6742	10.068	0.6851	-5.0547	-4.5869	-1.3538	10.3267	2.2068	2.8286	6.7551
-6.4029	-3.8495	-6.5268	-5.3078	0.7319	-1.8408	-1.0126	5.3161	3.5138	4.7355	9.028	7.6989	10.013	0.6962	-5.0354	-4.6502	-1.3593	10.3707	2.2563	2.8204	6.8239
-6.436	-3.9238	-6.6121	-5.4454	0.6219	-1.9674	-1.1639	5.2583	3.4532	4.6309	9.0362	7.6962	9.925	0.6879	-4.9941	-4.7437	-1.3565	10.357	2.2811	2.8837	6.868
-6.4827	-4.0338	-6.6891	-5.583	0.4815	-2.0829	-1.3043	5.2143	3.3762	4.5181	9.039	7.6824	9.8204	0.6879	-4.9749	-4.84	-1.3483	10.368	2.2893	2.9084	6.9092
-6.546	-4.1301	-6.8019	-5.66	0.3715	-2.2013	-1.4308	5.1537	3.3184	4.3888	9.028	7.6852	9.7489	0.6989	-4.9391	-4.9116	-1.3538	10.3707	2.3086	2.9745	6.967
-6.5845	-4.2154	-6.9202	-5.7976	0.2394	-2.3141	-1.5629	5.1152	3.2579	4.2897	9.0362	7.6769	9.6498	0.6879	-4.9033	-4.9804	-1.3538	10.3845	2.3609	2.9827	7.0248
-6.6286	-4.2897	-7.0413	-5.9269	0.1156	-2.4434	-1.717	5.0437	3.1836	4.1576	9.0142	7.6494	9.537	0.6824	-4.8813	-5.0134	-1.3373	10.3625	2.3856	3.0322	7.0551
-6.7276	-4.3723	-7.1624	-6.0397	-0.011	-2.5892	-1.8601	5.0024	3.1175	4.0256	9.0224	7.6384	9.4407	0.6769	-4.8868	-5.0602	-1.3125	10.357	2.4104	3.0845	7.1294
-6.7854	-4.4631	-7.2587	-6.1278	-0.1266	-2.6663	-1.9921	4.9336	3.0543	3.899	9.0224	7.6219	9.3471	0.6769	-4.8373	-5.0904	-1.2987	10.3184	2.4462	3.1341	7.1844
-6.8349	-4.5264	-7.3632	-6.2076	-0.2229	-2.7708	-2.1132	4.9088	3.002	3.7944	9.0224	7.6467	9.2316	0.6686	-4.8015	-5.1152	-1.296	10.2854	2.4902	3.1753	7.2339
-6.879	-4.6006	-7.4375	-6.2984	-0.3274	-2.8616	-2.2288	4.8455	2.9635	3.6651	9.0252	7.6191	9.1215	0.6576	-4.8043	-5.1235	-1.2877	10.2386	2.5205	3.2139	7.2642
-6.9395	-4.6639	-7.5393	-6.3947	-0.4237	-2.9552	-2.3333	4.8235	2.9084	3.5716	9.05	7.6384	9.0665	0.6714	-4.8373	-5.1345	-1.2822	10.2056	2.5535	3.2579	7.3082
-6.9808	-4.7135	-7.6494	-6.436	-0.5338	-3.0405	-2.4544	4.7685	2.8699	3.478	8.9949	7.6109	8.9179	0.6576	-4.8786	-5.1345	-1.263	10.1203	2.5672	3.2881	7.333
-7.0055	-4.752	-7.6659	-6.4992	-0.5943	-3.0818	-2.526	4.741	2.8286	3.3624	8.9894	7.5724	8.8298	0.6521	-4.9198	-5.0959	-1.2602	10.0295	2.6058	3.3184	7.333
-7.0386	-4.8153	-7.7512	-6.5515	-0.6851	-3.1506	-2.6223	4.697	2.7763	3.2414	8.9647	7.5393	8.6895	0.6439	-4.9831	-5.0739	-1.2382	9.9525	2.625	3.3267	7.322
-7.0468	-4.84	-7.7815	-6.5598	-0.7622	-3.1836	-2.7186	4.6282	2.7516	3.1671	8.9041	7.4898	8.5877	0.6246	-5.0822	-5.0409	-1.23	9.8699	2.6443	3.3377	7.2889
-7.0578	-4.8813	-7.8117	-6.5818	-0.831	-3.2139	-2.7708	4.5704	2.6938	3.0735	8.8656	7.4375	8.4694	0.6384	-5.1895	-5.0024	-1.2465	9.7819	2.6745	3.3679	7.2779
-7.0743	-4.8923	-7.8365	-6.6066	-0.8778	-3.2606	-2.8506	4.5346	2.6608	2.9717	8.7941	7.366	8.3483	0.6384	-5.294	-4.9831	-1.2382	9.6911	2.6938	3.3844	7.2669
-7.0496	-4.9143	-7.8393	-6.6038	-0.9383	-3.2799	-2.9057	4.4768	2.6333	2.8947	8.7638	7.2862	8.23	0.6549	-5.4069	-4.9418	-1.2575	9.6168	2.6911	3.401	7.2669
-7.0193	-4.8978	-7.8365	-6.5763	-0.9493	-3.2771	-2.9304	4.4466	2.6058	2.8259	8.695	7.2147	8.1309	0.6494	-5.4812	-4.8923	-1.2712	9.559	2.7131	3.4147	7.2229
-7.0028	-4.9061	-7.842	-6.5405	-1.0016	-3.2826	-2.958	4.4053	2.5837	2.7736	8.6482	7.1596	8.0511	0.6494	-5.5692	-4.8263	-1.2712	9.4875	2.7433	3.4202	7.2284
-6.956	-4.9143	-7.82	-6.4992	-1.0043	-3.2414	-2.958	4.375	2.5975	2.7213	8.6015	7.1211	7.9713	0.6631	-5.6463	-4.7768	-1.3015	9.4297	2.7598	3.4257	7.2367
-6.9092	-4.8483	-7.754	-6.4827	-1.0016	-3.2304	-2.9855	4.3723	2.6085	2.7323	8.5849	7.0963	7.9246	0.6686	-5.7123	-4.6832	-1.307	9.3664	2.7874	3.412	7.2284
-6.8569	-4.8318	-7.7292	-6.436	-1.0071	-3.1616	-2.958	4.364	2.6278	2.7103	8.5574	7.0771	7.8833	0.6686	-5.7646	-4.6282	-1.307	9.3196	2.8286	3.412	7.2614
-6.7606	-4.7465	-7.6494	-6.3369	-0.9548	-3.0845	-2.9112	4.4108	2.7186	2.7378	8.5794	7.0908	7.8805	0.6714	-5.7398	-4.5401	-1.3235	9.2949	2.9084	3.3927	7.3192
-6.6753	-4.6639	-7.5614	-6.2544	-0.886	-3.0185	-2.8672	4.4466	2.7516	2.7736	8.6152	7.1156	7.8558	0.6659	-5.704	-4.4576	-1.296	9.2398	2.9304	3.3514	7.3687
-6.5378	-4.5484	-7.4375	-6.147	-0.798	-2.8699	-2.7763	4.5181	2.8892	2.8561	8.6923	7.1679	7.9053	0.6631	-5.6187	-4.353	-1.2932	9.2316	3.0157	3.3239	7.4485
-6.4167	-4.4493	-7.3192	-6.015	-0.7044	-2.7461	-2.6718	4.6089	3.0047	2.9607	8.75	7.2229	7.9383	0.6439	-5.5472	-4.254	-1.263	9.2068	3.101	3.2936	7.5614
-6.2681	-4.32	-7.1679	-5.9021	-0.5916	-2.5947	-2.5562	4.7217	3.1286	3.046	8.8656	7.3247	8.0016	0.6466	-5.4591	-4.1301	-1.2492	9.2398	3.1753	3.3019	7.6852
-6.1388	-4.1797	-7.0413	-5.7536	-0.4513	-2.4627	-2.4599	4.8538	3.2606	3.1533	8.9647	7.4183	8.0759	0.6246	-5.3271	-4.0201	-1.2079	9.2398	3.2716	3.2936	7.82
-6.004	-4.0723	-6.8927	-5.6242	-0.3467	-2.3196	-2.3416	4.9694	3.4092	3.2606	9.0692	7.5063	8.1364	0.5723	-5.2088	-3.8935	-1.1392	9.2233	3.3734	3.2689	7.9356
-5.8581	-3.954	-6.7744	-5.4894	-0.2091	-2.1738	-2.2315	5.1069	3.5716	3.4175	9.2068	7.6356	8.2245	0.5558	-5.0987	-3.7944	-1.0814	9.2178	3.4835	3.2716	8.0869
-5.7288	-3.8054	-6.6478	-5.3656	-0.0715	-2.0004	-2.0967	5.2528	3.7449	3.5165	9.3389	7.7347	8.307	0.5228	-4.9529	-3.6816	-1.0153	9.2041	3.5826	3.2992	8.241
-5.6435	-3.6651	-6.524	-5.2335	0.0743	-1.8766	-2.0032	5.4096	3.8715	3.6073	9.4737	7.8365	8.3868	0.4815	-4.8428	-3.5936	-0.9465	9.2151	3.6761	3.2936	8.3923
-5.5389	-3.5495	-6.4029	-5.1042	0.1899	-1.7307	-1.8793	5.5279	4.0173	3.7174	9.6003	7.9466	8.4446	0.4595	-4.7217	-3.5083	-0.875	9.2288	3.7862	3.3074	8.5382
-5.4509	-3.4615	-6.3149	-4.9831	0.3164	-1.6207	-1.7968	5.671	4.1576	3.833	9.7406	8.0209	8.5217	0.4045	-4.5869	-3.4642	-0.7925	9.2013	3.8495	3.3184	8.7005
-5.3628	-3.3459	-6.2241	-4.8318	0.4403	-1.4941	-1.6812	5.8058	4.3007	3.943	9.8452	8.1062	8.5712	0.3715	-4.4988	-3.3927	-0.7182	9.1903	3.91	3.3432	8.8133
-5.3271	-3.2524	-6.136	-4.7272	0.5476	-1.384	-1.5932	5.9324	4.4025	4.0256	9.9855	8.1997	8.6537	0.3302	-4.3778	-3.3294	-0.6494	9.1683	4.0036	3.3322	8.9867
-5.294	-3.1891	-6.1168	-4.6447	0.6164	-1.2932	-1.5161	6.0727	4.5264	4.1246	10.1258	8.3125	8.7445	0.2917	-4.309	-3.3514	-0.5613	9.16	4.0861	3.3652	9.1105
-5.2225	-3.0818	-6.015	-4.4988	0.7594	-1.1749	-1.3813	6.2213	4.6447	4.2374	10.2909	8.4309	8.8078	0.2586	-4.2099	-3.2964	-0.5008	9.1408	4.1246	3.3707	9.2508
-5.1812	-3.002	-5.9517	-4.3998	0.8695	-1.0869	-1.296	6.3562	4.7795	4.342	10.4368	8.5547	8.8876	0.2201	-4.1466	-3.3129	-0.4265	9.1188	4.1907	3.3679	9.3857
-5.1372	-2.9249	-5.9159	-4.2512	0.9768	-0.9741	-1.1804	6.5158	4.9253	4.4603	10.6019	8.7115	8.9812	0.1926	-4.0889	-3.3239	-0.3687	9.0885	4.2705	3.3982	9.5618
-5.1152	-2.8754	-5.8416	-4.1384	1.0979	-0.8585	-1.0786	6.6506	5.0574	4.5594	10.7725	8.8766	9.0747	0.1623	-4.0421	-3.3817	-0.3027	9.0555	4.3448	3.39	9.7296
-5.0684	-2.7819	-5.7673	-4.0201	1.2134	-0.7512	-0.9796	6.8157	5.1977	4.6639	10.9293	8.9977	9.1353	0.1293	-4.0201	-3.4092	-0.2421	8.9977	4.3695	3.3982	9.8259
-5.0437	-2.6993	-5.7288	-3.899	1.3208	-0.6879	-0.8695	6.956	5.3298	4.7795	11.1026	9.1573	9.2316	0.1156	-4.0091	-3.5193	-0.1926	8.9509	4.419	3.3982	9.9883
-5.0271	-2.6113	-5.7095	-3.7917	1.4363	-0.5971	-0.7677	7.1128	5.4371	4.8648	11.2787	9.2811	9.2811	0.0853	-4.0146	-3.5991	-0.1596	8.8931	4.4658	3.3679	10.0818
-4.9749	-2.5535	-5.6545	-3.6541	1.5134	-0.5256	-0.6521	7.2147	5.5389	4.9804	11.3888	9.4022	9.3664	0.0605	-4.0091	-3.7229	-0.1266	8.8271	4.5209	3.3679	10.1423
-4.9418	-2.4682	-5.6132	-3.5495	1.6207	-0.4513	-0.5558	7.3467	5.6463	5.0492	11.5126	9.4902	9.3774	0.0495	-4.0228	-3.8467	-0.0963	8.7721	4.5236	3.3514	10.1974
-4.9253	-2.4159	-5.5637	-3.423	1.7197	-0.3825	-0.4568	7.443	5.7288	5.1345	11.6337	9.6113	9.4544	0.0578	-4.0283	-3.976	-0.0936	8.7253	4.5456	3.3597	10.2359
-4.8648	-2.2976	-5.5087	-3.2936	1.8215	-0.3137	-0.3632	7.5614	5.8003	5.2005	11.7383	9.7213	9.4875	0.0578	-4.0366	-4.0641	-0.0881	8.6482	4.5621	3.3624	10.2744
-4.807	-2.204	-5.4399	-3.1588	1.9124	-0.2476	-0.2614	7.6742	5.8746	5.2748	11.8181	9.7764	9.4875	0.0413	-4.0668	-4.1687	-0.0688	8.607	4.5731	3.3624	10.2964
-4.7492	-2.0995	-5.3904	-2.991	2.0197	-0.1981	-0.1596	7.7402	5.9654	5.3408	11.8896	9.8507	9.515	0.0413	-4.0393	-4.2237	-0.055	8.5107	4.5896	3.3404	10.2744
-4.6832	-2.0197	-5.2996	-2.8837	2.1187	-0.1376	-0.055	7.8448	6.0177	5.3931	11.9336	9.8809	9.5315	0.0468	-4.0063	-4.2374	-0.0495	8.4474	4.5951	3.3487	10.2772
-4.5731	-1.8656	-5.1867	-2.7131	2.2343	-0.0578	0.0743	7.9218	6.0783	5.4674	11.9721	9.9277	9.5177	0.0275	-3.965	-4.2237	-0.0413	8.3621	4.6006	3.3487	10.2414
-4.5071	-1.7418	-5.1042	-2.5342	2.3113	-0.0083	0.1761	7.9934	6.1223	5.5114	11.9942	9.9607	9.515	0.033	-3.9375	-4.1907	-0.0413	8.3511	4.6364	3.3432	10.2166
-4.3778	-1.6179	-4.9996	-2.3636	2.4489	0.066	0.2889	8.0566	6.1663	5.5444	11.9914	9.9662	9.5067	0.033	-3.8852	-4.1301	-0.0468	8.274	4.6227	3.3927	10.1644
-4.2512	-1.4638	-4.8813	-2.1903	2.5645	0.1266	0.4017	8.1117	6.2048	5.605	12.0052	9.9883	9.5122	0.044	-3.8109	-4.0421	-0.0688	8.219	4.6227	3.3844	10.1066
-4.1329	-1.3098	-4.7657	-2.0004	2.6773	0.1981	0.5283	8.2052	6.2901	5.6545	12.0602	10.0295	9.5122	0.0468	-3.7339	-3.9293	-0.0908	8.1832	4.6474	3.401	10.0515
-4.0036	-1.1502	-4.6309	-1.7913	2.7956	0.3027	0.6714	8.2658	6.3369	5.7288	12.0574	10.0708	9.4985	0.0688	-3.6706	-3.7697	-0.1238	8.1502	4.6529	3.4202	10.002
-3.8742	-0.9878	-4.4741	-1.5877	2.9387	0.3907	0.8172	8.3318	6.3892	5.7893	12.074	10.1038	9.5342	0.0825	-3.5716	-3.5853	-0.1596	8.1089	4.6612	3.4422	9.9277
-3.7256	-0.8392	-4.3695	-1.4308	3.0598	0.465	0.9245	8.4088	6.436	5.8581	12.1042	10.1616	9.5397	0.1211	-3.467	-3.3487	-0.2201	8.1227	4.6777	3.5	9.8837
-3.5936	-0.6714	-4.2264	-1.2107	3.1643	0.5833	1.0731	8.4584	6.4992	5.9132	12.107	10.2084	9.5783	0.1458	-3.39	-3.1065	-0.2779	8.1254	4.6667	3.5523	9.8011
-3.4753	-0.5393	-4.1246	-1.0566	3.2744	0.6301	1.1529	8.5107	6.5515	5.9627	12.0905	10.2386	9.5673	0.1761	-3.3047	-2.8919	-0.3274	8.1062	4.6474	3.5743	9.7186
-3.3844	-0.4045	-4.0173	-0.886	3.3844	0.7044	1.263	8.5217	6.5873	5.993	12.085	10.2524	9.57	0.2036	-3.2331	-2.6553	-0.3907	8.0979	4.6529	3.6046	9.603
-3.2992	-0.2834	-3.9375	-0.787	3.4642	0.7567	1.3208	8.5629	6.6093	6.0067	12.0464	10.2386	9.559	0.2256	-3.1533	-2.4462	-0.4458	8.0759	4.6089	3.6348	9.493
-3.2386	-0.2119	-3.877	-0.6796	3.5303	0.7787	1.3896	8.5629	6.5983	6.0232	11.9969	10.2276	9.537	0.2504	-3.112	-2.2508	-0.487	8.0676	4.5484	3.6348	9.3664
-3.2001	-0.1266	-3.833	-0.5943	3.6046	0.842	1.4198	8.5354	6.59	5.993	11.9061	10.1974	9.493	0.2669	-3.0983	-2.1022	-0.5338	8.0209	4.5291	3.6624	9.1875
-3.1836	-0.0495	-3.822	-0.5448	3.6431	0.831	1.4638	8.5051	6.5323	5.9517	11.8098	10.1396	9.4159	0.3054	-3.0873	-1.9674	-0.5723	7.9741	4.4906	3.6321	9.039
-3.2139	0.0028	-3.833	-0.5228	3.6761	0.82	1.4583	8.4611	6.4827	5.9132	11.7135	10.0653	9.3471	0.3082	-3.1313	-1.9179	-0.5998	7.9576	4.4356	3.6211	8.9096
-3.2634	0.0248	-3.8605	-0.509	3.6624	0.7842	1.4473	8.3978	6.4277	5.8389	11.5924	9.98	9.2673	0.3219	-3.1726	-1.8848	-0.6164	7.8805	4.3778	3.5826	8.761
-3.3074	0.055	-3.899	-0.5311	3.6679	0.7677	1.4308	8.3208	6.3369	5.7673	11.4714	9.8864	9.1738	0.3137	-3.2771	-1.9289	-0.6219	7.8117	4.3337	3.5303	8.607
-3.4037	0.0275	-3.9898	-0.5613	3.6569	0.6962	1.3978	8.2382	6.2654	5.6958	11.3558	9.7874	9.0967	0.3274	-3.3872	-2.0197	-0.6301	7.7512	4.2595	3.4422	8.4721
-3.5055	0.011	-4.0476	-0.6081	3.6238	0.6466	1.329	8.1557	6.1801	5.5967	11.232	9.6938	8.9894	0.3109	-3.5083	-2.1462	-0.6164	7.6522	4.2264	3.3762	8.3428
-3.6293	-0.011	-4.1521	-0.6769	3.6101	0.5778	1.2657	8.0869	6.1085	5.5334	11.1137	9.6223	8.9344	0.2999	-3.6954	-2.3361	-0.5971	7.5751	4.1962	3.2799	8.241
-3.7587	-0.0275	-4.2127	-0.6989	3.5908	0.5228	1.23	7.9934	6.0122	5.4619	11.0311	9.5535	8.8574	0.3027	-3.8522	-2.5342	-0.5806	7.5201	4.1494	3.2056	8.1805
-3.8495	-0.0358	-4.3007	-0.7512	3.5716	0.487	1.2024	7.9796	5.993	5.4096	10.9981	9.5342	8.8298	0.2834	-3.9953	-2.7901	-0.5806	7.4623	4.1246	3.1533	8.1199
-4.0063	-0.1046	-4.3915	-0.82	3.5495	0.4375	1.1529	7.9301	5.9352	5.3573	10.9073	9.4875	8.8051	0.2834	-4.1356	-3.0598	-0.5448	7.4293	4.0971	3.0873	8.0539
-4.1136	-0.1789	-4.5016	-0.8915	3.5385	0.3825	1.1034	7.8778	5.8664	5.3381	10.877	9.4765	8.7996	0.2614	-4.3035	-3.2992	-0.5145	7.4018	4.0806	3.0102	7.9989
-4.2374	-0.2064	-4.5484	-0.919	3.5028	0.3495	1.0924	7.8255	5.8389	5.3023	10.8467	9.471	8.7996	0.2614	-4.4301	-3.5275	-0.509	7.3935	4.0503	2.9414	7.9741
-4.3255	-0.2614	-4.6364	-0.952	3.4753	0.3412	1.0951	7.842	5.8086	5.2885	10.8247	9.4985	8.8408	0.2586	-4.5374	-3.7504	-0.498	7.388	4.0256	2.9222	7.9521
-4.4025	-0.2889	-4.6804	-0.9548	3.4753	0.3164	1.0759	7.8338	5.8113	5.294	10.833	9.5177	8.8656	0.2531	-4.6199	-3.9595	-0.498	7.4018	4.0146	2.8837	7.9246
-4.5043	-0.3522	-4.7327	-0.9933	3.456	0.3192	1.0704	7.8503	5.7921	5.2968	10.8412	9.5563	8.9261	0.2586	-4.7025	-4.1411	-0.5063	7.4155	3.9981	2.9002	7.9108
-4.5704	-0.41	-4.796	-0.9961	3.4697	0.2944	1.0924	7.886	5.8086	5.3188	10.8467	9.592	8.9564	0.2697	-4.763	-4.3007	-0.5173	7.4761	3.9981	2.9057	7.9301
-4.6337	-0.454	-4.8235	-1.0126	3.4587	0.3054	1.1144	7.9108	5.8141	5.3298	10.866	9.6305	9.0197	0.2834	-4.818	-4.4218	-0.5476	7.5146	3.976	2.9304	7.9521
-4.6942	-0.5118	-4.8621	-1.0043	3.4505	0.3082	1.1171	7.9273	5.8416	5.3491	10.9238	9.6746	9.083	0.2944	-4.9006	-4.5539	-0.5641	7.5751	3.9705	2.9745	7.9989
-4.7933	-0.5613	-4.8951	-1.0208	3.4532	0.3357	1.1557	7.9521	5.8581	5.3463	10.9293	9.7021	9.1215	0.3082	-4.9584	-4.6639	-0.5833	7.6329	3.965	2.9992	8.0649
-4.84	-0.6081	-4.9226	-1.0291	3.4395	0.3384	1.1474	8.0346	5.8719	5.3849	10.9843	9.7571	9.1848	0.3137	-5.0244	-4.7712	-0.6136	7.7127	3.9678	3.0405	8.1419
-4.8896	-0.6439	-4.9529	-1.0071	3.4532	0.3577	1.1694	8.0566	5.8884	5.4041	11.0339	9.8039	9.2481	0.3439	-5.0932	-4.8621	-0.6549	7.8035	3.9623	3.123	8.2382
-4.9363	-0.7044	-4.9694	-1.0401	3.423	0.3962	1.1914	8.0787	5.8966	5.4179	11.0696	9.8204	9.2921	0.3687	-5.1537	-4.9418	-0.6934	7.8778	3.9485	3.1506	8.296
-4.9749	-0.7484	-4.9721	-1.0539	3.4615	0.4265	1.2217	8.1447	5.9214	5.4124	11.1081	9.8727	9.3554	0.3852	-5.217	-5.0216	-0.7402	7.9576	3.9513	3.2056	8.4006
-5.0574	-0.7842	-4.9886	-1.0704	3.445	0.4513	1.23	8.1887	5.9324	5.4316	11.1384	9.903	9.3912	0.4127	-5.2693	-5.0767	-0.7897	8.0154	3.9293	3.2276	8.4859
-5.1235	-0.8282	-5.0051	-1.0896	3.4477	0.4623	1.2437	8.2217	5.9544	5.4729	11.1852	9.947	9.4599	0.4485	-5.3491	-5.1647	-0.8447	8.1502	3.9238	3.2854	8.5904
-5.1482	-0.8447	-5.0271	-1.1089	3.4753	0.5063	1.2547	8.2493	5.9874	5.4922	11.2127	9.9965	9.5067	0.454	-5.4206	-5.2088	-0.9025	8.208	3.899	3.2992	8.6207
-5.195	-0.8888	-5.0189	-1.1226	3.5	0.5283	1.2602	8.2933	6.015	5.5169	11.2567	10.035	9.5893	0.5008	-5.4757	-5.2775	-0.9796	8.3263	3.91	3.3459	8.7225
-5.2363	-0.9245	-5.0299	-1.1337	3.4973	0.5696	1.274	8.3125	6.059	5.5169	11.2512	10.0736	9.6223	0.5338	-5.5527	-5.3353	-1.0346	8.3978	3.855	3.3542	8.7721
-5.261	-0.9355	-5.0161	-1.1639	3.5385	0.6109	1.2822	8.3346	6.0838	5.5389	11.2705	10.1203	9.6828	0.5668	-5.616	-5.3491	-1.1199	8.5079	3.877	3.3789	8.8463
-5.2803	-0.9245	-4.9831	-1.1832	3.5881	0.6851	1.3345	8.4198	6.1525	5.594	11.3228	10.2056	9.7571	0.6164	-5.66	-5.3738	-1.2162	8.6262	3.844	3.4312	8.9454
-5.2968	-0.9273	-4.9804	-1.1667	3.6321	0.7429	1.3593	8.4639	6.2241	5.6352	11.342	10.2634	9.8204	0.6576	-5.7288	-5.3904	-1.2795	8.7335	3.8495	3.4808	8.9839
-5.3243	-0.919	-4.9473	-1.2134	3.6871	0.7925	1.3758	8.4886	6.2516	5.6545	11.3833	10.2937	9.8699	0.6962	-5.8113	-5.4124	-1.3483	8.8326	3.8275	3.522	9.0582
-5.3546	-0.8998	-4.9308	-1.2272	3.7311	0.8667	1.3978	8.5327	6.3121	5.6765	11.3806	10.3129	9.9085	0.7209	-5.8994	-5.4316	-1.4143	8.9206	3.8082	3.5688	9.1325
-5.3656	-0.8833	-4.9198	-1.263	3.8027	0.941	1.4088	8.6015	6.3837	5.704	11.4383	10.3515	9.9497	0.7787	-5.9985	-5.4206	-1.5051	9.0362	3.8082	3.6266	9.2591
-5.3849	-0.8695	-4.8703	-1.2712	3.8605	0.9961	1.4143	8.6372	6.4387	5.726	11.4356	10.3817	9.9717	0.8117	-6.0755	-5.4179	-1.5684	9.1463	3.8412	3.6871	9.3334
-5.4096	-0.831	-4.8455	-1.2905	3.9265	1.0704	1.4418	8.6895	6.502	5.7398	11.4604	10.401	10.0103	0.8282	-6.1801	-5.4151	-1.6289	9.2206	3.8495	3.7587	9.4159
-5.4096	-0.8145	-4.818	-1.2877	3.9815	1.1502	1.4556	8.7198	6.5405	5.7453	11.4466	10.4175	10.0433	0.8557	-6.2791	-5.3959	-1.673	9.3004	3.855	3.8137	9.493
-5.4261	-0.798	-4.774	-1.3015	4.0558	1.2327	1.4748	8.75	6.6011	5.7921	11.4686	10.4395	10.0708	0.8915	-6.4029	-5.3986	-1.7335	9.3719	3.8742	3.866	9.5755
-5.4454	-0.7484	-4.7272	-1.3015	4.1246	1.307	1.4886	8.8051	6.6588	5.8003	11.4686	10.4505	10.0736	0.919	-6.5158	-5.4261	-1.7858	9.4407	3.9073	3.9293	9.6498
-5.4371	-0.7127	-4.6529	-1.3125	4.2319	1.4308	1.5216	8.8518	6.7304	5.8471	11.4906	10.4835	10.1341	0.9548	-6.6451	-5.4454	-1.8573	9.5177	3.9265	4.0063	9.7103
-5.4591	-0.6439	-4.5759	-1.3125	4.3172	1.5436	1.5574	8.8904	6.8184	5.8994	11.4989	10.5166	10.1589	0.9768	-6.7882	-5.5499	-1.9068	9.5535	3.9815	4.0558	9.7571
-5.4894	-0.5751	-4.5346	-1.2877	4.3888	1.6399	1.5932	8.9399	6.8982	5.9462	11.5126	10.5386	10.1946	0.9988	-6.9175	-5.6352	-1.9454	9.603	3.9815	4.1026	9.7901
-5.4646	-0.5366	-4.4273	-1.2437	4.5264	1.7803	1.6482	8.9784	6.9808	5.9957	11.5264	10.6101	10.2524	1.0208	-7.0551	-5.7591	-2.0004	9.6361	3.987	4.1411	9.8287
-5.4702	-0.4623	-4.3475	-1.2327	4.6557	1.9289	1.706	9.0692	7.1101	6.092	11.5567	10.6872	10.3102	1.0511	-7.1899	-5.8994	-2.0609	9.6773	4.0228	4.1742	9.8617
-5.4371	-0.3577	-4.2154	-1.1694	4.774	2.0857	1.8105	9.138	7.2174	6.1856	11.6172	10.767	10.4147	1.0676	-7.3082	-6.0122	-2.1187	9.7461	4.0366	4.2374	9.8644
-5.3876	-0.2669	-4.0751	-1.1006	4.9088	2.2618	1.9179	9.2343	7.366	6.3121	11.6612	10.8578	10.5111	1.1116	-7.4375	-6.1168	-2.1793	9.7956	4.0778	4.3062	9.9167
-5.3326	-0.1513	-3.954	-1.0291	5.0822	2.4572	2.0637	9.3526	7.5173	6.4635	11.7713	10.9926	10.6349	1.1474	-7.5393	-6.2433	-2.248	9.8479	4.1329	4.3475	9.9497
-5.2748	-0.033	-3.7972	-0.93	5.2335	2.6718	2.182	9.4792	7.6879	6.6121	11.8318	11.1274	10.7835	1.1639	-7.6301	-6.3534	-2.2948	9.9057	4.1962	4.4301	10.0048
-5.1812	0.0881	-3.6156	-0.8365	5.4344	2.9029	2.3636	9.6113	7.8778	6.8184	11.9556	11.2567	10.9375	1.1942	-7.7072	-6.4415	-2.3333	9.9717	4.2732	4.4768	10.0791
-5.0904	0.2421	-3.4312	-0.7127	5.6738	3.1451	2.5535	9.7736	8.0842	7.0193	12.129	11.4576	11.1109	1.2134	-7.7705	-6.5213	-2.3719	10.057	4.3668	4.5539	10.1616
-5.0161	0.4155	-3.2304	-0.5641	5.8911	3.3844	2.7296	9.9497	8.318	7.2284	12.2776	11.5979	11.2842	1.219	-7.831	-6.6038	-2.3911	10.1368	4.4603	4.6337	10.2799
-4.8538	0.5916	-3.024	-0.4292	6.1305	3.6514	2.9607	10.1644	8.5492	7.4293	12.4564	11.7795	11.4604	1.2245	-7.8145	-6.6616	-2.4131	10.1671	4.5731	4.7162	10.4175
-4.7107	0.7677	-2.7708	-0.2669	6.4002	3.9375	3.1616	10.3762	8.7858	7.6824	12.6325	11.9997	11.664	1.2437	-7.798	-6.6726	-2.4269	10.2442	4.7135	4.7878	10.5578
-4.5731	0.9548	-2.526	-0.1266	6.6698	4.2512	3.4065	10.5716	9.0307	7.9218	12.8829	12.1978	11.8236	1.2355	-7.7595	-6.7194	-2.4241	10.3184	4.829	4.8621	10.7449
-4.419	1.1364	-2.2838	0.0578	6.978	4.5511	3.6376	10.8412	9.3169	8.1805	13.103	12.4234	12.0409	1.23	-7.6934	-6.7441	-2.4241	10.3597	4.9776	4.9391	10.899
-4.2429	1.351	-1.9811	0.2889	7.2587	4.8813	3.888	11.0724	9.6003	8.4391	13.3067	12.6435	12.2335	1.2327	-7.5999	-6.8102	-2.3994	10.423	5.1482	5.0244	11.1026
-4.0613	1.5491	-1.7032	0.4595	7.5256	5.1977	4.1411	11.342	9.8809	8.673	13.5571	12.8637	12.4399	1.2162	-7.4843	-6.8157	-2.3801	10.4588	5.2693	5.1069	11.2925
-3.8962	1.7528	-1.4198	0.6301	7.8393	5.5169	4.3805	11.5897	10.1589	8.9096	13.7882	13.092	12.605	1.2079	-7.3825	-6.8707	-2.3664	10.5	5.4371	5.1565	11.4906
-3.7174	1.9261	-1.1309	0.8255	8.0979	5.8306	4.6006	11.8291	10.4313	9.1463	14.0001	13.2984	12.7729	1.1804	-7.2779	-6.9147	-2.3306	10.5083	5.5692	5.2032	11.6667
-3.5413	2.1297	-0.8612	0.9906	8.3868	6.1443	4.8235	12.0547	10.6789	9.3444	14.2395	13.4965	12.9214	1.1749	-7.1459	-6.9092	-2.3003	10.5193	5.6903	5.261	11.8098
-3.3762	2.2893	-0.5943	1.1722	8.651	6.4552	5.0271	12.2913	10.9348	9.5452	14.4348	13.6589	13.0535	1.1584	-7.0358	-6.9175	-2.2756	10.5056	5.8471	5.3078	11.9776
-3.2056	2.4654	-0.2917	1.34	8.8986	6.7304	5.206	12.517	11.1494	9.7241	14.6247	13.835	13.1718	1.1639	-6.9092	-6.9147	-2.2646	10.489	5.9654	5.3463	12.1345
-3.0295	2.625	-0.0083	1.5051	9.0857	7.011	5.3821	12.7151	11.3751	9.8837	14.7623	14.0001	13.2709	1.1584	-6.7661	-6.8487	-2.2563	10.456	6.0783	5.3683	12.2446
-2.8892	2.7763	0.2476	1.6565	9.3334	7.2724	5.5252	12.8554	11.5622	10.013	14.8778	14.0771	13.3177	1.1474	-6.6258	-6.8184	-2.237	10.4065	6.1333	5.3711	12.3133
-2.7681	2.8919	0.4513	1.794	9.4902	7.4898	5.6765	13.0205	11.7162	10.1451	14.9769	14.1789	13.3727	1.1502	-6.5378	-6.7744	-2.237	10.3515	6.1801	5.3821	12.3574
-2.6911	2.9882	0.6329	1.9151	9.6195	7.6769	5.7838	13.1251	11.8428	10.2249	15.0319	14.2367	13.381	1.1309	-6.4525	-6.7496	-2.2233	10.2909	6.2048	5.3711	12.3546
-2.559	3.057	0.8475	1.9811	9.7626	7.8695	5.9104	13.2214	11.9529	10.3074	15.0457	14.2587	13.4057	1.1364	-6.4029	-6.7661	-2.2343	10.2414	6.2296	5.3766	12.3271
-2.5205	3.079	0.9906	2.0444	9.8617	8.0154	5.9985	13.2736	12.0437	10.3515	15.0126	14.278	13.414	1.1557	-6.3507	-6.7606	-2.2646	10.1864	6.2268	5.3601	12.2721
-2.4874	3.112	1.1116	2.127	9.9222	8.1502	6.0672	13.3149	12.1097	10.4147	15.0044	14.2587	13.414	1.1722	-6.3699	-6.7964	-2.3003	10.1396	6.1801	5.3491	12.195
-2.5039	3.0955	1.1997	2.1738	9.9277	8.2437	6.1415	13.3067	12.118	10.467	14.9273	14.2257	13.4002	1.1859	-6.4112	-6.8322	-2.3278	10.1066	6.1085	5.3573	12.0602
-2.4984	3.1093	1.307	2.226	9.9827	8.3621	6.2158	13.2819	12.1648	10.4945	14.8696	14.1872	13.4002	1.2245	-6.491	-6.8927	-2.3829	10.068	6.0315	5.3656	11.9336
-2.5287	3.0818	1.3923	2.2425	9.9883	8.4721	6.2929	13.2544	12.1538	10.5496	14.743	14.1459	13.4002	1.2492	-6.5268	-6.9725	-2.4489	10.0598	5.9572	5.3821	11.7933
-2.5617	3.035	1.4473	2.2756	9.969	8.5464	6.3644	13.1856	12.1978	10.6074	14.6192	14.0854	13.392	1.274	-6.6423	-7.0138	-2.5067	10.0433	5.8526	5.4124	11.6447
-2.6195	3.0075	1.4721	2.3003	9.9442	8.6152	6.425	13.1443	12.1923	10.6431	14.5064	14.0771	13.4415	1.3043	-6.8102	-7.0798	-2.5617	10.057	5.7646	5.4261	11.4631
-2.6855	2.9717	1.5106	2.2976	9.9195	8.6757	6.5103	13.0838	12.2115	10.7119	14.399	14.0276	13.48	1.3318	-6.9202	-7.1239	-2.6333	10.1231	5.6352	5.5059	11.3063
-2.7543	2.9359	1.5574	2.3278	9.8947	8.7418	6.5488	13.0122	12.195	10.7614	14.2835	14.0193	13.5433	1.3813	-7.1128	-7.1844	-2.7103	10.1561	5.5032	5.5444	11.1137
-2.8094	2.9002	1.5657	2.3251	9.8397	8.8023	6.6313	12.9324	12.228	10.833	14.1652	14.0248	13.6424	1.4226	-7.2917	-7.1899	-2.7956	10.2084	5.3959	5.627	10.9238
-2.8864	2.8644	1.6124	2.3196	9.7846	8.8574	6.6864	12.8224	12.2611	10.9155	14.0276	14.0166	13.7332	1.4583	-7.4843	-7.1926	-2.8864	10.2827	5.2418	5.6518	10.7284
-2.9084	2.8424	1.6647	2.3526	9.7626	8.9289	6.7909	12.7894	12.3243	11.0586	13.9505	14.0689	13.8817	1.5299	-7.6962	-7.1816	-3.0075	10.3735	5.1042	5.7536	10.5633
-2.9414	2.8314	1.6812	2.3829	9.7241	9.0252	6.879	12.6931	12.3739	11.1962	13.868	14.1459	14.0496	1.5932	-7.8778	-7.1486	-3.1313	10.4918	4.9941	5.8279	10.3982
-2.9965	2.8094	1.7225	2.4076	9.6883	9.0802	6.9753	12.6243	12.4372	11.3255	13.7827	14.2339	14.2587	1.651	-8.0979	-7.1101	-3.2441	10.6019	4.8621	5.9187	10.2249
-3.0185	2.8341	1.7748	2.4462	9.6443	9.1958	7.1018	12.5857	12.5445	11.5181	13.7469	14.3468	14.4953	1.7225	-8.3208	-7.0881	-3.3955	10.767	4.7685	6.0232	10.1176
-3.0653	2.8506	1.8105	2.4627	9.6085	9.2949	7.2092	12.5417	12.6408	11.7025	13.7167	14.4788	14.7595	1.7665	-8.5327	-7.1101	-3.5028	10.932	4.6584	6.1168	9.9635
-3.1203	2.8286	1.8271	2.5177	9.5948	9.3802	7.3165	12.5005	12.7563	11.9116	13.6781	14.6274	15.0512	1.8381	-8.7473	-7.1459	-3.6183	11.1137	4.5566	6.1883	9.8177
-3.1148	2.8479	1.8848	2.5452	9.5783	9.4957	7.4568	12.4702	12.8747	12.1372	13.6754	14.7953	15.3538	1.8986	-8.9619	-7.2147	-3.7449	11.3393	4.4356	6.3066	9.6856
-3.1506	2.8699	1.9344	2.6058	9.548	9.6058	7.5751	12.4207	13.0177	12.3959	13.6891	14.9906	15.7033	1.9619	-9.0995	-7.3302	-3.8577	11.5924	4.3475	6.4057	9.5783
-3.1753	2.9139	1.9811	2.6773	9.5397	9.7351	7.7457	12.4234	13.1581	12.6463	13.6616	15.1832	16.0665	2.0169	-9.2618	-7.4348	-3.976	11.8208	4.254	6.524	9.4737
-3.1918	2.9304	2.0087	2.7241	9.5287	9.8314	7.8888	12.3931	13.2984	12.9269	13.6781	15.4116	16.4187	2.0692	-9.4049	-7.5311	-4.0834	12.074	4.1549	6.6368	9.3609
-3.1698	2.9607	2.0829	2.7929	9.5452	9.9497	8.0539	12.4262	13.491	13.2186	13.7359	15.6785	16.8287	2.138	-9.4957	-7.6136	-4.2017	12.3821	4.0751	6.7882	9.2976
-3.1698	3.0157	2.1517	2.8837	9.5618	10.0928	8.2382	12.4344	13.6891	13.5378	13.8047	15.9317	17.2552	2.1958	-9.5645	-7.6522	-4.3117	12.6738	4.0173	6.9505	9.2261
-3.1368	3.0543	2.2068	2.9965	9.5975	10.2442	8.4198	12.4647	13.901	13.8845	13.901	16.2426	17.6982	2.2563	-9.603	-7.6934	-4.4301	13.0012	3.9513	7.1321	9.1655
-3.0708	3.1368	2.3223	3.1203	9.6361	10.3927	8.6372	12.506	14.1101	14.1899	13.9973	16.5288	18.1274	2.3003	-9.6113	-7.6522	-4.5456	13.3177	3.8825	7.3137	9.116
-3.0267	3.2249	2.3939	3.2249	9.6581	10.5386	8.8353	12.5582	14.3165	14.5366	14.1156	16.8397	18.5567	2.3719	-9.6003	-7.6054	-4.6722	13.6589	3.844	7.5393	9.0912
-2.9855	3.2496	2.4654	3.3294	9.6883	10.6761	9.0224	12.6133	14.5421	14.8476	14.2037	17.1644	18.9997	2.4241	-9.581	-7.5669	-4.785	13.9918	3.7724	7.7485	9.0857
-2.9359	3.2854	2.5315	3.445	9.7434	10.8357	9.2453	12.6518	14.743	15.175	14.3523	17.4863	19.4152	2.4874	-9.559	-7.4926	-4.9006	14.3027	3.7256	7.9548	9.0637
-2.9194	3.3349	2.5755	3.544	9.7571	10.9375	9.3967	12.7261	14.9384	15.4832	14.5036	17.8	19.8224	2.5535	-9.5177	-7.454	-5.0244	14.6302	3.6679	8.2025	9.0665
-2.8369	3.4065	2.6608	3.6486	9.8011	11.0504	9.5535	12.7811	15.1282	15.7583	14.6192	18.1082	20.2269	2.6195	-9.4765	-7.3853	-5.1647	14.9329	3.6376	8.4088	9.116
-2.8341	3.4202	2.6911	3.7201	9.7846	11.1164	9.6773	12.8224	15.2906	15.984	14.7623	18.3778	20.5571	2.6718	-9.4242	-7.3908	-5.2665	15.2108	3.6101	8.5987	9.105
-2.8231	3.4147	2.6883	3.7724	9.8149	11.2127	9.8066	12.8609	15.4281	16.2316	14.8861	18.642	20.868	2.7378	-9.3279	-7.3605	-5.3793	15.4887	3.5661	8.8023	9.1408
-2.8121	3.445	2.6883	3.7999	9.8232	11.2485	9.8754	12.8747	15.5382	16.3829	14.9741	18.8401	21.0937	2.7874	-9.2068	-7.3825	-5.4922	15.7171	3.5	8.9619	9.1545
-2.8176	3.4285	2.6718	3.8192	9.7489	11.2622	9.9497	12.8747	15.5987	16.4985	15.0319	18.9914	21.3083	2.8231	-9.0995	-7.3853	-5.5912	15.9069	3.4642	9.094	9.1628
-2.8506	3.4037	2.6113	3.8302	9.7158	11.2457	9.9525	12.8609	15.6345	16.5948	15.0897	19.1263	21.4431	2.8699	-8.9784	-7.4238	-5.6765	16.0885	3.4285	9.2398	9.171
-2.9112	3.3679	2.5507	3.822	9.6911	11.2237	9.958	12.8114	15.6538	16.6443	15.1447	19.2363	21.5587	2.9167	-8.8629	-7.4816	-5.7508	16.2371	3.3762	9.3444	9.1765
-2.9552	3.3184	2.4929	3.7807	9.6168	11.1549	9.9057	12.7811	15.6538	16.6333	15.1447	19.2749	21.6054	2.9497	-8.7418	-7.5338	-5.8086	16.3417	3.3267	9.4049	9.1683
-2.9992	3.2771	2.3994	3.7036	9.5425	11.0751	9.8617	12.7013	15.596	16.6031	15.1145	19.2859	21.5807	2.9662	-8.6125	-7.5614	-5.8719	16.3884	3.2909	9.4572	9.1215
-3.0708	3.2249	2.3058	3.6541	9.4434	11.0036	9.7791	12.638	15.541	16.5233	15.0952	19.2831	21.5339	2.9965	-8.4969	-7.5999	-5.9049	16.427	3.2359	9.4902	9.0802
-3.1643	3.1506	2.2095	3.5688	9.3389	10.8935	9.6526	12.528	15.4391	16.3939	15.0044	19.2226	21.4183	3.0047	-8.3593	-7.5971	-5.9379	16.3582	3.1698	9.4627	8.9977
-3.2249	3.0873	2.094	3.4835	9.2646	10.8	9.5563	12.4262	15.3153	16.2756	14.9824	19.14	21.2615	3.0322	-8.263	-7.6329	-5.9764	16.2949	3.1368	9.471	8.9399
-3.2964	3.0157	2.0059	3.3955	9.1655	10.6294	9.4104	12.3106	15.1887	16.0913	14.8613	19.0135	21.0304	3.046	-8.1557	-7.6439	-5.9957	16.1766	3.057	9.3857	8.8629
-3.4175	2.9249	1.8436	3.2524	9.0197	10.489	9.2371	12.1703	15.0237	15.8794	14.7457	18.8511	20.7635	3.0295	-8.0787	-7.6934	-5.9847	16.0087	2.9772	9.2811	8.7253
-3.5193	2.8149	1.7005	3.123	8.8876	10.3129	9.0417	12.0052	14.8228	15.6345	14.6109	18.6668	20.4525	3.0267	-8.0401	-7.7347	-5.9737	15.8244	2.9277	9.1655	8.607
-3.6403	2.7158	1.5629	2.98	8.7528	10.1589	8.8656	11.8621	14.6219	15.3676	14.4376	18.4576	20.1058	3.0185	-8.0429	-7.7732	-5.9709	15.5575	2.8561	9.028	8.4721
-3.7339	2.6113	1.4143	2.8204	8.596	9.9855	8.6757	11.686	14.4101	15.0814	14.2697	18.1962	19.6903	3.0185	-8.0044	-7.831	-5.9599	15.2933	2.7708	8.8381	8.2988
-3.888	2.5149	1.285	2.6635	8.4804	9.7874	8.4666	11.5181	14.1734	14.798	14.0744	17.8991	19.2666	3.0047	-8.0044	-7.8833	-5.9352	15.0016	2.6745	8.6372	8.1584
-4.0008	2.3911	1.1199	2.4737	8.2988	9.6085	8.2548	11.2898	13.9175	14.4458	13.846	17.6046	18.8236	2.991	-8.0291	-7.9081	-5.9187	14.6742	2.5975	8.4033	7.9741
-4.1521	2.2673	0.9713	2.2976	8.1337	9.4104	8.0484	11.0999	13.6644	14.1211	13.6203	17.2827	18.3448	2.9772	-8.0594	-7.9548	-5.8774	14.3495	2.4957	8.164	7.7787
-4.265	2.1765	0.8337	2.1435	7.9658	9.2481	7.8283	10.9293	13.4057	13.8185	13.3892	16.9388	17.855	2.9662	-8.1392	-8.0044	-5.8471	14.0056	2.4269	7.9136	7.5971
-4.3998	2.0472	0.6494	1.9399	7.8007	9.0252	7.5861	10.6624	13.1443	13.4608	13.07	16.5453	17.3212	2.9304	-8.2025	-8.0346	-5.7866	13.6451	2.2783	7.6301	7.366
-4.5566	1.9068	0.4925	1.7693	7.6026	8.8491	7.3825	10.456	12.8554	13.1223	12.8059	16.1656	16.8122	2.9139	-8.2905	-8.0511	-5.7453	13.2847	2.1875	7.3467	7.1431
-4.6584	1.7803	0.3715	1.6179	7.4238	8.6923	7.1816	10.2304	12.5913	12.7591	12.517	15.7803	16.3004	2.8919	-8.3456	-8.0594	-5.704	12.9242	2.0472	7.0963	6.9367
-4.7905	1.6537	0.2531	1.4281	7.2532	8.5079	6.9698	10.0185	12.3271	12.4427	12.2308	15.3896	15.7858	2.8727	-8.4391	-8.0787	-5.6655	12.5775	1.9454	6.8129	6.7551
-4.8868	1.5491	0.1156	1.2685	7.0798	8.3786	6.7909	9.7599	12.0602	12.0905	11.9199	14.9796	15.2685	2.8479	-8.5189	-8.0924	-5.6187	12.2363	1.8271	6.5378	6.5047
-4.9996	1.4446	0.0303	1.1392	6.912	8.2135	6.6093	9.5535	11.796	11.7988	11.6337	14.5751	14.787	2.8259	-8.6015	-8.1117	-5.583	11.9034	1.7005	6.3066	6.2736
-5.1235	1.351	-0.1073	0.9906	6.7386	8.0842	6.4332	9.3169	11.5457	11.4824	11.3365	14.1899	14.322	2.8011	-8.7033	-8.1667	-5.5334	11.5677	1.5877	6.092	6.0617
-5.2088	1.2437	-0.1761	0.8447	6.5928	7.9686	6.2571	9.0967	11.3063	11.1742	11.0366	13.8212	13.857	2.7956	-8.8326	-8.2355	-5.5114	11.2842	1.4638	5.8416	5.8554
-5.3188	1.1392	-0.2614	0.7127	6.4552	7.8613	6.0783	8.8821	11.0669	10.9018	10.7367	13.436	13.3865	2.7736	-8.9427	-8.3318	-5.4784	10.9568	1.3098	5.6187	5.6325
-5.4261	1.0346	-0.3687	0.5531	6.2654	7.7485	5.9021	8.6813	10.8578	10.6129	10.4368	13.0508	12.949	2.7626	-9.0775	-8.4804	-5.4619	10.6459	1.2024	5.3849	5.4206
-5.5499	0.9053	-0.4705	0.41	6.1003	7.6219	5.7398	8.4143	10.6019	10.3267	10.1286	12.6986	12.5087	2.7626	-9.2261	-8.6427	-5.4344	10.3707	1.0511	5.1785	5.206
-5.6325	0.8255	-0.5613	0.2642	5.9517	7.5201	5.5637	8.2025	10.4092	10.0653	9.8424	12.3711	12.1372	2.7598	-9.4214	-8.8051	-5.4316	10.0846	0.93	4.9941	4.9859
-5.7536	0.6906	-0.6549	0.1266	5.7728	7.4183	5.4096	7.9466	10.1616	9.8039	9.5315	12.0079	11.73	2.7598	-9.5755	-8.9812	-5.4399	9.8232	0.7842	4.774	4.785
-5.8636	0.5558	-0.7429	-0.0248	5.6105	7.311	5.2638	7.7099	9.9525	9.5755	9.2288	11.686	11.3668	2.7653	-9.7791	-9.2261	-5.4344	9.5838	0.6191	4.5841	4.5951
-5.9654	0.4237	-0.8612	-0.1789	5.4179	7.1624	5.0822	7.4485	9.7241	9.3279	8.9234	11.3448	11.0063	2.7488	-9.991	-9.471	-5.4426	9.3444	0.454	4.419	4.3888
-6.0727	0.2779	-0.9768	-0.2999	5.2253	7.0331	4.9391	7.2174	9.5012	9.1215	8.64	11.0366	10.6954	2.7708	-10.2331	-9.7406	-5.4591	9.1628	0.3054	4.2595	4.1797
-6.1993	0.1376	-1.0731	-0.465	5.0271	6.9257	4.7768	6.9533	9.2838	8.8986	8.318	10.7119	10.3707	2.7736	-10.4423	-10.0158	-5.4784	8.9894	0.1266	4.1329	3.9733
-6.3039	-0.066	-1.2134	-0.6191	4.8318	6.7606	4.5951	6.6946	9.0665	8.7088	8.0044	10.4423	10.1258	2.8011	-10.6349	-10.2827	-5.5252	8.8381	-0.0248	4.0228	3.7972
-6.4139	-0.2036	-1.3373	-0.7815	4.6172	6.5983	4.4328	6.4167	8.8436	8.5079	7.7127	10.1176	9.8534	2.8039	-10.8357	-10.5028	-5.5527	8.7225	-0.1981	3.91	3.6156
-6.557	-0.3935	-1.4748	-0.9465	4.4108	6.4662	4.2842	6.1691	8.6235	8.3153	7.4265	9.8259	9.603	2.8369	-11.0284	-10.7614	-5.594	8.6317	-0.3825	3.8275	3.4505
-6.6616	-0.5723	-1.6152	-1.0814	4.1989	6.2901	4.1466	5.8939	8.3923	8.1419	7.1101	9.581	9.3912	2.8451	-11.1824	-10.9513	-5.6242	8.5519	-0.5503	3.7422	3.2689
-6.7414	-0.7539	-1.7197	-1.2355	3.9843	6.1443	4.0091	5.6545	8.1997	8.0071	6.8074	9.3279	9.2068	2.8672	-11.287	-11.1081	-5.6848	8.4914	-0.7044	3.6954	3.1423
-6.8514	-0.9025	-1.8601	-1.4088	3.8054	5.9985	3.8742	5.4096	8.0071	7.8695	6.5268	9.0912	9.0362	2.9029	-11.3943	-11.2155	-5.7178	8.4419	-0.8778	3.6266	3.013
-6.9395	-1.0841	-1.9921	-1.5354	3.6321	5.8306	3.7449	5.1785	7.8393	7.7347	6.2544	8.8684	8.8601	2.9029	-11.4769	-11.309	-5.7563	8.4061	-1.0016	3.5798	2.9139
-7.0303	-1.2327	-2.0995	-1.673	3.4257	5.6958	3.6321	4.9611	7.6467	7.6274	6.0067	8.695	8.7555	2.9167	-11.5319	-11.3558	-5.7618	8.3758	-1.1557	3.533	2.7819
-7.0881	-1.373	-2.1985	-1.7803	3.2909	5.594	3.544	4.7795	7.5448	7.5779	5.7948	8.5519	8.662	2.9167	-11.5457	-11.298	-5.7866	8.3538	-1.252	3.511	2.7186
-7.1514	-1.4914	-2.2673	-1.8601	3.1561	5.5032	3.5083	4.6309	7.4568	7.5421	5.6132	8.4336	8.6097	2.9469	-11.5677	-11.2292	-5.8196	8.3786	-1.3675	3.5193	2.6718
-7.1349	-1.5767	-2.3141	-1.9289	3.0653	5.4316	3.478	4.5098	7.399	7.5448	5.4894	8.3786	8.596	2.9332	-11.5264	-11.0889	-5.8334	8.3731	-1.4143	3.4753	2.647
-7.1349	-1.662	-2.3444	-1.9646	3.0157	5.3986	3.4808	4.4135	7.388	7.5779	5.3793	8.3786	8.5877	2.9469	-11.5016	-10.9513	-5.8251	8.3676	-1.4693	3.5	2.6443
-7.1266	-1.7335	-2.3554	-1.9921	2.9442	5.3959	3.5165	4.3475	7.4155	7.6439	5.2858	8.3951	8.6455	2.9304	-11.4521	-10.789	-5.7976	8.3703	-1.4804	3.489	2.6305
-7.0771	-1.7968	-2.3416	-1.9921	2.9414	5.4206	3.5606	4.342	7.4595	7.7127	5.2473	8.4501	8.7115	2.9194	-11.4026	-10.6266	-5.7673	8.3841	-1.4914	3.5385	2.6553
-7.0138	-1.7885	-2.3058	-1.9949	2.9635	5.4399	3.6211	4.375	7.5476	7.8117	5.25	8.5244	8.7693	2.8919	-11.3035	-10.39	-5.7233	8.3731	-1.4748	3.5495	2.7021
-6.9478	-1.783	-2.237	-1.9509	3.0047	5.5169	3.7119	4.4053	7.6907	7.9411	5.2748	8.6565	8.8766	2.8589	-11.221	-10.1864	-5.6628	8.3758	-1.4611	3.5826	2.7323
-6.8955	-1.7473	-2.1738	-1.9316	3.0955	5.6077	3.7999	4.4796	7.809	8.0566	5.3408	8.7803	8.9922	2.8314	-11.1247	-9.98	-5.583	8.3456	-1.4171	3.6101	2.8011
-6.7882	-1.7115	-2.0747	-1.8215	3.1836	5.7481	3.9403	4.5704	7.9961	8.219	5.4289	8.9564	9.105	2.7791	-11.0063	-9.7544	-5.5197	8.329	-1.3428	3.6596	2.8864
-6.7029	-1.6537	-2.0004	-1.7968	3.2799	5.8526	4.0366	4.6557	8.1392	8.3346	5.5004	9.1105	9.2013	2.7461	-10.921	-9.5673	-5.4206	8.3098	-1.2657	3.6734	2.9635
-6.5818	-1.5381	-1.8683	-1.7005	3.4615	6.0122	4.1742	4.8345	8.3676	8.5051	5.6187	9.2949	9.3031	2.6966	-10.8	-9.3554	-5.3353	8.2355	-1.1832	3.7009	3.0763
-6.458	-1.4418	-1.7307	-1.6042	3.6128	6.1801	4.3282	4.9776	8.5684	8.6592	5.7343	9.4847	9.4132	2.6498	-10.6679	-9.1655	-5.2445	8.1805	-1.0429	3.7532	3.1808
-6.3149	-1.3153	-1.5767	-1.4941	3.7834	6.3727	4.4851	5.151	8.7941	8.8106	5.8691	9.6691	9.5315	2.6113	-10.5523	-8.9867	-5.1482	8.1199	-0.9383	3.7944	3.2661
-6.1691	-1.1447	-1.3593	-1.3593	4.0063	6.5735	4.6529	5.3133	9.0142	8.9592	6.0315	9.8919	9.625	2.548	-10.445	-8.8188	-5.0382	7.9989	-0.8172	3.8137	3.3679
-5.9572	-0.9465	-1.1557	-1.1694	4.2182	6.8404	4.8538	5.5499	9.3031	9.1298	6.2076	10.0928	9.7186	2.4957	-10.2992	-8.6482	-4.9363	7.9273	-0.6494	3.8605	3.4808
-5.7646	-0.7429	-0.9053	-0.9713	4.4768	7.1018	5.0602	5.7783	9.5728	9.2866	6.3864	10.2992	9.7819	2.4407	-10.1754	-8.5217	-4.8208	7.776	-0.4843	3.8962	3.5826
-5.5499	-0.5118	-0.6329	-0.7732	4.7602	7.4018	5.272	6.0287	9.8534	9.4737	6.5955	10.5413	9.8699	2.3829	-10.0488	-8.3841	-4.7107	7.6274	-0.3192	3.921	3.7064
-5.2775	-0.2339	-0.3329	-0.5338	5.0739	7.7017	5.5472	6.3066	10.1754	9.6636	6.7937	10.778	9.958	2.3388	-9.8947	-8.2493	-4.6172	7.4788	-0.1321	3.9733	3.833
-5.0244	0.0303	-0.033	-0.2559	5.3711	8.0346	5.7618	6.5543	10.5028	9.8287	6.9973	11.0036	10.0213	2.2728	-9.7351	-8.1337	-4.4988	7.2642	0.0495	4.0173	3.9017
-4.7135	0.3357	0.3384	0.0165	5.7233	8.4364	6.059	6.8845	10.8605	10.046	7.2449	11.2677	10.0846	2.226	-9.5673	-7.9713	-4.4025	7.0826	0.2531	4.0723	4.0036
-4.3915	0.6384	0.6962	0.3109	6.0645	8.7831	6.3424	7.1871	11.2265	10.2552	7.4816	11.5429	10.1533	2.16	-9.3967	-7.809	-4.2842	6.8625	0.4513	4.1054	4.0806
-4.0393	0.9631	1.0924	0.6549	6.4525	9.2041	6.6836	7.5118	11.6475	10.5028	7.7457	11.8153	10.2304	2.127	-9.1875	-7.6219	-4.1907	6.6643	0.6329	4.2017	4.1604
-3.6734	1.3455	1.5134	1.0043	6.8487	9.6278	7	7.8805	12.0409	10.7339	8.0099	12.1097	10.3184	2.0747	-8.9757	-7.3935	-4.0889	6.4415	0.8447	4.2429	4.2512
-3.2909	1.7418	1.9839	1.3978	7.2724	10.0625	7.3853	8.2355	12.4784	10.9898	8.263	12.4069	10.4203	2.0252	-8.7445	-7.1486	-3.9981	6.2158	1.0511	4.2897	4.32
-2.8809	2.094	2.4241	1.761	7.6797	10.5303	7.732	8.5849	12.8994	11.2595	8.5327	12.7013	10.5386	1.9921	-8.4831	-6.8872	-3.91	5.9847	1.252	4.3613	4.364
-2.4737	2.4902	2.8644	2.1545	8.0869	10.9761	8.0979	8.9454	13.3314	11.5209	8.7693	12.9765	10.6156	1.9399	-8.2052	-6.59	-3.8164	5.7426	1.4611	4.408	4.397
-2.0252	2.8837	3.3404	2.57	8.5051	11.4163	8.4721	9.3004	13.7387	11.7988	9.0169	13.2654	10.7367	1.9013	-7.9328	-6.2544	-3.7477	5.5472	1.6399	4.4878	4.4301
-1.5959	3.2936	3.8137	2.9607	8.9151	11.8483	8.8436	9.6333	14.1486	12.0685	9.2673	13.5543	10.833	1.8601	-7.5779	-5.8939	-3.6734	5.3436	1.8188	4.5291	4.4328
-1.1612	3.7311	4.276	3.3872	9.3361	12.3023	9.2261	10.002	14.5889	12.3821	9.4985	13.8212	10.9678	1.8353	-7.2339	-5.5059	-3.6211	5.162	2.0197	4.6006	4.4741
-0.6686	4.1411	4.7602	3.7972	9.7489	12.7591	9.6113	10.3239	14.9879	12.649	9.7213	14.0661	11.0751	1.8215	-6.8845	-5.0602	-3.5743	4.9969	2.1985	4.6832	4.4768
-0.1981	4.5676	5.2335	4.2457	10.1423	13.1801	9.9855	10.6541	15.3511	12.9352	9.9305	14.2972	11.1632	1.7913	-6.5047	-4.5814	-3.5358	4.84	2.4021	4.7547	4.4933
0.2339	4.9556	5.638	4.6172	10.5193	13.5653	10.3487	10.9238	15.7226	13.1526	10.0625	14.4788	11.2237	1.761	-6.147	-4.1164	-3.4753	4.6502	2.5232	4.807	4.4741
0.6824	5.3573	6.081	5.0189	10.8743	13.9808	10.7284	11.2127	16.0362	13.4497	10.2221	14.6577	11.3393	1.7473	-5.7646	-3.6541	-3.4505	4.5181	2.6966	4.9116	4.4603
1.1281	5.7398	6.5185	5.3959	11.2485	14.3578	11.0724	11.4604	16.3554	13.6781	10.3487	14.787	11.4053	1.75	-5.3986	-3.1726	-3.4312	4.3695	2.8314	4.9831	4.4135
1.5849	6.0645	6.8735	5.7701	11.5677	14.6687	11.3971	11.7025	16.6361	13.8983	10.4505	14.9108	11.4548	1.7335	-5.0326	-2.7076	-3.401	4.2182	2.9332	5.0547	4.32
1.9811	6.436	7.2422	6.1388	11.8703	15.0071	11.7273	11.8951	16.9002	14.1376	10.5166	15.0209	11.5126	1.7225	-4.6777	-2.2425	-3.3844	4.0999	3.0322	5.1372	4.2319
2.3801	6.7441	7.5806	6.4772	12.118	15.2658	12.0244	12.074	17.1204	14.3275	10.5331	15.0897	11.5512	1.728	-4.3172	-1.8243	-3.3844	3.987	3.0983	5.2418	4.1081
2.7736	7.0028	7.9108	6.8074	12.3656	15.541	12.3326	12.2335	17.346	14.5476	10.5331	15.1337	11.6199	1.7335	-3.9788	-1.384	-3.3844	3.877	3.1781	5.3216	3.9898
3.123	7.2669	8.2162	7.1018	12.6023	15.7913	12.6408	12.3684	17.5083	14.776	10.5358	15.1722	11.6832	1.7225	-3.6706	-0.9878	-3.3789	3.822	3.2249	5.4096	3.866
3.456	7.5118	8.4584	7.4155	12.8196	15.995	12.8939	12.5005	17.6652	14.9604	10.5221	15.2273	11.7795	1.7142	-3.3514	-0.6411	-3.3844	3.7972	3.2744	5.5252	3.7256
3.7697	7.7677	8.706	7.6742	12.9847	16.1711	13.1718	12.594	17.833	15.1805	10.4973	15.274	11.8841	1.7225	-3.013	-0.2586	-3.4037	3.7807	3.3322	5.6435	3.5743
4.0999	7.9658	8.9427	7.9548	13.1608	16.3224	13.4277	12.6738	17.9706	15.3704	10.4505	15.3126	11.9776	1.7473	-2.7048	0.1046	-3.4367	3.822	3.3432	5.8169	3.4395
4.3585	8.1117	9.127	8.197	13.3259	16.4682	13.6589	12.7591	18.0807	15.5712	10.39	15.3263	12.0987	1.761	-2.4296	0.4568	-3.4532	3.8797	3.3569	5.9489	3.2909
4.5649	8.2685	9.2563	8.3758	13.4332	16.548	13.8432	12.7784	18.1192	15.7363	10.3322	15.3181	12.2088	1.772	-2.1738	0.7952	-3.478	3.932	3.3652	6.092	3.1341
4.73	8.3731	9.3719	8.5629	13.5103	16.6003	14.0303	12.7976	18.1852	15.8766	10.2331	15.3016	12.3243	1.7803	-1.9756	1.0924	-3.4945	4.0586	3.3707	6.2681	2.9635
4.9171	8.4666	9.4434	8.7308	13.5791	16.6663	14.2092	12.8251	18.1907	16.0445	10.1644	15.2906	12.4372	1.7968	-1.7693	1.4033	-3.5303	4.1687	3.3377	6.4442	2.8039
5.0024	8.5217	9.4875	8.8436	13.6258	16.6498	14.3605	12.7866	18.1742	16.1683	10.046	15.23	12.5445	1.8078	-1.6289	1.6537	-3.5578	4.298	3.3267	6.5735	2.6415
5.1235	8.5547	9.4957	8.9564	13.6451	16.6223	14.4816	12.7481	18.1329	16.2784	9.9497	15.186	12.6298	1.8243	-1.5244	1.8766	-3.5963	4.4493	3.2936	6.7661	2.5149
5.184	8.5684	9.4957	9.05	13.6479	16.5976	14.5751	12.7041	18.0779	16.3774	9.8342	15.12	12.7619	1.8463	-1.4583	2.0527	-3.6293	4.6337	3.2689	6.8982	2.3884
5.195	8.5244	9.4407	9.0885	13.5901	16.5013	14.6494	12.6188	17.9761	16.438	9.7406	15.0402	12.8527	1.8573	-1.4006	2.1765	-3.6706	4.7712	3.2276	7.0441	2.248
5.173	8.4804	9.3664	9.1132	13.524	16.4105	14.7155	12.561	17.9046	16.5288	9.6223	14.9714	12.982	1.8903	-1.4033	2.248	-3.7174	4.9529	3.1698	7.1899	2.1517
5.1179	8.3951	9.2783	9.149	13.458	16.3004	14.7568	12.4674	17.789	16.57	9.5673	14.9136	13.0728	1.8931	-1.4363	2.2756	-3.7504	5.1345	3.1203	7.311	2.0829
5.1097	8.307	9.1793	9.1573	13.414	16.1738	14.7925	12.4124	17.6707	16.6416	9.471	14.8503	13.1938	1.9344	-1.4281	2.2535	-3.8109	5.3023	3.079	7.41	2.0389
5.0244	8.2272	9.0527	9.149	13.3122	16.072	14.8365	12.3546	17.5799	16.6746	9.4544	14.7898	13.2984	1.9426	-1.4886	2.1903	-3.8302	5.4839	3.0377	7.5036	1.9949
4.9363	8.0979	8.9234	9.138	13.2351	15.9399	14.831	12.2776	17.4616	16.6939	9.4434	14.754	13.3892	1.9619	-1.5436	2.0719	-3.8632	5.6655	3.013	7.5999	2.0334
4.8098	7.9713	8.7748	9.0775	13.1223	15.7748	14.8063	12.2446	17.3377	16.7076	9.4792	14.7182	13.469	1.9674	-1.6234	1.9151	-3.8742	5.8031	3.0102	7.6632	2.0747
4.6942	7.842	8.5849	9.0252	13.0315	15.651	14.7953	12.2115	17.2359	16.7104	9.526	14.7155	13.5873	1.9701	-1.7087	1.7252	-3.8962	5.9627	2.9937	7.7237	2.1765
4.5346	7.7237	8.4281	8.9619	12.9352	15.4887	14.7457	12.184	17.1369	16.6966	9.6058	14.6797	13.6589	1.9646	-1.8078	1.5491	-3.888	6.1058	2.9717	7.776	2.2591
4.3695	7.5861	8.2437	8.8876	12.8196	15.3208	14.6715	12.1455	17.0186	16.6746	9.6828	14.6907	13.6974	1.9674	-1.9234	1.373	-3.877	6.2158	2.958	7.8035	2.3856
4.1769	7.4403	8.0401	8.7941	12.7233	15.1337	14.6109	12.1125	16.8975	16.6306	9.7901	14.6659	13.7744	1.9591	-2.0252	1.1832	-3.8742	6.3259	2.9635	7.8228	2.548
4.0146	7.2614	7.8283	8.6868	12.6023	14.9796	14.5311	12.1152	16.7764	16.5563	9.8919	14.6412	13.813	1.9646	-2.1517	1.0208	-3.8605	6.4305	2.958	7.8475	2.7158
3.8192	7.0936	7.6246	8.5684	12.4757	14.754	14.3908	12.0932	16.6223	16.4462	10.0075	14.6109	13.7909	1.9701	-2.2535	0.8723	-3.8605	6.491	2.9552	7.8338	2.8809
3.5798	6.9588	7.4128	8.4391	12.3546	14.5531	14.2477	12.0464	16.4737	16.3141	10.1396	14.5641	13.7854	1.9454	-2.4049	0.7292	-3.8385	6.5488	2.9332	7.8035	3.0653
3.3542	6.7579	7.1679	8.2713	12.1758	14.3358	14.0854	12.0024	16.2811	16.1491	10.2331	14.4981	13.7139	1.9454	-2.537	0.6274	-3.8164	6.5598	2.9194	7.754	3.2304
3.1423	6.5708	6.9175	8.1254	12.0299	14.0964	13.912	11.9639	16.0968	15.9674	10.3294	14.4183	13.6396	1.9316	-2.6058	0.5173	-3.8109	6.5873	2.8727	7.6852	3.39
2.8974	6.3754	6.6643	7.9411	11.8566	13.8597	13.6864	11.8924	15.8766	15.7666	10.412	14.3303	13.5185	1.9179	-2.7323	0.454	-3.7807	6.5818	2.8616	7.6026	3.5798
2.6525	6.1801	6.4194	7.7705	11.6777	13.6176	13.4855	11.774	15.6758	15.5272	10.4863	14.2257	13.3865	1.9068	-2.7956	0.421	-3.7504	6.546	2.7984	7.4761	3.7394
2.4324	5.9737	6.2076	7.5861	11.4879	13.3672	13.2681	11.6805	15.4364	15.3153	10.5496	14.1156	13.2296	1.9041	-2.8424	0.41	-3.7422	6.5185	2.7626	7.3632	3.888
2.1985	5.7481	5.9379	7.388	11.287	13.0893	13.0205	11.5897	15.2218	15.0209	10.6156	14.0028	13.0425	1.8848	-2.8782	0.4127	-3.7256	6.4305	2.6993	7.1954	4.0531
1.9921	5.5582	5.7343	7.2119	11.0916	12.8554	12.7976	11.4851	14.9934	14.7595	10.6817	13.8817	12.8884	1.8876	-2.8892	0.421	-3.7174	6.3809	2.6663	7.0523	4.2347
1.7555	5.3546	5.5087	7.0386	10.8908	12.605	12.5445	11.3695	14.7485	14.4678	10.7257	13.7744	12.6683	1.8766	-2.9359	0.421	-3.7036	6.2709	2.6058	6.8845	4.3998
1.5629	5.1482	5.3023	6.8652	10.6844	12.3574	12.3078	11.232	14.5256	14.1899	10.7587	13.6451	12.4867	1.8848	-2.9442	0.4182	-3.6954	6.1718	2.581	6.7359	4.5704
1.3428	4.9363	5.0657	6.6478	10.4643	12.0932	12.0382	11.1109	14.267	13.868	10.7807	13.5048	12.2225	1.8601	-2.9332	0.3495	-3.6734	6.0287	2.5425	6.524	4.7272
1.1419	4.7107	4.829	6.4607	10.2414	11.8263	11.774	10.9513	13.9973	13.5708	10.7807	13.3479	11.9666	1.8601	-2.9772	0.2697	-3.6458	5.9407	2.4764	6.3479	4.8758
0.9438	4.5016	4.6309	6.2709	10.002	11.5594	11.5291	10.778	13.7497	13.2489	10.7697	13.2049	11.7162	1.8408	-3.0075	0.1486	-3.6238	5.7756	2.4572	6.1746	5.0464
0.7347	4.298	4.397	6.0672	9.7654	11.276	11.21	10.5964	13.4938	12.9132	10.7229	13.0315	11.4466	1.8133	-3.0735	-0.0193	-3.5798	5.6215	2.3939	5.9682	5.184
0.5173	4.0778	4.1714	5.8829	9.5315	11.0339	10.9513	10.401	13.1938	12.5665	10.6294	12.8031	11.1439	1.8078	-3.101	-0.1954	-3.5523	5.4619	2.3141	5.8003	5.2968
0.2972	3.866	3.9458	5.6518	9.2701	10.7449	10.6679	10.1589	12.8994	12.2308	10.5221	12.5968	10.855	1.783	-3.1946	-0.4182	-3.5028	5.2885	2.2728	5.583	5.3849
0.1128	3.6266	3.7091	5.4426	9.0169	10.4368	10.368	9.9332	12.5885	11.8538	10.3762	12.3684	10.5496	1.7528	-3.3432	-0.6494	-3.4477	5.1124	2.1985	5.4124	5.4757
-0.066	3.4202	3.4863	5.239	8.7721	10.1836	10.0791	9.6828	12.2886	11.5154	10.2249	12.1125	10.2276	1.728	-3.4367	-0.886	-3.39	4.9556	2.127	5.2335	5.4949
-0.2614	3.2221	3.2689	5.0574	8.5051	9.9002	9.8011	9.4214	11.9887	11.1742	10.0213	11.8648	9.936	1.7087	-3.5771	-1.1309	-3.3432	4.7878	2.0554	5.0437	5.5362
-0.443	3.0267	3.0653	4.8621	8.2548	9.6085	9.5205	9.1573	11.6667	10.8357	9.8122	11.5732	9.592	1.662	-3.7119	-1.3318	-3.2771	4.6392	1.9977	4.8676	5.5389
-0.6274	2.8286	2.8451	4.6667	7.9989	9.3306	9.2563	8.8876	11.3668	10.5028	9.5645	11.2787	9.2508	1.6289	-3.888	-1.5024	-3.2056	4.4301	1.8931	4.719	5.5224
-0.7842	2.669	2.669	4.4878	7.776	9.0692	9.0087	8.607	11.0696	10.1919	9.3251	11.0008	8.9509	1.6097	-4.0366	-1.6537	-3.1561	4.2622	1.805	4.5759	5.4894
-0.93	2.4627	2.4599	4.32	7.4871	8.8078	8.7363	8.3456	10.7642	9.8892	9.0555	10.7092	8.662	1.5684	-4.1769	-1.7555	-3.101	4.1219	1.7583	4.4548	5.4399
-1.0539	2.2838	2.3058	4.1687	7.3055	8.596	8.5162	8.0787	10.4863	9.603	8.7831	10.434	8.3786	1.5519	-4.3172	-1.8408	-3.0433	3.9678	1.651	4.3227	5.3959
-1.1722	2.1655	2.1682	4.0503	7.0908	8.3648	8.329	7.8393	10.2442	9.3471	8.5299	10.1644	8.1199	1.5299	-4.4025	-1.8408	-3.002	3.8027	1.6179	4.2182	5.3243
-1.2602	2.0114	2.0142	3.9073	6.8845	8.1502	8.1227	7.6081	10.002	9.1188	8.2493	9.9167	7.8695	1.4941	-4.5181	-1.8766	-2.9359	3.6569	1.5436	4.1246	5.239
-1.384	1.8738	1.8793	3.7807	6.7221	7.9741	7.9438	7.399	9.7654	8.8931	7.9741	9.6223	7.6246	1.4693	-4.5869	-1.8903	-2.8864	3.5028	1.5079	4.0311	5.1647
-1.4666	1.7445	1.7445	3.6486	6.524	7.7787	7.7897	7.1761	9.5287	8.6757	7.6907	9.3526	7.3908	1.4198	-4.6392	-1.8903	-2.8204	3.3679	1.4308	3.9348	5.0216
-1.5546	1.651	1.6317	3.5578	6.3754	7.6081	7.6164	6.978	9.3004	8.4886	7.41	9.0912	7.1486	1.3978	-4.6639	-1.8876	-2.7736	3.2441	1.362	3.8385	4.9006
-1.6647	1.5244	1.4859	3.4312	6.2076	7.4045	7.4458	6.7386	9.0692	8.274	7.0798	8.8216	6.9092	1.3813	-4.7135	-1.9124	-2.7241	3.1175	1.263	3.7614	4.73
-1.7748	1.4363	1.362	3.3212	6.0562	7.2422	7.3027	6.5405	8.8546	8.1007	6.7909	8.5382	6.6919	1.3703	-4.7382	-1.9701	-2.6773	2.9855	1.1832	3.6679	4.5346
-1.8601	1.3263	1.2245	3.1946	5.9214	7.0963	7.1514	6.3341	8.629	7.9466	6.491	8.2575	6.491	1.3318	-4.7272	-2.0334	-2.6333	2.8837	1.1199	3.5798	4.3558
-1.9866	1.2079	1.0896	3.0763	5.7756	6.9175	7.0028	6.1333	8.4061	7.7595	6.1718	7.9631	6.2681	1.3098	-4.7602	-2.1105	-2.5782	2.7763	1.0153	3.5083	4.1411
-2.0554	1.1144	0.9658	2.9745	5.6518	6.7964	6.8762	5.9462	8.2355	7.5806	5.8691	7.6824	6.0865	1.2822	-4.7437	-2.1875	-2.5342	2.6911	0.9383	3.3982	3.9155
-2.138	0.9988	0.8475	2.8644	5.5224	6.6506	6.7661	5.7508	8.0071	7.454	5.5692	7.4183	5.8801	1.2685	-4.7382	-2.2646	-2.4902	2.5727	0.831	3.3102	3.6651
-2.2343	0.9548	0.7622	2.7626	5.4509	6.5158	6.6258	5.6105	7.8173	7.3275	5.2885	7.1404	5.6903	1.2382	-4.697	-2.3664	-2.4489	2.4682	0.7512	3.2111	3.4312
-2.2921	0.897	0.6686	2.6966	5.3408	6.4277	6.5488	5.4426	7.6632	7.1981	5.0161	6.8982	5.5279	1.2272	-4.6749	-2.4186	-2.4214	2.4104	0.6659	3.1588	3.1808
-2.3554	0.809	0.5971	2.6168	5.261	6.3369	6.4717	5.2968	7.5008	7.0798	4.7547	6.6533	5.3601	1.2107	-4.6612	-2.4737	-2.3911	2.3554	0.5586	3.101	2.9332
-2.3911	0.7704	0.5256	2.592	5.2198	6.2709	6.4167	5.1867	7.3632	6.9973	4.5071	6.4745	5.2143	1.2024	-4.5896	-2.5094	-2.3829	2.3031	0.5063	3.0377	2.7268
-2.3664	0.7457	0.4898	2.559	5.1895	6.2351	6.3837	5.1097	7.2614	6.9202	4.3007	6.2791	5.1069	1.2107	-4.5098	-2.5507	-2.3884	2.2756	0.4485	2.9937	2.5149
-2.3994	0.7209	0.454	2.5397	5.1372	6.1828	6.3562	5.0106	7.1569	6.8377	4.0751	6.0865	4.9446	1.2134	-4.4301	-2.57	-2.3829	2.215	0.366	2.9304	2.2866
-2.3691	0.7154	0.476	2.5425	5.1179	6.1828	6.3479	4.9501	7.0936	6.7717	3.8907	5.9324	4.8428	1.2134	-4.3503	-2.548	-2.3856	2.16	0.3219	2.9194	2.0912
-2.3306	0.7154	0.465	2.5645	5.1097	6.147	6.3479	4.8786	6.9945	6.7001	3.6899	5.7646	4.7162	1.2079	-4.2484	-2.592	-2.3691	2.0912	0.2504	2.8782	1.8683
-2.2646	0.7649	0.5035	2.5782	5.1069	6.1525	6.3397	4.829	6.9422	6.6643	3.5055	5.6077	4.5814	1.2052	-4.1576	-2.5645	-2.3581	2.0197	0.1871	2.8644	1.6785
-2.171	0.8062	0.5476	2.6333	5.1262	6.1801	6.3617	4.8043	6.9037	6.6093	3.3597	5.4646	4.4713	1.219	-4.0118	-2.4874	-2.3801	1.9839	0.1348	2.8727	1.5161
-2.0857	0.8365	0.5558	2.6635	5.1317	6.2076	6.3644	4.7492	6.8459	6.5433	3.1918	5.3161	4.3365	1.2024	-3.899	-2.4379	-2.3554	1.8876	0.0853	2.8424	1.318
-2.0032	0.8778	0.6164	2.6993	5.1317	6.2048	6.3699	4.6997	6.7744	6.48	3.0157	5.1647	4.1907	1.1969	-3.7779	-2.3499	-2.3636	1.8188	0.0468	2.8341	1.1612
-1.8876	0.941	0.6769	2.7708	5.1537	6.2406	6.3947	4.6749	6.7221	6.4415	2.8809	5.0216	4.0889	1.2107	-3.6734	-2.2728	-2.3636	1.739	0.011	2.8149	0.9906
-1.8023	0.9713	0.6962	2.7956	5.1345	6.2268	6.3809	4.6172	6.6753	6.3589	2.6883	4.851	3.9348	1.2024	-3.6073	-2.204	-2.3388	1.6262	-0.0413	2.7708	0.8282
-1.7142	1.0071	0.7594	2.8341	5.1482	6.2268	6.3754	4.5676	6.6368	6.2791	2.5397	4.6997	3.8109	1.1887	-3.5165	-2.1242	-2.3196	1.5381	-0.0853	2.7543	0.6741
-1.5987	1.0401	0.8007	2.8809	5.1427	6.2241	6.3479	4.4988	6.5323	6.1938	2.3499	4.5319	3.6458	1.1749	-3.4725	-2.0032	-2.2866	1.4281	-0.1348	2.7241	0.509
-1.5271	1.0841	0.8585	2.9414	5.1235	6.2488	6.3534	4.4466	6.4745	6.1195	2.2398	4.364	3.5083	1.1447	-3.4147	-1.8903	-2.248	1.34	-0.1541	2.6911	0.4045
-1.4088	1.1254	0.93	2.98	5.1455	6.2516	6.3507	4.3723	6.4222	6.0315	2.0389	4.2044	3.3432	1.1199	-3.3267	-1.739	-2.2178	1.2107	-0.1651	2.6305	0.3027
-1.3428	1.1612	0.9878	3.0295	5.1069	6.2323	6.3314	4.2952	6.3507	5.9269	1.8683	4.0338	3.1643	1.0979	-3.2771	-1.6399	-2.1682	1.1144	-0.1844	2.5975	0.1871
-1.2355	1.1997	1.0704	3.0845	5.0877	6.2461	6.3286	4.2017	6.2984	5.8636	1.6895	3.866	3.013	1.0896	-3.2249	-1.5024	-2.1352	1.0181	-0.2064	2.5672	0.0853
-1.1226	1.2272	1.1281	3.1506	5.0684	6.2488	6.3231	4.1164	6.2433	5.7701	1.5079	3.7009	2.8534	1.0786	-3.1616	-1.3703	-2.1132	0.919	-0.2229	2.5975	0.011
-1.0126	1.2272	1.2355	3.1946	5.0326	6.2378	6.2929	4.0118	6.147	5.671	1.3125	3.5193	2.6745	1.0429	-3.1093	-1.2575	-2.0554	0.7925	-0.2256	2.5727	-0.1073
-0.8943	1.2547	1.3153	3.2551	5.0051	6.2764	6.2819	3.921	6.103	5.6077	1.1364	3.3294	2.559	1.0236	-3.0845	-1.0896	-2.0142	0.7044	-0.2256	2.581	-0.1789
-0.8007	1.2685	1.4006	3.3239	4.9473	6.2874	6.3011	3.8192	6.048	5.5444	0.952	3.1836	2.4104	1.0126	-3.0102	-0.9576	-1.9839	0.5888	-0.2586	2.6085	-0.2449
-0.6851	1.3125	1.5161	3.423	4.9171	6.3424	6.3149	3.7146	6.026	5.4949	0.7842	3.0322	2.3003	0.9933	-2.9469	-0.8117	-1.9619	0.5668	-0.2146	2.6745	-0.3054
-0.5558	1.3125	1.6372	3.5083	4.8676	6.3672	6.3204	3.5963	5.9654	5.4564	0.6026	2.8864	2.1875	0.9961	-2.8589	-0.6329	-1.9536	0.4733	-0.2256	2.7241	-0.3439
-0.4292	1.3483	1.7555	3.6128	4.8235	6.4139	6.3864	3.4863	5.9187	5.4014	0.4485	2.7296	2.0719	0.9823	-2.8121	-0.454	-1.9316	0.399	-0.2174	2.7984	-0.377
-0.3384	1.3593	1.8958	3.7201	4.7905	6.4552	6.4194	3.3762	5.8719	5.3408	0.2697	2.5947	1.9619	0.9851	-2.7296	-0.2862	-1.9234	0.366	-0.2229	2.8616	-0.4292
-0.2229	1.3758	2.0307	3.8164	4.7272	6.513	6.4552	3.2579	5.8471	5.3188	0.077	2.4352	1.8656	0.9851	-2.658	-0.1376	-1.9206	0.3274	-0.2531	2.9497	-0.476
-0.1046	1.3978	2.1655	3.9293	4.6584	6.5735	6.491	3.1341	5.7921	5.2803	-0.1211	2.2811	1.7885	0.9988	-2.548	0.0303	-1.9316	0.3027	-0.2531	3.0185	-0.5338
-0.022	1.3896	2.2646	4.0311	4.5979	6.6038	6.5103	3.002	5.7426	5.2555	-0.2862	2.0995	1.6785	1.0016	-2.4819	0.1541	-1.9371	0.2999	-0.2862	3.0653	-0.5861
0.0468	1.3785	2.3609	4.1054	4.5319	6.6478	6.5488	2.8479	5.6655	5.2143	-0.5173	1.9536	1.5932	1.0043	-2.4186	0.2697	-1.9536	0.2642	-0.3274	3.1175	-0.6521
0.1376	1.3675	2.4682	4.1797	4.4548	6.6698	6.5625	2.7131	5.5775	5.1455	-0.7099	1.7528	1.4666	1.0126	-2.3388	0.3605	-1.9729	0.2366	-0.3605	3.1808	-0.7044
0.1816	1.3373	2.5535	4.265	4.3778	6.7276	6.6011	2.5672	5.4949	5.1372	-0.908	1.5767	1.3675	1.0208	-2.2811	0.4072	-1.9894	0.2256	-0.4403	3.2083	-0.8035
0.2366	1.3565	2.636	4.331	4.331	6.7441	6.5955	2.4462	5.4371	5.1124	-1.1364	1.4006	1.2767	1.0318	-2.204	0.4568	-2.0142	0.2256	-0.4843	3.2469	-0.875
0.2669	1.3235	2.6911	4.3585	4.2347	6.7386	6.5955	2.3058	5.3216	5.0684	-1.3235	1.1942	1.1832	1.0401	-2.149	0.4678	-2.0252	0.2256	-0.5613	3.2799	-0.9878
0.2807	1.318	2.7433	4.4163	4.1384	6.7166	6.6066	2.1655	5.228	5.0271	-1.5326	1.0181	1.1116	1.0429	-2.0747	0.4953	-2.0444	0.2311	-0.6274	3.3047	-1.0566
0.3384	1.3125	2.7929	4.4851	4.1026	6.7386	6.6341	2.0609	5.1345	5.0244	-1.6647	0.853	1.0649	1.0786	-2.0087	0.5228	-2.0802	0.2614	-0.6824	3.3487	-1.1144
0.366	1.296	2.8534	4.5181	4.0503	6.7441	6.6478	1.9481	5.0492	4.9914	-1.8546	0.7127	0.9823	1.0676	-1.9151	0.5476	-2.1105	0.2697	-0.7319	3.3872	-1.2134
0.3962	1.2767	2.8892	4.5759	3.9595	6.7166	6.6506	1.8463	4.9584	4.9859	-2.0032	0.5586	0.9328	1.0731	-1.8463	0.5586	-2.1187	0.2944	-0.809	3.4037	-1.3098
0.432	1.2602	2.9139	4.5924	3.9128	6.6974	6.6616	1.794	4.8758	4.9666	-2.0967	0.4265	0.9108	1.0676	-1.794	0.5998	-2.116	0.2999	-0.8778	3.412	-1.3923
0.432	1.2685	2.9442	4.6474	3.888	6.6836	6.6643	1.7473	4.8208	4.9996	-2.193	0.355	0.9025	1.0869	-1.7307	0.6631	-2.138	0.3467	-0.919	3.456	-1.4693
0.4403	1.2877	2.991	4.6804	3.8467	6.6671	6.6753	1.706	4.7382	5.0024	-2.2728	0.2229	0.8943	1.0869	-1.7115	0.6769	-2.1352	0.3632	-0.9658	3.4642	-1.5244
0.465	1.2712	2.9937	4.7107	3.8247	6.6258	6.6671	1.6867	4.6804	5.0161	-2.2976	0.1926	0.93	1.0786	-1.6867	0.7044	-2.1297	0.4348	-1.0098	3.4505	-1.5629
0.4623	1.2767	2.9965	4.6915	3.8109	6.6038	6.6533	1.6427	4.6392	5.0354	-2.3223	0.1321	0.9328	1.0896	-1.6675	0.7347	-2.1242	0.4788	-1.0511	3.4697	-1.6069
0.4705	1.3125	2.9992	4.708	3.8164	6.59	6.6891	1.6785	4.6117	5.0684	-2.2948	0.1431	1.0071	1.0759	-1.6262	0.7457	-2.1132	0.5366	-1.0511	3.4725	-1.6014
0.5035	1.3098	3.024	4.73	3.8137	6.5955	6.7029	1.706	4.6117	5.1235	-2.2563	0.1513	1.0759	1.0621	-1.5877	0.7649	-2.1022	0.6053	-1.0539	3.5028	-1.5987
0.5366	1.3373	3.0488	4.7382	3.8522	6.568	6.7166	1.7363	4.5924	5.1702	-2.1682	0.1761	1.1914	1.0539	-1.5767	0.787	-2.0747	0.6796	-1.0456	3.4973	-1.5657
0.5366	1.3675	3.0598	4.763	3.8797	6.5763	6.7221	1.8078	4.5979	5.217	-2.0582	0.2091	1.2547	1.0373	-1.5161	0.8227	-2.0472	0.7539	-1.0456	3.4973	-1.5244
0.5723	1.4308	3.101	4.7602	3.9017	6.5763	6.7221	1.8628	4.6144	5.2803	-1.9481	0.2807	1.3896	1.0373	-1.4914	0.8667	-2.0252	0.8365	-1.0291	3.5413	-1.4721
0.6164	1.4666	3.1368	4.7878	3.9595	6.6011	6.7524	1.9536	4.6612	5.3326	-1.805	0.355	1.5216	1.0236	-1.4611	0.8998	-2.0142	0.919	-0.9933	3.5771	-1.3978
0.6521	1.5271	3.1451	4.785	3.9898	6.5845	6.7469	2.0499	4.6942	5.4041	-1.6702	0.4403	1.6372	1.0016	-1.4198	0.919	-1.9811	0.9961	-0.9328	3.5881	-1.3098
0.6962	1.5849	3.1588	4.7602	4.0393	6.5928	6.7634	2.1242	4.7272	5.4344	-1.4831	0.5503	1.7445	0.9961	-1.4088	0.9273	-1.9371	1.0704	-0.8998	3.6211	-1.2382
0.7484	1.6344	3.1946	4.796	4.1109	6.6066	6.7799	2.2205	4.7878	5.5059	-1.3098	0.6714	1.8986	0.9768	-1.3785	0.941	-1.9124	1.1447	-0.8695	3.6431	-1.1557
0.798	1.651	3.2139	4.7685	4.1356	6.6231	6.7744	2.3141	4.8235	5.5279	-1.1309	0.7759	1.9977	0.952	-1.3565	0.9383	-1.8793	1.2024	-0.831	3.6431	-1.0704
0.8475	1.695	3.2441	4.7823	4.2099	6.6258	6.7689	2.4186	4.8841	5.5775	-0.9631	0.9273	2.0995	0.941	-1.3208	0.919	-1.8518	1.241	-0.7897	3.6348	-0.9988
0.8998	1.7142	3.2551	4.7685	4.2402	6.6423	6.7992	2.5122	4.9501	5.616	-0.7374	1.0621	2.2205	0.941	-1.3373	0.8667	-1.8463	1.2932	-0.7374	3.6651	-0.9245
0.9658	1.7775	3.2799	4.7795	4.3035	6.6478	6.7799	2.6223	5.0161	5.6242	-0.5421	1.2052	2.3113	0.93	-1.3373	0.8392	-1.8436	1.34	-0.7072	3.6651	-0.82
1.0016	1.7803	3.3267	4.7823	4.3365	6.6643	6.7909	2.7048	5.0767	5.6463	-0.3467	1.3565	2.4214	0.9245	-1.329	0.8062	-1.8353	1.362	-0.6439	3.6789	-0.7649
1.0484	1.8271	3.3184	4.763	4.3915	6.7029	6.8074	2.8369	5.1785	5.6738	-0.1348	1.5051	2.4957	0.9383	-1.3373	0.809	-1.8353	1.3813	-0.5888	3.6816	-0.6631
1.1089	1.8573	3.3432	4.7823	4.4273	6.7029	6.8019	2.9167	5.217	5.6793	0.0358	1.662	2.5452	0.9383	-1.3675	0.7897	-1.8408	1.3703	-0.5476	3.6954	-0.5888
1.1226	1.8821	3.3734	4.741	4.4686	6.7084	6.7827	2.991	5.272	5.6325	0.1981	1.772	2.5837	0.9273	-1.362	0.8007	-1.816	1.3318	-0.5173	3.6871	-0.5558
1.1722	1.8848	3.3844	4.7575	4.4768	6.7111	6.7827	3.0377	5.3106	5.6242	0.3742	1.9041	2.5892	0.93	-1.3868	0.842	-1.8188	1.296	-0.4403	3.6789	-0.4815
1.2107	1.9124	3.401	4.7602	4.4933	6.7056	6.7579	3.101	5.3436	5.5912	0.5035	2.0142	2.603	0.9273	-1.3703	0.9245	-1.8298	1.2245	-0.3907	3.6734	-0.4265
1.3015	1.9509	3.4367	4.8015	4.5291	6.7276	6.7579	3.1698	5.3766	5.5444	0.6384	2.094	2.5727	0.9245	-1.3263	1.0484	-1.8243	1.1694	-0.3522	3.6514	-0.4072
1.3565	1.9784	3.478	4.829	4.5126	6.7469	6.7359	3.1698	5.3904	5.4674	0.7127	2.1407	2.5094	0.9218	-1.2822	1.1804	-1.8105	1.0649	-0.3412	3.6101	-0.4017
1.4171	2.0389	3.522	4.8896	4.5209	6.7496	6.7359	3.1863	5.4069	5.3876	0.7704	2.1985	2.4324	0.9108	-1.2107	1.3455	-1.7858	0.9631	-0.2972	3.5743	-0.41
1.4748	2.0472	3.5523	4.8896	4.5154	6.7469	6.7029	3.1588	5.4041	5.3243	0.798	2.2315	2.3746	0.9053	-1.1474	1.4804	-1.7665	0.8805	-0.2724	3.5275	-0.4292
1.5464	2.1022	3.6183	4.9473	4.5016	6.7469	6.6726	3.1423	5.3793	5.2445	0.8282	2.2233	2.2508	0.8888	-1.0153	1.6565	-1.75	0.798	-0.2697	3.489	-0.4705
1.6482	2.138	3.6734	5.0106	4.4906	6.7634	6.6836	3.1038	5.3683	5.1785	0.8117	2.215	2.1572	0.8888	-0.897	1.8463	-1.7418	0.6714	-0.2724	3.3982	-0.5476
1.739	2.1793	3.7256	5.0849	4.4713	6.7882	6.6726	3.0295	5.3436	5.0767	0.7567	2.1738	2.0279	0.8723	-0.7484	2.0114	-1.7142	0.5366	-0.3109	3.3624	-0.6576
1.8766	2.2398	3.8137	5.1565	4.4411	6.7909	6.7056	2.9442	5.3106	5.0106	0.6549	2.1462	1.8821	0.8778	-0.5861	2.2095	-1.728	0.3825	-0.3109	3.3157	-0.787
1.9866	2.2701	3.899	5.2473	4.4218	6.8184	6.6946	2.8506	5.2665	4.9033	0.5393	2.0692	1.7142	0.886	-0.4155	2.3884	-1.728	0.2504	-0.3302	3.2992	-0.9465
2.1215	2.3168	4.0173	5.3271	4.4053	6.8239	6.6891	2.7296	5.217	4.7878	0.41	1.9977	1.5464	0.886	-0.2064	2.5617	-1.7252	0.0963	-0.3907	3.2496	-1.1447
2.2535	2.3911	4.1054	5.4206	4.3695	6.8514	6.6919	2.603	5.1592	4.6832	0.2229	1.8848	1.3318	0.8723	-0.0385	2.7048	-1.7225	-0.0578	-0.4237	3.2001	-1.3675
2.3746	2.4434	4.2072	5.4867	4.3227	6.868	6.7001	2.4434	5.1097	4.5924	0	1.7528	1.1447	0.875	0.1321	2.8259	-1.7252	-0.2586	-0.5311	3.1561	-1.6152
2.5149	2.4957	4.32	5.594	4.2677	6.8927	6.7194	2.2811	5.0134	4.4878	-0.2449	1.6234	0.9355	0.8778	0.3247	3.002	-1.7197	-0.443	-0.6191	3.123	-1.8903
2.636	2.5149	4.3915	5.6738	4.2127	6.8955	6.6919	2.0802	4.9253	4.3723	-0.5448	1.4721	0.7127	0.8585	0.4788	3.123	-1.695	-0.6604	-0.7649	3.0928	-2.2205
2.7791	2.57	4.5043	5.7893	4.1521	6.8982	6.6974	1.8903	4.8565	4.2595	-0.8502	1.2822	0.465	0.8723	0.6521	3.2496	-1.706	-0.8447	-0.8695	3.0845	-2.5452
2.9139	2.6223	4.6062	5.8746	4.0916	6.9257	6.7029	1.6785	4.7492	4.1604	-1.1859	1.0731	0.2146	0.8667	0.7952	3.3404	-1.6895	-1.0676	-1.0208	3.0488	-2.9222
3.0653	2.658	4.7492	6.0067	4.0338	6.9505	6.7331	1.4583	4.6612	4.0613	-1.5464	0.8695	-0.033	0.8723	0.9823	3.467	-1.6977	-1.274	-1.1474	3.024	-3.3047
3.2441	2.7488	4.8455	6.114	3.9953	6.956	6.7386	1.2602	4.5869	3.9815	-1.9289	0.6631	-0.2779	0.864	1.1254	3.5495	-1.695	-1.4914	-1.285	3.024	-3.6706
3.3817	2.8121	4.9914	6.2241	3.9678	7.0083	6.7689	1.0208	4.5071	3.9017	-2.3141	0.4045	-0.52	0.8475	1.2822	3.6651	-1.6785	-1.7225	-1.4336	2.991	-4.0531
3.522	2.8837	5.0959	6.3286	3.9183	7.0386	6.7827	0.8227	4.4273	3.8054	-2.6993	0.1513	-0.7732	0.842	1.4116	3.7229	-1.6592	-1.9564	-1.5657	2.9855	-4.419
3.6926	2.9635	5.2225	6.4717	3.9128	7.1073	6.8074	0.6136	4.342	3.7449	-3.123	-0.1073	-1.0291	0.8337	1.5657	3.8495	-1.6289	-2.215	-1.7087	2.9497	-4.7933
3.8495	3.0433	5.3518	6.5818	3.8962	7.1376	6.8487	0.4127	4.2677	3.6706	-3.5028	-0.3742	-1.2767	0.8172	1.7363	3.9678	-1.5959	-2.4599	-1.7995	2.9552	-5.1455
4.0338	3.1533	5.4867	6.7166	3.91	7.2394	6.912	0.2586	4.2484	3.6403	-3.8825	-0.6191	-1.5271	0.8035	1.8986	4.1109	-1.5822	-2.68	-1.8876	2.9662	-5.4729
4.2127	3.2551	5.6325	6.8432	3.91	7.3192	6.9615	0.0798	4.1852	3.5771	-4.287	-0.8833	-1.7885	0.7897	2.0417	4.2595	-1.5326	-2.9607	-1.9894	2.9359	-5.8416
4.364	3.3322	5.7811	6.967	3.932	7.3963	7.0193	-0.0358	4.1301	3.5275	-4.6584	-1.1281	-2.0307	0.7594	2.2205	4.419	-1.5079	-3.2001	-2.0829	2.9002	-6.125
4.5429	3.4285	5.9021	7.0716	3.9513	7.4843	7.0661	-0.1596	4.1109	3.4945	-4.9886	-1.3758	-2.2563	0.7429	2.3994	4.5594	-1.4748	-3.467	-2.149	2.8919	-6.4194
4.7162	3.533	6.059	7.1926	4.0036	7.5999	7.1349	-0.2834	4.1246	3.4642	-5.3491	-1.5904	-2.4682	0.7402	2.5782	4.6942	-1.4501	-3.7146	-2.2068	2.8892	-6.6946
4.8978	3.6486	6.2241	7.3302	4.0751	7.7182	7.2147	-0.3467	4.1356	3.4642	-5.6463	-1.7858	-2.669	0.7237	2.7736	4.84	-1.4253	-3.954	-2.2535	2.8782	-6.9257
5.0767	3.7394	6.3644	7.443	4.1274	7.8255	7.3	-0.4045	4.1742	3.4477	-5.9297	-1.9839	-2.8589	0.6934	2.9332	4.9721	-1.373	-4.1934	-2.2893	2.8506	-7.1514
5.217	3.8495	6.491	7.5586	4.1824	7.9631	7.377	-0.465	4.2072	3.456	-6.2048	-2.1848	-3.0543	0.6851	3.123	5.0904	-1.329	-4.4218	-2.3086	2.7984	-7.355
5.3931	3.9513	6.6396	7.6632	4.2925	8.0731	7.454	-0.454	4.254	3.4642	-6.436	-2.3471	-3.1726	0.6604	3.2661	5.206	-1.2767	-4.6337	-2.2921	2.7653	-7.5559
5.5747	4.0751	6.8129	7.7595	4.4053	8.219	7.5366	-0.432	4.32	3.478	-6.6313	-2.5012	-3.3184	0.6246	3.423	5.283	-1.2272	-4.8345	-2.2921	2.7433	-7.7182
5.7288	4.1934	6.945	7.8695	4.4878	8.329	7.5861	-0.4348	4.3723	3.4973	-6.8322	-2.6443	-3.4422	0.5971	3.5798	5.3766	-1.1667	-5.0244	-2.3003	2.6718	-7.8503
5.8526	4.2705	7.0661	7.9521	4.5951	8.4281	7.6604	-0.4127	4.4135	3.533	-6.9945	-2.7901	-3.5661	0.5558	3.7174	5.4399	-1.1006	-5.2115	-2.2701	2.6085	-7.9521
5.9847	4.3723	7.1761	8.0456	4.6915	8.5574	7.7347	-0.3715	4.4631	3.5055	-7.1486	-2.9249	-3.6789	0.5145	3.833	5.4757	-1.0318	-5.3573	-2.2343	2.537	-8.0787
6.103	4.4686	7.2917	8.0897	4.785	8.6565	7.765	-0.3109	4.5043	3.5303	-7.2862	-3.035	-3.7697	0.4953	3.91	5.5334	-0.9713	-5.5004	-2.2013	2.4544	-8.1557
6.2213	4.5429	7.4045	8.1997	4.8923	8.7583	7.8255	-0.2614	4.5594	3.544	-7.3798	-3.1781	-3.8797	0.4485	3.9898	5.5554	-0.8943	-5.6683	-2.1848	2.3994	-8.2052
6.3066	4.6172	7.465	8.219	4.9914	8.8381	7.8613	-0.1816	4.5924	3.5385	-7.4623	-3.2744	-3.9348	0.421	3.9843	5.5444	-0.831	-5.7508	-2.1242	2.3223	-8.2217
6.3534	4.6804	7.5503	8.2575	5.0767	8.9316	7.864	-0.1128	4.6447	3.5385	-7.5283	-3.39	-4.0091	0.3962	4.0036	5.5499	-0.7704	-5.8636	-2.0499	2.248	-8.219
6.4222	4.7245	7.6081	8.2823	5.173	8.9564	7.8695	-0.0468	4.6254	3.4918	-7.5531	-3.4863	-4.0586	0.366	4.0036	5.5554	-0.7099	-5.9379	-1.9977	2.2013	-8.1887
6.4662	4.7768	7.6274	8.263	5.2198	8.9977	7.8558	0.022	4.6419	3.4505	-7.5834	-3.5771	-4.1439	0.3247	3.9788	5.5637	-0.6439	-6.004	-1.9234	2.0967	-8.1227
6.5213	4.8318	7.7127	8.285	5.3078	9.0527	7.8475	0.1101	4.6639	3.4257	-7.5806	-3.6569	-4.1824	0.2999	3.943	5.5775	-0.6026	-6.059	-1.8436	2.0114	-8.0209
6.5873	4.8896	7.7815	8.263	5.3656	9.0692	7.809	0.2009	4.6722	3.3927	-7.5476	-3.7229	-4.2347	0.2999	3.9073	5.594	-0.5668	-6.0727	-1.7528	1.9454	-7.9191
6.6011	4.8951	7.809	8.2437	5.4124	9.0857	7.7787	0.2834	4.6529	3.3404	-7.5036	-3.7752	-4.2457	0.2669	3.888	5.6352	-0.5118	-6.114	-1.6675	1.8821	-7.809
6.6258	4.9418	7.8448	8.2245	5.4399	9.094	7.732	0.3797	4.6667	3.2964	-7.4513	-3.8247	-4.2705	0.2256	3.8467	5.6738	-0.4568	-6.1085	-1.5932	1.8105	-7.6934
6.6341	4.9721	7.8723	8.1915	5.5087	9.0857	7.6797	0.4375	4.6419	3.2249	-7.3742	-3.8742	-4.2732	0.2009	3.844	5.7371	-0.388	-6.1168	-1.5106	1.7583	-7.5393
6.6808	5.0106	7.9026	8.164	5.5334	9.0802	7.6109	0.5421	4.6227	3.1918	-7.2642	-3.8742	-4.2484	0.1816	3.8302	5.7756	-0.3439	-6.0507	-1.4033	1.7142	-7.3385
6.7029	5.0519	7.9356	8.1364	5.5885	9.0995	7.6081	0.6604	4.6639	3.1533	-7.1541	-3.8632	-4.2127	0.1568	3.8412	5.8554	-0.2972	-5.993	-1.2877	1.6922	-7.1816
6.7001	5.0602	7.9576	8.0842	5.605	9.072	7.5256	0.7182	4.6502	3.0955	-7.0551	-3.866	-4.1797	0.1156	3.8522	5.9159	-0.2229	-5.9324	-1.2162	1.6344	-6.9945
6.7221	5.0987	7.9768	8.0429	5.6463	9.0527	7.4595	0.7897	4.6309	3.0625	-6.879	-3.8302	-4.0999	0.0963	3.8935	6.0177	-0.1761	-5.8251	-1.1089	1.6427	-6.7827
6.7304	5.1317	7.9658	7.9851	5.6297	8.9977	7.3853	0.8585	4.5814	2.9965	-6.7579	-3.8109	-4.0393	0.0633	3.899	6.059	-0.1156	-5.7123	-1.0401	1.6427	-6.6093
6.7386	5.1647	8.0264	7.9493	5.671	8.9867	7.3412	0.9108	4.5951	2.9992	-6.6148	-3.7614	-3.9678	0.0578	3.9705	6.1305	-0.0853	-5.5692	-0.9465	1.6592	-6.3974
6.7634	5.1922	8.0071	7.9218	5.6655	8.9454	7.2945	0.9988	4.5731	2.9772	-6.4332	-3.6981	-3.8522	0.0275	4.0393	6.2186	-0.0523	-5.4124	-0.8475	1.6757	-6.1746
6.7496	5.239	8.0154	7.8805	5.671	8.9096	7.2339	1.0429	4.5539	2.969	-6.2929	-3.6293	-3.7669	0.0083	4.1026	6.2846	-0.0193	-5.2693	-0.7622	1.7307	-5.9819
6.7524	5.2885	8.0181	7.8668	5.671	8.8739	7.2092	1.1171	4.5786	2.98	-6.1168	-3.555	-3.6486	0.0138	4.1714	6.3727	-0.0055	-5.1014	-0.6879	1.7885	-5.7673
6.7827	5.3353	8.0401	7.8778	5.715	8.8629	7.1926	1.1804	4.5924	2.9992	-5.9572	-3.4642	-3.5055	0.0193	4.2347	6.4635	-0.0138	-4.9418	-0.6081	1.8628	-5.5995
6.7937	5.3683	8.0429	7.8613	5.704	8.8161	7.1651	1.2547	4.5786	3.0157	-5.7563	-3.3542	-3.4037	0.0083	4.2952	6.5323	-0.0138	-4.7933	-0.5503	1.9013	-5.3573
6.8047	5.4316	8.0374	7.8695	5.7343	8.7858	7.1624	1.2905	4.6034	3.0377	-5.583	-3.2551	-3.2799	0.011	4.3365	6.5625	-0.0193	-4.6667	-0.4678	1.9426	-5.1922
6.8157	5.4784	8.0429	7.8805	5.7233	8.7721	7.1431	1.34	4.5924	3.0625	-5.4206	-3.1561	-3.1781	0.0303	4.3723	6.5708	-0.033	-4.5346	-0.3797	2.0142	-5.0299
6.8322	5.5252	8.0429	7.8888	5.7481	8.7555	7.1596	1.4033	4.6172	3.0955	-5.2473	-3.0185	-3.024	0.0165	4.3915	6.535	-0.022	-4.419	-0.3329	2.0472	-4.8703
6.8735	5.594	8.0511	7.9218	5.7866	8.717	7.1514	1.4693	4.6557	3.1451	-5.0739	-2.9222	-2.9249	0.0248	4.4356	6.4635	-0.033	-4.3117	-0.2669	2.0719	-4.7052
6.8707	5.6518	8.0539	7.9411	5.8169	8.7473	7.1789	1.4996	4.6887	3.1973	-4.8978	-2.7791	-2.8094	0.0358	4.4301	6.3369	-0.0468	-4.2182	-0.2119	2.094	-4.5731
6.8707	5.693	8.0429	7.9493	5.8334	8.739	7.2009	1.5519	4.7217	3.2359	-4.7547	-2.6773	-2.7048	0.0193	4.4108	6.1443	-0.0468	-4.1687	-0.1321	2.094	-4.4713
6.8735	5.7453	8.0346	7.9493	5.8389	8.7115	7.2202	1.5767	4.752	3.2799	-4.6309	-2.5755	-2.6278	0.022	4.3558	5.9352	-0.0413	-4.1219	-0.0963	2.0719	-4.3668
6.8625	5.7921	8.0264	7.9851	5.8581	8.6978	7.2339	1.5932	4.796	3.3129	-4.5319	-2.4709	-2.5617	0.0193	4.3282	5.6765	-0.0303	-4.0916	-0.0688	2.0499	-4.3062
6.8514	5.8306	8.0236	8.0126	5.8444	8.7088	7.2449	1.5959	4.8373	3.3432	-4.4356	-2.3829	-2.5067	0.0275	4.2567	5.4316	-0.0358	-4.1026	-0.0495	2.0279	-4.298
6.8129	5.8691	8.0181	8.0016	5.8774	8.6978	7.2422	1.6234	4.8758	3.3844	-4.3448	-2.2921	-2.4627	0.022	4.2017	5.1207	-0.0358	-4.0834	-0.022	1.9784	-4.2429
6.8074	5.9077	8.0016	8.0236	5.8884	8.684	7.2862	1.6317	4.9061	3.4147	-4.3035	-2.2095	-2.4572	0.0193	4.1714	4.8538	-0.0248	-4.1301	-0.0193	1.9591	-4.2512
6.7744	5.9324	7.9796	8.0126	5.9104	8.684	7.2972	1.6344	4.9363	3.4037	-4.265	-2.1325	-2.4434	0.0083	4.1081	4.5731	-0.0028	-4.1576	0.0055	1.9179	-4.265
6.7551	5.9682	7.9796	8.0401	5.9104	8.6785	7.2945	1.6372	4.9556	3.4312	-4.1989	-2.0582	-2.4407	-0.0193	4.0834	4.3227	0.0385	-4.1907	0.033	1.8573	-4.2512
6.7551	6.0012	7.9934	8.0511	5.9379	8.7005	7.3082	1.6482	5.0161	3.4285	-4.1549	-1.9839	-2.4462	-0.0413	4.0586	4.0889	0.0881	-4.287	0.0165	1.8188	-4.2815
6.7661	6.048	7.9961	8.0759	5.9737	8.7088	7.2862	1.673	5.0464	3.4367	-4.1411	-1.9151	-2.4957	-0.0688	4.0173	3.9293	0.1266	-4.3695	0.0495	1.783	-4.3007
6.8047	6.0645	8.0154	8.1062	5.9957	8.7473	7.3055	1.684	5.1124	3.4395	-4.1081	-1.8628	-2.537	-0.077	4.0476	3.8302	0.1568	-4.4576	0.0605	1.7445	-4.32
6.8267	6.1443	8.0621	8.1419	6.059	8.8133	7.3522	1.7197	5.1867	3.4532	-4.0586	-1.7748	-2.548	-0.0963	4.0806	3.7834	0.1926	-4.5759	0.0715	1.7087	-4.3475
6.8652	6.158	8.0897	8.1695	6.1223	8.8491	7.3605	1.7528	5.2555	3.4615	-4.0311	-1.6647	-2.5755	-0.1183	4.1081	3.7834	0.2229	-4.6639	0.0715	1.673	-4.3915
6.9808	6.1993	8.1502	8.2135	6.1691	8.9124	7.4018	1.8023	5.3381	3.5028	-3.9953	-1.5657	-2.6113	-0.1403	4.1494	3.8935	0.2697	-4.7795	0.0633	1.651	-4.4383
7.0496	6.2709	8.2437	8.296	6.2213	8.9757	7.432	1.8628	5.4454	3.522	-3.932	-1.4528	-2.614	-0.1348	4.2347	4.0393	0.2889	-4.8621	0.0936	1.673	-4.4878
7.1651	6.3039	8.307	8.3621	6.3094	9.0527	7.4871	1.9536	5.5665	3.5385	-3.8522	-1.3263	-2.6058	-0.1541	4.2815	4.2154	0.3192	-4.9391	0.1211	1.6537	-4.5071
7.2614	6.3589	8.3786	8.4171	6.3617	9.1325	7.5146	2.0197	5.66	3.5716	-3.7669	-1.1942	-2.592	-0.1899	4.353	4.4383	0.377	-5.0437	0.1183	1.651	-4.5731
7.377	6.4167	8.4914	8.5079	6.4717	9.2398	7.5834	2.105	5.7783	3.6238	-3.6624	-1.0346	-2.592	-0.2064	4.419	4.6832	0.421	-5.1069	0.1513	1.6785	-4.5951
7.4953	6.4717	8.5849	8.5877	6.5543	9.3279	7.6467	2.2233	5.9104	3.6624	-3.5908	-0.8667	-2.5617	-0.2201	4.4851	4.9666	0.4513	-5.1867	0.1761	1.6647	-4.6144
7.6356	6.5378	8.6537	8.6455	6.6231	9.4269	7.7127	2.3003	6.0452	3.7256	-3.467	-0.7264	-2.537	-0.2531	4.5621	5.2115	0.5008	-5.2665	0.1981	1.673	-4.6529
7.7457	6.59	8.7638	8.7638	6.7194	9.5397	7.7815	2.4131	6.1883	3.7504	-3.3597	-0.5366	-2.4957	-0.2559	4.5786	5.4564	0.5228	-5.294	0.2174	1.6867	-4.6309
