"FZ"	"FC3"	"FCZ"	"FC4"	"C3"	"CZ"	"C4"	"CP3"	"CPZ"	"CP4"	"P3"	"PZ"	"P4"	"OZ"	"FP1"	"FP2"	"A2"	"P8"	"TP7"	"TP8"	"P7"
-0.0908	0.0908	-0.0165	-0.1623	0.2504	0.2752	0.1513	0.2531	0.7457	0.4237	0.3054	1.0126	0.6191	0.443	-0.3687	-0.1761	-0.8557	0.4265	-0.6879	0.0385	-0.3054
-0.0275	0.1596	0.0963	-0.0688	0.3274	0.3962	0.2724	0.3219	0.8392	0.5256	0.3357	1.0951	0.7044	0.421	-0.3247	-0.1623	-0.842	0.454	-0.6769	0.1266	-0.3357
0.0275	0.2146	0.1733	0.0028	0.4127	0.5035	0.4045	0.421	0.9383	0.6604	0.3797	1.1584	0.7677	0.4292	-0.2697	-0.1623	-0.8392	0.4513	-0.6741	0.1678	-0.3742
0.1321	0.2642	0.2697	0.0936	0.5008	0.5888	0.5035	0.487	1.0263	0.7292	0.4182	1.2355	0.8557	0.4292	-0.2174	-0.1458	-0.842	0.4925	-0.6494	0.2366	-0.3825
0.1844	0.3439	0.3467	0.1733	0.5476	0.6714	0.5888	0.5421	1.0896	0.809	0.4485	1.2657	0.8667	0.432	-0.1376	-0.1128	-0.8502	0.4953	-0.6411	0.3137	-0.4375
0.2834	0.3577	0.454	0.2669	0.6026	0.7512	0.7099	0.6109	1.1337	0.8998	0.4458	1.3263	0.9465	0.4458	-0.0605	-0.0798	-0.8667	0.5173	-0.6329	0.3797	-0.465
0.3495	0.4348	0.5421	0.355	0.6549	0.8392	0.8255	0.6384	1.2052	0.9823	0.4623	1.3345	0.9796	0.4623	0.022	-0.0385	-0.8943	0.5448	-0.5916	0.4623	-0.4898
0.4375	0.4623	0.6329	0.4292	0.6796	0.9053	0.886	0.6851	1.2382	1.0208	0.4595	1.3318	0.9878	0.4678	0.0798	0	-0.9025	0.5613	-0.5833	0.487	-0.52
0.5503	0.5063	0.7402	0.52	0.7182	0.9631	0.9768	0.7017	1.274	1.0786	0.4458	1.3153	1.0098	0.465	0.1954	0.0881	-0.9108	0.5806	-0.5531	0.5586	-0.5366
0.6521	0.5503	0.831	0.5888	0.7457	1.0098	1.0181	0.7182	1.2712	1.0951	0.443	1.3015	1.0318	0.4733	0.2807	0.1431	-0.9218	0.5998	-0.5448	0.6191	-0.5448
0.7567	0.5971	0.9355	0.6686	0.8145	1.0924	1.1089	0.7649	1.2932	1.1309	0.4678	1.285	1.0153	0.4843	0.3577	0.2366	-0.9383	0.6109	-0.5063	0.6494	-0.5531
0.8447	0.6301	1.0126	0.7402	0.8255	1.1281	1.1226	0.7484	1.2767	1.1337	0.4403	1.2272	1.0043	0.4733	0.4733	0.3577	-0.9273	0.6191	-0.4953	0.6824	-0.5586
0.9383	0.6879	1.1006	0.7897	0.8557	1.1667	1.1584	0.7759	1.2547	1.1171	0.4678	1.1859	0.9878	0.465	0.5668	0.4458	-0.9108	0.6274	-0.4485	0.6851	-0.5118
1.0346	0.7154	1.1969	0.8475	0.875	1.1914	1.1694	0.7787	1.2492	1.1034	0.4595	1.1859	0.9658	0.4568	0.6549	0.509	-0.897	0.6329	-0.3935	0.6989	-0.4678
1.0924	0.7567	1.252	0.8915	0.8805	1.2217	1.1557	0.7842	1.2052	1.0539	0.4375	1.1171	0.9493	0.4348	0.7539	0.5943	-0.8475	0.6411	-0.3439	0.7292	-0.4237
1.1502	0.8007	1.3318	0.9053	0.8943	1.241	1.1749	0.7732	1.1887	1.0346	0.4458	1.0539	0.919	0.41	0.8557	0.6576	-0.8062	0.6494	-0.3109	0.7429	-0.3605
1.1969	0.8282	1.3951	0.919	0.919	1.2575	1.1392	0.7649	1.1254	0.9988	0.476	1.0181	0.897	0.388	0.9548	0.7292	-0.7649	0.6329	-0.2504	0.7594	-0.2972
1.2575	0.8475	1.4748	0.9741	0.9218	1.2685	1.1337	0.7512	1.1034	0.9328	0.498	0.9741	0.853	0.366	1.0539	0.853	-0.7209	0.6301	-0.1596	0.7567	-0.2119
1.274	0.842	1.5051	0.9493	0.8723	1.263	1.0841	0.7402	1.0373	0.8915	0.4815	0.8943	0.798	0.3247	1.1309	0.9493	-0.6439	0.5916	-0.1376	0.7319	-0.1403
1.3125	0.8723	1.5381	0.9465	0.8557	1.263	1.0566	0.7017	0.9906	0.8145	0.465	0.8365	0.7292	0.3027	1.2079	1.0429	-0.5943	0.5888	-0.0853	0.7292	-0.0605
1.3263	0.8833	1.5519	0.9383	0.8475	1.2465	1.0153	0.6824	0.8998	0.7457	0.476	0.7622	0.6851	0.2807	1.2767	1.1557	-0.5421	0.5586	-0.033	0.7264	0.0138
1.3593	0.8723	1.5684	0.9383	0.8172	1.23	0.9741	0.6384	0.8612	0.6796	0.465	0.6851	0.6329	0.2531	1.329	1.2547	-0.5063	0.5366	-0.0138	0.6962	0.0688
1.3675	0.8337	1.6069	0.9025	0.7567	1.1942	0.9053	0.5833	0.787	0.6246	0.432	0.6053	0.5751	0.2394	1.318	1.3703	-0.4733	0.498	0.0248	0.6769	0.1376
1.3593	0.787	1.5657	0.875	0.6962	1.1337	0.8502	0.498	0.6659	0.5311	0.388	0.487	0.4815	0.2284	1.2877	1.4088	-0.4292	0.443	0.0633	0.6246	0.1293
1.3593	0.7704	1.5491	0.8695	0.6329	1.0814	0.7677	0.443	0.5943	0.4595	0.3412	0.421	0.4348	0.2091	1.2355	1.4501	-0.399	0.4127	0.0936	0.6109	0.1844
1.3153	0.6824	1.5216	0.8145	0.5338	1.0016	0.7099	0.3605	0.4843	0.3907	0.2972	0.3329	0.3577	0.1733	1.1529	1.4418	-0.3439	0.3605	0.0633	0.5641	0.2146
1.285	0.6219	1.4446	0.7539	0.465	0.9383	0.6274	0.2807	0.4292	0.3137	0.2559	0.2394	0.3137	0.1623	1.0484	1.4556	-0.3054	0.3357	0.0908	0.5256	0.2229
1.252	0.5558	1.3951	0.6962	0.3907	0.8778	0.5613	0.2174	0.3192	0.2476	0.1871	0.1706	0.2476	0.1403	0.908	1.4088	-0.2559	0.2917	0.077	0.487	0.2119
1.1722	0.4925	1.3263	0.6494	0.3384	0.8007	0.476	0.1431	0.2669	0.2009	0.1348	0.1183	0.2311	0.1211	0.7567	1.3868	-0.2229	0.2752	0.1018	0.4623	0.2064
1.1254	0.4403	1.2905	0.6081	0.2834	0.7512	0.4348	0.0743	0.1871	0.1513	0.0908	0.0303	0.1926	0.0908	0.6246	1.373	-0.1844	0.2531	0.0881	0.41	0.2064
1.0979	0.3962	1.241	0.5751	0.2421	0.7209	0.3907	0.0138	0.1596	0.1128	0.0303	0.0055	0.1733	0.077	0.5063	1.3098	-0.1431	0.2229	0.1018	0.377	0.1871
1.0236	0.3439	1.1667	0.5145	0.2036	0.6521	0.3412	-0.0083	0.1073	0.1128	0.0248	-0.022	0.1403	0.044	0.355	1.2245	-0.0853	0.2009	0.0825	0.3192	0.1568
0.9823	0.3082	1.0896	0.4815	0.1761	0.6274	0.3219	-0.033	0.0715	0.1128	-0.011	-0.0578	0.1568	0.0138	0.2284	1.1281	-0.033	0.1954	0.0825	0.2807	0.1348
0.8943	0.2697	1.0291	0.4155	0.1678	0.5806	0.2531	-0.066	0.0605	0.1128	-0.044	-0.0275	0.1789	0	0.0963	1.0236	0.011	0.1954	0.0688	0.2311	0.1128
0.831	0.2394	0.9823	0.4182	0.1733	0.5696	0.2531	-0.055	0.0633	0.1348	-0.0358	-0.0193	0.2119	-0.0275	-0.033	0.8723	0.0495	0.1733	0.0936	0.2174	0.1046
0.7897	0.2201	0.9438	0.41	0.1706	0.5338	0.2614	-0.0468	0.0991	0.1651	-0.033	0.0413	0.2669	-0.033	-0.1596	0.7292	0.0633	0.1981	0.0715	0.1706	0.0963
0.6934	0.1926	0.853	0.3632	0.1623	0.5008	0.2311	-0.0798	0.1018	0.1926	-0.0275	0.0468	0.2917	-0.066	-0.2972	0.5421	0.1211	0.1899	0.0605	0.1348	0.0688
0.6274	0.2064	0.8117	0.3687	0.1899	0.5173	0.2642	-0.0193	0.1376	0.2476	-0.0165	0.1156	0.3412	-0.0633	-0.3852	0.366	0.1266	0.2201	0.0798	0.0825	0.0743
0.5723	0.1541	0.7429	0.3467	0.1899	0.4843	0.2834	-0.033	0.1623	0.2999	-0.0055	0.1678	0.4017	-0.0798	-0.509	0.1568	0.1513	0.2366	0.0715	0.0715	0.055
0.5531	0.1706	0.7209	0.366	0.2119	0.5063	0.3109	0.0303	0.2201	0.366	0.0523	0.2366	0.476	-0.0798	-0.5806	-0.0385	0.1623	0.2724	0.0825	0.0303	0.0578
0.5173	0.1623	0.7017	0.388	0.2476	0.5421	0.3495	0.077	0.2889	0.4182	0.1156	0.3302	0.5641	-0.0688	-0.6246	-0.2146	0.1486	0.2999	0.0936	0.0275	0.0963
0.4705	0.1706	0.6686	0.3742	0.2642	0.5393	0.3962	0.1376	0.355	0.4953	0.1761	0.4072	0.6384	-0.0853	-0.6824	-0.4017	0.1623	0.3274	0.1238	0.022	0.1293
0.4348	0.1651	0.6466	0.377	0.3054	0.5696	0.4375	0.1926	0.4072	0.5531	0.2229	0.4953	0.7072	-0.0853	-0.6989	-0.5751	0.1706	0.3605	0.1321	0	0.1431
0.4072	0.1789	0.6164	0.3935	0.3274	0.5778	0.4595	0.2642	0.487	0.6191	0.3054	0.5888	0.7677	-0.0936	-0.6989	-0.6659	0.1761	0.388	0.1844	0.011	0.1733
0.3715	0.1733	0.5723	0.3935	0.3219	0.5888	0.4788	0.2999	0.5173	0.6796	0.3384	0.6604	0.8585	-0.0936	-0.7044	-0.7704	0.1789	0.4072	0.2036	0	0.2284
0.3412	0.1954	0.5393	0.4072	0.3797	0.6164	0.5256	0.3577	0.6053	0.7292	0.454	0.7429	0.9108	-0.0881	-0.6466	-0.798	0.1871	0.4485	0.2256	0.0275	0.2669
0.2972	0.1844	0.5035	0.41	0.3852	0.6246	0.5256	0.4237	0.6796	0.7815	0.5035	0.8145	0.9713	-0.1073	-0.6219	-0.8365	0.2091	0.465	0.2752	0.0028	0.3109
0.2862	0.2256	0.4898	0.4017	0.388	0.6411	0.5641	0.4733	0.7319	0.798	0.5998	0.8778	1.0208	-0.1128	-0.5421	-0.8007	0.2119	0.498	0.3082	0.0165	0.3715
0.2119	0.2421	0.4375	0.3935	0.4017	0.6356	0.5778	0.5008	0.7677	0.8475	0.6549	0.9328	1.0704	-0.1183	-0.465	-0.7402	0.2366	0.5173	0.3495	0.0083	0.4292
0.1678	0.2311	0.3852	0.399	0.421	0.6219	0.5806	0.5338	0.8117	0.8943	0.7127	0.9796	1.1171	-0.1321	-0.3632	-0.6246	0.2531	0.5503	0.3577	0.0358	0.487
0.1046	0.2449	0.355	0.3935	0.4348	0.6109	0.5723	0.5751	0.864	0.9163	0.7897	1.0373	1.1612	-0.1403	-0.2394	-0.5118	0.2586	0.5833	0.399	0.0358	0.5338
0.033	0.2504	0.2889	0.3605	0.4155	0.5888	0.5806	0.5751	0.8723	0.941	0.82	1.0511	1.1832	-0.1348	-0.1321	-0.3605	0.2862	0.6301	0.4237	0.0633	0.5971
-0.0165	0.2366	0.2119	0.3302	0.388	0.5531	0.5503	0.5751	0.875	0.93	0.8557	1.0456	1.1969	-0.1596	-0.0275	-0.2339	0.3054	0.6494	0.443	0.0578	0.6191
-0.0881	0.2421	0.1568	0.3027	0.3605	0.5063	0.5338	0.5696	0.8723	0.93	0.8805	1.0594	1.2052	-0.1513	0.0825	-0.066	0.2999	0.6879	0.432	0.0798	0.6384
-0.1871	0.1789	0.0303	0.2229	0.2807	0.421	0.4733	0.5366	0.8062	0.8943	0.8557	1.0236	1.1749	-0.1623	0.1486	0.022	0.3247	0.6851	0.421	0.044	0.6219
-0.2724	0.1211	-0.0715	0.1541	0.2091	0.3357	0.4182	0.4788	0.7512	0.8475	0.8255	0.9493	1.0979	-0.1596	0.1706	0.0853	0.3302	0.6549	0.3825	-0.0028	0.6164
-0.3605	0.0385	-0.1899	0.0523	0.1018	0.2476	0.355	0.4017	0.6741	0.7925	0.8007	0.8888	1.0731	-0.1651	0.1761	0.1128	0.3439	0.6494	0.3825	-0.0193	0.5971
-0.4843	-0.0413	-0.2944	-0.0165	0.0138	0.1211	0.2642	0.355	0.5668	0.7374	0.7319	0.8227	1.0071	-0.1651	0.1678	0.0963	0.355	0.6411	0.3467	-0.0715	0.5558
-0.5806	-0.1238	-0.421	-0.1128	-0.077	0.0028	0.1761	0.2889	0.4595	0.6439	0.6741	0.7264	0.9163	-0.1844	0.1238	0.0248	0.3605	0.6026	0.2999	-0.1018	0.5145
-0.6714	-0.2091	-0.5393	-0.1981	-0.2036	-0.1376	0.0853	0.1706	0.3302	0.5448	0.5833	0.6081	0.82	-0.2036	0.0798	-0.0825	0.3935	0.5393	0.2421	-0.1623	0.4595
-0.7787	-0.3027	-0.6714	-0.2834	-0.3082	-0.2697	-0.0193	0.0578	0.1844	0.4348	0.5118	0.5063	0.6824	-0.2091	-0.022	-0.2036	0.4072	0.476	0.2091	-0.2091	0.4127
-0.8943	-0.3852	-0.8062	-0.3962	-0.4017	-0.4127	-0.1348	-0.0165	0.0688	0.3247	0.443	0.4017	0.5943	-0.2229	-0.1046	-0.3467	0.4348	0.454	0.1981	-0.2284	0.3522
-0.9603	-0.4788	-0.9218	-0.487	-0.5063	-0.5531	-0.2339	-0.1238	-0.0908	0.2284	0.366	0.2807	0.4568	-0.2201	-0.2064	-0.4678	0.4403	0.3852	0.1568	-0.2586	0.3137
-1.0401	-0.5503	-1.0181	-0.5668	-0.5751	-0.6521	-0.3247	-0.1954	-0.1954	0.1046	0.2917	0.1706	0.3384	-0.2339	-0.3247	-0.5833	0.4568	0.3412	0.1541	-0.2779	0.2724
-1.1034	-0.5971	-1.1281	-0.6356	-0.6384	-0.7952	-0.4348	-0.2366	-0.3329	-0.0055	0.2201	0.0633	0.2339	-0.2476	-0.4458	-0.6714	0.4705	0.2779	0.1348	-0.2917	0.2531
-1.1502	-0.6384	-1.1887	-0.7099	-0.6906	-0.875	-0.5145	-0.2862	-0.4403	-0.1211	0.1871	-0.0248	0.1018	-0.2449	-0.5366	-0.7319	0.476	0.2394	0.1266	-0.2917	0.2449
-1.1667	-0.6466	-1.2712	-0.7457	-0.7347	-0.9961	-0.6136	-0.3302	-0.5448	-0.2009	0.1238	-0.1073	0.0248	-0.2421	-0.6329	-0.7457	0.487	0.1981	0.1073	-0.2586	0.2394
-1.2134	-0.6631	-1.3318	-0.7897	-0.7209	-1.0814	-0.6851	-0.3742	-0.6329	-0.2807	0.1073	-0.2036	-0.0908	-0.2504	-0.6824	-0.7374	0.487	0.1513	0.1101	-0.2366	0.2119
-1.2272	-0.6604	-1.362	-0.8282	-0.7539	-1.1777	-0.7677	-0.3797	-0.7347	-0.4017	0.0605	-0.2724	-0.1899	-0.2559	-0.7292	-0.7182	0.5063	0.0853	0.1376	-0.2256	0.2284
-1.2355	-0.6796	-1.4088	-0.8502	-0.7677	-1.23	-0.831	-0.4045	-0.8007	-0.487	0.0248	-0.3384	-0.2862	-0.2724	-0.7897	-0.6714	0.509	0.033	0.1458	-0.2091	0.2311
-1.2245	-0.6714	-1.4033	-0.8475	-0.7429	-1.2602	-0.853	-0.4045	-0.8833	-0.5393	0.0138	-0.4182	-0.377	-0.2476	-0.7594	-0.6191	0.4925	0.0165	0.1789	-0.1596	0.2807
-1.2024	-0.6494	-1.4143	-0.8365	-0.7182	-1.3098	-0.897	-0.3907	-0.9025	-0.6164	0.0028	-0.4678	-0.4568	-0.2449	-0.7017	-0.5256	0.4788	-0.044	0.2119	-0.1348	0.3109
-1.1777	-0.6109	-1.4198	-0.82	-0.7237	-1.3483	-0.9245	-0.41	-0.9796	-0.6796	-0.0303	-0.5393	-0.5531	-0.2421	-0.6631	-0.4595	0.4705	-0.1266	0.2036	-0.1211	0.3192
-1.1281	-0.6109	-1.3896	-0.7759	-0.6879	-1.3565	-0.9163	-0.3797	-1.0153	-0.7402	-0.0165	-0.5916	-0.6109	-0.2339	-0.5833	-0.3935	0.4595	-0.1816	0.2586	-0.1211	0.3797
-1.0731	-0.6109	-1.384	-0.7429	-0.6741	-1.4061	-0.941	-0.3825	-1.0539	-0.7815	-0.0468	-0.6741	-0.7154	-0.2284	-0.4843	-0.2944	0.454	-0.2421	0.2531	-0.1101	0.3907
-0.9878	-0.5723	-1.3455	-0.7099	-0.6604	-1.373	-0.9355	-0.3522	-1.0896	-0.831	-0.0688	-0.7237	-0.7732	-0.2256	-0.3274	-0.1954	0.432	-0.3329	0.2807	-0.0963	0.4403
-0.9383	-0.5338	-1.3153	-0.6329	-0.5971	-1.3538	-0.9135	-0.3495	-1.0951	-0.8365	-0.0963	-0.7952	-0.8447	-0.2174	-0.2174	-0.1376	0.4237	-0.3935	0.3027	-0.1156	0.4237
-0.8255	-0.476	-1.23	-0.5943	-0.5586	-1.34	-0.886	-0.3384	-1.1199	-0.8915	-0.1101	-0.8392	-0.9273	-0.1899	-0.0605	-0.0413	0.3852	-0.476	0.2917	-0.1128	0.4237
-0.787	-0.4678	-1.1942	-0.5228	-0.5393	-1.3263	-0.8998	-0.3467	-1.1254	-0.9438	-0.1899	-0.9163	-1.0016	-0.1926	0.0633	0.0028	0.377	-0.5145	0.2944	-0.1348	0.3825
-0.7072	-0.4265	-1.1364	-0.5008	-0.5118	-1.2685	-0.8557	-0.3439	-1.1309	-0.9548	-0.2284	-0.9686	-1.0621	-0.1789	0.1761	0.055	0.3495	-0.5943	0.2999	-0.1403	0.3687
-0.6384	-0.4127	-1.1144	-0.454	-0.4788	-1.2657	-0.842	-0.3467	-1.1502	-0.9768	-0.3027	-1.0318	-1.1612	-0.1678	0.2862	0.0715	0.3384	-0.6851	0.2917	-0.1706	0.3054
-0.5778	-0.399	-1.0704	-0.4237	-0.4788	-1.2327	-0.831	-0.3852	-1.1474	-1.0208	-0.3797	-1.1254	-1.2272	-0.1651	0.355	0.1018	0.3219	-0.7429	0.2366	-0.1899	0.2504
-0.5696	-0.3797	-1.0401	-0.421	-0.432	-1.2052	-0.831	-0.4127	-1.1612	-1.0511	-0.4678	-1.1942	-1.2932	-0.1486	0.421	0.0936	0.3082	-0.8035	0.2421	-0.1981	0.2091
-0.5531	-0.3907	-1.0098	-0.41	-0.454	-1.1914	-0.8475	-0.4485	-1.2107	-1.1034	-0.5723	-1.3043	-1.3785	-0.1678	0.4375	0.0605	0.3137	-0.864	0.1871	-0.2311	0.1293
-0.5393	-0.4045	-1.0043	-0.4127	-0.498	-1.1942	-0.864	-0.509	-1.2245	-1.1584	-0.6796	-1.3978	-1.4859	-0.1568	0.4237	-0.0028	0.3082	-0.9465	0.1458	-0.2889	0.0413
-0.5586	-0.4375	-1.0098	-0.4513	-0.5063	-1.1804	-0.8998	-0.5476	-1.2327	-1.2162	-0.787	-1.4886	-1.5657	-0.1733	0.3852	-0.0853	0.3109	-1.0373	0.0853	-0.3247	-0.033
-0.5806	-0.454	-1.0208	-0.476	-0.5476	-1.1832	-0.93	-0.5971	-1.2822	-1.2575	-0.8833	-1.5849	-1.6399	-0.1568	0.3329	-0.1733	0.2999	-1.0979	0.0715	-0.3632	-0.1458
-0.5888	-0.4788	-1.0126	-0.5311	-0.5751	-1.1694	-0.9713	-0.6769	-1.3263	-1.34	-0.9988	-1.6812	-1.7335	-0.1596	0.2586	-0.2779	0.3054	-1.1557	0.0165	-0.4155	-0.2614
-0.6356	-0.5393	-1.0704	-0.6191	-0.6246	-1.1832	-1.0098	-0.7567	-1.3675	-1.3923	-1.1226	-1.7638	-1.805	-0.1513	0.1486	-0.4127	0.2917	-1.2492	-0.0385	-0.5035	-0.355
-0.6301	-0.5586	-1.0649	-0.6521	-0.6769	-1.1557	-1.0401	-0.7925	-1.3813	-1.4418	-1.2245	-1.8546	-1.8848	-0.1541	0.0303	-0.5283	0.2917	-1.3263	-0.0688	-0.5971	-0.4513
-0.6659	-0.6164	-1.0704	-0.6934	-0.7264	-1.1887	-1.1061	-0.8943	-1.4308	-1.5354	-1.3675	-1.9564	-1.9811	-0.1348	-0.0881	-0.6521	0.2834	-1.3923	-0.1348	-0.6769	-0.5448
-0.6879	-0.6714	-1.0841	-0.7539	-0.7704	-1.1639	-1.1364	-0.9438	-1.4391	-1.5767	-1.4336	-2.0032	-2.0279	-0.1321	-0.2421	-0.7704	0.2697	-1.4391	-0.1844	-0.7429	-0.6439
-0.6851	-0.6879	-1.0951	-0.7759	-0.8035	-1.1502	-1.1612	-0.9961	-1.4501	-1.6097	-1.5161	-2.0554	-2.094	-0.1156	-0.3715	-0.8667	0.2586	-1.4859	-0.2119	-0.8062	-0.7402
-0.7209	-0.7319	-1.0896	-0.8833	-0.8475	-1.1529	-1.2162	-1.0456	-1.4363	-1.6702	-1.5739	-2.1132	-2.1297	-0.1238	-0.498	-0.941	0.2394	-1.5354	-0.2504	-0.8998	-0.8172
-0.7099	-0.7815	-1.0869	-0.9025	-0.8585	-1.1502	-1.2492	-1.1006	-1.4583	-1.7142	-1.6427	-2.116	-2.171	-0.1156	-0.6246	-1.0043	0.2421	-1.5904	-0.2889	-0.9741	-0.9163
-0.7292	-0.7704	-1.0731	-0.9493	-0.9218	-1.0979	-1.2905	-1.1364	-1.4638	-1.7555	-1.706	-2.1572	-2.2233	-0.1156	-0.7237	-1.0456	0.2449	-1.651	-0.3302	-1.0456	-0.9768
-0.7292	-0.8007	-1.0566	-0.9823	-0.9355	-1.0759	-1.34	-1.1859	-1.4418	-1.7913	-1.739	-2.16	-2.237	-0.1266	-0.8172	-1.0511	0.2531	-1.7032	-0.366	-1.0704	-1.0704
-0.7237	-0.7787	-1.0071	-1.0016	-0.9493	-1.0208	-1.3263	-1.1694	-1.3896	-1.8105	-1.7363	-2.1187	-2.2453	-0.1183	-0.8805	-1.0401	0.2339	-1.7087	-0.3439	-1.0786	-1.0979
-0.6714	-0.7704	-0.9603	-1.0043	-0.9273	-0.9576	-1.3428	-1.1749	-1.3345	-1.8133	-1.7583	-2.105	-2.237	-0.1156	-0.886	-0.9823	0.2421	-1.7225	-0.366	-1.1089	-1.1171
-0.6796	-0.7457	-0.8998	-1.0263	-0.9163	-0.897	-1.362	-1.1584	-1.296	-1.8023	-1.7142	-2.0637	-2.2123	-0.1238	-0.897	-0.9686	0.2559	-1.7307	-0.3495	-1.1061	-1.1171
-0.6466	-0.7072	-0.8392	-1.0263	-0.8805	-0.831	-1.3703	-1.1226	-1.2079	-1.7995	-1.6922	-1.9949	-2.171	-0.1348	-0.875	-0.9108	0.2779	-1.717	-0.3247	-1.0951	-1.1226
-0.5751	-0.6274	-0.7264	-0.9741	-0.8145	-0.7072	-1.3345	-1.0621	-1.1226	-1.7693	-1.6317	-1.9371	-2.1187	-0.1348	-0.8145	-0.8392	0.2752	-1.6922	-0.3027	-1.0814	-1.0621
-0.5228	-0.5531	-0.6439	-0.9328	-0.7677	-0.6136	-1.2987	-1.0043	-1.0153	-1.7307	-1.5601	-1.8463	-2.0554	-0.1403	-0.7237	-0.7594	0.2889	-1.673	-0.2669	-1.0649	-1.0429
-0.4265	-0.4678	-0.5173	-0.8667	-0.7017	-0.4953	-1.263	-0.9493	-0.9053	-1.695	-1.4831	-1.761	-1.9729	-0.1513	-0.6439	-0.6686	0.3219	-1.6344	-0.2146	-1.0539	-1.0071
-0.366	-0.3825	-0.4045	-0.809	-0.6136	-0.3605	-1.1969	-0.8695	-0.7925	-1.6207	-1.4033	-1.6757	-1.9206	-0.1733	-0.52	-0.5586	0.3687	-1.5987	-0.1926	-1.0373	-0.9465
-0.2614	-0.3027	-0.2504	-0.7292	-0.52	-0.2174	-1.1226	-0.7594	-0.6411	-1.5354	-1.2932	-1.5326	-1.7995	-0.2009	-0.3797	-0.421	0.3962	-1.5601	-0.1321	-0.9713	-0.8778
-0.1211	-0.1513	-0.0688	-0.6136	-0.3907	-0.0413	-1.0126	-0.6521	-0.4815	-1.4198	-1.1584	-1.3978	-1.695	-0.1954	-0.2146	-0.2724	0.4237	-1.4638	-0.0798	-0.9108	-0.809
0.0275	-0.0303	0.0991	-0.5118	-0.2834	0.1321	-0.9383	-0.5421	-0.3302	-1.3428	-1.0731	-1.285	-1.5794	-0.2119	-0.0715	-0.1513	0.4568	-1.4253	-0.0055	-0.886	-0.7072
0.1486	0.0881	0.2642	-0.4045	-0.1651	0.2834	-0.8475	-0.4375	-0.1871	-1.2547	-0.952	-1.1804	-1.4914	-0.2586	0.0908	-0.0468	0.5145	-1.3648	0.0413	-0.8392	-0.6576
0.3192	0.2311	0.443	-0.2724	-0.0413	0.4623	-0.7402	-0.2944	-0.0193	-1.1171	-0.8282	-1.0401	-1.3703	-0.2642	0.2311	0.1046	0.5421	-1.2822	0.1156	-0.7759	-0.5723
0.4513	0.3302	0.6301	-0.1568	0.0963	0.6246	-0.6439	-0.1926	0.1128	-1.0401	-0.7429	-0.9218	-1.2712	-0.2834	0.377	0.1844	0.5751	-1.2079	0.1871	-0.7292	-0.498
0.5916	0.4595	0.7787	-0.0495	0.2036	0.7787	-0.5448	-0.1101	0.2421	-0.9713	-0.6521	-0.8255	-1.2107	-0.3054	0.5256	0.2834	0.6136	-1.1612	0.2146	-0.7127	-0.4568
0.7429	0.5888	0.9686	0.0743	0.3219	0.9548	-0.4348	0	0.388	-0.8337	-0.5531	-0.7292	-1.0951	-0.3192	0.6081	0.3495	0.6439	-1.0951	0.2724	-0.6796	-0.4045
0.8365	0.7044	1.1171	0.1678	0.4292	1.1006	-0.3577	0.0963	0.4953	-0.7594	-0.4568	-0.6164	-1.0236	-0.3357	0.6906	0.4072	0.6604	-1.0153	0.3219	-0.6631	-0.3247
0.9631	0.7952	1.2465	0.2724	0.5366	1.1969	-0.2944	0.1816	0.5943	-0.6989	-0.3907	-0.5366	-0.9438	-0.3605	0.7319	0.421	0.6989	-0.9686	0.3495	-0.6439	-0.2586
1.0346	0.9053	1.3483	0.355	0.6246	1.2795	-0.2531	0.2504	0.6576	-0.6384	-0.3605	-0.4925	-0.9025	-0.377	0.6796	0.4017	0.7209	-0.9576	0.3632	-0.6604	-0.2724
1.1226	0.9713	1.4611	0.4265	0.7209	1.384	-0.1623	0.3082	0.7457	-0.5696	-0.2724	-0.388	-0.8365	-0.3715	0.6824	0.4182	0.7374	-0.8915	0.3962	-0.6274	-0.2091
1.1749	1.0566	1.5354	0.52	0.7759	1.4886	-0.1101	0.3439	0.8035	-0.52	-0.2449	-0.3439	-0.7787	-0.377	0.6274	0.3797	0.7539	-0.8172	0.4017	-0.5888	-0.1816
1.2024	1.1171	1.6124	0.5586	0.8475	1.5161	-0.0715	0.4017	0.853	-0.4568	-0.2284	-0.2972	-0.7539	-0.3935	0.5256	0.3192	0.7677	-0.8172	0.4017	-0.5641	-0.1844
1.2547	1.1502	1.6317	0.6274	0.8888	1.5436	-0.033	0.4072	0.853	-0.4513	-0.2256	-0.2807	-0.7429	-0.377	0.4458	0.2559	0.7677	-0.7897	0.377	-0.5668	-0.2009
1.2712	1.1997	1.6675	0.6439	0.8998	1.5629	-0.0275	0.4292	0.864	-0.41	-0.2146	-0.2476	-0.7154	-0.3797	0.3329	0.1706	0.7649	-0.7622	0.366	-0.5283	-0.2009
1.2905	1.219	1.6647	0.6604	0.9218	1.5629	-0.0193	0.41	0.864	-0.3825	-0.2311	-0.2311	-0.6879	-0.3742	0.2284	0.0605	0.7292	-0.7154	0.3412	-0.498	-0.2311
1.2795	1.2079	1.6702	0.6631	0.8915	1.5409	-0.0303	0.388	0.8447	-0.388	-0.2779	-0.2366	-0.6796	-0.3522	0.0908	-0.0275	0.7154	-0.7099	0.2889	-0.4815	-0.3027
1.2905	1.2134	1.6757	0.6549	0.9053	1.5299	-0.011	0.3935	0.8365	-0.355	-0.2807	-0.2339	-0.6714	-0.3495	-0.0055	-0.1128	0.6686	-0.6989	0.2752	-0.4733	-0.3467
1.263	1.2024	1.6454	0.6741	0.8998	1.5189	-0.0248	0.3687	0.809	-0.3412	-0.2999	-0.2036	-0.6411	-0.3164	-0.1073	-0.1816	0.6246	-0.6631	0.2504	-0.421	-0.3852
1.296	1.2107	1.6454	0.6796	0.9025	1.5106	-0.0165	0.3357	0.8035	-0.3054	-0.3164	-0.1816	-0.6109	-0.2889	-0.1789	-0.1816	0.5833	-0.6549	0.2009	-0.4155	-0.4403
1.3015	1.219	1.6372	0.6906	0.897	1.4831	-0.0028	0.3302	0.8035	-0.2779	-0.3219	-0.1513	-0.5723	-0.2586	-0.2091	-0.1761	0.5421	-0.6081	0.1623	-0.3907	-0.4733
1.3455	1.2107	1.6289	0.7044	0.8805	1.4638	0.022	0.3357	0.8117	-0.2091	-0.3109	-0.1101	-0.52	-0.2449	-0.2614	-0.1211	0.498	-0.5833	0.1541	-0.3439	-0.509
1.3675	1.219	1.6262	0.7182	0.897	1.4804	0.0523	0.3274	0.82	-0.1678	-0.2862	-0.0578	-0.4375	-0.2284	-0.2752	-0.0578	0.4595	-0.5448	0.1321	-0.2944	-0.5366
1.3868	1.2245	1.5959	0.7127	0.8915	1.4666	0.077	0.3384	0.82	-0.1211	-0.2586	-0.0055	-0.399	-0.2174	-0.2944	0.0138	0.4458	-0.5256	0.1128	-0.2779	-0.5283
1.4116	1.2355	1.6097	0.7594	0.886	1.4748	0.1266	0.3522	0.853	-0.022	-0.2146	0.0578	-0.3054	-0.2036	-0.2394	0.1321	0.4127	-0.4843	0.1073	-0.2256	-0.5228
1.4363	1.2217	1.6207	0.8062	0.9163	1.4914	0.1706	0.3715	0.8998	0.0468	-0.1458	0.1761	-0.1981	-0.1954	-0.2064	0.2559	0.399	-0.4513	0.1018	-0.1761	-0.509
1.4721	1.2382	1.6399	0.8337	0.9465	1.5106	0.2256	0.443	0.93	0.1238	-0.0358	0.2614	-0.1128	-0.2036	-0.1046	0.3825	0.3825	-0.399	0.1266	-0.1073	-0.4513
1.4941	1.2685	1.651	0.886	0.9686	1.4996	0.2531	0.4815	0.9988	0.2064	0.0275	0.3687	-0.011	-0.1871	-0.033	0.4843	0.3715	-0.3715	0.1403	-0.0578	-0.4072
1.4996	1.263	1.6427	0.8888	0.9878	1.5326	0.3082	0.5448	1.0429	0.2917	0.1376	0.476	0.1046	-0.1844	0.0468	0.6109	0.3577	-0.3495	0.1899	-0.0193	-0.3495
1.4969	1.2382	1.6097	0.908	0.9851	1.5216	0.3467	0.5558	1.0676	0.3522	0.2284	0.5696	0.1623	-0.1926	0.1046	0.6549	0.366	-0.3495	0.1706	-0.0055	-0.3219
1.5051	1.2492	1.6317	0.9686	1.0263	1.5574	0.4127	0.6466	1.1502	0.4678	0.3495	0.6659	0.2614	-0.1844	0.2229	0.7484	0.3467	-0.3109	0.2146	0.0495	-0.2091
1.4941	1.2024	1.5877	0.9851	1.0153	1.5601	0.4348	0.6824	1.1887	0.5228	0.4458	0.7677	0.3577	-0.1623	0.2944	0.7594	0.3219	-0.2972	0.2476	0.0495	-0.1376
1.4501	1.1667	1.5574	0.9741	0.9906	1.5546	0.4843	0.7044	1.2079	0.6026	0.5558	0.8392	0.4265	-0.1678	0.3357	0.7319	0.3164	-0.2807	0.2669	0.0303	-0.0468
1.4116	1.1144	1.5134	0.9906	0.9823	1.5491	0.5145	0.7402	1.23	0.6439	0.6384	0.9163	0.4953	-0.1486	0.3797	0.7099	0.2917	-0.2697	0.2642	0.0358	0.0275
1.3483	1.0511	1.4748	0.9851	0.9823	1.5409	0.5421	0.7842	1.2767	0.7044	0.7512	0.9906	0.5641	-0.1266	0.4155	0.6879	0.2531	-0.2366	0.3054	0.044	0.1018
1.2905	0.9851	1.4226	0.9768	0.9438	1.5216	0.5531	0.7815	1.2685	0.7512	0.8117	1.0484	0.6219	-0.1073	0.4265	0.6246	0.2091	-0.1871	0.3164	0.0633	0.1981
1.241	0.9273	1.3648	0.9658	0.9355	1.5079	0.5998	0.809	1.2932	0.809	0.8915	1.1254	0.6714	-0.0963	0.454	0.5861	0.1816	-0.1513	0.3274	0.033	0.2614
1.1529	0.8392	1.285	0.9383	0.8943	1.4776	0.5833	0.8145	1.2905	0.8145	0.9603	1.1612	0.7017	-0.0825	0.4265	0.5035	0.1568	-0.1348	0.3192	0.0385	0.3027
1.0951	0.7594	1.2382	0.952	0.8502	1.4501	0.6109	0.82	1.2767	0.8585	1.0181	1.2107	0.7347	-0.0413	0.4182	0.443	0.0991	-0.1018	0.3357	0.0578	0.377
1.0098	0.6741	1.1749	0.9273	0.8365	1.4088	0.6301	0.831	1.3043	0.886	1.0869	1.2685	0.7897	-0.033	0.4017	0.3825	0.0825	-0.044	0.3357	0.077	0.4237
0.9135	0.5998	1.1034	0.8915	0.7622	1.3675	0.6384	0.809	1.2905	0.9163	1.1116	1.2547	0.798	-0.0303	0.3715	0.3247	0.0743	-0.0275	0.3054	0.0991	0.465
0.875	0.5145	1.0373	0.8778	0.7567	1.3538	0.6631	0.831	1.2877	0.9355	1.1447	1.3043	0.842	-0.0138	0.3357	0.2449	0.044	0.0165	0.3412	0.1458	0.5063
0.7732	0.4595	0.9631	0.8667	0.7182	1.2987	0.6631	0.7787	1.2657	0.941	1.1309	1.307	0.8502	-0.0138	0.3109	0.1789	0.033	0.0825	0.3247	0.1513	0.5008
0.6962	0.3742	0.919	0.842	0.6494	1.252	0.6521	0.7649	1.2492	0.9273	1.1364	1.3098	0.8475	-0.0083	0.2614	0.077	0.022	0.1293	0.3192	0.1871	0.5035
0.5943	0.3219	0.8475	0.8282	0.6191	1.2245	0.6604	0.7649	1.2657	0.9355	1.1474	1.3208	0.8557	0.011	0.1816	-0.022	-0.011	0.1926	0.3027	0.2449	0.4925
0.5063	0.2421	0.7539	0.787	0.5393	1.1667	0.6356	0.7127	1.2024	0.919	1.1199	1.296	0.8585	0.011	0.1101	-0.1321	-0.0083	0.2036	0.2917	0.3109	0.465
0.41	0.1651	0.6879	0.7842	0.498	1.1281	0.6411	0.6659	1.1694	0.9108	1.0759	1.2575	0.8337	0.0193	0.022	-0.2036	-0.0303	0.2449	0.2394	0.3605	0.4403
0.355	0.0963	0.6026	0.7457	0.4348	1.0841	0.6191	0.6246	1.1447	0.8888	1.0401	1.23	0.8365	0.044	-0.0743	-0.2917	-0.0523	0.2669	0.2311	0.432	0.3742
0.2724	0.0138	0.5283	0.7182	0.3797	1.0429	0.5888	0.5751	1.1281	0.8475	1.0043	1.1639	0.7897	0.044	-0.1678	-0.3715	-0.0688	0.2999	0.2229	0.4623	0.355
0.2064	-0.0358	0.4788	0.7044	0.3164	1.0126	0.6053	0.5531	1.0869	0.853	0.9355	1.1364	0.7787	0.066	-0.2421	-0.4127	-0.1101	0.3192	0.1981	0.5421	0.3192
0.1651	-0.0908	0.4127	0.6934	0.2752	0.9603	0.5861	0.509	1.0484	0.831	0.886	1.0814	0.7567	0.066	-0.3274	-0.4348	-0.1293	0.3192	0.1954	0.6274	0.3027
0.1046	-0.1486	0.3687	0.6686	0.2421	0.93	0.6136	0.4843	1.0484	0.8035	0.8557	1.0181	0.7264	0.0963	-0.3907	-0.4348	-0.1733	0.3522	0.1899	0.6631	0.2697
0.066	-0.1789	0.3219	0.6686	0.2036	0.919	0.6219	0.4485	1.0456	0.8365	0.8172	0.9878	0.7237	0.1156	-0.4485	-0.3935	-0.2229	0.377	0.2119	0.7457	0.2642
0.0165	-0.2531	0.2614	0.6686	0.1651	0.8915	0.6466	0.432	1.0318	0.8447	0.7732	0.9383	0.7539	0.1348	-0.4898	-0.3495	-0.2614	0.3797	0.2394	0.7732	0.2697
0.0055	-0.2834	0.2174	0.6741	0.1376	0.8833	0.7072	0.3797	1.0016	0.8447	0.7402	0.8805	0.7182	0.1513	-0.5063	-0.2752	-0.2862	0.4072	0.2201	0.8475	0.2724
-0.033	-0.3192	0.1899	0.6796	0.1018	0.864	0.7127	0.388	1.0429	0.8778	0.7127	0.842	0.7539	0.1596	-0.52	-0.1871	-0.3164	0.4155	0.2504	0.897	0.3027
-0.0633	-0.3439	0.1513	0.6686	0.0825	0.842	0.7347	0.3742	1.0291	0.8805	0.6686	0.7897	0.7457	0.1651	-0.5448	-0.1101	-0.3137	0.4348	0.2779	0.9245	0.3054
-0.0825	-0.3935	0.1073	0.6906	0.0495	0.8392	0.7787	0.3357	1.0181	0.9218	0.6549	0.7567	0.7512	0.1678	-0.5311	0.0083	-0.3274	0.4265	0.2889	0.9493	0.3219
-0.1128	-0.421	0.0853	0.6989	0.0275	0.8365	0.8145	0.3302	0.9961	0.9355	0.6301	0.7209	0.7622	0.1651	-0.5035	0.0798	-0.3109	0.4348	0.3247	0.9603	0.3412
-0.1541	-0.4403	0.0413	0.6686	0.0275	0.7897	0.8172	0.2999	0.9851	0.9383	0.5916	0.6521	0.7567	0.1568	-0.4403	0.1816	-0.2944	0.4155	0.3329	0.9493	0.3742
-0.2421	-0.487	0	0.6411	-0.0275	0.7484	0.8035	0.2669	0.9438	0.9245	0.5063	0.5641	0.7099	0.1293	-0.4155	0.2642	-0.2559	0.388	0.3439	0.9273	0.3219
-0.2697	-0.5283	-0.0908	0.5971	-0.0715	0.7044	0.7704	0.2009	0.8943	0.9025	0.4513	0.5008	0.6962	0.1238	-0.3274	0.3742	-0.2256	0.3742	0.366	0.9383	0.3687
-0.3384	-0.5421	-0.1596	0.5448	-0.1101	0.6274	0.7374	0.1513	0.8227	0.853	0.3715	0.4017	0.6494	0.1018	-0.2174	0.4788	-0.2036	0.3715	0.3797	0.8805	0.3522
-0.3962	-0.6136	-0.2229	0.4815	-0.1486	0.5448	0.6824	0.0715	0.7484	0.7952	0.3027	0.2752	0.5943	0.0881	-0.1183	0.5421	-0.1678	0.3522	0.3715	0.8447	0.3439
-0.4843	-0.6741	-0.3577	0.3852	-0.2476	0.4595	0.5778	-0.022	0.6246	0.7072	0.1431	0.1238	0.4953	0.0743	-0.0055	0.5971	-0.1376	0.3054	0.3797	0.7952	0.355
-0.5861	-0.7594	-0.4678	0.2642	-0.3357	0.3164	0.4925	-0.1348	0.4788	0.6219	0.0303	-0.0523	0.421	0.0688	0.1128	0.6549	-0.1211	0.2834	0.3742	0.7457	0.3302
-0.7017	-0.8557	-0.6081	0.1596	-0.4485	0.1678	0.3522	-0.2642	0.3109	0.4925	-0.1018	-0.2366	0.2972	0.0468	0.2174	0.6494	-0.1018	0.2642	0.3164	0.7017	0.2999
-0.82	-0.9631	-0.7457	-0.0275	-0.5613	-0.0028	0.2174	-0.3825	0.1238	0.3495	-0.2889	-0.4458	0.1733	0.0358	0.3219	0.6439	-0.0798	0.2339	0.2807	0.6356	0.3164
-0.93	-1.0704	-0.9053	-0.1651	-0.6604	-0.1706	0.0743	-0.5118	-0.0495	0.2201	-0.4815	-0.6466	0.0633	0.0523	0.3907	0.6191	-0.0963	0.2009	0.2504	0.5888	0.2504
-1.0786	-1.1777	-1.0924	-0.3329	-0.8365	-0.3274	-0.0798	-0.6796	-0.2614	0.033	-0.6796	-0.8915	-0.077	0.066	0.4815	0.5421	-0.0963	0.1623	0.2119	0.5008	0.2201
-1.2602	-1.307	-1.2685	-0.4925	-0.9603	-0.5503	-0.2614	-0.8337	-0.4705	-0.1046	-0.8612	-1.1144	-0.2119	0.0605	0.5366	0.4375	-0.1046	0.1541	0.1266	0.443	0.1513
-1.4226	-1.4171	-1.4418	-0.6714	-1.0896	-0.7209	-0.4265	-0.9851	-0.6934	-0.2476	-1.0429	-1.329	-0.3302	0.0743	0.5641	0.2944	-0.1376	0.1266	0.066	0.377	0.0963
-1.5959	-1.5601	-1.6482	-0.853	-1.2107	-0.8833	-0.5476	-1.1199	-0.8612	-0.3715	-1.252	-1.4914	-0.4182	0.0963	0.5971	0.1238	-0.1651	0.1211	-0.0165	0.3605	0.0413
-1.7968	-1.7032	-1.8436	-1.0429	-1.3483	-1.0896	-0.7374	-1.2877	-1.0676	-0.5118	-1.4391	-1.7032	-0.5145	0.1046	0.5613	-0.0881	-0.1816	0.1073	-0.1266	0.2862	-0.0688
-2.0252	-1.8271	-2.0582	-1.2382	-1.4776	-1.263	-0.864	-1.4198	-1.23	-0.6164	-1.5987	-1.8793	-0.5751	0.1046	0.4953	-0.3274	-0.2036	0.1403	-0.2174	0.2339	-0.1486
-2.248	-1.9701	-2.2783	-1.4143	-1.5794	-1.4253	-1.0043	-1.5519	-1.3951	-0.7127	-1.772	-1.9894	-0.5888	0.1238	0.377	-0.6164	-0.2311	0.1706	-0.3219	0.2119	-0.2284
-2.526	-2.1545	-2.5012	-1.6069	-1.7087	-1.5904	-1.1337	-1.673	-1.5326	-0.798	-1.9041	-2.0802	-0.6191	0.1348	0.2146	-0.9245	-0.2394	0.1954	-0.4513	0.1954	-0.3274
-2.7543	-2.2783	-2.7241	-1.794	-1.7968	-1.717	-1.2217	-1.7583	-1.6399	-0.8255	-2.0004	-2.116	-0.5641	0.1486	0.0303	-1.2245	-0.2724	0.2476	-0.5448	0.2036	-0.399
-3.0047	-2.3829	-2.9112	-1.9536	-1.8546	-1.8298	-1.2877	-1.7913	-1.6812	-0.8117	-2.0307	-2.0885	-0.4843	0.1623	-0.1761	-1.4969	-0.2944	0.3495	-0.6439	0.2366	-0.4623
-3.2414	-2.5122	-3.1341	-2.1077	-1.9068	-1.9234	-1.3538	-1.805	-1.7418	-0.7925	-2.0472	-2.0307	-0.3467	0.1623	-0.443	-1.772	-0.3082	0.454	-0.7237	0.2559	-0.5256
-3.4395	-2.6168	-3.2771	-2.2315	-1.9344	-1.9921	-1.3703	-1.7968	-1.7197	-0.7237	-1.9894	-1.9068	-0.1568	0.1733	-0.7594	-1.9619	-0.3329	0.5888	-0.7925	0.3577	-0.5145
-3.6431	-2.7241	-3.4395	-2.3223	-1.9536	-2.0389	-1.3565	-1.7473	-1.6757	-0.6191	-1.8628	-1.739	0.0495	0.1899	-1.0566	-2.1352	-0.366	0.7429	-0.8667	0.421	-0.5283
-3.844	-2.8176	-3.6046	-2.4186	-1.9371	-2.0472	-1.34	-1.6454	-1.5877	-0.443	-1.6922	-1.5079	0.3384	0.2174	-1.4308	-2.2618	-0.4127	0.9658	-0.908	0.5228	-0.4733
-3.9925	-2.8892	-3.7311	-2.4764	-1.8986	-2.0334	-1.2767	-1.5299	-1.4473	-0.2944	-1.4748	-1.2107	0.6686	0.2366	-1.783	-2.3581	-0.4513	1.1584	-0.9465	0.6384	-0.41
-4.1219	-2.9277	-3.8109	-2.4957	-1.8573	-1.9701	-1.1832	-1.3373	-1.2767	-0.055	-1.1639	-0.8612	1.0704	0.2724	-2.1655	-2.4049	-0.5118	1.3978	-0.9438	0.8145	-0.3164
-4.2457	-2.969	-3.932	-2.5232	-1.7473	-1.9371	-1.0951	-1.1089	-1.0649	0.1954	-0.8475	-0.4513	1.4776	0.3082	-2.5507	-2.4517	-0.5833	1.6785	-0.941	0.9658	-0.1761
-4.3668	-3.0102	-3.9705	-2.5507	-1.6592	-1.8766	-0.9906	-0.897	-0.8475	0.4595	-0.4623	-0.0523	1.8903	0.3219	-2.9717	-2.4874	-0.6274	1.9591	-0.9135	1.1199	-0.0413
-4.4631	-3.013	-4.0421	-2.5507	-1.5326	-1.7858	-0.864	-0.6164	-0.5861	0.7429	-0.0303	0.443	2.3884	0.3577	-3.3789	-2.5425	-0.6879	2.2756	-0.864	1.318	0.1348
-4.5676	-3.0295	-4.1191	-2.5535	-1.4088	-1.6812	-0.7072	-0.3577	-0.3109	1.0566	0.4375	0.9383	2.8837	0.399	-3.8054	-2.6113	-0.7649	2.636	-0.8227	1.4776	0.388
-4.6337	-3.0322	-4.1521	-2.5452	-1.2767	-1.6014	-0.5998	-0.011	-0.0055	1.384	0.9686	1.4776	3.4422	0.421	-4.2182	-2.6745	-0.8172	2.9855	-0.7457	1.6812	0.6053
-4.7437	-3.0322	-4.2017	-2.5315	-1.1639	-1.4969	-0.4733	0.2752	0.2724	1.6867	1.4831	1.9921	3.9843	0.4485	-4.6612	-2.8149	-0.8778	3.3569	-0.6631	1.8518	0.875
-4.8345	-3.0488	-4.2512	-2.537	-1.0263	-1.4033	-0.3439	0.5861	0.5586	2.0224	2.0224	2.5425	4.4933	0.4678	-5.0822	-2.991	-0.9273	3.7339	-0.5696	2.0142	1.1694
-4.9253	-3.0598	-4.3145	-2.5039	-0.8888	-1.34	-0.2339	0.919	0.8585	2.3223	2.5865	3.0955	5.0602	0.5035	-5.5444	-3.1863	-0.9878	4.1576	-0.4623	2.2095	1.5051
-5.0492	-3.068	-4.3668	-2.5232	-0.7815	-1.2547	-0.1321	1.2465	1.1199	2.6278	3.1726	3.6486	5.5885	0.5283	-5.9847	-3.478	-1.0373	4.5511	-0.355	2.3444	1.8546
-5.1537	-3.0955	-4.4658	-2.537	-0.6824	-1.2052	-0.0413	1.5546	1.3868	2.9249	3.7367	4.1797	6.114	0.5393	-6.3809	-3.7697	-1.0731	4.9418	-0.2064	2.4957	2.1903
-5.2775	-3.112	-4.5456	-2.5645	-0.5586	-1.1722	0.0275	1.8738	1.6317	3.1616	4.3117	4.6749	6.568	0.5613	-6.7827	-4.1109	-1.1171	5.3381	-0.0743	2.6085	2.603
-5.4344	-3.1753	-4.6557	-2.6058	-0.5228	-1.1969	0.055	2.1517	1.8326	3.3982	4.8676	5.173	7.0633	0.5778	-7.1486	-4.5154	-1.1309	5.704	0.0688	2.7323	3.0075
-5.5802	-3.2744	-4.7768	-2.6828	-0.476	-1.2079	0.0468	2.3939	1.9784	3.5826	5.3711	5.6022	7.4485	0.5888	-7.5228	-4.9308	-1.1612	6.07	0.1926	2.8039	3.3652
-5.7536	-3.3514	-4.9363	-2.7681	-0.4678	-1.252	0.0605	2.6223	2.1215	3.7669	5.8801	6.0012	7.8228	0.6053	-7.853	-5.3491	-1.1914	6.3919	0.3219	2.8561	3.7559
-5.8994	-3.4835	-5.0574	-2.8451	-0.4925	-1.3345	0.0165	2.8039	2.2123	3.8852	6.3259	6.3424	8.1309	0.6109	-8.1557	-5.8141	-1.2245	6.6946	0.4513	2.9277	4.1356
-6.0948	-3.6431	-5.2473	-2.9662	-0.5393	-1.4748	-0.0605	2.9469	2.2756	3.943	6.7414	6.6066	8.4088	0.6301	-8.4171	-6.2681	-1.23	6.9945	0.5421	2.9497	4.5098
-6.3039	-3.822	-5.4481	-3.1148	-0.6053	-1.6152	-0.1486	3.0625	2.2618	3.9733	7.0716	6.8322	8.5739	0.6329	-8.6235	-6.6946	-1.2547	7.2229	0.6219	2.9414	4.84
-6.5323	-4.0338	-5.6903	-3.2936	-0.7484	-1.7995	-0.2614	3.1175	2.2205	3.9458	7.3825	7	8.7088	0.6246	-8.8023	-7.1459	-1.2465	7.4155	0.6906	2.8919	5.1372
-6.7634	-4.2292	-5.9269	-3.4725	-0.875	-1.9784	-0.4237	3.1753	2.1352	3.8852	7.6274	7.0771	8.7858	0.6384	-8.9041	-7.5366	-1.2547	7.6054	0.7567	2.8451	5.4371
-7.0083	-4.4878	-6.2158	-3.7009	-1.0704	-2.2425	-0.6274	3.1175	1.9811	3.7422	7.7925	7.0688	8.7693	0.6466	-8.9894	-7.9191	-1.2465	7.7375	0.7704	2.7874	5.6985
-7.2642	-4.7492	-6.4965	-3.9348	-1.2657	-2.4902	-0.8392	3.0515	1.7748	3.5716	7.8778	7.0193	8.695	0.6329	-8.9839	-8.252	-1.2492	7.82	0.7925	2.6718	5.9352
-7.5861	-5.0519	-6.8102	-4.2484	-1.5299	-2.7901	-1.0979	2.9249	1.5189	3.3432	7.9163	6.868	8.5299	0.6164	-8.9619	-8.5629	-1.2162	7.8448	0.787	2.5012	6.1113
-7.8888	-5.3601	-7.1514	-4.5181	-1.8133	-3.101	-1.3951	2.7874	1.2327	3.0708	7.8723	6.6781	8.3098	0.6136	-8.9316	-8.8188	-1.1859	7.8585	0.6989	2.3306	6.2351
-8.23	-5.6738	-7.5118	-4.8538	-2.0995	-3.4395	-1.6977	2.526	0.9025	2.7406	7.743	6.3782	8.0236	0.5861	-8.8546	-9.0252	-1.1474	7.7842	0.6136	2.1407	6.3066
-8.5492	-6.037	-7.8365	-5.195	-2.4104	-3.7834	-2.0417	2.2783	0.5283	2.3499	7.5559	6.0397	7.6439	0.5696	-8.739	-9.1875	-1.1171	7.6989	0.5256	1.8986	6.3534
-8.8959	-6.3424	-8.197	-5.5554	-2.7791	-4.1466	-2.4076	1.9701	0.1211	1.9399	7.3275	5.6325	7.2422	0.5421	-8.6345	-9.3251	-1.0676	7.5696	0.3825	1.6482	6.3452
-9.2591	-6.6919	-8.5932	-5.9544	-3.0928	-4.4988	-2.7763	1.6647	-0.2944	1.5051	7.0275	5.173	6.7964	0.5228	-8.5382	-9.4297	-1.0126	7.3935	0.2476	1.3758	6.2791
-9.5893	-7.0193	-8.9179	-6.3094	-3.4312	-4.8593	-3.1396	1.3373	-0.7099	1.0511	6.7386	4.6915	6.3176	0.4815	-8.4033	-9.4847	-0.9576	7.1926	0.1073	1.1061	6.2378
-9.903	-7.3357	-9.2481	-6.6533	-3.7614	-5.173	-3.5248	0.9961	-1.1557	0.5916	6.3672	4.1879	5.7783	0.4513	-8.2823	-9.4902	-0.9108	7.0083	-0.0715	0.8145	6.1333
-10.1836	-7.6136	-9.5315	-7.0193	-4.0696	-5.4894	-3.8797	0.6466	-1.5712	0.1486	6.0012	3.6871	5.272	0.4403	-8.164	-9.5095	-0.8585	6.7717	-0.2229	0.5613	6.0287
-10.445	-7.8723	-9.7901	-7.333	-4.3337	-5.7701	-4.2347	0.3522	-1.9536	-0.2697	5.6573	3.1698	4.752	0.4072	-7.9989	-9.4599	-0.8035	6.513	-0.388	0.2972	5.8966
-10.6899	-8.0842	-10.0295	-7.6522	-4.5621	-6.026	-4.5676	0.044	-2.3196	-0.6879	5.3188	2.6635	4.254	0.3825	-7.8145	-9.3802	-0.7622	6.2846	-0.5256	0.0523	5.7948
-10.8495	-8.2823	-10.1919	-7.9246	-4.7712	-6.2351	-4.8621	-0.2119	-2.636	-1.0731	4.9694	2.2095	3.7807	0.3577	-7.6687	-9.3031	-0.7017	6.048	-0.6384	-0.1486	5.6683
-10.9926	-8.4116	-10.3542	-8.2107	-4.9033	-6.3809	-5.1455	-0.4403	-2.9359	-1.4363	4.6502	1.75	3.3212	0.3329	-7.4953	-9.2453	-0.6604	5.8086	-0.7264	-0.3742	5.5554
-11.0999	-8.5162	-10.4285	-8.4391	-5.0051	-6.4717	-5.4041	-0.6191	-3.1643	-1.7307	4.3668	1.3538	2.9167	0.3082	-7.355	-9.127	-0.6026	5.5637	-0.809	-0.5613	5.4564
-11.1164	-8.5409	-10.4698	-8.6097	-5.0354	-6.5323	-5.605	-0.7429	-3.3377	-2.0059	4.1136	1.0126	2.5205	0.2889	-7.1899	-9.0087	-0.5613	5.3353	-0.8667	-0.7154	5.3876
-11.1769	-8.5519	-10.4835	-8.7913	-5.0464	-6.5405	-5.7646	-0.8557	-3.4753	-2.2398	3.9045	0.6659	2.1627	0.2394	-7.0963	-8.9427	-0.5008	5.1179	-0.886	-0.8557	5.3381
-11.1494	-8.5024	-10.4395	-8.9206	-4.9914	-6.5075	-5.9132	-0.9108	-3.5358	-2.4489	3.7064	0.3825	1.8408	0.2366	-7.0083	-8.8629	-0.4458	4.9116	-0.919	-0.9631	5.2665
-11.0971	-8.4419	-10.368	-9.0224	-4.8978	-6.4084	-6.0342	-0.93	-3.5716	-2.5837	3.5688	0.1596	1.5794	0.2146	-6.934	-8.7968	-0.4045	4.7272	-0.8695	-1.0594	5.2583
-10.9871	-8.2905	-10.2304	-9.039	-4.7327	-6.2544	-6.059	-0.8805	-3.5248	-2.6828	3.4835	0.0055	1.3675	0.2064	-6.8652	-8.717	-0.3742	4.5429	-0.8255	-1.0896	5.272
-10.8688	-8.1254	-10.0708	-9.083	-4.5621	-6.0838	-6.0865	-0.7952	-3.4505	-2.7653	3.4367	-0.1293	1.1887	0.1596	-6.8349	-8.6675	-0.3164	4.3585	-0.7567	-1.1447	5.2996
-10.6899	-7.9026	-9.8534	-9.0445	-4.2897	-5.8251	-6.0535	-0.6411	-3.2689	-2.7516	3.4092	-0.1844	1.0484	0.1403	-6.8212	-8.5657	-0.2669	4.1824	-0.6521	-1.1612	5.3436
-10.489	-7.6439	-9.6305	-8.9922	-3.9788	-5.5362	-5.9764	-0.4678	-3.0845	-2.7048	3.4642	-0.1926	0.9631	0.1128	-6.8184	-8.5107	-0.2036	4.0338	-0.5173	-1.1667	5.4124
-10.2579	-7.3605	-9.3361	-8.8849	-3.6651	-5.2143	-5.8691	-0.2531	-2.7874	-2.6278	3.5275	-0.1321	0.93	0.0743	-6.7909	-8.3703	-0.1348	3.877	-0.3742	-1.1447	5.4894
-9.9552	-7.0275	-9.0087	-8.717	-3.2551	-4.8208	-5.6985	0.0193	-2.4792	-2.4792	3.6514	-0.0303	0.952	0.033	-6.7579	-8.252	-0.0633	3.7724	-0.1871	-1.1089	5.6187
-9.6333	-6.6313	-8.6455	-8.5217	-2.8259	-4.375	-5.4674	0.3715	-2.0829	-2.2893	3.8495	0.1789	1.0236	-0.0028	-6.7276	-8.0897	0.0055	3.6596	0.0468	-1.0511	5.7536
-9.2838	-6.2213	-8.2217	-8.2575	-2.3361	-3.8962	-5.2088	0.7209	-1.6537	-2.0527	4.0778	0.3962	1.1199	-0.0275	-6.6781	-7.9246	0.0688	3.533	0.2999	-0.941	5.9021
-8.8794	-5.7948	-7.7897	-7.9548	-1.8546	-3.4065	-4.8978	1.1171	-1.1749	-1.7968	4.3117	0.6686	1.2822	-0.0633	-6.5928	-7.7485	0.1376	3.4312	0.5338	-0.842	6.0838
-8.4501	-5.3271	-7.311	-7.6329	-1.329	-2.8809	-4.5621	1.5299	-0.6659	-1.4693	4.6254	0.9878	1.4528	-0.1046	-6.5213	-7.5476	0.2119	3.3322	0.7925	-0.7127	6.2544
-7.9879	-4.8208	-6.8267	-7.2504	-0.7925	-2.3223	-4.1769	1.9866	-0.1183	-1.1226	4.9171	1.34	1.6647	-0.1431	-6.4222	-7.3605	0.2752	3.2304	1.0786	-0.5916	6.4497
-7.5393	-4.3117	-6.3286	-6.8707	-0.2449	-1.7418	-3.7724	2.4434	0.4568	-0.7594	5.2555	1.75	1.9041	-0.1761	-6.3314	-7.1761	0.355	3.1781	1.3263	-0.454	6.6396
-7.0908	-3.8109	-5.8141	-6.447	0.2944	-1.1859	-3.3432	2.8837	1.0016	-0.377	5.5802	2.1407	2.138	-0.2119	-6.2213	-6.9808	0.4348	3.0928	1.6014	-0.3302	6.8349
-6.6203	-3.3047	-5.2996	-6.0095	0.8502	-0.5971	-2.9057	3.3652	1.5932	0.0413	5.9297	2.5672	2.4186	-0.2586	-6.0838	-6.7909	0.5035	3.0267	1.8766	-0.1981	7.0248
-6.1636	-2.8121	-4.785	-5.5775	1.3593	-0.0358	-2.4517	3.7999	2.1738	0.4292	6.2461	3.002	2.7048	-0.2807	-5.9847	-6.6313	0.5668	2.9525	2.1105	-0.0578	7.1844
-5.693	-2.2811	-4.265	-5.1097	1.8931	0.52	-2.0004	4.2457	2.7488	0.8557	6.5845	3.4532	3.002	-0.3082	-5.8444	-6.4415	0.6136	2.8974	2.3636	0.077	7.3412
-5.2445	-1.8353	-3.7999	-4.6694	2.3664	1.0484	-1.5409	4.6309	3.2881	1.2327	6.9065	3.877	3.2689	-0.3329	-5.7701	-6.3176	0.6659	2.8451	2.5617	0.1981	7.4595
-4.8373	-1.3951	-3.3239	-4.2264	2.8259	1.5767	-1.1089	5.0106	3.8164	1.6289	7.2009	4.3145	3.5578	-0.3605	-5.671	-6.1746	0.7072	2.8094	2.7626	0.3054	7.5724
-4.4356	-0.9383	-2.8782	-3.7862	3.2854	2.0719	-0.6741	5.3876	4.3558	2.0252	7.4595	4.7437	3.8522	-0.3742	-5.5692	-6.048	0.7347	2.7598	2.9277	0.4458	7.6274
-4.0778	-0.5503	-2.4434	-3.3432	3.6596	2.526	-0.2531	5.704	4.8565	2.3884	7.7044	5.1537	4.1109	-0.3742	-5.4536	-5.9104	0.7484	2.7048	3.0598	0.5586	7.6356
-3.7311	-0.1761	-2.0692	-2.9442	4.0338	2.9552	0.1376	5.9957	5.3271	2.7103	7.9411	5.5527	4.3805	-0.4045	-5.3986	-5.7811	0.7842	2.669	3.1973	0.6439	7.6632
-3.4202	0.1513	-1.684	-2.5507	4.3585	3.3817	0.509	6.2461	5.7591	3.0515	8.1199	5.9407	4.6172	-0.4182	-5.3023	-5.6628	0.8062	2.5865	3.2881	0.7512	7.6136
-3.1313	0.4595	-1.351	-2.2068	4.6667	3.7449	0.8612	6.4745	6.1636	3.3624	8.285	6.2846	4.829	-0.41	-5.239	-5.5499	0.82	2.5672	3.3432	0.8365	7.5311
-2.8782	0.7457	-1.0153	-1.8903	4.9006	4.1054	1.1859	6.6561	6.5103	3.6321	8.4281	6.6121	5.0244	-0.4265	-5.1179	-5.4316	0.8337	2.5094	3.3927	0.8915	7.3908
-2.6305	0.9878	-0.7264	-1.5657	5.14	4.4163	1.4886	6.8102	6.8569	3.8715	8.5079	6.8982	5.1977	-0.4155	-4.9941	-5.2775	0.8172	2.4517	3.401	0.952	7.2642
-2.4407	1.1997	-0.4788	-1.2822	5.3216	4.6997	1.7307	6.901	7.1404	4.1026	8.5574	7.1486	5.3491	-0.399	-4.8703	-5.1675	0.787	2.4021	3.39	1.0208	7.0798
-2.2508	1.3785	-0.2779	-1.0566	5.4509	4.9501	1.9729	6.9973	7.399	4.3007	8.618	7.3798	5.4812	-0.3935	-4.7052	-5.0299	0.7759	2.3581	3.3569	1.0456	6.8762
-2.094	1.5409	-0.0578	-0.8805	5.5637	5.1565	2.1655	7.0551	7.6136	4.4301	8.5794	7.5393	5.5554	-0.3825	-4.5429	-4.9226	0.7319	2.2976	3.3184	1.0841	6.6836
-1.9619	1.6207	0.077	-0.6989	5.6407	5.3051	2.3086	7.0633	7.7732	4.5759	8.5519	7.6824	5.6628	-0.3495	-4.3585	-4.7795	0.6934	2.2701	3.2441	1.0951	6.4194
-1.8711	1.695	0.1816	-0.5998	5.6628	5.4371	2.4296	7.0331	7.8888	4.6529	8.4694	7.754	5.693	-0.3412	-4.2237	-4.6749	0.6659	2.2343	3.1561	1.0951	6.1636
-1.8105	1.7142	0.2476	-0.5311	5.66	5.5252	2.4737	6.9643	7.9548	4.6915	8.329	7.8035	5.7068	-0.3274	-4.0063	-4.5676	0.6384	2.1655	3.0322	1.0621	5.8416
-1.8078	1.7087	0.2421	-0.5503	5.5857	5.5362	2.4957	6.8459	7.9658	4.6749	8.1612	7.7815	5.6683	-0.3109	-3.8247	-4.4466	0.6026	2.138	2.8892	1.0373	5.4894
-1.8215	1.6675	0.2586	-0.5668	5.5142	5.5142	2.4434	6.7056	7.9548	4.6282	7.9356	7.7292	5.5995	-0.2999	-3.6293	-4.3035	0.5723	2.0829	2.7241	0.9906	5.1537
-1.8628	1.5904	0.1926	-0.6686	5.3711	5.4674	2.3856	6.5103	7.8723	4.5594	7.6604	7.6301	5.4977	-0.2779	-3.4615	-4.1576	0.5448	2.0362	2.537	0.9438	4.7547
-1.9289	1.4941	0.1183	-0.7539	5.2555	5.3738	2.2866	6.3204	7.7952	4.4521	7.421	7.5091	5.4151	-0.2449	-3.2606	-4.0283	0.498	1.9839	2.3636	0.908	4.375
-2.0224	1.3785	0.0083	-0.8888	5.0904	5.2968	2.1793	6.0893	7.6604	4.3613	7.1156	7.3715	5.3188	-0.2394	-3.1065	-3.8797	0.465	1.9234	2.1517	0.8117	3.943
-2.1407	1.2575	-0.1183	-1.0456	4.9198	5.1675	2.0527	5.8609	7.5338	4.2209	6.8047	7.2174	5.2253	-0.2174	-2.9029	-3.6899	0.421	1.9096	1.9454	0.7842	3.5771
-2.2618	1.1006	-0.2807	-1.2437	4.73	5.0189	1.8931	5.6297	7.3825	4.0861	6.513	7.0496	5.1014	-0.1871	-2.7901	-3.4863	0.388	1.8793	1.7252	0.7072	3.1451
-2.3856	0.9548	-0.4348	-1.4171	4.5429	4.8758	1.739	5.4041	7.2202	3.9815	6.2186	6.8982	5.0354	-0.1789	-2.603	-3.2606	0.3577	1.8628	1.5024	0.6741	2.7406
-2.5149	0.8145	-0.5751	-1.6069	4.3915	4.7547	1.6234	5.1812	7.0853	3.844	5.9352	6.7524	4.9611	-0.1541	-2.4489	-3.024	0.3137	1.8326	1.2767	0.6246	2.3774
-2.6525	0.6604	-0.7292	-1.816	4.2209	4.5786	1.4391	4.9639	6.9422	3.7201	5.7095	6.6203	4.9061	-0.1431	-2.3168	-2.8066	0.2807	1.8518	1.0704	0.5723	2.0059
-2.7626	0.509	-0.8943	-2.0087	4.0393	4.4356	1.307	4.7768	6.8074	3.6679	5.4812	6.502	4.8868	-0.1156	-2.2013	-2.581	0.2284	1.8848	0.875	0.5558	1.6785
-2.8506	0.3715	-1.0098	-2.1738	3.9238	4.3035	1.1804	4.6062	6.6974	3.5633	5.3106	6.4167	4.8758	-0.0936	-2.0747	-2.3581	0.1954	1.8986	0.6934	0.5338	1.3923
-2.9635	0.2476	-1.1474	-2.3609	3.8027	4.1604	1.0814	4.4933	6.59	3.511	5.1702	6.3479	4.9006	-0.0578	-1.9949	-2.2013	0.1321	1.9866	0.5531	0.5421	1.1447
-3.0653	0.1348	-1.3015	-2.526	3.6981	4.0311	0.9658	4.3668	6.4937	3.489	5.0464	6.3066	4.9529	-0.0248	-1.9454	-2.0692	0.0715	2.0444	0.4155	0.5448	0.9383
-3.1836	0.011	-1.4281	-2.6993	3.6073	3.9017	0.853	4.2787	6.425	3.4863	4.9859	6.2819	5.0216	0	-1.8931	-2.0169	0.0165	2.1297	0.2889	0.5586	0.7567
-3.2881	-0.1211	-1.5767	-2.8699	3.5385	3.7834	0.7567	4.1879	6.3369	3.4615	4.9308	6.2406	5.0959	0.0248	-1.8656	-1.9811	-0.055	2.2563	0.1899	0.5806	0.6356
-3.4092	-0.2256	-1.7115	-3.0625	3.4395	3.6486	0.6824	4.1356	6.2681	3.4808	4.8923	6.2131	5.2088	0.0605	-1.8876	-2.0774	-0.1156	2.3416	0.077	0.5971	0.5035
-3.5165	-0.3302	-1.8573	-3.1808	3.3652	3.5028	0.6081	4.0751	6.1966	3.5083	4.8731	6.2268	5.3381	0.1101	-1.9206	-2.2013	-0.2146	2.4957	-0.0165	0.6301	0.4182
-3.6348	-0.4485	-2.0224	-3.3597	3.2744	3.3377	0.5256	4.0311	6.103	3.5413	4.8593	6.2213	5.4564	0.1458	-1.9811	-2.3994	-0.2779	2.6278	-0.1018	0.6824	0.3329
-3.8027	-0.5668	-2.1903	-3.522	3.1753	3.1753	0.4375	3.9705	6.0012	3.5413	4.8621	6.1746	5.5747	0.1761	-2.1132	-2.6663	-0.3577	2.7874	-0.2036	0.7209	0.2614
-3.965	-0.7374	-2.3939	-3.6981	3.101	3.0322	0.388	3.9183	5.9104	3.6238	4.84	6.1636	5.7123	0.2119	-2.2425	-3.0047	-0.4265	2.9084	-0.2944	0.7182	0.2256
-4.1301	-0.853	-2.5535	-3.8522	3.0047	2.8506	0.2972	3.9017	5.8196	3.6596	4.8758	6.1801	5.8636	0.2669	-2.4021	-3.3157	-0.509	3.0818	-0.377	0.7815	0.1899
-4.2705	-0.9741	-2.7406	-4.0008	2.9222	2.6855	0.2669	3.8687	5.7426	3.7256	4.9061	6.1856	6.0177	0.2889	-2.5727	-3.6569	-0.5751	3.2441	-0.454	0.8035	0.1513
-4.4328	-1.0896	-2.9414	-4.1466	2.8369	2.5177	0.2009	3.8385	5.6545	3.7834	4.9253	6.2268	6.1911	0.3357	-2.7598	-3.9733	-0.6521	3.4175	-0.5338	0.8117	0.1293
-4.6034	-1.2052	-3.1175	-4.2677	2.7626	2.3719	0.1789	3.8632	5.594	3.8825	5.0051	6.2571	6.4084	0.3852	-2.9552	-4.298	-0.7347	3.6156	-0.5778	0.8667	0.1183
-4.7768	-1.318	-3.3102	-4.3805	2.6663	2.1738	0.1596	3.8385	5.5059	3.9733	5.0602	6.3011	6.5818	0.3907	-3.1451	-4.6089	-0.787	3.7862	-0.6411	0.8805	0.1293
-4.9088	-1.384	-3.478	-4.4438	2.6113	2.0472	0.1706	3.877	5.4591	4.1081	5.162	6.3672	6.7964	0.454	-3.3212	-4.851	-0.8805	3.9953	-0.6741	0.93	0.1651
-5.0437	-1.4748	-3.6266	-4.5319	2.57	1.9124	0.1844	3.9128	5.4041	4.2209	5.2748	6.458	7.0193	0.4953	-3.5083	-5.0959	-0.9493	4.2127	-0.7154	1.0016	0.2119
-5.1537	-1.5574	-3.7917	-4.5731	2.5012	1.7775	0.2229	3.943	5.3821	4.364	5.3683	6.546	7.2449	0.52	-3.6596	-5.2885	-1.0236	4.4053	-0.7347	1.0539	0.2504
-5.2858	-1.6152	-3.9403	-4.6199	2.4682	1.6399	0.2504	4.0228	5.3738	4.5374	5.5169	6.6368	7.4788	0.5668	-3.8522	-5.4867	-1.0979	4.6364	-0.7402	1.1502	0.3439
-5.4069	-1.6785	-4.1054	-4.6392	2.4049	1.5134	0.2972	4.0558	5.3491	4.6667	5.6545	6.7414	7.7044	0.5916	-4.0311	-5.594	-1.1337	4.8098	-0.7594	1.2162	0.41
-5.5252	-1.739	-4.2347	-4.6639	2.3884	1.373	0.3605	4.1301	5.3326	4.807	5.7921	6.8129	7.9301	0.6081	-4.1852	-5.7205	-1.1887	5.0464	-0.7429	1.3235	0.5035
-5.6573	-1.805	-4.4053	-4.6777	2.3223	1.2245	0.3852	4.1934	5.2913	4.9418	5.9077	6.8707	8.1227	0.6164	-4.3062	-5.7508	-1.2107	5.2473	-0.7429	1.4006	0.6191
-5.7398	-1.8793	-4.5401	-4.6722	2.2811	1.1061	0.4485	4.2402	5.25	5.0574	6.0177	6.923	8.329	0.6301	-4.3943	-5.7508	-1.252	5.4591	-0.7182	1.5189	0.7292
-5.8334	-1.9536	-4.6859	-4.6804	2.248	0.9658	0.4953	4.2567	5.1977	5.1895	6.1085	6.9505	8.4886	0.6466	-4.5016	-5.7013	-1.263	5.6573	-0.7072	1.6234	0.8447
-5.9654	-2.0334	-4.8621	-4.697	2.1572	0.809	0.5173	4.276	5.1455	5.2638	6.1856	6.9533	8.6537	0.6521	-4.5841	-5.6435	-1.2767	5.8499	-0.6934	1.6977	0.9576
-6.059	-2.149	-5.0299	-4.7135	2.0747	0.6686	0.5476	4.2815	5.0712	5.3408	6.2901	6.978	8.8051	0.6741	-4.6749	-5.4977	-1.3015	6.0507	-0.6411	1.8078	1.0924
-6.1828	-2.2315	-5.1757	-4.719	2.0197	0.4898	0.5668	4.2897	4.9804	5.4041	6.3259	6.9312	8.9124	0.6576	-4.6942	-5.3298	-1.318	6.2158	-0.6274	1.8958	1.2465
-6.2984	-2.3306	-5.3656	-4.763	1.9234	0.3027	0.5613	4.298	4.8868	5.4399	6.3919	6.901	9.0169	0.6714	-4.7492	-5.1372	-1.3263	6.4002	-0.6053	2.0087	1.3951
-6.425	-2.4654	-5.5499	-4.8043	1.8381	0.1458	0.5641	4.309	4.8015	5.4702	6.447	6.8707	9.1188	0.6769	-4.7933	-4.9198	-1.34	6.5708	-0.5723	2.0912	1.5134
-6.5653	-2.5672	-5.7288	-4.8345	1.706	-0.0193	0.5503	4.2374	4.6722	5.4839	6.4662	6.8102	9.1628	0.6879	-4.7823	-4.6804	-1.3565	6.7084	-0.5421	2.1407	1.651
-6.7029	-2.7021	-5.9159	-4.8951	1.6014	-0.2311	0.5035	4.2319	4.5539	5.4812	6.5213	6.7689	9.2371	0.6879	-4.796	-4.4576	-1.3428	6.8514	-0.5366	2.2233	1.794
-6.8432	-2.8396	-6.092	-4.9446	1.4501	-0.4072	0.4788	4.1576	4.386	5.4536	6.535	6.6616	9.2591	0.6851	-4.7933	-4.2457	-1.3373	6.9698	-0.5228	2.2563	1.9289
-6.9615	-2.9359	-6.2764	-4.9969	1.34	-0.5916	0.4348	4.1246	4.2925	5.4234	6.546	6.6176	9.2728	0.6879	-4.7878	-4.0586	-1.351	7.0798	-0.4953	2.3141	2.0637
-7.0606	-3.0955	-6.4305	-5.0464	1.2134	-0.7759	0.366	4.0916	4.1549	5.3849	6.5735	6.5488	9.3169	0.6851	-4.7437	-3.8852	-1.362	7.2092	-0.4815	2.3499	2.1765
-7.1706	-3.2139	-6.59	-5.1097	1.0759	-0.9493	0.3219	4.0366	4.0146	5.3518	6.5708	6.4745	9.2921	0.6906	-4.6997	-3.7779	-1.3483	7.2972	-0.5063	2.3829	2.2728
-7.2807	-3.3514	-6.7634	-5.173	0.9053	-1.1281	0.2752	3.9595	3.866	5.3023	6.557	6.3644	9.2866	0.6906	-4.6667	-3.6816	-1.34	7.399	-0.4843	2.4186	2.3801
-7.3935	-3.4918	-6.9147	-5.2225	0.7732	-1.3455	0.1596	3.8577	3.7009	5.2143	6.513	6.2268	9.2288	0.6714	-4.6117	-3.6486	-1.3263	7.4595	-0.4898	2.3994	2.4462
-7.4788	-3.6376	-7.0743	-5.2968	0.6109	-1.5409	0.0715	3.7614	3.5275	5.1014	6.4717	6.1085	9.1655	0.6741	-4.6006	-3.6101	-1.3098	7.5283	-0.4953	2.4076	2.5232
-7.5916	-3.7889	-7.2202	-5.3381	0.4403	-1.7307	-0.0165	3.6624	3.3404	4.9969	6.3864	5.9462	9.0747	0.6659	-4.5346	-3.6238	-1.2987	7.5806	-0.5118	2.3884	2.6002
-7.6604	-3.9458	-7.3605	-5.4124	0.2531	-1.9316	-0.1321	3.5275	3.1368	4.8428	6.2901	5.7618	8.9674	0.6494	-4.5043	-3.6954	-1.2712	7.6136	-0.5421	2.3691	2.6113
-7.7457	-4.0944	-7.5091	-5.4812	0.055	-2.1545	-0.2724	3.3707	2.9194	4.6942	6.1801	5.5665	8.8353	0.6356	-4.4878	-3.7999	-1.2382	7.6356	-0.5751	2.3471	2.6333
-7.798	-4.2512	-7.6467	-5.5499	-0.1348	-2.3444	-0.3797	3.2249	2.7213	4.5374	6.0315	5.3518	8.684	0.6274	-4.4576	-3.9183	-1.23	7.6577	-0.6219	2.3306	2.6278
-7.897	-4.4108	-7.7952	-5.6132	-0.3357	-2.537	-0.5173	3.0763	2.5205	4.397	5.9049	5.1675	8.5299	0.6136	-4.4493	-4.0916	-1.1997	7.6962	-0.6329	2.3141	2.6498
-7.9768	-4.6006	-7.9328	-5.7095	-0.5586	-2.7406	-0.6631	2.8809	2.2453	4.1797	5.7508	4.9473	8.3483	0.5888	-4.4631	-4.2705	-1.1557	7.6934	-0.7044	2.2701	2.647
-8.0291	-4.7437	-8.0621	-5.7591	-0.7429	-2.9194	-0.7925	2.7516	2.0912	4.0476	5.627	4.7547	8.1887	0.5943	-4.4548	-4.4631	-1.1639	7.7402	-0.7099	2.2535	2.6498
-8.0814	-4.8978	-8.1667	-5.8361	-0.919	-3.0818	-0.9383	2.5975	1.8848	3.8605	5.4922	4.5704	8.0264	0.5806	-4.4466	-4.6557	-1.1447	7.7622	-0.7347	2.237	2.6415
-8.1172	-5.0409	-8.263	-5.9077	-1.0951	-3.2441	-1.0896	2.4599	1.6812	3.6816	5.3793	4.408	7.886	0.5751	-4.4301	-4.84	-1.1281	7.7677	-0.787	2.2205	2.6415
-8.1529	-5.2032	-8.3511	-5.9709	-1.2685	-3.401	-1.252	2.3168	1.5354	3.5413	5.2638	4.2374	7.7127	0.5751	-4.4383	-5.0547	-1.1392	7.7815	-0.787	2.2178	2.636
-8.1227	-5.2996	-8.4116	-6.0342	-1.4473	-3.544	-1.4006	2.182	1.3758	3.3514	5.1565	4.0723	7.5256	0.5778	-4.4218	-5.2445	-1.1226	7.765	-0.8145	2.204	2.6085
-8.1777	-5.4426	-8.5051	-6.1085	-1.6262	-3.6926	-1.5574	2.0114	1.1914	3.1423	5.0106	3.9017	7.3275	0.5696	-4.4273	-5.4151	-1.1006	7.7209	-0.8585	2.171	2.5865
-8.186	-5.594	-8.5684	-6.1718	-1.8023	-3.8275	-1.7032	1.8986	1.0456	2.9827	4.8951	3.7367	7.1624	0.5641	-4.4466	-5.5692	-1.0951	7.6494	-0.853	2.171	2.5727
-8.1502	-5.704	-8.5987	-6.2378	-1.9371	-3.954	-1.8683	1.7555	0.8888	2.8094	4.7795	3.5853	6.9615	0.5641	-4.4245	-5.6573	-1.1034	7.5999	-0.8667	2.1682	2.537
-8.1419	-5.8141	-8.6757	-6.3397	-2.1215	-4.0806	-2.0417	1.6344	0.7594	2.6223	4.6722	3.4065	6.7496	0.5531	-4.4273	-5.7316	-1.0869	7.5063	-0.8888	2.105	2.5094
-8.1172	-5.9242	-8.7005	-6.4167	-2.2728	-4.1879	-2.1682	1.5189	0.6053	2.4296	4.5511	3.2496	6.5213	0.5613	-4.408	-5.7233	-1.1034	7.4183	-0.875	2.105	2.5012
-8.0621	-6.0095	-8.7418	-6.4717	-2.3939	-4.2925	-2.3388	1.3896	0.4678	2.2343	4.4273	3.09	6.3039	0.5586	-4.3915	-5.6958	-1.1034	7.2972	-0.8778	2.0417	2.4819
-8.0511	-6.1388	-8.7638	-6.5708	-2.5507	-4.386	-2.5122	1.2657	0.3082	2.0389	4.309	2.9029	6.081	0.5751	-4.386	-5.6518	-1.1089	7.2092	-0.8998	2.0004	2.4489
-8.0291	-6.2076	-8.7996	-6.6588	-2.6911	-4.5291	-2.7131	1.1281	0.1568	1.8078	4.1769	2.7158	5.8251	0.5586	-4.3778	-5.5362	-1.0896	7.0496	-0.9135	1.9316	2.4296
-8.0071	-6.3204	-8.8353	-6.7276	-2.8314	-4.6282	-2.8837	1.0291	0.0468	1.6179	4.0201	2.5452	5.594	0.5586	-4.3585	-5.4234	-1.0869	6.9037	-0.9135	1.8601	2.3774
-7.9631	-6.3974	-8.8766	-6.8459	-2.98	-4.7602	-3.09	0.886	-0.1128	1.3758	3.9183	2.3746	5.3491	0.5393	-4.3145	-5.3051	-1.0621	6.7359	-0.9053	1.7665	2.3884
-7.9438	-6.4662	-8.8766	-6.9092	-3.1093	-4.851	-3.2469	0.7649	-0.2504	1.1474	3.7697	2.2013	5.1152	0.509	-4.276	-5.1235	-1.0373	6.5818	-0.9025	1.6922	2.3388
-7.9191	-6.5405	-8.9069	-6.9945	-3.2276	-4.9776	-3.4395	0.6741	-0.366	0.9383	3.6926	2.0747	4.8841	0.5145	-4.2154	-4.9886	-1.0181	6.4222	-0.8888	1.6317	2.3416
-7.9163	-6.6423	-8.9647	-7.1073	-3.3652	-5.0767	-3.6403	0.5531	-0.487	0.7374	3.5606	1.9289	4.6722	0.4953	-4.1797	-4.8455	-0.9713	6.2654	-0.9025	1.5409	2.3058
-7.8943	-6.7001	-8.9757	-7.1926	-3.489	-5.2088	-3.822	0.465	-0.6053	0.5256	3.4973	1.8298	4.4906	0.4843	-4.1081	-4.7162	-0.9631	6.103	-0.8585	1.4611	2.3416
-7.8558	-6.7441	-8.9922	-7.2587	-3.5826	-5.2555	-3.9678	0.421	-0.6439	0.3852	3.4532	1.7638	4.309	0.4898	-4.0338	-4.5896	-0.9576	5.9682	-0.8227	1.4363	2.3223
-7.864	-6.8157	-9.0197	-7.3412	-3.6954	-5.3326	-4.1081	0.3687	-0.6906	0.2339	3.423	1.7528	4.1659	0.4898	-3.9981	-4.4603	-0.9548	5.8251	-0.7787	1.3483	2.3581
-7.8393	-6.8817	-9.0307	-7.4238	-3.7999	-5.4234	-4.2815	0.3082	-0.7429	0.077	3.3927	1.6895	4.0366	0.487	-3.932	-4.3778	-0.952	5.7123	-0.7374	1.3098	2.3856
-7.8062	-6.9395	-9.0307	-7.4761	-3.8605	-5.4812	-4.3915	0.3082	-0.7677	-0.0413	3.412	1.6867	3.9238	0.487	-3.8825	-4.2512	-0.9493	5.5775	-0.6934	1.2712	2.4599
-7.7732	-6.9835	-9.0335	-7.5173	-3.9375	-5.4977	-4.5043	0.2944	-0.7677	-0.1458	3.445	1.7087	3.822	0.5008	-3.822	-4.1714	-0.9741	5.4784	-0.6494	1.241	2.5149
-7.732	-7.011	-9.028	-7.5393	-3.976	-5.5142	-4.5979	0.3082	-0.7292	-0.2504	3.5165	1.7363	3.7504	0.509	-3.7532	-4.0806	-0.9906	5.3821	-0.5751	1.2162	2.5837
-7.6989	-7.0358	-9.0169	-7.5586	-3.9953	-5.5169	-4.6942	0.3384	-0.7099	-0.2779	3.5523	1.7665	3.7064	0.498	-3.7064	-4.0476	-0.9933	5.2996	-0.5035	1.1859	2.658
-7.6577	-7.0853	-9.0472	-7.6026	-4.0421	-5.5499	-4.7905	0.3577	-0.6851	-0.377	3.6101	1.8105	3.6321	0.5063	-3.6899	-3.9898	-0.9823	5.2088	-0.4265	1.1529	2.7708
-7.6081	-7.0771	-9.0307	-7.6246	-4.0806	-5.561	-4.8621	0.3797	-0.6356	-0.4182	3.6486	1.8546	3.5798	0.5118	-3.6018	-3.9293	-0.9851	5.14	-0.3522	1.1584	2.8451
-7.5944	-7.0771	-9.039	-7.6769	-4.0834	-5.5995	-4.9418	0.4045	-0.5998	-0.4898	3.7229	1.9041	3.5495	0.5063	-3.5991	-3.932	-0.9768	5.0767	-0.3054	1.1226	2.9387
-7.5283	-7.0991	-9.05	-7.6659	-4.1026	-5.5802	-4.9859	0.4403	-0.5366	-0.5173	3.7587	1.9426	3.533	0.5063	-3.544	-3.9485	-0.9823	5.0079	-0.2284	1.1034	3.0157
-7.4898	-7.1101	-9.0665	-7.7044	-4.1081	-5.6022	-5.0354	0.4898	-0.5118	-0.5256	3.8164	1.9949	3.511	0.5035	-3.5716	-3.9898	-0.9878	4.9501	-0.1733	1.0924	3.079
-7.4678	-7.1101	-9.0802	-7.7017	-4.1219	-5.5665	-5.0437	0.5283	-0.4458	-0.5283	3.8852	2.0664	3.5165	0.509	-3.5523	-4.0173	-0.9906	4.9336	-0.1183	1.0814	3.1588
-7.4265	-7.0661	-9.0527	-7.6742	-4.0889	-5.5252	-5.0547	0.5971	-0.3605	-0.5228	3.9733	2.1297	3.5688	0.5228	-3.5523	-4.0503	-1.0153	4.9418	-0.033	1.1116	3.2441
-7.3742	-7.0358	-9.039	-7.6467	-4.0668	-5.4977	-5.0519	0.6356	-0.3137	-0.5008	4.0146	2.215	3.5606	0.5063	-3.5661	-4.0916	-0.9851	4.9033	-0.0028	1.0979	3.3322
-7.2889	-6.978	-9.0169	-7.5971	-3.9925	-5.4344	-4.9969	0.7319	-0.1899	-0.4127	4.1081	2.3306	3.6348	0.5145	-3.5578	-4.0999	-0.9988	4.9253	0.0633	1.1419	3.4037
-7.2092	-6.879	-8.9316	-7.4953	-3.899	-5.3161	-4.9143	0.831	-0.0523	-0.3467	4.2292	2.4792	3.7174	0.509	-3.555	-4.0861	-1.0043	4.9418	0.1321	1.1722	3.4918
-7.0798	-6.7882	-8.8463	-7.3908	-3.8027	-5.2198	-4.8098	0.9796	0.1183	-0.2064	4.3695	2.6388	3.8247	0.5118	-3.5165	-4.0283	-1.0043	4.9611	0.1954	1.2382	3.5826
-6.945	-6.6698	-8.7253	-7.2312	-3.6734	-5.0822	-4.6832	1.1116	0.2669	-0.0963	4.5016	2.8176	3.9568	0.5228	-3.467	-3.9595	-1.0126	5.0244	0.2586	1.307	3.6789
-6.7882	-6.546	-8.6317	-7.0881	-3.555	-4.9473	-4.5511	1.2822	0.4458	0.0715	4.6777	3.0267	4.1164	0.5256	-3.4285	-3.844	-1.0263	5.0932	0.3577	1.3813	3.8054
-6.6011	-6.3809	-8.4721	-6.9202	-3.3789	-4.7878	-4.397	1.4638	0.6549	0.2614	4.8483	3.2441	4.2787	0.5366	-3.3459	-3.7064	-1.0511	5.1455	0.4348	1.4556	3.9045
-6.4167	-6.2296	-8.318	-6.7111	-3.2111	-4.6199	-4.1989	1.6399	0.8557	0.4513	5.0519	3.456	4.4411	0.5476	-3.2744	-3.5633	-1.0649	5.2088	0.5256	1.5574	4.0256
-6.2351	-6.081	-8.1557	-6.513	-3.046	-4.4493	-4.0393	1.7995	1.0318	0.6466	5.1977	3.6569	4.6172	0.5421	-3.1698	-3.3844	-1.0676	5.294	0.5998	1.6262	4.1164
-6.0562	-5.9434	-8.0511	-6.3424	-2.8727	-4.3007	-3.833	1.9591	1.2052	0.8255	5.3601	3.8605	4.7712	0.5283	-3.1313	-3.2551	-1.0621	5.3518	0.6411	1.684	4.1797
-5.8581	-5.7728	-7.8943	-6.1305	-2.7296	-4.1659	-3.6321	2.1077	1.3896	0.9988	5.4977	4.0503	4.9116	0.5338	-3.0653	-3.0928	-1.0511	5.4234	0.7099	1.7775	4.2705
-5.726	-5.649	-7.765	-5.9297	-2.5507	-4.0146	-3.4808	2.2783	1.5519	1.1832	5.6187	4.2292	5.0849	0.5366	-2.9937	-2.9304	-1.0566	5.4784	0.7594	1.8078	4.3392
-5.5582	-5.5224	-7.6356	-5.7426	-2.4104	-3.9045	-3.3019	2.4241	1.7115	1.3675	5.726	4.397	5.2143	0.5311	-2.8947	-2.7461	-1.0539	5.5307	0.8007	1.8628	4.3833
-5.4014	-5.3628	-7.5338	-5.561	-2.2508	-3.8082	-3.1258	2.5507	1.8271	1.5299	5.8361	4.5594	5.3518	0.5338	-2.8259	-2.5562	-1.0539	5.594	0.8227	1.9124	4.4576
-5.2748	-5.2528	-7.4375	-5.3766	-2.0967	-3.7009	-2.9772	2.6773	1.9564	1.6867	5.9489	4.719	5.4812	0.5228	-2.7543	-2.3636	-1.0539	5.6573	0.8778	1.9784	4.5346
-5.1812	-5.14	-7.3412	-5.2225	-1.9674	-3.6073	-2.7984	2.7956	2.0664	1.8408	6.07	4.8896	5.6215	0.5311	-2.6608	-2.1958	-1.0484	5.7288	0.9163	2.0444	4.6172
-5.0519	-4.9941	-7.2642	-5.0409	-1.8133	-3.5468	-2.669	2.9442	2.1958	1.9894	6.1691	5.0271	5.7563	0.5283	-2.5672	-1.9839	-1.0484	5.7701	0.9576	2.105	4.6915
-4.9831	-4.8951	-7.1816	-4.8923	-1.673	-3.4753	-2.537	3.0377	2.2701	2.1187	6.2791	5.1757	5.8884	0.5228	-2.4764	-1.8436	-1.0291	5.8389	0.9658	2.1848	4.7547
-4.9006	-4.7575	-7.0991	-4.7355	-1.5519	-3.3955	-2.4269	3.1616	2.3719	2.2701	6.4002	5.3271	6.0012	0.5173	-2.3691	-1.6812	-1.0263	5.8939	1.0208	2.2535	4.8538
-4.818	-4.6502	-7.0386	-4.5896	-1.3923	-3.3294	-2.2756	3.2744	2.4819	2.3801	6.5075	5.5114	6.1415	0.5256	-2.2838	-1.5767	-1.0429	5.9957	1.0649	2.3526	4.9473
-4.7437	-4.5511	-6.967	-4.4796	-1.2602	-3.2881	-2.1655	3.3817	2.5782	2.4902	6.6671	5.6545	6.2709	0.5338	-2.182	-1.4969	-1.0318	6.0645	1.0814	2.4462	5.0409
-4.6584	-4.4466	-6.9092	-4.353	-1.1337	-3.2166	-2.0527	3.5248	2.6663	2.5892	6.7937	5.8141	6.4002	0.5366	-2.127	-1.4556	-1.0401	6.1305	1.1281	2.5782	5.162
-4.6144	-4.3227	-6.8349	-4.2154	-1.0236	-3.1973	-1.9564	3.6348	2.7708	2.7103	6.934	5.9572	6.524	0.5366	-2.0417	-1.4528	-1.0401	6.2131	1.1447	2.68	5.2473
-4.5594	-4.2374	-6.7992	-4.0834	-0.9025	-3.1478	-1.8601	3.7614	2.8259	2.8149	7.0853	6.0948	6.6451	0.5228	-1.9894	-1.4748	-1.0456	6.2819	1.1942	2.7681	5.3546
-4.5181	-4.1301	-6.7359	-3.9733	-0.7539	-3.1093	-1.772	3.9128	2.9222	2.9084	7.2367	6.2626	6.7606	0.5393	-1.9261	-1.5024	-1.0539	6.3672	1.2492	2.9222	5.4619
-4.4328	-3.987	-6.6533	-3.8164	-0.6356	-3.068	-1.662	4.0008	3.0075	3.0102	7.3687	6.3919	6.8487	0.5503	-1.8986	-1.5601	-1.0676	6.4112	1.2905	3.0267	5.6105
-4.4053	-3.8825	-6.579	-3.6954	-0.5338	-3.046	-1.5849	4.1329	3.0653	3.0955	7.5476	6.5075	6.9725	0.5503	-1.8903	-1.6427	-1.0924	6.4662	1.3483	3.1423	5.7398
-4.3227	-3.7642	-6.5213	-3.5523	-0.4072	-3.0295	-1.5051	4.2484	3.1175	3.1368	7.6659	6.6231	7.0358	0.5531	-1.8518	-1.7555	-1.0896	6.5323	1.4171	3.2386	5.8609
-4.2842	-3.6321	-6.4552	-3.4477	-0.2972	-2.9937	-1.4198	4.342	3.1506	3.2083	7.7787	6.6698	7.0798	0.5503	-1.8436	-1.8381	-1.0841	6.5653	1.4528	3.3487	5.9737
-4.2319	-3.5275	-6.3947	-3.3294	-0.2091	-3.0075	-1.3648	4.4245	3.1643	3.2249	7.897	6.7359	7.0881	0.5338	-1.8271	-1.9261	-1.0649	6.5845	1.5051	3.4147	6.0838
-4.1879	-3.4065	-6.3507	-3.2221	-0.0991	-2.9992	-1.318	4.5401	3.1781	3.2606	8.0126	6.7799	7.1184	0.5393	-1.8023	-2.0307	-1.0621	6.6066	1.5381	3.4753	6.1938
-4.1274	-3.3074	-6.2791	-3.1175	-0.0055	-3.0185	-1.2685	4.6282	3.2001	3.2716	8.1337	6.8377	7.1266	0.5366	-1.8023	-2.094	-1.0594	6.6258	1.6399	3.5523	6.3286
-4.0668	-3.1561	-6.2186	-2.9772	0.0936	-2.9965	-1.219	4.7135	3.2028	3.2689	8.1695	6.8377	7.1128	0.5311	-1.783	-2.1077	-1.0429	6.6176	1.6812	3.6156	6.4305
-4.0256	-3.0488	-6.1883	-2.9057	0.1651	-3.0185	-1.1832	4.796	3.1836	3.2661	8.2685	6.8349	7.0853	0.5256	-1.7665	-2.1022	-1.0208	6.59	1.7252	3.6569	6.4882
-3.9595	-2.9359	-6.1113	-2.7984	0.2697	-3.0212	-1.1419	4.8731	3.1836	3.2386	8.3318	6.8625	7.0578	0.509	-1.761	-2.0719	-1.0043	6.5625	1.7885	3.6844	6.5818
-3.899	-2.7874	-6.0397	-2.6966	0.3605	-3.0185	-1.1116	4.9473	3.1588	3.2056	8.4061	6.8597	7.0138	0.5008	-1.7335	-2.0252	-0.9961	6.513	1.8463	3.6981	6.6561
-3.8082	-2.6525	-5.9792	-2.581	0.4485	-3.0322	-1.0676	5.0519	3.1478	3.2028	8.4611	6.8569	6.9808	0.5063	-1.6922	-1.9179	-0.9961	6.4855	1.8738	3.7256	6.7194
-3.7229	-2.4957	-5.9021	-2.4737	0.5558	-3.0075	-0.9988	5.1179	3.1368	3.1808	8.5189	6.8625	6.9367	0.5118	-1.6482	-1.728	-1.0098	6.447	1.9564	3.7146	6.7414
-3.6211	-2.3746	-5.8471	-2.3471	0.6411	-2.9745	-0.9438	5.2032	3.112	3.1643	8.5657	6.8762	6.8762	0.509	-1.6069	-1.5932	-1.0098	6.3837	2.0032	3.7229	6.7606
-3.4835	-2.1738	-5.7453	-2.1985	0.7732	-2.9497	-0.8998	5.3106	3.123	3.1588	8.6372	6.8845	6.8487	0.5256	-1.5161	-1.3758	-1.0373	6.3452	2.0362	3.7284	6.8019
-3.3652	-2.0692	-5.6655	-2.0747	0.853	-2.9277	-0.8447	5.3849	3.09	3.1506	8.6537	6.8845	6.8074	0.5393	-1.4418	-1.2107	-1.0484	6.2654	2.0802	3.7036	6.7882
-3.2331	-1.9179	-5.572	-1.9536	0.9878	-2.8974	-0.7787	5.4757	3.1093	3.1506	8.7225	6.8982	6.7744	0.5613	-1.3593	-1.0814	-1.0786	6.2076	2.1297	3.6981	6.7827
-3.1451	-1.772	-5.4922	-1.7913	1.0951	-2.8589	-0.7347	5.5582	3.1203	3.1396	8.7583	6.901	6.7001	0.5668	-1.2575	-0.93	-1.1116	6.1773	2.1903	3.6871	6.7827
-3.0212	-1.6399	-5.4014	-1.695	1.1997	-2.8341	-0.6906	5.6463	3.0955	3.101	8.7721	6.8872	6.6396	0.5888	-1.1612	-0.82	-1.1337	6.1113	2.1985	3.6431	6.7359
-2.9167	-1.5161	-5.3023	-1.5739	1.3043	-2.7846	-0.6384	5.715	3.0845	3.101	8.7968	6.8569	6.59	0.5971	-1.0566	-0.7512	-1.1722	6.0315	2.2343	3.6128	6.7221
-2.8369	-1.384	-5.2335	-1.4638	1.3951	-2.7488	-0.6026	5.7646	3.0763	3.0653	8.7665	6.8212	6.4965	0.6109	-0.9713	-0.7209	-1.219	5.9462	2.2425	3.5661	6.6726
-2.7901	-1.307	-5.162	-1.4061	1.4666	-2.7378	-0.5806	5.8086	3.0377	3.0322	8.7418	6.7882	6.4442	0.6494	-0.8943	-0.7402	-1.2575	5.8911	2.2646	3.544	6.6203
-2.7158	-1.2217	-5.1482	-1.3263	1.5381	-2.7323	-0.5586	5.8526	3.0075	2.9937	8.7555	6.7221	6.3369	0.6549	-0.8833	-0.7842	-1.2932	5.8141	2.237	3.489	6.5708
-2.68	-1.1529	-5.1014	-1.2877	1.5932	-2.7158	-0.5256	5.8801	2.9827	2.9139	8.6923	6.6698	6.2461	0.6824	-0.886	-0.864	-1.3208	5.7288	2.226	3.4367	6.4827
-2.7268	-1.1144	-5.1179	-1.2685	1.6454	-2.7461	-0.5531	5.8581	2.9112	2.8561	8.6317	6.5763	6.1553	0.6824	-0.93	-1.0208	-1.3373	5.6352	2.1958	3.3542	6.3974
-2.7571	-1.1034	-5.1207	-1.2767	1.6977	-2.7598	-0.5888	5.8719	2.8561	2.7901	8.596	6.5378	6.0672	0.6962	-0.9906	-1.2024	-1.3565	5.5582	2.1572	3.2799	6.3341
-2.7984	-1.0291	-5.1207	-1.2465	1.7225	-2.7653	-0.5916	5.8636	2.8231	2.7021	8.5464	6.4882	5.9874	0.7017	-1.0566	-1.3923	-1.3785	5.4646	2.1655	3.2056	6.2378
-2.8314	-1.0071	-5.1455	-1.2657	1.772	-2.7763	-0.6219	5.8526	2.7929	2.6443	8.5134	6.447	5.9379	0.7017	-1.1667	-1.6042	-1.3896	5.4014	2.138	3.1038	6.1773
-2.9029	-1.0043	-5.195	-1.3318	1.794	-2.7929	-0.6411	5.8719	2.7268	2.5672	8.4611	6.3974	5.8581	0.7044	-1.2822	-1.8353	-1.373	5.3381	2.0829	3.0212	6.1278
-2.9745	-0.9768	-5.2115	-1.3703	1.8243	-2.8314	-0.7072	5.8609	2.7158	2.4599	8.4226	6.3562	5.7838	0.7072	-1.4088	-2.0637	-1.373	5.2418	2.0609	2.9002	6.0672
-3.0295	-0.9603	-5.25	-1.384	1.8518	-2.8534	-0.7209	5.8719	2.6966	2.4296	8.4061	6.3369	5.7343	0.6989	-1.4941	-2.2701	-1.3868	5.217	2.0389	2.8286	6.015
-3.123	-0.9631	-5.2913	-1.4308	1.8848	-2.8424	-0.7622	5.8499	2.6553	2.3526	8.3593	6.3039	5.682	0.6906	-1.6152	-2.4654	-1.373	5.1372	2.0059	2.7213	5.9682
-3.1726	-0.9438	-5.3188	-1.4748	1.8958	-2.8506	-0.7925	5.8609	2.6443	2.3003	8.3373	6.3039	5.6545	0.6934	-1.662	-2.6085	-1.3813	5.1152	2.0224	2.6635	5.9242
-3.2194	-0.9163	-5.3381	-1.5381	1.9619	-2.8506	-0.8282	5.8829	2.6388	2.248	8.3428	6.3011	5.6187	0.6962	-1.7225	-2.7241	-1.373	5.0767	2.0032	2.581	5.9297
-3.2606	-0.897	-5.3738	-1.5739	1.9756	-2.8479	-0.842	5.8884	2.647	2.193	8.3043	6.2709	5.5857	0.6934	-1.794	-2.8341	-1.3675	5.0602	2.0142	2.537	5.8994
-3.3102	-0.875	-5.4096	-1.6262	2.0197	-2.8534	-0.8805	5.8829	2.614	2.138	8.2685	6.2351	5.5527	0.6851	-1.8353	-2.8837	-1.3565	5.0602	1.9977	2.4544	5.8554
-3.3652	-0.8612	-5.4261	-1.706	2.0362	-2.8699	-0.9465	5.8774	2.5947	2.0527	8.252	6.2268	5.4977	0.6796	-1.9068	-2.9084	-1.3428	5.0354	2.0169	2.3911	5.8554
-3.4037	-0.831	-5.4702	-1.7693	2.0582	-2.8644	-0.9713	5.8719	2.57	2.0224	8.197	6.1663	5.4509	0.6686	-1.9866	-2.9194	-1.329	5.0244	1.9811	2.3499	5.8141
-3.423	-0.8172	-5.4619	-1.7885	2.0912	-2.8341	-1.0016	5.8636	2.559	1.9646	8.1667	6.1388	5.4234	0.6851	-2.0692	-2.8864	-1.3318	5.0354	2.0142	2.3086	5.8224
-3.467	-0.8007	-5.4867	-1.8546	2.094	-2.8727	-1.0346	5.8196	2.5342	1.8931	8.0979	6.059	5.3821	0.6714	-2.1985	-2.8561	-1.307	5.0326	1.9921	2.2646	5.7976
-3.5055	-0.7842	-5.5032	-1.9041	2.1215	-2.8451	-1.0786	5.8058	2.526	1.8601	8.0484	6.037	5.3711	0.6576	-2.2948	-2.8314	-1.296	5.0574	2.0004	2.204	5.8031
-3.5028	-0.7374	-5.5142	-1.9261	2.149	-2.7956	-1.0539	5.7948	2.5067	1.8353	8.0429	6.0232	5.3656	0.6466	-2.4627	-2.7846	-1.2932	5.0822	2.0279	2.1848	5.8361
-3.533	-0.7264	-5.5114	-1.9674	2.1848	-2.7846	-1.0869	5.7866	2.5287	1.805	7.9823	6.0012	5.3656	0.6411	-2.5837	-2.7186	-1.263	5.1179	2.0279	2.149	5.8636
-3.5578	-0.7182	-5.4977	-1.9811	2.215	-2.7406	-1.0979	5.7728	2.5507	1.783	7.9906	5.9709	5.3628	0.6191	-2.7516	-2.7186	-1.219	5.14	2.0444	2.1297	5.8884
-3.555	-0.6521	-5.4591	-1.9977	2.2646	-2.6883	-1.0979	5.7976	2.6002	1.8105	7.9934	6.015	5.4069	0.5998	-2.8837	-2.6333	-1.1969	5.2225	2.094	2.0912	5.9985
-3.555	-0.6246	-5.4371	-2.0059	2.2976	-2.6058	-1.0786	5.8141	2.647	1.8133	8.0016	6.037	5.4399	0.5833	-3.013	-2.5562	-1.1584	5.2555	2.094	2.0609	6.0645
-3.5138	-0.5586	-5.3601	-1.9894	2.3829	-2.4984	-1.0126	5.8361	2.7296	1.8793	8.0621	6.1003	5.4922	0.5833	-3.1423	-2.4434	-1.1502	5.3106	2.149	2.0774	6.1691
-3.5028	-0.4843	-5.2638	-1.9426	2.4324	-2.3994	-0.9713	5.8884	2.8176	1.9124	8.1227	6.1883	5.5527	0.5751	-3.2166	-2.3278	-1.1254	5.3959	2.204	2.0747	6.3314
-3.445	-0.4403	-5.1702	-1.9096	2.5149	-2.2646	-0.8998	5.9269	2.9057	1.9921	8.2217	6.2846	5.6628	0.5751	-3.2826	-2.2673	-1.1281	5.4646	2.2646	2.0719	6.4662
-3.3955	-0.3412	-5.0519	-1.8518	2.5892	-2.1242	-0.8035	5.9847	3.057	2.0637	8.307	6.3974	5.7536	0.5751	-3.2992	-2.1903	-1.1337	5.5582	2.3086	2.0582	6.6258
-3.3239	-0.2642	-4.9171	-1.8105	2.6855	-1.9729	-0.7182	6.0672	3.1918	2.1462	8.4171	6.4965	5.8361	0.5723	-3.2936	-2.1407	-1.1419	5.6325	2.3856	2.0499	6.8074
-3.2689	-0.1926	-4.8098	-1.75	2.7791	-1.8105	-0.6219	6.147	3.3487	2.248	8.5189	6.6011	5.9407	0.5723	-3.3349	-2.193	-1.1392	5.7536	2.4462	2.0664	6.9698
-3.1891	-0.1101	-4.6777	-1.7142	2.8754	-1.6289	-0.52	6.2076	3.4697	2.3526	8.6097	6.6974	6.0287	0.5861	-3.2909	-2.226	-1.1612	5.8306	2.5094	2.0664	7.1349
-3.1478	-0.0715	-4.5346	-1.6482	2.9167	-1.4583	-0.4403	6.2599	3.6156	2.4544	8.7115	6.7964	6.0975	0.6053	-3.2689	-2.3388	-1.1887	5.9132	2.526	2.1132	7.2862
-3.1341	0	-4.4301	-1.6262	3.0102	-1.3208	-0.3632	6.3341	3.7449	2.5067	8.7858	6.8955	6.1911	0.6053	-3.2221	-2.5205	-1.2107	5.9792	2.5947	2.138	7.4403
-3.0818	0.0523	-4.3062	-1.6042	3.068	-1.1639	-0.2944	6.3507	3.833	2.5617	8.8436	6.9835	6.2654	0.6246	-3.2056	-2.7543	-1.23	6.0672	2.6415	2.1875	7.5724
-3.09	0.0743	-4.2099	-1.5987	3.1175	-1.0181	-0.2366	6.3837	3.9513	2.6333	8.9069	7.0441	6.3259	0.6219	-3.1863	-3.0515	-1.2327	6.1195	2.6415	2.2123	7.6522
-3.1148	0.1266	-4.1274	-1.5932	3.1836	-0.886	-0.1981	6.4387	4.0806	2.7131	8.9592	7.1376	6.3974	0.6384	-3.1808	-3.3762	-1.252	6.1856	2.6773	2.2618	7.7842
-3.112	0.1431	-4.0421	-1.6042	3.2359	-0.7484	-0.1348	6.469	4.1907	2.7708	8.9922	7.2009	6.4635	0.6411	-3.2001	-3.7339	-1.2657	6.2654	2.7076	2.2811	7.8695
-3.1478	0.1954	-3.9458	-1.5959	3.2799	-0.6164	-0.1101	6.5158	4.3172	2.8314	9.0555	7.2834	6.5295	0.6549	-3.2028	-4.0806	-1.2877	6.3341	2.6993	2.3526	7.9823
-3.1533	0.2036	-3.8577	-1.6042	3.3349	-0.4485	-0.0193	6.5433	4.4576	2.9167	9.0995	7.3687	6.6038	0.6604	-3.2386	-4.4411	-1.3043	6.3644	2.7158	2.3856	8.0621
-3.1753	0.2229	-3.7587	-1.5959	3.412	-0.2834	0.0495	6.6038	4.5731	3.0157	9.1518	7.4843	6.6974	0.6659	-3.2414	-4.7547	-1.3263	6.4662	2.7186	2.4544	8.1584
-3.1643	0.2834	-3.6761	-1.5794	3.4835	-0.0963	0.1403	6.6698	4.719	3.1175	9.2233	7.5916	6.8239	0.6962	-3.2689	-5.0409	-1.362	6.546	2.7406	2.5039	8.241
-3.1808	0.2944	-3.5853	-1.5574	3.5495	0.066	0.2091	6.7441	4.8841	3.2221	9.2949	7.7154	6.9422	0.6906	-3.3157	-5.3326	-1.3675	6.6148	2.7626	2.559	8.3263
-3.2056	0.3439	-3.4532	-1.5051	3.6569	0.2834	0.3357	6.8212	5.0684	3.3652	9.3994	7.8833	7.0771	0.7099	-3.3184	-5.5554	-1.4088	6.7111	2.8094	2.625	8.4254
-3.1423	0.4155	-3.3294	-1.4583	3.7724	0.4953	0.4623	6.9257	5.2528	3.511	9.4875	8.0291	7.2559	0.7347	-3.3652	-5.7481	-1.4556	6.8019	2.8534	2.7076	8.5354
-3.1368	0.4623	-3.2139	-1.4088	3.8825	0.7017	0.5696	7.0331	5.4426	3.6926	9.592	8.1805	7.4183	0.7484	-3.3872	-5.8829	-1.4859	6.9037	2.8754	2.7929	8.6097
-3.1286	0.5008	-3.0928	-1.3593	4.0503	0.9603	0.7402	7.1596	5.6518	3.8797	9.6883	8.3373	7.5916	0.7649	-3.434	-5.9544	-1.5161	7	2.9057	2.8644	8.6757
-3.09	0.5806	-2.9442	-1.2685	4.1852	1.2024	0.897	7.2972	5.8801	4.0916	9.8562	8.5464	7.809	0.8062	-3.4945	-5.9847	-1.5684	7.1349	2.9827	3.0102	8.7886
-3.0735	0.6466	-2.8039	-1.1914	4.3475	1.4831	1.0649	7.4183	6.1168	4.2897	9.9772	8.7308	8.0126	0.8337	-3.5578	-5.9792	-1.6399	7.2779	3.0543	3.123	8.8821
-3.0405	0.7292	-2.68	-1.1006	4.5181	1.7225	1.2134	7.5586	6.3507	4.4988	10.0956	8.9151	8.2025	0.864	-3.6403	-5.9517	-1.6977	7.4128	3.068	3.2496	8.9839
-3.0212	0.8035	-2.5342	-0.9961	4.6777	2.0059	1.4116	7.6907	6.5818	4.7355	10.2166	9.0912	8.3868	0.8805	-3.7669	-5.8746	-1.7583	7.5338	3.0873	3.3514	9.0114
-2.9855	0.897	-2.3939	-0.897	4.8593	2.3031	1.6344	7.8668	6.868	4.9859	10.3762	9.3059	8.607	0.9465	-3.877	-5.7701	-1.8491	7.6879	3.1533	3.5193	9.1022
-2.991	0.9631	-2.2563	-0.8117	5.0271	2.5535	1.8133	8.0154	7.1156	5.2308	10.5056	9.504	8.8381	0.9741	-4.0613	-5.715	-1.9234	7.82	3.1891	3.6183	9.1793
-2.9772	1.0676	-2.0885	-0.7017	5.2088	2.8534	2.0169	8.1695	7.3522	5.4757	10.6101	9.7076	9.028	1.0016	-4.2209	-5.5885	-1.9949	7.9301	3.2386	3.7642	9.2371
-2.9635	1.1281	-1.9756	-0.6439	5.4014	3.1286	2.2315	8.3098	7.6136	5.7205	10.7642	9.903	9.2453	1.0401	-4.4053	-5.4729	-2.0527	8.0621	3.2909	3.888	9.3031
-2.9552	1.2162	-1.8078	-0.5311	5.5665	3.4367	2.4269	8.4721	7.8998	5.9572	10.8688	10.1066	9.4517	1.0566	-4.5924	-5.3601	-2.105	8.1915	3.3212	3.987	9.3169
-2.9745	1.296	-1.6537	-0.4237	5.7618	3.7256	2.6443	8.651	8.1805	6.1966	11.0091	10.346	9.6883	1.0869	-4.7823	-5.2803	-2.138	8.3153	3.4037	4.1219	9.3664
-2.9525	1.3868	-1.4666	-0.3274	5.9489	4.0118	2.8286	8.8188	8.4501	6.4525	11.1357	10.5523	9.8975	1.1089	-4.9721	-5.14	-2.1793	8.4281	3.4312	4.2319	9.4242
-2.9442	1.4638	-1.318	-0.2256	6.1168	4.298	3.0212	8.9674	8.7088	6.6533	11.2347	10.7614	10.0818	1.1199	-5.1345	-4.9969	-2.2068	8.5051	3.4753	4.3145	9.4297
-2.9194	1.5409	-1.1447	-0.1293	6.3204	4.6117	3.2496	9.127	8.9647	6.9065	11.3585	10.9706	10.2854	1.1364	-5.2803	-4.8923	-2.2398	8.5932	3.5275	4.4135	9.4489
-2.8974	1.6344	-0.9658	-0.0248	6.5185	4.8978	3.434	9.3196	9.2398	7.1184	11.4824	11.1742	10.4808	1.1584	-5.4096	-4.7795	-2.2783	8.6785	3.5578	4.4768	9.4847
-2.8864	1.6977	-0.7952	0.0605	6.6726	5.1592	3.6211	9.4599	9.4902	7.344	11.5732	11.3723	10.6404	1.1667	-5.5224	-4.708	-2.2976	8.7225	3.6046	4.5484	9.4627
-2.8534	1.7858	-0.6053	0.1871	6.8432	5.4509	3.8275	9.592	9.7296	7.5586	11.664	11.5567	10.8137	1.1804	-5.6463	-4.6859	-2.3388	8.7858	3.6211	4.6006	9.4544
-2.8396	1.8793	-0.4265	0.2531	6.9973	5.7205	3.9705	9.7626	9.9855	7.7292	11.7823	11.719	10.9843	1.1969	-5.7536	-4.6887	-2.3664	8.8326	3.6431	4.6502	9.4627
-2.8341	1.9261	-0.2531	0.3329	7.1706	5.9847	4.1604	9.8534	10.2056	7.9246	11.8456	11.8676	11.1302	1.2107	-5.8361	-4.7575	-2.3856	8.8766	3.6486	4.6997	9.4544
-2.8451	2.0087	-0.0991	0.3742	7.322	6.2433	4.3145	10.0268	10.4313	8.1144	11.9529	12.0574	11.2953	1.2327	-5.9517	-4.8923	-2.4159	8.9371	3.6816	4.7465	9.4352
-2.8396	2.0719	0.0358	0.4458	7.4981	6.4827	4.4686	10.1478	10.6514	8.2823	12.0272	12.2088	11.4604	1.2465	-6.0617	-5.0794	-2.4572	8.9729	3.7064	4.7712	9.4297
-2.8782	2.1407	0.1954	0.487	7.6329	6.7194	4.6227	10.2717	10.8467	8.4226	12.0712	12.3243	11.5594	1.2657	-6.1443	-5.3463	-2.4902	9.0197	3.6954	4.7905	9.3774
-2.9139	2.1985	0.3192	0.52	7.7705	6.9505	4.752	10.3845	11.0366	8.5849	12.14	12.4757	11.7135	1.285	-6.2709	-5.6435	-2.5287	9.0417	3.6954	4.8235	9.3526
-2.958	2.2508	0.4403	0.5421	7.9191	7.1651	4.8896	10.4808	11.2182	8.7335	12.1675	12.572	11.8373	1.296	-6.4194	-6.0095	-2.559	9.0912	3.6789	4.84	9.3086
-3.0075	2.3306	0.5861	0.5696	8.0621	7.3825	5.0216	10.6046	11.3998	8.9014	12.2225	12.6821	11.9666	1.3153	-6.5158	-6.3204	-2.6002	9.1573	3.6651	4.8813	9.2673
-3.0488	2.4434	0.7182	0.6191	8.2162	7.6026	5.1812	10.7147	11.6144	9.0665	12.2858	12.8306	12.118	1.3373	-6.6313	-6.6698	-2.6553	9.2288	3.6514	4.9171	9.2151
-3.1065	2.5232	0.8337	0.6301	8.3621	7.8338	5.3188	10.8165	11.796	9.2591	12.3409	12.96	12.2913	1.3675	-6.7689	-7.0248	-2.7048	9.3114	3.6073	4.9556	9.171
-3.1258	2.6058	0.9603	0.6659	8.4969	8.0401	5.4591	10.9128	11.9749	9.4297	12.3821	13.081	12.4482	1.3978	-6.8982	-7.3467	-2.7543	9.3884	3.5771	4.9914	9.1188
-3.1506	2.6938	1.0814	0.7319	8.6152	8.252	5.6187	11.0036	12.1703	9.6085	12.4207	13.2269	12.6243	1.4308	-7.0028	-7.6356	-2.8259	9.493	3.5303	5.0547	9.0527
-3.1891	2.7681	1.219	0.7704	8.7638	8.4611	5.7481	11.0999	12.3464	9.7874	12.4702	13.3755	12.8196	1.4638	-7.1239	-7.9191	-2.8864	9.5975	3.4918	5.1042	8.9812
-3.2056	2.8479	1.362	0.842	8.8794	8.6647	5.9269	11.1962	12.5142	9.9938	12.5115	13.5213	13.015	1.5079	-7.2339	-8.1529	-2.9607	9.6966	3.4257	5.173	8.8959
-3.2056	2.9304	1.4748	0.8888	8.9812	8.8684	6.081	11.265	12.6821	10.2001	12.5555	13.6946	13.2324	1.5381	-7.3495	-8.3621	-3.0433	9.7874	3.3569	5.2418	8.8243
-3.1836	3.0405	1.6234	1.0043	9.1188	9.0995	6.2654	11.3585	12.8829	10.4092	12.5857	13.8625	13.447	1.5959	-7.4403	-8.4996	-3.1533	9.9387	3.3212	5.3463	8.7335
-3.1396	3.1203	1.794	1.1199	9.2123	9.3279	6.4525	11.4466	13.0645	10.6569	12.6463	14.0276	13.7111	1.6647	-7.5063	-8.6015	-3.2744	10.0846	3.2359	5.4454	8.6345
-3.0818	3.1973	1.9013	1.1997	9.3114	9.5122	6.6258	11.5071	13.2351	10.8825	12.6848	14.2037	13.967	1.7115	-7.5971	-8.6592	-3.3872	10.2386	3.1561	5.5582	8.5272
-3.0708	3.2771	2.0472	1.3208	9.3829	9.6966	6.8102	11.5374	13.3975	11.1329	12.6958	14.3798	14.2395	1.772	-7.6494	-8.7005	-3.5055	10.3927	3.0818	5.6765	8.4143
-2.9992	3.3157	2.1848	1.4418	9.4572	9.8864	6.9835	11.5952	13.5461	11.364	12.7426	14.5476	14.5119	1.8408	-7.7347	-8.6895	-3.6431	10.5633	2.9635	5.8031	8.2988
-2.969	3.3817	2.3113	1.5767	9.5287	10.0956	7.1926	11.6337	13.7001	11.6172	12.7619	14.7237	14.7898	1.9234	-7.7842	-8.6647	-3.7752	10.7725	2.8699	5.9462	8.1612
-2.9139	3.4477	2.4269	1.695	9.548	10.2414	7.3522	11.6612	13.8515	11.8538	12.7508	14.8861	15.1062	1.9839	-7.8695	-8.6042	-3.921	10.9651	2.7626	6.0948	8.0566
-2.8616	3.478	2.5232	1.8105	9.581	10.39	7.5283	11.6887	13.9808	12.1015	12.7426	15.0374	15.3869	2.0527	-7.9548	-8.5272	-4.0613	11.1687	2.6443	6.2433	7.9218
-2.8259	3.5055	2.625	1.9646	9.6443	10.5743	7.7209	11.7135	14.1542	12.4041	12.7701	15.2548	15.7253	2.1462	-8.0044	-8.4501	-4.2319	11.4301	2.5727	6.4277	7.82
-2.8286	3.5633	2.7296	2.0857	9.6911	10.7257	7.9246	11.7438	14.3	12.6518	12.7894	15.4281	16.0362	2.215	-8.0842	-8.3951	-4.3668	11.6585	2.4407	6.6093	7.7099
-2.7736	3.6046	2.8094	2.2315	9.7186	10.8963	8.1172	11.7795	14.4596	12.9435	12.8141	15.6428	16.3802	2.2948	-8.1722	-8.3373	-4.5071	11.9144	2.3884	6.7964	7.6329
-2.7186	3.6596	2.9277	2.3884	9.7929	11.0559	8.3098	11.8291	14.6412	13.2516	12.8774	15.8629	16.7296	2.3609	-8.23	-8.2768	-4.6584	12.162	2.3113	6.9918	7.5889
-2.6993	3.6569	3.0102	2.5397	9.8314	11.2347	8.5272	11.9006	14.8118	13.535	12.9297	16.0995	17.0791	2.4214	-8.2878	-8.241	-4.7795	12.4069	2.2535	7.1981	7.5503
-2.6635	3.7119	3.1286	2.7268	9.8782	11.4163	8.7088	11.9666	15.0071	13.8267	13.015	16.3169	17.4065	2.4847	-8.3511	-8.1805	-4.9061	12.6628	2.2013	7.3935	7.5008
-2.6002	3.7669	3.2166	2.8892	9.9607	11.5869	8.9371	12.0602	15.186	14.1294	13.1306	16.6031	17.7807	2.548	-8.3703	-8.0759	-5.0409	12.9407	2.182	7.6191	7.5063
-2.5205	3.8082	3.3404	3.0515	10.0323	11.7575	9.138	12.151	15.3841	14.4321	13.2461	16.8617	18.1412	2.6085	-8.3841	-7.9768	-5.1455	13.2076	2.1875	7.8173	7.5256
-2.4709	3.8742	3.456	3.2386	10.0956	11.9529	9.3389	12.2363	15.5602	14.6797	13.3479	17.1066	18.4604	2.647	-8.3621	-7.864	-5.2583	13.447	2.1655	7.9989	7.5366
-2.3829	3.943	3.5881	3.401	10.1589	12.1152	9.5452	12.3436	15.7721	14.9796	13.4745	17.3487	18.7823	2.7021	-8.3483	-7.743	-5.3381	13.7222	2.1407	8.1997	7.5999
-2.3003	4.0063	3.6926	3.5743	10.2469	12.2693	9.7379	12.4289	15.9289	15.2218	13.6341	17.6101	19.0988	2.7461	-8.2878	-7.6054	-5.4426	13.9395	2.1655	8.3813	7.6081
-2.182	4.0751	3.7999	3.7532	10.3157	12.4427	9.9085	12.5362	16.138	15.4832	13.7442	17.855	19.3822	2.8011	-8.23	-7.4623	-5.5279	14.2037	2.193	8.5437	7.6577
-2.1077	4.1246	3.8907	3.877	10.3872	12.561	10.046	12.6133	16.2646	15.662	13.846	18.0449	19.6216	2.8204	-8.1557	-7.3605	-5.583	14.3908	2.193	8.6868	7.6769
-2.0307	4.1714	3.9595	3.9953	10.4065	12.6821	10.1891	12.6876	16.3802	15.8491	13.956	18.221	19.8279	2.8506	-8.0952	-7.311	-5.6407	14.5806	2.171	8.8051	7.7017
-1.9454	4.2154	4.0531	4.0944	10.4698	12.7508	10.2744	12.7371	16.4985	15.984	14.0661	18.3833	20.0013	2.8699	-8.0044	-7.2174	-5.671	14.7155	2.1958	8.8821	7.7347
-1.9041	4.2622	4.1191	4.1824	10.4973	12.7949	10.3129	12.7536	16.548	16.0885	14.1266	18.5072	20.1388	2.8782	-7.9466	-7.1899	-5.6958	14.842	2.2095	8.9344	7.743
-1.8243	4.3337	4.1659	4.2402	10.5303	12.8582	10.3707	12.8086	16.6141	16.1491	14.2037	18.609	20.2297	2.8864	-7.8888	-7.1789	-5.6958	14.9081	2.2343	8.9647	7.7952
-1.7968	4.3695	4.2044	4.2567	10.5523	12.8829	10.379	12.8389	16.6361	16.1903	14.2642	18.7025	20.2654	2.8809	-7.8228	-7.1679	-5.6848	14.9301	2.2343	8.9592	7.7952
-1.761	4.397	4.2484	4.2677	10.5496	12.8692	10.3542	12.8444	16.6581	16.1986	14.3165	18.7576	20.2764	2.8589	-7.7512	-7.1954	-5.6545	14.9301	2.2563	8.9234	7.7897
-1.7473	4.4328	4.2484	4.2732	10.5331	12.8389	10.3047	12.8444	16.6361	16.1408	14.3523	18.7823	20.2186	2.8286	-7.7154	-7.2174	-5.5967	14.8723	2.237	8.8518	7.7732
-1.717	4.4851	4.2952	4.2512	10.5248	12.7949	10.2524	12.8279	16.6223	16.094	14.388	18.7741	20.1333	2.8094	-7.6577	-7.2339	-5.5637	14.8008	2.2508	8.7721	7.7567
-1.6922	4.5209	4.298	4.2292	10.5331	12.7674	10.1699	12.8279	16.5728	15.9867	14.4458	18.7988	20.0536	2.7929	-7.6081	-7.2779	-5.5142	14.6852	2.2673	8.6785	7.7622
-1.6757	4.5346	4.2925	4.1439	10.489	12.6655	10.0653	12.7949	16.4902	15.8464	14.4183	18.7273	19.8719	2.7598	-7.5641	-7.2917	-5.4481	14.5311	2.2563	8.5519	7.6742
-1.6372	4.5539	4.2952	4.0999	10.4615	12.5885	9.9635	12.7674	16.4187	15.7033	14.4156	18.653	19.6876	2.7323	-7.5311	-7.3577	-5.3931	14.333	2.248	8.4171	7.6274
-1.6124	4.5786	4.298	4.0421	10.434	12.517	9.8479	12.7674	16.3279	15.5547	14.4018	18.6062	19.4895	2.7268	-7.4761	-7.4045	-5.3601	14.1486	2.2618	8.2795	7.5669
-1.6317	4.5401	4.2319	3.8907	10.3405	12.3491	9.6608	12.66	16.1876	15.3208	14.3275	18.4521	19.2226	2.6773	-7.4155	-7.4733	-5.2913	13.879	2.2233	8.1144	7.465
-1.6152	4.5264	4.1797	3.8137	10.3019	12.2308	9.5095	12.5913	16.0225	15.0952	14.2807	18.3035	18.9282	2.6635	-7.355	-7.5256	-5.2555	13.6616	2.2013	7.9851	7.3495
-1.6344	4.5043	4.1274	3.6706	10.1781	12.0492	9.3169	12.4812	15.8326	14.8365	14.1679	18.0917	18.5925	2.6195	-7.3275	-7.5724	-5.1977	13.3782	2.1517	7.7622	7.2504
-1.6757	4.4356	4.0338	3.5248	10.0873	11.8868	9.1243	12.3766	15.6565	14.5917	14.0413	17.8688	18.2485	2.6085	-7.3275	-7.6412	-5.1427	13.0975	2.0995	7.5944	7.1128
-1.706	4.3558	3.9568	3.3707	9.947	11.686	8.9014	12.2308	15.3979	14.3055	13.8872	17.5991	17.844	2.592	-7.3055	-7.6962	-5.1235	12.7949	2.0444	7.4183	6.9698
-1.7638	4.2787	3.8275	3.2001	9.8011	11.4548	8.6868	12.0712	15.164	14.0001	13.7111	17.3322	17.4395	2.581	-7.2889	-7.7595	-5.1042	12.4812	1.9729	7.2312	6.8239
-1.8573	4.1742	3.6734	3.013	9.6581	11.2485	8.4474	11.8951	14.9136	13.6809	13.4965	17.0048	17.0103	2.5755	-7.2862	-7.8228	-5.0822	12.1538	1.8958	7.0275	6.6726
-1.9536	4.0613	3.5028	2.8039	9.4792	10.9871	8.1887	11.6805	14.6247	13.3589	13.2571	16.6663	16.57	2.5562	-7.3055	-7.897	-5.0657	11.8208	1.772	6.8404	6.4745
-2.094	3.9128	3.3267	2.592	9.2508	10.7367	7.9631	11.4769	14.3165	13.0315	13.0343	16.3252	16.1188	2.548	-7.3632	-7.9631	-5.0464	11.5181	1.6895	6.6561	6.3011
-2.2013	3.7394	3.1478	2.3966	9.0472	10.4863	7.7237	11.221	14.0303	12.7123	12.7591	15.9647	15.6785	2.559	-7.388	-8.0401	-5.0464	11.199	1.5877	6.4525	6.1278
-2.3499	3.5881	2.9359	2.1875	8.8601	10.2139	7.4788	10.9788	13.7524	12.3986	12.5142	15.6042	15.2383	2.5617	-7.4403	-8.0731	-5.0409	10.9238	1.4721	6.2929	5.9379
-2.5012	3.3955	2.7131	1.9784	8.5987	9.9497	7.2174	10.7202	13.4195	12.085	12.2198	15.2328	14.7953	2.5397	-7.4843	-8.1089	-5.0354	10.6156	1.362	6.1168	5.7591
-2.6525	3.2331	2.5067	1.761	8.3758	9.6938	6.9945	10.4808	13.1278	11.8015	11.9474	14.8916	14.3605	2.5507	-7.5173	-8.1805	-5.0437	10.3542	1.2547	5.9572	5.5995
-2.8451	3.0295	2.2756	1.5381	8.1337	9.4187	6.7634	10.2276	12.8279	11.4851	11.6612	14.5146	13.9285	2.5535	-7.5696	-8.2135	-5.0492	10.0901	1.1006	5.7838	5.4206
-3.013	2.8231	2.0224	1.34	7.897	9.1435	6.524	9.947	12.528	11.1824	11.3751	14.1376	13.5295	2.5562	-7.6191	-8.263	-5.0574	9.8122	0.9851	5.5967	5.2418
-3.2056	2.6168	1.7665	1.1144	7.6301	8.8739	6.2929	9.6856	12.2198	10.8935	11.0889	13.8212	13.1168	2.5617	-7.6467	-8.3208	-5.0657	9.5728	0.842	5.4399	5.0739
-3.3955	2.3691	1.5244	0.908	7.3605	8.5932	6.0755	9.4049	11.9006	10.5991	10.7972	13.469	12.7123	2.5782	-7.6742	-8.3786	-5.0959	9.3471	0.7099	5.2638	4.9061
-3.5798	2.1572	1.263	0.7017	7.0963	8.307	5.8609	9.1408	11.6062	10.3322	10.5303	13.1251	12.3409	2.6002	-7.6962	-8.4006	-5.1372	9.0967	0.5723	5.1097	4.73
-3.7697	1.9344	1.0181	0.4925	6.8294	8.0099	5.627	8.8463	11.2677	10.0515	10.2386	12.7646	11.9639	2.6113	-7.7099	-8.4281	-5.173	8.9427	0.432	4.9336	4.5924
-3.9568	1.6647	0.7402	0.2697	6.5268	7.7154	5.4206	8.5629	10.9293	9.7681	9.925	12.4262	11.5897	2.6278	-7.7567	-8.4721	-5.2088	8.7473	0.2531	4.7575	4.4301
-4.1879	1.4171	0.4485	0.0715	6.2268	7.4155	5.2005	8.2603	10.6101	9.4957	9.6388	12.0767	11.2567	2.658	-7.8035	-8.5299	-5.25	8.6235	0.0825	4.6144	4.2457
-4.419	1.1199	0.1431	-0.1403	5.9159	7.0963	4.9556	7.9383	10.2414	9.1793	9.2976	11.7383	10.9238	2.6608	-7.853	-8.5877	-5.2665	8.4666	-0.0825	4.4466	4.1026
-4.6502	0.8585	-0.1376	-0.3715	5.616	6.7606	4.7355	7.6246	9.903	8.9179	8.9729	11.3585	10.5743	2.6828	-7.9163	-8.6427	-5.294	8.3511	-0.2724	4.2787	3.921
-4.8951	0.5668	-0.4623	-0.5888	5.3023	6.4194	4.4823	7.2724	9.5095	8.6125	8.6207	11.0036	10.2359	2.6966	-7.9741	-8.7033	-5.3298	8.2575	-0.4513	4.1026	3.7587
-5.162	0.2697	-0.7759	-0.831	4.9308	6.0727	4.2319	6.901	9.116	8.3043	8.2685	10.6129	9.903	2.7048	-8.0456	-8.7638	-5.3628	8.1392	-0.6659	3.9733	3.5495
-5.4234	-0.0165	-1.0869	-1.0786	4.5924	5.704	3.9788	6.5515	8.7198	8.0126	7.8668	10.2056	9.5728	2.7241	-8.1474	-8.8656	-5.3904	8.0676	-0.8612	3.8164	3.3734
-5.6875	-0.3192	-1.4171	-1.3428	4.2595	5.3628	3.7201	6.1883	8.3401	7.6879	7.4788	9.8259	9.2316	2.7351	-8.219	-8.9289	-5.4041	7.9631	-1.0566	3.6734	3.1561
-5.9627	-0.6164	-1.7445	-1.6042	3.8852	4.9886	3.4587	5.7921	7.9356	7.3467	7.0798	9.4187	8.8821	2.7296	-8.3676	-9.0857	-5.3793	7.8668	-1.296	3.522	2.9525
-6.2461	-0.908	-2.0857	-1.8518	3.522	4.6227	3.2056	5.4399	7.5586	7.0248	6.7056	9.0362	8.5794	2.7103	-8.5079	-9.2206	-5.3656	7.7512	-1.4748	3.3652	2.7598
-6.5103	-1.1804	-2.3884	-2.127	3.2028	4.2842	2.9607	5.0822	7.1871	6.7441	6.3039	8.695	8.2905	2.7103	-8.6647	-9.3471	-5.3573	7.6604	-1.6647	3.2194	2.5342
-6.7359	-1.4473	-2.6663	-2.3554	2.8974	3.9458	2.7213	4.763	6.8212	6.4772	5.9627	8.3456	7.9906	2.7158	-8.8353	-9.4957	-5.3491	7.5641	-1.8766	3.0873	2.3939
-6.934	-1.6675	-2.9304	-2.5865	2.6058	3.6431	2.4847	4.4301	6.4827	6.1883	5.605	8.0236	7.7017	2.6855	-9.0169	-9.6113	-5.3133	7.4568	-2.0637	2.9469	2.1765
-7.1046	-1.8573	-3.1506	-2.7626	2.3554	3.401	2.3058	4.1576	6.2103	5.9434	5.283	7.754	7.4485	2.6745	-9.1793	-9.6938	-5.3051	7.3495	-2.2233	2.8231	1.9784
-7.2257	-2.0499	-3.2964	-2.9387	2.1435	3.1451	2.1325	3.91	5.9489	5.726	4.9996	7.5173	7.2367	2.6745	-9.3471	-9.7379	-5.2858	7.2339	-2.3554	2.7076	1.8353
-7.3357	-2.1682	-3.4587	-3.0845	1.9536	2.9855	1.9784	3.6926	5.7563	5.5417	4.7492	7.3027	7.022	2.6635	-9.4737	-9.7599	-5.272	7.0798	-2.4792	2.5782	1.6867
-7.3963	-2.2811	-3.5771	-3.2028	1.7885	2.8259	1.8821	3.4973	5.5802	5.3601	4.5291	7.1239	6.8349	2.6388	-9.6223	-9.7626	-5.2253	6.9422	-2.5755	2.4572	1.5381
-7.4073	-2.3223	-3.6183	-3.2799	1.6895	2.7021	1.7885	3.3349	5.4619	5.239	4.3255	6.9863	6.6781	2.6333	-9.7296	-9.7379	-5.1867	6.8019	-2.6718	2.3581	1.4308
-7.4128	-2.3636	-3.6321	-3.3267	1.6179	2.6278	1.7115	3.2359	5.3518	5.1455	4.1879	6.8762	6.5405	2.5975	-9.7846	-9.6938	-5.1345	6.6423	-2.7021	2.2233	1.3483
-7.3412	-2.3526	-3.6073	-3.3679	1.5794	2.592	1.6867	3.1588	5.3051	5.0657	4.0476	6.7937	6.4194	2.5755	-9.8122	-9.603	-5.0712	6.4992	-2.7406	2.138	1.252
-7.2504	-2.2756	-3.5385	-3.3432	1.6124	2.6058	1.6895	3.112	5.3106	5.0051	4.0008	6.7717	6.3094	2.5342	-9.7929	-9.4765	-5.0189	6.3369	-2.7076	2.0444	1.23
-7.1073	-2.1793	-3.4422	-3.2854	1.662	2.6663	1.7115	3.1341	5.3491	4.9749	3.9568	6.7386	6.2516	2.5039	-9.7846	-9.3471	-4.9363	6.1801	-2.6718	1.9811	1.2327
-6.9478	-2.0692	-3.2881	-3.2001	1.7693	2.7984	1.7803	3.1643	5.4151	4.9859	3.9238	6.7551	6.1883	2.4627	-9.6911	-9.1738	-4.8483	6.0397	-2.5975	1.9013	1.2685
-6.7056	-1.8903	-3.0763	-3.0983	1.9234	2.9222	1.8436	3.2414	5.5252	5.0106	3.9513	6.7799	6.1305	2.3939	-9.5673	-8.9674	-4.741	5.8664	-2.4984	1.8573	1.3235
-6.4855	-1.6702	-2.8259	-2.9442	2.0857	3.112	1.9701	3.3927	5.6793	5.0684	4.0173	6.8625	6.1278	2.3581	-9.4132	-8.7225	-4.6529	5.715	-2.3499	1.8298	1.4171
-6.2268	-1.4446	-2.559	-2.8039	2.3196	3.3322	2.0857	3.533	5.8554	5.151	4.1164	6.9422	6.0948	2.2948	-9.2206	-8.4831	-4.5236	5.561	-2.226	1.783	1.5079
-5.8994	-1.1612	-2.2591	-2.581	2.5782	3.5991	2.2453	3.7064	6.059	5.2528	4.2044	7.0743	6.0975	2.2315	-8.9949	-8.175	-4.408	5.3876	-2.0279	1.7555	1.6289
-5.5637	-0.8612	-1.8738	-2.3554	2.8727	3.8687	2.4269	3.921	6.3176	5.3656	4.3117	7.2092	6.0838	2.171	-8.761	-7.897	-4.287	5.239	-1.8546	1.7225	1.728
-5.195	-0.5503	-1.5216	-2.116	3.1588	4.2017	2.6525	4.1604	6.6176	5.5169	4.4603	7.3715	6.1058	2.1242	-8.4776	-7.5861	-4.1989	5.0519	-1.6702	1.7005	1.8353
-4.7795	-0.1926	-1.0869	-1.8271	3.5138	4.5704	2.8947	4.3998	6.9147	5.6875	4.6282	7.5448	6.1608	2.0802	-8.1612	-7.2532	-4.1054	4.8951	-1.4528	1.706	1.9426
-4.3392	0.1706	-0.6356	-1.5244	3.8742	4.9473	3.1561	4.6859	7.2532	5.8829	4.774	7.7622	6.2076	2.0224	-7.8283	-6.9285	-4.0118	4.6942	-1.2382	1.7307	2.0279
-3.9073	0.5888	-0.1651	-1.1722	4.3007	5.3821	3.4835	5.0079	7.6246	6.1498	5.0051	8.0154	6.3011	2.0004	-7.4706	-6.5818	-3.932	4.5401	-1.0263	1.772	2.127
-3.4147	1.0016	0.3302	-0.82	4.6859	5.8224	3.7944	5.3216	8.0209	6.3837	5.1867	8.263	6.3782	1.9399	-7.0991	-6.2378	-3.822	4.3282	-0.8227	1.794	2.1848
-2.9112	1.4391	0.864	-0.41	5.1179	6.3066	4.1549	5.649	8.4529	6.6643	5.4179	8.5574	6.5213	1.9041	-6.7469	-5.8856	-3.7422	4.1687	-0.5751	1.8656	2.2288
-2.3801	1.8931	1.4226	0.0083	5.5692	6.8404	4.5731	6.0012	8.9289	6.9945	5.6325	8.8629	6.6506	1.8683	-6.3644	-5.4977	-3.6734	4.0008	-0.3302	1.9619	2.3031
-1.8408	2.3664	1.9921	0.454	6.0232	7.3522	4.9831	6.3699	9.4214	7.3192	5.8609	9.171	6.7772	1.8326	-5.9599	-5.0767	-3.5991	3.8385	-0.1073	2.0444	2.3554
-1.2905	2.7984	2.57	0.8943	6.491	7.8668	5.3821	6.7276	9.8727	7.6246	6.0727	9.4682	6.9285	1.7858	-5.5775	-4.6722	-3.5165	3.6816	0.0963	2.1545	2.3609
-0.7292	3.3074	3.1616	1.3538	6.967	8.4116	5.8141	7.1128	10.3872	7.9823	6.3231	9.7929	7.0991	1.7335	-5.1757	-4.2484	-3.4257	3.5358	0.3329	2.2591	2.4021
-0.1871	3.7807	3.7559	1.8326	7.4375	8.9619	6.2599	7.4871	10.8935	8.329	6.5515	10.1176	7.2669	1.6977	-4.7933	-3.8247	-3.3404	3.3624	0.5393	2.3306	2.4296
0.3935	4.2815	4.3585	2.3086	7.9218	9.5095	6.7166	7.8695	11.4026	8.7033	6.7937	10.4423	7.4513	1.651	-4.3778	-3.3927	-3.2441	3.2194	0.7787	2.4737	2.4544
0.9245	4.73	4.9501	2.7791	8.3868	10.0515	7.1569	8.23	11.8951	9.05	7	10.7477	7.6136	1.5932	-3.9815	-2.9717	-3.1478	3.1148	0.9603	2.6113	2.4627
1.4996	5.2143	5.5224	3.2744	8.8381	10.6184	7.6274	8.6042	12.3821	9.4214	7.2422	11.0889	7.8228	1.5574	-3.6183	-2.5892	-3.0515	3.0102	1.1997	2.7791	2.4792
1.9921	5.6573	6.092	3.7284	9.3141	11.1302	8.0897	8.9454	12.8692	9.7791	7.4623	11.3723	7.9768	1.5106	-3.2414	-2.2123	-2.9525	2.9139	1.3758	2.9222	2.4682
2.5397	6.114	6.6286	4.1852	9.7213	11.6475	8.5244	9.3169	13.3039	10.1478	7.6659	11.6777	8.1529	1.4583	-2.9139	-1.8656	-2.8589	2.8286	1.5932	3.0763	2.5012
3.024	6.5185	7.1541	4.6254	10.1258	12.118	8.9427	9.6195	13.7524	10.4643	7.8475	11.9309	8.3318	1.4116	-2.6168	-1.5574	-2.7708	2.7351	1.7775	3.2276	2.4792
3.4835	6.8982	7.6549	5.0519	10.4973	12.5857	9.3691	9.914	14.1294	10.8	8.0209	12.195	8.4859	1.373	-2.3141	-1.3098	-2.6993	2.6635	1.9206	3.3927	2.4737
3.9623	7.2339	8.0897	5.4509	10.8275	13.0122	9.7626	10.1589	14.5064	11.0971	8.175	12.4096	8.64	1.3263	-2.0582	-1.0621	-2.6113	2.57	2.0664	3.5798	2.4407
4.375	7.5834	8.5602	5.8636	11.1687	13.414	10.1396	10.4313	14.8668	11.4136	8.329	12.6215	8.7831	1.2987	-1.8188	-0.842	-2.559	2.537	2.215	3.7504	2.4379
4.7823	7.8888	8.9647	6.2241	11.4604	13.7964	10.5248	10.6596	15.1943	11.7107	8.4721	12.8582	8.9509	1.2795	-1.6152	-0.6301	-2.5012	2.4847	2.3636	3.9403	2.4214
5.1455	8.1199	9.3389	6.5653	11.6997	14.1431	10.866	10.8715	15.5052	11.9887	8.6097	13.0535	9.1077	1.2492	-1.4363	-0.4403	-2.4462	2.4654	2.4544	4.1081	2.4214
5.4702	8.3813	9.6718	6.8845	11.9446	14.4458	11.21	11.0614	15.7748	12.2556	8.7473	13.2351	9.2591	1.2162	-1.2602	-0.2559	-2.3911	2.4489	2.57	4.2842	2.4021
5.8224	8.6125	10.0268	7.2092	12.1895	14.7595	11.5401	11.2732	16.0583	12.528	8.8904	13.447	9.4407	1.2024	-1.1281	-0.077	-2.3691	2.4352	2.6855	4.4933	2.3856
6.1195	8.7913	10.3129	7.4981	12.3959	15.0319	11.8428	11.4328	16.2756	12.7811	9.0004	13.6231	9.614	1.1804	-1.0401	0.1266	-2.3168	2.4654	2.7598	4.6419	2.3774
6.3672	8.9371	10.5661	7.7897	12.561	15.2603	12.1207	11.5814	16.493	13.0398	9.138	13.7882	9.7874	1.1694	-0.9355	0.2862	-2.2783	2.5012	2.8616	4.8455	2.3774
6.6313	9.1215	10.8	8.0594	12.7041	15.4667	12.3821	11.719	16.7104	13.2681	9.2728	13.9505	9.9607	1.1529	-0.8062	0.5035	-2.248	2.5425	2.9194	5.0051	2.3994
6.8349	9.2123	10.9596	8.2713	12.8279	15.6235	12.6105	11.8373	16.8617	13.4635	9.3664	14.0716	10.1203	1.1226	-0.7897	0.6466	-2.2013	2.625	2.991	5.1647	2.4104
7	9.3114	11.1274	8.4611	12.9297	15.7446	12.8334	11.9556	16.9993	13.6754	9.4957	14.2312	10.3239	1.1144	-0.7347	0.8035	-2.1793	2.7103	3.0488	5.2996	2.4627
7.1514	9.3691	11.2265	8.6427	12.9985	15.8436	13.0288	12.0492	17.1066	13.8515	9.6168	14.3413	10.4973	1.0979	-0.6686	0.9355	-2.1352	2.8231	3.1038	5.4481	2.4654
7.2614	9.4159	11.3008	8.7831	13.0618	15.8987	13.2186	12.118	17.2029	14.0331	9.7213	14.4431	10.6789	1.0814	-0.6631	1.0704	-2.1132	2.9717	3.1671	5.5912	2.5397
7.3385	9.4297	11.3283	8.9096	13.081	15.9234	13.3342	12.195	17.2662	14.1762	9.8342	14.5531	10.866	1.0676	-0.6274	1.1942	-2.0885	3.0845	3.2001	5.704	2.614
7.41	9.4627	11.3585	9.0307	13.1141	15.9454	13.469	12.2611	17.3157	14.3137	9.947	14.6137	11.0476	1.0649	-0.6301	1.3098	-2.0857	3.2744	3.2276	5.8224	2.7103
7.4265	9.3994	11.3228	9.0775	13.0618	15.8987	13.5543	12.2473	17.2689	14.3963	10.0295	14.6494	11.1797	1.0594	-0.5916	1.384	-2.0747	3.4037	3.2359	5.8856	2.7763
7.4403	9.3444	11.276	9.138	13.0398	15.8216	13.6203	12.3051	17.2579	14.5119	10.1231	14.7017	11.331	1.0704	-0.5806	1.4776	-2.0967	3.5826	3.2386	5.9957	2.8424
7.4018	9.2481	11.1632	9.1435	12.9324	15.7171	13.6479	12.2446	17.1781	14.5504	10.1864	14.6852	11.4824	1.0786	-0.5531	1.5409	-2.1077	3.6871	3.2139	6.026	2.9057
7.333	9.16	11.0504	9.1545	12.8306	15.5877	13.6561	12.2225	17.1149	14.5779	10.2552	14.6687	11.5732	1.0896	-0.5421	1.6042	-2.1517	3.8137	3.1781	6.0617	2.9772
7.2697	9.0252	10.8798	9.1132	12.7096	15.4061	13.6369	12.1895	16.9965	14.5944	10.3047	14.6604	11.6557	1.1034	-0.5283	1.6565	-2.1655	3.9183	3.1341	6.0672	3.0185
7.1899	8.8794	10.7174	9.0637	12.5857	15.2548	13.6038	12.151	16.8947	14.6054	10.357	14.6219	11.7548	1.1337	-0.5173	1.673	-2.2233	4.0448	3.0735	6.0617	3.1065
7.0275	8.7088	10.4863	8.9894	12.4372	15.0429	13.5268	12.0822	16.7461	14.5559	10.401	14.5641	11.7988	1.1364	-0.5145	1.6977	-2.2563	4.1439	3.0075	6.0205	3.1781
6.8817	8.5327	10.2937	8.9096	12.2886	14.8833	13.4552	12.0272	16.6223	14.5476	10.4588	14.5256	11.8758	1.1722	-0.4925	1.684	-2.3113	4.2017	2.9497	6.0177	3.2744
6.7029	8.3208	10.035	8.7721	12.118	14.6439	13.3479	11.9391	16.4517	14.4458	10.5	14.4761	11.9061	1.1969	-0.5311	1.6179	-2.3609	4.2815	2.8837	5.993	3.3487
6.4965	8.1337	9.7819	8.662	11.9364	14.4266	13.2076	11.8566	16.2866	14.3715	10.5578	14.4266	11.9116	1.2245	-0.5998	1.5189	-2.4159	4.3448	2.8176	5.9269	3.478
6.2626	7.9081	9.4875	8.4859	11.741	14.1679	13.0563	11.8043	16.1105	14.2395	10.5964	14.3303	11.8979	1.2492	-0.6439	1.4088	-2.4544	4.364	2.7543	5.8911	3.5688
6.0205	7.6989	9.1875	8.307	11.5512	13.9285	12.8857	11.7025	15.9179	14.1211	10.6541	14.2505	11.8786	1.2795	-0.6989	1.2877	-2.5067	4.4245	2.6855	5.8416	3.6816
5.7205	7.4568	8.8491	8.1254	11.3365	13.6286	12.6903	11.6089	15.6923	13.967	10.6844	14.1542	11.8181	1.2932	-0.8117	1.1419	-2.5535	4.4466	2.603	5.7756	3.7972
5.4481	7.2064	8.5244	7.9191	11.1137	13.3589	12.4564	11.4796	15.4694	13.7662	10.7064	14.0166	11.7107	1.3098	-0.8888	0.9851	-2.5727	4.4631	2.5067	5.6903	3.899
5.1207	6.9312	8.1722	7.7127	10.8908	13.0425	12.228	11.3668	15.2328	13.5488	10.6844	13.9093	11.6282	1.3125	-0.9988	0.8282	-2.5865	4.4686	2.4324	5.5857	3.987
4.796	6.6919	7.8338	7.4898	10.6541	12.7591	11.9914	11.2347	14.9934	13.37	10.7174	13.7882	11.5154	1.3318	-1.1061	0.7182	-2.6168	4.4686	2.3444	5.4949	4.0999
4.4988	6.436	7.4843	7.2779	10.4395	12.4482	11.7355	11.1384	14.765	13.1801	10.7257	13.6864	11.4163	1.3428	-1.2079	0.6136	-2.658	4.4768	2.2811	5.4124	4.2374
4.1549	6.1773	7.1128	7.0275	10.1946	12.151	11.4906	10.9926	14.5036	12.9324	10.7147	13.5213	11.232	1.351	-1.3565	0.476	-2.6663	4.4576	2.1655	5.3078	4.3172
3.855	5.9434	6.7964	6.8157	9.9827	11.8703	11.2485	10.8578	14.278	12.7371	10.7284	13.3947	11.1081	1.3758	-1.5134	0.3687	-2.7158	4.4576	2.0885	5.2225	4.4301
3.5275	5.6655	6.4332	6.5708	9.7103	11.5401	10.9953	10.7037	14.0001	12.4729	10.6927	13.2516	10.9486	1.3896	-1.6399	0.2614	-2.7488	4.4383	1.9784	5.1069	4.5043
3.2221	5.4234	6.081	6.3727	9.5012	11.2347	10.7339	10.5578	13.7387	12.239	10.6321	13.103	10.778	1.4088	-1.7528	0.1596	-2.7929	4.3998	1.8958	5.0024	4.5759
2.9222	5.1867	5.7536	6.1113	9.2426	10.9431	10.4918	10.3845	13.4883	11.9776	10.5908	12.938	10.5964	1.4363	-1.9124	0.0468	-2.8259	4.3888	1.7803	4.9116	4.5759
2.6278	4.9473	5.4151	5.8609	9.0032	10.6349	10.2304	10.1754	13.2186	11.7355	10.5193	12.7536	10.39	1.4418	-2.0912	-0.0825	-2.8561	4.3172	1.662	4.774	4.6006
2.3141	4.7135	5.1014	5.6325	8.7776	10.3377	9.9827	9.9993	12.9627	11.4961	10.3955	12.572	10.1864	1.4611	-2.2343	-0.1733	-2.8947	4.265	1.5271	4.6612	4.6144
2.0059	4.4438	4.7575	5.3849	8.5079	10.0158	9.7158	9.7654	12.66	11.199	10.2579	12.3601	9.9717	1.4804	-2.3829	-0.2642	-2.9167	4.1879	1.4061	4.5236	4.5731
1.7418	4.2402	4.4356	5.1592	8.263	9.7406	9.4379	9.5425	12.3794	10.9375	10.1203	12.1593	9.7186	1.4914	-2.526	-0.366	-2.9497	4.1109	1.318	4.3833	4.5154
1.4721	4.0283	4.1329	4.8813	8.0126	9.3829	9.1793	9.2949	12.0932	10.6624	9.9085	11.9281	9.493	1.5161	-2.6553	-0.4375	-2.9717	4.0091	1.1667	4.2622	4.4108
1.1749	3.8109	3.8192	4.5951	7.7595	9.1243	8.9179	9.05	11.796	10.368	9.6966	11.675	9.2261	1.5079	-2.7819	-0.5668	-2.9882	3.8962	1.0401	4.1246	4.3117
0.9245	3.6073	3.522	4.364	7.5063	8.8133	8.6345	8.7721	11.4659	10.0488	9.4489	11.3971	8.9151	1.5244	-2.9194	-0.6384	-2.9827	3.7862	0.8888	3.9595	4.1742
0.6631	3.4092	3.2111	4.0778	7.2449	8.5107	8.329	8.4804	11.1522	9.7241	9.1573	11.0806	8.6207	1.5079	-2.9937	-0.7594	-2.9827	3.6541	0.7237	3.8137	4.0008
0.3935	3.2276	2.9387	3.8192	7.011	8.2107	8.0511	8.208	10.8467	9.3912	8.8518	10.7972	8.2823	1.5079	-3.0983	-0.9053	-2.9827	3.4945	0.5971	3.6541	3.8027
0.1266	3.0295	2.6443	3.5248	6.7276	7.9026	7.754	7.8668	10.5056	9.0527	8.5217	10.467	7.9411	1.4996	-3.1698	-1.0484	-2.9635	3.3239	0.4072	3.467	3.5743
-0.1211	2.8259	2.3499	3.2469	6.4772	7.6384	7.4816	7.5641	10.1561	8.706	8.1557	10.1286	7.6136	1.4886	-3.2386	-1.1997	-2.9387	3.1203	0.2559	3.3404	3.3432
-0.3384	2.6663	2.1187	2.9827	6.2406	7.333	7.1569	7.2779	9.8479	8.3593	7.8062	9.7956	7.2697	1.4748	-3.2661	-1.373	-2.9249	2.9497	0.1321	3.1836	3.1093
-0.5338	2.4847	1.8738	2.7268	6.0425	7.0716	6.89	6.9835	9.5315	8.0484	7.454	9.4517	6.9533	1.4776	-3.2606	-1.5189	-2.9194	2.7653	-0.0523	3.0295	2.8534
-0.7099	2.3526	1.6812	2.4792	5.8224	6.8542	6.6258	6.7084	9.2618	7.7182	7.1184	9.171	6.6176	1.4748	-3.2799	-1.6647	-2.8919	2.5617	-0.1596	2.8919	2.614
-0.8695	2.204	1.4721	2.2563	5.638	6.6203	6.3699	6.447	8.9729	7.4045	6.7744	8.8711	6.3121	1.4501	-3.2469	-1.8436	-2.8699	2.3939	-0.2917	2.7653	2.3691
-1.0016	2.1077	1.3208	2.0169	5.4784	6.4222	6.1388	6.1856	8.7363	7.1294	6.4332	8.5684	6.004	1.4336	-3.2249	-1.9866	-2.8341	2.2178	-0.4017	2.6608	2.094
-1.1364	1.9701	1.1612	1.7995	5.3188	6.2131	5.9021	5.9544	8.4914	6.8735	6.1085	8.3125	5.7673	1.4171	-3.1836	-2.1215	-2.8039	2.0252	-0.498	2.548	1.8793
-1.2107	1.8848	1.0429	1.6317	5.2088	6.1003	5.7123	5.7591	8.2823	6.6231	5.8279	8.0952	5.4867	1.3951	-3.1396	-2.2068	-2.7736	1.8711	-0.5531	2.4599	1.6647
-1.274	1.8078	0.9328	1.4556	5.0849	5.9407	5.5334	5.583	8.1062	6.4002	5.5554	7.8475	5.2638	1.384	-3.0983	-2.2866	-2.7351	1.7197	-0.6521	2.3939	1.4336
-1.3345	1.7142	0.831	1.296	4.9776	5.8306	5.3518	5.4014	7.9328	6.1388	5.2996	7.6494	5.0492	1.3565	-3.0543	-2.3719	-2.6635	1.5299	-0.7154	2.2893	1.2327
-1.3758	1.6482	0.7402	1.1804	4.8896	5.7178	5.217	5.2445	7.8062	5.9764	5.0519	7.443	4.851	1.3153	-2.9937	-2.3856	-2.6195	1.384	-0.7512	2.2508	1.0291
-1.4171	1.5877	0.6934	1.0539	4.818	5.6242	5.0684	5.1014	7.6604	5.8086	4.7933	7.2587	4.6529	1.2767	-2.9359	-2.3856	-2.5425	1.2657	-0.7952	2.1985	0.8585
-1.4391	1.5546	0.6274	0.9465	4.7768	5.5389	4.9776	5.0079	7.5283	5.6435	4.5841	7.0688	4.4906	1.2575	-2.9084	-2.3801	-2.4902	1.1557	-0.831	2.1572	0.6962
-1.4583	1.4776	0.5668	0.8337	4.697	5.4784	4.8483	4.8621	7.4183	5.4839	4.3778	6.9065	4.3337	1.2134	-2.8919	-2.3636	-2.4049	0.9851	-0.8557	2.116	0.5476
-1.4611	1.4391	0.5173	0.7732	4.6474	5.4399	4.7712	4.7823	7.355	5.3573	4.1879	6.7304	4.1962	1.1832	-2.8396	-2.3251	-2.3278	0.919	-0.8833	2.1187	0.3825
-1.4721	1.3896	0.5118	0.7017	4.6117	5.3849	4.6997	4.6694	7.2339	5.2363	3.9788	6.5845	4.0311	1.1447	-2.8451	-2.2646	-2.248	0.798	-0.9025	2.0912	0.2476
-1.4831	1.3455	0.4678	0.6714	4.5676	5.3573	4.6144	4.5951	7.1459	5.1179	3.833	6.4442	3.9073	1.1006	-2.8149	-2.204	-2.1545	0.7292	-0.9493	2.0802	0.1156
-1.4996	1.3345	0.4815	0.6164	4.5319	5.3298	4.5676	4.5016	7.1018	5.0602	3.6679	6.3121	3.7834	1.0484	-2.7956	-2.094	-2.0774	0.6301	-0.9686	2.0857	-0.0028
-1.4473	1.296	0.4843	0.6274	4.5346	5.3463	4.5621	4.4906	7.0468	4.9749	3.5358	6.2076	3.7036	1.0236	-2.7763	-1.9894	-2.0087	0.5806	-0.9796	2.0995	-0.1156
-1.4253	1.274	0.4788	0.6164	4.4878	5.3381	4.5346	4.4466	7.0331	4.9253	3.456	6.1168	3.6183	0.9851	-2.7406	-1.8656	-1.9454	0.5228	-0.9961	2.0774	-0.1981
-1.3896	1.252	0.5008	0.6494	4.4823	5.3711	4.5511	4.4411	7.022	4.8978	3.3844	6.07	3.544	0.9603	-2.7103	-1.7197	-1.8958	0.4705	-0.9878	2.0995	-0.2394
-1.3648	1.23	0.5283	0.6769	4.5016	5.4151	4.5759	4.4328	7.0193	4.8813	3.3157	6.0067	3.4918	0.9438	-2.68	-1.6179	-1.8298	0.4458	-0.9631	2.105	-0.2724
-1.329	1.2272	0.5971	0.7182	4.5181	5.4619	4.5951	4.4796	7.0468	4.8868	3.3157	5.9709	3.4422	0.9108	-2.6002	-1.4804	-1.783	0.4265	-0.9493	2.138	-0.2614
-1.2822	1.1969	0.6026	0.7402	4.5374	5.4949	4.6062	4.4741	7.0633	4.9006	3.3129	5.9324	3.401	0.8695	-2.5425	-1.4088	-1.6977	0.399	-0.9163	2.1242	-0.2752
-1.2602	1.2079	0.6741	0.809	4.5759	5.5802	4.6667	4.5511	7.1211	4.9033	3.3542	5.9379	3.3955	0.842	-2.4682	-1.3455	-1.6454	0.3935	-0.853	2.1297	-0.2174
-1.2272	1.1667	0.6796	0.8365	4.5896	5.6105	4.6804	4.5786	7.1294	4.8731	3.3597	5.9077	3.3404	0.787	-2.3966	-1.296	-1.5491	0.3605	-0.8365	2.116	-0.1541
-1.1997	1.1694	0.7374	0.9053	4.6474	5.682	4.7025	4.6529	7.2147	4.9198	3.4065	5.9132	3.3239	0.7677	-2.3444	-1.263	-1.5024	0.355	-0.7512	2.1352	-0.1183
-1.1749	1.1639	0.7897	0.9383	4.6612	5.7646	4.7575	4.708	7.2587	4.9281	3.4285	5.9049	3.2881	0.7402	-2.2398	-1.252	-1.4418	0.3632	-0.6741	2.1325	-0.0688
-1.1722	1.1584	0.8172	0.9796	4.6529	5.7783	4.7382	4.7217	7.2697	4.9171	3.4505	5.8636	3.2194	0.6989	-2.1958	-1.2492	-1.3703	0.3192	-0.6411	2.1435	-0.033
-1.1474	1.1144	0.8255	1.0126	4.6419	5.8113	4.7492	4.708	7.2669	4.8868	3.4175	5.8141	3.1808	0.6659	-2.0995	-1.2767	-1.307	0.2697	-0.6081	2.116	-0.044
-1.1557	1.1006	0.8585	1.0429	4.6474	5.8361	4.7327	4.708	7.2697	4.8345	3.3955	5.715	3.0735	0.6384	-2.0829	-1.3318	-1.2492	0.2531	-0.6026	2.1297	-0.0495
-1.1777	1.0566	0.8612	1.0401	4.5951	5.8113	4.719	4.6804	7.2202	4.7795	3.3212	5.6215	2.98	0.5998	-2.0472	-1.4061	-1.1859	0.2036	-0.6109	2.0995	-0.0825
-1.2245	0.9823	0.853	1.0869	4.5374	5.8031	4.6832	4.5979	7.1706	4.7162	3.2166	5.4812	2.8506	0.5751	-2.0059	-1.4473	-1.1254	0.1596	-0.6164	2.0664	-0.1486
-1.2272	0.9245	0.8365	1.0704	4.4768	5.7893	4.6502	4.5484	7.1018	4.6254	3.1148	5.3436	2.7131	0.5558	-2.0004	-1.5244	-1.0869	0.1321	-0.6411	2.0554	-0.2174
-1.252	0.8778	0.8557	1.0896	4.4053	5.7783	4.6144	4.4273	7.0193	4.5374	2.9552	5.162	2.5645	0.52	-1.9674	-1.5822	-1.0263	0.0825	-0.6989	2.0307	-0.3137
-1.263	0.8172	0.842	1.0786	4.3227	5.7453	4.5621	4.3172	6.9092	4.4025	2.8039	4.9831	2.4214	0.498	-1.9674	-1.651	-0.9878	0	-0.7484	1.9866	-0.4265
-1.2712	0.7732	0.8557	1.1116	4.2595	5.715	4.5401	4.1879	6.8432	4.3558	2.6333	4.7933	2.2646	0.498	-1.9344	-1.7087	-0.9631	-0.033	-0.7925	1.9921	-0.5283
-1.274	0.7154	0.8502	1.1006	4.1714	5.6903	4.4878	4.0723	6.7359	4.2457	2.4241	4.5924	2.094	0.4705	-1.9344	-1.7803	-0.941	-0.1183	-0.8585	1.9426	-0.6329
-1.2685	0.6962	0.8667	1.1309	4.0916	5.6655	4.4466	3.9293	6.6203	4.1356	2.2618	4.386	1.9344	0.454	-1.9536	-1.8683	-0.9163	-0.1871	-0.8915	1.9068	-0.7374
-1.2437	0.6686	0.8915	1.1309	4.0311	5.6352	4.4411	3.7917	6.535	4.0201	2.0609	4.2044	1.7858	0.4485	-1.9674	-1.9536	-0.8888	-0.2366	-0.9465	1.8711	-0.8365
-1.2245	0.6466	0.9355	1.1942	3.9705	5.6407	4.4356	3.6734	6.4415	3.9155	1.8656	3.9898	1.6399	0.4348	-1.9619	-2.0224	-0.8805	-0.3109	-0.9686	1.8298	-0.919
-1.1969	0.6356	0.9686	1.2079	3.9045	5.627	4.3833	3.5248	6.3397	3.8412	1.6702	3.7917	1.5134	0.4375	-1.9619	-2.1105	-0.8612	-0.355	-0.9851	1.8078	-1.0071
-1.1226	0.6824	1.0594	1.2822	3.9073	5.6545	4.3943	3.4477	6.2709	3.7697	1.4996	3.6293	1.3758	0.4348	-1.9536	-2.182	-0.8695	-0.41	-0.9906	1.7995	-1.0594
-1.0759	0.6824	1.1089	1.3098	3.844	5.6407	4.3998	3.3322	6.1856	3.6899	1.3043	3.434	1.252	0.4265	-1.9399	-2.226	-0.8475	-0.5063	-0.9933	1.75	-1.1226
-0.9851	0.7237	1.1859	1.3896	3.8164	5.649	4.3998	3.2359	6.125	3.6376	1.1309	3.2551	1.1447	0.4127	-1.9289	-2.2728	-0.8337	-0.5311	-0.9878	1.728	-1.1749
-0.9438	0.7512	1.263	1.4556	3.7917	5.6875	4.4025	3.1038	6.0122	3.5633	0.9465	3.0845	1.0181	0.4045	-1.9316	-2.2976	-0.7952	-0.6026	-1.0098	1.6757	-1.2245
-0.8723	0.8337	1.351	1.5024	3.7779	5.7013	4.4218	3.0267	5.9517	3.489	0.7649	2.8947	0.919	0.399	-1.9124	-2.3471	-0.7897	-0.6329	-0.9961	1.6675	-1.252
-0.7842	0.8943	1.4336	1.5794	3.7669	5.693	4.4328	2.9304	5.8801	3.4615	0.5971	2.7323	0.8227	0.3907	-1.9151	-2.3609	-0.787	-0.6604	-0.9933	1.6344	-1.2685
-0.7182	0.9465	1.4969	1.6565	3.7559	5.7178	4.4658	2.8424	5.8196	3.4312	0.4155	2.5645	0.7347	0.3852	-1.8931	-2.3691	-0.7704	-0.7017	-0.9768	1.5932	-1.296
-0.5971	1.0346	1.5822	1.761	3.7614	5.7371	4.4603	2.7626	5.7838	3.3817	0.2669	2.4241	0.6769	0.377	-1.9013	-2.3526	-0.7567	-0.7402	-0.9383	1.6262	-1.263
-0.5008	1.1171	1.6977	1.8656	3.7669	5.7948	4.5071	2.7021	5.7316	3.3762	0.1046	2.3086	0.6411	0.388	-1.8793	-2.2866	-0.7649	-0.7264	-0.8915	1.6207	-1.2602
-0.377	1.2107	1.8133	1.9674	3.8027	5.8526	4.5566	2.636	5.7123	3.3679	0.0028	2.215	0.5806	0.3852	-1.8546	-2.2178	-0.7649	-0.7677	-0.8585	1.6454	-1.241
-0.2531	1.307	1.9179	2.0747	3.7834	5.8994	4.6337	2.5892	5.671	3.3955	-0.1238	2.0995	0.5916	0.3852	-1.8353	-2.138	-0.7567	-0.7704	-0.8255	1.673	-1.2217
-0.1183	1.4171	2.0252	2.204	3.8164	5.9379	4.6942	2.5645	5.6628	3.4175	-0.2091	2.0334	0.5641	0.3852	-1.7803	-2.0279	-0.7539	-0.7897	-0.7897	1.7115	-1.1942
0.044	1.5051	2.1435	2.3196	3.8385	6.0095	4.7878	2.5727	5.6628	3.4532	-0.2614	1.9784	0.5476	0.388	-1.7142	-1.9124	-0.7759	-0.7925	-0.7099	1.7528	-1.1171
0.1816	1.6179	2.2866	2.4709	3.877	6.092	4.8648	2.581	5.6903	3.5193	-0.3109	1.9619	0.5971	0.3852	-1.6565	-1.7913	-0.7677	-0.7732	-0.6659	1.8243	-1.0759
0.3412	1.739	2.3801	2.5837	3.9293	6.1773	4.9694	2.5837	5.7095	3.6046	-0.3219	1.9564	0.6521	0.3797	-1.5987	-1.695	-0.7567	-0.7457	-0.6026	1.8903	-1.0263
0.4678	1.8243	2.5315	2.7131	3.9678	6.2433	5.0492	2.636	5.7536	3.6899	-0.2917	1.9866	0.7264	0.377	-1.5271	-1.5739	-0.7457	-0.7484	-0.5421	1.9701	-0.9631
0.6191	1.9536	2.6773	2.8754	4.0531	6.3782	5.1647	2.7131	5.8499	3.7999	-0.2642	2.0444	0.8255	0.3825	-1.4528	-1.4391	-0.7292	-0.7099	-0.487	2.0637	-0.908
0.7815	2.0582	2.8066	2.9882	4.1274	6.4662	5.2638	2.7929	5.9214	3.9238	-0.1789	2.1242	0.9245	0.3467	-1.4061	-1.362	-0.7154	-0.6604	-0.3742	2.1517	-0.8337
0.919	2.1738	2.9387	3.1368	4.2127	6.557	5.3876	2.8892	6.015	4.0393	-0.0798	2.2398	1.0456	0.3412	-1.318	-1.2079	-0.6879	-0.6274	-0.2917	2.2315	-0.7622
1.0484	2.2838	3.09	3.2551	4.2925	6.6561	5.4784	2.9937	6.114	4.1576	0.0413	2.3388	1.1584	0.3274	-1.2712	-1.0924	-0.6604	-0.5668	-0.2366	2.3554	-0.6962
1.1529	2.3911	3.2194	3.3955	4.408	6.7579	5.572	3.1341	6.2158	4.287	0.2009	2.4572	1.3235	0.3054	-1.1942	-0.9686	-0.6246	-0.5173	-0.1321	2.4462	-0.6356
1.2877	2.5067	3.3377	3.5028	4.5043	6.8872	5.7095	3.2799	6.3397	4.4163	0.3742	2.647	1.4638	0.2972	-1.1281	-0.8447	-0.5998	-0.454	-0.0358	2.5507	-0.52
1.3896	2.592	3.4422	3.6238	4.6144	6.9753	5.7893	3.4257	6.4607	4.5456	0.5476	2.7984	1.6372	0.2752	-1.0621	-0.6796	-0.5668	-0.3632	0.033	2.6525	-0.4072
1.4418	2.6773	3.5413	3.7119	4.719	7.0716	5.9049	3.5688	6.5515	4.6859	0.7567	2.9635	1.8326	0.2531	-0.9933	-0.5476	-0.52	-0.2834	0.1211	2.7488	-0.3412
1.5161	2.7488	3.6211	3.8247	4.8153	7.1184	5.9764	3.7201	6.6753	4.8263	0.9603	3.1341	1.9729	0.2504	-0.9438	-0.3935	-0.4925	-0.1761	0.2064	2.8561	-0.2586
1.5629	2.8176	3.6981	3.9183	4.9198	7.2036	6.07	3.8687	6.7937	4.9391	1.1887	3.3239	2.1572	0.2476	-0.919	-0.3082	-0.4678	-0.0798	0.2889	2.9552	-0.1706
1.6124	2.8341	3.7504	3.9788	4.9859	7.2394	6.1168	4.0036	6.8817	5.0437	1.3923	3.478	2.3113	0.2256	-0.908	-0.2119	-0.454	-0.0028	0.3577	3.002	-0.0963
1.6454	2.8616	3.8247	4.0476	5.0739	7.2779	6.1828	4.1329	6.9588	5.1317	1.5739	3.6486	2.4847	0.2201	-0.886	-0.1266	-0.454	0.0798	0.3962	3.0708	-0.044
1.6537	2.8809	3.844	4.0971	5.1455	7.2972	6.2433	4.2072	7.0523	5.239	1.7913	3.7972	2.6333	0.2476	-0.875	-0.0633	-0.4733	0.1678	0.4292	3.1286	0.0055
1.6592	2.8837	3.8467	4.1329	5.1565	7.3082	6.2681	4.3062	7.1018	5.3161	1.9894	3.921	2.7653	0.2449	-0.919	-0.0138	-0.4898	0.2229	0.4568	3.1891	0.0193
1.6675	2.8369	3.866	4.1962	5.195	7.3027	6.2956	4.3805	7.1404	5.3463	2.1297	4.0283	2.8616	0.2504	-0.9465	-0.0055	-0.498	0.2697	0.454	3.1726	-0.0083
1.651	2.7929	3.866	4.1934	5.1977	7.3	6.3397	4.4768	7.2064	5.3986	2.3003	4.1576	2.9469	0.2889	-0.9631	-0.0165	-0.5531	0.3192	0.4898	3.2083	-0.0055
1.6124	2.7351	3.8302	4.2044	5.1785	7.2669	6.3259	4.4988	7.2092	5.3959	2.4544	4.2512	3.0185	0.2917	-1.0291	-0.0303	-0.5778	0.3247	0.465	3.2028	-0.0523
1.5959	2.7021	3.8192	4.2154	5.1922	7.2202	6.3121	4.5401	7.2092	5.4041	2.5892	4.3227	3.0102	0.3109	-1.0786	-0.066	-0.6246	0.3412	0.4458	3.1918	-0.0605
1.5244	2.636	3.7752	4.2044	5.173	7.1789	6.2984	4.5649	7.2009	5.3849	2.6911	4.375	3.035	0.3357	-1.1639	-0.1321	-0.6604	0.3027	0.4155	3.1726	-0.1046
1.4831	2.5727	3.7174	4.1576	5.1427	7.1376	6.2709	4.5594	7.1816	5.3353	2.7819	4.4163	3.0185	0.3632	-1.219	-0.1678	-0.7154	0.2834	0.3825	3.1561	-0.1403
1.4171	2.4874	3.6679	4.1274	5.1042	7.0551	6.2186	4.5291	7.1184	5.2775	2.8204	4.4053	2.9717	0.3935	-1.2795	-0.2256	-0.7677	0.2146	0.3357	3.101	-0.2311
1.3565	2.4517	3.6211	4.1054	5.0602	7	6.1746	4.4906	7.0743	5.2335	2.8561	4.3723	2.9002	0.4017	-1.307	-0.2586	-0.8117	0.1568	0.2917	3.0267	-0.3439
1.3318	2.3719	3.5468	4.0503	4.9831	6.9147	6.114	4.419	6.9918	5.1152	2.8451	4.3227	2.7956	0.454	-1.3703	-0.2862	-0.8695	0.0715	0.2174	2.9965	-0.432
1.2272	2.2866	3.4615	3.9981	4.9088	6.8322	6.0507	4.3392	6.9037	5.0271	2.8066	4.2292	2.6663	0.454	-1.3896	-0.3137	-0.9025	-0.0413	0.1321	2.9359	-0.5531
1.1969	2.2398	3.4065	3.9568	4.8318	6.7359	5.9847	4.1989	6.7827	4.9006	2.6993	4.0944	2.4957	0.476	-1.3896	-0.3192	-0.941	-0.1431	0.0193	2.8644	-0.6906
1.1639	2.1682	3.3734	3.9375	4.7355	6.6341	5.9187	4.0834	6.6643	4.7712	2.5837	3.9485	2.3058	0.509	-1.3785	-0.3082	-1.0043	-0.2752	-0.0908	2.8424	-0.8805
1.1419	2.094	3.2936	3.8852	4.6062	6.5378	5.8471	3.9017	6.5103	4.6227	2.3774	3.7559	2.1022	0.5421	-1.3538	-0.2724	-1.0511	-0.4072	-0.2339	2.7598	-1.0841
1.1254	2.0389	3.2496	3.8687	4.4768	6.4662	5.8031	3.7284	6.3479	4.4796	2.1903	3.5661	1.8738	0.5723	-1.3125	-0.2394	-1.1171	-0.5641	-0.377	2.7186	-1.307
1.1171	1.9977	3.2166	3.8742	4.3585	6.3699	5.7233	3.5193	6.1966	4.3448	1.9234	3.2964	1.6344	0.6053	-1.263	-0.1486	-1.1749	-0.7044	-0.5476	2.6773	-1.5767
1.1529	1.9839	3.2111	3.8962	4.2319	6.2626	5.671	3.3212	6.0232	4.1852	1.6565	3.0405	1.3758	0.6384	-1.1777	-0.066	-1.2575	-0.8337	-0.7292	2.647	-1.8876
1.1942	1.9591	3.2276	3.921	4.1164	6.1746	5.6325	3.0735	5.8279	4.0476	1.3153	2.7626	1.1171	0.6851	-1.0841	0.0303	-1.3428	-1.0153	-0.908	2.6388	-2.1958
1.2657	1.9344	3.2331	3.965	4.0008	6.1333	5.5995	2.8314	5.649	3.9045	0.9796	2.4682	0.8392	0.7154	-0.9851	0.1541	-1.4226	-1.2024	-1.1281	2.5947	-2.5287
1.3455	1.9371	3.2716	4.0228	3.8935	6.0783	5.5802	2.6002	5.4729	3.7917	0.6384	2.1655	0.5861	0.7732	-0.8145	0.2642	-1.5161	-1.3703	-1.3428	2.6085	-2.8809
1.4363	1.9536	3.3157	4.0999	3.7724	6.0342	5.583	2.3444	5.3298	3.6734	0.2284	1.8491	0.2944	0.8117	-0.6741	0.3962	-1.5849	-1.5491	-1.5574	2.5837	-3.2469
1.5464	1.9784	3.3927	4.1852	3.6624	6.015	5.5802	2.0995	5.1592	3.5606	-0.1844	1.5381	0.0275	0.864	-0.5035	0.509	-1.673	-1.7252	-1.7445	2.6058	-3.6183
1.695	2.0554	3.456	4.298	3.6073	5.9902	5.5802	1.8491	5.0079	3.4422	-0.5888	1.2355	-0.2339	0.897	-0.3192	0.6576	-1.7528	-1.9068	-1.9316	2.6195	-3.9595
1.8546	2.1517	3.5936	4.4383	3.5523	6.026	5.6325	1.6537	4.9116	3.3762	-0.9631	0.941	-0.4705	0.9383	-0.1046	0.8172	-1.8436	-2.0527	-2.0912	2.636	-4.298
2.0169	2.2425	3.7256	4.5539	3.522	6.0425	5.6518	1.4281	4.785	3.2909	-1.3758	0.6219	-0.7292	0.9658	0.077	0.9576	-1.8958	-2.226	-2.2508	2.68	-4.6529
2.1655	2.3581	3.8687	4.6722	3.4835	6.0755	5.6903	1.2575	4.6859	3.2139	-1.7995	0.3522	-0.9906	0.9796	0.2642	1.0731	-1.9344	-2.4076	-2.4434	2.6993	-5.0051
2.3526	2.4709	4.0311	4.8208	3.489	6.147	5.7618	1.0676	4.5786	3.1533	-2.1958	0.066	-1.1997	1.0098	0.4815	1.2245	-1.9894	-2.5507	-2.5672	2.7763	-5.3491
2.4957	2.614	4.1687	4.9143	3.4808	6.1993	5.7783	0.875	4.4906	3.057	-2.6113	-0.2146	-1.4418	1.0071	0.6796	1.3565	-1.9839	-2.7433	-2.7186	2.7681	-5.682
2.6745	2.7543	4.309	5.0382	3.4725	6.2488	5.8169	0.7292	4.4108	2.9855	-3.0075	-0.4788	-1.6922	1.0263	0.8723	1.4831	-1.9784	-2.9414	-2.8341	2.8204	-6.0122
2.8479	2.9002	4.4906	5.2005	3.5083	6.3507	5.8801	0.5888	4.3365	2.9497	-3.3789	-0.7594	-1.9068	1.0016	1.0786	1.6372	-1.9729	-3.1038	-2.9442	2.8589	-6.3011
3.057	3.0543	4.6804	5.3188	3.5661	6.458	5.9352	0.487	4.3282	2.9029	-3.7284	-0.9796	-2.0967	0.9988	1.329	1.8353	-1.9701	-3.3102	-3.0295	2.9222	-6.6148
3.2304	3.2166	4.8621	5.4564	3.6156	6.5433	6.0067	0.4017	4.2897	2.8727	-4.0558	-1.2079	-2.2921	0.9878	1.5051	1.9921	-1.9481	-3.4753	-3.1093	2.9414	-6.8652
3.4257	3.401	5.0739	5.605	3.6816	6.6808	6.081	0.3302	4.2732	2.8644	-4.3503	-1.373	-2.4489	0.9878	1.7473	2.2178	-1.9426	-3.6514	-3.1616	2.991	-7.0881
3.5908	3.5661	5.261	5.7426	3.7889	6.8184	6.1691	0.2944	4.298	2.8616	-4.6199	-1.5409	-2.6002	0.9796	1.9426	2.4462	-1.9344	-3.8054	-3.1671	3.0157	-7.2972
3.7944	3.7614	5.4399	5.8499	3.877	6.9395	6.2351	0.2724	4.3227	2.8644	-4.8538	-1.6977	-2.7351	0.9741	2.1435	2.6498	-1.9041	-3.9705	-3.1918	3.0405	-7.4678
3.9925	3.9238	5.6297	5.9792	3.9815	7.0908	6.3644	0.2834	4.4053	2.8947	-5.0657	-1.805	-2.8424	0.9438	2.2783	2.8341	-1.8711	-4.1356	-3.1973	3.0653	-7.6219
4.1687	4.1054	5.8416	6.103	4.1054	7.2257	6.4332	0.2999	4.4218	2.9112	-5.239	-1.8903	-2.9249	0.9355	2.4159	2.9882	-1.8326	-4.2897	-3.1836	3.0818	-7.7512
4.3365	4.2732	6.0232	6.2433	4.2595	7.3825	6.5598	0.3632	4.5209	2.9855	-5.3849	-1.9674	-3.013	0.919	2.5452	3.1203	-1.7913	-4.4631	-3.1561	3.068	-7.8475
4.5401	4.4961	6.2544	6.3754	4.4383	7.5421	6.6671	0.4485	4.6117	3.0488	-5.4591	-1.9921	-3.046	0.9025	2.6828	3.2661	-1.7665	-4.5456	-3.101	3.1065	-7.8805
4.7382	4.6887	6.4332	6.524	4.6006	7.7292	6.7909	0.5558	4.73	3.1286	-5.5032	-1.9921	-3.0708	0.8833	2.7736	3.3707	-1.739	-4.6887	-3.0185	3.123	-7.8888
4.9171	4.8923	6.6231	6.6203	4.7712	7.8833	6.9092	0.6604	4.8538	3.2028	-5.5362	-2.0059	-3.0625	0.8447	2.8341	3.4505	-1.6812	-4.7823	-2.9249	3.1148	-7.8283
5.0794	5.0602	6.8074	6.7524	4.9171	8.0401	7.0028	0.7952	4.9501	3.2936	-5.5334	-1.9591	-3.046	0.831	2.9002	3.5303	-1.6207	-4.8538	-2.8094	3.1478	-7.7705
5.2528	5.2638	6.9808	6.879	5.0959	8.2217	7.1294	0.9465	5.0877	3.3734	-5.4784	-1.9096	-3.0102	0.787	2.9635	3.5936	-1.5684	-4.9171	-2.6938	3.1313	-7.6907
5.4234	5.4261	7.1706	7.0055	5.2665	8.3868	7.2449	1.0759	5.2143	3.511	-5.4454	-1.8463	-2.9332	0.7732	2.9855	3.6458	-1.5161	-4.9529	-2.5865	3.1643	-7.5999
5.594	5.6022	7.3467	7.1239	5.4179	8.5574	7.3853	1.2327	5.3738	3.6128	-5.3821	-1.7995	-2.8837	0.7539	3.0102	3.7394	-1.4804	-4.9749	-2.4407	3.1781	-7.4678
5.7701	5.7866	7.5228	7.2642	5.6105	8.7198	7.5008	1.373	5.4784	3.7394	-5.2885	-1.7032	-2.8149	0.7237	3.0295	3.8027	-1.4363	-4.9584	-2.3223	3.2056	-7.3055
5.9159	5.9242	7.6659	7.3632	5.7288	8.8408	7.5889	1.5106	5.583	3.8027	-5.1977	-1.6812	-2.7488	0.7017	3.0488	3.8577	-1.384	-4.9694	-2.1655	3.1753	-7.1706
6.07	6.0562	7.7897	7.4375	5.8609	8.9344	7.6742	1.6289	5.682	3.9128	-5.1235	-1.6014	-2.6773	0.6824	3.0818	3.9265	-1.3483	-4.9556	-2.0527	3.1836	-6.9973
6.2131	6.1663	7.9411	7.5338	5.9682	9.0747	7.7622	1.739	5.7948	3.9925	-5.0437	-1.5574	-2.5892	0.6659	3.0873	3.9705	-1.3235	-4.9446	-1.9206	3.1726	-6.8377
6.3562	6.2654	8.0704	7.5999	6.0783	9.1903	7.8475	1.8683	5.8801	4.0834	-4.9418	-1.4831	-2.5205	0.6714	3.1093	4.0366	-1.3125	-4.8841	-1.805	3.1533	-6.6808
6.4662	6.3176	8.1529	7.6797	6.1498	9.2563	7.897	1.9096	5.9627	4.1466	-4.8593	-1.4336	-2.4599	0.6549	3.1175	4.1026	-1.2877	-4.8703	-1.6757	3.1341	-6.5213
6.579	6.3754	8.2493	7.7485	6.1993	9.3196	7.9411	2.0059	6.0012	4.2017	-4.7768	-1.4088	-2.4021	0.6411	3.1341	4.1439	-1.2657	-4.8373	-1.5849	3.09	-6.3479
6.6864	6.4222	8.3263	7.7925	6.2186	9.3994	7.9961	2.0059	6.0397	4.2457	-4.7217	-1.3978	-2.3471	0.6356	3.1423	4.1797	-1.2437	-4.8153	-1.4886	3.0488	-6.2213
6.7496	6.4497	8.3731	7.809	6.2241	9.4022	8.0044	2.0444	6.0507	4.2402	-4.6557	-1.384	-2.3113	0.6136	3.1423	4.1631	-1.219	-4.7712	-1.4006	3.002	-6.0645
6.8074	6.4635	8.4143	7.8365	6.2599	9.4132	7.9906	2.0829	6.0617	4.2567	-4.6199	-1.4033	-2.2893	0.5971	3.1561	4.1219	-1.1859	-4.7795	-1.3125	2.9607	-5.9324
6.8459	6.4194	8.4474	7.8338	6.2186	9.4187	7.9851	2.0114	6.0315	4.2402	-4.6144	-1.4198	-2.3223	0.5696	3.1396	4.0008	-1.1337	-4.7988	-1.2685	2.8589	-5.8389
6.8762	6.4002	8.4529	7.8338	6.1663	9.3609	7.9493	1.9894	6.0095	4.1631	-4.5979	-1.4528	-2.3416	0.5393	3.1698	3.888	-1.0869	-4.8125	-1.1997	2.7901	-5.7481
6.8514	6.3837	8.4501	7.809	6.1278	9.3361	7.9191	1.9261	5.9709	4.1164	-4.6034	-1.5189	-2.3801	0.52	3.1368	3.7229	-1.0291	-4.8345	-1.1639	2.7323	-5.6463
6.8569	6.2956	8.4143	7.7787	6.0507	9.2673	7.8283	1.8518	5.8911	4.0393	-4.6392	-1.6069	-2.4434	0.4953	3.1203	3.5385	-0.9823	-4.8565	-1.1502	2.6443	-5.5802
6.8212	6.2296	8.3621	7.754	5.9544	9.2068	7.776	1.7473	5.8086	3.9513	-4.6694	-1.6867	-2.4984	0.4678	3.1093	3.3102	-0.9273	-4.8951	-1.1171	2.5535	-5.5307
6.7854	6.1443	8.3235	7.7017	5.8691	9.1105	7.6714	1.6454	5.715	3.822	-4.708	-1.7858	-2.5865	0.4375	3.0763	3.1258	-0.875	-4.9391	-1.0951	2.4517	-5.4784
6.7414	6.059	8.2823	7.6632	5.7316	9.0362	7.5724	1.5189	5.6105	3.7091	-4.7657	-1.9068	-2.7076	0.41	3.0405	2.9167	-0.8172	-5.0024	-1.1309	2.3746	-5.4344
6.7194	5.9599	8.2355	7.6494	5.6407	8.9454	7.4898	1.4253	5.5142	3.6128	-4.8345	-2.0142	-2.7819	0.3935	2.9827	2.7516	-0.7622	-5.0354	-1.1309	2.2948	-5.4096
6.6974	5.9077	8.1997	7.6549	5.5417	8.8904	7.4403	1.2987	5.4261	3.5193	-4.8731	-2.1077	-2.8699	0.366	2.9662	2.6415	-0.7292	-5.0767	-1.1226	2.2233	-5.3711
6.6698	5.7948	8.1282	7.6246	5.4261	8.7776	7.3577	1.1859	5.3353	3.423	-4.9336	-2.182	-2.9277	0.3412	2.9029	2.5232	-0.6824	-5.1042	-1.1447	2.1325	-5.3188
6.6588	5.7343	8.1337	7.6439	5.3298	8.7335	7.311	1.0814	5.2885	3.3542	-4.9776	-2.2563	-3.002	0.3329	2.8754	2.4737	-0.6604	-5.1345	-1.1419	2.0885	-5.3023
6.6808	5.671	8.1199	7.6797	5.239	8.6785	7.2669	1.0071	5.2143	3.2744	-5.0134	-2.3306	-3.0735	0.3274	2.8672	2.5287	-0.6411	-5.1675	-1.1694	2.0637	-5.272
6.7056	5.6215	8.1062	7.7099	5.1675	8.6592	7.2532	0.919	5.1922	3.2359	-5.0382	-2.4049	-3.1258	0.3192	2.8561	2.5755	-0.6301	-5.2115	-1.1804	2.0059	-5.283
6.7469	5.583	8.1282	7.7567	5.1179	8.6317	7.2394	0.8695	5.151	3.2028	-5.0382	-2.4131	-3.1478	0.3302	2.8699	2.7021	-0.6329	-5.2418	-1.2024	1.9866	-5.2858
6.7661	5.5389	8.1089	7.8035	5.0602	8.5822	7.2036	0.7925	5.1179	3.1561	-5.0712	-2.4489	-3.1891	0.3109	2.8672	2.8396	-0.6164	-5.2885	-1.2162	1.9399	-5.283
6.7937	5.5362	8.1282	7.8448	5.0051	8.5987	7.2312	0.7677	5.1235	3.1258	-5.0657	-2.4682	-3.2249	0.3192	2.8699	3.002	-0.6246	-5.3106	-1.2162	1.9289	-5.2968
6.868	5.5142	8.1805	7.9273	4.9859	8.607	7.2367	0.7402	5.1207	3.1423	-5.0602	-2.4352	-3.2249	0.3274	2.8892	3.2111	-0.6356	-5.3738	-1.241	1.9041	-5.2885
6.8707	5.5362	8.1805	7.9576	4.9804	8.5932	7.2147	0.7374	5.14	3.1203	-5.0409	-2.4407	-3.2441	0.3219	2.9332	3.3542	-0.6274	-5.3931	-1.2602	1.8793	-5.3051
6.9312	5.5775	8.2025	8.0236	4.9941	8.6125	7.2312	0.7539	5.1867	3.1423	-5.0216	-2.4131	-3.2441	0.3219	2.9827	3.5083	-0.6246	-5.4646	-1.2602	1.8903	-5.3078
6.9505	5.561	8.197	8.0401	4.9996	8.6455	7.2312	0.7787	5.228	3.1423	-4.9749	-2.3664	-3.2276	0.3192	2.9937	3.5991	-0.6246	-5.4977	-1.252	1.8628	-5.3271
6.9725	5.5967	8.2382	8.0952	5.0382	8.6785	7.2752	0.8227	5.2885	3.1671	-4.9253	-2.2893	-3.2139	0.3109	3.0267	3.6734	-0.6109	-5.5389	-1.2382	1.8408	-5.3161
6.9588	5.5967	8.2025	8.0952	5.0382	8.6923	7.2422	0.8612	5.2968	3.1808	-4.8703	-2.2453	-3.2028	0.2999	3.0818	3.7036	-0.5751	-5.5912	-1.2437	1.8243	-5.3683
6.9588	5.6573	8.2162	8.1062	5.1042	8.7253	7.2642	0.9355	5.3849	3.1946	-4.8125	-2.1627	-3.1753	0.2917	3.1175	3.7311	-0.5696	-5.605	-1.2492	1.7995	-5.3904
6.9588	5.671	8.186	8.1034	5.1565	8.7665	7.2669	1.0236	5.4536	3.2249	-4.774	-2.0802	-3.1341	0.2724	3.1396	3.7036	-0.5448	-5.671	-1.2492	1.7995	-5.4206
6.9257	5.7205	8.1997	8.1337	5.217	8.8051	7.2779	1.1171	5.5197	3.2854	-4.6832	-1.9784	-3.0735	0.2586	3.1891	3.7036	-0.5118	-5.6848	-1.2327	1.794	-5.4316
6.9312	5.7893	8.2327	8.1254	5.2885	8.8381	7.2862	1.2217	5.6215	3.3322	-4.6006	-1.8793	-3.0598	0.2311	3.2056	3.6624	-0.4733	-5.7481	-1.2355	1.7555	-5.4564
6.9395	5.8224	8.2217	8.1172	5.3849	8.9014	7.3082	1.3565	5.7343	3.39	-4.4933	-1.7445	-2.9827	0.2201	3.2854	3.6541	-0.443	-5.7646	-1.2162	1.7803	-5.4894
6.9257	5.8966	8.2437	8.1199	5.4812	8.9839	7.3192	1.4941	5.8416	3.4615	-4.3723	-1.6124	-2.9359	0.2146	3.3267	3.6156	-0.4237	-5.8031	-1.1914	1.7665	-5.4894
6.9643	5.9847	8.2933	8.1227	5.5857	9.0665	7.3825	1.651	5.9709	3.5358	-4.2402	-1.4721	-2.8561	0.1981	3.456	3.6348	-0.4045	-5.8113	-1.1612	1.772	-5.4867
7.011	6.0315	8.3263	8.1282	5.6765	9.1655	7.4155	1.8326	6.1223	3.6018	-4.0723	-1.2987	-2.7653	0.1816	3.544	3.6596	-0.3852	-5.8444	-1.1144	1.7803	-5.5087
7.0358	6.1305	8.3401	8.1667	5.8251	9.2426	7.432	1.9977	6.2544	3.6789	-3.9155	-1.1474	-2.6993	0.1706	3.6679	3.6486	-0.3384	-5.8609	-1.0676	1.8078	-5.5252
7.0908	6.2186	8.4309	8.1942	5.9517	9.3581	7.4953	2.1903	6.4084	3.7834	-3.7504	-0.9658	-2.6195	0.1541	3.7807	3.6651	-0.3164	-5.8526	-1.0098	1.8105	-5.4839
7.1321	6.2874	8.4556	8.2162	6.0755	9.4434	7.5256	2.3911	6.5653	3.877	-3.5633	-0.7787	-2.5149	0.1458	3.9238	3.6816	-0.2917	-5.8884	-0.9548	1.8353	-5.5004
7.1734	6.3452	8.5162	8.2548	6.1911	9.548	7.5586	2.581	6.7276	3.9403	-3.3569	-0.5971	-2.4324	0.1293	4.0476	3.6871	-0.2586	-5.9214	-0.897	1.8518	-5.4812
7.2477	6.4415	8.5849	8.2988	6.3204	9.6553	7.6246	2.7543	6.8597	4.0091	-3.1533	-0.41	-2.3278	0.1321	4.1521	3.6844	-0.2476	-5.9324	-0.8145	1.8573	-5.4536
7.2807	6.4992	8.6345	8.3235	6.447	9.7379	7.6467	2.9552	6.9918	4.0916	-2.9937	-0.2394	-2.2563	0.1073	4.2347	3.6954	-0.2036	-5.9434	-0.7622	1.8738	-5.4371
7.3165	6.557	8.673	8.3593	6.5653	9.8452	7.7237	3.1341	7.1541	4.1604	-2.7819	-0.0523	-2.1627	0.077	4.3007	3.6954	-0.1761	-5.9599	-0.6851	1.8683	-5.3904
