"FZ"	"FC3"	"FCZ"	"FC4"	"C3"	"CZ"	"C4"	"CP3"	"CPZ"	"CP4"	"P3"	"PZ"	"P4"	"OZ"	"FP1"	"FP2"	"A2"	"P8"	"TP7"	"TP8"	"P7"	"VEOG"	"HEOG"
0.7147	1.1722	0.888	0.4656	1.2047	0.9854	0.666	0.9746	0.9475	0.8392	0.9611	0.7959	0.6227	-0.2626	0.49	0.3709	0.5062	0.1272	0.7607	-0.0298	0.9611	-1.6676	-1.1803
0.7337	1.202	0.8988	0.4711	1.2209	0.9529	0.6606	0.9935	0.9232	0.8311	0.9421	0.7878	0.6172	-0.2788	0.601	0.4061	0.5387	0.1002	0.7526	-0.0217	0.98	-1.6027	-1.1722
0.7553	1.1776	0.9204	0.4738	1.2155	0.9556	0.6497	0.9854	0.9096	0.8176	0.8934	0.7607	0.582	-0.2734	0.6903	0.4629	0.5658	0.0893	0.7309	-0.0325	0.9881	-1.5431	-1.156
0.7526	1.1668	0.9421	0.4927	1.2155	0.915	0.6579	0.98	0.8717	0.7932	0.8744	0.7228	0.5929	-0.2978	0.7716	0.4819	0.5766	0.0812	0.7309	-0.0217	1.0071	-1.4944	-1.1343
0.7688	1.1451	0.8988	0.4846	1.1695	0.8853	0.6524	0.9313	0.8203	0.7743	0.8474	0.693	0.5604	-0.2951	0.8338	0.4873	0.5739	0.0893	0.7147	0	0.9665	-1.4673	-1.1018
0.7526	1.0937	0.8907	0.4765	1.1154	0.8257	0.6254	0.9123	0.7878	0.7688	0.823	0.6497	0.5333	-0.2734	0.9123	0.4981	0.5496	0.092	0.7039	0.0298	0.9638	-1.4511	-1.0721
0.7255	1.0017	0.8284	0.4629	1.0396	0.7716	0.6254	0.8419	0.7445	0.7526	0.7716	0.6118	0.5279	-0.2653	0.9204	0.4927	0.5279	0.1191	0.6903	0.0541	0.9556	-1.4402	-1.0314
0.6849	0.915	0.7959	0.4196	0.9935	0.6985	0.5983	0.7986	0.666	0.7066	0.6985	0.5469	0.5171	-0.2491	0.9367	0.5008	0.5035	0.1299	0.6579	0.0839	0.915	-1.4348	-0.9665
0.666	0.8474	0.7391	0.4088	0.9042	0.6145	0.5685	0.7228	0.5604	0.6579	0.6443	0.4981	0.4765	-0.2328	0.9069	0.4521	0.4738	0.1489	0.6118	0.0731	0.8717	-1.4429	-0.9096
0.6037	0.7337	0.6551	0.3601	0.7986	0.5279	0.5144	0.6443	0.4819	0.6335	0.5739	0.4332	0.4548	-0.2355	0.8961	0.3953	0.4575	0.1354	0.601	0.0839	0.8284	-1.4565	-0.8419
0.5496	0.6335	0.5902	0.3357	0.693	0.4413	0.4738	0.5577	0.3844	0.5793	0.5171	0.3628	0.4034	-0.2247	0.8744	0.3682	0.4359	0.1272	0.5306	0.0948	0.7797	-1.4835	-0.777
0.5035	0.5225	0.4981	0.2815	0.5793	0.3519	0.425	0.4711	0.333	0.5604	0.4656	0.2978	0.3763	-0.2193	0.7905	0.3032	0.4169	0.1191	0.4656	0.092	0.7147	-1.5106	-0.6958
0.4413	0.4386	0.425	0.268	0.4927	0.2653	0.398	0.3763	0.2491	0.5198	0.3736	0.2436	0.3411	-0.1922	0.7391	0.2464	0.3871	0.1272	0.4223	0.0839	0.6524	-1.5377	-0.601
0.3709	0.3005	0.3195	0.2166	0.3492	0.1733	0.3303	0.2653	0.1381	0.4548	0.3059	0.1706	0.2897	-0.2085	0.6335	0.1868	0.3925	0.1083	0.3546	0.0596	0.582	-1.5648	-0.5252
0.3032	0.2003	0.2382	0.1841	0.2301	0.0758	0.3086	0.1841	0.0596	0.4088	0.2139	0.1056	0.2518	-0.1895	0.5441	0.1354	0.379	0.0677	0.2788	0.0487	0.5008	-1.5945	-0.4304
0.2301	0.0948	0.1489	0.157	0.1164	-0.0054	0.2301	0.0596	-0.0244	0.3492	0.1408	0.0487	0.2057	-0.1922	0.4494	0.0704	0.3682	0.0406	0.1976	0.0541	0.425	-1.6189	-0.3465
0.1895	0.0162	0.0677	0.1137	0.0379	-0.0704	0.2057	-0.0081	-0.0731	0.3167	0.1137	-0.019	0.1841	-0.1733	0.3519	0.0514	0.3438	0.046	0.1191	0.0541	0.3925	-1.6324	-0.2545
0.1408	-0.0785	-0.0054	0.0785	-0.0704	-0.1543	0.1733	-0.1056	-0.157	0.2788	0.0352	-0.0623	0.1354	-0.157	0.2355	0.019	0.3222	0.0406	0.046	0.0541	0.3276	-1.6406	-0.1624
0.1056	-0.1354	-0.0217	0.0893	-0.1408	-0.1895	0.1435	-0.1597	-0.1949	0.2545	-0.0135	-0.1002	0.1272	-0.157	0.1543	0.0298	0.2924	0.0108	-0.0081	0.0352	0.2734	-1.627	-0.0596
0.0704	-0.2057	-0.0758	0.0731	-0.1976	-0.2409	0.1381	-0.2166	-0.2409	0.2355	-0.0406	-0.1002	0.1056	-0.1408	0.0785	0.0162	0.2761	-0.0135	-0.0975	0.065	0.2247	-1.6135	0.0244
0.0352	-0.2815	-0.1056	0.065	-0.2951	-0.2815	0.1191	-0.3005	-0.2761	0.203	-0.0866	-0.1272	0.0948	-0.1408	-0.0217	0.0054	0.2626	-0.0433	-0.1651	0.0758	0.1814	-1.5918	0.1164
0.0298	-0.3167	-0.1381	0.065	-0.3465	-0.2843	0.1489	-0.3384	-0.268	0.1841	-0.1083	-0.1516	0.0866	-0.1218	-0.092	0.0271	0.2247	-0.0352	-0.2355	0.0812	0.1354	-1.5593	0.1733
0.0054	-0.3519	-0.1624	0.0541	-0.3871	-0.314	0.1327	-0.3763	-0.2897	0.1895	-0.1381	-0.1489	0.0677	-0.0948	-0.1435	0.065	0.1868	-0.0569	-0.2761	0.0948	0.092	-1.5133	0.2491
-0.0054	-0.379	-0.1787	0.092	-0.4494	-0.2951	0.1408	-0.3925	-0.2707	0.2003	-0.1678	-0.1435	0.1083	-0.0785	-0.203	0.0948	0.1489	-0.019	-0.3113	0.1354	0.0325	-1.4592	0.314
-0.0271	-0.4359	-0.1868	0.0839	-0.4873	-0.3086	0.1489	-0.425	-0.2734	0.1868	-0.1976	-0.1435	0.1083	-0.0704	-0.2788	0.1218	0.1245	-0.046	-0.3817	0.1651	-0.0108	-1.405	0.3682
-0.019	-0.4575	-0.1841	0.1029	-0.5279	-0.2978	0.1733	-0.4467	-0.2301	0.2247	-0.1976	-0.1435	0.1056	-0.0433	-0.3113	0.1516	0.0785	-0.0081	-0.425	0.2112	-0.0596	-1.3401	0.4169
0.0162	-0.4494	-0.1597	0.1841	-0.5279	-0.2436	0.2166	-0.4142	-0.1976	0.2626	-0.1895	-0.0839	0.1733	0.0027	-0.3357	0.1787	0.0027	0.0406	-0.4277	0.3086	-0.0623	-1.2697	0.4521
0.0271	-0.444	-0.1191	0.2193	-0.5469	-0.2003	0.2788	-0.4196	-0.1299	0.3032	-0.2003	-0.0487	0.2193	0.0271	-0.3492	0.2139	-0.0514	0.0677	-0.4629	0.3925	-0.1029	-1.2101	0.4873
0.0487	-0.4711	-0.0785	0.2815	-0.5604	-0.1516	0.3167	-0.4115	-0.0893	0.3411	-0.2003	-0.0162	0.2409	0.0541	-0.3655	0.2247	-0.0948	0.0948	-0.4873	0.4467	-0.1408	-1.1397	0.5306
0.0623	-0.4575	-0.0569	0.314	-0.5306	-0.1137	0.3682	-0.3953	-0.0325	0.3763	-0.2003	0.019	0.2924	0.0758	-0.3357	0.2193	-0.1678	0.1164	-0.4981	0.5008	-0.1624	-1.0721	0.5496
0.1002	-0.4629	-0.0135	0.3953	-0.5414	-0.0623	0.4034	-0.3601	0.0244	0.4142	-0.1841	0.0785	0.3276	0.1164	-0.3032	0.2355	-0.2247	0.1543	-0.5225	0.5685	-0.176	-1.0152	0.5658
0.1543	-0.4467	0.0433	0.4548	-0.4819	0.0027	0.4602	-0.3303	0.1083	0.4846	-0.1543	0.1272	0.3953	0.1462	-0.2815	0.2139	-0.3032	0.2112	-0.5144	0.6254	-0.176	-0.9421	0.5875
0.1922	-0.425	0.1137	0.5225	-0.4819	0.0812	0.5117	-0.2734	0.1787	0.5062	-0.1299	0.1651	0.4332	0.1868	-0.2653	0.2464	-0.3763	0.2328	-0.4981	0.6714	-0.2003	-0.8636	0.6118
0.2491	-0.3925	0.1733	0.5848	-0.4142	0.1435	0.5387	-0.2436	0.2409	0.536	-0.0812	0.222	0.4792	0.2382	-0.2301	0.2545	-0.4575	0.287	-0.5171	0.7255	-0.2139	-0.7824	0.6172
0.2761	-0.333	0.2355	0.6551	-0.3357	0.2112	0.601	-0.1733	0.3519	0.6037	-0.0108	0.2788	0.5252	0.2707	-0.176	0.2626	-0.5496	0.3438	-0.4792	0.7743	-0.222	-0.712	0.6254
0.3492	-0.2815	0.2978	0.7066	-0.2626	0.2843	0.6579	-0.1272	0.3953	0.6362	0.0271	0.3303	0.5685	0.3303	-0.1272	0.2924	-0.647	0.398	-0.4981	0.7932	-0.2328	-0.6199	0.6308
0.3817	-0.2193	0.3492	0.7418	-0.2003	0.3357	0.6795	-0.0893	0.4602	0.6579	0.065	0.3871	0.6145	0.3601	-0.0731	0.287	-0.7066	0.4467	-0.4819	0.8338	-0.2328	-0.5333	0.6145
0.4332	-0.1733	0.4034	0.7743	-0.1435	0.3736	0.7147	-0.0352	0.5035	0.6633	0.1056	0.4115	0.666	0.4061	-0.0054	0.2815	-0.7878	0.5252	-0.4846	0.8446	-0.2409	-0.4548	0.6227
0.4846	-0.092	0.4548	0.8257	-0.0541	0.425	0.7445	0.0514	0.5685	0.7066	0.1597	0.4413	0.6958	0.4277	0.0839	0.2843	-0.8419	0.5793	-0.4521	0.8988	-0.268	-0.3736	0.6199
0.5062	-0.0054	0.4927	0.8609	0.0406	0.4981	0.7634	0.1245	0.6362	0.7472	0.2193	0.49	0.7174	0.4521	0.1976	0.3059	-0.8988	0.6281	-0.4602	0.8961	-0.3086	-0.2897	0.6172
0.5441	0.0596	0.5333	0.888	0.1327	0.5144	0.7661	0.1597	0.6768	0.758	0.2464	0.4927	0.7337	0.4738	0.3032	0.3113	-0.9502	0.6714	-0.4277	0.9204	-0.3276	-0.2139	0.6172
0.5631	0.157	0.582	0.9259	0.1976	0.555	0.777	0.2436	0.7012	0.7472	0.3059	0.4981	0.7337	0.4765	0.4359	0.3411	-0.9692	0.7039	-0.4196	0.9367	-0.3628	-0.1543	0.6199
0.6227	0.2464	0.6254	0.9475	0.2815	0.5766	0.7851	0.3113	0.7445	0.777	0.3465	0.5469	0.7418	0.5008	0.601	0.379	-1.0152	0.7364	-0.398	0.9421	-0.3601	-0.111	0.6227
0.6443	0.3519	0.6551	0.9502	0.3628	0.601	0.777	0.3709	0.7688	0.7851	0.3817	0.5387	0.7472	0.5279	0.7445	0.4332	-1.0287	0.7661	-0.3709	0.915	-0.3682	-0.092	0.6145
0.6741	0.425	0.666	0.9556	0.4656	0.6145	0.7661	0.4332	0.804	0.7607	0.4277	0.5469	0.7418	0.5279	0.8609	0.4575	-1.0396	0.7905	-0.3519	0.8771	-0.3628	-0.092	0.6254
0.6741	0.4927	0.6579	0.9286	0.509	0.6037	0.7391	0.4548	0.7634	0.7228	0.4142	0.5171	0.693	0.509	0.9313	0.4846	-1.0152	0.7499	-0.3249	0.8284	-0.3736	-0.0948	0.6145
0.6606	0.5225	0.6281	0.8988	0.5306	0.5523	0.6849	0.4683	0.7228	0.6876	0.4088	0.4792	0.647	0.4819	0.9908	0.5008	-0.9665	0.7337	-0.3113	0.7716	-0.3682	-0.1245	0.6037
0.6145	0.5469	0.5793	0.823	0.555	0.5035	0.6172	0.4683	0.6714	0.6145	0.3844	0.444	0.5875	0.4575	1.0179	0.4954	-0.9069	0.7093	-0.3032	0.6903	-0.379	-0.1408	0.6145
0.5685	0.5496	0.5306	0.758	0.5469	0.4223	0.5469	0.4602	0.6091	0.536	0.3736	0.3763	0.509	0.4169	1.026	0.4602	-0.8419	0.6335	-0.2843	0.6335	-0.3655	-0.1327	0.6118
0.4954	0.5333	0.4359	0.647	0.509	0.3492	0.4683	0.4223	0.5387	0.4873	0.3249	0.3167	0.4169	0.3736	0.9611	0.4277	-0.7472	0.5766	-0.2897	0.5414	-0.379	-0.1056	0.6199
0.4386	0.4683	0.3546	0.5577	0.4386	0.2518	0.3628	0.3628	0.4413	0.3817	0.2734	0.2409	0.3574	0.3249	0.8934	0.3601	-0.6416	0.4981	-0.3113	0.4277	-0.3817	-0.0758	0.6064
0.3574	0.4088	0.2734	0.4548	0.379	0.1543	0.2734	0.3113	0.3465	0.3059	0.2112	0.1408	0.2464	0.2788	0.8284	0.3546	-0.5387	0.444	-0.3357	0.3222	-0.3871	-0.0569	0.6254
0.2274	0.3303	0.1651	0.3438	0.2734	0.0406	0.1733	0.2382	0.222	0.203	0.1462	0.046	0.1543	0.2139	0.7174	0.3032	-0.4088	0.3546	-0.3682	0.2301	-0.4088	-0.0027	0.5929
0.1651	0.2355	0.0785	0.2436	0.222	-0.0379	0.0839	0.1787	0.1597	0.1272	0.1002	-0.0352	0.0866	0.1543	0.6389	0.2436	-0.3005	0.3005	-0.3817	0.157	-0.3953	0.0514	0.5712
0.0325	0.1408	-0.0406	0.1164	0.1191	-0.1354	0.0027	0.1002	0.0433	0.0406	0.0162	-0.1191	-0.0054	0.0812	0.5008	0.1678	-0.1706	0.222	-0.4223	0.0433	-0.4088	0.1245	0.5441
-0.0514	0.0244	-0.1354	0.0217	0.0244	-0.2274	-0.0893	0.0325	-0.0325	-0.0433	-0.0406	-0.203	-0.065	0.0081	0.3709	0.1462	-0.0325	0.1543	-0.4386	-0.0379	-0.4359	0.1706	0.4981
-0.1895	-0.0758	-0.2382	-0.1029	-0.0975	-0.3384	-0.1841	-0.0541	-0.1543	-0.1381	-0.1299	-0.2978	-0.1787	-0.0596	0.1949	0.0758	0.111	0.0731	-0.509	-0.1191	-0.4521	0.2409	0.4602
-0.2626	-0.176	-0.3303	-0.2057	-0.1624	-0.3953	-0.2707	-0.1083	-0.2409	-0.2247	-0.1651	-0.3655	-0.2491	-0.111	0.0839	0.0541	0.2274	-0.0271	-0.5171	-0.2166	-0.4602	0.3005	0.4196
-0.3546	-0.2626	-0.4115	-0.3032	-0.2545	-0.4954	-0.3736	-0.1787	-0.3276	-0.3167	-0.2436	-0.4386	-0.3249	-0.1841	-0.0514	0.0054	0.3628	-0.092	-0.5279	-0.2924	-0.4683	0.3574	0.3898
-0.4277	-0.3682	-0.4819	-0.3817	-0.3519	-0.536	-0.4467	-0.2247	-0.4088	-0.3601	-0.2815	-0.5198	-0.3763	-0.2382	-0.1678	-0.0406	0.4683	-0.1733	-0.5035	-0.3655	-0.4494	0.4359	0.3492
-0.5008	-0.4359	-0.5198	-0.4846	-0.4304	-0.5793	-0.4954	-0.2951	-0.4711	-0.4196	-0.3574	-0.5577	-0.4629	-0.3005	-0.3438	-0.065	0.5848	-0.2409	-0.49	-0.4223	-0.4304	0.5171	0.3249
-0.5469	-0.4927	-0.5631	-0.5062	-0.4765	-0.6172	-0.5279	-0.3357	-0.4981	-0.4602	-0.3601	-0.5875	-0.4846	-0.3249	-0.4711	-0.0758	0.647	-0.2951	-0.4521	-0.4602	-0.3844	0.5929	0.2761
-0.5685	-0.5117	-0.5929	-0.5577	-0.5117	-0.6227	-0.5631	-0.3546	-0.536	-0.4927	-0.3574	-0.6091	-0.4873	-0.3519	-0.6091	-0.0704	0.6795	-0.3195	-0.3844	-0.4927	-0.3167	0.6876	0.2464
-0.5766	-0.5279	-0.5956	-0.5793	-0.5252	-0.6172	-0.5658	-0.3465	-0.5441	-0.4819	-0.3546	-0.5875	-0.5008	-0.3628	-0.712	-0.0704	0.7147	-0.3492	-0.3303	-0.4683	-0.2572	0.7716	0.203
-0.5496	-0.5198	-0.5848	-0.5658	-0.5387	-0.5929	-0.5604	-0.3438	-0.5198	-0.444	-0.3519	-0.5658	-0.4521	-0.3628	-0.8176	-0.0623	0.7147	-0.3222	-0.2436	-0.4521	-0.1895	0.8636	0.1678
-0.5414	-0.4873	-0.5496	-0.5766	-0.5035	-0.555	-0.5387	-0.3411	-0.5117	-0.4061	-0.3222	-0.5523	-0.4223	-0.3519	-0.915	-0.0812	0.6903	-0.3492	-0.1597	-0.4088	-0.1245	0.9881	0.1733
-0.5198	-0.4683	-0.5062	-0.5685	-0.5225	-0.509	-0.4954	-0.3384	-0.4765	-0.398	-0.314	-0.5008	-0.3898	-0.333	-0.9692	-0.0596	0.6362	-0.2951	-0.1002	-0.3763	-0.065	1.0964	0.1381
-0.4792	-0.4142	-0.4521	-0.5577	-0.4846	-0.4521	-0.4332	-0.3222	-0.4223	-0.3519	-0.2815	-0.4494	-0.3519	-0.2924	-1.0125	-0.0893	0.5712	-0.2518	-0.019	-0.3005	0.0027	1.2237	0.1137
-0.4359	-0.3682	-0.4196	-0.5225	-0.4765	-0.3871	-0.4115	-0.3222	-0.3925	-0.314	-0.2815	-0.4196	-0.3086	-0.2491	-1.0342	-0.0893	0.4873	-0.1922	0.0298	-0.2545	0.0352	1.3292	0.0839
-0.4007	-0.3195	-0.3601	-0.4954	-0.4521	-0.3384	-0.3763	-0.2978	-0.3519	-0.2707	-0.2626	-0.3817	-0.2788	-0.2057	-1.0423	-0.1299	0.4034	-0.1597	0.0785	-0.2166	0.0569	1.4267	0.0487
-0.3682	-0.2951	-0.314	-0.4629	-0.4196	-0.2653	-0.3059	-0.2951	-0.3059	-0.2518	-0.2545	-0.3546	-0.2491	-0.1543	-1.0287	-0.1381	0.3086	-0.1272	0.1327	-0.1841	0.0812	1.5242	0.0352
-0.3546	-0.2545	-0.2707	-0.4413	-0.4061	-0.2328	-0.2951	-0.2951	-0.2978	-0.2545	-0.2707	-0.3303	-0.2301	-0.1137	-0.9908	-0.1651	0.222	-0.1218	0.1164	-0.1976	0.0514	1.5945	0.0271
-0.2761	-0.2003	-0.2382	-0.4413	-0.3682	-0.1922	-0.2518	-0.287	-0.2545	-0.2599	-0.2924	-0.2924	-0.2328	-0.0731	-0.9177	-0.1787	0.1218	-0.1056	0.157	-0.1624	0.0298	1.646	0
-0.2653	-0.157	-0.176	-0.4142	-0.3411	-0.1381	-0.222	-0.268	-0.2328	-0.2328	-0.2788	-0.2491	-0.1922	-0.0027	-0.8501	-0.1976	0.0217	-0.1029	0.1597	-0.157	0.0054	1.6649	-0.0217
-0.2491	-0.1029	-0.1408	-0.3844	-0.3032	-0.092	-0.1922	-0.2464	-0.1949	-0.2301	-0.2924	-0.2464	-0.1922	0.0514	-0.7445	-0.1868	-0.0948	-0.0704	0.1895	-0.1543	-0.0217	1.6758	-0.0433
-0.1841	-0.0217	-0.0758	-0.3682	-0.2545	-0.0325	-0.1814	-0.2301	-0.1651	-0.2301	-0.2924	-0.1922	-0.1787	0.111	-0.6172	-0.1706	-0.2057	-0.0596	0.2166	-0.1462	-0.0596	1.6731	-0.0569
-0.1408	0.046	-0.0352	-0.3167	-0.1895	0.0135	-0.1706	-0.2139	-0.1272	-0.2274	-0.2599	-0.1516	-0.176	0.1489	-0.4873	-0.157	-0.3032	-0.0623	0.2112	-0.1272	-0.0866	1.6514	-0.0893
-0.0948	0.1083	0.0217	-0.2924	-0.1489	0.0569	-0.1435	-0.1733	-0.1029	-0.2436	-0.2491	-0.1327	-0.1516	0.1949	-0.3574	-0.1381	-0.4115	-0.0325	0.2491	-0.0975	-0.1327	1.6324	-0.0704
-0.0487	0.1597	0.046	-0.2788	-0.0948	0.1137	-0.1516	-0.1489	-0.0731	-0.2545	-0.2355	-0.1029	-0.157	0.2572	-0.2653	-0.1137	-0.5171	-0.0244	0.2761	-0.1002	-0.1651	1.6189	-0.0731
0.0081	0.2003	0.1029	-0.2436	-0.0244	0.1435	-0.1435	-0.1164	-0.0406	-0.2626	-0.2166	-0.0758	-0.1733	0.2978	-0.1624	-0.1002	-0.5956	-0.0217	0.3005	-0.0839	-0.157	1.5675	-0.0893
0.0162	0.2382	0.1056	-0.2382	0.0325	0.1787	-0.1597	-0.0704	-0.0406	-0.3032	-0.1949	-0.0569	-0.2057	0.3222	-0.0975	-0.111	-0.6497	-0.0135	0.3167	-0.1056	-0.1787	1.5296	-0.1056
0.046	0.2734	0.1381	-0.2166	0.0866	0.1841	-0.1651	-0.0514	-0.0271	-0.333	-0.1624	-0.0108	-0.203	0.3492	-0.0623	-0.0839	-0.7012	-0.0162	0.3492	-0.1137	-0.1814	1.4592	-0.1164
0.0487	0.3086	0.1299	-0.2112	0.1272	0.2085	-0.1895	-0.019	-0.046	-0.4007	-0.1272	0.0081	-0.2382	0.3601	0.0027	-0.0975	-0.7093	-0.0325	0.3682	-0.1299	-0.1299	1.3807	-0.1327
0.0433	0.3086	0.1272	-0.2382	0.157	0.1841	-0.2382	0.0135	-0.0352	-0.4304	-0.1245	0.0162	-0.2626	0.3546	0.0217	-0.1272	-0.693	-0.0514	0.4034	-0.1516	-0.1083	1.2995	-0.157
0.0217	0.3222	0.0812	-0.2355	0.2166	0.1706	-0.2626	0.0298	-0.0596	-0.4629	-0.1083	0.0271	-0.2978	0.3411	0.0217	-0.1787	-0.647	-0.0975	0.4088	-0.1922	-0.0948	1.2237	-0.1895
-0.0379	0.2815	0.0514	-0.2761	0.2139	0.1381	-0.3249	0.0487	-0.1002	-0.5523	-0.0893	0	-0.3682	0.2815	0.065	-0.2247	-0.5712	-0.1597	0.4223	-0.2545	-0.0839	1.1451	-0.2139
-0.0893	0.2382	-0.019	-0.3005	0.2166	0.0839	-0.398	0.0569	-0.1354	-0.6145	-0.0704	-0.0108	-0.4007	0.2464	0.0731	-0.268	-0.4981	-0.1895	0.4413	-0.3222	-0.0541	1.0721	-0.2464
-0.1678	0.1841	-0.0975	-0.3709	0.1814	0.0108	-0.4683	0.0541	-0.1868	-0.6958	-0.0839	-0.0406	-0.4765	0.1895	0.065	-0.3465	-0.3763	-0.287	0.4142	-0.3871	-0.0487	1.0071	-0.2815
-0.2545	0.092	-0.2057	-0.4548	0.1408	-0.0704	-0.5685	0.0135	-0.2464	-0.8013	-0.0975	-0.1029	-0.5469	0.1137	0.0162	-0.425	-0.2626	-0.3817	0.425	-0.4981	-0.0298	0.9611	-0.3167
-0.3763	0	-0.3086	-0.5469	0.111	-0.176	-0.6633	-0.0298	-0.3411	-0.8798	-0.1272	-0.1678	-0.6335	0.0569	-0.0162	-0.4981	-0.1164	-0.4629	0.4169	-0.5712	-0.019	0.9259	-0.3411
-0.4927	-0.1083	-0.4494	-0.6551	0.0487	-0.2599	-0.7743	-0.0487	-0.4034	-0.9854	-0.1651	-0.2247	-0.7201	-0.0217	-0.0487	-0.5793	0.019	-0.5604	0.3628	-0.666	-0.0325	0.9177	-0.3709
-0.6308	-0.1895	-0.5604	-0.7526	0.0081	-0.3519	-0.8474	-0.0975	-0.4846	-1.0775	-0.1949	-0.3113	-0.8095	-0.092	-0.1408	-0.6903	0.1489	-0.6416	0.3628	-0.7526	-0.0217	0.9475	-0.3871
-0.7337	-0.2897	-0.7066	-0.8365	-0.0812	-0.4575	-0.9584	-0.1245	-0.5766	-1.1614	-0.2464	-0.379	-0.8717	-0.157	-0.2301	-0.7932	0.2924	-0.7364	0.3384	-0.8419	-0.019	0.9719	-0.3925
-0.8663	-0.4061	-0.8122	-0.9204	-0.1408	-0.5604	-1.0342	-0.1597	-0.6281	-1.2182	-0.2707	-0.4413	-0.9556	-0.222	-0.3113	-0.8717	0.4223	-0.7986	0.3167	-0.9177	-0.0352	1.0152	-0.4332
-0.9935	-0.5469	-0.9421	-1.0314	-0.2355	-0.6579	-1.1127	-0.2355	-0.7228	-1.2805	-0.3276	-0.5062	-1.026	-0.287	-0.4142	-0.9611	0.5496	-0.8853	0.2924	-0.9881	-0.065	1.0612	-0.4386
-1.1235	-0.6714	-1.045	-1.0937	-0.3249	-0.7743	-1.1858	-0.3167	-0.7986	-1.359	-0.3953	-0.5929	-1.091	-0.3601	-0.555	-1.0531	0.6768	-0.9421	0.2761	-1.0639	-0.0731	1.1343	-0.4521
-1.2182	-0.7905	-1.156	-1.183	-0.4332	-0.8771	-1.248	-0.3844	-0.9069	-1.3915	-0.4359	-0.666	-1.1181	-0.398	-0.6551	-1.156	0.7743	-0.9746	0.2464	-1.0964	-0.1056	1.2047	-0.4629
-1.3022	-0.9069	-1.2778	-1.2399	-0.536	-0.9556	-1.3049	-0.4819	-0.9475	-1.4132	-0.5062	-0.7228	-1.156	-0.444	-0.7797	-1.2561	0.8636	-1.0233	0.2382	-1.1262	-0.1435	1.2886	-0.4819
-1.4213	-1.0639	-1.4077	-1.3076	-0.6714	-1.0423	-1.3617	-0.5685	-1.0396	-1.4213	-0.5902	-0.7932	-1.2291	-0.4954	-0.9232	-1.3292	0.9584	-1.0639	0.1895	-1.1912	-0.1895	1.3671	-0.49
-1.516	-1.1668	-1.489	-1.3428	-0.7743	-1.137	-1.4077	-0.6687	-1.0964	-1.4511	-0.6524	-0.8663	-1.2507	-0.5414	-1.0152	-1.4321	1.0531	-1.0775	0.1543	-1.2101	-0.2572	1.4456	-0.5252
-1.5945	-1.2534	-1.5593	-1.378	-0.8961	-1.2101	-1.4132	-0.7472	-1.1506	-1.4646	-0.7309	-0.9313	-1.2805	-0.5739	-1.1208	-1.4998	1.1154	-1.1072	0.1002	-1.2507	-0.2978	1.5214	-0.5225
-1.6541	-1.3401	-1.6189	-1.3888	-0.9665	-1.2589	-1.4159	-0.8311	-1.1749	-1.4429	-0.7932	-0.9854	-1.2886	-0.5793	-1.1641	-1.5539	1.1533	-1.137	0.0433	-1.2507	-0.3655	1.6216	-0.536
-1.7028	-1.3915	-1.6595	-1.4077	-1.0585	-1.294	-1.3996	-0.8771	-1.2101	-1.4077	-0.8122	-1.0152	-1.3076	-0.6118	-1.1966	-1.5621	1.1939	-1.137	0.0271	-1.267	-0.4332	1.7137	-0.5414
-1.7326	-1.4132	-1.6703	-1.3942	-1.1343	-1.3265	-1.3861	-0.9232	-1.2291	-1.3698	-0.8717	-1.0504	-1.2859	-0.6254	-1.2318	-1.5891	1.2264	-1.1208	-0.0271	-1.2534	-0.4792	1.7868	-0.5712
-1.7597	-1.4511	-1.6676	-1.378	-1.1939	-1.3319	-1.3807	-0.9746	-1.2399	-1.3482	-0.8988	-1.0666	-1.2751	-0.6308	-1.2372	-1.5566	1.2345	-1.0991	-0.0812	-1.2426	-0.536	1.8734	-0.5604
-1.7218	-1.4484	-1.6514	-1.3671	-1.1966	-1.3076	-1.3238	-1.0044	-1.2209	-1.2778	-0.915	-1.0639	-1.2318	-0.6281	-1.2399	-1.5404	1.2318	-1.0964	-0.1029	-1.2047	-0.5956	1.9708	-0.5658
-1.7082	-1.4077	-1.6216	-1.3103	-1.2372	-1.294	-1.2616	-1.026	-1.1939	-1.2182	-0.9394	-1.0423	-1.183	-0.6091	-1.2237	-1.5133	1.2155	-1.0531	-0.157	-1.1695	-0.6281	2.0521	-0.5875
-1.6541	-1.3211	-1.5675	-1.2453	-1.2128	-1.2182	-1.1912	-1.0044	-1.1424	-1.1316	-0.9123	-0.9935	-1.0937	-0.5875	-1.1885	-1.4619	1.1695	-0.999	-0.1678	-1.1181	-0.6795	2.1495	-0.5685
-1.5864	-1.267	-1.4673	-1.1803	-1.183	-1.1451	-1.0991	-0.9854	-1.0585	-1.026	-0.8934	-0.9529	-1.026	-0.5739	-1.1262	-1.4105	1.1262	-0.9611	-0.203	-1.0504	-0.7255	2.2145	-0.5793
-1.5377	-1.1776	-1.3888	-1.1262	-1.1587	-1.0721	-1.0342	-0.9665	-0.9692	-0.9069	-0.8798	-0.9123	-0.9421	-0.5414	-1.0693	-1.3374	1.0775	-0.9259	-0.2057	-1.0287	-0.7418	2.2795	-0.5902
-1.4132	-1.0721	-1.2507	-1.0125	-1.0829	-0.9638	-0.915	-0.8988	-0.8853	-0.7878	-0.8474	-0.8311	-0.823	-0.5117	-0.9963	-1.2697	1.0179	-0.823	-0.1976	-0.9611	-0.7418	2.3634	-0.5848
-1.2913	-0.9475	-1.1235	-0.9313	-1.0044	-0.8717	-0.8149	-0.8771	-0.7797	-0.6903	-0.7905	-0.7526	-0.7526	-0.4765	-0.8853	-1.2074	0.9394	-0.777	-0.2057	-0.8988	-0.7418	2.4067	-0.5685
-1.2128	-0.823	-1.026	-0.8798	-0.9448	-0.7661	-0.7147	-0.8392	-0.693	-0.5929	-0.7743	-0.712	-0.6606	-0.4521	-0.7986	-1.1479	0.8934	-0.7337	-0.2274	-0.8744	-0.7499	2.4446	-0.5685
-1.0964	-0.6958	-0.8771	-0.7905	-0.8501	-0.6524	-0.6335	-0.7716	-0.6091	-0.4792	-0.7472	-0.6524	-0.5902	-0.4304	-0.7039	-1.0829	0.8392	-0.647	-0.203	-0.8203	-0.7445	2.4636	-0.5739
-0.9502	-0.5306	-0.7255	-0.6822	-0.7472	-0.5333	-0.5441	-0.7174	-0.5035	-0.3709	-0.6876	-0.5523	-0.4765	-0.3871	-0.5658	-1.0125	0.7688	-0.5902	-0.203	-0.7445	-0.7201	2.4744	-0.5875
-0.8582	-0.398	-0.6145	-0.6199	-0.6579	-0.4196	-0.4494	-0.6714	-0.4304	-0.3059	-0.6416	-0.5144	-0.4304	-0.3682	-0.4602	-0.9367	0.7309	-0.5469	-0.1976	-0.7228	-0.6822	2.4987	-0.5956
-0.7228	-0.2788	-0.4765	-0.5387	-0.5604	-0.314	-0.3898	-0.647	-0.3655	-0.2436	-0.6335	-0.4548	-0.3601	-0.3519	-0.3925	-0.8798	0.7012	-0.5225	-0.2085	-0.7066	-0.6416	2.5123	-0.5929
-0.6091	-0.1543	-0.3574	-0.4765	-0.4575	-0.2274	-0.3357	-0.5956	-0.2951	-0.1706	-0.6091	-0.425	-0.3411	-0.333	-0.2843	-0.8149	0.6633	-0.4711	-0.203	-0.6903	-0.6362	2.5339	-0.6362
-0.5117	-0.019	-0.2653	-0.4061	-0.3682	-0.1354	-0.2815	-0.5577	-0.2274	-0.1164	-0.6064	-0.4007	-0.3059	-0.3303	-0.222	-0.758	0.6335	-0.4629	-0.2085	-0.6633	-0.6254	2.5773	-0.6497
-0.3953	0.0975	-0.1462	-0.3682	-0.2734	-0.0596	-0.2545	-0.5171	-0.176	-0.0677	-0.5739	-0.3655	-0.2843	-0.3167	-0.1651	-0.7201	0.6227	-0.4575	-0.2166	-0.693	-0.6037	2.6314	-0.6903
-0.314	0.1922	-0.0352	-0.3005	-0.1841	0.0162	-0.2112	-0.5117	-0.1327	-0.0541	-0.5793	-0.3357	-0.2761	-0.3059	-0.1056	-0.6551	0.6064	-0.4683	-0.2328	-0.6958	-0.582	2.6666	-0.7391
-0.2436	0.2788	0.0379	-0.2491	-0.1408	0.0623	-0.1814	-0.4656	-0.1137	-0.0596	-0.5604	-0.3492	-0.2734	-0.3195	-0.0785	-0.6524	0.6199	-0.4873	-0.2545	-0.7039	-0.582	2.7343	-0.758
-0.1489	0.3574	0.1299	-0.1922	-0.0623	0.1516	-0.1543	-0.4413	-0.0812	-0.0162	-0.5577	-0.3222	-0.2491	-0.3086	-0.0352	-0.5875	0.6145	-0.5035	-0.2734	-0.7093	-0.5523	2.8128	-0.7878
-0.0731	0.4277	0.2112	-0.1299	0.019	0.2328	-0.1164	-0.398	-0.0135	-0.0108	-0.5414	-0.3059	-0.2436	-0.3113	-0.019	-0.555	0.6254	-0.4927	-0.268	-0.7093	-0.5306	2.8696	-0.8338
-0.0054	0.4819	0.2707	-0.0839	0.0839	0.2409	-0.1299	-0.3763	-0.019	-0.0379	-0.5387	-0.3303	-0.2707	-0.3222	0.0352	-0.49	0.6389	-0.5252	-0.2464	-0.7201	-0.5008	2.9346	-0.8636
0.0731	0.5712	0.3519	-0.0054	0.1814	0.3384	-0.1056	-0.3357	0.0325	-0.0081	-0.49	-0.2815	-0.2436	-0.333	0.0217	-0.4548	0.6524	-0.5225	-0.2355	-0.712	-0.4683	3.0185	-0.8636
0.1597	0.6281	0.4196	0.0406	0.2545	0.3763	-0.0623	-0.2707	0.0731	-0.0108	-0.4711	-0.2653	-0.2436	-0.3357	0.0244	-0.4223	0.666	-0.5306	-0.2139	-0.7228	-0.4494	3.0997	-0.9015
0.2247	0.7039	0.4927	0.1029	0.3519	0.4494	-0.0623	-0.222	0.111	-0.019	-0.4521	-0.2491	-0.2382	-0.3384	-0.0027	-0.3763	0.6795	-0.5496	-0.2247	-0.758	-0.4386	3.1756	-0.9123
0.3005	0.7851	0.5658	0.1435	0.444	0.49	-0.0433	-0.157	0.1435	-0.0217	-0.4034	-0.2355	-0.2355	-0.3465	-0.0325	-0.3249	0.6714	-0.5441	-0.1949	-0.7716	-0.4169	3.2351	-0.934
0.3925	0.8392	0.6497	0.2301	0.509	0.5387	-0.0108	-0.0839	0.176	-0.0027	-0.3492	-0.1895	-0.2085	-0.3438	-0.0487	-0.2897	0.6768	-0.5225	-0.157	-0.7607	-0.3898	3.2947	-0.9665
0.4223	0.8798	0.6876	0.2788	0.5902	0.5712	0.0027	-0.046	0.2085	0.0054	-0.3357	-0.1895	-0.2112	-0.3546	-0.0893	-0.2491	0.693	-0.5279	-0.1733	-0.7634	-0.3763	3.3651	-1.0098
0.5252	0.9177	0.7797	0.3574	0.6876	0.6416	0.046	0.0433	0.2545	0.0541	-0.2572	-0.1327	-0.1841	-0.3574	-0.1299	-0.203	0.6985	-0.5008	-0.157	-0.758	-0.3303	3.3948	-1.0152
0.5766	0.9529	0.8257	0.4061	0.7418	0.6849	0.0623	0.1002	0.2843	0.0596	-0.2193	-0.0893	-0.1435	-0.3628	-0.1678	-0.1841	0.6985	-0.4602	-0.1408	-0.7309	-0.314	3.4409	-1.026
0.6551	0.9773	0.8907	0.49	0.7959	0.7255	0.1056	0.1354	0.2924	0.0948	-0.1814	-0.0487	-0.1245	-0.3519	-0.2382	-0.1327	0.6958	-0.444	-0.1408	-0.7309	-0.287	3.4652	-1.0369
0.6849	0.9935	0.8961	0.5198	0.8203	0.7391	0.1191	0.1678	0.3113	0.0948	-0.1164	-0.0027	-0.1056	-0.3546	-0.2707	-0.1137	0.6876	-0.4169	-0.1489	-0.7147	-0.2626	3.495	-1.0396
0.7445	1.0152	0.9638	0.5902	0.8771	0.7905	0.1543	0.2274	0.3411	0.1354	-0.065	0.046	-0.0596	-0.3303	-0.2491	-0.0758	0.6497	-0.3736	-0.1299	-0.6497	-0.2003	3.5329	-1.0287
0.7743	1.0098	0.9935	0.6308	0.9069	0.7986	0.1814	0.2924	0.3492	0.1597	-0.0298	0.0541	-0.0379	-0.3113	-0.2734	-0.0596	0.6254	-0.3249	-0.1516	-0.6172	-0.1489	3.5925	-0.9963
0.804	1.0342	1.0179	0.6958	0.915	0.8419	0.2247	0.3357	0.3709	0.2112	0.0379	0.1462	0.0054	-0.2897	-0.2707	-0.0271	0.5766	-0.2734	-0.1543	-0.5577	-0.0948	3.652	-0.934
0.8067	1.0206	1.0612	0.7391	0.9177	0.8555	0.2572	0.3384	0.3682	0.2328	0.0948	0.1516	0.0298	-0.2653	-0.2436	-0.0054	0.5171	-0.2057	-0.1597	-0.5035	-0.0352	3.7197	-0.8663
0.8203	1.0017	1.0585	0.7905	0.9367	0.8446	0.3059	0.379	0.3763	0.2626	0.1272	0.1868	0.0704	-0.2301	-0.2193	0.0325	0.4711	-0.1191	-0.1787	-0.4304	0.0108	3.7793	-0.7905
0.823	0.9502	1.0639	0.8365	0.9177	0.8744	0.3519	0.398	0.3871	0.3086	0.1841	0.2247	0.1164	-0.1922	-0.1543	0.0623	0.3871	-0.0325	-0.1922	-0.3546	0.0704	3.874	-0.6958
0.8284	0.9069	1.0748	0.8961	0.8771	0.8582	0.3953	0.398	0.3953	0.3357	0.2112	0.2301	0.1327	-0.1543	-0.0812	0.0758	0.3113	0.0217	-0.1895	-0.2707	0.1002	3.9552	-0.5956
0.8149	0.8744	1.0829	0.9286	0.8446	0.8744	0.4359	0.4115	0.4169	0.3925	0.2464	0.2761	0.1651	-0.1029	0.0162	0.0866	0.2057	0.0839	-0.2382	-0.2003	0.1354	4.0256	-0.4738
0.8013	0.7986	1.0748	0.9584	0.7905	0.869	0.4683	0.398	0.4359	0.4413	0.2924	0.3086	0.1841	-0.0487	0.111	0.1272	0.0948	0.1381	-0.2572	-0.1354	0.1624	4.0987	-0.3519
0.804	0.7418	1.0531	1.0071	0.7337	0.8744	0.509	0.3898	0.4034	0.4629	0.2951	0.3303	0.2193	-0.0081	0.1787	0.1083	-0.0081	0.2139	-0.314	-0.0433	0.1408	4.1691	-0.2328
0.7824	0.6524	1.0342	1.0314	0.6524	0.8663	0.5604	0.3628	0.4169	0.5062	0.2843	0.3492	0.2247	0.0596	0.2924	0.1489	-0.1218	0.2815	-0.3303	0.0433	0.1678	4.2178	-0.1137
0.7878	0.6091	1.0152	1.0802	0.5956	0.8609	0.5929	0.3249	0.4196	0.5225	0.3303	0.3465	0.2491	0.1164	0.379	0.1814	-0.2572	0.3492	-0.3898	0.1056	0.1327	4.2828	0.0325
0.7634	0.5333	0.9827	1.1045	0.5306	0.8203	0.6335	0.2572	0.3817	0.536	0.3086	0.3276	0.2572	0.1868	0.4629	0.2085	-0.3763	0.3763	-0.4386	0.157	0.0893	4.3261	0.1678
0.7526	0.4629	0.9502	1.1479	0.4629	0.8203	0.6714	0.2193	0.3844	0.582	0.2951	0.3411	0.2491	0.2464	0.5198	0.2382	-0.509	0.4034	-0.4954	0.1949	0.0758	4.3803	0.3005
0.7364	0.425	0.9421	1.1966	0.3953	0.8067	0.7174	0.1651	0.3844	0.5875	0.2734	0.3465	0.2409	0.3195	0.601	0.2707	-0.6443	0.4332	-0.5306	0.2301	0.046	4.4263	0.4656
0.7364	0.3898	0.9367	1.2264	0.3411	0.823	0.7797	0.1354	0.3871	0.6254	0.268	0.3438	0.2599	0.3763	0.6551	0.2924	-0.7716	0.4819	-0.5766	0.268	0.0298	4.4615	0.6118
0.7499	0.3411	0.9123	1.2453	0.268	0.8149	0.8203	0.0893	0.4007	0.666	0.2382	0.333	0.268	0.4413	0.6903	0.3222	-0.8934	0.5198	-0.6362	0.3249	-0.0162	4.4994	0.7337
0.7255	0.2951	0.8934	1.2751	0.2139	0.7905	0.8744	0.0325	0.3898	0.6579	0.203	0.2951	0.2518	0.4981	0.6714	0.3222	-0.9963	0.5062	-0.6579	0.3519	-0.0325	4.5535	0.8853
0.7174	0.2761	0.869	1.3157	0.1408	0.7851	0.9286	-0.0244	0.3628	0.693	0.1435	0.268	0.2436	0.5523	0.6254	0.314	-1.0856	0.536	-0.7039	0.3871	-0.065	4.605	1.0152
0.6985	0.2328	0.823	1.3184	0.0704	0.758	0.9611	-0.0893	0.3492	0.7201	0.1164	0.2193	0.203	0.582	0.5631	0.2734	-1.1533	0.509	-0.7607	0.4115	-0.1272	4.6699	1.137
0.7093	0.2247	0.8419	1.3753	0.0244	0.7309	1.0125	-0.1272	0.3276	0.7228	0.0514	0.2085	0.2112	0.6227	0.5035	0.2599	-1.2345	0.5117	-0.7905	0.4575	-0.1814	4.7105	1.2372
0.6579	0.176	0.758	1.3374	-0.0487	0.6903	1.0179	-0.203	0.3032	0.6903	-0.0162	0.1354	0.1516	0.6416	0.4115	0.2274	-1.2886	0.4846	-0.8419	0.4602	-0.2464	4.7376	1.294
0.6416	0.1408	0.7228	1.3428	-0.1083	0.6741	1.0179	-0.2734	0.2545	0.6579	-0.0975	0.065	0.0893	0.6606	0.3249	0.1706	-1.3292	0.4521	-0.8636	0.4981	-0.3032	4.743	1.3563
0.6389	0.1218	0.7039	1.3157	-0.157	0.6362	0.9881	-0.3249	0.2247	0.6362	-0.1651	-0.0135	0.0433	0.6822	0.2247	0.1516	-1.3644	0.4142	-0.8934	0.5035	-0.3709	4.7349	1.3617
0.582	0.0623	0.6551	1.2751	-0.2436	0.5658	0.9665	-0.4061	0.1408	0.5739	-0.2653	-0.0975	-0.0352	0.6903	0.092	0.0758	-1.3726	0.3465	-0.915	0.49	-0.4386	4.7241	1.3698
0.5658	0.019	0.5956	1.2561	-0.2924	0.5062	0.9313	-0.4738	0.0731	0.5144	-0.3601	-0.2085	-0.1327	0.6876	0.0081	0.0487	-1.3644	0.287	-0.9042	0.4819	-0.5117	4.6753	1.3428
0.509	-0.0325	0.5414	1.1939	-0.3682	0.4196	0.8853	-0.5604	0.0081	0.4467	-0.4548	-0.3167	-0.2491	0.666	-0.1327	-0.0271	-1.313	0.2085	-0.9123	0.4711	-0.5739	4.6266	1.2859
0.4629	-0.0866	0.4819	1.1316	-0.4115	0.3222	0.8176	-0.6227	-0.0948	0.3384	-0.536	-0.425	-0.3601	0.6308	-0.2301	-0.0975	-1.2561	0.1354	-0.8798	0.4196	-0.6416	4.5671	1.2128
0.4061	-0.1489	0.3953	1.0693	-0.4954	0.2572	0.7309	-0.7093	-0.2112	0.2247	-0.666	-0.5577	-0.4792	0.5793	-0.3384	-0.1651	-1.1614	0.0487	-0.8176	0.3709	-0.666	4.494	1.1397
0.3411	-0.2247	0.3303	0.9963	-0.5604	0.157	0.6389	-0.7716	-0.3276	0.1029	-0.7661	-0.7093	-0.6281	0.5306	-0.4142	-0.2193	-1.0666	-0.0758	-0.7743	0.3005	-0.7174	4.4155	1.0396
0.268	-0.2761	0.2653	0.9232	-0.6227	0.046	0.536	-0.8528	-0.444	-0.0325	-0.8744	-0.8528	-0.7743	0.4819	-0.5035	-0.2843	-0.9584	-0.1841	-0.7012	0.2112	-0.7364	4.3261	0.9232
0.1895	-0.3303	0.157	0.8013	-0.6768	-0.065	0.4196	-0.9232	-0.5712	-0.1895	-0.9881	-1.0125	-0.9584	0.425	-0.5929	-0.3438	-0.8392	-0.3303	-0.6497	0.0948	-0.7472	4.2395	0.8122
0.1056	-0.4007	0.0487	0.6958	-0.7553	-0.1868	0.2734	-1.0017	-0.7228	-0.3601	-1.1127	-1.1993	-1.1208	0.3655	-0.6308	-0.4223	-0.7093	-0.4711	-0.5577	-0.0352	-0.7688	4.1637	0.6903
0.0433	-0.4304	-0.0217	0.5902	-0.8013	-0.3411	0.1516	-1.0693	-0.8582	-0.5225	-1.248	-1.3807	-1.313	0.2924	-0.6524	-0.4792	-0.5793	-0.5902	-0.4873	-0.1841	-0.7851	4.0716	0.5631
-0.0596	-0.4927	-0.1354	0.4602	-0.8771	-0.4765	-0.0162	-1.1695	-1.0396	-0.7282	-1.3834	-1.5702	-1.5242	0.2112	-0.6876	-0.536	-0.4196	-0.7499	-0.4277	-0.3222	-0.7743	4.0175	0.4359
-0.1922	-0.5577	-0.2653	0.3005	-0.9529	-0.6606	-0.1787	-1.2832	-1.2561	-0.9584	-1.5242	-1.8003	-1.7299	0.1408	-0.7418	-0.5875	-0.2815	-0.9204	-0.3925	-0.49	-0.7959	3.9769	0.3303
-0.3357	-0.6606	-0.4277	0.111	-1.0829	-0.8474	-0.3844	-1.424	-1.4754	-1.1966	-1.7164	-2.0331	-1.9627	0.0514	-0.7688	-0.666	-0.1164	-1.0775	-0.3682	-0.6579	-0.8582	3.9796	0.2139
-0.4602	-0.7282	-0.5685	-0.0433	-1.183	-1.0423	-0.6199	-1.5431	-1.7082	-1.4402	-1.9086	-2.2876	-2.2307	-0.0298	-0.823	-0.7418	0.0325	-1.2751	-0.3655	-0.8419	-0.915	4.0012	0.1083
-0.6579	-0.823	-0.777	-0.2328	-1.3211	-1.2643	-0.8717	-1.7218	-1.9763	-1.6866	-2.1008	-2.5664	-2.5258	-0.1083	-0.8744	-0.823	0.2057	-1.4727	-0.3898	-1.0531	-0.9881	4.05	0.0162
-0.8122	-0.9584	-0.9692	-0.4873	-1.4619	-1.5296	-1.1208	-1.8923	-2.2578	-1.9871	-2.3282	-2.8859	-2.7965	-0.1895	-0.915	-0.888	0.3709	-1.6487	-0.4169	-1.2561	-1.0693	4.1122	-0.092
-0.999	-1.0883	-1.2237	-0.712	-1.6243	-1.7949	-1.3888	-2.0656	-2.5258	-2.2686	-2.5367	-3.1647	-3.0754	-0.2734	-0.9963	-0.9908	0.5279	-1.8355	-0.4738	-1.4863	-1.1506	4.207	-0.1841
-1.1912	-1.1912	-1.4077	-0.9232	-1.7651	-2.0277	-1.6352	-2.2226	-2.7884	-2.5231	-2.7207	-3.4138	-3.3217	-0.333	-1.0287	-1.0558	0.6606	-2.0006	-0.5008	-1.6812	-1.202	4.299	-0.2707
-1.3509	-1.2859	-1.6243	-1.1289	-1.9005	-2.2659	-1.8815	-2.3878	-3.0456	-2.7722	-2.8913	-3.6953	-3.5789	-0.3925	-1.0612	-1.1885	0.7878	-2.1603	-0.5469	-1.8734	-1.2426	4.4046	-0.3574
-1.5431	-1.4077	-1.8247	-1.3536	-2.0494	-2.5069	-2.136	-2.5312	-3.3028	-3.0158	-3.0618	-3.9309	-3.8226	-0.4711	-1.0937	-1.2751	0.9313	-2.2957	-0.5983	-2.0548	-1.2886	4.5048	-0.425
-1.7001	-1.5106	-2.025	-1.5675	-2.1685	-2.7045	-2.3526	-2.6693	-3.5275	-3.2297	-3.208	-4.1664	-4.0446	-0.5225	-1.1343	-1.3969	1.0287	-2.4392	-0.6633	-2.2091	-1.3076	4.6158	-0.4792
-1.8463	-1.6027	-2.2064	-1.7597	-2.2686	-2.9102	-2.5448	-2.7613	-3.7035	-3.4057	-3.3244	-4.3478	-4.2124	-0.5766	-1.1641	-1.4971	1.1451	-2.5448	-0.6687	-2.3661	-1.3184	4.7024	-0.5658
-2.0304	-1.7082	-2.385	-1.9248	-2.3742	-3.0997	-2.718	-2.8696	-3.9119	-3.587	-3.4165	-4.5237	-4.3803	-0.6227	-1.2345	-1.646	1.2155	-2.6395	-0.6903	-2.4879	-1.2913	4.7999	-0.6281
-2.1414	-1.8165	-2.5475	-2.1008	-2.4527	-3.2676	-2.8723	-2.9481	-4.0608	-3.7197	-3.4517	-4.6672	-4.5102	-0.6606	-1.2805	-1.7651	1.2913	-2.7126	-0.6958	-2.5773	-1.2399	4.8973	-0.6876
-2.2903	-1.9059	-2.6828	-2.1983	-2.515	-3.4111	-2.9698	-2.9671	-4.1772	-3.8226	-3.4598	-4.7728	-4.6022	-0.693	-1.3103	-1.8734	1.3671	-2.7316	-0.7012	-2.6476	-1.1587	4.9623	-0.7553
-2.4175	-1.9925	-2.8155	-2.3336	-2.561	-3.5275	-3.0781	-2.9698	-4.2828	-3.9092	-3.4544	-4.8188	-4.6564	-0.7228	-1.3861	-2.025	1.4213	-2.7613	-0.6524	-2.6991	-1.0775	5.0381	-0.8095
-2.5285	-2.0791	-2.9427	-2.4365	-2.6125	-3.6168	-3.1566	-2.9563	-4.3532	-3.9823	-3.4246	-4.8594	-4.6835	-0.7472	-1.4294	-2.1522	1.4781	-2.7668	-0.6335	-2.7234	-0.9502	5.0868	-0.8717
-2.6476	-2.1874	-3.0429	-2.5177	-2.6774	-3.7143	-3.227	-2.9671	-4.4073	-4.004	-3.384	-4.8892	-4.7024	-0.7824	-1.4863	-2.2822	1.5296	-2.7289	-0.5929	-2.7207	-0.8501	5.1166	-0.9421
-2.7559	-2.2632	-3.1322	-2.6016	-2.6774	-3.7549	-3.2432	-2.9211	-4.4019	-3.9877	-3.2838	-4.8676	-4.6537	-0.7878	-1.516	-2.3905	1.5621	-2.6449	-0.5387	-2.6964	-0.7445	5.1302	-1.0314
-2.8453	-2.3607	-3.2216	-2.6612	-2.672	-3.7982	-3.2757	-2.8588	-4.41	-3.9579	-3.1756	-4.7918	-4.5887	-0.7986	-1.5864	-2.5123	1.5945	-2.5664	-0.49	-2.6693	-0.6064	5.1383	-1.0693
-2.9265	-2.4419	-3.3028	-2.7207	-2.6855	-3.8199	-3.2893	-2.8101	-4.4073	-3.9011	-3.0537	-4.7268	-4.4777	-0.8122	-1.627	-2.5989	1.5973	-2.4663	-0.4494	-2.6043	-0.4548	5.1193	-1.137
-3.0104	-2.4798	-3.3569	-2.7613	-2.691	-3.8496	-3.2865	-2.7099	-4.3505	-3.8605	-2.9427	-4.6401	-4.383	-0.8149	-1.6947	-2.7045	1.6108	-2.3417	-0.4061	-2.5367	-0.3167	5.0787	-1.2128
-3.0916	-2.5475	-3.4354	-2.8182	-2.6991	-3.8848	-3.2811	-2.6449	-4.3315	-3.8117	-2.8047	-4.5589	-4.2693	-0.8176	-1.7813	-2.8047	1.6162	-2.201	-0.3736	-2.4933	-0.2057	5.0408	-1.248
-3.1756	-2.6097	-3.5004	-2.8507	-2.6666	-3.8794	-3.2432	-2.5583	-4.2584	-3.698	-2.6585	-4.4398	-4.142	-0.8122	-1.868	-2.8696	1.5918	-2.0494	-0.314	-2.4148	-0.0785	4.9785	-1.2697
-3.227	-2.6639	-3.5627	-2.8805	-2.672	-3.8821	-3.2053	-2.4581	-4.1772	-3.6114	-2.5015	-4.3153	-3.9715	-0.7932	-2.0006	-2.9779	1.5702	-1.9005	-0.2761	-2.3634	0.0352	4.9136	-1.3211
-3.3082	-2.7153	-3.6249	-2.9292	-2.6476	-3.8794	-3.2053	-2.3796	-4.115	-3.5031	-2.3607	-4.1935	-3.8226	-0.7607	-2.1197	-3.0456	1.5269	-1.738	-0.2545	-2.3174	0.1543	4.8242	-1.3401
-3.3488	-2.7289	-3.6628	-2.9373	-2.6233	-3.8605	-3.162	-2.2849	-4.0094	-3.4084	-2.1983	-4.0689	-3.652	-0.758	-2.2307	-3.116	1.4917	-1.5973	-0.2112	-2.247	0.2518	4.7376	-1.3455
-3.4138	-2.7803	-3.7089	-2.9509	-2.607	-3.8469	-3.1512	-2.2037	-3.9688	-3.3244	-2.0683	-3.9336	-3.4842	-0.7391	-2.3607	-3.1918	1.4592	-1.4511	-0.176	-2.2118	0.3411	4.632	-1.3753
-3.4517	-2.7857	-3.7359	-2.9427	-2.5746	-3.8307	-3.1025	-2.1197	-3.8848	-3.2162	-1.9411	-3.7711	-3.338	-0.7174	-2.4744	-3.2297	1.4186	-1.3049	-0.1327	-2.136	0.444	4.5264	-1.3455
-3.4923	-2.8128	-3.7874	-2.959	-2.5664	-3.8415	-3.0808	-2.0629	-3.8415	-3.1133	-1.8247	-3.671	-3.181	-0.7147	-2.607	-3.3028	1.3969	-1.1722	-0.1002	-2.0764	0.4981	4.4127	-1.3103
-3.5004	-2.8128	-3.8199	-2.9427	-2.5502	-3.8307	-3.0483	-1.9898	-3.7441	-3.0077	-1.6947	-3.541	-3.0321	-0.693	-2.7018	-3.3272	1.3671	-1.0287	-0.0623	-2.006	0.5848	4.3126	-1.267
-3.5275	-2.8209	-3.8307	-2.8778	-2.5312	-3.8145	-2.9833	-1.9086	-3.671	-2.8886	-1.5837	-3.3975	-2.8669	-0.666	-2.7695	-3.3434	1.313	-0.8853	0.0135	-1.8923	0.666	4.2287	-1.2318
-3.5519	-2.8642	-3.8957	-2.8859	-2.5258	-3.8117	-2.9752	-1.8842	-3.6331	-2.8344	-1.535	-3.3028	-2.7316	-0.6606	-2.8588	-3.3759	1.2995	-0.7607	0.0244	-1.8003	0.6903	4.1529	-1.1749
-3.5491	-2.8507	-3.9011	-2.8317	-2.4906	-3.7928	-2.9021	-1.8328	-3.5519	-2.7072	-1.4348	-3.1756	-2.58	-0.6362	-2.8967	-3.3678	1.2534	-0.6254	0.0975	-1.6974	0.7445	4.1068	-1.1045
-3.5329	-2.8534	-3.9254	-2.8047	-2.5015	-3.7901	-2.8832	-1.8057	-3.5031	-2.6287	-1.3698	-3.0889	-2.4284	-0.6145	-2.9536	-3.3786	1.2074	-0.4981	0.1191	-1.5783	0.7418	4.1068	-1.0287
-3.5491	-2.8615	-3.9498	-2.7532	-2.4825	-3.7684	-2.8317	-1.738	-3.4463	-2.5394	-1.3563	-2.9915	-2.3255	-0.5929	-2.986	-3.3596	1.1695	-0.4007	0.1354	-1.4835	0.7553	4.1285	-0.9881
-3.5573	-2.848	-3.9579	-2.7126	-2.4717	-3.7711	-2.7911	-1.757	-3.4111	-2.4798	-1.3319	-2.9157	-2.2064	-0.5848	-3.0294	-3.3705	1.1397	-0.2924	0.1516	-1.3834	0.7174	4.1853	-0.9394
-3.5329	-2.8642	-3.9633	-2.6639	-2.496	-3.763	-2.7478	-1.7705	-3.3759	-2.4148	-1.3536	-2.848	-2.117	-0.5685	-3.0429	-3.3434	1.1262	-0.2139	0.1516	-1.2886	0.6633	4.2828	-0.8771
-3.5031	-2.8615	-3.9471	-2.5908	-2.4744	-3.7224	-2.691	-1.7895	-3.2838	-2.3065	-1.3834	-2.7776	-2.0087	-0.5523	-3.0456	-3.292	1.1018	-0.1164	0.1218	-1.1506	0.5956	4.3884	-0.8176
-3.4273	-2.8642	-3.9119	-2.515	-2.4771	-3.698	-2.6476	-1.8084	-3.2486	-2.2605	-1.4186	-2.737	-1.9302	-0.5441	-3.0239	-3.2378	1.0693	-0.046	0.1245	-1.0477	0.4981	4.521	-0.7851
-3.3732	-2.8344	-3.8632	-2.4257	-2.496	-3.6087	-2.5664	-1.8626	-3.181	-2.1685	-1.4565	-2.6666	-1.8274	-0.5387	-2.9536	-3.1728	1.045	0.0487	0.0975	-0.9394	0.3628	4.7078	-0.7472
-3.2811	-2.8263	-3.8036	-2.3147	-2.4933	-3.5302	-2.4771	-1.9032	-3.1187	-2.0737	-1.5485	-2.6233	-1.7489	-0.5171	-2.8805	-3.0862	1.0152	0.1245	0.0541	-0.7986	0.2085	4.9109	-0.7093
-3.1647	-2.7668	-3.6764	-2.1549	-2.4608	-3.4165	-2.3499	-1.9194	-3.0239	-1.979	-1.6081	-2.5475	-1.6379	-0.49	-2.7722	-2.9725	0.98	0.2112	0.0108	-0.6741	0.0433	5.1356	-0.6958
-3.0212	-2.6774	-3.495	-1.9573	-2.4094	-3.2649	-2.2064	-1.9221	-2.8778	-1.8274	-1.6649	-2.4663	-1.5242	-0.4738	-2.607	-2.8236	0.9367	0.2707	-0.0054	-0.536	-0.0948	5.3846	-0.6687
-2.8074	-2.561	-3.2865	-1.738	-2.3255	-3.0997	-2.0196	-1.9005	-2.7343	-1.6758	-1.6839	-2.358	-1.3861	-0.4494	-2.3742	-2.6639	0.8934	0.3736	-0.0514	-0.3709	-0.2707	5.6391	-0.6606
-2.5962	-2.4311	-3.0348	-1.489	-2.247	-2.8642	-1.7976	-1.8869	-2.5367	-1.4727	-1.7732	-2.2524	-1.2399	-0.4277	-2.1333	-2.45	0.8528	0.4711	-0.0812	-0.2003	-0.4575	5.8936	-0.6416
-2.3201	-2.247	-2.7559	-1.2318	-2.0873	-2.6152	-1.5485	-1.8463	-2.3499	-1.2589	-1.7786	-2.1062	-1.091	-0.4061	-1.8463	-2.2064	0.7851	0.5577	-0.1381	-0.0162	-0.6524	6.1426	-0.6254
-2.0087	-2.0142	-2.4148	-0.8717	-1.914	-2.2984	-1.2399	-1.7868	-2.0791	-1.0017	-1.7813	-1.9384	-0.8798	-0.3682	-1.516	-1.914	0.7228	0.647	-0.1814	0.2057	-0.8474	6.4052	-0.6145
-1.627	-1.7353	-2.0006	-0.4873	-1.692	-1.9113	-0.8853	-1.6703	-1.757	-0.7012	-1.757	-1.7299	-0.6768	-0.3249	-1.1343	-1.6027	0.6281	0.7986	-0.2057	0.4521	-1.0206	6.6543	-0.6145
-1.1939	-1.3942	-1.5431	-0.065	-1.4348	-1.4971	-0.4873	-1.5106	-1.4186	-0.3519	-1.7353	-1.5052	-0.398	-0.2707	-0.7147	-1.2345	0.5333	0.9556	-0.2464	0.7093	-1.2101	6.9034	-0.6037
-0.6876	-1.0125	-1.0287	0.3953	-1.1127	-1.0044	-0.0298	-1.3211	-0.9963	0.0352	-1.6433	-1.2209	-0.1029	-0.2112	-0.2545	-0.8067	0.4142	1.11	-0.2653	1.0125	-1.3861	7.1362	-0.5793
-0.1678	-0.5198	-0.444	0.9177	-0.7228	-0.4602	0.4846	-1.0802	-0.536	0.4711	-1.5133	-0.8744	0.2274	-0.1516	0.2491	-0.3492	0.2897	1.2751	-0.2572	1.3049	-1.5566	7.3582	-0.5658
0.425	0.0054	0.2057	1.47	-0.2734	0.1245	1.0342	-0.7688	-0.0135	0.9746	-1.3292	-0.4927	0.6199	-0.0839	0.7932	0.1245	0.1462	1.4646	-0.2436	1.6433	-1.7191	7.5775	-0.5279
1.0396	0.5441	0.8934	2.0548	0.1949	0.7743	1.6	-0.4711	0.5523	1.4592	-1.1533	-0.0812	0.9963	-0.0217	1.3482	0.647	0.0217	1.646	-0.2436	1.9736	-1.8815	7.7886	-0.4738
1.7461	1.1803	1.6514	2.691	0.7499	1.4646	2.2253	-0.065	1.1614	2.0466	-0.8961	0.3898	1.4267	0.046	1.9411	1.1858	-0.1137	1.8734	-0.1706	2.3201	-1.9979	8.0025	-0.4494
2.4906	1.8815	2.4581	3.3759	1.378	2.2307	2.913	0.3953	1.8707	2.7018	-0.5848	0.9177	1.9221	0.1191	2.5637	1.7949	-0.2464	2.0981	-0.0569	2.718	-2.0927	8.2164	-0.4034
3.2622	2.6531	3.2893	4.0798	2.0575	3.0131	3.6222	0.888	2.5854	3.3299	-0.2464	1.4754	2.4284	0.1706	3.1837	2.4148	-0.3465	2.3363	0.046	3.0781	-2.1603	8.4113	-0.3574
4.0798	3.4192	4.1853	4.8134	2.7478	3.8307	4.3559	1.424	3.3326	3.9958	0.1137	2.0791	2.9617	0.2166	3.828	3.0537	-0.444	2.5718	0.2139	3.4815	-2.2037	8.6089	-0.3113
4.919	4.2259	5.0787	5.5335	3.5112	4.6943	5.1166	1.9898	4.1095	4.7024	0.5441	2.7045	3.4869	0.2491	4.4642	3.7143	-0.5117	2.8101	0.3736	3.8632	-2.2199	8.774	-0.2626
5.7312	5.076	5.9883	6.2861	4.3126	5.5714	5.8909	2.5935	4.9352	5.4279	0.9746	3.3272	4.05	0.2653	5.0733	4.3342	-0.5441	3.0267	0.5577	4.2097	-2.2064	8.95	-0.2382
6.6164	5.8909	6.9196	7.0685	5.0733	6.4323	6.6678	3.2162	5.7772	6.1562	1.4402	4.0094	4.6185	0.268	5.6797	5.0083	-0.5496	3.2405	0.7905	4.5887	-2.182	9.0962	-0.2085
7.4394	6.7085	7.8103	7.813	5.8421	7.3013	7.3988	3.8388	6.5568	6.8573	1.868	4.6645	5.1545	0.2572	6.2239	5.6445	-0.5144	3.4084	0.9935	4.9136	-2.1333	9.2478	-0.1949
8.2922	7.5558	8.7334	8.5818	6.6408	8.1839	8.1731	4.4669	7.415	7.5883	2.3526	5.3251	5.7149	0.2355	6.8167	6.3132	-0.4738	3.5952	1.2697	5.279	-2.0602	9.3832	-0.1895
9.1125	8.349	9.6295	9.3101	7.4448	9.0394	8.9202	5.1193	8.2191	8.284	2.8453	6.0154	6.2482	0.1922	7.3744	6.9359	-0.4223	3.7522	1.5242	5.566	-1.9573	9.5158	-0.1624
9.9111	9.1639	10.485	10.0437	8.2082	9.8623	9.6241	5.7393	9.0177	8.9717	3.3407	6.6624	6.7843	0.1624	7.9159	7.5693	-0.3465	3.893	1.8138	5.8584	-1.8111	9.6268	-0.1435
10.6989	9.9354	11.3378	10.7584	8.969	10.6826	10.3253	6.3538	9.8407	9.6404	3.8199	7.3095	7.2824	0.1272	8.4275	8.1731	-0.268	3.9931	2.1062	6.1372	-1.6812	9.7622	-0.1245
11.4677	10.6745	12.1202	11.4542	9.6945	11.4623	11.0129	6.9711	10.6177	10.2684	4.299	7.9565	7.7832	0.092	8.9527	8.7632	-0.2003	4.0987	2.3878	6.3998	-1.5377	9.8759	-0.0975
12.1635	11.3567	12.8592	12.1066	10.3551	12.196	11.6383	7.5314	11.3161	10.8505	4.7782	8.5385	8.2326	0.0541	9.4184	9.3317	-0.1083	4.1583	2.6639	6.6191	-1.3644	9.9977	-0.0812
12.8484	12.0471	13.601	12.732	11.0237	12.9242	12.2772	8.1054	12.0254	11.4298	5.2195	9.1422	8.682	0.0244	9.9246	9.8759	-0.0569	4.2611	2.9671	6.8655	-1.183	10.1249	-0.0487
13.4819	12.6562	14.2453	13.3086	11.6085	13.5875	12.797	8.636	12.6562	11.9036	5.6472	9.6674	9.061	-0.0054	10.3659	10.3848	0.019	4.2611	3.2324	7.0523	-1.026	10.2576	0.019
14.026	13.2112	14.8355	13.8474	12.1445	14.1424	13.2491	9.0691	13.2382	12.3178	6.01	10.1304	9.3886	-0.0514	10.8017	10.8288	0.0812	4.2855	3.5302	7.1795	-0.8365	10.3984	0.0569
14.5187	13.7066	15.358	14.2886	12.6454	14.6622	13.693	9.5131	13.777	12.7157	6.3863	10.5879	9.6891	-0.0839	11.2214	11.2674	0.1516	4.2584	3.7928	7.304	-0.666	10.5581	0.1191
14.9492	14.1587	15.8236	14.7028	13.0677	15.1252	14.0802	9.884	14.2182	13.0217	6.6868	10.9506	9.9002	-0.0948	11.576	11.6139	0.2003	4.207	4.0202	7.3853	-0.4846	10.7151	0.1408
15.3498	14.5458	16.2243	15.0412	13.4548	15.5204	14.378	10.198	14.6243	13.2761	6.9738	11.2809	10.0735	-0.1327	11.9063	11.909	0.2545	4.1501	4.2368	7.4421	-0.3005	10.8911	0.1922
15.6314	14.849	16.5573	15.3201	13.7499	15.829	14.5945	10.4688	14.9086	13.4765	7.1985	11.5137	10.1953	-0.157	12.1905	12.1824	0.3195	4.0716	4.4155	7.4611	-0.1489	11.0319	0.222
15.8561	15.0791	16.7711	15.5096	13.9827	16.0727	14.7461	10.6718	15.1603	13.5902	7.3798	11.7357	10.2603	-0.1949	12.3909	12.3828	0.4007	3.9633	4.5779	7.4502	-0.0244	11.1835	0.2409
16.0077	15.2443	16.9254	15.6314	14.1424	16.2405	14.8517	10.8234	15.3336	13.6524	7.5125	11.8657	10.282	-0.2247	12.5452	12.5154	0.4521	3.8307	4.7078	7.3798	0.1137	11.3351	0.2653
16.0997	15.3417	17.0256	15.7289	14.2453	16.3272	14.8896	10.9263	15.4094	13.6308	7.5937	11.9361	10.2305	-0.2653	12.6589	12.5885	0.5306	3.671	4.8107	7.2986	0.2355	11.4515	0.2599
16.116	15.3634	17.0473	15.7045	14.2832	16.3217	14.8517	10.9533	15.4094	13.5577	7.6235	11.9496	10.1222	-0.3032	12.6697	12.6264	0.6037	3.4923	4.8973	7.1768	0.3465	11.5543	0.2572
16.0835	15.3174	16.985	15.6395	14.2643	16.292	14.7597	10.9479	15.3607	13.4304	7.6424	11.8982	9.9896	-0.333	12.7022	12.6237	0.6795	3.2974	4.9569	7.036	0.425	11.6302	0.2355
15.9833	15.2253	16.8848	15.5339	14.183	16.1864	14.6162	10.8803	15.2307	13.268	7.6018	11.8061	9.8028	-0.3898	12.6643	12.575	0.7661	3.1214	4.9975	6.8871	0.5035	11.6843	0.2003
15.7857	15.0466	16.6791	15.3526	14.0369	15.9969	14.4159	10.7476	15.0304	13.0568	7.4962	11.6572	9.5754	-0.425	12.5614	12.4586	0.8501	2.9184	4.9975	6.7112	0.5929	11.7249	0.1516
15.5773	14.8192	16.4598	15.117	13.8501	15.7776	14.1695	10.5987	14.8057	12.7997	7.4123	11.4948	9.3453	-0.4792	12.4261	12.3178	0.9394	2.7316	4.9731	6.5352	0.6687	11.7439	0.1029
15.3201	14.5404	16.1945	14.8653	13.5929	15.5231	13.9042	10.393	14.5323	12.5181	7.2607	11.2647	9.08	-0.5008	12.2772	12.1499	0.999	2.5394	4.9082	6.3511	0.6768	11.7195	0.0514
14.979	14.2182	15.8669	14.5729	13.2951	15.2037	13.5929	10.1412	14.202	12.1905	7.0793	11.0129	8.774	-0.5577	12.0633	11.9604	1.0829	2.3417	4.8269	6.1345	0.7066	11.6843	0.0108
14.5972	13.8419	15.4663	14.1749	12.9242	14.8165	13.2328	9.8299	13.8338	11.8305	6.8763	10.707	8.4438	-0.5739	11.8088	11.7249	1.1343	2.1441	4.6889	5.8882	0.6822	11.6491	-0.0325
14.2182	13.4467	15.0656	13.7932	12.5668	14.4294	12.8619	9.5321	13.4277	11.484	6.657	10.4011	8.1189	-0.5793	11.5246	11.4623	1.1506	1.9275	4.5643	5.696	0.6741	11.5652	-0.0975
13.7824	13.0217	14.646	13.3871	12.1716	14.0233	12.4477	9.2099	13.0162	11.0779	6.4188	10.0546	7.7697	-0.582	11.2159	11.1808	1.1587	1.7489	4.4073	5.455	0.6335	11.4785	-0.1381
13.314	12.5316	14.1072	12.8998	11.7466	13.5631	11.9929	8.8228	12.5398	10.6393	6.1454	9.6891	7.4015	-0.5902	10.8505	10.864	1.1776	1.5187	4.2097	5.1951	0.536	11.3757	-0.1678
12.8403	12.0823	13.6145	12.4531	11.2809	13.1002	11.5489	8.4329	12.0823	10.2143	5.8719	9.3101	7.0117	-0.5929	10.4823	10.5229	1.1641	1.3347	4.0256	4.9352	0.4656	11.243	-0.1922
12.2907	11.5516	13.0623	11.9442	10.8072	12.5939	11.0698	8.0269	11.5706	9.7324	5.5606	8.8905	6.6462	-0.5658	10.087	10.1466	1.1235	1.1343	3.8145	4.678	0.3953	11.0887	-0.1841
11.7547	11.0508	12.5127	11.4298	10.328	12.0741	10.5825	7.6208	11.0535	9.2911	5.2736	8.4871	6.2807	-0.5225	9.6701	9.7865	1.045	0.9827	3.6195	4.4371	0.287	10.9371	-0.1733
11.1943	10.5256	11.9388	10.9073	9.8299	11.5489	10.087	7.1957	10.531	8.7957	4.9352	8.081	5.8828	-0.4873	9.2316	9.3426	0.9746	0.8122	3.4057	4.1501	0.1868	10.7855	-0.1462
10.6339	10.0058	11.3567	10.3551	9.3344	11.0129	9.5591	6.7707	9.9842	8.3247	4.6293	7.6533	5.5037	-0.4413	8.7957	8.9148	0.8636	0.6579	3.1918	3.9065	0.0785	10.6258	-0.0948
10.0843	9.4481	10.7963	9.8407	8.8526	10.4958	9.061	6.3538	9.4888	7.878	4.3342	7.2797	5.1599	-0.3682	8.3409	8.4817	0.7093	0.5712	2.9833	3.7062	-0.0108	10.4796	-0.0325
9.4996	8.9121	10.1818	9.2776	8.349	9.9517	8.5494	5.9477	8.9446	7.4042	4.0175	6.8709	4.7945	-0.2897	7.8807	8.016	0.5712	0.444	2.7695	3.4544	-0.1245	10.3415	0.0569
8.9392	8.3626	9.6025	8.7361	7.8238	9.4211	8.0512	5.501	8.4167	6.9548	3.7007	6.4648	4.4561	-0.2112	7.4123	7.5748	0.4142	0.379	2.5691	3.2162	-0.2193	10.2089	0.1354
8.3517	7.859	9.0042	8.2055	7.3257	8.8878	7.5314	5.0977	7.8915	6.4865	3.4246	6.0696	4.1204	-0.1408	6.9277	7.0902	0.268	0.2653	2.3526	2.9563	-0.3546	10.0708	0.2193
7.8049	7.3149	8.4438	7.6858	6.8222	8.3598	7.0441	4.7132	7.3961	6.056	3.1431	5.6905	3.8172	-0.0677	6.4404	6.6218	0.1272	0.203	2.1685	2.7505	-0.425	9.9273	0.3032
7.2282	6.7897	7.8563	7.1524	6.3538	7.8319	6.5217	4.2909	6.879	5.6093	2.8588	5.3088	3.5167	0	5.9613	6.1291	-0.0108	0.1651	1.9871	2.5529	-0.5171	9.7757	0.3844
6.6327	6.2726	7.2607	6.6164	5.8638	7.2716	6.01	3.8957	6.3619	5.1681	2.5827	4.9298	3.2162	0.0325	5.4442	5.6689	-0.0948	0.0731	1.7705	2.3255	-0.6254	9.6214	0.4602
6.1156	5.7555	6.7085	6.1237	5.3873	6.7572	5.5335	3.5329	5.88	4.7539	2.3201	4.5616	2.94	0.092	4.9758	5.2114	-0.1949	0.0406	1.6297	2.1468	-0.7093	9.4454	0.5333
5.585	5.2736	6.1318	5.631	4.9461	6.2699	5.0706	3.1864	5.4009	4.3315	2.0764	4.2016	2.6666	0.1327	4.5319	4.7566	-0.2734	-0.0162	1.4619	1.9329	-0.7553	9.2613	0.6118
5.0219	4.7836	5.5768	5.1383	4.5264	5.7609	4.5995	2.8344	4.919	3.9065	1.8571	3.8388	2.4067	0.1489	4.0771	4.3072	-0.314	-0.0514	1.3347	1.7624	-0.7959	9.0773	0.6633
4.5264	4.3288	5.0598	4.6808	4.096	5.2818	4.1474	2.5339	4.4615	3.514	1.6324	3.5167	2.1522	0.1651	3.652	3.9011	-0.3492	-0.0975	1.2074	1.6027	-0.8474	8.9148	0.7174
4.0229	3.8578	4.521	4.2178	3.6953	4.7836	3.6872	2.2118	3.9985	3.1133	1.405	3.1728	1.8815	0.176	3.2297	3.4679	-0.3655	-0.1245	1.0531	1.4267	-0.8825	8.7361	0.7824
3.5356	3.4246	4.0094	3.809	3.3326	4.2963	3.2703	1.9329	3.587	2.7668	1.2047	2.8615	1.6595	0.1733	2.8507	3.0267	-0.3682	-0.1489	0.9313	1.2805	-0.8934	8.5737	0.8338
3.0781	2.9752	3.4923	3.4002	2.9725	3.8442	2.848	1.6676	3.162	2.4013	1.0098	2.5475	1.4213	0.1895	2.4744	2.6558	-0.3736	-0.1706	0.8067	1.1289	-0.915	8.4032	0.8771
2.6125	2.5583	3.0023	2.9915	2.6341	3.3813	2.4392	1.4105	2.7505	2.0277	0.8365	2.2686	1.1939	0.1814	2.0737	2.2713	-0.3628	-0.2003	0.6633	0.98	-0.915	8.2461	0.9286
2.1983	2.2118	2.5448	2.6368	2.3174	2.9671	2.0548	1.1749	2.3607	1.692	0.6876	1.9925	0.9719	0.1651	1.7651	1.8978	-0.3492	-0.2464	0.5766	0.8365	-0.9475	8.0891	0.9665
1.7976	1.8247	2.1008	2.3011	1.9925	2.5583	1.6866	0.9719	1.9844	1.3563	0.5306	1.7353	0.7905	0.1543	1.3996	1.5458	-0.3357	-0.2653	0.4656	0.6714	-0.9394	7.9538	1.0179
1.3671	1.4808	1.6595	1.9248	1.692	2.1224	1.3509	0.7445	1.6243	1.0612	0.398	1.4646	0.5739	0.1435	1.0964	1.2155	-0.3086	-0.3195	0.3601	0.5144	-0.8934	7.8157	1.0748
1.0098	1.1587	1.2426	1.6406	1.4267	1.757	1.026	0.5848	1.2643	0.7499	0.2815	1.2237	0.4115	0.1408	0.8284	0.8934	-0.287	-0.3465	0.2843	0.3844	-0.8528	7.6912	1.1289
0.6524	0.8419	0.8853	1.3536	1.1641	1.3888	0.7309	0.4332	0.9475	0.4981	0.1787	1.0044	0.2247	0.1354	0.5604	0.5848	-0.2815	-0.3682	0.2409	0.2599	-0.7959	7.591	1.1641
0.3195	0.5496	0.5252	1.0693	0.9394	1.0233	0.425	0.2978	0.6443	0.2382	0.1029	0.7986	0.0758	0.1191	0.3249	0.287	-0.2572	-0.3763	0.1841	0.1191	-0.7364	7.4962	1.1885
0.0352	0.3059	0.203	0.8474	0.7337	0.7255	0.1841	0.2166	0.4007	0.065	0.0731	0.6416	-0.0271	0.1516	0.1435	0.0379	-0.2843	-0.3655	0.1435	0.0541	-0.6579	7.4367	1.2182
-0.2518	0.0352	-0.1191	0.601	0.536	0.3925	-0.0677	0.0948	0.1299	-0.157	0.0244	0.4738	-0.1516	0.1543	-0.0108	-0.2057	-0.2951	-0.379	0.1164	-0.0514	-0.5875	7.4069	1.267
-0.509	-0.2112	-0.4115	0.3763	0.3384	0.1137	-0.2978	0.0027	-0.0975	-0.3492	-0.0162	0.3222	-0.2491	0.1543	-0.1868	-0.4359	-0.314	-0.3655	0.092	-0.1516	-0.5008	7.3798	1.2805
-0.7445	-0.4034	-0.6579	0.176	0.1678	-0.1354	-0.5035	-0.0758	-0.3032	-0.5171	-0.0379	0.1868	-0.3628	0.1706	-0.3303	-0.6443	-0.3384	-0.3574	0.0704	-0.1976	-0.4277	7.388	1.2643
-0.9611	-0.6227	-0.8988	0.0108	-0.0027	-0.3736	-0.6903	-0.1624	-0.509	-0.6714	-0.0677	0.0704	-0.4223	0.1841	-0.4386	-0.7824	-0.3628	-0.3411	0.065	-0.2626	-0.3519	7.3853	1.2589
-1.1316	-0.8013	-1.0937	-0.1787	-0.1272	-0.5712	-0.8582	-0.1949	-0.6497	-0.8149	-0.0731	-0.0487	-0.5035	0.1895	-0.5252	-0.9177	-0.3925	-0.3357	0.0839	-0.3032	-0.2626	7.3907	1.267
-1.2859	-0.9556	-1.2778	-0.3167	-0.2761	-0.7743	-1.026	-0.2599	-0.8311	-0.9394	-0.0975	-0.111	-0.5685	0.2003	-0.5956	-1.0396	-0.4115	-0.3059	0.0839	-0.3303	-0.2003	7.3988	1.2697
-1.4159	-1.1072	-1.3915	-0.4277	-0.3709	-0.9259	-1.1181	-0.2951	-0.9394	-1.0179	-0.0975	-0.2003	-0.6091	0.222	-0.6903	-1.1181	-0.4304	-0.2653	0.0812	-0.3303	-0.1597	7.4204	1.2589
-1.489	-1.1587	-1.4619	-0.4954	-0.4711	-0.9908	-1.1858	-0.2978	-1.0098	-1.091	-0.0541	-0.2572	-0.6145	0.2464	-0.7282	-1.1641	-0.4683	-0.222	0.1029	-0.3303	-0.0839	7.4259	1.2534
-1.5431	-1.2155	-1.5214	-0.555	-0.509	-1.0883	-1.2372	-0.3167	-1.0964	-1.137	-0.0352	-0.2951	-0.6389	0.2464	-0.7282	-1.1695	-0.5062	-0.1706	0.1435	-0.314	-0.0379	7.4665	1.2399
-1.5539	-1.2643	-1.5296	-0.5577	-0.5523	-1.1343	-1.2453	-0.3167	-1.1208	-1.1343	0.0054	-0.2951	-0.6227	0.2599	-0.7282	-1.1614	-0.536	-0.0948	0.1489	-0.2599	0.0162	7.5125	1.2047
-1.5269	-1.2561	-1.4944	-0.5658	-0.5523	-1.1343	-1.2291	-0.2815	-1.1154	-1.1072	0.0541	-0.3032	-0.5848	0.2897	-0.6876	-1.11	-0.5875	-0.0081	0.1814	-0.1922	0.0839	7.5856	1.1912
-1.5052	-1.2399	-1.4565	-0.5252	-0.5279	-1.1235	-1.1614	-0.2409	-1.1045	-1.0775	0.1137	-0.2924	-0.5496	0.3195	-0.6741	-1.0693	-0.6362	0.0704	0.2274	-0.1218	0.1435	7.6803	1.1695
-1.424	-1.1966	-1.3563	-0.4304	-0.4981	-1.0531	-1.0937	-0.1895	-1.0612	-0.999	0.1733	-0.2491	-0.4602	0.3574	-0.6416	-1.0017	-0.7039	0.176	0.2382	-0.0352	0.1922	7.7778	1.1235
-1.3455	-1.1235	-1.2859	-0.3736	-0.4521	-0.999	-1.0098	-0.1462	-1.0179	-0.915	0.2464	-0.203	-0.4142	0.379	-0.6227	-0.9232	-0.758	0.2815	0.2572	0.0866	0.2626	7.8807	1.0829
-1.2643	-1.0423	-1.1397	-0.2518	-0.379	-0.9015	-0.8934	-0.0948	-0.9232	-0.823	0.3276	-0.1651	-0.333	0.4088	-0.5793	-0.8311	-0.8284	0.3709	0.2978	0.1462	0.3222	8.0187	1.0612
-1.1316	-0.9665	-1.0152	-0.1408	-0.3357	-0.7797	-0.7688	-0.0433	-0.8582	-0.7364	0.3682	-0.1029	-0.2545	0.4494	-0.555	-0.7445	-0.8907	0.4602	0.2843	0.2626	0.3519	8.146	1.0396
-1.045	-0.8825	-0.8907	-0.0487	-0.2626	-0.6768	-0.6606	0	-0.7688	-0.666	0.4034	-0.0623	-0.1949	0.4575	-0.5469	-0.6768	-0.9259	0.5225	0.2815	0.3249	0.3736	8.2732	0.9773
-0.9286	-0.7986	-0.7391	0.0731	-0.1895	-0.5387	-0.5387	0.0352	-0.6714	-0.5739	0.4602	-0.0162	-0.1191	0.4873	-0.5766	-0.6254	-0.9665	0.5766	0.2599	0.3736	0.3844	8.3788	0.9448
-0.8392	-0.6849	-0.5983	0.1922	-0.1218	-0.425	-0.4467	0.0677	-0.5793	-0.4981	0.4792	0.0108	-0.065	0.4873	-0.6091	-0.5604	-0.9881	0.6199	0.287	0.4088	0.4169	8.4844	0.8988
-0.7039	-0.5739	-0.4738	0.3032	-0.046	-0.3005	-0.3276	0.1137	-0.49	-0.425	0.5198	0.0541	-0.0379	0.4927	-0.6579	-0.5414	-0.9881	0.6524	0.2815	0.4332	0.4521	8.5954	0.8446
-0.6281	-0.49	-0.314	0.398	0.0244	-0.1787	-0.2301	0.1597	-0.4034	-0.3519	0.5441	0.092	0.0271	0.4954	-0.6985	-0.4819	-0.9827	0.6795	0.2978	0.4602	0.4792	8.6928	0.7986
-0.509	-0.3736	-0.176	0.5441	0.1029	-0.0433	-0.1245	0.1895	-0.3113	-0.2788	0.5604	0.1164	0.0623	0.4629	-0.7337	-0.4792	-0.9313	0.6714	0.3113	0.4629	0.4846	8.7686	0.7309
-0.4088	-0.287	-0.0352	0.6389	0.1706	0.0704	-0.0325	0.2409	-0.2355	-0.222	0.5658	0.1489	0.092	0.4413	-0.758	-0.4602	-0.888	0.6985	0.333	0.4656	0.5225	8.8526	0.666
-0.333	-0.2166	0.0677	0.7337	0.2193	0.176	0.046	0.2843	-0.1462	-0.176	0.5712	0.1381	0.1137	0.4034	-0.7797	-0.4521	-0.7986	0.6903	0.3492	0.4413	0.5523	8.9392	0.582
-0.2626	-0.1435	0.1651	0.804	0.2788	0.2815	0.1137	0.2843	-0.0975	-0.1408	0.5631	0.1435	0.1056	0.3519	-0.7634	-0.4359	-0.7093	0.666	0.3736	0.4169	0.5712	8.9933	0.4927
-0.1787	-0.1164	0.2518	0.8798	0.2897	0.3628	0.176	0.2951	-0.046	-0.1272	0.5306	0.1164	0.1029	0.2897	-0.7066	-0.4467	-0.5902	0.6524	0.3871	0.4061	0.5956	9.0556	0.4034
-0.1651	-0.0758	0.3059	0.9448	0.3032	0.4034	0.2166	0.2761	-0.0244	-0.1137	0.4981	0.0839	0.0839	0.222	-0.6335	-0.4629	-0.4602	0.6172	0.4034	0.3736	0.5875	9.0989	0.3222
-0.1002	-0.0812	0.3546	0.9746	0.3195	0.4359	0.268	0.2382	-0.0108	-0.1191	0.4683	0.0487	0.0623	0.1706	-0.5333	-0.425	-0.3303	0.5848	0.4359	0.3249	0.601	9.1341	0.2626
-0.1029	-0.1083	0.3438	1.0206	0.3032	0.4548	0.2843	0.203	-0.046	-0.1327	0.398	-0.0162	0.0081	0.0866	-0.4413	-0.4494	-0.1895	0.5496	0.444	0.2843	0.5929	9.1476	0.1814
-0.1002	-0.1597	0.3411	1.0071	0.2572	0.4169	0.2572	0.1435	-0.0704	-0.1787	0.3249	-0.1029	-0.0677	0.0162	-0.3438	-0.4467	-0.0352	0.5225	0.4494	0.2409	0.5685	9.1558	0.1245
-0.1245	-0.2274	0.2978	1.0071	0.176	0.398	0.2328	0.0758	-0.1245	-0.2247	0.2409	-0.203	-0.1272	-0.0704	-0.2843	-0.4846	0.1137	0.4575	0.4656	0.1706	0.5496	9.1585	0.0731
-0.176	-0.3113	0.2193	0.9529	0.0975	0.3249	0.1922	-0.019	-0.1976	-0.2897	0.1408	-0.314	-0.2139	-0.1435	-0.1624	-0.4954	0.2626	0.398	0.4656	0.1083	0.5198	9.1395	0.0406
-0.2139	-0.4007	0.1435	0.9394	0.0541	0.2599	0.1516	-0.1137	-0.2978	-0.3736	0.0487	-0.4277	-0.3032	-0.1922	-0.0893	-0.5035	0.3844	0.3519	0.4954	0.0596	0.4819	9.126	-0.0135
-0.3113	-0.5252	0.019	0.8311	-0.0569	0.1218	0.0596	-0.2355	-0.4142	-0.4602	-0.0785	-0.536	-0.4034	-0.2572	-0.0217	-0.5496	0.4927	0.2924	0.509	-0.0108	0.4223	9.126	-0.0352
-0.3519	-0.6497	-0.092	0.7716	-0.1706	0.019	-0.0487	-0.3492	-0.5279	-0.5577	-0.1976	-0.6633	-0.4792	-0.3032	0.0054	-0.5766	0.5929	0.2653	0.5225	-0.0541	0.3601	9.1152	-0.0487
-0.4467	-0.7986	-0.2085	0.693	-0.268	-0.1029	-0.1164	-0.4738	-0.6606	-0.6606	-0.3059	-0.8013	-0.5848	-0.3357	0.0677	-0.5766	0.647	0.2112	0.5144	-0.1002	0.2707	9.1097	-0.0569
-0.5441	-0.9123	-0.3222	0.5983	-0.4034	-0.2518	-0.2085	-0.6091	-0.8013	-0.7716	-0.4169	-0.9286	-0.6822	-0.3465	0.0514	-0.5712	0.693	0.1651	0.5035	-0.1516	0.176	9.1016	-0.0677
-0.6281	-1.0314	-0.4656	0.4954	-0.509	-0.379	-0.333	-0.7147	-0.9259	-0.888	-0.5496	-1.0342	-0.7607	-0.3736	0.0325	-0.5902	0.7228	0.1299	0.49	-0.2057	0.0704	9.1125	-0.0433
-0.712	-1.1316	-0.5793	0.4196	-0.6091	-0.5117	-0.4656	-0.8122	-1.0612	-0.9665	-0.6633	-1.1587	-0.8555	-0.3628	0.0271	-0.601	0.7093	0.1218	0.4359	-0.2355	-0.0433	9.1314	-0.0135
-0.7797	-1.2264	-0.7282	0.3113	-0.712	-0.6416	-0.5387	-0.9367	-1.1939	-1.0721	-0.8013	-1.294	-0.9529	-0.3384	0.019	-0.5875	0.6849	0.0893	0.4088	-0.2464	-0.1678	9.1666	0.0244
-0.8528	-1.3265	-0.8149	0.2301	-0.7905	-0.7607	-0.6145	-1.0233	-1.3374	-1.1722	-0.8961	-1.3753	-1.0233	-0.3303	-0.0135	-0.6091	0.6443	0.0785	0.3736	-0.2815	-0.268	9.2099	0.0839
-0.9123	-1.3915	-0.915	0.1245	-0.8717	-0.8934	-0.6958	-1.1127	-1.4484	-1.2778	-1.0017	-1.4808	-1.0937	-0.2843	0.0271	-0.5793	0.5766	0.0596	0.3384	-0.2951	-0.3763	9.2316	0.1462
-0.9665	-1.4619	-1.0233	0.046	-0.9692	-1.0071	-0.8122	-1.2101	-1.5512	-1.3753	-1.0964	-1.5756	-1.1506	-0.2464	0.0054	-0.5793	0.5062	0.0541	0.2924	-0.3086	-0.4846	9.2641	0.1922
-0.9935	-1.5025	-1.0775	0.0108	-1.0071	-1.1072	-0.8907	-1.2968	-1.6541	-1.4538	-1.1803	-1.6731	-1.2155	-0.2193	0.0271	-0.5225	0.4359	0.0406	0.2626	-0.3222	-0.5929	9.3047	0.2436
-1.0017	-1.516	-1.1262	-0.0569	-1.0748	-1.183	-0.9394	-1.3509	-1.7299	-1.5025	-1.2507	-1.7434	-1.2616	-0.1706	0.0623	-0.4981	0.3492	0.0596	0.2112	-0.3438	-0.6633	9.3209	0.2545
-0.999	-1.5187	-1.1289	-0.0677	-1.1072	-1.2182	-0.98	-1.3861	-1.7813	-1.5269	-1.3157	-1.7786	-1.267	-0.1272	0.1191	-0.4359	0.2274	0.0975	0.203	-0.3276	-0.7039	9.3696	0.2897
-0.9556	-1.4835	-1.1208	-0.0623	-1.1127	-1.2697	-1.0017	-1.4132	-1.8274	-1.5404	-1.3319	-1.803	-1.2832	-0.0731	0.1868	-0.3492	0.1245	0.1245	0.1624	-0.3005	-0.7526	9.3967	0.314
-0.888	-1.424	-1.0937	-0.0352	-1.091	-1.2778	-1.0071	-1.4213	-1.8111	-1.5485	-1.3374	-1.8138	-1.2643	-0.0081	0.268	-0.2599	0.0135	0.1787	0.1706	-0.2924	-0.758	9.4238	0.3357
-0.8311	-1.3374	-1.0477	-0.0054	-1.0477	-1.2507	-0.9719	-1.4023	-1.8084	-1.5431	-1.3374	-1.7949	-1.248	0.0541	0.379	-0.1597	-0.0975	0.2436	0.176	-0.268	-0.7526	9.4725	0.3167
-0.7255	-1.2182	-0.9448	0.0514	-1.0017	-1.1858	-0.934	-1.3726	-1.7651	-1.4971	-1.2616	-1.7434	-1.1776	0.1056	0.4981	-0.0866	-0.2139	0.3222	0.1949	-0.2626	-0.7093	9.5348	0.3167
-0.6308	-1.1018	-0.8609	0.1002	-0.9556	-1.1397	-0.8934	-1.3292	-1.7028	-1.4402	-1.2237	-1.7028	-1.1451	0.1543	0.5766	0.0081	-0.3005	0.3682	0.2112	-0.2464	-0.6335	9.6106	0.3113
-0.4981	-0.9421	-0.7201	0.1976	-0.8636	-1.0423	-0.8176	-1.2426	-1.6324	-1.3888	-1.1262	-1.5973	-1.0558	0.1868	0.7066	0.1137	-0.3925	0.425	0.2734	-0.2112	-0.5496	9.7107	0.2734
-0.379	-0.8013	-0.5848	0.2761	-0.7797	-0.934	-0.7553	-1.1614	-1.5323	-1.3428	-1.045	-1.5242	-0.9827	0.2301	0.8122	0.1814	-0.4467	0.49	0.3222	-0.1841	-0.4738	9.8244	0.2057
-0.2518	-0.6064	-0.425	0.4007	-0.6389	-0.8067	-0.6687	-1.0558	-1.4321	-1.2643	-0.9448	-1.3969	-0.9069	0.2436	0.9096	0.2897	-0.4954	0.5414	0.4169	-0.1597	-0.3492	9.9354	0.1489
-0.1218	-0.4548	-0.2761	0.5008	-0.5469	-0.6903	-0.5685	-0.9963	-1.3238	-1.183	-0.8311	-1.3022	-0.8122	0.2572	0.9935	0.3492	-0.4981	0.5577	0.4738	-0.1489	-0.2518	10.0627	0.0839
0.0162	-0.2382	-0.1164	0.5875	-0.4115	-0.5631	-0.4792	-0.8609	-1.1885	-1.0964	-0.6958	-1.1641	-0.7147	0.2436	1.0612	0.4304	-0.4792	0.6227	0.5306	-0.1327	-0.1137	10.1899	0.0162
0.1706	-0.0541	0.0623	0.6985	-0.2788	-0.4088	-0.3763	-0.7255	-1.0342	-0.999	-0.5252	-1.0179	-0.5875	0.2301	1.156	0.5252	-0.4548	0.6633	0.6199	-0.0893	0.0352	10.2955	-0.0704
0.3032	0.0948	0.2301	0.7932	-0.1435	-0.2301	-0.2788	-0.6254	-0.9042	-0.934	-0.4277	-0.8825	-0.4954	0.2057	1.2237	0.5956	-0.4088	0.7147	0.6714	-0.0433	0.1787	10.4173	-0.176
0.4494	0.2626	0.3871	0.869	-0.0487	-0.092	-0.157	-0.5279	-0.7743	-0.8338	-0.2978	-0.7472	-0.3871	0.1706	1.2697	0.6606	-0.3411	0.7337	0.7093	-0.0244	0.3195	10.4877	-0.2924
0.6037	0.4548	0.5929	0.9827	0.0677	0.0623	-0.0975	-0.3925	-0.6064	-0.7364	-0.1462	-0.582	-0.287	0.1245	1.3671	0.7039	-0.2518	0.7661	0.7743	-0.0108	0.4738	10.5337	-0.4034
0.7093	0.6118	0.7499	1.0829	0.1841	0.2112	0.0162	-0.287	-0.4494	-0.6118	0.0135	-0.4602	-0.1733	0.0866	1.4456	0.7932	-0.176	0.8284	0.8203	-0.0027	0.6227	10.5852	-0.5117
0.8365	0.7634	0.915	1.1424	0.2734	0.3655	0.111	-0.1868	-0.3222	-0.5306	0.1327	-0.3167	-0.0785	0.0487	1.5458	0.8419	-0.0839	0.8528	0.8582	0	0.7445	10.596	-0.6037
0.9908	0.888	1.0666	1.1993	0.3438	0.5252	0.1733	-0.0514	-0.1868	-0.4467	0.2788	-0.1543	0.0054	-0.0135	1.6703	0.8934	0.0325	0.8744	0.888	0.0298	0.8934	10.6122	-0.7201
1.0693	1.0152	1.1695	1.2561	0.4386	0.6497	0.2409	0.0325	-0.0785	-0.3871	0.3709	-0.046	0.0948	-0.0866	1.7245	0.9177	0.1678	0.8961	0.9232	0.046	1.0125	10.6149	-0.8149
1.1641	1.0991	1.3022	1.2886	0.5252	0.758	0.3086	0.1272	0.0569	-0.3086	0.5252	0.1083	0.1949	-0.1516	1.8192	0.9286	0.3005	0.9529	0.9638	0.0271	1.1397	10.6122	-0.9123
1.2561	1.1722	1.3969	1.3455	0.5766	0.8609	0.3655	0.1922	0.1651	-0.2139	0.6416	0.2409	0.2978	-0.2355	1.8544	0.9475	0.4575	0.98	0.9773	0.0433	1.2507	10.6204	-1.0233
1.3265	1.248	1.4863	1.3698	0.6524	0.9529	0.4223	0.287	0.2978	-0.1651	0.7553	0.3628	0.4169	-0.3005	1.8761	0.9529	0.6091	1.0017	1.0504	0.0596	1.3617	10.642	-1.1181
1.3265	1.2589	1.5539	1.3644	0.6795	1.0314	0.4548	0.3655	0.3898	-0.1029	0.8717	0.4873	0.4927	-0.3925	1.8707	0.9042	0.7688	1.026	1.045	0.0704	1.4511	10.6366	-1.2128
1.3455	1.267	1.5891	1.3482	0.7066	1.0883	0.4602	0.4277	0.4683	-0.046	0.9746	0.5929	0.5469	-0.4819	1.868	0.8663	0.934	1.0612	1.0585	0.0866	1.5431	10.661	-1.267
1.359	1.267	1.6135	1.3347	0.7364	1.1614	0.4765	0.5062	0.5631	0.0162	1.0883	0.7228	0.6524	-0.536	1.8598	0.8013	1.0558	1.1424	1.1181	0.1299	1.6514	10.7043	-1.3211
1.3482	1.2534	1.6216	1.3184	0.7364	1.2155	0.4927	0.5577	0.6254	0.0623	1.1993	0.8203	0.7228	-0.6091	1.8436	0.7688	1.1966	1.1939	1.1587	0.157	1.738	10.7287	-1.3698
1.3211	1.2074	1.6135	1.2724	0.7309	1.2209	0.4711	0.6118	0.7066	0.1408	1.3374	0.9394	0.8419	-0.6443	1.8138	0.6903	1.3022	1.2426	1.2047	0.2139	1.8247	10.7801	-1.4213
1.2913	1.1641	1.6379	1.2426	0.7472	1.2832	0.4765	0.6876	0.7661	0.2003	1.4402	1.0504	0.9367	-0.6985	1.7813	0.6579	1.378	1.313	1.2751	0.2518	1.914	10.8396	-1.4213
1.267	1.1316	1.6054	1.202	0.7499	1.294	0.4792	0.7634	0.8203	0.2436	1.5702	1.1587	1.0396	-0.7255	1.7489	0.5983	1.4375	1.3996	1.3509	0.3086	1.9952	10.8938	-1.4159
1.2128	1.0748	1.5729	1.1451	0.7553	1.294	0.4792	0.8067	0.8717	0.2897	1.6758	1.2616	1.1451	-0.7391	1.7028	0.5414	1.4619	1.4808	1.4132	0.3655	2.0656	10.9398	-1.3969
1.1479	1.026	1.5106	1.1235	0.7472	1.2913	0.4656	0.8501	0.9232	0.3411	1.757	1.359	1.2399	-0.7418	1.6595	0.4954	1.4781	1.5621	1.4944	0.4007	2.1197	10.9967	-1.3753
1.1018	0.9502	1.4754	1.0585	0.7228	1.2913	0.4575	0.8771	0.9611	0.3817	1.8598	1.4511	1.3184	-0.7337	1.6	0.4304	1.4456	1.6216	1.5729	0.4738	2.1387	11.0264	-1.3374
1.0152	0.8744	1.4105	1.0152	0.7093	1.2751	0.444	0.888	0.9881	0.4277	1.9411	1.5269	1.4159	-0.7039	1.5242	0.3709	1.3915	1.711	1.6054	0.5387	2.136	11.0671	-1.2589
0.9556	0.7824	1.3374	0.9556	0.6579	1.2589	0.4115	0.9313	0.9963	0.4467	1.9979	1.581	1.4863	-0.6633	1.4484	0.3438	1.2968	1.7949	1.6216	0.6064	2.1143	11.0995	-1.1858
0.8771	0.712	1.2751	0.9042	0.6199	1.2291	0.4034	0.9448	1.0179	0.4981	2.0466	1.6406	1.5593	-0.6037	1.3617	0.2788	1.1885	1.8788	1.6433	0.6795	2.0954	11.132	-1.0937
0.8338	0.6497	1.2345	0.8636	0.5956	1.2128	0.4115	0.9502	1.0504	0.5387	2.117	1.7055	1.6379	-0.5279	1.2995	0.2436	1.0314	2.0033	1.6649	0.7634	2.0791	11.1429	-0.9854
0.7634	0.5739	1.156	0.8501	0.5875	1.1885	0.4034	0.9529	1.0639	0.5902	2.1549	1.757	1.7137	-0.4332	1.2291	0.2328	0.8636	2.1224	1.6297	0.8582	2.0575	11.1645	-0.8609
0.693	0.5252	1.1208	0.8149	0.5604	1.1803	0.4088	0.9556	1.0829	0.6091	2.2064	1.8111	1.7922	-0.3519	1.1695	0.2382	0.6795	2.2118	1.6297	0.9367	2.0466	11.1916	-0.7391
0.6579	0.4927	1.0558	0.8067	0.5198	1.156	0.4277	0.999	1.1208	0.6606	2.293	1.8788	1.8734	-0.2409	1.1343	0.203	0.4738	2.3363	1.5891	1.0477	2.0439	11.2187	-0.6064
0.6199	0.4277	1.0233	0.7959	0.5035	1.1397	0.4575	1.0044	1.1343	0.7201	2.3417	1.9113	1.9221	-0.1489	1.091	0.1841	0.2843	2.4365	1.5593	1.1289	2.0412	11.2268	-0.4575
0.5685	0.3682	0.9692	0.7878	0.4602	1.1316	0.4738	1.0206	1.1289	0.7282	2.3878	1.9708	1.9952	-0.0406	1.0639	0.1787	0.0812	2.5637	1.5296	1.2264	2.0575	11.2322	-0.3113
0.5279	0.2978	0.9177	0.7607	0.4223	1.1208	0.5117	1.0206	1.1533	0.7716	2.45	2.0033	2.0656	0.0352	1.026	0.1597	-0.092	2.6152	1.5106	1.3184	2.1116	11.2457	-0.1895
0.4629	0.2247	0.869	0.7661	0.398	1.0775	0.5062	1.0206	1.137	0.777	2.4717	2.0223	2.0873	0.111	0.9448	0.1299	-0.222	2.7045	1.4619	1.3753	2.1306	11.2403	-0.0406
0.4196	0.1814	0.8122	0.7553	0.3411	1.0693	0.5008	1.0206	1.1289	0.7878	2.496	2.0466	2.1306	0.1787	0.9177	0.1137	-0.3601	2.7749	1.4511	1.4321	2.1766	11.2187	0.0812
0.3492	0.1354	0.777	0.7526	0.3167	1.045	0.5171	1.0369	1.1397	0.8067	2.5258	2.0521	2.1576	0.2328	0.869	0.0893	-0.4548	2.8155	1.4077	1.5025	2.1874	11.1943	0.1922
0.3195	0.0812	0.7337	0.712	0.3059	1.026	0.5306	1.0477	1.1208	0.8149	2.5421	2.0521	2.1766	0.2707	0.8555	0.0569	-0.536	2.8399	1.3644	1.5296	2.2362	11.1591	0.2897
0.2978	0.0244	0.7201	0.7337	0.2545	1.0017	0.5279	1.0342	1.1127	0.8203	2.5556	2.0683	2.1685	0.2978	0.8419	0.0541	-0.6118	2.8696	1.3265	1.5593	2.2416	11.1131	0.3898
0.2355	-0.0379	0.6876	0.693	0.2382	0.9665	0.5144	1.0017	1.0829	0.7932	2.561	2.0602	2.1712	0.3195	0.7959	0.0298	-0.6416	2.8642	1.2589	1.5593	2.2605	11.0454	0.4629
0.2112	-0.0325	0.6606	0.693	0.222	0.9394	0.5198	0.9935	1.0693	0.777	2.5394	2.0412	2.136	0.3492	0.758	0.0135	-0.6849	2.8344	1.2047	1.5431	2.2605	10.9885	0.5333
0.2085	-0.0893	0.6362	0.6822	0.2057	0.9394	0.509	1.0071	1.0585	0.7553	2.561	2.0331	2.1333	0.3574	0.7093	-0.0081	-0.7066	2.7938	1.1397	1.5377	2.2605	10.9452	0.5739
0.1462	-0.1191	0.582	0.6254	0.1868	0.8988	0.4873	1.0017	1.0342	0.7255	2.5231	1.9979	2.1062	0.3411	0.6741	-0.0244	-0.6958	2.7397	1.0585	1.5079	2.2362	10.8992	0.647
0.1489	-0.1191	0.5766	0.6254	0.1895	0.8988	0.4846	1.0125	1.0423	0.7364	2.5529	2.0196	2.1008	0.3546	0.6524	-0.0244	-0.6876	2.7262	0.9963	1.5025	2.2226	10.8532	0.6876
0.111	-0.1489	0.5577	0.6199	0.1949	0.888	0.4711	1.0152	1.0396	0.7147	2.5339	2.0223	2.0845	0.3492	0.6308	-0.0541	-0.6822	2.6828	0.9448	1.4781	2.2362	10.8017	0.7039
0.0975	-0.1462	0.536	0.5902	0.1733	0.8825	0.4467	1.0125	1.0369	0.693	2.5339	2.0033	2.0656	0.3438	0.6227	-0.0677	-0.6524	2.6558	0.9232	1.4619	2.2118	10.7693	0.7174
0.0812	-0.1381	0.5252	0.5631	0.2003	0.8988	0.4115	1.0423	1.0504	0.6687	2.5367	2.0142	2.0494	0.3167	0.6172	-0.0839	-0.6091	2.6206	0.8636	1.4077	2.228	10.7314	0.7309
0.0596	-0.1327	0.5441	0.5577	0.2409	0.9123	0.4142	1.0612	1.0748	0.6903	2.5583	2.0494	2.0494	0.287	0.6172	-0.1029	-0.5685	2.5827	0.8446	1.4023	2.2659	10.6962	0.712
0.0352	-0.111	0.5306	0.5387	0.2924	0.9367	0.4142	1.1018	1.1127	0.6822	2.5773	2.0845	2.0575	0.2545	0.6172	-0.1245	-0.5198	2.5718	0.8609	1.378	2.3011	10.6529	0.7147
0.0541	-0.0893	0.536	0.5306	0.3167	0.9827	0.4007	1.1316	1.1479	0.693	2.5962	2.0981	2.0466	0.2382	0.5956	-0.1543	-0.4765	2.5285	0.8907	1.3536	2.3417	10.6231	0.6795
0.0379	-0.0596	0.5631	0.5414	0.3682	0.9854	0.4034	1.1641	1.1776	0.693	2.6395	2.1333	2.0575	0.2112	0.5766	-0.1976	-0.425	2.5204	0.9475	1.3103	2.404	10.5743	0.6524
0.0325	-0.0298	0.5523	0.5414	0.4088	1.0098	0.3817	1.2155	1.2128	0.6903	2.6666	2.1658	2.0575	0.1841	0.5441	-0.2382	-0.3682	2.4879	1.0071	1.2832	2.4581	10.5364	0.6362
0.0217	0.0135	0.555	0.5252	0.4819	1.0477	0.3844	1.2697	1.2589	0.6768	2.672	2.182	2.0521	0.1543	0.5035	-0.2815	-0.3086	2.4636	1.0639	1.2399	2.496	10.5067	0.5875
0	0.0514	0.5848	0.5496	0.555	1.0964	0.379	1.3347	1.3184	0.6958	2.7397	2.2551	2.0764	0.1327	0.4277	-0.3357	-0.2599	2.4284	1.1479	1.2182	2.5664	10.5012	0.5333
0.0108	0.1191	0.6037	0.536	0.6037	1.1262	0.3601	1.4077	1.3671	0.6903	2.7641	2.2659	2.0629	0.0948	0.3655	-0.3898	-0.1841	2.3986	1.1966	1.156	2.6287	10.4958	0.4683
-0.0054	0.1435	0.5983	0.5198	0.6903	1.1479	0.3384	1.4727	1.3996	0.6579	2.7884	2.2876	2.0656	0.0596	0.2491	-0.4386	-0.1137	2.3634	1.3103	1.1181	2.6612	10.5175	0.4115
-0.0081	0.2057	0.6064	0.5008	0.7391	1.1776	0.3438	1.5079	1.4159	0.6606	2.8209	2.3309	2.0494	0.0244	0.157	-0.509	-0.0352	2.3363	1.4023	1.0477	2.7099	10.55	0.3357
0.0108	0.2626	0.6416	0.509	0.8176	1.2237	0.3628	1.5729	1.4971	0.6741	2.8642	2.3526	2.0277	-0.019	0.0596	-0.5739	0.0325	2.3065	1.4727	0.9908	2.7586	10.596	0.2653
0.0135	0.3086	0.6579	0.49	0.8528	1.2372	0.3276	1.627	1.5079	0.6524	2.8886	2.3742	2.0115	-0.0758	-0.0541	-0.6497	0.1381	2.2443	1.5621	0.9042	2.7911	10.6691	0.2166
0.0081	0.3574	0.6768	0.4683	0.9123	1.2643	0.3005	1.6785	1.5566	0.6606	2.9021	2.4202	2.0033	-0.1002	-0.1164	-0.7364	0.2247	2.1955	1.6216	0.8392	2.8047	10.7395	0.1435
0.0027	0.4304	0.7255	0.4846	0.9611	1.3049	0.2978	1.7028	1.5675	0.647	2.9184	2.4446	1.9844	-0.1489	-0.2328	-0.7851	0.3195	2.1468	1.6731	0.758	2.8344	10.8342	0.0975
-0.0162	0.4792	0.712	0.4386	1.0125	1.2886	0.268	1.7272	1.5891	0.6227	2.9157	2.4608	1.9573	-0.2003	-0.3086	-0.869	0.4007	2.1116	1.7218	0.6822	2.829	10.9479	0.0433
0.0054	0.5333	0.7634	0.4711	1.0504	1.3536	0.2788	1.7489	1.6487	0.6308	2.9238	2.4825	1.96	-0.2409	-0.3709	-0.9096	0.4927	2.0629	1.7678	0.6416	2.8317	11.04	-0.0162
0.0406	0.6037	0.8013	0.4792	1.0991	1.3807	0.2843	1.7705	1.6676	0.6416	2.9292	2.5069	1.9384	-0.2897	-0.4196	-0.9421	0.5848	2.0277	1.8138	0.5929	2.8128	11.1401	-0.0785
0.0433	0.6281	0.8095	0.4683	1.1072	1.3996	0.2707	1.7624	1.7001	0.6335	2.9184	2.5204	1.9221	-0.3411	-0.4656	-0.98	0.6795	1.9898	1.8571	0.5523	2.7857	11.2403	-0.1245
0.0839	0.7255	0.8798	0.4954	1.1695	1.4375	0.2897	1.784	1.7543	0.6741	2.9454	2.5746	1.9465	-0.3709	-0.5225	-0.9773	0.7553	1.9817	1.9005	0.5279	2.7992	11.3324	-0.1327
0.0975	0.7716	0.9123	0.5414	1.1858	1.4565	0.3276	1.784	1.7813	0.6958	2.9184	2.5746	1.9357	-0.4304	-0.5306	-1.0179	0.8446	1.9465	1.96	0.5117	2.7884	11.4244	-0.176
0.1597	0.8609	0.98	0.5983	1.2264	1.5052	0.3655	1.784	1.8301	0.7391	2.9211	2.6233	1.9627	-0.4738	-0.5496	-0.9908	0.9232	1.9492	1.9925	0.5117	2.8128	11.4921	-0.2003
0.1814	0.9232	1.0017	0.6199	1.2453	1.5539	0.3844	1.7895	1.8815	0.7743	2.9021	2.6422	1.9438	-0.5062	-0.5252	-0.9692	1.0152	1.9194	2.0169	0.4602	2.7911	11.5787	-0.2112
0.2355	0.999	1.0748	0.6985	1.267	1.6081	0.4494	1.7949	1.9005	0.8013	2.9075	2.6991	1.9573	-0.5685	-0.5387	-0.9611	1.0991	1.9113	2.0385	0.4738	2.8155	11.6545	-0.2085
0.2951	1.0883	1.1262	0.7607	1.3184	1.6595	0.5008	1.803	1.9519	0.8528	2.9211	2.7316	1.9898	-0.5929	-0.5441	-0.9204	1.1641	1.9005	2.0629	0.49	2.7965	11.6951	-0.2193
0.379	1.1912	1.2345	0.8609	1.3617	1.7272	0.5983	1.8301	2.0087	0.915	2.9427	2.7722	2.0439	-0.6118	-0.5144	-0.8474	1.2128	1.9357	2.0683	0.5252	2.8128	11.7222	-0.2274
0.4846	1.2778	1.3103	0.9394	1.4077	1.8003	0.6849	1.8463	2.0927	0.9881	2.9698	2.8128	2.09	-0.6254	-0.5062	-0.7878	1.2345	1.9546	2.0981	0.5685	2.8128	11.7466	-0.2491
0.5739	1.3698	1.3888	1.0071	1.4619	1.8761	0.7661	1.8761	2.1874	1.0639	2.9644	2.8723	2.1306	-0.6308	-0.4792	-0.7337	1.2399	1.9708	2.1306	0.5956	2.8344	11.7493	-0.2436
0.7228	1.4863	1.5133	1.1262	1.5377	1.9681	0.8663	1.9248	2.2605	1.1614	3.0023	2.9481	2.1766	-0.6118	-0.4494	-0.6389	1.2182	2.0142	2.1685	0.6633	2.8588	11.7547	-0.2436
0.8149	1.5864	1.6054	1.2264	1.6108	2.0385	0.9665	1.9654	2.3607	1.2264	3.0348	3.0267	2.2334	-0.6037	-0.4142	-0.5658	1.1858	2.0548	2.201	0.6958	2.8913	11.7357	-0.287
0.9286	1.6785	1.7326	1.3509	1.6758	2.1468	1.0585	2.0223	2.4554	1.3211	3.0916	3.0808	2.3092	-0.5875	-0.3628	-0.4873	1.1587	2.0764	2.2389	0.7634	2.9157	11.7168	-0.2951
1.0748	1.8247	1.8436	1.4619	1.7732	2.2605	1.1776	2.1035	2.5637	1.4267	3.1458	3.1674	2.4121	-0.5523	-0.3005	-0.4007	1.0721	2.1441	2.2903	0.8257	2.9888	11.6789	-0.3222
1.183	1.9086	1.9546	1.5973	1.8842	2.358	1.2751	2.1901	2.691	1.5296	3.2162	3.2541	2.4852	-0.5062	-0.2355	-0.3167	1.0152	2.1793	2.3363	0.9042	3.0294	11.6464	-0.3411
1.3428	2.0466	2.0602	1.7055	1.9708	2.4852	1.405	2.2632	2.8263	1.6568	3.319	3.3623	2.5935	-0.4738	-0.1245	-0.2139	0.9259	2.2362	2.3688	0.9556	3.1133	11.6112	-0.3519
1.4511	2.1224	2.1983	1.8436	2.071	2.5908	1.5214	2.3769	2.9536	1.7678	3.4084	3.4625	2.6883	-0.4386	-0.0244	-0.1272	0.8474	2.293	2.4013	1.0071	3.1945	11.5814	-0.3465
1.5756	2.2334	2.3282	1.979	2.1549	2.7045	1.6108	2.4527	3.0781	1.8653	3.4815	3.5302	2.7668	-0.4007	0.0975	-0.0217	0.7797	2.3065	2.4202	1.0639	3.2811	11.5571	-0.3438
1.6812	2.3282	2.404	2.0818	2.2551	2.8128	1.7326	2.5529	3.181	1.9573	3.5735	3.6466	2.8723	-0.3574	0.2166	0.0731	0.7174	2.3607	2.4338	1.1262	3.319	11.5733	-0.3492
1.7976	2.4148	2.5123	2.1955	2.3336	2.9102	1.8165	2.626	3.3109	2.0791	3.6683	3.717	2.9671	-0.3438	0.3249	0.1299	0.6687	2.3932	2.4365	1.1993	3.4111	11.5895	-0.3519
1.8626	2.4879	2.5989	2.3092	2.4392	3.0131	1.9302	2.7234	3.4436	2.182	3.7684	3.8145	3.0564	-0.3167	0.4386	0.2166	0.6254	2.4419	2.4608	1.2291	3.4896	11.641	-0.3303
1.9384	2.5339	2.6558	2.3878	2.5177	3.0727	1.9871	2.8101	3.5383	2.2389	3.8605	3.8767	3.116	-0.3113	0.4981	0.2436	0.6172	2.4229	2.4473	1.2426	3.5491	11.7222	-0.3113
1.9925	2.5881	2.6937	2.4906	2.6125	3.162	2.0764	2.9075	3.5952	2.3228	3.9471	3.9579	3.1756	-0.3032	0.6172	0.2897	0.5875	2.4365	2.4554	1.2453	3.6331	11.7926	-0.2626
2.0494	2.6097	2.7641	2.5637	2.6666	3.2459	2.1387	2.986	3.7089	2.3878	4.0419	4.0446	3.2405	-0.2978	0.6551	0.3167	0.5712	2.45	2.4311	1.2643	3.7035	11.9063	-0.2301
2.0602	2.6449	2.8182	2.6395	2.7451	3.3082	2.182	3.07	3.7738	2.4338	4.1285	4.0933	3.2974	-0.2815	0.7255	0.3195	0.5469	2.4392	2.4257	1.2507	3.7684	12.0146	-0.1543
2.1089	2.6639	2.848	2.6937	2.8182	3.3705	2.2334	3.1133	3.8794	2.4852	4.2097	4.1745	3.3326	-0.2626	0.7743	0.3249	0.5171	2.4852	2.3715	1.2643	3.8036	12.1418	-0.1218
2.1279	2.6937	2.8669	2.7586	2.894	3.43	2.2795	3.2026	3.9363	2.5475	4.318	4.2611	3.4138	-0.2653	0.7797	0.3167	0.4927	2.4987	2.3363	1.2724	3.8767	12.2799	-0.0758
2.201	2.7343	2.9292	2.802	2.9806	3.495	2.3336	3.2893	4.031	2.6097	4.4073	4.3451	3.4625	-0.2464	0.8474	0.3167	0.4548	2.5123	2.2849	1.2805	3.9011	12.399	-0.0379
2.2064	2.7397	2.9563	2.9021	3.051	3.5573	2.3932	3.3651	4.1014	2.6666	4.4723	4.4155	3.514	-0.2003	0.8609	0.2951	0.4142	2.561	2.2253	1.2968	3.9417	12.5371	-0.0054
2.2307	2.7695	2.9942	2.9481	3.1268	3.6358	2.4365	3.4409	4.1583	2.7262	4.5806	4.4994	3.5735	-0.2003	0.9069	0.3113	0.3925	2.5854	2.1793	1.3103	3.9498	12.6562	0.0054
2.2416	2.7803	3.0294	3.005	3.1837	3.6737	2.496	3.5221	4.2178	2.7776	4.6456	4.5779	3.6331	-0.1922	0.9448	0.2761	0.3682	2.6287	2.1495	1.3482	3.9661	12.7997	0.019
2.2524	2.829	3.0727	3.051	3.2541	3.7359	2.5529	3.5789	4.3017	2.8507	4.7268	4.6456	3.6872	-0.1814	0.9719	0.2707	0.3438	2.6476	2.1089	1.3509	3.9769	12.9107	0.0271
2.3038	2.8669	3.1025	3.1133	3.3217	3.7684	2.5854	3.6656	4.3532	2.8967	4.8053	4.7349	3.7251	-0.176	1.0044	0.2491	0.3357	2.6991	2.0927	1.359	3.985	13.0298	0.019
2.3363	2.8859	3.1512	3.1593	3.3813	3.8307	2.6585	3.7089	4.4155	2.94	4.8919	4.8242	3.7847	-0.1678	1.0396	0.2491	0.3222	2.7289	2.0845	1.3915	4.0175	13.1408	0.0271
2.3688	2.9292	3.1864	3.2107	3.4219	3.8903	2.691	3.763	4.4696	2.9942	4.9596	4.8865	3.828	-0.1624	1.091	0.2409	0.314	2.7668	2.0764	1.4077	3.9985	13.2166	0
2.3878	2.959	3.2351	3.2459	3.4679	3.9173	2.7343	3.8307	4.5156	3.0185	5.0327	4.9677	3.8578	-0.1706	1.0937	0.2193	0.3303	2.8101	2.0927	1.4213	4.0283	13.2761	-0.0217
2.4121	3.005	3.2893	3.3082	3.5167	3.9661	2.8047	3.8659	4.5643	3.0889	5.0977	5.0327	3.9038	-0.1624	1.0937	0.2193	0.3411	2.8453	2.1224	1.4619	4.0283	13.3086	-0.0433
2.4527	3.0429	3.3326	3.3434	3.5519	4.0202	2.8372	3.9011	4.605	3.116	5.1572	5.1031	3.9471	-0.1841	1.1018	0.2085	0.3709	2.8751	2.136	1.4646	4.031	13.314	-0.0948
2.4879	3.1025	3.3596	3.384	3.5681	4.0608	2.8805	3.9282	4.6401	3.1404	5.2087	5.1599	3.9904	-0.1976	1.0991	0.2139	0.3953	2.9346	2.1658	1.4727	4.0446	13.3059	-0.1191
2.5015	3.1674	3.3867	3.4273	3.6222	4.0662	2.9184	3.9715	4.6753	3.1756	5.233	5.2114	4.0283	-0.2112	1.0775	0.1651	0.4359	2.9346	2.1739	1.5079	4.0202	13.2843	-0.1381
2.561	3.2568	3.4679	3.4977	3.6764	4.0987	2.9833	4.0012	4.7132	3.1999	5.2899	5.2655	4.0689	-0.2328	1.0693	0.1787	0.4629	2.9671	2.1793	1.5269	4.0067	13.2409	-0.1651
2.6206	3.3163	3.5464	3.5491	3.7359	4.1583	3.0267	4.0283	4.7566	3.2541	5.3278	5.3169	4.1122	-0.2572	1.0748	0.1841	0.49	3.0104	2.1955	1.5621	4.0012	13.1841	-0.1787
2.7072	3.4436	3.6222	3.6277	3.7847	4.207	3.0943	4.0662	4.7918	3.2676	5.3332	5.363	4.1447	-0.2626	1.0748	0.1922	0.5171	3.0267	2.2037	1.6	3.9742	13.1245	-0.2003
2.783	3.5681	3.7224	3.7332	3.8605	4.2611	3.1783	4.1177	4.8324	3.3461	5.3819	5.4388	4.2124	-0.2761	1.0721	0.2328	0.5279	3.0591	2.2037	1.6568	3.9606	13.0677	-0.2166
2.8778	3.7197	3.8199	3.8172	3.9254	4.3369	3.2514	4.1718	4.873	3.3921	5.4009	5.4631	4.2368	-0.2815	1.1018	0.2626	0.5387	3.0916	2.2307	1.711	3.9525	13.0135	-0.203
2.9806	3.828	3.9254	3.9038	4.0012	4.383	3.319	4.1989	4.9109	3.449	5.3846	5.4848	4.2855	-0.287	1.1424	0.2951	0.5469	3.1431	2.2497	1.7705	3.9417	12.9594	-0.203
3.0808	3.9606	4.0283	4.0256	4.0554	4.4425	3.3678	4.2314	4.9298	3.4788	5.3792	5.5092	4.318	-0.2815	1.1614	0.3546	0.5658	3.227	2.2416	1.8436	3.9227	12.9296	-0.1868
3.2243	4.1177	4.1583	4.1501	4.1366	4.5264	3.4679	4.2801	4.9785	3.5329	5.3846	5.5416	4.3694	-0.2843	1.1939	0.425	0.5496	3.2568	2.2524	1.9113	3.9119	12.9025	-0.1489
3.3515	4.272	4.2801	4.2557	4.253	4.5995	3.5519	4.3153	5.0192	3.5735	5.3928	5.5416	4.4019	-0.2761	1.2182	0.4711	0.5441	3.3001	2.2578	1.9573	3.8686	12.8998	-0.1002
3.4923	4.4561	4.4344	4.3857	4.3396	4.6862	3.6493	4.3613	5.0598	3.6385	5.39	5.5795	4.4723	-0.2572	1.2101	0.5496	0.536	3.3678	2.2632	2.025	3.8632	12.9107	-0.1137
3.6033	4.5941	4.5779	4.5021	4.4127	4.7484	3.7116	4.3884	5.0895	3.6845	5.3684	5.585	4.4831	-0.2599	1.1749	0.6064	0.5225	3.3975	2.2659	2.0575	3.8659	12.9404	-0.0812
3.7766	4.7566	4.7105	4.6239	4.5102	4.8405	3.7982	4.4371	5.1247	3.7495	5.3603	5.6012	4.5264	-0.2599	1.1803	0.6741	0.4927	3.4354	2.3065	2.0791	3.8578	12.9756	-0.0298
3.8848	4.8919	4.8324	4.7322	4.5914	4.9379	3.8821	4.4615	5.1843	3.8063	5.3549	5.5985	4.5589	-0.2436	1.1316	0.6985	0.4765	3.4869	2.312	2.1306	3.8578	13.046	-0.0406
4.0202	4.9813	4.9352	4.8378	4.6374	4.9921	3.9579	4.494	5.1897	3.8361	5.3359	5.6093	4.6022	-0.2409	1.0666	0.7337	0.4711	3.5031	2.3282	2.1306	3.8632	13.1381	-0.0298
4.1366	5.1031	5.0516	4.9542	4.6943	5.0625	4.0175	4.5183	5.2384	3.893	5.2953	5.6174	4.6293	-0.2328	1.0179	0.7716	0.4521	3.5491	2.3634	2.1495	3.8578	13.2247	-0.0433
4.2422	5.2032	5.1762	5.0625	4.7322	5.1329	4.096	4.5319	5.2682	3.939	5.2818	5.6039	4.6672	-0.2301	0.9665	0.8095	0.4386	3.5843	2.4121	2.1522	3.8903	13.3303	-0.0406
4.3342	5.2384	5.2628	5.1518	4.7539	5.1924	4.1556	4.5346	5.279	3.9715	5.252	5.5958	4.6943	-0.2003	0.9259	0.8419	0.4196	3.6331	2.4338	2.1685	3.8848	13.4331	-0.0379
4.4046	5.2845	5.3359	5.2195	4.7782	5.2411	4.1935	4.5264	5.2845	4.0175	5.2303	5.5877	4.7349	-0.2003	0.8717	0.8365	0.3898	3.6818	2.4554	2.1766	3.8794	13.5523	-0.0217
4.4561	5.3142	5.4144	5.2601	4.7674	5.2899	4.2422	4.5264	5.298	4.0581	5.2141	5.5823	4.7566	-0.1814	0.8149	0.8095	0.3763	3.7116	2.4771	2.2118	3.9065	13.6876	-0.0217
4.5021	5.3115	5.4658	5.3061	4.762	5.3142	4.272	4.5183	5.3278	4.0906	5.187	5.5687	4.7972	-0.1733	0.7986	0.8013	0.3519	3.7738	2.515	2.228	3.9038	13.7986	-0.0108
4.5292	5.2872	5.4929	5.3169	4.7403	5.3305	4.2963	4.4913	5.3034	4.1447	5.1762	5.5687	4.8215	-0.157	0.7472	0.7824	0.314	3.8307	2.5285	2.2713	3.9227	13.9367	0.0217
4.5237	5.206	5.4794	5.3115	4.7078	5.3413	4.2882	4.4534	5.3034	4.1583	5.141	5.566	4.8621	-0.1408	0.7255	0.7093	0.2815	3.9146	2.5231	2.3038	3.9092	14.0693	0.0433
4.5021	5.1491	5.4604	5.2872	4.6726	5.3278	4.3017	4.4127	5.2763	4.1772	5.1329	5.5362	4.9027	-0.1029	0.6795	0.6768	0.2112	3.9877	2.5258	2.3715	3.9227	14.2101	0.0704
4.4425	5.0516	5.4334	5.2709	4.6239	5.3088	4.2882	4.3748	5.2682	4.2043	5.1247	5.5362	4.9325	-0.0812	0.6308	0.5929	0.1462	4.0906	2.5177	2.4202	3.9282	14.3428	0.0975
4.4155	4.9704	5.4144	5.2601	4.6022	5.3115	4.2909	4.3613	5.2601	4.2693	5.1112	5.5498	4.9894	-0.0271	0.5766	0.536	0.0704	4.1853	2.5285	2.4987	3.9606	14.4727	0.1489
4.3451	4.8892	5.3792	5.187	4.5589	5.279	4.2936	4.3532	5.2493	4.2747	5.1112	5.5525	5.03	-0.0027	0.5766	0.4792	-0.0081	4.2774	2.5231	2.5691	3.985	14.5756	0.2057
4.3045	4.7836	5.3359	5.1626	4.5264	5.252	4.2963	4.3396	5.2303	4.3342	5.1193	5.5687	5.1058	0.0433	0.5171	0.3817	-0.0839	4.3911	2.515	2.6693	3.9877	14.6568	0.2436
4.2314	4.697	5.2818	5.122	4.4777	5.2195	4.2747	4.3369	5.2249	4.3478	5.1599	5.5714	5.1491	0.1002	0.4819	0.3032	-0.1868	4.4831	2.5394	2.7911	4.0283	14.7407	0.3086
4.1529	4.6185	5.187	5.0462	4.4642	5.1897	4.2611	4.318	5.1951	4.3721	5.1762	5.5823	5.2114	0.1272	0.4034	0.1922	-0.2653	4.586	2.5177	2.8669	4.0256	14.7895	0.3763
4.0419	4.5156	5.1031	4.9921	4.4317	5.1329	4.2422	4.3288	5.2032	4.4182	5.2032	5.6012	5.2682	0.1678	0.3519	0.0839	-0.3492	4.678	2.5042	2.9509	4.0662	14.803	0.4683
3.9336	4.4615	5.0246	4.9379	4.4019	5.1193	4.207	4.318	5.1626	4.4344	5.2114	5.5985	5.3088	0.2139	0.2924	0.019	-0.4386	4.7674	2.5069	3.0294	4.0743	14.7922	0.5469
3.8307	4.3586	4.9352	4.8621	4.3775	5.0544	4.1989	4.299	5.141	4.4588	5.2439	5.6174	5.363	0.2572	0.2085	-0.092	-0.5117	4.8351	2.4663	3.1187	4.1041	14.7651	0.6281
3.7305	4.2936	4.8405	4.7945	4.3803	4.9785	4.1637	4.3072	5.1112	4.4588	5.252	5.6256	5.4063	0.3059	0.1299	-0.1814	-0.6064	4.9298	2.4825	3.1701	4.1258	14.6947	0.6795
3.606	4.2368	4.7268	4.6862	4.3505	4.9027	4.1177	4.3072	5.0679	4.4642	5.2845	5.6093	5.4415	0.3357	0.0487	-0.2843	-0.666	5.0137	2.4392	3.2622	4.142	14.6216	0.7472
3.4842	4.1474	4.5968	4.5968	4.3126	4.8269	4.0771	4.2666	5.0164	4.4506	5.2845	5.5795	5.4496	0.3574	-0.0514	-0.3817	-0.7066	5.095	2.4013	3.3272	4.1339	14.5187	0.7905
3.3921	4.115	4.5021	4.5319	4.3153	4.7566	4.0202	4.2855	4.9542	4.4506	5.3142	5.5633	5.4821	0.379	-0.1056	-0.4711	-0.7607	5.1681	2.3986	3.3975	4.1501	14.4023	0.8338
3.2432	4.0364	4.3667	4.429	4.2584	4.6537	3.985	4.2232	4.8676	4.41	5.2628	5.5146	5.4767	0.3844	-0.222	-0.5956	-0.7905	5.2222	2.3417	3.4246	4.1393	14.267	0.9015
3.0943	3.9444	4.2422	4.3369	4.1935	4.5373	3.8984	4.1745	4.7863	4.3586	5.233	5.4496	5.4523	0.398	-0.314	-0.6822	-0.8149	5.2736	2.3065	3.449	4.1204	14.1262	0.9313
2.9644	3.8686	4.0933	4.1745	4.1393	4.4073	3.8036	4.1177	4.651	4.2963	5.1626	5.3711	5.3982	0.3925	-0.4169	-0.7932	-0.8013	5.3061	2.2226	3.4761	4.0879	13.999	0.9827
2.8236	3.7738	3.939	4.0446	4.0581	4.2476	3.7143	4.0364	4.5427	4.1989	5.0923	5.2709	5.3386	0.398	-0.5279	-0.9286	-0.8149	5.3467	2.1847	3.4896	4.0554	13.8636	1.0071
2.6476	3.671	3.7576	3.9254	3.9498	4.096	3.587	3.9363	4.4019	4.1068	5.011	5.1302	5.2384	0.3953	-0.6199	-1.0314	-0.7986	5.3467	2.0954	3.4706	3.9958	13.7418	1.0585
2.5042	3.5573	3.6033	3.7928	3.8469	3.9498	3.4679	3.8334	4.2503	4.0148	4.8919	4.9921	5.1545	0.3844	-0.7472	-1.1641	-0.7824	5.3819	2.0358	3.4761	3.9309	13.6389	1.0829
2.3607	3.4002	3.449	3.6249	3.7197	3.7901	3.3542	3.7386	4.1041	3.8659	4.7809	4.8324	5.0516	0.3709	-0.8663	-1.2589	-0.7553	5.3765	1.9736	3.4246	3.8848	13.5469	1.0991
2.2362	3.2811	3.2838	3.4869	3.6033	3.6385	3.2107	3.6331	3.9633	3.7386	4.6564	4.6753	4.9163	0.3628	-0.9881	-1.3861	-0.7445	5.3549	1.9032	3.403	3.8415	13.471	1.137
2.0981	3.1485	3.1241	3.338	3.4598	3.4706	3.0835	3.5112	3.7874	3.5762	4.5427	4.4967	4.7674	0.3546	-1.1262	-1.4808	-0.7147	5.3305	1.8247	3.3488	3.7955	13.4115	1.1533
1.9465	3.0104	2.9942	3.2026	3.3244	3.3407	2.94	3.4002	3.6114	3.4436	4.4263	4.3288	4.6131	0.3601	-1.2751	-1.5973	-0.712	5.2899	1.7191	3.2811	3.782	13.3736	1.1722
1.7868	2.8778	2.8182	3.0483	3.208	3.1728	2.802	3.273	3.4706	3.3109	4.318	4.1339	4.4642	0.3574	-1.4105	-1.7001	-0.7282	5.2709	1.6406	3.208	3.7143	13.3438	1.1749
1.6541	2.7586	2.672	2.9292	3.1133	3.0321	2.6666	3.181	3.319	3.1349	4.2124	3.9444	4.3045	0.3736	-1.5512	-1.7949	-0.7472	5.2087	1.5837	3.1187	3.7116	13.3519	1.183
1.5485	2.6612	2.5746	2.8074	3.005	2.913	2.5556	3.0808	3.181	2.9942	4.1393	3.7847	4.1691	0.3817	-1.7137	-1.9194	-0.777	5.1545	1.5079	3.0375	3.698	13.3519	1.183
1.4159	2.5583	2.45	2.6964	2.9102	2.7965	2.4229	2.9942	3.051	2.8561	4.0608	3.6493	4.0067	0.398	-1.8436	-2.0494	-0.7932	5.0841	1.4538	2.9319	3.7116	13.3709	1.1641
1.3292	2.4933	2.3742	2.5962	2.8344	2.7126	2.3282	2.9617	2.9644	2.7316	3.9985	3.5085	3.8794	0.4196	-1.9925	-2.1522	-0.8338	5.011	1.3969	2.8344	3.7197	13.4088	1.1343
1.2453	2.404	2.2795	2.4906	2.7478	2.6152	2.2064	2.8967	2.8561	2.5908	3.9579	3.3759	3.7441	0.4304	-2.117	-2.2659	-0.8528	4.9082	1.3401	2.7072	3.7305	13.4521	1.0829
1.1587	2.339	2.2037	2.3742	2.6991	2.5529	2.117	2.8805	2.7722	2.4906	3.9146	3.2622	3.5925	0.4304	-2.2524	-2.3688	-0.8582	4.8242	1.3211	2.6125	3.763	13.4873	1.0314
1.0883	2.2903	2.1306	2.2632	2.672	2.496	2.0087	2.848	2.7018	2.3796	3.8875	3.1512	3.449	0.425	-2.3471	-2.4825	-0.8419	4.7214	1.3238	2.4608	3.7901	13.5387	0.9719
1.0287	2.2524	2.1333	2.2037	2.6639	2.4608	1.9329	2.8696	2.6801	2.2741	3.9146	3.0808	3.3217	0.4115	-2.4446	-2.5827	-0.8257	4.6131	1.3509	2.3444	3.874	13.5631	0.8717
0.98	2.2443	2.0873	2.1035	2.6531	2.4257	1.8409	2.8778	2.6422	2.1739	3.9254	3.0212	3.2216	0.3736	-2.5231	-2.672	-0.7607	4.4804	1.3834	2.2253	3.9309	13.5902	0.804
0.999	2.2768	2.1062	2.0602	2.6855	2.4554	1.7868	2.9346	2.6639	2.1387	3.985	2.9942	3.1214	0.3682	-2.5637	-2.7289	-0.7309	4.3667	1.4619	2.1252	4.0635	13.6254	0.7012
0.9908	2.293	2.1306	2.0033	2.7343	2.4527	1.7407	2.986	2.6666	2.0764	4.0283	3.0023	3.0267	0.3249	-2.5854	-2.8128	-0.6551	4.2584	1.5431	2.0033	4.1583	13.6876	0.6145
1.0206	2.3607	2.1847	1.9763	2.8155	2.5015	1.7028	3.0754	2.7072	2.0223	4.1285	2.9969	2.9509	0.2788	-2.58	-2.8723	-0.5658	4.1339	1.6324	1.8598	4.2747	13.7391	0.5441
1.0396	2.4148	2.2686	1.9275	2.9075	2.5691	1.6622	3.1701	2.783	2.0033	4.2178	3.0375	2.8751	0.2355	-2.5718	-2.9157	-0.4656	4.0012	1.7245	1.7705	4.41	13.8176	0.4602
1.091	2.4608	2.3309	1.914	2.9833	2.6314	1.6514	3.2757	2.8453	1.9898	4.3126	3.0943	2.8372	0.1841	-2.5312	-2.9481	-0.3601	3.8767	1.8247	1.6703	4.5237	13.9232	0.4061
1.1533	2.5231	2.4175	1.9059	3.0943	2.7153	1.646	3.3894	2.9346	1.9736	4.4046	3.1377	2.7776	0.111	-2.4987	-2.9644	-0.2193	3.7603	1.9167	1.5756	4.6104	14.0179	0.3465
1.2616	2.6368	2.5502	1.9465	3.227	2.8507	1.6866	3.5383	3.0591	2.0196	4.5589	3.2514	2.7695	0.0541	-2.4311	-2.9454	-0.111	3.6412	2.0575	1.489	4.7593	14.1424	0.3032
1.3509	2.7451	2.6991	1.9817	3.3569	2.9833	1.738	3.6737	3.1918	2.0494	4.6618	3.3651	2.7397	-0.0054	-2.3905	-2.9238	0.019	3.5329	2.1441	1.4105	4.854	14.2697	0.2382
1.4673	2.8751	2.8805	2.0737	3.4923	3.1566	1.8247	3.8469	3.3515	2.1306	4.789	3.5085	2.7884	-0.0596	-2.2605	-2.8588	0.1218	3.4381	2.2686	1.3617	4.9569	14.405	0.2139
1.6297	3.0646	3.0754	2.1603	3.6845	3.3217	1.9059	4.0202	3.5194	2.1955	4.9379	3.6385	2.8263	-0.1137	-2.1387	-2.7668	0.2139	3.3596	2.404	1.3022	5.0571	14.535	0.1841
1.803	3.2378	3.2757	2.2741	3.8686	3.514	2.0142	4.1908	3.7197	2.293	5.0544	3.809	2.8453	-0.1462	-2.0115	-2.6693	0.3086	3.2893	2.5339	1.2724	5.1464	14.673	0.1706
1.979	3.4057	3.514	2.3959	4.0635	3.7224	2.1306	4.3478	3.8821	2.4121	5.1897	3.9633	2.913	-0.1976	-1.8734	-2.5529	0.4169	3.2162	2.6287	1.2372	5.2276	14.7678	0.1381
2.1955	3.6114	3.763	2.5556	4.2747	3.9688	2.2686	4.5156	4.1204	2.5448	5.3305	4.1637	2.9996	-0.2355	-1.7001	-2.4094	0.4927	3.1728	2.7668	1.2399	5.3169	14.8517	0.1164
2.4067	3.8145	3.9823	2.6964	4.4723	4.1853	2.4284	4.6862	4.3207	2.6801	5.455	4.3342	3.0646	-0.287	-1.4971	-2.2443	0.5766	3.1025	2.8832	1.248	5.3657	14.9275	0.1029
2.6558	4.0527	4.2693	2.9021	4.6916	4.4561	2.607	4.8757	4.5319	2.8561	5.5687	4.5237	3.1728	-0.3195	-1.294	-2.0602	0.6362	3.0808	2.986	1.2643	5.4144	14.9708	0.0812
2.8534	4.2503	4.5021	3.0754	4.8784	4.7024	2.7722	5.0273	4.7457	3.0023	5.6608	4.6943	3.2649	-0.3655	-1.0748	-1.8923	0.7039	3.0646	3.0862	1.2913	5.4686	15.0304	0.0866
3.0781	4.494	4.7809	3.2947	5.122	4.9325	3.0023	5.1735	4.984	3.1864	5.7609	4.9027	3.4002	-0.379	-0.8744	-1.6893	0.7688	3.0781	3.1701	1.3401	5.5037	15.0466	0.0541
3.3028	4.7214	5.0246	3.4896	5.3169	5.1843	3.2053	5.3332	5.2249	3.3921	5.8882	5.1112	3.5356	-0.4196	-0.6389	-1.47	0.823	3.1025	3.2811	1.4132	5.5633	15.0656	0.046
3.5302	4.9244	5.2818	3.6953	5.501	5.4415	3.4138	5.4848	5.4496	3.5762	5.9829	5.2845	3.6656	-0.4413	-0.4656	-1.2778	0.8798	3.1377	3.3732	1.5052	5.566	15.0954	0.0325
3.7522	5.1112	5.5254	3.8984	5.6797	5.6905	3.6304	5.585	5.6689	3.7711	6.0668	5.4577	3.8063	-0.4765	-0.3276	-1.0964	0.9367	3.162	3.43	1.5756	5.5714	15.1116	0.0271
3.9498	5.2953	5.7609	4.1095	5.8557	5.9125	3.8524	5.7149	5.8882	3.9877	6.1426	5.6526	3.9579	-0.4954	-0.176	-0.9042	0.9827	3.2135	3.5004	1.6731	5.5768	15.136	0.0135
4.1204	5.4225	5.9423	4.3099	5.9992	6.1426	4.05	5.7934	6.0831	4.1799	6.1778	5.8259	4.1014	-0.5117	-0.0866	-0.7553	1.0152	3.2351	3.5329	1.7461	5.5119	15.1603	0.019
4.2936	5.5498	6.1589	4.4858	6.1047	6.3565	4.253	5.8936	6.2834	4.3451	6.2266	5.9938	4.2611	-0.5306	0.0081	-0.5902	1.0477	3.2974	3.5437	1.8463	5.4794	15.1766	0.046
4.4506	5.6824	6.3484	4.6943	6.2184	6.5731	4.5129	5.9667	6.4946	4.5481	6.2807	6.1697	4.4398	-0.5279	0.1029	-0.4602	1.0477	3.3353	3.5519	1.9573	5.4307	15.2037	0.0731
4.5968	5.8015	6.5	4.8676	6.2997	6.7545	4.7078	6.0127	6.6787	4.7376	6.3024	6.3403	4.5887	-0.5225	0.1733	-0.3167	1.0423	3.3975	3.5573	2.0196	5.3576	15.2118	0.092
4.7214	5.8855	6.6706	5.0327	6.3944	6.9332	4.8973	6.0641	6.8519	4.9298	6.3159	6.4675	4.7214	-0.5117	0.2193	-0.2085	1.0152	3.4381	3.5329	2.0927	5.2818	15.2361	0.1327
4.8188	5.9315	6.7978	5.2087	6.4404	7.0983	5.0625	6.075	7.0198	5.0652	6.3024	6.5812	4.854	-0.5144	0.2328	-0.1029	0.98	3.4652	3.4923	2.1549	5.1843	15.2578	0.1597
4.9244	5.9802	6.9413	5.3386	6.4865	7.2418	5.2574	6.102	7.1957	5.2168	6.3186	6.6895	4.9948	-0.4683	0.2788	0	0.9204	3.5112	3.4571	2.2118	5.0977	15.274	0.2139
4.9677	5.9721	7.0279	5.4496	6.5027	7.3636	5.3846	6.0939	7.3067	5.3576	6.297	6.7897	5.0977	-0.4304	0.2761	0.065	0.8582	3.541	3.384	2.2416	4.9704	15.293	0.2626
5.0489	6.0019	7.1389	5.6039	6.546	7.5017	5.5389	6.0885	7.4556	5.5037	6.2997	6.8952	5.2114	-0.3844	0.2518	0.1299	0.7661	3.5789	3.3353	2.2876	4.8838	15.3282	0.3249
5.0652	5.9775	7.2174	5.6933	6.565	7.5964	5.677	6.0641	7.5775	5.6039	6.2699	6.9656	5.2953	-0.3519	0.222	0.1733	0.6822	3.5843	3.2622	2.3282	4.7728	15.3471	0.3844
5.1004	5.9423	7.2472	5.7528	6.5379	7.6858	5.7582	6.0371	7.6749	5.7149	6.2536	7.0252	5.3765	-0.2978	0.1895	0.1868	0.5793	3.5952	3.1783	2.339	4.678	15.3878	0.444
5.1085	5.9017	7.2932	5.8421	6.5135	7.7561	5.834	6.0289	7.7832	5.7853	6.2428	7.0902	5.4496	-0.2436	0.1624	0.2193	0.4711	3.6168	3.1187	2.3471	4.5995	15.3932	0.5171
5.1139	5.8367	7.3203	5.8909	6.5081	7.8292	5.9125	6.0046	7.8617	5.8719	6.2455	7.147	5.5335	-0.1868	0.1137	0.1922	0.3817	3.6249	3.0348	2.3499	4.5264	15.4013	0.5577
5.0841	5.7853	7.3365	5.9234	6.5054	7.8861	5.9721	5.9883	7.9484	5.9396	6.2401	7.2066	5.5985	-0.1435	0.0731	0.1895	0.2815	3.6412	2.9671	2.3526	4.4858	15.3986	0.6145
5.0787	5.7555	7.3474	5.9369	6.5081	7.9348	6.0019	6.0019	8.0052	5.9829	6.2563	7.258	5.6445	-0.1137	0.0569	0.1733	0.1922	3.6331	2.9102	2.3363	4.4967	15.4013	0.6687
5.0679	5.7014	7.3446	5.9477	6.4865	7.9781	6.0479	5.9775	8.0648	6.0235	6.2618	7.3203	5.6797	-0.065	0.0135	0.1299	0.111	3.6195	2.8317	2.3228	4.4534	15.3959	0.7337
5.0273	5.6635	7.3365	5.9396	6.5	7.9998	6.0777	5.9938	8.1162	6.0614	6.278	7.3528	5.723	-0.0298	-0.0379	0.111	0.0379	3.6222	2.7722	2.3147	4.4588	15.3796	0.7688
5.0435	5.6174	7.3338	5.9098	6.5027	8.035	6.0723	5.9992	8.1731	6.102	6.3024	7.4015	5.7555	0.0162	-0.065	0.0893	-0.0298	3.6249	2.7018	2.2957	4.4479	15.358	0.7986
4.9975	5.5416	7.3203	5.8773	6.5054	8.0675	6.0831	5.9883	8.211	6.1264	6.3213	7.4394	5.7582	0.0298	-0.1164	0.0325	-0.0839	3.5979	2.6476	2.2578	4.4398	15.3336	0.8122
4.9704	5.5065	7.3095	5.8421	6.4973	8.1	6.0668	6.0073	8.2489	6.1481	6.3782	7.499	5.7853	0.065	-0.1543	0.0162	-0.1408	3.5654	2.6016	2.2118	4.4371	15.3065	0.8419
4.9136	5.4415	7.2743	5.7853	6.4919	8.1027	6.0398	6.0289	8.2868	6.1318	6.4052	7.5233	5.7799	0.0866	-0.2193	-0.0244	-0.1651	3.5356	2.5556	2.1603	4.4046	15.293	0.8501
4.8567	5.3711	7.2255	5.6987	6.4756	8.0837	5.9748	6.0317	8.2976	6.1047	6.4242	7.5423	5.7474	0.0893	-0.2545	-0.0731	-0.176	3.495	2.4933	2.071	4.3803	15.274	0.8338
4.8297	5.3251	7.2147	5.6472	6.4892	8.0972	5.9342	6.056	8.3219	6.0966	6.4729	7.5775	5.7501	0.0948	-0.314	-0.1002	-0.1976	3.4571	2.4879	2.0196	4.3586	15.2768	0.8122
4.7701	5.2763	7.1551	5.5498	6.4756	8.1081	5.8719	6.0533	8.3355	6.0804	6.5	7.5991	5.7122	0.1083	-0.3953	-0.157	-0.1976	3.4138	2.469	1.9275	4.3505	15.293	0.8067
4.716	5.2032	7.1199	5.4442	6.4486	8.0837	5.8015	6.075	8.3057	6.0127	6.5135	7.5937	5.6689	0.0839	-0.4494	-0.2085	-0.1814	3.3434	2.4338	1.8409	4.299	15.293	0.7959
4.6808	5.1653	7.0902	5.363	6.454	8.1027	5.7312	6.1075	8.3355	5.9883	6.5623	7.6289	5.6499	0.1083	-0.4765	-0.2572	-0.1841	3.3136	2.4527	1.7624	4.2882	15.3336	0.7851
4.6401	5.1437	7.0739	5.2547	6.4648	8.0945	5.6824	6.1237	8.3463	5.9586	6.5812	7.6262	5.5877	0.0893	-0.4981	-0.2815	-0.1733	3.2622	2.4663	1.692	4.2693	15.3661	0.758
4.6158	5.1329	7.0414	5.187	6.4702	8.1324	5.6229	6.1589	8.368	5.9342	6.6327	7.6587	5.5795	0.0731	-0.5062	-0.3167	-0.1543	3.2243	2.5177	1.6243	4.2666	15.4121	0.7228
4.6131	5.1193	7.0387	5.1166	6.5162	8.1379	5.5795	6.2103	8.3842	5.9179	6.657	7.6776	5.5471	0.065	-0.5008	-0.3546	-0.1299	3.1945	2.5664	1.5593	4.2882	15.4636	0.6876
4.5833	5.1302	7.0279	5.0679	6.5271	8.1676	5.5525	6.2591	8.4411	5.9261	6.7193	7.7237	5.5471	0.0677	-0.4927	-0.3628	-0.1164	3.1783	2.626	1.5106	4.3207	15.5312	0.6579
4.5643	5.1356	7.0496	5.0137	6.5785	8.1893	5.4929	6.3267	8.4627	5.9288	6.7626	7.7372	5.5281	0.0352	-0.4467	-0.3871	-0.0704	3.1268	2.6991	1.4511	4.3288	15.6016	0.6037
4.5698	5.1599	7.0523	4.9785	6.6272	8.238	5.5037	6.3836	8.5115	5.9261	6.8222	7.7643	5.5146	0.0054	-0.3953	-0.3817	-0.0162	3.1133	2.7884	1.4105	4.3721	15.6503	0.5387
4.5914	5.1924	7.0793	4.9596	6.6733	8.2705	5.4956	6.4431	8.5466	5.9504	6.8709	7.8022	5.4929	-0.0135	-0.3574	-0.3682	0.019	3.1133	2.8696	1.359	4.429	15.737	0.4873
4.6131	5.2493	7.1145	4.9434	6.7409	8.3301	5.5092	6.5379	8.6279	5.9883	6.9413	7.8563	5.5173	-0.0379	-0.3005	-0.4034	0.0893	3.0835	2.9536	1.3157	4.4858	15.8074	0.4656
4.6158	5.279	7.1335	4.9163	6.8005	8.368	5.5254	6.6164	8.6631	6.0019	6.99	7.8644	5.4848	-0.0596	-0.2274	-0.3817	0.1489	3.0618	3.0267	1.313	4.5292	15.8778	0.3953
4.6645	5.3332	7.1633	4.9	6.8573	8.414	5.5335	6.703	8.7172	6.0208	7.0469	7.905	5.501	-0.1381	-0.1462	-0.3736	0.2436	3.0429	3.1268	1.2643	4.5968	15.9319	0.3411
4.6808	5.363	7.212	4.9271	6.9115	8.4654	5.5714	6.7761	8.7849	6.0858	7.1281	7.9429	5.5173	-0.1706	-0.0569	-0.3411	0.3249	3.0375	3.208	1.267	4.6753	15.9969	0.287
4.678	5.3819	7.2147	4.9488	6.9521	8.4952	5.585	6.833	8.8255	6.0858	7.1497	7.9484	5.4956	-0.222	0.0162	-0.3438	0.444	2.9969	3.2784	1.2318	4.7403	16.0456	0.222
4.7322	5.4117	7.2634	4.9894	7.009	8.5818	5.6418	6.9169	8.8986	6.1426	7.2282	8.0052	5.5119	-0.2761	0.1299	-0.3222	0.5469	2.9942	3.3434	1.2453	4.8161	16.0754	0.1868
4.762	5.4577	7.2553	5.0219	7.0685	8.6197	5.6743	6.9927	8.9527	6.1805	7.2716	8.0187	5.5362	-0.3303	0.2247	-0.2761	0.6579	3.005	3.4111	1.2372	4.8676	16.1079	0.1299
4.808	5.5362	7.3122	5.0706	7.1227	8.6901	5.7339	7.0848	9.0366	6.2726	7.3338	8.0675	5.5606	-0.3898	0.333	-0.2166	0.7553	3.0104	3.4679	1.2697	4.9488	16.1187	0.0812
4.8378	5.5714	7.369	5.1302	7.1768	8.7334	5.7988	7.1416	9.1016	6.3267	7.4015	8.0918	5.5985	-0.4386	0.4277	-0.1678	0.8663	3.0429	3.5004	1.2995	5.0219	16.1187	0.0162
4.873	5.6202	7.3934	5.2005	7.2634	8.8011	5.8638	7.2228	9.1801	6.3917	7.4692	8.1297	5.6391	-0.4981	0.5306	-0.1408	0.9611	3.0673	3.5816	1.313	5.0895	16.1241	-0.0487
4.9055	5.6716	7.434	5.2682	7.304	8.839	5.9288	7.2986	9.2532	6.4404	7.5179	8.146	5.6689	-0.536	0.6199	-0.0569	1.0531	3.0997	3.6249	1.3969	5.1626	16.116	-0.1029
4.9379	5.7528	7.4746	5.3305	7.4042	8.9094	6.01	7.3853	9.348	6.546	7.5937	8.1974	5.723	-0.5848	0.7147	0.0081	1.1451	3.1377	3.7143	1.4429	5.2655	16.097	-0.1651
5.0029	5.7907	7.5125	5.4117	7.4394	8.9825	6.0831	7.4502	9.3994	6.6083	7.6695	8.238	5.7745	-0.6308	0.7905	0.0677	1.2237	3.1837	3.763	1.4944	5.3576	16.0862	-0.2328
5.0381	5.8367	7.5423	5.4794	7.5017	9.0448	6.1697	7.5125	9.4752	6.6949	7.7291	8.2868	5.8178	-0.6687	0.8798	0.1245	1.3049	3.2243	3.8659	1.5729	5.4821	16.051	-0.2951
5.0706	5.88	7.5775	5.566	7.5423	9.0745	6.2347	7.591	9.5294	6.7436	7.7886	8.3328	5.8719	-0.7012	0.9475	0.1678	1.3834	3.2514	3.9444	1.646	5.6093	16.0212	-0.3709
5.0841	5.9071	7.6072	5.6202	7.5856	9.1097	6.3078	7.6587	9.5889	6.8249	7.8347	8.3788	5.9179	-0.7282	1.0098	0.2274	1.4456	3.3136	4.031	1.6974	5.7122	15.9942	-0.4494
5.0977	5.9207	7.6018	5.6554	7.5937	9.1449	6.3565	7.6668	9.6133	6.8519	7.8996	8.3842	5.945	-0.7797	1.0666	0.2491	1.5187	3.3244	4.096	1.7516	5.8015	15.9481	-0.509
5.1112	5.9531	7.6154	5.7312	7.6397	9.1747	6.4215	7.7237	9.6918	6.9304	7.97	8.4356	6.0344	-0.777	1.1208	0.2843	1.535	3.3759	4.1637	1.8003	5.9342	15.8967	-0.555
5.1247	5.9829	7.6208	5.7691	7.656	9.2262	6.4675	7.7697	9.7324	7.0035	8.0296	8.4817	6.0777	-0.7824	1.137	0.3303	1.5485	3.4138	4.2314	1.8355	6.0317	15.8886	-0.582
5.1302	5.9965	7.6154	5.8232	7.6749	9.237	6.4865	7.7751	9.7459	7.0387	8.0458	8.4952	6.0831	-0.7878	1.137	0.3682	1.5648	3.4219	4.2611	1.8598	6.1102	15.8642	-0.6118
5.1437	6.0019	7.6072	5.8449	7.7074	9.2695	6.5325	7.8049	9.7811	7.0929	8.1054	8.525	6.1291	-0.7905	1.1154	0.4034	1.5323	3.4652	4.2747	1.8923	6.186	15.8507	-0.6362
5.0977	6.0371	7.5721	5.853	7.7128	9.2938	6.5758	7.8022	9.8028	7.1227	8.1406	8.5521	6.1426	-0.7716	1.0531	0.3871	1.5106	3.5248	4.2936	1.895	6.2374	15.8723	-0.6335
5.0895	6.0398	7.5693	5.8773	7.7074	9.3047	6.6218	7.8238	9.8109	7.1606	8.1893	8.59	6.2022	-0.7391	0.9881	0.4115	1.4619	3.5437	4.2963	1.9032	6.3267	15.8723	-0.6416
5.0868	6.0235	7.5531	5.8909	7.7128	9.3101	6.6083	7.8211	9.8163	7.1903	8.2191	8.6143	6.2049	-0.7174	0.9015	0.4196	1.4077	3.5789	4.2747	1.9086	6.3538	15.9102	-0.6145
5.0516	6.0262	7.5314	5.8855	7.7264	9.3128	6.6272	7.8184	9.8434	7.2337	8.2516	8.6549	6.2645	-0.6714	0.8582	0.4277	1.3211	3.6439	4.253	1.9248	6.3944	15.9373	-0.6064
5.0381	6.0344	7.5071	5.8909	7.7372	9.3344	6.657	7.8401	9.8651	7.2824	8.3328	8.6928	6.3213	-0.6335	0.7932	0.4061	1.2534	3.6926	4.2205	1.9573	6.4377	15.9887	-0.6037
5.0381	6.0452	7.4881	5.8963	7.7588	9.3371	6.6868	7.8428	9.8596	7.3122	8.3626	8.7443	6.3592	-0.601	0.7174	0.4007	1.1885	3.7522	4.1935	1.9763	6.4729	16.051	-0.582
5.0327	6.0371	7.4665	5.9044	7.7832	9.3615	6.7003	7.8509	9.8678	7.3555	8.4059	8.7876	6.408	-0.5712	0.6606	0.3763	1.1154	3.8226	4.1556	2.006	6.5054	16.116	-0.5658
4.9894	5.9938	7.4286	5.8692	7.7724	9.3615	6.7003	7.859	9.8867	7.388	8.4411	8.8174	6.4729	-0.5306	0.5848	0.3384	1.0342	3.893	4.0879	2.0466	6.546	16.1999	-0.555
4.9731	6.0046	7.3744	5.8421	7.7697	9.3453	6.7355	7.8428	9.8813	7.4232	8.4817	8.8444	6.5189	-0.4927	0.5171	0.3249	0.9584	3.9715	4.0094	2.0683	6.5568	16.2811	-0.5279
4.9163	5.9856	7.3555	5.8124	7.794	9.3344	6.7382	7.8644	9.8813	7.4611	8.5142	8.8715	6.5623	-0.4467	0.4629	0.2761	0.8636	4.05	3.9417	2.1116	6.5975	16.3813	-0.5144
4.8676	5.964	7.3013	5.7691	7.7805	9.3155	6.7436	7.8536	9.9002	7.4854	8.5602	8.9229	6.6056	-0.4061	0.4223	0.2328	0.7851	4.1177	3.8848	2.1279	6.6245	16.4788	-0.4765
4.8703	5.9234	7.258	5.7257	7.7886	9.3047	6.7653	7.8265	9.8921	7.526	8.5737	8.9175	6.6489	-0.3736	0.3763	0.1895	0.7147	4.2124	3.8145	2.1658	6.6462	16.5491	-0.4819
4.8188	5.8719	7.2039	5.6662	7.7778	9.2992	6.7653	7.8238	9.8732	7.545	8.5845	8.9608	6.703	-0.3222	0.3276	0.1435	0.6254	4.2936	3.7522	2.2172	6.6516	16.6222	-0.4467
4.7457	5.8503	7.1362	5.6066	7.7318	9.2343	6.7518	7.8022	9.8542	7.5342	8.5873	8.9473	6.7247	-0.2897	0.3086	0.1245	0.5658	4.3342	3.671	2.1955	6.6516	16.6547	-0.4277
4.6889	5.7745	7.0712	5.5281	7.7047	9.2018	6.722	7.7995	9.8326	7.5612	8.6008	8.9527	6.7572	-0.2382	0.3059	0.0812	0.4846	4.4127	3.6114	2.2524	6.6787	16.7116	-0.3898
4.5779	5.6824	6.9792	5.4523	7.6397	9.1585	6.6976	7.7561	9.7947	7.5342	8.5764	8.9257	6.7599	-0.2112	0.2978	0.0596	0.4115	4.4371	3.5491	2.2362	6.6651	16.7359	-0.3519
4.494	5.612	6.8898	5.363	7.6072	9.0908	6.6597	7.7101	9.7568	7.5287	8.5656	8.9202	6.7518	-0.1787	0.2897	-0.0081	0.3519	4.4561	3.4544	2.2578	6.6543	16.7657	-0.3276
4.4046	5.5362	6.8005	5.2872	7.545	9.0448	6.6218	7.6424	9.7243	7.5017	8.5358	8.9121	6.7734	-0.1543	0.3303	-0.0271	0.3005	4.4696	3.3813	2.2307	6.6354	16.7684	-0.314
4.318	5.4252	6.722	5.2195	7.4611	8.9852	6.5758	7.6045	9.6891	7.4611	8.5304	8.885	6.768	-0.1272	0.3655	-0.0839	0.2599	4.4669	3.3082	2.2145	6.6056	16.7657	-0.287
4.2341	5.3278	6.6327	5.1464	7.3744	8.9121	6.5271	7.5531	9.6241	7.4232	8.479	8.8417	6.7572	-0.1056	0.4061	-0.1029	0.2139	4.475	3.2243	2.2064	6.5704	16.7468	-0.2815
4.1177	5.2032	6.5406	5.0489	7.277	8.8444	6.4892	7.4827	9.5781	7.3798	8.4221	8.7957	6.7274	-0.092	0.4467	-0.1462	0.1706	4.4506	3.1377	2.1441	6.5433	16.7305	-0.2626
4.0094	5.1112	6.4513	4.9731	7.2147	8.7524	6.435	7.4042	9.5212	7.3257	8.3815	8.7578	6.7139	-0.0758	0.4954	-0.1733	0.1299	4.4127	3.051	2.1306	6.4865	16.6953	-0.2436
3.9498	4.9867	6.3917	4.9082	7.1037	8.6685	6.3755	7.3311	9.4509	7.2986	8.3165	8.701	6.6922	-0.0596	0.5441	-0.203	0.0975	4.4019	2.9833	2.1089	6.4269	16.671	-0.2545
3.8957	4.9027	6.3322	4.8865	7.0171	8.6197	6.3349	7.2553	9.4048	7.2607	8.2461	8.6522	6.6624	-0.0325	0.5929	-0.1841	0.0623	4.3857	2.9102	2.0981	6.3673	16.6304	-0.2274
3.8226	4.8297	6.2672	4.8242	6.9386	8.5629	6.3105	7.1687	9.3642	7.1985	8.1785	8.5845	6.6408	-0.0081	0.6362	-0.1895	0.0271	4.364	2.8317	2.071	6.3078	16.6141	-0.2301
3.7901	4.7539	6.232	4.8026	6.879	8.5115	6.2888	7.1064	9.3263	7.1795	8.1162	8.5521	6.6327	0.0081	0.6985	-0.176	-0.0217	4.3938	2.783	2.0683	6.2455	16.5762	-0.2409
3.717	4.6726	6.1724	4.7782	6.7815	8.4465	6.2672	7.0171	9.2613	7.1281	8.0214	8.4871	6.6029	0.0298	0.6958	-0.2003	-0.0514	4.3938	2.7045	2.0683	6.1399	16.5546	-0.2409
3.717	4.6077	6.167	4.7836	6.7139	8.4194	6.2726	6.9575	9.2532	7.1308	7.9511	8.4546	6.592	0.0596	0.7174	-0.157	-0.1083	4.4155	2.6504	2.0737	6.056	16.5275	-0.2328
3.6818	4.5373	6.1264	4.789	6.6678	8.3707	6.2753	6.8925	9.2234	7.1199	7.8888	8.414	6.5839	0.0731	0.7147	-0.1435	-0.1408	4.4127	2.561	2.0656	5.9667	16.5139	-0.2301
3.6574	4.4723	6.1075	4.7918	6.5866	8.3192	6.2645	6.8303	9.1883	7.1118	7.8022	8.3734	6.5514	0.0839	0.6795	-0.1299	-0.1814	4.4127	2.4879	2.0521	5.8746	16.5004	-0.2545
3.6601	4.4046	6.0993	4.7999	6.5244	8.2868	6.2618	6.7707	9.1585	7.0875	7.7345	8.3247	6.5189	0.1002	0.6335	-0.1327	-0.203	4.4344	2.4311	2.0656	5.7691	16.5058	-0.222
3.6358	4.3586	6.0966	4.8242	6.4838	8.2516	6.2591	6.7139	9.1368	7.0793	7.6451	8.2678	6.4973	0.1327	0.5929	-0.111	-0.2626	4.4127	2.3661	2.0439	5.6851	16.5058	-0.2112
3.6547	4.3288	6.0993	4.8405	6.4296	8.2326	6.2699	6.6787	9.1341	7.0983	7.5991	8.2272	6.4919	0.157	0.5225	-0.1002	-0.3195	4.4263	2.312	2.0412	5.5985	16.5139	-0.2112
3.6628	4.2963	6.1399	4.8676	6.4107	8.2218	6.2834	6.6272	9.0935	7.0983	7.526	8.2028	6.4675	0.1814	0.4575	-0.0839	-0.3709	4.4263	2.2713	2.0602	5.501	16.541	-0.1651
3.6737	4.2801	6.1426	4.8838	6.3971	8.2272	6.3024	6.6083	9.0908	7.0875	7.4746	8.2028	6.4594	0.222	0.3817	-0.0704	-0.4467	4.4425	2.2524	2.09	5.4252	16.587	-0.1272
3.7035	4.2584	6.1914	4.919	6.3944	8.2245	6.3132	6.5866	9.0989	7.101	7.4096	8.1731	6.4404	0.2436	0.2924	-0.0623	-0.4981	4.4669	2.2172	2.1062	5.3413	16.6439	-0.0866
3.7197	4.2341	6.1914	4.9461	6.3971	8.2245	6.3376	6.5812	9.1016	7.1145	7.388	8.1541	6.4161	0.2788	0.2112	-0.0596	-0.5631	4.4777	2.1901	2.1279	5.279	16.7197	-0.0433
3.7197	4.2259	6.2103	4.9542	6.3457	8.1947	6.3267	6.5812	9.0637	7.0956	7.3203	8.1324	6.3998	0.2924	0.1083	-0.0839	-0.601	4.4723	2.1847	2.117	5.2005	16.8172	0.0108
3.7603	4.2395	6.232	4.9785	6.3863	8.2326	6.3484	6.5731	9.0827	7.1308	7.3013	8.1054	6.408	0.3195	0.0271	-0.0596	-0.6389	4.4858	2.1847	2.1549	5.1166	16.9282	0.0677
3.7711	4.2259	6.2699	5.0002	6.3863	8.2245	6.3457	6.5623	9.0881	7.1281	7.2661	8.0972	6.3836	0.3384	-0.1002	-0.1191	-0.666	4.5021	2.1712	2.1658	5.0652	17.0662	0.1137
3.7955	4.2801	6.3294	5.0408	6.4323	8.2326	6.3755	6.5677	9.1043	7.1551	7.2607	8.1108	6.408	0.3546	-0.1543	-0.1083	-0.712	4.5292	2.1928	2.2118	5.03	17.2205	0.1706
3.828	4.2855	6.3701	5.0327	6.454	8.2461	6.4025	6.592	9.1043	7.1551	7.2472	8.1108	6.3917	0.3682	-0.2464	-0.176	-0.7174	4.5589	2.2091	2.2253	4.9867	17.3694	0.2301
3.8388	4.3288	6.3971	5.0706	6.4756	8.257	6.4107	6.6272	9.1125	7.1714	7.2445	8.1081	6.3863	0.3709	-0.333	-0.1922	-0.7282	4.5752	2.2253	2.2659	4.9623	17.5264	0.3032
3.8253	4.3586	6.4431	5.0841	6.5054	8.2678	6.3728	6.6624	9.1206	7.1768	7.2364	8.1162	6.3944	0.3844	-0.3736	-0.2328	-0.7553	4.6293	2.2551	2.293	4.9325	17.697	0.3492
3.8469	4.4398	6.4973	5.1004	6.5893	8.3165	6.4107	6.7112	9.1422	7.193	7.2743	8.1514	6.4161	0.398	-0.398	-0.2653	-0.7716	4.6537	2.2659	2.3363	4.9271	17.8513	0.4223
3.8388	4.4615	6.5027	5.0923	6.6245	8.3111	6.3836	6.7599	9.1233	7.1903	7.2688	8.1433	6.3998	0.4007	-0.4169	-0.3059	-0.7851	4.678	2.2984	2.3526	4.9298	17.9813	0.4873
3.8578	4.4913	6.565	5.1383	6.6841	8.3653	6.408	6.8249	9.1422	7.2255	7.3203	8.1785	6.435	0.4061	-0.4061	-0.3492	-0.8013	4.7241	2.3417	2.3932	4.9515	18.1085	0.5225
3.8469	4.5129	6.5623	5.1112	6.7193	8.3626	6.3944	6.8628	9.1341	7.193	7.3528	8.1893	6.4161	0.4034	-0.3655	-0.3574	-0.804	4.7593	2.3905	2.4311	4.9731	18.2087	0.5604
3.8334	4.5454	6.5731	5.0733	6.7572	8.3734	6.3646	6.9061	9.1233	7.1903	7.3853	8.2001	6.4242	0.3953	-0.287	-0.3871	-0.7986	4.789	2.4121	2.4311	5.0029	18.2872	0.5956
3.8307	4.5346	6.6137	5.0733	6.7843	8.3788	6.3511	6.9521	9.1152	7.193	7.4096	8.2082	6.4459	0.3898	-0.2328	-0.4034	-0.7851	4.8053	2.4636	2.45	5.0381	18.3521	0.6064
3.8063	4.5454	6.6002	5.0544	6.7924	8.3707	6.3186	7.0062	9.1179	7.1795	7.4638	8.2164	6.4377	0.3763	-0.1597	-0.4088	-0.7634	4.8432	2.5258	2.4446	5.0895	18.3792	0.6037
3.7711	4.521	6.5866	5.03	6.8086	8.3761	6.2834	7.0306	9.0989	7.1551	7.499	8.2191	6.4377	0.3736	-0.046	-0.4359	-0.7418	4.873	2.5583	2.4365	5.1166	18.4009	0.6091
3.7414	4.5021	6.592	5.0002	6.8249	8.3598	6.2672	7.0712	9.061	7.1524	7.5233	8.1974	6.4323	0.3574	0.0487	-0.4196	-0.7201	4.8973	2.5827	2.4392	5.1924	18.4144	0.6037
3.7116	4.4696	6.5514	4.9569	6.7978	8.3571	6.2347	7.0929	9.0285	7.1118	7.5504	8.2001	6.4052	0.333	0.0758	-0.4413	-0.6714	4.8919	2.6233	2.4202	5.2222	18.4063	0.6037
3.6656	4.4452	6.5162	4.919	6.8032	8.3328	6.186	7.1064	8.9852	7.0577	7.5748	8.1703	6.3728	0.3276	0.0866	-0.4521	-0.647	4.8865	2.6368	2.385	5.2682	18.39	0.5929
3.6114	4.3857	6.4594	4.8513	6.7843	8.2651	6.1183	7.0766	8.9094	6.9981	7.5775	8.1324	6.3267	0.2951	0.0948	-0.4683	-0.5983	4.8919	2.6612	2.3471	5.298	18.3684	0.5658
3.5843	4.3424	6.3971	4.7701	6.7518	8.2272	6.0479	7.0793	8.8607	6.925	7.5964	8.0783	6.2726	0.287	0.111	-0.4927	-0.5685	4.873	2.672	2.2903	5.3251	18.3251	0.5739
3.5302	4.3072	6.3484	4.697	6.7193	8.1758	5.9694	7.055	8.8011	6.8655	7.5802	8.0512	6.2374	0.2491	0.0866	-0.4927	-0.5117	4.8459	2.7045	2.2497	5.3576	18.3278	0.5225
3.4706	4.2666	6.2699	4.5995	6.6868	8.1162	5.9017	7.0333	8.7199	6.7653	7.5585	7.9917	6.1643	0.2491	0.046	-0.5441	-0.4846	4.8297	2.7072	2.1928	5.363	18.3278	0.49
3.4381	4.2314	6.213	4.5346	6.6624	8.0593	5.8097	7.009	8.6441	6.6841	7.5612	7.9267	6.1075	0.2274	0.0271	-0.5739	-0.4602	4.8351	2.7289	2.1603	5.4036	18.3521	0.4683
3.3759	4.1772	6.1183	4.4073	6.5975	7.9673	5.7176	6.9413	8.5412	6.5975	7.5206	7.8509	6.0398	0.2166	-0.0352	-0.6064	-0.4142	4.8053	2.7045	2.0764	5.3792	18.3846	0.4115
3.2947	4.1231	6.0506	4.3045	6.565	7.8671	5.6066	6.898	8.4384	6.4892	7.4719	7.7588	5.9423	0.1868	-0.0758	-0.6903	-0.3601	4.7566	2.6801	2.025	5.3819	18.4469	0.3709
3.2432	4.0473	5.9856	4.1989	6.5081	7.7886	5.4929	6.8465	8.3328	6.3619	7.4421	7.6749	5.8692	0.157	-0.1299	-0.7553	-0.314	4.7268	2.672	1.96	5.3738	18.5173	0.3032
3.1593	3.9823	5.88	4.0906	6.4296	7.6885	5.4009	6.7572	8.2516	6.2726	7.3744	7.5666	5.7799	0.1408	-0.1868	-0.8013	-0.2653	4.6889	2.6395	1.8788	5.3494	18.585	0.2572
3.07	3.9119	5.7826	4.004	6.3619	7.5748	5.2574	6.6841	8.1189	6.167	7.3122	7.4692	5.6987	0.1029	-0.268	-0.8961	-0.2003	4.6401	2.6152	1.803	5.3359	18.6716	0.1787
2.9969	3.8469	5.6824	3.8848	6.2699	7.4935	5.1681	6.6191	8.016	6.0696	7.2743	7.4096	5.6066	0.0704	-0.333	-0.9746	-0.1272	4.5995	2.5881	1.7678	5.3386	18.7555	0.1083
2.9021	3.7766	5.5768	3.7603	6.1778	7.3961	5.0327	6.5379	7.9023	5.9586	7.212	7.2959	5.5281	0.0406	-0.3898	-1.045	-0.0569	4.5454	2.5367	1.7326	5.2845	18.8313	0.0271
2.8263	3.7007	5.4983	3.6412	6.1075	7.277	4.9596	6.4404	7.7913	5.8611	7.1578	7.2039	5.4442	0.0027	-0.4548	-1.1208	-0.019	4.5048	2.4987	1.6731	5.2845	18.9234	-0.0298
2.7749	3.6601	5.4063	3.587	6.0208	7.1849	4.8621	6.3782	7.702	5.7853	7.0793	7.1145	5.3928	-0.0081	-0.5225	-1.1695	0.0271	4.4669	2.4771	1.6379	5.2601	19.01	-0.1002
2.6964	3.6006	5.3251	3.5302	5.9613	7.0956	4.7836	6.2915	7.6235	5.7257	7.0279	7.0279	5.3251	-0.0217	-0.5631	-1.2128	0.0514	4.4479	2.4473	1.6216	5.2411	19.0966	-0.1489
2.6449	3.5546	5.252	3.4788	5.9125	7.009	4.7241	6.2401	7.5233	5.6743	6.9738	6.9711	5.2818	-0.019	-0.6199	-1.248	0.0541	4.4046	2.4229	1.6027	5.2141	19.1941	-0.2193
2.607	3.4842	5.1843	3.4381	5.8097	6.9196	4.6591	6.1562	7.4286	5.5904	6.9034	6.8925	5.233	-0.0271	-0.647	-1.2832	0.0541	4.3857	2.3742	1.5675	5.1735	19.278	-0.2572
2.5664	3.43	5.1166	3.3867	5.7636	6.8519	4.5941	6.0885	7.3446	5.5335	6.833	6.8086	5.1599	-0.0081	-0.693	-1.3076	0.0298	4.3613	2.3201	1.5539	5.1329	19.3565	-0.2653
2.5204	3.3786	5.0544	3.3596	5.6797	6.7626	4.5806	6.0019	7.2391	5.474	6.7599	6.7301	5.1058	-0.0054	-0.7499	-1.3184	0.019	4.3099	2.2632	1.5323	5.0977	19.4459	-0.2978
2.4744	3.3163	4.9704	3.3299	5.5795	6.6868	4.5454	5.899	7.1497	5.4063	6.676	6.6354	5.0489	0.0108	-0.7986	-1.3374	-0.0135	4.2936	2.2037	1.4917	5.0408	19.5244	-0.3195
2.469	3.2541	4.9109	3.2893	5.4983	6.5812	4.4831	5.8232	7.0496	5.3521	6.5893	6.5623	5.0056	0.0298	-0.8555	-1.313	-0.065	4.2666	2.1441	1.4484	4.9894	19.6164	-0.3167
2.4257	3.1864	4.8351	3.2838	5.3873	6.4946	4.4344	5.7122	6.9359	5.2628	6.4702	6.4648	4.9271	0.0541	-0.888	-1.3049	-0.0812	4.1826	2.0494	1.4105	4.9109	19.6976	-0.3492
2.3905	3.116	4.7836	3.2595	5.3007	6.4052	4.3965	5.6093	6.8276	5.1924	6.3619	6.3565	4.8378	0.065	-0.9556	-1.3022	-0.1137	4.1014	2.006	1.3428	4.8594	19.7924	-0.3438
2.3959	3.051	4.7322	3.2784	5.2222	6.3267	4.3803	5.5119	6.7491	5.1274	6.2861	6.2888	4.7836	0.0731	-1.0071	-1.3049	-0.1435	4.0364	1.9438	1.2561	4.808	19.9142	-0.3763
2.3742	2.9915	4.6808	3.2568	5.141	6.2563	4.3478	5.4063	6.657	5.0652	6.1968	6.1914	4.7051	0.0866	-1.045	-1.2751	-0.1597	3.9552	1.9086	1.183	4.7376	20.0252	-0.3628
2.3769	2.9481	4.6537	3.2649	5.0544	6.2184	4.3396	5.3305	6.5948	5.0246	6.1183	6.1075	4.6483	0.1002	-1.0585	-1.2886	-0.1922	3.8578	1.8869	1.1018	4.7051	20.1362	-0.3736
2.358	2.8778	4.5941	3.2676	4.9785	6.1345	4.3126	5.252	6.5162	4.965	6.0289	6.0452	4.5671	0.1056	-1.0883	-1.2832	-0.2057	3.7711	1.8653	1.026	4.6456	20.2553	-0.3655
2.3336	2.8399	4.5589	3.2622	4.9055	6.0912	4.2936	5.1762	6.4594	4.9136	5.9369	5.9396	4.5129	0.1029	-1.091	-1.2886	-0.203	3.6818	1.8192	0.9421	4.5995	20.3636	-0.3709
2.3309	2.7992	4.5319	3.2974	4.8459	6.0587	4.2801	5.122	6.4161	4.8757	5.8584	5.8909	4.4642	0.1083	-1.0748	-1.248	-0.2166	3.6006	1.8084	0.8744	4.54	20.4583	-0.3709
2.3228	2.7857	4.5048	3.3326	4.8107	6.0452	4.3099	5.0679	6.3782	4.8405	5.8097	5.8394	4.41	0.1164	-1.0152	-1.2534	-0.2355	3.5085	1.7786	0.804	4.5102	20.5287	-0.3763
2.3174	2.7695	4.5292	3.3353	4.762	6.01	4.3072	5.03	6.3376	4.8161	5.7339	5.8097	4.3478	0.1245	-0.9259	-1.2237	-0.2464	3.4354	1.7624	0.7445	4.4642	20.5883	-0.3898
2.3417	2.7532	4.5048	3.3921	4.7376	6.0154	4.318	4.9921	6.3349	4.8269	5.6933	5.7636	4.318	0.1354	-0.8338	-1.2101	-0.2599	3.3705	1.7489	0.6958	4.41	20.6506	-0.425
2.3363	2.737	4.494	3.4192	4.6997	5.9938	4.3207	4.9596	6.3105	4.8053	5.631	5.7366	4.2774	0.1516	-0.7066	-1.1479	-0.2788	3.3055	1.7245	0.6524	4.3748	20.6803	-0.4738
2.3553	2.7776	4.5156	3.4652	4.7051	6.0127	4.3451	4.9461	6.3105	4.8053	5.6174	5.7257	4.2611	0.1597	-0.582	-1.1018	-0.3059	3.2541	1.7434	0.5875	4.3424	20.7236	-0.4765
2.3715	2.8263	4.5346	3.5383	4.7268	6.0317	4.3992	4.9271	6.3403	4.8297	5.5904	5.696	4.2476	0.176	-0.4819	-1.045	-0.3438	3.2107	1.7786	0.5766	4.3126	20.7697	-0.5198
2.3932	2.8696	4.5508	3.5925	4.7484	6.0668	4.429	4.9461	6.3484	4.8594	5.5768	5.7122	4.2584	0.1949	-0.3628	-1.0044	-0.3953	3.1647	1.7759	0.5441	4.299	20.8265	-0.5414
2.4257	2.9021	4.5725	3.6439	4.7674	6.0939	4.4371	4.9542	6.3538	4.8703	5.5471	5.7176	4.253	0.2139	-0.2328	-0.9584	-0.4359	3.1566	1.7732	0.5252	4.2747	20.8996	-0.5793
2.4554	2.9319	4.5914	3.6899	4.8026	6.1481	4.4804	4.9758	6.3917	4.9082	5.5498	5.7312	4.2611	0.2464	-0.1272	-0.9421	-0.4765	3.1539	1.7705	0.5252	4.253	21.0079	-0.6064
2.4636	2.9806	4.5995	3.7251	4.8107	6.1426	4.4967	4.9596	6.3944	4.9055	5.5525	5.7366	4.2395	0.268	-0.0541	-0.9096	-0.5144	3.1295	1.7624	0.536	4.2205	21.1324	-0.6254
2.4554	2.9996	4.5914	3.7116	4.8621	6.1535	4.5102	5.0056	6.408	4.9271	5.5471	5.7095	4.2205	0.2626	-0.0108	-0.9638	-0.5333	3.1241	1.7759	0.5306	4.2205	21.284	-0.6362
2.4338	3.0618	4.5779	3.7657	4.8838	6.1562	4.5048	5.0056	6.4242	4.9515	5.5335	5.6987	4.1989	0.287	0.0704	-0.98	-0.5631	3.1106	1.8057	0.5306	4.2151	21.4627	-0.6606
2.4121	3.0754	4.5725	3.7441	4.8811	6.1481	4.5021	5.0435	6.4377	4.9488	5.5416	5.7068	4.2043	0.287	0.0948	-1.0314	-0.5712	3.1052	1.8165	0.5469	4.1962	21.6549	-0.6741
2.3661	3.0754	4.5183	3.717	4.8946	6.1264	4.4723	5.0489	6.4215	4.9217	5.501	5.696	4.161	0.287	0.092	-1.0802	-0.5577	3.0862	1.784	0.5631	4.161	21.8742	-0.7174
2.339	3.1025	4.4858	3.7007	4.9027	6.1129	4.4506	5.0571	6.4161	4.9271	5.4929	5.6878	4.1556	0.2653	0.1083	-1.1695	-0.536	3.097	1.784	0.5658	4.1393	22.0854	-0.7526
2.2659	3.0916	4.41	3.6087	4.9082	6.0777	4.4073	5.0462	6.3998	4.9136	5.4848	5.6878	4.1366	0.2436	0.0839	-1.2318	-0.4954	3.1052	1.7597	0.5793	4.1122	22.3344	-0.8013
2.2118	3.0835	4.3667	3.5816	4.9109	6.0723	4.3586	5.0814	6.3809	4.8757	5.4713	5.6851	4.1177	0.2355	0.0893	-1.3103	-0.4629	3.1052	1.757	0.5956	4.0987	22.5618	-0.8284
2.1495	3.0754	4.3072	3.514	4.9325	6.0614	4.3288	5.095	6.3701	4.8594	5.4658	5.6716	4.0933	0.2166	0.0731	-1.3888	-0.4304	3.1052	1.738	0.6172	4.0852	22.8299	-0.8853
2.0683	3.0646	4.2449	3.4273	4.8973	6.0046	4.2693	5.0706	6.3403	4.8188	5.4334	5.6526	4.0689	0.2003	0.0785	-1.4429	-0.3953	3.0889	1.7164	0.6091	4.05	23.0789	-0.9123
2.0439	3.0456	4.2151	3.3786	4.9244	5.9938	4.2259	5.0814	6.3376	4.8053	5.4415	5.6472	4.0391	0.1841	0.0569	-1.4998	-0.3628	3.0754	1.7001	0.6254	4.0419	23.3659	-0.934
1.9871	3.0185	4.1501	3.2757	4.8784	5.964	4.1583	5.0652	6.2834	4.7593	5.3955	5.6093	3.9904	0.1597	0.0162	-1.5648	-0.333	3.0646	1.6703	0.6199	4.0175	23.6285	-0.9665
1.9221	3.0131	4.0879	3.2135	4.873	5.9261	4.1285	5.076	6.2726	4.7403	5.3982	5.6202	3.9742	0.1787	0.019	-1.5891	-0.3438	3.0835	1.6676	0.6497	4.0094	23.929	-0.9611
1.8788	2.9725	4.0662	3.1593	4.8838	5.8936	4.0879	5.0977	6.2455	4.7322	5.4009	5.5904	3.9579	0.1841	0.0298	-1.6162	-0.3736	3.0889	1.6487	0.6606	4.0121	24.2322	-0.9773
1.8274	2.94	3.9904	3.0673	4.8567	5.8449	4.0202	5.0706	6.213	4.678	5.3792	5.5687	3.92	0.2003	-0.019	-1.6649	-0.3953	3.0781	1.6189	0.6741	3.9633	24.5543	-0.9881
1.7895	2.913	3.9552	2.9969	4.8405	5.8178	3.9769	5.076	6.2022	4.6618	5.3467	5.5687	3.893	0.2274	-0.0487	-1.6974	-0.4575	3.0727	1.6054	0.6903	3.9606	24.8603	-1.0125
1.7326	2.8778	3.9011	2.9211	4.8459	5.7745	3.9227	5.0787	6.1887	4.6293	5.3684	5.5552	3.8821	0.2707	-0.1002	-1.7028	-0.5496	3.0862	1.6189	0.7039	3.9633	25.1905	-1.0179
1.692	2.8372	3.8226	2.8209	4.8269	5.7474	3.874	5.0923	6.1616	4.6104	5.3657	5.5308	3.8442	0.3222	-0.1651	-1.7489	-0.6199	3.0997	1.6081	0.7337	3.9796	25.5073	-1.0152
1.6352	2.829	3.7955	2.7316	4.7863	5.7041	3.8199	5.1058	6.1399	4.5698	5.3603	5.5173	3.8361	0.3574	-0.268	-1.738	-0.7201	3.0862	1.6	0.7418	3.9877	25.7997	-1.026
1.5702	2.7613	3.7359	2.6504	4.7701	5.6364	3.7711	5.1004	6.0966	4.5481	5.3576	5.5092	3.8009	0.3925	-0.4061	-1.7759	-0.7824	3.0781	1.6054	0.7743	4.004	26.1245	-1.0396
1.4917	2.718	3.6574	2.5637	4.7403	5.6039	3.7089	5.0571	6.075	4.5048	5.3467	5.4848	3.7847	0.4196	-0.536	-1.8084	-0.8501	3.0618	1.6216	0.7499	4.0175	26.4088	-1.0125
1.4077	2.6287	3.5519	2.4419	4.678	5.5389	3.6574	5.0679	6.0587	4.4858	5.3386	5.474	3.7495	0.4494	-0.6795	-1.8517	-0.9069	3.0537	1.6324	0.758	4.0554	26.6822	-1.0044
1.3374	2.5556	3.4733	2.3526	4.6239	5.474	3.5843	5.03	6.0019	4.4344	5.3251	5.4631	3.7143	0.4683	-0.8501	-1.8653	-0.9421	3.0239	1.6297	0.7364	4.0473	26.9394	-0.9692
1.2345	2.4717	3.4084	2.2443	4.5616	5.3765	3.5058	5.0246	5.9559	4.4155	5.3061	5.4307	3.7007	0.49	-0.9963	-1.9113	-0.98	2.9915	1.6297	0.7174	4.0419	27.1695	-0.9611
1.1451	2.3661	3.2947	2.1603	4.4615	5.3088	3.4706	4.9975	5.9125	4.3451	5.2818	5.3738	3.6547	0.5008	-1.1695	-1.9654	-0.9963	2.9427	1.6243	0.712	4.0175	27.3671	-0.9394
1.0775	2.2795	3.2297	2.071	4.4127	5.252	3.4381	4.9542	5.8828	4.3315	5.2736	5.3521	3.6358	0.509	-1.3482	-1.9898	-1.0125	2.9211	1.6216	0.6958	4.0229	27.5269	-0.9123
0.9908	2.1793	3.1214	1.9898	4.3315	5.1843	3.3894	4.9136	5.8259	4.2666	5.2411	5.3197	3.5898	0.5171	-1.535	-2.0494	-1.0098	2.8723	1.6108	0.6795	3.985	27.6676	-0.8609
0.9069	2.0575	3.051	1.9221	4.2503	5.1193	3.3542	4.8621	5.7934	4.2638	5.2114	5.298	3.5898	0.5171	-1.6812	-2.0683	-1.0179	2.8426	1.581	0.6687	3.9525	27.7922	-0.8474
0.823	1.9546	2.9509	1.8544	4.1772	5.0489	3.319	4.8107	5.7582	4.2151	5.1708	5.2357	3.5383	0.5035	-1.8274	-2.136	-1.0017	2.7992	1.5404	0.6633	3.9119	27.8977	-0.7986
0.7959	1.8761	2.9021	1.8219	4.1122	5.011	3.3136	4.7918	5.7447	4.2368	5.1545	5.2303	3.5356	0.5008	-1.9573	-2.1603	-1.0233	2.783	1.5377	0.647	3.8848	27.9979	-0.7661
0.7147	1.7516	2.8101	1.7651	3.9985	4.9461	3.2974	4.7132	5.6905	4.1962	5.1247	5.1897	3.4977	0.5171	-2.09	-2.1983	-1.0369	2.7424	1.4673	0.6551	3.8361	28.0602	-0.7282
0.6795	1.6514	2.7559	1.7407	3.9363	4.9027	3.3001	4.6726	5.7068	4.2043	5.0571	5.1789	3.495	0.5252	-2.201	-2.2334	-1.0504	2.6964	1.4213	0.6308	3.7901	28.1062	-0.6714
0.601	1.535	2.6585	1.711	3.8659	4.8269	3.2649	4.5833	5.6283	4.1772	5.0002	5.1464	3.4652	0.5252	-2.2903	-2.3011	-1.0558	2.6828	1.313	0.6199	3.7089	28.1387	-0.6172
0.582	1.4835	2.6179	1.711	3.782	4.789	3.2784	4.5319	5.6337	4.1772	4.9569	5.1329	3.4571	0.5469	-2.3363	-2.2984	-1.1018	2.6504	1.2534	0.6145	3.6574	28.1522	-0.5604
0.5225	1.3726	2.5502	1.6974	3.6791	4.7403	3.2865	4.4425	5.6147	4.1772	4.8892	5.076	3.43	0.5658	-2.4148	-2.358	-1.1262	2.6368	1.1316	0.6064	3.5546	28.1793	-0.4683
0.4873	1.2859	2.4825	1.7272	3.606	4.7132	3.3028	4.3748	5.6012	4.1826	4.854	5.0381	3.4273	0.5739	-2.4527	-2.3769	-1.1397	2.6395	1.0396	0.5983	3.4896	28.2172	-0.3709
0.4656	1.2101	2.4365	1.7272	3.514	4.6726	3.3136	4.3017	5.5444	4.1583	4.7999	5.0083	3.4192	0.601	-2.4636	-2.4257	-1.1858	2.6152	0.9475	0.601	3.4192	28.2416	-0.268
0.425	1.1343	2.3634	1.7434	3.4138	4.6293	3.3407	4.2259	5.5281	4.1718	4.7105	5.0056	3.4002	0.6118	-2.4906	-2.45	-1.2155	2.5935	0.804	0.6091	3.3109	28.3011	-0.1381
0.3817	1.0558	2.3336	1.7922	3.3299	4.6022	3.384	4.1474	5.5362	4.2043	4.651	4.9677	3.4084	0.6335	-2.4581	-2.4798	-1.2534	2.5962	0.6849	0.6335	3.2459	28.3471	-0.0054
0.3682	0.9719	2.2822	1.803	3.2405	4.5914	3.4084	4.0771	5.5119	4.2097	4.6077	4.9461	3.4084	0.6524	-2.4581	-2.5015	-1.2859	2.6043	0.5766	0.6389	3.1701	28.4256	0.1462
0.3384	0.9015	2.2497	1.8626	3.1783	4.5806	3.4327	4.0419	5.5037	4.2287	4.5725	4.9352	3.4192	0.6579	-2.4581	-2.5394	-1.313	2.6016	0.4765	0.6443	3.0808	28.5123	0.2843
0.3195	0.8311	2.2226	1.8842	3.0889	4.5779	3.4679	3.9444	5.501	4.253	4.4994	4.9082	3.4111	0.6795	-2.4473	-2.5718	-1.3509	2.6314	0.3574	0.6741	2.9915	28.6341	0.4629
0.2924	0.7418	2.1928	1.9492	3.0267	4.5779	3.5112	3.8821	5.4902	4.2909	4.4642	4.9	3.43	0.693	-2.4311	-2.5908	-1.3861	2.6531	0.2599	0.6822	2.959	28.7749	0.6118
0.268	0.693	2.1522	1.9871	2.9319	4.5237	3.5194	3.8172	5.4658	4.2855	4.4046	4.854	3.4138	0.7201	-2.4202	-2.6152	-1.4267	2.6612	0.1354	0.6985	2.8832	28.9346	0.7661
0.2599	0.6362	2.1279	2.0223	2.8723	4.5264	3.5654	3.7657	5.4631	4.3342	4.3613	4.8513	3.4138	0.7391	-2.4148	-2.6206	-1.4646	2.7153	0.0596	0.7282	2.8453	29.1241	0.934
0.2112	0.5631	2.1116	2.0683	2.7911	4.5048	3.6006	3.698	5.4334	4.3369	4.3126	4.8188	3.4219	0.7634	-2.45	-2.6395	-1.5079	2.7397	-0.0217	0.7634	2.7884	29.3353	1.0748
0.1976	0.509	2.0981	2.1116	2.7586	4.4967	3.6195	3.6385	5.455	4.3667	4.3017	4.8297	3.4463	0.7878	-2.4771	-2.6639	-1.5675	2.783	-0.0866	0.8013	2.7776	29.5735	1.1776
0.1678	0.4711	2.0602	2.1468	2.7045	4.4723	3.6249	3.5952	5.3928	4.3748	4.2395	4.8107	3.4354	0.8149	-2.5096	-2.6991	-1.6108	2.8182	-0.1408	0.8338	2.7316	29.8172	1.2968
0.1381	0.4332	2.0304	2.1468	2.6693	4.4452	3.6304	3.5519	5.3846	4.3775	4.1989	4.7755	3.4436	0.8392	-2.5231	-2.7045	-1.6731	2.8832	-0.1706	0.888	2.6991	30.0743	1.4077
0.1137	0.425	1.9871	2.1685	2.6206	4.4209	3.6466	3.5248	5.3657	4.364	4.188	4.7647	3.4409	0.8636	-2.5556	-2.7559	-1.7164	2.9346	-0.2166	0.9313	2.6747	30.3288	1.4863
0.0731	0.3763	1.9844	2.1793	2.6125	4.3803	3.6412	3.4869	5.3169	4.3559	4.1501	4.7376	3.449	0.8934	-2.5475	-2.7668	-1.7705	2.9888	-0.2274	0.9773	2.6476	30.5914	1.5539
0.046	0.3465	1.9086	2.1847	2.5854	4.3261	3.6358	3.4463	5.2655	4.3315	4.1014	4.6808	3.43	0.915	-2.58	-2.7668	-1.8274	3.0537	-0.2436	1.0342	2.6585	30.8513	1.5891
0.0081	0.314	1.8761	2.1766	2.5664	4.2963	3.6033	3.4165	5.2168	4.3261	4.0716	4.6347	3.4219	0.9556	-2.5854	-2.7695	-1.8869	3.1214	-0.2003	1.0856	2.626	31.0977	1.6081
