"FZ"	"FC3"	"FCZ"	"FC4"	"C3"	"CZ"	"C4"	"CP3"	"CPZ"	"CP4"	"P3"	"PZ"	"P4"	"OZ"	"FP1"	"FP2"	"A2"	"P8"	"TP7"	"TP8"	"P7"
0.1544	-0.5405	-0.0571	-0.5371	-0.433	-0.0403	-0.8292	-0.3726	-0.0034	-0.5908	-0.6412	-0.2921	0.3793	0.2618	-0.6345	0.0571	-0.5338	-0.1746	-0.3491	-0.3323	-0.5807
0.0201	-0.5975	-0.1779	-0.8157	-0.5673	-0.1343	-1.0507	-0.48	-0.1511	-0.799	-0.752	-0.3995	0.2216	0.2786	-0.6915	0.0101	-0.5539	-0.2887	-0.3827	-0.3961	-0.5841
-0.0873	-0.6378	-0.2719	-1.0541	-0.6076	-0.2115	-1.2555	-0.5942	-0.2518	-0.9366	-0.8258	-0.4767	0.0604	0.2853	-0.7217	-0.0269	-0.5707	-0.3827	-0.3961	-0.4633	-0.6076
-0.1511	-0.5975	-0.3391	-1.232	-0.6311	-0.2719	-1.3864	-0.6244	-0.3088	-1.0205	-0.8694	-0.5304	-0.0571	0.2954	-0.7385	-0.0201	-0.5875	-0.4565	-0.4028	-0.5002	-0.6009
-0.2148	-0.5405	-0.386	-1.3797	-0.6345	-0.2719	-1.4703	-0.6714	-0.3558	-1.1145	-0.9232	-0.5875	-0.1477	0.2921	-0.7318	0.0067	-0.5807	-0.5203	-0.4297	-0.5338	-0.6177
-0.2115	-0.4263	-0.3827	-1.467	-0.5472	-0.2887	-1.5005	-0.6445	-0.3726	-1.1548	-0.9399	-0.6412	-0.2383	0.2853	-0.705	0.0235	-0.564	-0.5908	-0.4666	-0.574	-0.5707
-0.2316	-0.2719	-0.3592	-1.561	-0.3995	-0.2115	-1.4603	-0.5338	-0.3558	-1.1279	-0.8929	-0.6244	-0.2719	0.2921	-0.6445	0.0705	-0.5875	-0.5975	-0.5371	-0.5573	-0.5069
-0.2383	-0.1242	-0.329	-1.6013	-0.2216	-0.1947	-1.4401	-0.3961	-0.329	-1.0776	-0.8124	-0.611	-0.3021	0.282	-0.564	0.1443	-0.5774	-0.6277	-0.6244	-0.5237	-0.4364
-0.1947	0.0705	-0.2551	-1.571	-0.0201	-0.0906	-1.3528	-0.2484	-0.2719	-1.0239	-0.6982	-0.5875	-0.3055	0.2988	-0.5103	0.2249	-0.574	-0.5942	-0.705	-0.4834	-0.3256
-0.1544	0.2585	-0.1846	-1.514	0.1779	-0.0302	-1.1917	-0.1276	-0.2148	-0.9265	-0.5908	-0.5472	-0.2753	0.2786	-0.4196	0.2988	-0.5707	-0.5807	-0.799	-0.4431	-0.2249
-0.1074	0.4565	-0.1074	-1.3797	0.3357	0.047	-1.0474	0.0436	-0.1511	-0.7956	-0.4901	-0.5002	-0.2249	0.2786	-0.3323	0.3928	-0.5573	-0.5539	-0.8896	-0.3928	-0.1175
-0.0739	0.6244	-0.047	-1.1984	0.4968	0.1108	-0.8661	0.1578	-0.1141	-0.6781	-0.3793	-0.4398	-0.1813	0.2652	-0.2887	0.4398	-0.5472	-0.5103	-0.9265	-0.3256	-0.0134
-0.0436	0.7687	0.0269	-1.0306	0.5673	0.1746	-0.6412	0.2753	-0.0638	-0.5774	-0.2887	-0.4163	-0.188	0.2686	-0.2115	0.47	-0.5405	-0.4733	-0.9769	-0.2753	0.0671
-0.0403	0.856	0.0739	-0.799	0.6311	0.2283	-0.4364	0.3592	-0.0201	-0.4599	-0.2081	-0.3827	-0.1477	0.2686	-0.1813	0.4633	-0.5237	-0.4565	-1.0272	-0.2216	0.1074
-0.0336	0.9735	0.1443	-0.5405	0.7117	0.2887	-0.1913	0.433	-0.0034	-0.3558	-0.1309	-0.3458	-0.1443	0.2383	-0.1443	0.4901	-0.4868	-0.4599	-1.1078	-0.188	0.1544
0.0201	1.0474	0.2014	-0.2585	0.7687	0.3256	0.0537	0.5203	0.0336	-0.2417	-0.0537	-0.3256	-0.1074	0.2484	-0.0839	0.5035	-0.47	-0.4062	-1.2152	-0.1443	0.1813
0.0638	1.1145	0.2551	0.0671	0.809	0.3693	0.3088	0.621	0.0705	-0.1511	0.0235	-0.3156	-0.1108	0.2182	-0.0772	0.4935	-0.4398	-0.423	-1.2823	-0.0604	0.2618
0.0772	1.1212	0.3256	0.3357	0.7956	0.4028	0.5069	0.6747	0.0705	-0.0537	0.1007	-0.3189	-0.1074	0.2115	-0.0537	0.4733	-0.423	-0.3894	-1.3596	0.0403	0.2853
0.0839	1.0843	0.3156	0.5673	0.7687	0.3928	0.6177	0.7251	0.0671	-0.0235	0.188	-0.3357	-0.1074	0.188	-0.0269	0.4565	-0.3827	-0.4028	-1.4301	0.0974	0.3391
0.1108	1.0037	0.3458	0.7486	0.6479	0.3961	0.7184	0.705	0.0537	-0.0168	0.2216	-0.3458	-0.1779	0.1678	-0.0336	0.4196	-0.3424	-0.4196	-1.4737	0.1376	0.3592
0.0873	0.9164	0.3323	0.8997	0.5505	0.3693	0.7956	0.6882	-0.0134	-0.0537	0.2182	-0.3693	-0.2283	0.1443	-0.0168	0.3793	-0.3088	-0.4633	-1.514	0.2014	0.4163
0.1175	0.8057	0.3391	1.0339	0.4364	0.3625	0.8023	0.658	-0.0336	-0.0638	0.2283	-0.4028	-0.2887	0.1343	-0.0168	0.3256	-0.2719	-0.4398	-1.5308	0.2451	0.4532
0.0806	0.7016	0.3223	1.1481	0.3256	0.3189	0.8493	0.5908	-0.1376	-0.1007	0.1981	-0.4565	-0.3458	0.1074	-0.0168	0.2316	-0.2014	-0.4834	-1.4972	0.3189	0.4498
0.0839	0.5673	0.3122	1.2689	0.2417	0.282	0.8795	0.5539	-0.1578	-0.1208	0.1779	-0.48	-0.4095	0.0638	0	0.2048	-0.1376	-0.4834	-1.3898	0.4028	0.4767
0.0671	0.4095	0.2753	1.3663	0.141	0.2719	0.8527	0.4935	-0.2249	-0.1746	0.141	-0.5203	-0.4532	0.0369	-0.0369	0.0806	-0.0739	-0.4935	-1.2891	0.4263	0.4666
0.0336	0.2618	0.2451	1.4301	0.0571	0.2014	0.7855	0.4163	-0.2921	-0.2484	0.0839	-0.5841	-0.5438	0.0134	-0.0302	0.0134	-0.0168	-0.5237	-1.1447	0.4532	0.4431
0.0134	0.1276	0.2148	1.4401	0.0269	0.1477	0.6815	0.3894	-0.3793	-0.376	0.0336	-0.6311	-0.611	-0.0168	-0.047	-0.1108	0.0235	-0.5707	-0.997	0.4398	0.4431
-0.0302	0.0168	0.1779	1.3998	0.0201	0.1041	0.5573	0.3558	-0.4498	-0.5371	-0.0134	-0.6882	-0.7318	-0.0403	-0.0739	-0.2182	0.0705	-0.621	-0.8023	0.4095	0.4465
-0.0906	-0.0604	0.1208	1.3327	0.0235	0.0537	0.3659	0.329	-0.5237	-0.668	-0.0571	-0.752	-0.8057	-0.0671	-0.094	-0.3323	0.1242	-0.6647	-0.5472	0.3223	0.4196
-0.1611	-0.1276	0.047	1.185	0.0302	0.0034	0.1746	0.3156	-0.5942	-0.8258	-0.141	-0.7788	-0.8795	-0.0974	-0.1544	-0.4599	0.1846	-0.6815	-0.2618	0.2048	0.4163
-0.2115	-0.1544	0.0168	1.1011	0.0638	-0.0604	0.0034	0.3088	-0.6378	-0.9232	-0.1779	-0.8325	-0.9399	-0.1309	-0.2115	-0.5405	0.2551	-0.7117	0.0403	0.1108	0.4163
-0.2484	-0.1544	-0.0168	1.0406	0.1074	-0.1175	-0.0806	0.2954	-0.6747	-0.9937	-0.235	-0.8292	-0.9836	-0.1712	-0.2048	-0.658	0.3323	-0.715	0.3659	0.0067	0.423
-0.3055	-0.1477	-0.0839	1.0071	0.1343	-0.1544	-0.1376	0.2551	-0.7419	-1.0507	-0.2417	-0.8627	-1.0306	-0.2316	-0.2719	-0.7855	0.4398	-0.7285	0.6512	-0.1208	0.4465
-0.3189	-0.1007	-0.0906	1.0037	0.1846	-0.1544	-0.141	0.2551	-0.7083	-1.0809	-0.2585	-0.8292	-1.0205	-0.2753	-0.2988	-0.8627	0.5304	-0.7117	0.9399	-0.2316	0.5573
-0.3558	-0.1007	-0.141	0.9366	0.2283	-0.2115	-0.1544	0.2484	-0.7419	-1.1044	-0.2753	-0.809	-1.0172	-0.3391	-0.3458	-0.95	0.6412	-0.6848	1.1716	-0.3592	0.6747
-0.3424	-0.0604	-0.1477	0.9198	0.2719	-0.2551	-0.0806	0.235	-0.7285	-1.0742	-0.2484	-0.7687	-0.9836	-0.3827	-0.3693	-0.997	0.7285	-0.6479	1.3831	-0.4767	0.8057
-0.3558	-0.0537	-0.1813	0.856	0.2518	-0.2652	-0.0873	0.2618	-0.7117	-1.044	-0.2283	-0.7117	-0.9265	-0.4163	-0.376	-1.0474	0.809	-0.6076	1.5778	-0.527	0.95
-0.3424	-0.0269	-0.1779	0.8124	0.3122	-0.2551	-0.0134	0.2719	-0.6512	-0.9836	-0.1309	-0.6076	-0.8627	-0.4431	-0.3525	-1.0709	0.8661	-0.5606	1.7087	-0.5807	1.0742
-0.3458	-0.0403	-0.188	0.7016	0.2853	-0.3055	-0.0034	0.2618	-0.6244	-0.9399	-0.0671	-0.5942	-0.799	-0.4633	-0.3223	-1.0474	0.9164	-0.48	1.796	-0.611	1.185
-0.3625	-0.1376	-0.2316	0.5841	0.2182	-0.3592	-0.0168	0.2115	-0.6244	-0.9064	-0.0302	-0.5338	-0.762	-0.4868	-0.3424	-1.0574	0.9668	-0.4163	1.8228	-0.6546	1.2656
-0.3625	-0.2148	-0.2518	0.4733	0.1779	-0.3693	-0.047	0.2316	-0.5807	-0.8627	0.0201	-0.48	-0.6781	-0.5069	-0.3223	-1.0104	0.9769	-0.3525	1.8799	-0.6982	1.3226
-0.3726	-0.3088	-0.3055	0.3055	0.1276	-0.4163	-0.0671	0.2383	-0.5673	-0.8258	0.047	-0.4465	-0.6143	-0.4868	-0.3156	-0.9668	0.9634	-0.2786	1.89	-0.7251	1.3931
-0.3995	-0.4062	-0.376	0.1645	0.0806	-0.4666	-0.0705	0.2216	-0.5438	-0.7788	0.1041	-0.4062	-0.5237	-0.4733	-0.2954	-0.9299	0.9366	-0.2081	1.8732	-0.7385	1.4233
-0.3995	-0.4666	-0.3995	0.0336	0.0436	-0.4901	-0.0638	0.2148	-0.5338	-0.7385	0.1678	-0.3357	-0.4431	-0.4666	-0.2921	-0.8627	0.9131	-0.1343	1.8195	-0.7822	1.4066
-0.3625	-0.4565	-0.3928	-0.0369	0.0739	-0.5069	-0.0403	0.2417	-0.4968	-0.658	0.2316	-0.2686	-0.3491	-0.4297	-0.2753	-0.7822	0.8728	-0.047	1.7557	-0.7855	1.3797
-0.3256	-0.4028	-0.3693	-0.0705	0.1511	-0.4834	0.0168	0.2786	-0.4062	-0.5606	0.282	-0.188	-0.2417	-0.4196	-0.2451	-0.705	0.8191	0.0671	1.6919	-0.7889	1.3663
-0.282	-0.3122	-0.3558	-0.0873	0.2014	-0.4599	0.0906	0.3156	-0.3558	-0.4767	0.3256	-0.0839	-0.1846	-0.3995	-0.2249	-0.6177	0.7721	0.1511	1.618	-0.799	1.3193
-0.2451	-0.2316	-0.3156	-0.0806	0.2585	-0.4163	0.1309	0.3592	-0.2686	-0.3793	0.4028	-0.0067	-0.0369	-0.3659	-0.2283	-0.5472	0.7117	0.2551	1.5643	-0.7956	1.2756
-0.2216	-0.1645	-0.2786	-0.0571	0.2988	-0.3928	0.1511	0.376	-0.2182	-0.3223	0.4498	0.0571	0.0269	-0.3458	-0.2081	-0.433	0.6613	0.3793	1.4603	-0.7855	1.1951
-0.1578	-0.1108	-0.2786	-0.0772	0.3055	-0.3827	0.1544	0.3558	-0.1813	-0.2719	0.4633	0.094	0.1074	-0.3055	-0.2048	-0.3693	0.6009	0.4633	1.3528	-0.762	1.091
-0.1477	-0.0369	-0.2753	-0.1007	0.3391	-0.3558	0.1242	0.3928	-0.1443	-0.2081	0.5002	0.1443	0.1712	-0.2853	-0.1813	-0.3055	0.5539	0.5069	1.2152	-0.7285	0.997
-0.1544	0.0201	-0.2719	-0.188	0.3256	-0.3391	0.0671	0.3625	-0.1175	-0.1913	0.4901	0.1712	0.2316	-0.2518	-0.2048	-0.2618	0.4901	0.574	1.0373	-0.6815	0.8694
-0.1276	0.1074	-0.3122	-0.2618	0.3391	-0.3391	0.0168	0.3625	-0.0772	-0.1511	0.5304	0.2014	0.2753	-0.2081	-0.2148	-0.2014	0.4129	0.621	0.8392	-0.6143	0.7687
-0.1208	0.1276	-0.3189	-0.3894	0.2954	-0.3424	-0.0739	0.3491	-0.0403	-0.1477	0.517	0.2283	0.3223	-0.1846	-0.2484	-0.1947	0.3558	0.6546	0.611	-0.6177	0.6546
-0.1343	0.1376	-0.3357	-0.4767	0.2686	-0.3424	-0.1443	0.3223	-0.0201	-0.1007	0.5505	0.2618	0.3659	-0.1611	-0.2383	-0.1645	0.2853	0.6848	0.376	-0.5875	0.5405
-0.1746	0.1276	-0.3726	-0.5908	0.2148	-0.3458	-0.1947	0.282	-0.0269	-0.0705	0.5338	0.3122	0.3995	-0.1276	-0.2451	-0.1746	0.2316	0.7016	0.1678	-0.574	0.4633
-0.1947	0.0604	-0.376	-0.7285	0.1443	-0.3458	-0.2652	0.2216	-0.0336	-0.0436	0.5002	0.3122	0.4599	-0.0974	-0.2853	-0.2182	0.1846	0.7452	-0.0403	-0.5539	0.3726
-0.2417	0.0101	-0.4565	-0.8896	0.0436	-0.3726	-0.3894	0.1544	-0.047	-0.0369	0.4767	0.3223	0.4968	-0.0806	-0.3122	-0.2115	0.1611	0.7788	-0.235	-0.6076	0.3021
-0.2887	-0.0403	-0.4968	-1.0004	-0.047	-0.3827	-0.4633	0.0638	-0.0302	0.0134	0.4834	0.3323	0.5606	-0.0739	-0.3491	-0.235	0.1242	0.8057	-0.4297	-0.611	0.2115
-0.3323	-0.1108	-0.5371	-1.1548	-0.1511	-0.4263	-0.5237	0.0034	-0.0571	0.0269	0.4297	0.3189	0.5505	-0.0671	-0.386	-0.2887	0.1242	0.8224	-0.6512	-0.6613	0.1175
-0.3793	-0.1746	-0.5841	-1.2387	-0.2383	-0.4263	-0.5505	-0.0504	-0.0638	0.0806	0.3995	0.3391	0.5975	-0.0638	-0.4431	-0.3592	0.094	0.8325	-0.8459	-0.6781	0.0705
-0.4263	-0.2451	-0.611	-1.279	-0.3122	-0.4364	-0.5539	-0.1074	-0.0537	0.1208	0.3961	0.3659	0.6311	-0.0537	-0.4498	-0.4028	0.0772	0.8325	-1.044	-0.6882	0.0201
-0.48	-0.3021	-0.6177	-1.2723	-0.3995	-0.423	-0.5136	-0.1813	-0.0336	0.1746	0.386	0.4095	0.6915	-0.0235	-0.5035	-0.4431	0.047	0.856	-1.1884	-0.7016	-0.0269
-0.5203	-0.3793	-0.6445	-1.2219	-0.4532	-0.4263	-0.4398	-0.2148	-0.0403	0.2652	0.3558	0.4163	0.7016	-0.0369	-0.527	-0.4968	0.047	0.8392	-1.2958	-0.6915	-0.141
-0.5371	-0.4901	-0.6647	-1.1346	-0.5035	-0.423	-0.3256	-0.2786	-0.0101	0.3357	0.3424	0.433	0.7117	-0.0269	-0.5338	-0.527	0.0302	0.8292	-1.3629	-0.668	-0.235
-0.5338	-0.5539	-0.658	-0.9869	-0.517	-0.376	-0.1443	-0.2652	0.0302	0.4297	0.3458	0.4733	0.7587	-0.0134	-0.5203	-0.5472	0	0.8224	-1.3763	-0.621	-0.2954
-0.517	-0.6177	-0.621	-0.7654	-0.5002	-0.3458	0.047	-0.2719	0.047	0.5304	0.3693	0.4868	0.7822	-0.0067	-0.5002	-0.5807	0	0.8023	-1.3696	-0.5237	-0.3592
-0.5136	-0.6445	-0.5975	-0.5304	-0.47	-0.3021	0.2686	-0.2921	0.0873	0.6546	0.3558	0.5338	0.8325	-0.0034	-0.47	-0.5807	-0.0034	0.809	-1.3025	-0.3827	-0.4163
-0.4767	-0.6345	-0.5237	-0.2719	-0.3793	-0.2451	0.4834	-0.2686	0.1443	0.7889	0.4028	0.5774	0.8929	-0.0034	-0.3928	-0.5203	-0.0101	0.8157	-1.1884	-0.2048	-0.433
-0.423	-0.6177	-0.4935	-0.0336	-0.3525	-0.2048	0.6244	-0.2719	0.1846	0.8728	0.4163	0.6143	0.8762	-0.0034	-0.3458	-0.4901	0	0.8124	-1.0037	-0.0235	-0.4364
-0.376	-0.564	-0.433	0.1813	-0.2853	-0.1746	0.7922	-0.2853	0.2216	0.9836	0.4196	0.6479	0.9366	-0.0034	-0.2518	-0.423	0.0101	0.8191	-0.7788	0.1309	-0.423
-0.3458	-0.527	-0.4062	0.3491	-0.3156	-0.1645	0.8963	-0.3323	0.2283	1.0071	0.4028	0.6345	0.9332	-0.0302	-0.1813	-0.3693	0.0436	0.7855	-0.5002	0.2719	-0.4163
-0.282	-0.5069	-0.386	0.4767	-0.3491	-0.1141	0.9299	-0.3659	0.2316	1.0742	0.4129	0.6479	0.9399	-0.0403	-0.0806	-0.2988	0.0571	0.7587	-0.2283	0.4028	-0.4263
-0.2585	-0.5035	-0.3458	0.5304	-0.3793	-0.1208	0.9735	-0.433	0.2451	1.1044	0.3894	0.6613	0.9097	-0.0235	0.0101	-0.2115	0.0369	0.7486	0.0739	0.5673	-0.3928
-0.2081	-0.5069	-0.3223	0.517	-0.4767	-0.1276	0.9164	-0.5136	0.2451	1.1279	0.3693	0.6546	0.9097	-0.0067	0.0873	-0.1511	0.0134	0.7385	0.3424	0.7016	-0.3424
-0.1645	-0.4834	-0.282	0.48	-0.517	-0.1208	0.8728	-0.5539	0.2518	1.1481	0.3726	0.6546	0.8795	-0.0101	0.1981	-0.0739	-0.0201	0.7318	0.5673	0.8325	-0.2988
-0.1343	-0.4968	-0.2921	0.3458	-0.5908	-0.1175	0.7755	-0.5707	0.2686	1.1246	0.3592	0.6345	0.8594	0.0235	0.2484	0	-0.0504	0.7217	0.7486	0.9131	-0.2518
-0.1141	-0.5405	-0.2686	0.235	-0.6512	-0.1074	0.6546	-0.6076	0.2853	1.1279	0.3726	0.6546	0.8124	0.0436	0.3256	0.0504	-0.1074	0.7285	0.8963	1.0104	-0.2148
-0.0873	-0.5405	-0.2081	0.0974	-0.7251	-0.1041	0.527	-0.6177	0.2853	1.091	0.3391	0.6177	0.7721	0.0772	0.386	0.1141	-0.1578	0.7016	1.0004	1.0977	-0.2014
-0.0739	-0.5942	-0.1846	0.0101	-0.7755	-0.1074	0.423	-0.6378	0.2887	1.0574	0.3122	0.6042	0.7117	0.0873	0.4398	0.188	-0.188	0.6479	1.044	1.1279	-0.2216
-0.0369	-0.6311	-0.1477	-0.0436	-0.7956	-0.094	0.3256	-0.6512	0.2719	1.0138	0.2618	0.5774	0.6412	0.1108	0.5203	0.2518	-0.235	0.621	1.0306	1.2152	-0.2451
0.0168	-0.6613	-0.0739	-0.0201	-0.809	-0.0839	0.2719	-0.6613	0.2921	0.997	0.2182	0.574	0.574	0.1175	0.5673	0.3323	-0.2786	0.5573	0.9702	1.279	-0.3021
0.0739	-0.5841	0.0403	0.0235	-0.7587	-0.0168	0.235	-0.5975	0.3391	0.9702	0.1746	0.5841	0.5103	0.1477	0.621	0.3793	-0.3122	0.5136	0.8829	1.3327	-0.3928
0.1511	-0.4733	0.1141	0.1276	-0.6647	0.0403	0.2014	-0.5371	0.3827	0.9534	0.1645	0.5942	0.4565	0.1712	0.6378	0.4498	-0.3491	0.4599	0.7486	1.326	-0.4733
0.2652	-0.3055	0.2551	0.2048	-0.4935	0.1175	0.1712	-0.4398	0.4465	0.9232	0.1511	0.6042	0.4095	0.188	0.7016	0.5338	-0.3995	0.4028	0.6345	1.3596	-0.5304
0.386	-0.1108	0.3894	0.3122	-0.3458	0.2283	0.141	-0.3122	0.5136	0.8997	0.1343	0.611	0.3391	0.2115	0.7117	0.6042	-0.433	0.3458	0.4901	1.3461	-0.6244
0.4834	0.1007	0.5069	0.3928	-0.1712	0.3055	0.1007	-0.2182	0.5875	0.8795	0.1074	0.6311	0.2686	0.2249	0.7452	0.6512	-0.4733	0.2719	0.4062	1.3126	-0.6882
0.6042	0.3256	0.6345	0.423	0	0.3961	0.0839	-0.1208	0.6546	0.8426	0.0638	0.6244	0.1913	0.2451	0.7822	0.7352	-0.5069	0.2115	0.3558	1.2622	-0.7956
0.7016	0.4666	0.7654	0.3928	0.1712	0.4733	0.0269	-0.0839	0.7251	0.8057	0.0369	0.6345	0.1242	0.2719	0.8157	0.7855	-0.5338	0.1309	0.2921	1.1615	-0.8829
0.7822	0.5807	0.8627	0.329	0.2652	0.5405	0.0034	-0.047	0.7452	0.7788	-0.0302	0.6042	0.0436	0.2719	0.8728	0.8997	-0.5539	0.0302	0.2551	1.1111	-1.0004
0.8527	0.6076	0.9299	0.2417	0.3088	0.5975	-0.0369	-0.0201	0.7755	0.7654	-0.1242	0.574	-0.0269	0.2719	0.9164	0.9668	-0.5438	-0.047	0.2182	1.0104	-1.1044
0.8795	0.5707	0.9769	0.1007	0.3323	0.6445	-0.0604	-0.0235	0.7822	0.715	-0.2249	0.5539	-0.1074	0.2585	0.9567	1.0507	-0.5136	-0.141	0.1913	0.9064	-1.1984
0.9534	0.5472	1.0339	0.0403	0.3458	0.6815	-0.0436	-0.0436	0.7956	0.715	-0.3189	0.4901	-0.1645	0.2451	0.9937	1.1246	-0.47	-0.2283	0.1712	0.799	-1.3058
0.9802	0.4666	1.1044	0.0134	0.3525	0.7452	-0.0336	-0.0873	0.8224	0.7016	-0.4163	0.4599	-0.235	0.2148	1.0306	1.1749	-0.4297	-0.3021	0.1578	0.715	-1.4133
1.0205	0.3894	1.1615	0.0269	0.3558	0.7889	-0.0067	-0.1242	0.8426	0.7083	-0.4968	0.4398	-0.3122	0.1846	1.0944	1.2253	-0.3726	-0.376	0.1276	0.6143	-1.4871
1.0709	0.3525	1.2286	0.0705	0.3122	0.8426	0.0101	-0.1746	0.8157	0.705	-0.5841	0.3995	-0.3558	0.1544	1.1246	1.2958	-0.3223	-0.4666	0.0034	0.5069	-1.5375
1.1212	0.3122	1.2521	0.1376	0.3088	0.8627	0.0369	-0.2115	0.8157	0.6714	-0.6781	0.3525	-0.423	0.1208	1.1615	1.3025	-0.2451	-0.564	-0.1645	0.4062	-1.5878
1.1951	0.3491	1.326	0.2853	0.3323	0.9467	0.1074	-0.2283	0.8292	0.6982	-0.7117	0.3693	-0.4398	0.0873	1.2119	1.3461	-0.1913	-0.6277	-0.329	0.3223	-1.5744
1.232	0.4129	1.3998	0.4297	0.3458	0.9702	0.1611	-0.2484	0.856	0.6714	-0.7385	0.3491	-0.5069	0.0336	1.2152	1.373	-0.0974	-0.7016	-0.5069	0.2283	-1.5543
1.3025	0.527	1.4871	0.5942	0.3995	1.0641	0.2551	-0.2518	0.8963	0.7083	-0.7721	0.3659	-0.5203	-0.0101	1.2723	1.3663	0.0067	-0.7687	-0.7016	0.1511	-1.5207
1.3495	0.6076	1.5475	0.8023	0.433	1.1212	0.3659	-0.2719	0.9399	0.762	-0.8057	0.3625	-0.5371	-0.0705	1.2723	1.3629	0.1343	-0.8292	-0.8627	0.0436	-1.4569
1.4301	0.7016	1.6348	1.0474	0.4431	1.2152	0.5304	-0.2786	0.9735	0.8426	-0.809	0.3894	-0.517	-0.1276	1.3092	1.3831	0.2451	-0.8594	-0.9836	-0.0134	-1.3998
1.4938	0.762	1.7087	1.2085	0.4398	1.3025	0.7016	-0.2786	1.0138	0.9064	-0.8392	0.4095	-0.4901	-0.188	1.3562	1.3763	0.3659	-0.8728	-1.1246	-0.0806	-1.3596
1.5509	0.752	1.7422	1.4032	0.4196	1.3461	0.8694	-0.3156	1.0474	1.0004	-0.8661	0.4263	-0.4599	-0.2652	1.3931	1.3461	0.5069	-0.9265	-1.2354	-0.1276	-1.3159
1.6516	0.7889	1.8396	1.5878	0.4633	1.4502	1.0944	-0.2887	1.1414	1.1414	-0.8359	0.4733	-0.3995	-0.3156	1.4569	1.3629	0.611	-0.9299	-1.326	-0.1343	-1.2354
1.7188	0.8392	1.9202	1.749	0.5304	1.5274	1.3092	-0.2719	1.2085	1.2723	-0.809	0.5371	-0.3122	-0.376	1.4972	1.3495	0.7251	-0.8862	-1.3361	-0.1343	-1.1749
1.7792	0.9802	1.9873	1.8799	0.6613	1.6516	1.5207	-0.1678	1.3126	1.4301	-0.7352	0.6378	-0.1779	-0.4028	1.5543	1.3763	0.7922	-0.8627	-1.3058	-0.0638	-1.0977
1.8597	1.1179	2.0746	1.9907	0.7956	1.759	1.7053	-0.047	1.4368	1.5979	-0.658	0.7486	-0.0604	-0.4196	1.5912	1.3797	0.8426	-0.809	-1.2521	-0.0235	-1.0306
1.9202	1.2958	2.182	2.0578	0.9433	1.8597	1.8295	0.0571	1.5106	1.7154	-0.5707	0.8057	0.0369	-0.4565	1.6046	1.3763	0.8829	-0.7721	-1.1884	0.0235	-0.9937
1.9839	1.4804	2.2391	2.1786	1.1615	1.9873	1.9974	0.2182	1.6449	1.8564	-0.4633	0.9232	0.1309	-0.4565	1.6214	1.4166	0.8829	-0.715	-1.0742	0.0739	-0.9601
2.0444	1.6785	2.2928	2.3364	1.3528	2.1082	2.1451	0.3357	1.7557	2.0142	-0.386	1.0172	0.2551	-0.4465	1.6348	1.4368	0.8728	-0.6345	-0.9567	0.1175	-0.9467
2.1048	1.8295	2.3834	2.5009	1.5073	2.1854	2.3062	0.4733	1.853	2.1317	-0.2853	1.1212	0.3458	-0.4263	1.6214	1.4267	0.8627	-0.6042	-0.8493	0.1175	-0.9332
2.1484	1.9537	2.4371	2.7057	1.6718	2.2928	2.4573	0.5975	1.9571	2.2827	-0.1846	1.1917	0.4498	-0.4263	1.5878	1.4636	0.856	-0.5472	-0.762	0.1511	-0.9131
2.1619	2.0444	2.4841	2.9037	1.8329	2.3666	2.6285	0.7016	2.0544	2.3935	-0.0604	1.3226	0.5807	-0.423	1.561	1.4771	0.8292	-0.4666	-0.6613	0.1511	-0.9064
2.1921	2.0813	2.5177	3.1219	1.9168	2.4506	2.7863	0.8359	2.1484	2.4774	0.0671	1.4099	0.6982	-0.4196	1.5643	1.5475	0.8057	-0.4263	-0.6042	0.1712	-0.8728
2.182	2.1115	2.5513	3.3267	1.9839	2.4908	2.9306	0.9702	2.2256	2.5848	0.1913	1.514	0.7755	-0.4062	1.5073	1.5442	0.7956	-0.3625	-0.6042	0.2014	-0.8023
2.1484	2.0746	2.5278	3.461	1.9974	2.5076	3.0212	1.0709	2.2894	2.6553	0.3021	1.5744	0.8627	-0.3928	1.4737	1.5341	0.7788	-0.2954	-0.6412	0.2451	-0.7687
2.1552	2.0847	2.5412	3.5986	2.041	2.5479	3.085	1.1783	2.3566	2.7258	0.4364	1.6718	0.9399	-0.3995	1.4267	1.571	0.7587	-0.2518	-0.6781	0.282	-0.6546
2.1249	2.0377	2.5513	3.6826	2.0847	2.5815	3.1085	1.2958	2.4203	2.7728	0.5707	1.7422	1.0104	-0.3659	1.3495	1.5744	0.7184	-0.1746	-0.7083	0.3525	-0.5673
2.088	1.9974	2.511	3.6725	2.0947	2.5748	3.1018	1.4133	2.4472	2.756	0.6714	1.806	1.0339	-0.3458	1.279	1.5677	0.6747	-0.1343	-0.7117	0.4028	-0.48
2.0578	1.9806	2.5345	3.6389	2.1384	2.6151	3.0515	1.4804	2.5009	2.7829	0.7755	1.8631	1.0675	-0.3088	1.1884	1.5442	0.6076	-0.0974	-0.668	0.4565	-0.3928
2.0377	1.9437	2.5043	3.5449	2.1552	2.6016	2.9541	1.5576	2.5177	2.7124	0.8527	1.9336	1.1078	-0.2921	1.1581	1.5509	0.5573	-0.0705	-0.5774	0.4868	-0.2753
2.0108	1.8564	2.5177	3.4341	2.1619	2.6318	2.8568	1.6248	2.5613	2.7023	0.95	2.0041	1.138	-0.2484	1.0742	1.5106	0.4733	-0.0034	-0.4263	0.5103	-0.1477
1.9437	1.7456	2.4539	3.2394	2.1149	2.5815	2.7393	1.6382	2.5647	2.6352	0.9769	2.0377	1.1414	-0.235	1.0205	1.4804	0.4532	0	-0.2988	0.517	-0.0806
1.8665	1.618	2.4136	3.085	2.0175	2.5446	2.6117	1.5912	2.5278	2.5714	0.9601	2.0175	1.1313	-0.2216	0.9601	1.4569	0.433	-0.0101	-0.1813	0.5136	-0.0034
1.8094	1.4435	2.3767	2.934	1.8765	2.5345	2.5043	1.5341	2.5278	2.5244	0.9332	2.0377	1.1279	-0.2216	0.8963	1.4099	0.433	0.0034	-0.0201	0.5136	0.0504
1.7422	1.2521	2.3129	2.7661	1.7221	2.4908	2.4237	1.4133	2.511	2.4573	0.8728	2.041	1.0977	-0.2383	0.809	1.3663	0.47	0.0034	0.1276	0.5002	0.0772
1.6885	1.0675	2.2827	2.699	1.6214	2.4405	2.37	1.3025	2.4741	2.4069	0.8224	2.0209	1.1011	-0.2652	0.7385	1.3327	0.5069	-0.0269	0.2954	0.4767	0.0906
1.6348	0.9467	2.2659	2.6218	1.5005	2.417	2.3599	1.1615	2.4472	2.3868	0.7486	2.0309	1.0876	-0.2853	0.6982	1.3126	0.5438	-0.0168	0.47	0.4901	0.0705
1.6013	0.8191	2.2559	2.5378	1.4133	2.4271	2.4002	1.1078	2.4237	2.3969	0.6882	2.0108	1.0809	-0.3055	0.6546	1.2958	0.5573	-0.0201	0.6512	0.5069	0.0403
1.5744	0.6949	2.2424	2.4136	1.3126	2.4103	2.3901	1.0004	2.4136	2.3969	0.5942	2.0209	1.1044	-0.3189	0.5774	1.2387	0.6076	-0.0067	0.7755	0.4968	-0.0134
1.5375	0.6244	2.2391	2.2961	1.2689	2.3868	2.3734	0.903	2.3901	2.37	0.5002	1.9907	1.1212	-0.3391	0.5103	1.2018	0.6445	-0.0436	0.8997	0.4834	-0.0638
1.4737	0.5908	2.2223	2.1014	1.2689	2.37	2.3264	0.8292	2.3465	2.3633	0.4431	2.0007	1.1111	-0.3424	0.4565	1.1716	0.6714	-0.0369	1.0239	0.4868	-0.1141
1.4703	0.5606	2.2122	1.8765	1.2857	2.3431	2.2491	0.7721	2.3297	2.3398	0.3693	2.0074	1.0977	-0.3424	0.3894	1.1682	0.6848	-0.047	1.1514	0.48	-0.1376
1.4435	0.5539	2.1921	1.6113	1.2756	2.3062	2.1249	0.705	2.2861	2.3129	0.3122	1.9974	1.1078	-0.3525	0.3592	1.1011	0.6982	-0.0504	1.2656	0.4901	-0.1544
1.4066	0.517	2.1585	1.3461	1.2253	2.2659	2.0276	0.6277	2.2391	2.2894	0.2652	1.9672	1.091	-0.3659	0.329	1.0675	0.715	-0.0806	1.3461	0.4733	-0.2182
1.3327	0.4733	2.1249	1.0541	1.1615	2.2189	1.9067	0.5304	2.2055	2.2592	0.1746	1.9638	1.0776	-0.3793	0.2417	0.9937	0.752	-0.0839	1.3428	0.4834	-0.2585
1.3126	0.4431	2.0847	0.8359	1.1212	2.1719	1.7758	0.4666	2.1451	2.2189	0.1074	1.9302	1.044	-0.4028	0.1678	0.9265	0.7855	-0.1041	1.3058	0.4868	-0.2786
1.3226	0.4364	2.0612	0.6177	1.044	2.1484	1.665	0.4196	2.1048	2.2021	0.0906	1.9067	1.0641	-0.4095	0.1175	0.8527	0.7956	-0.1074	1.2051	0.5035	-0.2853
1.2823	0.4733	2.0511	0.4599	1.0037	2.1149	1.5509	0.3827	2.0544	2.1585	0.0739	1.8765	1.0608	-0.4163	0.1041	0.8124	0.8023	-0.0604	1.0406	0.5103	-0.2719
1.2991	0.527	2.0343	0.3726	1.0004	2.0813	1.4368	0.386	2.0242	2.135	0.0739	1.8631	1.091	-0.433	0.0604	0.7318	0.8292	-0.0604	0.856	0.4834	-0.2585
1.2924	0.658	2.0511	0.2786	1.0474	2.0712	1.3293	0.4163	1.9974	2.088	0.1041	1.8631	1.0776	-0.423	0.0101	0.6882	0.8057	-0.0201	0.6345	0.5203	-0.2451
1.3092	0.8325	2.0612	0.2383	1.1649	2.0645	1.2656	0.4834	2.0209	2.0813	0.1611	1.8732	1.0944	-0.4129	0.0101	0.6378	0.7956	0.0235	0.4431	0.5136	-0.2048
1.3159	1.0272	2.0612	0.2719	1.2991	2.0746	1.185	0.6177	2.0209	2.0477	0.2249	1.8665	1.1179	-0.3961	-0.0235	0.611	0.7755	0.0974	0.2283	0.5405	-0.1779
1.3596	1.2589	2.0779	0.3391	1.4636	2.0712	1.1279	0.715	1.9974	2.0108	0.2988	1.8631	1.091	-0.3793	-0.0134	0.5673	0.7452	0.141	0.0235	0.5942	-0.1544
1.3864	1.4536	2.0947	0.4398	1.5677	2.0746	1.0944	0.7922	1.994	1.9705	0.3693	1.8698	1.1145	-0.3693	-0.0235	0.5472	0.7217	0.1746	-0.1645	0.6277	-0.141
1.3898	1.6281	2.0645	0.5371	1.665	2.0444	1.1078	0.8594	1.9705	1.9302	0.4364	1.8564	1.1078	-0.3558	-0.0369	0.5438	0.6915	0.2182	-0.3458	0.658	-0.1645
1.4099	1.7389	2.0511	0.6915	1.7154	1.994	1.1246	0.9097	1.937	1.89	0.5002	1.8195	1.1011	-0.3256	-0.0571	0.5472	0.6546	0.2686	-0.4633	0.6882	-0.1544
1.3797	1.749	2.0175	0.8124	1.7188	1.9604	1.1481	0.9299	1.89	1.8228	0.5438	1.8195	1.091	-0.329	-0.0638	0.5438	0.6479	0.2719	-0.517	0.6882	-0.1645
1.3394	1.7255	1.9705	0.9567	1.6885	1.8967	1.1514	0.9131	1.8497	1.7792	0.5841	1.7456	1.0608	-0.3189	-0.0739	0.5505	0.6277	0.2921	-0.5237	0.6848	-0.1578
1.2924	1.655	1.8732	1.0709	1.5878	1.7993	1.1346	0.8661	1.749	1.665	0.5841	1.665	1.0071	-0.3357	-0.0873	0.5707	0.6546	0.2686	-0.48	0.658	-0.1813
1.2891	1.5274	1.8161	1.2387	1.5005	1.6953	1.1649	0.8124	1.6919	1.6315	0.6009	1.6113	0.997	-0.3424	-0.0671	0.5774	0.6747	0.2719	-0.376	0.6546	-0.1511
1.2622	1.3898	1.749	1.4267	1.3394	1.6382	1.2152	0.7285	1.5979	1.6046	0.6177	1.5576	0.9634	-0.3726	-0.0671	0.6244	0.7318	0.2585	-0.235	0.6177	-0.1443
1.2723	1.2723	1.7053	1.6718	1.2018	1.5845	1.3126	0.6479	1.5643	1.5744	0.6412	1.524	0.9601	-0.3928	-0.0302	0.7083	0.7755	0.2316	-0.0436	0.6076	-0.1208
1.2891	1.1481	1.6718	1.9672	1.0776	1.5308	1.4703	0.5841	1.5308	1.5778	0.6546	1.4871	0.9534	-0.433	-0.0168	0.7352	0.856	0.2014	0.1913	0.564	-0.0839
1.3361	1.0507	1.6583	2.276	0.9567	1.524	1.6718	0.5673	1.5677	1.6315	0.7285	1.4938	0.9869	-0.47	0.047	0.8392	0.9131	0.1981	0.5035	0.5338	0.0201
1.3763	0.9232	1.6953	2.5748	0.8191	1.4972	1.8362	0.4968	1.5442	1.6785	0.7654	1.4938	0.9869	-0.5237	0.0571	0.8627	1.0138	0.1578	0.7419	0.5237	0.0806
1.4166	0.8057	1.6953	2.8568	0.752	1.5375	2.0779	0.5136	1.5811	1.749	0.8057	1.5106	1.0272	-0.5438	0.1175	0.9399	1.0809	0.1645	1.0037	0.5237	0.1443
1.4737	0.7452	1.7288	3.1253	0.7117	1.5543	2.3129	0.5338	1.6348	1.8463	0.8694	1.5341	1.0809	-0.5807	0.1511	0.9802	1.1447	0.1611	1.2085	0.5438	0.2316
1.524	0.6982	1.7926	3.3133	0.6982	1.5945	2.5244	0.5841	1.6684	1.9403	0.9332	1.5744	1.091	-0.621	0.1981	1.0474	1.2119	0.1511	1.3629	0.5371	0.3088
1.5811	0.7385	1.806	3.5013	0.7419	1.6617	2.7325	0.7016	1.7422	2.0175	1.0205	1.6281	1.1346	-0.6244	0.2518	1.0977	1.2488	0.1813	1.4636	0.564	0.3928
1.6348	0.8157	1.89	3.6188	0.856	1.7288	2.8937	0.8258	1.8295	2.1249	1.1044	1.6718	1.1716	-0.668	0.2618	1.1179	1.2924	0.1779	1.5274	0.5908	0.4565
1.6986	0.9467	1.9638	3.696	0.997	1.8127	3.0313	0.9869	1.9269	2.182	1.1984	1.7188	1.2018	-0.668	0.2719	1.1246	1.3025	0.1712	1.5442	0.6143	0.5606
1.7557	1.1346	2.0276	3.7531	1.1615	1.8698	3.0984	1.1481	1.9907	2.2391	1.2823	1.7691	1.2286	-0.668	0.2753	1.1615	1.2958	0.2014	1.5375	0.6512	0.6345
1.8161	1.3293	2.1149	3.7866	1.3327	1.9672	3.1354	1.2857	2.0578	2.2961	1.3663	1.7825	1.2421	-0.6378	0.3021	1.1447	1.2723	0.2048	1.5509	0.6882	0.6982
1.8329	1.5106	2.1686	3.7161	1.4871	1.9907	3.1387	1.3898	2.0779	2.2995	1.4166	1.7422	1.2454	-0.6512	0.2249	1.0709	1.2823	0.1645	1.5106	0.6714	0.7486
1.8631	1.6751	2.1887	3.6322	1.6147	2.0309	3.075	1.4804	2.1014	2.2861	1.4569	1.7288	1.1951	-0.6345	0.2048	1.0339	1.2656	0.1746	1.514	0.6647	0.8057
1.8665	1.7825	2.2223	3.4644	1.7087	2.0712	2.9575	1.5509	2.1048	2.2559	1.4804	1.6885	1.1649	-0.6311	0.1813	0.9869	1.2387	0.1477	1.5005	0.6479	0.8459
1.8597	1.8631	2.1686	3.2394	1.7892	2.0377	2.803	1.5543	2.0544	2.182	1.4938	1.618	1.1078	-0.6143	0.1443	0.9064	1.2152	0.1108	1.4737	0.6009	0.8426
1.8329	1.9235	2.1518	2.9306	1.8161	1.9806	2.6083	1.5543	2.0074	2.0679	1.4871	1.5308	1.0037	-0.6244	0.094	0.7956	1.2219	0.0705	1.4905	0.5707	0.8527
1.806	1.9537	2.0712	2.6083	1.8362	1.9101	2.3532	1.5308	1.9269	1.9504	1.4603	1.4133	0.903	-0.611	0.0537	0.7117	1.2051	0.0067	1.4972	0.517	0.8527
1.759	1.9839	1.9772	2.2559	1.8799	1.8396	2.0813	1.5106	1.8597	1.7825	1.4301	1.3092	0.8191	-0.6177	0.0067	0.611	1.1951	-0.0369	1.4871	0.4565	0.8527
1.6852	1.9974	1.8967	1.8631	1.8933	1.7624	1.7691	1.4871	1.7657	1.6281	1.3931	1.1917	0.7083	-0.6042	-0.0336	0.4935	1.1783	-0.094	1.4703	0.3793	0.8728
1.6147	1.9638	1.806	1.4737	1.9	1.6483	1.4536	1.4703	1.6449	1.4603	1.3495	1.0574	0.5807	-0.6042	-0.0806	0.376	1.1783	-0.1779	1.4334	0.3223	0.8829
1.5509	1.947	1.6919	1.1414	1.8765	1.5509	1.1884	1.4502	1.5408	1.3193	1.3293	0.9164	0.4498	-0.5942	-0.1141	0.3088	1.1447	-0.2249	1.4267	0.2652	0.9534
1.4838	1.8832	1.6046	0.8527	1.8732	1.4703	0.9903	1.4267	1.4536	1.1749	1.3092	0.8157	0.3458	-0.5875	-0.1712	0.1846	1.1414	-0.2853	1.4066	0.2081	1.0239
1.4301	1.7758	1.514	0.6747	1.8161	1.373	0.7687	1.4334	1.3461	1.0675	1.2924	0.6982	0.2417	-0.5774	-0.2048	0.0974	1.1044	-0.3391	1.4166	0.1813	1.1212
1.42	1.6751	1.4502	0.5472	1.796	1.326	0.658	1.4569	1.2891	0.9869	1.2857	0.6412	0.1813	-0.564	-0.2182	0.0134	1.0809	-0.376	1.4032	0.1578	1.1917
1.3159	1.571	1.3965	0.5069	1.7657	1.2622	0.5438	1.4905	1.2421	0.9265	1.3193	0.564	0.1443	-0.5673	-0.2719	-0.094	1.0776	-0.4095	1.373	0.2115	1.2555
1.3226	1.4838	1.3596	0.5472	1.7892	1.2589	0.5203	1.5576	1.2454	0.8929	1.373	0.5438	0.1141	-0.5438	-0.2853	-0.141	1.044	-0.433	1.3696	0.2618	1.3361
1.3025	1.4133	1.3663	0.5807	1.8262	1.2656	0.5136	1.6583	1.2689	0.9332	1.4804	0.5774	0.1443	-0.5237	-0.2786	-0.1913	1.0104	-0.4163	1.3126	0.3625	1.4334
1.3058	1.3394	1.3864	0.6445	1.9034	1.2891	0.5707	1.7926	1.3058	0.9265	1.5845	0.611	0.1611	-0.4968	-0.282	-0.2383	0.9735	-0.4297	1.2521	0.4364	1.5039
1.2891	1.3025	1.3998	0.7251	1.9873	1.3293	0.6345	1.9101	1.3831	0.9769	1.6953	0.6915	0.2417	-0.4935	-0.2853	-0.2686	0.9668	-0.4095	1.1716	0.5069	1.5509
1.2991	1.2958	1.4401	0.7788	2.0847	1.42	0.7352	2.0578	1.4737	1.0675	1.8396	0.8023	0.3122	-0.4834	-0.2954	-0.3357	0.9332	-0.3928	1.1145	0.6143	1.6113
1.3126	1.3159	1.4838	0.903	2.2021	1.5073	0.8661	2.2055	1.6046	1.1816	1.9739	0.9366	0.3961	-0.4733	-0.2921	-0.3323	0.9131	-0.3592	1.0574	0.7385	1.655
1.3193	1.3864	1.5475	1.0037	2.37	1.6013	1.0138	2.3633	1.7557	1.326	2.1552	1.0809	0.5371	-0.4532	-0.3122	-0.3625	0.8728	-0.3189	1.0574	0.8325	1.6986
1.3461	1.4938	1.6315	1.0742	2.5244	1.7221	1.1246	2.5143	1.9135	1.4603	2.3163	1.2521	0.6781	-0.4398	-0.3323	-0.3827	0.8325	-0.2719	1.0507	0.9399	1.702
1.4066	1.6348	1.7188	1.1884	2.6855	1.8665	1.2354	2.6654	2.0847	1.6147	2.5009	1.4938	0.8527	-0.3894	-0.3491	-0.3793	0.7654	-0.1913	1.0944	1.0709	1.6885
1.3965	1.7758	1.7725	1.279	2.8265	1.9705	1.3696	2.8165	2.2961	1.7389	2.6855	1.7422	1.0541	-0.3726	-0.4028	-0.4532	0.705	-0.1276	1.1313	1.1581	1.6852
1.4166	1.9	1.8597	1.3831	2.9507	2.1115	1.4838	2.9071	2.4774	1.8933	2.85	2.0007	1.2656	-0.329	-0.4633	-0.4868	0.6378	-0.0201	1.1581	1.2488	1.655
1.4401	2.0813	1.9168	1.5173	3.085	2.2458	1.6449	3.0246	2.709	2.0544	3.0615	2.3029	1.4938	-0.282	-0.5472	-0.5136	0.5371	0.1141	1.1615	1.3596	1.5979
1.3931	2.1283	1.9504	1.6046	3.1354	2.3532	1.7456	3.1387	2.9004	2.2021	3.2529	2.6251	1.7355	-0.2383	-0.6747	-0.6177	0.4465	0.2585	1.1011	1.467	1.5576
1.4066	2.2122	1.9873	1.7422	3.2025	2.4774	1.8967	3.226	3.1387	2.3935	3.4778	2.9608	2.041	-0.1712	-0.752	-0.6848	0.3189	0.4297	1.0809	1.5744	1.524
1.3528	2.2458	2.0074	1.8497	3.1992	2.5815	2.0477	3.3536	3.3704	2.5479	3.7128	3.2999	2.3398	-0.1007	-0.8795	-0.7587	0.1813	0.6076	1.0272	1.6785	1.5039
1.2991	2.2491	2.0007	1.9034	3.1992	2.6855	2.1585	3.4207	3.5919	2.7393	3.9243	3.6758	2.6318	-0.0403	-1.0138	-0.8661	0.0504	0.8292	0.9668	1.8094	1.5073
1.2656	2.2592	2.0309	2.0108	3.1924	2.8198	2.3331	3.4811	3.8336	2.9575	4.1559	4.0652	2.9742	0.047	-1.1346	-0.9299	-0.1141	1.0541	0.9601	1.9235	1.4871
1.2152	2.276	2.0511	2.0444	3.1891	2.9071	2.4942	3.5382	4.0955	3.1891	4.3842	4.4781	3.3267	0.1208	-1.2689	-1.0172	-0.2618	1.3058	0.9366	2.0679	1.4838
1.1313	2.2458	1.9974	2.0276	3.1555	2.9742	2.6083	3.5684	4.3002	3.4006	4.5721	4.8407	3.6658	0.2014	-1.4066	-1.0742	-0.4028	1.5543	0.9232	2.1484	1.4468
1.0507	2.2223	1.994	1.9135	3.1287	3.0347	2.6855	3.6322	4.5117	3.5919	4.7668	5.1965	4.0048	0.2719	-1.5442	-1.2018	-0.5505	1.8161	0.9097	2.2626	1.4032
0.9265	2.1786	1.9403	1.7557	3.0984	3.0682	2.7426	3.6456	4.6997	3.7665	4.928	5.5423	4.317	0.3458	-1.6885	-1.2622	-0.6949	2.0612	0.9164	2.3465	1.3461
0.8325	2.1082	1.8698	1.5341	3.0716	3.0984	2.7393	3.6826	4.8743	3.9343	5.0891	5.8612	4.6158	0.4263	-1.8665	-1.3965	-0.8594	2.3062	0.9467	2.4304	1.2521
0.6915	2.0142	1.7523	1.2891	3.0313	3.1085	2.7292	3.6725	5.0186	4.072	5.1865	6.1566	4.9078	0.4733	-2.0276	-1.5106	-0.9769	2.5412	0.9634	2.4741	1.1615
0.574	1.9034	1.6718	1.0944	2.9977	3.1152	2.7057	3.6993	5.1865	4.2029	5.304	6.4386	5.21	0.5438	-2.1585	-1.6315	-1.1044	2.7527	0.9702	2.558	1.0742
0.4196	1.7657	1.608	0.9399	2.9407	3.1219	2.7292	3.6926	5.3174	4.3909	5.4248	6.7206	5.5457	0.6009	-2.3129	-1.7389	-1.2051	2.9877	0.9735	2.6385	0.9903
0.3558	1.6348	1.561	0.8527	2.9507	3.1689	2.8467	3.7564	5.4987	4.6057	5.5457	7.0059	5.8377	0.6546	-2.4405	-1.8027	-1.3058	3.1924	0.9836	2.7292	0.9131
0.2618	1.5912	1.524	0.8426	2.9877	3.2327	3.0145	3.8168	5.7001	4.8273	5.6564	7.2644	6.16	0.6848	-2.558	-1.8698	-1.373	3.4341	1.0205	2.8534	0.8292
0.2283	1.5677	1.5811	0.9164	3.0716	3.3301	3.2327	3.9276	5.9317	5.0958	5.7974	7.5397	6.489	0.7184	-2.6117	-1.9403	-1.4401	3.6456	1.0474	2.9541	0.7452
0.2484	1.6046	1.6248	1.0809	3.1992	3.4778	3.5315	4.0552	6.1835	5.4382	5.9518	7.8519	6.8381	0.7419	-2.6822	-1.9739	-1.5039	3.8739	1.0507	3.1052	0.668
0.3021	1.6852	1.759	1.3092	3.3401	3.6624	3.847	4.2532	6.4554	5.7739	6.1063	8.1406	7.2174	0.7822	-2.6923	-1.9604	-1.5442	4.1122	0.9937	3.2629	0.6277
0.3323	1.759	1.8866	1.6449	3.555	3.884	4.1827	4.4345	6.7239	6.1063	6.2775	8.4293	7.5766	0.7855	-2.6654	-1.9302	-1.5912	4.3372	0.9534	3.4241	0.5505
0.4498	1.8799	2.0847	2.0377	3.7363	4.1324	4.5486	4.6863	7.0193	6.452	6.452	8.7146	7.9459	0.8057	-2.6117	-1.8665	-1.6248	4.5453	0.903	3.5751	0.4935
0.6345	1.9672	2.3364	2.5043	3.9478	4.4211	4.9615	4.9313	7.3651	6.7978	6.6434	9.0033	8.3017	0.8224	-2.5412	-1.7993	-1.6449	4.7635	0.8694	3.7799	0.4532
0.8191	2.1216	2.5983	3.0011	4.1861	4.7299	5.3677	5.21	7.7042	7.1671	6.8515	9.2886	8.6844	0.8057	-2.4069	-1.6953	-1.6382	4.9313	0.8594	3.9276	0.4028
1.044	2.2928	2.9272	3.5416	4.4177	5.0891	5.8008	5.4852	8.0466	7.5531	7.0596	9.5471	9.0536	0.8224	-2.2424	-1.5207	-1.6516	5.1126	0.8157	4.0887	0.3223
1.3461	2.4808	3.2831	4.0887	4.6762	5.502	6.2271	5.7806	8.4528	7.9559	7.2409	9.8358	9.4296	0.8124	-2.0209	-1.3226	-1.618	5.3006	0.799	4.2532	0.2148
1.6785	2.7023	3.7195	4.5822	4.9347	5.8914	6.6434	6.1063	8.8623	8.3218	7.4725	10.101	9.8056	0.809	-1.7691	-1.1212	-1.6214	5.4785	0.7889	4.411	0.1007
2.0041	2.9541	4.1324	5.0421	5.1932	6.3412	7.0328	6.3983	9.2584	8.7314	7.6907	10.3931	10.1782	0.8023	-1.4938	-0.8795	-1.5912	5.6229	0.7654	4.5856	-0.0235
2.4136	3.2764	4.6259	5.4752	5.4987	6.8616	7.4188	6.7542	9.7284	9.1443	7.9224	10.675	10.5475	0.8057	-1.1951	-0.5908	-1.6147	5.784	0.7788	4.7668	-0.1376
2.887	3.6456	5.126	5.8679	5.8914	7.402	7.8284	7.1301	10.1849	9.5807	8.1842	10.9671	10.9134	0.809	-0.8224	-0.2887	-1.6113	5.8948	0.7889	4.9783	-0.2417
3.3569	4.082	5.69	6.2204	6.3278	7.9492	8.2111	7.533	10.6818	10.0339	8.483	11.2927	11.3229	0.8157	-0.4633	0.0436	-1.6281	6.0056	0.8057	5.1495	-0.376
3.8605	4.5016	6.2674	6.5729	6.7508	8.5602	8.6072	7.9559	11.2054	10.4871	8.7616	11.6217	11.7056	0.8191	-0.0739	0.376	-1.6449	6.0995	0.9131	5.3745	-0.48
4.4043	4.9615	6.8817	6.9287	7.1973	9.1812	9.0503	8.3957	11.7426	10.9805	9.0536	11.944	12.1017	0.8426	0.329	0.7553	-1.6751	6.1868	1.0541	5.5557	-0.564
4.9347	5.3879	7.4759	7.251	7.627	9.7855	9.4565	8.7952	12.2696	11.427	9.3356	12.2226	12.4744	0.8392	0.7452	1.1246	-1.6751	6.2238	1.2051	5.7101	-0.6345
5.4785	5.8176	8.1271	7.6102	8.0634	10.4266	9.8862	9.1812	12.8168	11.9003	9.6277	12.5449	12.847	0.8426	1.1649	1.5106	-1.6751	6.2338	1.3864	5.8679	-0.7083
6.0693	6.2909	8.7549	7.9996	8.5132	11.0745	10.3595	9.5874	13.3673	12.3401	9.9164	12.8671	13.2162	0.8392	1.6113	1.9101	-1.6785	6.2506	1.6248	6.0156	-0.7318
6.6098	6.7542	9.3927	8.3856	8.9664	11.7157	10.8261	9.96	13.8876	12.8101	10.1614	13.1827	13.5721	0.8325	2.0511	2.3398	-1.655	6.2372	1.853	6.113	-0.7486
7.1872	7.2778	10.0439	8.8455	9.433	12.3669	11.286	10.3427	14.418	13.2733	10.4501	13.468	13.9145	0.8392	2.5009	2.756	-1.6617	6.217	2.1082	6.2103	-0.7419
7.7814	7.8116	10.6784	9.2517	9.913	12.998	11.7291	10.7086	14.9216	13.7131	10.6818	13.7299	14.2133	0.8258	2.944	3.2059	-1.6483	6.1633	2.4271	6.3077	-0.7687
8.3151	8.3453	11.286	9.6982	10.3696	13.5956	12.179	11.0577	15.4083	14.1193	10.9167	13.9648	14.455	0.809	3.3905	3.6221	-1.6147	6.1029	2.756	6.3715	-0.799
8.8388	8.9026	11.8903	10.1245	10.8261	14.1898	12.6624	11.3901	15.8615	14.5087	11.1215	14.1965	14.6832	0.7922	3.8202	4.0585	-1.571	6.019	3.0582	6.3748	-0.8325
9.3692	9.4196	12.4777	10.5911	11.239	14.7571	13.1088	11.7157	16.2744	14.9014	11.3095	14.3811	14.9115	0.7721	4.2331	4.4547	-1.524	5.9351	3.4006	6.4352	-0.903
9.8593	9.8962	13.0014	11.0577	11.6586	15.2539	13.5519	12.0245	16.6638	15.2338	11.4706	14.5456	15.1062	0.7352	4.6225	4.8776	-1.4636	5.8209	3.7228	6.4957	-0.9399
10.3159	10.3461	13.4848	11.4706	12.0078	15.7138	13.9413	12.2964	16.9894	15.546	11.6318	14.6698	15.2371	0.6815	5.0085	5.2502	-1.3797	5.7169	4.0149	6.5527	-0.9735
10.712	10.759	13.9279	11.8835	12.3502	16.1301	14.314	12.5146	17.2446	15.8179	11.7325	14.7571	15.3278	0.6445	5.3577	5.6094	-1.2991	5.5893	4.2868	6.5762	-1.0004
11.0712	11.2054	14.3207	12.226	12.6221	16.4792	14.606	12.6791	17.4762	16.0159	11.813	14.7906	15.3781	0.611	5.6732	5.9686	-1.2085	5.4718	4.5554	6.64	-1.0675
11.4169	11.5714	14.6866	12.5449	12.8772	16.7679	14.841	12.8101	17.6306	16.1804	11.8332	14.8007	15.3815	0.5472	5.9653	6.2875	-1.1044	5.2838	4.8373	6.6803	-1.1548
11.6855	11.9373	14.9686	12.8	13.0954	16.9962	15.0357	12.8705	17.738	16.2845	11.7963	14.7638	15.3177	0.4834	6.2506	6.5695	-0.9903	5.1093	5.0858	6.7004	-1.2253
11.9238	12.2058	15.1834	12.988	13.2498	17.1774	15.1599	12.9175	17.785	16.3416	11.756	14.6933	15.2271	0.433	6.489	6.8213	-0.8795	4.8877	5.2838	6.6702	-1.3058
12.1017	12.4274	15.3613	13.1726	13.3975	17.2983	15.2438	12.9175	17.7783	16.3248	11.6721	14.5557	15.123	0.376	6.6904	7.0395	-0.7687	4.6729	5.4315	6.6534	-1.4233
12.2427	12.5784	15.4721	13.3203	13.5318	17.3822	15.2942	12.9007	17.7548	16.3113	11.5915	14.4214	14.9719	0.3122	6.8414	7.2141	-0.6512	4.4312	5.5255	6.6232	-1.5005
12.3099	12.659	15.5292	13.4311	13.6157	17.3923	15.311	12.9175	17.6608	16.2073	11.5042	14.267	14.7705	0.2921	6.9925	7.3248	-0.5908	4.176	5.5524	6.546	-1.561
12.3636	12.7563	15.5292	13.5352	13.7399	17.3352	15.2673	12.8705	17.5433	16.0797	11.3901	14.0958	14.5792	0.2484	7.0764	7.4323	-0.5069	3.9175	5.549	6.4856	-1.6147
12.3401	12.8033	15.4956	13.6258	13.8675	17.2614	15.2002	12.8201	17.3822	15.9085	11.286	13.9346	14.3307	0.1981	7.1402	7.4826	-0.4163	3.6658	5.5624	6.4218	-1.6919
12.2964	12.8201	15.4251	13.6359	13.985	17.1506	15.1096	12.7798	17.1808	15.7138	11.1853	13.7198	14.0857	0.1779	7.1738	7.5128	-0.3693	3.3972	5.5624	6.3245	-1.6785
12.2092	12.8537	15.3244	13.6224	14.0656	17.0129	14.9518	12.7228	16.9962	15.499	11.0645	13.515	13.8004	0.1343	7.1704	7.4994	-0.2853	3.132	5.5792	6.2372	-1.7523
12.0782	12.7933	15.123	13.5519	14.079	16.7645	14.7302	12.6321	16.7142	15.2237	10.9369	13.2465	13.4848	0.094	7.1536	7.4255	-0.1913	2.8433	5.5222	6.0593	-1.7355
11.9339	12.753	14.9417	13.4814	14.0756	16.5363	14.5221	12.5348	16.4389	14.9686	10.8194	13.0182	13.2062	0.0403	7.11	7.3685	-0.1041	2.5513	5.502	5.878	-1.7456
11.7392	12.6859	14.7168	13.364	14.0152	16.2408	14.2871	12.4005	16.1032	14.653	10.7254	12.7597	12.8839	-0.0201	7.0395	7.2476	0	2.2961	5.4214	5.6631	-1.7087
11.4908	12.612	14.4315	13.2095	13.9212	15.9253	14.0085	12.2696	15.7574	14.3073	10.6113	12.4744	12.5549	-0.0839	6.9153	7.0999	0.1343	2.0343	5.3912	5.4013	-1.6415
11.2424	12.5314	14.1461	13.0081	13.8071	15.556	13.7064	12.0984	15.3949	13.9682	10.4803	12.2159	12.2192	-0.1477	6.7743	6.9421	0.2551	1.7624	5.3577	5.1663	-1.5912
10.9	12.3434	13.797	12.7362	13.5922	15.1599	13.3371	11.9171	15.0021	13.5855	10.3494	11.9238	11.8634	-0.2216	6.5897	6.7239	0.4129	1.5106	5.314	4.8978	-1.5341
10.571	12.1454	13.3942	12.4408	13.3237	14.7302	12.9678	11.6553	14.5792	13.1659	10.1917	11.6083	11.521	-0.3021	6.358	6.499	0.5841	1.2689	5.257	4.6292	-1.4435
10.1614	11.8701	12.9578	12.1017	13.0182	14.2535	12.5516	11.3901	14.1226	12.7396	10.0037	11.2759	11.1517	-0.4062	6.0895	6.207	0.7889	1.0004	5.2133	4.3036	-1.3898
9.725	11.5781	12.4844	11.7191	12.6657	13.7634	12.1185	11.0913	13.6392	12.3401	9.7922	10.957	10.7892	-0.517	5.8411	5.9183	0.9702	0.7721	5.1764	3.9948	-1.3327
9.2517	11.1954	11.9608	11.2054	12.2562	13.1927	11.6217	10.759	13.1021	11.8835	9.5975	10.6113	10.4065	-0.6042	5.5121	5.5624	1.1816	0.5203	5.1126	3.6725	-1.2286
8.7213	10.7825	11.4069	10.6348	11.8097	12.612	11.098	10.4065	12.5952	11.3934	9.339	10.2487	10.0742	-0.7117	5.1797	5.2267	1.3696	0.3156	5.0253	3.3469	-1.1749
8.1976	10.3394	10.8228	9.9567	11.3666	12.0279	10.5139	10.0305	12.038	10.9436	9.1107	9.8761	9.7083	-0.7889	4.8407	4.8843	1.5576	0.1376	4.9045	3.0011	-1.1212
7.6538	9.9164	10.2286	9.2416	10.9772	11.4471	9.9533	9.6915	11.521	10.4904	8.9093	9.5135	9.4061	-0.8795	4.505	4.5386	1.7221	-0.0067	4.834	2.6822	-1.044
7.1201	9.5169	9.6646	8.493	10.5911	10.8496	9.4061	9.3759	11.0074	10.0775	8.6911	9.1879	9.1006	-0.9433	4.1357	4.1962	1.8597	-0.141	4.7534	2.3599	-0.9634
6.5997	9.104	9.1074	7.7679	10.2118	10.2924	8.8757	9.0369	10.5005	9.6411	8.483	8.8556	8.8354	-1.0205	3.7732	3.837	2.0007	-0.235	4.6762	2.0477	-0.8694
6.0828	8.7314	8.5199	7.0697	9.866	9.7049	8.3957	8.7415	9.9902	9.2886	8.2849	8.5199	8.6105	-1.0608	3.414	3.4811	2.1048	-0.282	4.5956	1.7557	-0.762
5.5893	8.4024	8.0264	6.4755	9.5203	9.1879	7.9794	8.4595	9.5538	8.916	8.1271	8.2178	8.399	-1.1212	3.0884	3.1656	2.1921	-0.3021	4.5587	1.467	-0.5942
5.126	8.0466	7.4994	5.9686	9.1946	8.6945	7.6202	8.2043	9.0872	8.6105	7.9559	7.9391	8.2446	-1.1581	2.7762	2.8601	2.2592	-0.2618	4.4916	1.2253	-0.4398
4.6863	7.6974	7.0193	5.5188	8.8254	8.1741	7.3047	7.9022	8.6542	8.2983	7.7679	7.627	8.0701	-1.185	2.4472	2.5412	2.3331	-0.2316	4.4312	1.0004	-0.2249
4.2935	7.4222	6.593	5.21	8.4863	7.6941	7.0529	7.6538	8.2446	8.0264	7.6471	7.3651	7.9727	-1.2051	2.1786	2.2827	2.3566	-0.1376	4.3707	0.7956	0.0101
3.8739	7.0395	6.1264	4.8978	8.1036	7.2141	6.7542	7.355	7.8082	7.7142	7.486	7.0966	7.8384	-1.2085	1.8497	2.0142	2.3969	-0.047	4.2532	0.6378	0.2014
3.4879	6.6669	5.6699	4.6326	7.7176	6.7575	6.5057	7.1033	7.4121	7.4591	7.3718	6.8347	7.7679	-1.2186	1.571	1.7355	2.417	0.0772	4.1492	0.5103	0.423
3.085	6.2405	5.1999	4.3439	7.3114	6.2943	6.2338	6.8146	7.0294	7.1671	7.2476	6.6165	7.6572	-1.2253	1.2891	1.4737	2.4304	0.2081	4.0384	0.3827	0.6244
2.7158	5.8276	4.7803	4.0619	6.9421	5.8713	5.9653	6.5695	6.6602	6.9153	7.1704	6.395	7.5665	-1.2253	1.0239	1.232	2.4203	0.3391	3.8773	0.2921	0.8459
2.3499	5.4013	4.3472	3.8202	6.5662	5.4282	5.7001	6.3278	6.311	6.6232	7.0831	6.1734	7.496	-1.2286	0.7486	1.0037	2.4304	0.4834	3.6792	0.1913	1.0507
1.9839	4.9615	3.9343	3.5248	6.2103	5.0555	5.4449	6.1298	5.9921	6.3715	7.0428	6.0358	7.4591	-1.2253	0.4767	0.7553	2.4103	0.6613	3.4409	0.141	1.2823
1.6147	4.5285	3.5147	3.2697	5.8713	4.646	5.1596	5.9216	5.7001	6.1465	7.0261	5.8881	7.4557	-1.2186	0.2148	0.5069	2.3901	0.7922	3.2025	0.1041	1.514
1.2555	4.0619	3.0984	2.9776	5.5222	4.2767	4.8642	5.7034	5.4248	5.9351	6.9958	5.7605	7.4289	-1.1884	-0.0974	0.2853	2.3499	0.9836	2.981	0.1041	1.7288
0.8997	3.6053	2.6755	2.6285	5.2032	3.9276	4.552	5.5322	5.173	5.7269	6.9858	5.7034	7.4557	-1.1615	-0.3827	0.0168	2.2961	1.1481	2.7527	0.1343	1.937
0.5707	3.1824	2.3062	2.2894	4.9045	3.6288	4.2532	5.3711	4.9817	5.5255	7.016	5.6564	7.449	-1.1414	-0.6177	-0.2383	2.2357	1.3461	2.5513	0.1544	2.1451
0.2182	2.7628	1.9067	1.9034	4.6191	3.2898	3.9343	5.267	4.8138	5.3375	7.0563	5.6329	7.4792	-1.1044	-0.8896	-0.4968	2.1652	1.5274	2.4203	0.1947	2.3129
-0.1477	2.3599	1.5308	1.5005	4.3808	2.9944	3.6221	5.1797	4.6695	5.1697	7.1201	5.6363	7.5061	-1.0742	-1.185	-0.7654	2.1048	1.7355	2.2961	0.2216	2.4539
-0.4733	2.0007	1.1682	1.0876	4.1995	2.7661	3.2764	5.1227	4.552	5.0018	7.2208	5.7001	7.5632	-1.0306	-1.4569	-1.0306	2.0276	1.9302	2.2491	0.2148	2.5949
-0.7956	1.6315	0.8493	0.6311	3.988	2.5479	2.9272	5.0757	4.458	4.8877	7.2946	5.7437	7.58	-1.0104	-1.7389	-1.3193	1.9839	2.1048	2.2021	0.2316	2.7124
-1.091	1.2924	0.5203	0.2451	3.7799	2.3129	2.6553	5.0388	4.3942	4.7433	7.3886	5.8008	7.6404	-1.0071	-2.0276	-1.6013	1.9571	2.2592	2.2089	0.2249	2.8265
-1.3763	1.0138	0.2182	-0.1645	3.5986	2.1384	2.3767	4.9649	4.3439	4.5956	7.449	5.8981	7.6538	-0.9869	-2.2995	-1.8732	1.9437	2.4136	2.229	0.2081	2.8769
-1.6718	0.7352	-0.0705	-0.5539	3.4241	1.9504	2.1014	4.9045	4.317	4.4949	7.5262	6.0123	7.6404	-0.9903	-2.5378	-2.1082	1.9437	2.5479	2.2156	0.2048	2.9205
-1.8967	0.5103	-0.3088	-0.9131	3.2529	1.7825	1.8329	4.8843	4.3002	4.4144	7.6035	6.1432	7.684	-0.9937	-2.7896	-2.3868	1.947	2.7258	2.1887	0.1712	2.991
-2.1149	0.3659	-0.5203	-1.2421	3.1119	1.6785	1.5878	4.8676	4.3304	4.3338	7.6974	6.2741	7.6941	-1.0037	-3.0011	-2.6117	1.9604	2.8735	2.1854	0.1746	3.0045
-2.2961	0.2618	-0.7184	-1.571	3.0078	1.5878	1.3629	4.8776	4.3842	4.2801	7.8149	6.4655	7.7142	-1.0138	-3.2092	-2.8568	1.9604	3.0179	2.1384	0.1645	3.075
-2.4673	0.1511	-0.8728	-1.8732	2.9172	1.5106	1.1783	4.9146	4.4177	4.2465	7.9358	6.6736	7.7612	-0.997	-3.3804	-3.0716	1.9638	3.1555	2.0511	0.1813	3.1287
-2.6486	0.094	-1.0574	-2.1283	2.8668	1.4401	0.9769	4.9884	4.5419	4.2197	8.0801	6.8716	7.7881	-1.0172	-3.5684	-3.2831	1.9873	3.2562	1.9571	0.1477	3.1992
-2.7695	0.0671	-1.1682	-2.3431	2.8265	1.4133	0.8762	5.0757	4.6158	4.2297	8.2346	7.0798	7.8149	-1.0172	-3.7228	-3.4543	1.9974	3.3771	1.8127	0.1242	3.2529
-2.8769	0.0974	-1.2421	-2.4405	2.8165	1.4334	0.8191	5.1831	4.7433	4.2633	8.4058	7.3114	7.8754	-1.0239	-3.8773	-3.6322	1.994	3.4946	1.6617	0.0873	3.3401
-2.9105	0.1477	-1.279	-2.5177	2.887	1.4569	0.8594	5.3442	4.9146	4.3338	8.5669	7.5598	7.9559	-1.0071	-3.988	-3.7463	1.9772	3.5986	1.4871	0.0739	3.4241
-2.9608	0.2518	-1.2924	-2.4573	3.0011	1.5442	0.9232	5.5389	5.1093	4.4714	8.7717	7.825	8.013	-0.9903	-4.0619	-3.847	1.9336	3.696	1.3831	0.0839	3.508
-2.9944	0.4129	-1.2589	-2.3532	3.1488	1.6449	1.0373	5.7773	5.3207	4.5587	9.0067	8.0902	8.0835	-0.9702	-4.1492	-3.9746	1.8799	3.8	1.2991	0.1041	3.5986
-2.991	0.564	-1.2186	-2.182	3.3536	1.759	1.1682	6.019	5.5154	4.6964	9.2047	8.3319	8.1506	-0.9332	-4.1928	-4.0552	1.8195	3.9008	1.279	0.1242	3.6523
-2.9944	0.7486	-1.1917	-2.0343	3.5449	1.8564	1.2958	6.2506	5.7135	4.8138	9.4128	8.587	8.2111	-0.8963	-4.2599	-4.119	1.7389	3.9948	1.3092	0.1746	3.7531
-3.0179	0.9131	-1.1447	-1.8866	3.7228	1.9739	1.3696	6.4319	5.8881	4.8978	9.5236	8.7885	8.2144	-0.8426	-4.3304	-4.1962	1.6483	4.0652	1.3361	0.2383	3.7967
-2.9843	1.0641	-1.1078	-1.7624	3.9008	2.0309	1.4569	6.6064	6.0291	4.975	9.6478	8.9563	8.2111	-0.7922	-4.3707	-4.2365	1.5408	4.0988	1.4301	0.2954	3.8202
-3.0347	1.1816	-1.1111	-1.7053	4.0216	2.0847	1.5274	6.7172	6.1163	4.9683	9.7284	9.0771	8.1741	-0.7452	-4.4077	-4.2902	1.4368	4.1525	1.5039	0.3525	3.8202
-3.0649	1.2924	-1.1111	-1.6315	4.1592	2.135	1.6046	6.8314	6.217	4.9951	9.7754	9.1913	8.107	-0.6815	-4.4479	-4.3137	1.326	4.1962	1.6415	0.4062	3.7933
-3.1085	1.4166	-1.1447	-1.5543	4.3002	2.1786	1.6449	6.9186	6.301	5.0388	9.8291	9.2551	8.0768	-0.6277	-4.505	-4.3539	1.2219	4.2163	1.7792	0.5304	3.7766
-3.1488	1.5442	-1.1649	-1.5543	4.411	2.182	1.7188	6.9489	6.3312	5.022	9.8056	9.2987	7.9996	-0.5875	-4.5184	-4.3271	1.1313	4.1895	1.9437	0.6378	3.7363
-3.2193	1.6516	-1.2051	-1.4938	4.4916	2.1585	1.7725	6.9388	6.348	5.0354	9.7821	9.3491	7.9089	-0.5505	-4.5721	-4.3372	1.0608	4.213	2.1014	0.7788	3.6792
-3.2462	1.7355	-1.2387	-1.4435	4.5453	2.1619	1.853	6.8985	6.3547	5.0455	9.7552	9.3726	7.8754	-0.4935	-4.6057	-4.3103	0.9634	4.2432	2.2659	0.9299	3.6523
-3.2965	1.7523	-1.3092	-1.3663	4.5554	2.0914	1.9302	6.8112	6.3412	5.0925	9.6881	9.3826	7.825	-0.47	-4.6191	-4.27	0.8862	4.2633	2.4069	1.1179	3.6288
-3.3368	1.6718	-1.3629	-1.3058	4.4949	2.0511	2.0276	6.6904	6.3077	5.1227	9.6075	9.3692	7.7679	-0.4297	-4.6729	-4.2465	0.8292	4.2868	2.5479	1.3428	3.6322
-3.3939	1.5442	-1.4569	-1.2555	4.3774	1.9806	2.0746	6.5158	6.2372	5.1361	9.5303	9.3256	7.7411	-0.4028	-4.7064	-4.1895	0.7755	4.3204	2.6822	1.5744	3.6322
-3.4241	1.3998	-1.561	-1.1548	4.2599	1.8832	2.1518	6.3748	6.2036	5.1529	9.4431	9.2886	7.7075	-0.376	-4.7031	-4.1089	0.7184	4.3439	2.7762	1.7892	3.6456
-3.4845	1.2018	-1.6583	-1.1951	4.1257	1.7825	2.1753	6.217	6.1298	5.1563	9.3927	9.2584	7.6807	-0.3491	-4.7131	-4.0384	0.6512	4.3909	2.8333	2.0242	3.649
-3.5281	0.9769	-1.7758	-1.2521	3.9578	1.6718	2.1753	6.0828	6.0593	5.163	9.3289	9.2148	7.6236	-0.3055	-4.7165	-3.9746	0.5875	4.4177	2.8601	2.2122	3.6859
-3.555	0.7419	-1.8967	-1.2991	3.7866	1.5643	2.1417	5.9351	5.9552	5.1563	9.292	9.1376	7.5833	-0.2719	-4.7131	-3.9008	0.5203	4.4647	2.8433	2.4405	3.6993
-3.6188	0.4498	-2.0175	-1.3696	3.602	1.4166	2.1014	5.8511	5.8478	5.1529	9.2618	9.1174	7.59	-0.2316	-4.7031	-3.8068	0.4297	4.5654	2.7695	2.6419	3.7363
-3.6624	0.1511	-2.1552	-1.4368	3.4207	1.2756	2.0511	5.7101	5.737	5.1428	9.2114	9.0369	7.5128	-0.1846	-4.7165	-3.7061	0.3659	4.6225	2.6453	2.8265	3.743
-3.7161	-0.141	-2.2626	-1.5442	3.226	1.1481	1.9974	5.5859	5.6195	5.1193	9.1611	8.9664	7.5027	-0.1544	-4.7165	-3.6389	0.2853	4.7098	2.5412	3.0078	3.7531
-3.7497	-0.4196	-2.3734	-1.5979	3.075	1.0071	1.9101	5.4248	5.4651	5.0925	9.0671	8.8354	7.449	-0.1041	-4.7098	-3.5583	0.188	4.787	2.3599	3.2059	3.7396
-3.8068	-0.6915	-2.5177	-1.7322	2.9138	0.8292	1.8497	5.3409	5.3375	5.0287	9.0033	8.7314	7.3651	-0.0504	-4.7299	-3.4912	0.094	4.8743	2.1048	3.3737	3.6893
-3.8034	-0.903	-2.6251	-1.8396	2.85	0.7251	1.7859	5.267	5.2032	4.9985	8.9597	8.624	7.3248	0.0134	-4.7266	-3.4308	-0.0504	4.9313	1.89	3.5416	3.6591
-3.8101	-1.0977	-2.6923	-1.8665	2.7594	0.6177	1.7557	5.2167	5.0992	4.9649	8.8724	8.5098	7.261	0.0974	-4.6796	-3.3334	-0.1981	5.0186	1.5945	3.6792	3.602
-3.8068	-1.2924	-2.7594	-1.8765	2.6923	0.5069	1.7691	5.1663	4.9716	4.9548	8.8052	8.3588	7.1805	0.1746	-4.6494	-3.273	-0.3458	5.0623	1.3763	3.8101	3.5583
-3.7598	-1.3629	-2.7896	-1.7892	2.6688	0.4163	1.8497	5.1395	4.8709	4.9649	8.7616	8.2715	7.1402	0.2484	-4.6091	-3.1522	-0.5002	5.1126	1.1447	3.9478	3.4946
-3.6926	-1.4099	-2.7896	-1.6583	2.6385	0.3894	1.9336	5.1025	4.7971	4.9548	8.7045	8.1741	7.0999	0.3156	-4.5721	-3.0716	-0.6378	5.163	0.9869	4.0182	3.4174
-3.5986	-1.3562	-2.7829	-1.4905	2.6755	0.3592	2.0544	5.1059	4.693	5.0119	8.6475	8.0835	7.0898	0.3827	-4.5117	-2.9642	-0.7788	5.173	0.8661	4.1022	3.3502
-3.4845	-1.2756	-2.7292	-1.3159	2.7527	0.3391	2.2189	5.1193	4.6729	5.0623	8.6038	8.0298	7.0697	0.47	-4.4312	-2.8333	-0.9299	5.2335	0.799	4.1626	3.2562
-3.3536	-1.1649	-2.6587	-1.1581	2.8165	0.3592	2.3767	5.1395	4.6393	5.1227	8.5434	7.9492	7.0831	0.527	-4.3539	-2.7325	-1.0608	5.2301	0.7385	4.2163	3.1522
-3.2059	-1.0373	-2.5647	-0.9802	2.9172	0.3928	2.5278	5.1563	4.6191	5.1865	8.5098	7.9257	7.11	0.6076	-4.2599	-2.5949	-1.2018	5.2704	0.715	4.2734	3.085
-3.0447	-0.9232	-2.4942	-0.8191	2.9709	0.4129	2.6755	5.1663	4.5956	5.2435	8.4293	7.8619	7.1402	0.6546	-4.1861	-2.4875	-1.3092	5.2872	0.6781	4.3338	2.9776
-2.897	-0.8057	-2.3901	-0.6714	3.038	0.4532	2.8131	5.173	4.5654	5.3241	8.3453	7.7948	7.1738	0.6882	-4.0451	-2.3297	-1.3898	5.2771	0.6781	4.3707	2.8903
-2.7191	-0.6882	-2.2693	-0.5371	3.075	0.5103	2.9407	5.2133	4.5889	5.4114	8.3151	7.7747	7.2073	0.7318	-3.9209	-2.1921	-1.4804	5.2737	0.6848	4.4312	2.8165
-2.5446	-0.611	-2.1317	-0.329	3.1454	0.5942	3.1152	5.2167	4.6091	5.5188	8.2681	7.7444	7.298	0.7922	-3.7598	-2.0511	-1.5744	5.3174	0.7654	4.5352	2.7426
-2.3666	-0.5069	-2.0175	-0.0974	3.1656	0.6445	3.2797	5.257	4.6326	5.6363	8.2043	7.7243	7.3651	0.8191	-3.6053	-1.9067	-1.6382	5.3375	0.8896	4.6191	2.6956
-2.1753	-0.3726	-1.8564	0.1544	3.2629	0.7419	3.4509	5.267	4.6964	5.7672	8.1641	7.7176	7.4457	0.8459	-3.4409	-1.7154	-1.6885	5.3778	1.0474	4.7702	2.6486
-1.9638	-0.2618	-1.6415	0.4633	3.3066	0.8829	3.6188	5.3207	4.7668	5.9082	8.1506	7.7545	7.5464	0.8829	-3.2394	-1.5106	-1.7624	5.4047	1.3025	4.9246	2.6151
-1.7255	-0.1175	-1.4771	0.7654	3.3536	0.9937	3.7799	5.3442	4.8407	6.0458	8.1372	7.7713	7.6337	0.9198	-3.0548	-1.3159	-1.8195	5.3979	1.571	5.0656	2.6184
-1.571	-0.0134	-1.2891	1.0004	3.3704	1.0977	3.9209	5.3275	4.881	6.1533	8.1003	7.8082	7.7075	0.9366	-2.8668	-1.0977	-1.8564	5.4147	1.8396	5.2032	2.5748
-1.3831	0.0537	-1.1179	1.2219	3.3603	1.2085	4.0216	5.2939	4.938	6.2674	8.0298	7.7914	7.8049	0.9567	-2.6855	-0.8694	-1.8933	5.4047	2.1182	5.314	2.5278
-1.1816	0.1309	-0.9399	1.4166	3.3636	1.2958	4.1257	5.304	5.0018	6.3983	8.0365	7.8418	7.8989	0.9735	-2.5009	-0.6647	-1.9403	5.4315	2.4304	5.4382	2.5211
-0.9937	0.188	-0.7687	1.5945	3.3368	1.4099	4.2465	5.2536	5.1059	6.5292	8.0029	7.8619	7.9861	0.997	-2.323	-0.4297	-1.9638	5.3979	2.7023	5.5692	2.4707
-0.809	0.2618	-0.621	1.7792	3.3133	1.5039	4.3506	5.2469	5.163	6.6534	7.9996	7.8989	8.0701	1.0071	-2.1249	-0.1913	-1.9974	5.3778	2.9776	5.6699	2.4673
-0.6311	0.3525	-0.4498	1.9235	3.3167	1.6013	4.458	5.21	5.2301	6.7407	7.9727	7.9291	8.1372	1.0205	-1.9839	0.047	-2.0175	5.3442	3.2227	5.7471	2.4438
-0.4532	0.4465	-0.2988	2.1014	3.3469	1.7053	4.5654	5.2032	5.3308	6.8314	7.9593	7.9828	8.2346	1.0104	-1.7892	0.3021	-2.0242	5.3241	3.4509	5.8209	2.4606
-0.2988	0.5136	-0.1511	2.2256	3.3368	1.7993	4.6359	5.1797	5.4147	6.9186	7.9391	8.0298	8.3218	1.0239	-1.6315	0.4935	-2.0309	5.2737	3.6859	5.8746	2.4673
-0.141	0.5505	-0.0403	2.2928	3.3368	1.9135	4.6896	5.1663	5.4852	6.9891	7.9391	8.0801	8.3722	1.0071	-1.4938	0.6915	-1.9839	5.2066	3.8437	5.8813	2.4539
0.0201	0.621	0.0906	2.3599	3.3469	2.0142	4.7433	5.1865	5.6061	7.0764	7.9358	8.1573	8.4662	0.9769	-1.3562	0.9064	-1.947	5.1898	4.035	5.9384	2.464
0.1208	0.7016	0.2148	2.3734	3.3401	2.1115	4.8038	5.1764	5.6934	7.1536	7.9391	8.2043	8.54	0.9601	-1.2421	1.0809	-1.89	5.1193	4.1626	5.9485	2.4304
0.2451	0.7452	0.3391	2.4002	3.3536	2.2089	4.8474	5.1965	5.8109	7.261	7.9559	8.2916	8.6307	0.9265	-1.1011	1.2756	-1.8262	5.0589	4.2834	5.9753	2.4103
0.3424	0.7419	0.4196	2.3801	3.3334	2.3129	4.8642	5.21	5.9116	7.3282	7.9962	8.3386	8.6777	0.8829	-0.9869	1.4301	-1.7389	5.0119	4.3204	6.0022	2.3868
0.433	0.7419	0.5103	2.3566	3.2797	2.3969	4.8474	5.21	5.9921	7.3752	7.9962	8.389	8.7247	0.8325	-0.9265	1.5308	-1.6483	4.9313	4.27	5.9586	2.3196
0.4868	0.7788	0.5908	2.3297	3.2898	2.4875	4.8441	5.2502	6.0962	7.4356	8.013	8.4662	8.7683	0.8023	-0.8392	1.6818	-1.6013	4.8541	4.1559	5.9384	2.2961
0.5673	0.7889	0.6714	2.3264	3.2495	2.5681	4.8206	5.2603	6.1667	7.439	8.0197	8.5165	8.7817	0.7553	-0.7822	1.7725	-1.5207	4.7635	3.9578	5.8881	2.2324
0.6277	0.8057	0.752	2.3532	3.2596	2.6788	4.8407	5.3342	6.2775	7.4591	8.0936	8.5971	8.8254	0.7452	-0.7251	1.8665	-1.4737	4.7064	3.7631	5.8813	2.2324
0.6949	0.8292	0.8292	2.37	3.2428	2.793	4.7903	5.3745	6.3882	7.4826	8.1439	8.6508	8.8724	0.7117	-0.668	1.9235	-1.4099	4.6259	3.5886	5.8411	2.2122
0.7755	0.8325	0.9164	2.4338	3.2529	2.9138	4.7971	5.455	6.5125	7.5095	8.2111	8.7448	8.9127	0.6747	-0.6345	2.0209	-1.3596	4.5654	3.4409	5.8075	2.1887
0.8392	0.8292	1.0474	2.511	3.2831	3.0212	4.8273	5.5188	6.6132	7.5632	8.2748	8.8153	8.9597	0.6479	-0.6042	2.0612	-1.3058	4.5184	3.3636	5.7605	2.182
0.9467	0.8694	1.1548	2.6318	3.2697	3.179	4.9347	5.5826	6.7508	7.6605	8.3655	8.9294	9.0369	0.6244	-0.5807	2.1283	-1.2622	4.4614	3.3636	5.7236	2.1484
1.0406	0.8795	1.279	2.793	3.2764	3.3099	5.0421	5.6329	6.8951	7.7243	8.4259	9.0335	9.1241	0.5975	-0.5203	2.1786	-1.1917	4.4144	3.3771	5.6766	2.1182
1.1414	0.8862	1.42	2.9474	3.2898	3.4409	5.21	5.6833	7.0227	7.8485	8.483	9.1544	9.2114	0.574	-0.4868	2.2726	-1.1447	4.3607	3.4174	5.6195	2.0947
1.2589	0.8963	1.561	3.2159	3.2697	3.6121	5.3946	5.7135	7.1805	7.9828	8.5333	9.2886	9.3423	0.5405	-0.4498	2.3331	-1.0843	4.3204	3.4677	5.5859	2.0813
1.3663	0.9467	1.7422	3.4274	3.3368	3.8135	5.6161	5.7639	7.3315	8.1573	8.5803	9.3961	9.4699	0.5069	-0.433	2.3834	-1.0172	4.2902	3.5281	5.5154	2.0578
1.4871	1.0104	1.9034	3.6188	3.4308	4.0015	5.8679	5.8008	7.4927	8.3252	8.6508	9.5538	9.621	0.48	-0.4263	2.4237	-0.9668	4.3137	3.5886	5.4886	2.0578
1.5979	1.1111	2.0779	3.8605	3.5483	4.1995	6.1264	5.8746	7.6538	8.5165	8.718	9.7318	9.762	0.4532	-0.4263	2.4472	-0.9097	4.3002	3.6322	5.4517	2.0544
1.7355	1.2656	2.2626	4.0955	3.7195	4.4278	6.405	5.972	7.8586	8.7012	8.8187	9.9063	9.9365	0.4095	-0.386	2.4707	-0.8392	4.3439	3.6658	5.4349	2.0746
1.89	1.4603	2.4673	4.3607	3.8974	4.6661	6.6669	6.0626	8.0701	8.916	8.9429	10.0809	10.1077	0.386	-0.3659	2.4841	-0.8124	4.3909	3.7363	5.4584	2.088
2.0544	1.6583	2.6755	4.5621	4.1022	4.8676	6.922	6.207	8.2748	9.1107	9.0536	10.2756	10.2756	0.386	-0.3189	2.4741	-0.7687	4.4077	3.79	5.4584	2.1552
2.1954	1.8799	2.8702	4.7534	4.2969	5.069	7.1167	6.3177	8.4662	9.2786	9.1611	10.4401	10.4233	0.3491	-0.3021	2.4808	-0.705	4.4211	3.7933	5.4651	2.229
2.3767	2.182	3.1085	4.9313	4.5352	5.3174	7.3282	6.4923	8.6676	9.4531	9.3021	10.6448	10.5811	0.3256	-0.2148	2.5143	-0.6747	4.4614	3.8571	5.549	2.323
2.5378	2.4774	3.3469	5.0992	4.8038	5.5457	7.5397	6.6736	8.8589	9.6176	9.4431	10.816	10.7153	0.3055	-0.1645	2.5143	-0.6277	4.4983	3.9041	5.5792	2.4371
2.7191	2.7997	3.5684	5.2872	5.0555	5.7672	7.7444	6.8381	9.0704	9.7519	9.5941	11.0342	10.8261	0.2585	-0.1007	2.4908	-0.5505	4.5251	3.9813	5.5859	2.5546
2.8903	3.1354	3.8202	5.4718	5.314	5.9988	7.9895	7.0563	9.2786	9.9197	9.7552	11.239	10.9705	0.2484	-0.047	2.5076	-0.5069	4.5587	4.082	5.5859	2.662
3.0783	3.4308	4.035	5.6665	5.5994	6.2338	8.2144	7.2174	9.4666	10.0842	9.8996	11.4203	11.088	0.2216	0.047	2.464	-0.4599	4.5856	4.1928	5.5658	2.7896
3.2529	3.7061	4.2902	5.8847	5.831	6.4655	8.4326	7.4423	9.678	10.2789	10.0809	11.6351	11.2357	0.2081	0.1108	2.4271	-0.4095	4.6426	4.3506	5.5792	2.9205
3.3838	3.941	4.5016	6.0458	6.0425	6.6669	8.6508	7.627	9.8459	10.4803	10.2319	11.7996	11.3297	0.1544	0.1645	2.4036	-0.3391	4.6661	4.4614	5.5255	3.0145
3.5516	4.2062	4.7064	6.2271	6.254	6.9019	8.8824	7.8351	10.0607	10.665	10.3864	12.0145	11.4908	0.1175	0.2417	2.37	-0.2686	4.6997	4.6057	5.5356	3.132
3.6758	4.3808	4.8944	6.3513	6.3983	7.0563	9.0939	7.9861	10.242	10.8429	10.5508	12.2025	11.6251	0.0806	0.282	2.3465	-0.1913	4.7366	4.7131	5.5624	3.2562
3.8202	4.5621	5.0925	6.5125	6.5527	7.2778	9.3088	8.1976	10.4535	11.0544	10.7288	12.4442	11.8097	0.047	0.3256	2.3196	-0.1208	4.8038	4.8071	5.6027	3.4174
3.9108	4.6729	5.2536	6.6534	6.6971	7.4356	9.4968	8.3554	10.6079	11.2457	10.91	12.6422	11.9608	-0.0034	0.386	2.2726	-0.0101	4.8373	4.8508	5.6464	3.5349
3.9914	4.7635	5.3745	6.734	6.8347	7.627	9.6445	8.5669	10.8295	11.4236	11.1115	12.8503	12.132	-0.0436	0.4297	2.2559	0.0772	4.8709	4.9078	5.6799	3.6691
4.0887	4.8373	5.5255	6.8112	6.9958	7.7847	9.7922	8.7515	10.9906	11.6183	11.3062	13.0753	12.2998	-0.0604	0.4733	2.1921	0.1443	4.9045	4.9246	5.7404	3.79
4.1223	4.8877	5.6262	6.8817	7.0999	7.9022	9.8795	8.9194	11.1484	11.7929	11.5042	13.27	12.4442	-0.1276	0.4733	2.1619	0.2383	4.9313	4.9313	5.8008	3.9343
4.1223	4.9179	5.6732	6.8851	7.1906	8.0063	9.9365	9.1074	11.3162	11.9305	11.6855	13.4344	12.5717	-0.1746	0.433	2.0712	0.3189	4.9582	4.9246	5.8612	4.0451
4.0988	4.881	5.7001	6.8481	7.2946	8.0768	9.9667	9.2618	11.3901	12.0313	11.8231	13.6057	12.6724	-0.2048	0.4163	1.994	0.3827	4.9615	4.8508	5.8914	4.1592
4.0317	4.8575	5.7101	6.7911	7.3315	8.1271	9.9063	9.3793	11.4639	12.0682	11.9305	13.7399	12.7295	-0.235	0.3424	1.8866	0.4431	4.9481	4.8038	5.9418	4.2365
3.9578	4.8038	5.7034	6.6937	7.3953	8.1439	9.7989	9.4901	11.4975	12.0715	12.0581	13.8406	12.7563	-0.2618	0.2652	1.7792	0.4901	4.9213	4.7601	5.9451	4.3036
3.7967	4.7064	5.5859	6.5561	7.3987	8.1036	9.6411	9.5236	11.5176	12.0279	12.1118	13.9346	12.7664	-0.282	0.1779	1.6785	0.5405	4.8709	4.7433	5.9418	4.3405
3.6826	4.646	5.4819	6.3882	7.4121	8.0432	9.4565	9.5538	11.4975	11.9473	12.1588	13.9783	12.7362	-0.2988	0.0604	1.5308	0.5707	4.7903	4.7702	5.9048	4.3842
3.508	4.552	5.3778	6.2003	7.3785	7.9828	9.2316	9.5605	11.4673	11.8466	12.1622	14.032	12.6959	-0.3156	-0.0436	1.3965	0.611	4.7232	4.7736	5.8713	4.3909
3.3167	4.4614	5.2032	6.0056	7.3685	7.8854	8.9899	9.5404	11.4001	11.7358	12.1622	14.0656	12.6422	-0.3391	-0.1913	1.2991	0.6445	4.6729	4.7702	5.8276	4.3875
3.1186	4.3002	5.0388	5.7874	7.2913	7.7747	8.728	9.4867	11.3498	11.6083	12.1622	14.079	12.5818	-0.3592	-0.3021	1.1414	0.6882	4.5822	4.7534	5.7605	4.3674
2.9272	4.1122	4.8642	5.5859	7.204	7.6706	8.5065	9.3927	11.239	11.4639	12.1286	14.0656	12.5146	-0.3659	-0.4431	1.0474	0.7419	4.5251	4.693	5.7169	4.3472
2.7359	3.941	4.6494	5.3342	7.1133	7.5565	8.2513	9.3121	11.1652	11.3397	12.0615	14.0891	12.4643	-0.3894	-0.5405	0.9567	0.7755	4.4815	4.6091	5.6296	4.3439
2.5143	3.7329	4.4748	5.1025	6.9556	7.4222	8.0264	9.1946	11.0477	11.2357	12.0346	14.079	12.4139	-0.4263	-0.6781	0.8426	0.8292	4.4177	4.5151	5.5356	4.3405
2.3196	3.508	4.2801	4.8709	6.8179	7.2913	7.8787	9.0973	10.9839	11.1383	12.0044	14.0756	12.3636	-0.4498	-0.799	0.7654	0.8728	4.4144	4.4177	5.4718	4.3472
2.1283	3.2562	4.082	4.6661	6.6434	7.1838	7.7948	8.9597	10.9067	11.0779	11.9809	14.0857	12.3535	-0.4666	-0.8661	0.705	0.9064	4.3842	4.3674	5.3912	4.3372
1.9806	3.0515	3.9142	4.5016	6.4722	7.0663	7.6874	8.8086	10.8328	11.0175	11.9104	14.0958	12.3267	-0.4733	-0.9265	0.6244	0.9366	4.3875	4.3573	5.314	4.3707
1.7859	2.8467	3.7329	4.3204	6.3043	6.9522	7.637	8.6945	10.7556	10.9906	11.8634	14.0924	12.3166	-0.4968	-0.9869	0.5673	0.9702	4.3607	4.3875	5.2301	4.3842
1.6483	2.6587	3.5651	4.1962	6.1398	6.8549	7.5732	8.5837	10.7053	10.9805	11.8164	14.0924	12.3334	-0.4935	-1.0641	0.4935	0.9802	4.3875	4.4312	5.1831	4.3774
1.5039	2.5378	3.4509	4.1492	6.0223	6.781	7.59	8.493	10.6516	10.9671	11.7896	14.1193	12.3099	-0.4868	-1.0944	0.4498	0.9702	4.4077	4.4983	5.1764	4.4077
1.3831	2.4875	3.3536	4.0988	5.9384	6.7441	7.6236	8.399	10.6314	10.9738	11.7694	14.1327	12.3199	-0.4733	-1.1111	0.3961	0.9399	4.4412	4.5184	5.22	4.3808
1.3092	2.4976	3.2831	4.1156	5.9015	6.7474	7.6974	8.3755	10.6281	10.9973	11.7795	14.1965	12.3367	-0.4633	-1.1246	0.3592	0.8963	4.505	4.5251	5.2536	4.3674
1.2723	2.5681	3.2596	4.2264	5.9216	6.7776	7.8519	8.3957	10.6482	11.0577	11.7963	14.2435	12.3703	-0.4364	-1.1212	0.2988	0.8359	4.5721	4.5016	5.2972	4.411
1.2387	2.6822	3.2697	4.3372	5.9888	6.8011	8.0298	8.4628	10.712	11.1417	11.8869	14.3106	12.377	-0.3827	-1.1145	0.2887	0.7486	4.6527	4.5016	5.3543	4.4614
1.2219	2.7863	3.3099	4.5084	6.076	6.8683	8.2144	8.5434	10.7758	11.2457	11.9876	14.3912	12.4072	-0.3525	-1.1078	0.2853	0.668	4.7333	4.5319	5.4282	4.5352
1.2152	2.934	3.3167	4.6661	6.1835	6.9287	8.4326	8.6005	10.8261	11.3397	12.0413	14.465	12.4207	-0.2954	-1.0944	0.2753	0.5774	4.8172	4.5251	5.4987	4.6225
1.2219	3.0884	3.3737	4.8441	6.3312	7.0261	8.6844	8.7012	10.8899	11.4774	12.1185	14.5624	12.4609	-0.2417	-1.044	0.2988	0.4565	4.8944	4.5151	5.5725	4.7031
1.2421	3.2294	3.3972	5.022	6.4587	7.0764	8.8623	8.7784	10.9839	11.5781	12.1722	14.6127	12.4777	-0.188	-1.0373	0.2853	0.376	4.9918	4.4244	5.6195	4.8071
1.279	3.4207	3.4879	5.2167	6.6165	7.1939	9.0704	8.8589	11.0779	11.7056	12.2729	14.6967	12.5046	-0.1141	-1.0172	0.2988	0.2383	5.1025	4.3472	5.6967	4.8978
1.3126	3.5751	3.5349	5.3879	6.781	7.2476	9.2181	8.9294	11.1752	11.8063	12.3334	14.7806	12.5415	-0.047	-0.9702	0.3021	0.0974	5.2066	4.2331	5.7672	5.0153
1.3562	3.7463	3.649	5.5927	6.9925	7.3718	9.4061	9.0402	11.2827	11.954	12.4274	14.8712	12.5919	0.0369	-0.95	0.3088	-0.0537	5.304	4.1458	5.8646	5.126
1.3998	3.9511	3.7228	5.7605	7.1536	7.4759	9.537	9.1544	11.3666	12.0279	12.4811	14.9384	12.5952	0.094	-0.95	0.2921	-0.1779	5.3912	4.0048	5.9351	5.2167
1.4468	4.1492	3.837	5.9653	7.3685	7.6068	9.6948	9.2484	11.4606	12.1756	12.5415	15.0323	12.6624	0.1578	-0.9399	0.2954	-0.3223	5.5087	3.9478	6.0257	5.3241
1.5173	4.317	3.9075	6.1667	7.5195	7.6941	9.8257	9.3658	11.5714	12.2528	12.5818	15.1196	12.7094	0.2316	-0.9668	0.2585	-0.4633	5.596	3.931	6.1331	5.3946
1.5677	4.4748	4.0048	6.348	7.627	7.7747	9.913	9.4061	11.6687	12.3233	12.6053	15.1801	12.7194	0.2921	-0.997	0.2518	-0.574	5.6866	3.9511	6.2405	5.4349
1.6348	4.5822	4.0921	6.5024	7.6941	7.8586	9.9835	9.4363	11.7157	12.3367	12.5851	15.1901	12.7161	0.3323	-1.0004	0.2216	-0.6815	5.7404	3.9813	6.3312	5.4282
1.6214	4.6359	4.1391	6.5964	7.6974	7.8955	10.0204	9.4095	11.7526	12.3434	12.5214	15.1968	12.6926	0.3827	-1.0876	0.1309	-0.7721	5.8075	4.0485	6.4151	5.3879
1.6248	4.6527	4.1962	6.6803	7.6236	7.9257	10.0339	9.3222	11.7862	12.3267	12.4207	15.1532	12.6355	0.423	-1.1111	0.1276	-0.8426	5.8679	4.1559	6.4822	5.3275
1.6248	4.6124	4.1861	6.6937	7.5128	7.9224	9.9701	9.2047	11.7392	12.2931	12.2964	15.0525	12.5583	0.4532	-1.2119	0.0134	-0.8963	5.9082	4.213	6.5527	5.2502
1.5979	4.5419	4.1794	6.6299	7.3886	7.8854	9.9265	9.0604	11.6956	12.226	12.1689	14.982	12.4341	0.4565	-1.2756	-0.0269	-0.9265	5.8914	4.2868	6.6031	5.1563
1.524	4.3909	4.129	6.5125	7.1805	7.8015	9.8492	8.8824	11.6284	12.1252	12.001	14.8578	12.3199	0.4868	-1.3931	-0.1208	-0.9702	5.8813	4.3405	6.6031	5.0287
1.4166	4.1257	4.0417	6.3245	6.8951	7.7075	9.6646	8.624	11.5244	11.9742	11.7896	14.6967	12.1085	0.4901	-1.514	-0.2316	-0.9702	5.8041	4.3875	6.5662	4.8776
1.3126	3.8605	3.931	6.0995	6.5729	7.58	9.4901	8.3722	11.38	11.8164	11.5881	14.5288	11.9238	0.4868	-1.6415	-0.3323	-0.9702	5.7236	4.4077	6.499	4.7501
1.1783	3.508	3.8101	5.8914	6.1835	7.449	9.2786	8.0835	11.2155	11.6251	11.3666	14.3375	11.7123	0.4733	-1.749	-0.4263	-0.95	5.6464	4.3741	6.3916	4.5721
1.0675	3.0951	3.6926	5.7101	5.7806	7.2946	9.0671	7.7847	11.0678	11.4102	11.145	14.1696	11.5042	0.4565	-1.8866	-0.5203	-0.9332	5.5255	4.3539	6.301	4.4446
0.9634	2.7023	3.5886	5.5557	5.3543	7.1738	8.8623	7.4759	10.9604	11.3095	10.957	14.0219	11.3565	0.4398	-1.9974	-0.5975	-0.903	5.455	4.3573	6.2473	4.3237
0.8426	2.3196	3.4711	5.4147	4.9481	7.0428	8.6575	7.204	10.816	11.1517	10.7623	13.8541	11.1819	0.4095	-2.1484	-0.6848	-0.8459	5.3677	4.3405	6.1633	4.176
0.7687	1.9504	3.3704	5.3174	4.5453	6.9254	8.5333	6.9086	10.7086	11.0611	10.5743	13.703	11.0712	0.386	-2.2559	-0.7721	-0.7922	5.304	4.3338	6.1298	4.072
0.7251	1.6583	3.32	5.2435	4.2197	6.8784	8.4091	6.6635	10.6516	11.0309	10.4065	13.6157	10.994	0.3726	-2.3801	-0.8191	-0.752	5.2737	4.3472	6.0928	3.9713
0.6815	1.4066	3.2462	5.1764	3.9276	6.828	8.3218	6.4655	10.5978	10.9738	10.2722	13.5452	10.9268	0.3424	-2.4707	-0.856	-0.715	5.2267	4.3741	6.0727	3.8672
0.668	1.2421	3.2831	5.173	3.7329	6.8481	8.2816	6.3513	10.6348	11.0242	10.1917	13.5184	10.947	0.3525	-2.5412	-0.8963	-0.6982	5.2435	4.3539	6.0593	3.8
0.6815	1.1179	3.2428	5.1999	3.5953	6.8649	8.2413	6.2506	10.6247	11.0275	10.1413	13.4915	10.9369	0.329	-2.6486	-0.9299	-0.6647	5.2402	4.2935	6.0089	3.7396
0.7117	1.0675	3.3032	5.2737	3.5416	6.9052	8.2413	6.217	10.6818	11.0779	10.1077	13.5284	10.9537	0.3323	-2.6956	-0.95	-0.6445	5.2335	4.1995	5.9821	3.7463
0.7687	1.091	3.3871	5.3711	3.6154	7.0093	8.2916	6.2372	10.8026	11.2122	10.1917	13.5855	11.0175	0.3189	-2.7393	-0.9232	-0.6378	5.2872	4.1492	5.9888	3.7766
0.8527	1.1884	3.508	5.4987	3.7463	7.1402	8.3655	6.2943	10.9033	11.2927	10.242	13.6325	11.0745	0.3088	-2.7863	-0.9299	-0.621	5.3442	4.072	6.019	3.8403
0.9534	1.3092	3.6255	5.6061	3.9478	7.2644	8.4628	6.4252	11.0477	11.4438	10.3629	13.75	11.1719	0.2954	-2.803	-0.9064	-0.5975	5.3879	4.0451	6.0962	3.9209
1.0876	1.514	3.7463	5.7538	4.1727	7.4524	8.6139	6.6232	11.2155	11.615	10.4803	13.8809	11.2491	0.2988	-2.7829	-0.8527	-0.5908	5.4382	4.1089	6.1868	4.0552
1.2186	1.6986	3.9175	5.8679	4.4211	7.5934	8.7448	6.7877	11.38	11.7526	10.6583	13.9883	11.3431	0.2786	-2.7795	-0.8325	-0.5707	5.4919	4.166	6.2674	4.1592
1.3797	1.947	4.1156	6.0156	4.7366	7.8082	8.8824	7.0428	11.5915	11.9037	10.8328	14.1193	11.4236	0.2853	-2.7594	-0.7385	-0.5673	5.5356	4.2969	6.3647	4.3304
1.5308	2.1451	4.3304	6.1029	5.022	8.0399	9.0369	7.2778	11.7963	12.0615	11.0477	14.2636	11.5076	0.2786	-2.6654	-0.6882	-0.5505	5.5759	4.411	6.4587	4.458
1.7389	2.3666	4.5218	6.1801	5.3241	8.2312	9.1678	7.5195	11.9943	12.1991	11.2592	14.3945	11.5747	0.2652	-2.6117	-0.6277	-0.5371	5.6027	4.5453	6.5292	4.6292
1.9168	2.5781	4.7366	6.2372	5.6262	8.4494	9.2786	7.8183	12.2159	12.3434	11.521	14.5926	11.7023	0.2518	-2.5412	-0.5472	-0.5237	5.6497	4.6561	6.6333	4.8071
2.1014	2.7628	4.9481	6.254	5.8847	8.6743	9.4162	8.1171	12.4341	12.4509	11.7761	14.7705	11.8265	0.2417	-2.4808	-0.4633	-0.5002	5.6799	4.7131	6.7307	5.0052
2.2827	2.9507	5.1596	6.2607	6.1902	8.9059	9.5203	8.3957	12.6758	12.6187	12.0313	14.9551	11.9305	0.2249	-2.3734	-0.3693	-0.4868	5.7068	4.7971	6.8381	5.1898
2.4741	3.1656	5.3476	6.2439	6.4453	9.1208	9.6344	8.6844	12.9108	12.753	12.283	15.1096	12.048	0.2115	-2.3331	-0.3088	-0.4364	5.7202	4.8071	6.9354	5.3442
2.6553	3.3334	5.5389	6.2338	6.7105	9.3491	9.7385	8.9328	13.1256	12.8772	12.5012	15.2808	12.1722	0.2014	-2.2861	-0.2316	-0.3995	5.7404	4.8407	7.0563	5.4852
2.8467	3.5281	5.7605	6.2439	6.9724	9.5639	9.8492	9.1779	13.3505	12.9913	12.706	15.4587	12.2998	0.1947	-2.1753	-0.1511	-0.386	5.7471	4.8743	7.1536	5.596
3.028	3.7027	5.9653	6.348	7.1771	9.7552	9.9533	9.4028	13.5452	13.1155	12.8906	15.64	12.4207	0.1746	-2.1149	-0.0739	-0.3525	5.7538	4.8575	7.251	5.7202
3.1857	3.8873	6.1801	6.4789	7.3685	9.9701	10.0742	9.5908	13.7366	13.2263	13.0685	15.7809	12.5516	0.1746	-2.0276	0.0134	-0.3256	5.7941	4.8474	7.3181	5.8612
3.3469	4.0317	6.3647	6.6299	7.5464	10.1816	10.2219	9.7955	13.938	13.317	13.2364	15.9119	12.6724	0.1376	-1.9907	0.0403	-0.2921	5.8008	4.8306	7.3584	5.9753
3.5248	4.1827	6.5527	6.8347	7.7109	10.3696	10.3729	9.9667	14.0924	13.374	13.4042	16.0495	12.7563	0.141	-1.9101	0.0839	-0.2753	5.8041	4.8071	7.402	6.0962
3.6859	4.3338	6.7642	7.1402	7.8821	10.571	10.5542	10.1782	14.2905	13.4814	13.5788	16.1636	12.8571	0.1208	-1.8631	0.141	-0.235	5.8142	4.834	7.4591	6.2372
3.8336	4.4748	6.9589	7.4759	8.0432	10.7724	10.7489	10.3125	14.4516	13.5855	13.7131	16.2677	12.9376	0.0974	-1.8497	0.1846	-0.2048	5.8545	4.8911	7.5397	6.3681
3.9746	4.5789	7.1536	7.7982	8.1775	10.9637	10.994	10.477	14.6094	13.6963	13.8507	16.3617	13.0417	0.0772	-1.8295	0.1981	-0.1712	5.8713	4.9347	7.5934	6.4923
4.1223	4.6796	7.3383	8.248	8.2849	11.1517	11.2726	10.6281	14.7705	13.8239	14.0018	16.4792	13.129	0.0638	-1.8329	0.1779	-0.1242	5.8981	4.9951	7.6135	6.6467
4.2566	4.7903	7.5262	8.7012	8.4259	11.3565	11.6016	10.7959	14.935	13.9783	14.1528	16.5799	13.1995	0.0436	-1.8295	0.1611	-0.0705	5.9451	5.0522	7.6572	6.7776
4.3707	4.8944	7.6907	9.1476	8.5669	11.5344	11.9473	10.9671	15.0793	14.126	14.3207	16.6739	13.2767	0.0302	-1.8396	0.1376	-0.0269	5.972	5.1294	7.674	6.9421
4.4815	4.9884	7.872	9.5706	8.6978	11.6956	12.2394	11.1417	15.2136	14.2435	14.4684	16.7645	13.3539	-0.0235	-1.8765	0.0806	0.0436	5.972	5.1865	7.6773	7.0966
4.599	5.0958	8.0365	9.9097	8.869	11.8768	12.5012	11.3229	15.3647	14.3576	14.6631	16.8317	13.4042	-0.0436	-1.9	0.0101	0.0974	6.0056	5.2838	7.6639	7.2812
4.693	5.2402	8.1741	10.1984	9.0302	11.991	12.7664	11.5076	15.4788	14.4482	14.8343	16.9122	13.4848	-0.0839	-1.9336	-0.0235	0.1544	6.0123	5.4013	7.6505	7.4625
4.7668	5.3275	8.2782	10.3931	9.1678	12.1118	12.9544	11.6687	15.5426	14.5288	14.982	16.9525	13.5083	-0.1242	-1.9839	-0.0671	0.2383	6.0022	5.5423	7.6035	7.637
4.8306	5.4483	8.4058	10.5609	9.3155	12.2092	13.1223	11.7996	15.65	14.6631	15.1062	16.9894	13.5788	-0.1578	-2.0108	-0.094	0.3189	5.9888	5.7404	7.59	7.7881
4.9045	5.5289	8.5132	10.7523	9.386	12.2964	13.3102	11.8869	15.7104	14.6967	15.217	17.023	13.6526	-0.2115	-2.0343	-0.1074	0.4196	5.9888	5.9351	7.5464	7.9089
4.9481	5.6262	8.6105	10.9369	9.4296	12.3602	13.468	11.9473	15.7709	14.7672	15.2875	17.0532	13.6862	-0.2753	-2.0645	-0.141	0.527	5.9485	6.113	7.4927	8.0164
5.0354	5.69	8.6911	11.1349	9.48	12.4341	13.609	11.9708	15.8044	14.8242	15.3345	17.0633	13.7567	-0.329	-2.0779	-0.141	0.6345	5.9351	6.3278	7.4356	8.1137
5.0992	5.7907	8.7415	11.3263	9.5135	12.5012	13.7466	11.9809	15.8313	14.8846	15.3748	17.0633	13.8138	-0.3693	-2.0712	-0.1175	0.7352	5.9384	6.4957	7.3819	8.2077
5.1328	5.8109	8.812	11.474	9.5471	12.4744	13.8171	11.9641	15.838	14.9216	15.3714	17.0599	13.8608	-0.433	-2.1417	-0.1343	0.8392	5.9183	6.6937	7.3114	8.2916
5.1395	5.831	8.8455	11.5915	9.527	12.5046	13.8675	11.9373	15.8481	14.9518	15.3613	17.0633	13.9246	-0.4733	-2.1451	-0.1007	0.9265	5.9216	6.8582	7.2375	8.3655
5.1965	5.8813	8.8824	11.6418	9.5035	12.5113	13.8675	11.8869	15.8582	14.9686	15.3412	17.0465	13.9447	-0.5069	-2.1585	-0.0739	0.9937	5.8948	6.9522	7.1939	8.436
5.2167	5.9384	8.9227	11.6418	9.5068	12.5113	13.9145	11.8701	15.8279	14.9719	15.321	17.0398	13.9581	-0.5304	-2.1585	-0.0839	1.0507	5.8813	6.9623	7.1671	8.5031
5.2502	6.0156	8.9731	11.662	9.5505	12.5415	13.9246	11.8668	15.8481	15.0089	15.311	17.0465	14.0018	-0.5505	-2.1585	-0.0201	1.0675	5.8948	6.9556	7.1704	8.5669
5.304	6.1063	9.0134	11.6486	9.5505	12.5583	13.9447	11.8701	15.8682	15.0391	15.3043	17.0834	14.0454	-0.5606	-2.1585	-0.0034	1.0977	5.9149	6.8884	7.1939	8.6307
5.3442	6.1633	9.0604	11.6116	9.6008	12.5818	13.9682	11.8835	15.9052	15.0961	15.3244	17.0901	14.1327	-0.5673	-2.1283	0.0604	1.1011	5.9451	6.7978	7.2845	8.7012
5.4047	6.2506	9.1577	11.5546	9.6613	12.6221	13.9883	11.9272	15.9286	15.1532	15.3345	17.1573	14.2099	-0.5707	-2.088	0.094	1.0944	6.0056	6.6937	7.3886	8.7448
5.4886	6.3412	9.2349	11.5042	9.762	12.6657	14.0152	11.9943	15.9891	15.2539	15.3815	17.2479	14.3274	-0.5338	-2.0276	0.1276	1.0507	6.1029	6.5762	7.533	8.7683
5.549	6.442	9.3054	11.4438	9.8828	12.7362	14.0823	12.0581	16.0428	15.3546	15.4318	17.3352	14.4482	-0.5035	-1.994	0.188	0.997	6.2305	6.4822	7.6437	8.7817
5.6497	6.5628	9.3893	11.4236	10.054	12.8168	14.1629	12.1924	16.1603	15.4922	15.4956	17.4661	14.6228	-0.4599	-1.9202	0.2283	0.903	6.3782	6.4252	7.7948	8.7851
5.7303	6.6803	9.4934	11.4102	10.2118	12.9276	14.3005	12.2931	16.2778	15.6534	15.593	17.6373	14.8242	-0.4095	-1.8933	0.2921	0.799	6.5494	6.4117	7.9291	8.7717
5.8109	6.7642	9.574	11.3431	10.3494	13.0081	14.3878	12.3904	16.3986	15.7742	15.6635	17.7917	15.0323	-0.3424	-1.843	0.3156	0.6546	6.7105	6.452	8.0264	8.7146
5.8813	6.8045	9.6445	11.2625	10.4166	13.0719	14.4415	12.4509	16.4993	15.9253	15.7239	17.9697	15.2539	-0.2719	-1.7758	0.329	0.5002	6.8784	6.5192	8.1406	8.6374
5.9418	6.8179	9.715	11.1148	10.4602	13.1625	14.4382	12.4744	16.6202	16.0529	15.7709	18.1073	15.4453	-0.1913	-1.7255	0.3558	0.3625	7.0663	6.5561	8.1976	8.5266
6.019	6.8515	9.7687	10.9738	10.4669	13.233	14.4046	12.5079	16.731	16.1771	15.8212	18.2852	15.6635	-0.1108	-1.7188	0.3525	0.1981	7.2476	6.6501	8.295	8.4528
6.0794	6.8448	9.8022	10.8463	10.4669	13.2935	14.3979	12.5247	16.8216	16.2946	15.8548	18.4363	15.8817	-0.0403	-1.6852	0.376	0.047	7.4356	6.7038	8.3286	8.3722
6.1029	6.8515	9.8459	10.6885	10.4736	13.3438	14.3408	12.5281	16.8887	16.3684	15.8951	18.5672	16.0696	0.0504	-1.6818	0.3525	-0.0974	7.5967	6.7374	8.3051	8.2748
6.1533	6.8549	9.8895	10.5777	10.4602	13.4042	14.3408	12.518	16.9962	16.4624	15.9219	18.7082	16.2811	0.1141	-1.6785	0.3793	-0.2451	7.7881	6.7709	8.3151	8.1909
6.207	6.8515	9.913	10.4333	10.4132	13.4277	14.2569	12.4945	17.0398	16.5094	15.9052	18.8089	16.459	0.1678	-1.6751	0.3458	-0.3525	7.9257	6.7542	8.295	8.06
6.2204	6.875	9.9399	10.3427	10.3729	13.4647	14.2099	12.4643	17.1103	16.5799	15.9018	18.9096	16.6202	0.2048	-1.6986	0.3156	-0.433	8.0634	6.7307	8.248	7.9425
6.2943	6.875	9.95	10.2118	10.3394	13.4882	14.1663	12.4374	17.1674	16.6202	15.8817	18.9935	16.788	0.2417	-1.702	0.2954	-0.5002	8.1708	6.6669	8.2312	7.7847
6.2943	6.8448	9.9869	10.0909	10.2991	13.5352	14.1394	12.4039	17.2311	16.7108	15.8481	19.111	16.9492	0.2618	-1.7322	0.2451	-0.5438	8.2513	6.6165	8.1976	7.6672
6.3278	6.8549	10.0439	10.0507	10.289	13.6023	14.1327	12.3938	17.3352	16.8115	15.8749	19.2218	17.1371	0.2518	-1.7288	0.235	-0.5472	8.3789	6.5192	8.2446	7.5598
6.3916	6.8314	10.0876	9.9466	10.2689	13.6661	14.1226	12.3837	17.4258	16.9022	15.8817	19.3594	17.3083	0.2652	-1.749	0.1947	-0.5405	8.4662	6.4453	8.2547	7.449
6.4554	6.8851	10.1447	9.8929	10.3226	13.7903	14.1965	12.471	17.6071	17.0499	15.9421	19.5407	17.5299	0.2618	-1.7288	0.1813	-0.5338	8.5535	6.3748	8.3386	7.4188
6.5057	6.9824	10.2219	9.8392	10.4031	13.891	14.2737	12.5247	17.7548	17.1875	16.0059	19.6716	17.728	0.2484	-1.759	0.1611	-0.4968	8.6374	6.3379	8.389	7.392
6.5594	7.0596	10.3125	9.809	10.5106	14.032	14.3307	12.5885	17.9025	17.3218	16.0294	19.8529	17.9092	0.2182	-1.7691	0.1309	-0.4431	8.681	6.3312	8.4695	7.355
6.6064	7.1368	10.3897	9.762	10.6046	14.173	14.4012	12.6389	18.0569	17.446	16.0629	20.004	18.0771	0.1913	-1.7792	0.0739	-0.3827	8.6978	6.3748	8.5367	7.3517
6.6904	7.2241	10.5106	9.762	10.6918	14.2972	14.4516	12.6657	18.2281	17.5433	16.0965	20.1416	18.2416	0.1578	-1.8027	0.0739	-0.3357	8.718	6.4185	8.6307	7.3651
6.7407	7.3248	10.6281	9.7787	10.7489	14.4482	14.4885	12.7261	18.3994	17.6474	16.1334	20.2994	18.4128	0.1578	-1.843	0.0671	-0.3156	8.7247	6.5024	8.7314	7.3886
6.7609	7.3718	10.6952	9.8022	10.7993	14.5792	14.4751	12.7161	18.5168	17.6877	16.1066	20.4471	18.5269	0.1343	-1.9168	-0.0134	-0.2585	8.6777	6.5292	8.8153	7.3785
6.7978	7.4155	10.7556	9.8727	10.8362	14.6765	14.4717	12.7261	18.6679	17.7347	16.1267	20.5579	18.6075	0.1041	-1.9705	-0.0369	-0.2283	8.5971	6.5796	8.916	7.3752
6.7877	7.4323	10.8261	9.9466	10.8496	14.7571	14.4583	12.7127	18.7854	17.7481	16.1133	20.672	18.6511	0.0806	-2.0544	-0.1041	-0.1645	8.493	6.6132	8.9563	7.3819
6.7944	7.3819	10.8496	10.0339	10.8026	14.8376	14.4449	12.706	18.876	17.7481	16.0663	20.766	18.6612	0.0403	-2.1384	-0.188	-0.1074	8.3688	6.6299	8.9697	7.3718
6.7206	7.2476	10.8463	10.0641	10.7153	14.8746	14.371	12.6355	18.9365	17.6944	15.9622	20.8029	18.5806	0.0034	-2.2861	-0.3189	-0.0134	8.1775	6.6165	8.9059	7.3215
6.6971	7.1234	10.8362	10.0876	10.5777	14.9048	14.3073	12.5381	18.96	17.6172	15.8279	20.8029	18.4698	-0.0403	-2.3599	-0.4196	0.0638	7.9459	6.5897	8.8388	7.2543
6.6064	6.9791	10.7858	10.1077	10.4065	14.8914	14.2267	12.4005	18.9398	17.4863	15.6433	20.7761	18.3322	-0.0974	-2.4875	-0.5371	0.1712	7.7176	6.5292	8.7146	7.1671
6.5393	6.8179	10.7523	10.1346	10.2689	14.8947	14.1461	12.2763	18.9398	17.3688	15.4419	20.7123	18.1677	-0.1544	-2.5781	-0.6345	0.2551	7.449	6.5024	8.6139	7.0898
6.4655	6.6769	10.7288	10.1816	10.1178	14.8779	14.0656	12.0816	18.9063	17.2479	15.1868	20.6317	17.9529	-0.2048	-2.6721	-0.7184	0.3693	7.1771	6.4856	8.4729	6.9858
6.3849	6.5292	10.6952	10.2487	9.9835	14.8611	14.0219	11.9003	18.8626	17.1069	14.9316	20.5444	17.7011	-0.2518	-2.7393	-0.7889	0.4599	6.8784	6.4923	8.3084	6.8884
6.3177	6.3882	10.6482	10.3662	9.866	14.841	13.9917	11.7056	18.8358	16.9861	14.653	20.4404	17.4258	-0.3021	-2.7728	-0.8459	0.5606	6.5964	6.4722	8.1372	6.7542
6.2875	6.2573	10.6415	10.5106	9.7485	14.8209	13.985	11.5344	18.7921	16.8887	14.361	20.3094	17.2043	-0.3156	-2.85	-0.9232	0.6277	6.348	6.4352	7.9794	6.6132
6.2238	6.1465	10.6046	10.6415	9.6411	14.8074	14.0118	11.3699	18.7115	16.7612	14.0353	20.1617	16.9089	-0.3693	-2.8937	-0.9937	0.7184	6.0995	6.3379	7.8149	6.4386
6.1499	6.019	10.5777	10.7925	9.584	14.8141	14.0454	11.2256	18.6545	16.6739	13.7601	20.004	16.6437	-0.3995	-2.934	-1.0306	0.7788	5.8578	6.16	7.7109	6.2674
6.0794	5.9586	10.5609	10.947	9.5169	14.8242	14.0421	11.0913	18.6041	16.5497	13.4714	19.826	16.3651	-0.4129	-3.0112	-1.1179	0.8023	5.6229	5.9518	7.6035	6.1063
6.0089	5.925	10.5173	11.098	9.5135	14.8108	14.0555	11.0107	18.5471	16.402	13.2129	19.6616	16.0629	-0.4163	-3.0414	-1.138	0.8057	5.4181	5.737	7.5162	5.9955
5.9216	5.9048	10.4938	11.2021	9.527	14.7906	14.0253	10.91	18.4598	16.2677	12.9242	19.4669	15.7574	-0.4163	-3.1018	-1.2085	0.8057	5.2234	5.4953	7.4457	5.8612
5.8478	5.8948	10.4367	11.2625	9.5337	14.7336	13.9716	10.8261	18.3456	16.0999	12.6456	19.2487	15.4385	-0.3928	-3.1656	-1.2723	0.7755	5.0522	5.2603	7.3785	5.7437
5.7303	5.8881	10.336	11.2524	9.527	14.6732	13.891	10.7455	18.1979	15.8884	12.3602	18.9801	15.0928	-0.3894	-3.273	-1.373	0.7486	4.881	5.0455	7.2644	5.6229
5.5624	5.8511	10.2521	11.192	9.5303	14.6161	13.8104	10.6213	18.0469	15.6802	12.0715	18.7317	14.747	-0.3625	-3.3536	-1.4401	0.6982	4.7769	4.8273	7.204	5.5255
5.3745	5.7404	10.0742	11.0309	9.4229	14.4751	13.5956	10.4367	17.8119	15.405	11.7392	18.3859	14.3039	-0.3659	-3.4879	-1.5945	0.7016	4.6091	4.5789	7.0798	5.3845
5.1999	5.6833	9.9231	10.8932	9.3021	14.3274	13.4647	10.289	17.5836	15.1599	11.4304	18.0569	13.938	-0.3525	-3.5818	-1.6483	0.6613	4.505	4.3405	6.9824	5.3308
4.985	5.5289	9.7284	10.712	9.1644	14.173	13.3472	10.101	17.3621	14.9316	11.1282	17.7246	13.5654	-0.329	-3.7027	-1.7691	0.6412	4.4345	4.1458	6.9019	5.2704
4.787	5.4114	9.5303	10.5811	9.0234	14.032	13.2431	9.9197	17.1237	14.7134	10.8731	17.4124	13.1961	-0.3323	-3.8168	-1.8933	0.6277	4.3607	3.9175	6.8146	5.21
4.5923	5.2805	9.3088	10.4166	8.8858	13.8507	13.1894	9.7452	16.8988	14.512	10.6079	17.1002	12.8302	-0.3055	-3.9142	-2.0074	0.5942	4.2969	3.696	6.7474	5.1865
4.364	5.1831	9.1342	10.2353	8.7314	13.6661	13.129	9.6176	16.6605	14.3173	10.4065	16.8451	12.4844	-0.3021	-4.0686	-2.1686	0.574	4.2297	3.5046	6.6702	5.1797
4.1324	5.0858	8.9227	10.0641	8.6038	13.4747	12.9947	9.4733	16.3986	14.1125	10.2017	16.543	12.1387	-0.2988	-4.1928	-2.3331	0.5673	4.1895	3.2663	6.5695	5.1663
3.9276	5.0153	8.7045	9.8727	8.4729	13.327	12.9175	9.3558	16.2073	13.891	10.0439	16.3181	11.8399	-0.2853	-4.3304	-2.4908	0.5707	4.1425	3.0347	6.4587	5.1898
3.7195	4.928	8.5098	9.668	8.3588	13.1659	12.8067	9.2484	16.0193	13.7164	9.9466	16.1166	11.5613	-0.2954	-4.4244	-2.6285	0.5807	4.119	2.8265	6.358	5.2133
3.4979	4.8071	8.3017	9.4431	8.1842	12.9913	12.706	9.1443	15.8414	13.6057	9.8492	15.9689	11.3498	-0.3021	-4.5721	-2.8064	0.5908	4.0921	2.6318	6.264	5.2335
3.3133	4.6729	8.0902	9.2148	8.0298	12.8503	12.6221	9.0469	15.687	13.468	9.809	15.8514	11.1517	-0.3088	-4.6561	-2.9172	0.6076	4.0921	2.4573	6.217	5.267
3.0817	4.4849	7.8989	8.9563	7.825	12.6959	12.4979	8.9664	15.5762	13.3539	9.7586	15.7977	11.0275	-0.3223	-4.7333	-3.0817	0.6277	4.1055	2.3566	6.1398	5.2939
2.8702	4.3103	7.7109	8.7146	7.627	12.5616	12.3535	8.8388	15.4587	13.2666	9.7049	15.7541	10.947	-0.3323	-4.8441	-3.1656	0.6613	4.1525	2.3129	6.113	5.3107
2.6788	4.0921	7.5262	8.4326	7.4356	12.4139	12.1588	8.7482	15.3647	13.1558	9.6982	15.7675	10.8664	-0.3525	-4.9347	-3.3133	0.6949	4.1492	2.2827	6.0458	5.3241
2.4673	3.9075	7.3383	8.1943	7.2577	12.3099	11.9775	8.6575	15.3043	13.082	9.6881	15.7944	10.8563	-0.3827	-5.0253	-3.4341	0.7553	4.1693	2.3264	5.9988	5.3308
2.2928	3.6993	7.1973	7.9828	7.1234	12.236	11.8298	8.624	15.2707	13.0249	9.7015	15.8548	10.8664	-0.4163	-5.0723	-3.5013	0.8057	4.223	2.4673	5.9384	5.3677
2.1921	3.5382	7.0831	7.8787	7.0663	12.2058	11.7392	8.6038	15.2908	13.035	9.7485	15.9555	10.9302	-0.4431	-5.1294	-3.5751	0.8694	4.2801	2.6755	5.9183	5.3442
2.0612	3.4039	7.0193	7.8116	7.0059	12.1823	11.6586	8.5938	15.3177	13.0316	9.7687	16.0831	10.9872	-0.5103	-5.1797	-3.6926	0.9668	4.2935	2.9407	5.8511	5.3711
1.9705	3.2495	6.9455	7.7478	6.9824	12.1622	11.6016	8.6005	15.311	13.0182	9.7821	16.1703	11.0678	-0.5405	-5.2234	-3.7195	1.0608	4.3069	3.2764	5.7773	5.3375
1.9	3.1622	6.9287	7.8082	7.0126	12.189	11.5747	8.6172	15.4117	13.0417	9.8392	16.2946	11.1517	-0.5807	-5.2435	-3.7631	1.1447	4.3204	3.6792	5.7202	5.3107
1.89	3.1354	6.9354	7.8989	7.1167	12.2327	11.6351	8.7079	15.4855	13.0853	9.8795	16.4221	11.2289	-0.6345	-5.2603	-3.7665	1.2286	4.3036	4.0787	5.6766	5.2637
1.9302	3.1622	7.0227	8.1238	7.2476	12.3199	11.6956	8.822	15.5728	13.1122	9.9432	16.5564	11.3229	-0.658	-5.2335	-3.7631	1.2958	4.2566	4.4647	5.6464	5.2536
2.0074	3.179	7.1066	8.3521	7.4054	12.4039	11.7761	8.9194	15.6567	13.1592	9.9802	16.6605	11.3901	-0.7083	-5.2133	-3.7732	1.3763	4.2062	4.7668	5.6094	5.2167
2.1149	3.2462	7.261	8.6877	7.59	12.5146	11.9272	9.0369	15.7474	13.2263	10.0439	16.7712	11.5009	-0.7285	-5.1797	-3.6826	1.4401	4.166	5.0018	5.6195	5.2234
2.2324	3.3838	7.4155	8.9664	7.7881	12.6456	12.0413	9.1913	15.8548	13.2867	10.1514	16.8988	11.5982	-0.7654	-5.0992	-3.6154	1.4972	4.1324	5.1596	5.6262	5.21
2.4103	3.5147	7.5867	9.245	7.9761	12.8101	12.1722	9.3356	15.9454	13.374	10.2319	17.0029	11.7157	-0.7889	-5.0153	-3.508	1.5442	4.0652	5.2301	5.6229	5.2435
2.5949	3.7061	7.7612	9.4464	8.1573	12.9544	12.2595	9.5001	16.0797	13.4714	10.3494	17.0767	11.8063	-0.8057	-4.8676	-3.3603	1.5811	3.9847	5.2603	5.6699	5.2704
2.7292	3.8974	7.9492	9.5505	8.3353	13.0988	12.3267	9.5941	16.1569	13.5352	10.4065	17.1103	11.8701	-0.8325	-4.7568	-3.2697	1.6281	3.9075	5.1999	5.6464	5.2536
2.9239	4.1324	8.1506	9.6277	8.54	13.2465	12.3703	9.7049	16.2778	13.6124	10.4837	17.1674	11.9608	-0.8359	-4.5923	-3.0884	1.6382	3.8336	5.1831	5.69	5.2637
3.1555	4.3372	8.3386	9.6579	8.7347	13.3875	12.4341	9.8257	16.3248	13.7097	10.5542	17.1841	12.0682	-0.8527	-4.4144	-2.9004	1.6684	3.7631	5.1025	5.7336	5.2368
3.3603	4.6191	8.5703	9.7116	8.9227	13.5385	12.4979	9.96	16.4355	13.7769	10.6079	17.1942	12.1487	-0.8627	-4.223	-2.7258	1.6818	3.6993	5.069	5.7941	5.1932
3.5718	4.8541	8.7784	9.7485	9.1611	13.7131	12.5784	10.0977	16.506	13.8843	10.6583	17.2345	12.2192	-0.8762	-4.0182	-2.5311	1.7053	3.6288	4.9985	5.8713	5.1395
3.7866	5.1126	9.01	9.8358	9.3893	13.8675	12.6758	10.2319	16.5833	14.0018	10.7187	17.2144	12.2998	-0.8728	-3.8135	-2.3398	1.7188	3.5986	4.938	5.9586	5.069
4.0485	5.4047	9.2416	9.9399	9.6378	14.0353	12.8067	10.4065	16.694	14.126	10.7858	17.2211	12.3669	-0.8963	-3.6221	-2.1317	1.7389	3.5382	4.8978	6.0022	5.032
4.2969	5.7001	9.4901	10.054	9.8727	14.1965	12.9443	10.5609	16.7444	14.2636	10.8731	17.1976	12.4542	-0.8829	-3.4207	-1.9571	1.7255	3.5449	4.8508	6.0928	5.0153
4.5184	6.0223	9.7183	10.1648	10.148	14.3509	13.0618	10.712	16.835	14.3945	10.9235	17.1439	12.5113	-0.8762	-3.2462	-1.7624	1.7389	3.5114	4.8138	6.0861	4.9884
4.7501	6.3312	9.913	10.3058	10.4132	14.5255	13.233	10.8563	16.8921	14.5255	10.9839	17.0868	12.565	-0.8862	-3.0447	-1.5576	1.7355	3.4912	4.7568	6.1398	4.985
4.938	6.5762	10.1144	10.4099	10.6113	14.6564	13.364	10.9839	16.9122	14.6262	11.0342	16.9928	12.5851	-0.8795	-2.8836	-1.4166	1.7255	3.5147	4.6628	6.1835	4.9448
5.126	6.8112	10.3024	10.5475	10.7993	14.7806	13.5251	11.1014	16.9559	14.7437	11.0712	16.9223	12.6053	-0.8661	-2.7191	-1.2253	1.6919	3.5281	4.5956	6.2003	4.9213
5.3006	6.9992	10.4434	10.618	10.994	14.8578	13.656	11.192	16.9492	14.8007	11.088	16.7914	12.6019	-0.8392	-2.558	-1.0709	1.6516	3.5181	4.5151	6.2238	4.8911
5.4785	7.2208	10.6213	10.7321	11.1819	14.9921	13.7735	11.3229	16.9894	14.9048	11.1115	16.7276	12.5919	-0.8124	-2.4203	-0.8929	1.5643	3.5651	4.4815	6.2808	4.8911
5.6195	7.3651	10.7657	10.7455	11.3263	15.0726	13.8608	11.3934	16.9794	14.9954	11.1115	16.6269	12.6053	-0.7553	-2.2995	-0.7687	1.4804	3.5886	4.4781	6.358	4.8239
5.7739	7.5665	10.8932	10.7858	11.4908	15.1599	13.9749	11.4572	16.9894	15.0726	11.1282	16.5396	12.5717	-0.7016	-2.1854	-0.611	1.3696	3.6423	4.5084	6.4285	4.8239
5.9048	7.7042	11.0175	10.806	11.6183	15.2304	14.0387	11.5076	16.9995	15.1431	11.1148	16.4456	12.5919	-0.658	-2.0712	-0.4565	1.2723	3.696	4.5319	6.5259	4.7769
6.0056	7.7948	11.1148	10.8496	11.7157	15.2942	14.1394	11.5378	17.0029	15.217	11.0846	16.4053	12.612	-0.6076	-1.9907	-0.3424	1.1783	3.7363	4.6057	6.593	4.6997
6.113	7.8519	11.2558	10.9201	11.7896	15.4117	14.2267	11.5814	17.0599	15.3177	11.0611	16.3885	12.6489	-0.5673	-1.8765	-0.2216	1.091	3.8135	4.6997	6.6669	4.6594
6.217	7.9291	11.3699	11.0242	11.8735	15.5124	14.3442	11.6385	17.1136	15.4285	11.0846	16.3785	12.6993	-0.5237	-1.7691	-0.0974	0.9903	3.9108	4.7534	6.7743	4.5956
6.2842	7.9962	11.4908	11.1853	11.9373	15.6366	14.5355	11.6922	17.1808	15.546	11.098	16.412	12.7866	-0.4767	-1.7255	-0.0067	0.9097	4.0082	4.8038	6.8716	4.5554
6.3614	8.0231	11.615	11.3297	11.9977	15.7407	14.7067	11.7526	17.305	15.6903	11.1551	16.459	12.8873	-0.4431	-1.665	0.0705	0.8527	4.119	4.8273	7.0026	4.5016
6.4151	8.06	11.7191	11.4941	12.0413	15.8481	14.9081	11.7593	17.399	15.8246	11.2122	16.496	12.9813	-0.4398	-1.6382	0.1175	0.8292	4.176	4.8273	7.0966	4.4714
6.4688	8.107	11.8298	11.6989	12.0917	15.9555	15.1297	11.8231	17.5299	15.9924	11.3364	16.5967	13.092	-0.4163	-1.608	0.141	0.7922	4.27	4.8441	7.204	4.4781
6.489	8.1171	11.9138	11.8567	12.1353	16.0495	15.3479	11.8835	17.6239	16.0999	11.4001	16.6537	13.1558	-0.4129	-1.5778	0.1813	0.7956	4.3137	4.8172	7.2275	4.4513
6.4822	8.1271	12.0044	12.0413	12.1689	16.167	15.5225	11.9339	17.7313	16.2476	11.5445	16.7511	13.2263	-0.4095	-1.5778	0.1645	0.7889	4.3942	4.7937	7.3114	4.5184
6.4789	8.107	12.0447	12.1689	12.1622	16.2509	15.6735	12.0145	17.8253	16.3416	11.6418	16.8317	13.2901	-0.4062	-1.6348	0.1645	0.7889	4.4345	4.7937	7.3651	4.552
6.452	8.0331	12.0648	12.2729	12.1487	16.2946	15.7742	12.0615	17.8857	16.4288	11.7258	16.8787	13.3035	-0.4129	-1.6785	0.1276	0.8224	4.4647	4.8172	7.3819	4.5923
6.3916	7.9425	12.1017	12.3502	12.1286	16.3449	15.8951	12.1722	17.9764	16.5027	11.8768	16.9693	13.3606	-0.4028	-1.7288	0.0604	0.8191	4.5117	4.9146	7.4054	4.7031
6.3144	7.825	12.085	12.4307	12.0547	16.355	15.9824	12.1991	18.0133	16.5463	11.9876	17.0197	13.3572	-0.433	-1.8295	-0.0403	0.8527	4.4916	5.0287	7.3416	4.8038
6.2003	7.6639	12.0346	12.4777	11.9742	16.3651	16.026	12.2293	18.0536	16.6101	12.085	17.0801	13.3606	-0.4498	-1.9504	-0.1276	0.8929	4.5151	5.1764	7.3047	4.9112
6.0861	7.5565	11.9742	12.5079	11.8735	16.3483	16.1032	12.2461	18.0838	16.6437	12.2092	17.1237	13.3606	-0.4767	-2.0746	-0.2383	0.9299	4.5151	5.3879	7.2174	5.0455
5.9518	7.4121	11.9272	12.6254	11.7526	16.3718	16.1838	12.2528	18.1442	16.7007	12.3099	17.1976	13.4076	-0.5069	-2.1921	-0.3625	0.9668	4.5251	5.6464	7.1671	5.2167
5.8075	7.2745	11.86	12.7127	11.6486	16.3986	16.2845	12.236	18.1812	16.741	12.4475	17.2781	13.4613	-0.5002	-2.3969	-0.4968	1.0004	4.5386	5.8813	7.0932	5.408
5.7034	7.1671	11.7929	12.8134	11.5479	16.3751	16.3617	12.236	18.255	16.8082	12.5583	17.3654	13.5016	-0.5304	-2.5513	-0.611	1.044	4.5419	6.1566	7.0193	5.6061
5.5725	7.0563	11.7291	12.9141	11.4572	16.3718	16.4188	12.236	18.3054	16.8719	12.6691	17.4628	13.5587	-0.5472	-2.699	-0.6949	1.0608	4.5688	6.4319	6.9556	5.8075
5.3812	6.9321	11.6116	12.9611	11.3666	16.3516	16.4355	12.2394	18.3423	16.8787	12.7866	17.5702	13.5922	-0.5505	-2.8568	-0.8157	1.0809	4.5856	6.6534	6.8683	5.9854
5.2032	6.8179	11.5109	12.9678	11.2726	16.3416	16.3718	12.2058	18.3859	16.9122	12.8806	17.6205	13.6124	-0.564	-3.0414	-0.9433	1.1145	4.5889	6.8414	6.7844	6.1432
5.0421	6.7072	11.3834	12.9175	11.1954	16.3113	16.308	12.2125	18.4262	16.9122	12.9779	17.7145	13.6526	-0.5539	-3.2126	-1.0306	1.1078	4.6326	6.9958	6.7441	6.3144
4.8709	6.6367	11.2524	12.8336	11.1081	16.2643	16.1636	12.1924	18.4262	16.8552	13.0685	17.7481	13.6292	-0.5841	-3.4174	-1.1346	1.1414	4.6024	7.0294	6.6501	6.489
4.6561	6.5695	11.1215	12.6825	11.051	16.1972	16.0126	12.1555	18.4296	16.7679	13.1189	17.785	13.6023	-0.5942	-3.555	-1.2488	1.1783	4.5721	7.0261	6.5762	6.6132
4.4781	6.5729	11.0007	12.5314	11.0007	16.1502	15.8447	12.1286	18.4094	16.6806	13.2028	17.7985	13.5419	-0.6378	-3.7363	-1.3293	1.2387	4.5285	6.9254	6.4789	6.7441
4.3338	6.6501	10.8966	12.4609	10.9872	16.0864	15.7474	12.1353	18.4094	16.6235	13.2465	17.8186	13.4848	-0.658	-3.8806	-1.3797	1.3092	4.4916	6.7877	6.4185	6.8414
4.1928	6.7172	10.8228	12.4005	11.0242	16.0797	15.6668	12.2025	18.4262	16.5598	13.327	17.7884	13.4143	-0.6982	-4.0149	-1.4468	1.3763	4.4547	6.6434	6.3345	6.969
4.072	6.8314	10.769	12.3938	11.0846	16.0394	15.6299	12.2528	18.4229	16.5228	13.4009	17.7817	13.3337	-0.7587	-4.1559	-1.4771	1.4771	4.3976	6.4923	6.2506	7.0563
3.9377	6.8985	10.6985	12.377	11.098	15.9857	15.5862	12.2998	18.3994	16.4993	13.4378	17.738	13.2632	-0.8057	-4.2566	-1.5274	1.5778	4.3539	6.3043	6.1566	7.1201
3.8336	6.9623	10.6146	12.3468	11.0913	15.9454	15.5627	12.3267	18.3356	16.4221	13.421	17.6575	13.1458	-0.8527	-4.3774	-1.571	1.6986	4.2969	6.1365	6.0828	7.1503
3.6792	6.969	10.5408	12.3032	11.088	15.8749	15.5191	12.3367	18.2785	16.3449	13.4076	17.6105	13.0618	-0.9097	-4.4849	-1.6281	1.7892	4.2599	5.9854	6.0559	7.2174
3.5818	6.9321	10.4636	12.2293	11.0645	15.8044	15.4285	12.2998	18.2047	16.261	13.364	17.4997	12.9276	-0.9534	-4.5889	-1.6751	1.8765	4.2197	5.8142	5.9888	7.204
3.4576	6.8683	10.383	12.1219	11.0007	15.7205	15.311	12.2394	18.1107	16.1267	13.2834	17.4057	12.8101	-0.9937	-4.6896	-1.712	1.947	4.1559	5.6699	5.9552	7.1838
3.3401	6.7743	10.2789	11.9406	10.947	15.6097	15.123	12.1353	17.973	15.9622	13.139	17.2412	12.6389	-1.0104	-4.7803	-1.7825	1.9873	4.1055	5.502	5.9216	7.1133
3.2462	6.7004	10.1849	11.7526	10.853	15.5258	14.8981	12.038	17.8455	15.8078	13.0115	17.1204	12.5046	-1.0104	-4.8575	-1.8127	1.9974	4.072	5.3375	5.8679	7.0596
3.1253	6.6367	10.1044	11.5277	10.7825	15.4016	14.7034	11.9507	17.7414	15.6567	12.9007	16.9659	12.3703	-1.0138	-4.9481	-1.89	1.9974	4.0585	5.2066	5.8142	7.016
3.0481	6.6199	10.0272	11.2222	10.7288	15.2841	14.4281	11.8399	17.5769	15.4855	12.7328	16.8082	12.189	-1.0104	-5.0421	-1.9739	1.9839	4.0451	5.0119	5.7739	6.969
2.9575	6.5695	9.9298	10.9235	10.6616	15.2036	14.1797	11.7325	17.4561	15.2774	12.5919	16.6638	12.038	-0.9836	-5.1428	-2.0511	1.937	4.0317	4.8944	5.7269	6.9489
2.8265	6.4923	9.8459	10.5811	10.5441	15.076	13.8138	11.5881	17.2781	15.0055	12.4106	16.4624	11.85	-0.9802	-5.2502	-2.1484	1.9135	3.9948	4.7736	5.6497	6.9119
2.709	6.3782	9.7351	10.1917	10.4132	14.9316	13.4479	11.4337	17.0969	14.7269	12.2394	16.2576	11.6284	-0.9668	-5.351	-2.2324	1.8866	3.988	4.6863	5.6296	6.8817
2.5446	6.2573	9.6042	9.8022	10.2487	14.7504	13.0618	11.3095	16.8854	14.4147	12.0648	16.0394	11.3565	-0.95	-5.4819	-2.3901	1.8497	3.9075	4.5721	5.5524	6.8448
2.3767	6.0828	9.4498	9.4061	10.0641	14.5657	12.6724	11.1047	16.6437	14.079	11.813	15.7541	11.0443	-0.9467	-5.6229	-2.511	1.8463	3.8571	4.4781	5.4785	6.7709
2.2156	5.878	9.2685	9.0469	9.8929	14.3475	12.2931	10.8865	16.3516	13.6862	11.5646	15.4654	10.6851	-0.9634	-5.7504	-2.6654	1.8597	3.743	4.2734	5.3912	6.6971
2.0377	5.6497	9.1107	8.728	9.7015	14.1092	11.9104	10.675	16.073	13.2935	11.3028	15.1498	10.3058	-0.9668	-5.9183	-2.8635	1.8799	3.6456	4.0988	5.2972	6.6064
1.8665	5.3912	8.9261	8.4729	9.4766	13.9078	11.5445	10.4568	15.7877	12.8772	11.0208	14.8141	9.9197	-0.9802	-6.0526	-3.0145	1.9168	3.5349	3.9545	5.1898	6.4957
1.6986	5.1831	8.7549	8.3151	9.3021	13.7064	11.2457	10.2689	15.509	12.4609	10.769	14.512	9.5102	-1.0239	-6.2137	-3.1958	1.9739	3.3939	3.7766	5.0925	6.405
1.5778	5.0052	8.6407	8.2379	9.1812	13.4814	10.9839	10.054	15.2136	12.085	10.4971	14.1931	9.1074	-1.0339	-6.3345	-3.3401	2.0343	3.2294	3.6423	4.9515	6.2976
1.4502	4.8407	8.4964	8.2144	9.0939	13.3002	10.7925	9.8929	14.9484	11.7123	10.2454	13.8943	8.6877	-1.0709	-6.4352	-3.4912	2.1115	3.0783	3.5416	4.834	6.2036
1.3428	4.6729	8.3923	8.2144	8.9764	13.1458	10.618	9.7418	14.7	11.3666	9.9835	13.6224	8.3185	-1.138	-6.5796	-3.6725	2.2089	2.9474	3.4274	4.6661	6.1197
1.2521	4.5016	8.3084	8.2513	8.8824	13.0014	10.5374	9.5975	14.5053	11.0745	9.7687	13.3908	7.9794	-1.1548	-6.6534	-3.7933	2.2928	2.8131	3.3905	4.5587	6.0022
1.1783	4.3069	8.201	8.3017	8.728	12.8503	10.4669	9.4028	14.2972	10.816	9.5135	13.1491	7.6303	-1.2186	-6.7609	-3.9041	2.3935	2.6419	3.3704	4.4177	5.9082
1.0843	4.0955	8.107	8.3319	8.5703	12.7194	10.4401	9.2081	14.0958	10.5609	9.2819	12.9242	7.3349	-1.2589	-6.8549	-4.0417	2.4976	2.511	3.3972	4.2902	5.7806
1.0306	3.9243	8.0499	8.3286	8.3856	12.6053	10.4233	9.0234	13.9481	10.3662	9.0469	12.7496	7.0731	-1.3193	-6.9287	-4.0955	2.5983	2.3633	3.461	4.1794	5.6665
0.9567	3.7061	7.9526	8.2278	8.1808	12.4911	10.3696	8.8522	13.7701	10.1547	8.8153	12.5919	6.8246	-1.3629	-6.9858	-4.1492	2.6923	2.2357	3.4711	4.0652	5.5457
0.9332	3.5785	7.8787	8.1406	8.0466	12.4139	10.3159	8.7079	13.6426	10.0003	8.634	12.4777	6.6232	-1.3998	-7.0328	-4.1727	2.7493	2.1552	3.5214	4.0048	5.4718
0.8795	3.4711	7.8452	8.0197	7.9056	12.3434	10.2386	8.5904	13.5385	9.8593	8.4796	12.377	6.4688	-1.4334	-7.1033	-4.2398	2.8198	2.0645	3.5013	3.9175	5.4013
0.8627	3.414	7.8384	7.8754	7.8317	12.2797	10.2017	8.5266	13.4915	9.7821	8.3957	12.3099	6.3144	-1.4435	-7.1133	-4.2331	2.8702	2.0108	3.4811	3.8504	5.4013
0.8829	3.3972	7.825	7.7377	7.7612	12.2729	10.148	8.5098	13.4814	9.7183	8.3588	12.3099	6.254	-1.4603	-7.1167	-4.2029	2.9004	2.0074	3.4274	3.8135	5.4416
0.9064	3.4375	7.8217	7.5967	7.7478	12.2696	10.1279	8.5132	13.4479	9.668	8.342	12.283	6.1801	-1.4703	-7.1066	-4.1895	2.9205	1.9974	3.3771	3.8	5.4852
0.9634	3.4644	7.8552	7.402	7.7713	12.2897	10.0674	8.5736	13.4445	9.6747	8.3554	12.2864	6.1264	-1.4804	-7.0898	-4.1257	2.9306	2.041	3.273	3.7598	5.5692
0.997	3.5382	7.8989	7.261	7.8183	12.3032	10.0305	8.6642	13.4882	9.6848	8.4158	12.3132	6.0928	-1.4737	-7.0529	-4.082	2.9172	2.0645	3.2126	3.7531	5.6866
1.0373	3.5516	7.9257	7.0798	7.8854	12.3502	9.9869	8.7717	13.5083	9.6881	8.4561	12.2998	6.0895	-1.467	-7.0294	-4.0552	2.897	2.1182	3.1723	3.7329	5.8041
1.1145	3.6188	7.9727	6.9086	7.9459	12.3669	9.95	8.8489	13.5452	9.7418	8.54	12.3669	6.1163	-1.4435	-6.9858	-3.9679	2.85	2.1719	3.1891	3.7564	5.9216
1.1548	3.5651	7.9895	6.7944	7.9425	12.3636	9.8862	8.9395	13.562	9.7418	8.5971	12.3535	6.1197	-1.4267	-6.9287	-3.941	2.8098	2.2223	3.2059	3.7195	5.9653
1.1951	3.5818	7.9996	6.7239	7.9593	12.3804	9.8526	8.9664	13.5553	9.7787	8.6172	12.3535	6.1264	-1.3965	-6.8918	-3.9008	2.7661	2.2827	3.2663	3.6691	5.9653
1.2656	3.5852	8.0701	6.7139	7.9425	12.4274	9.8694	9.0033	13.609	9.8358	8.634	12.4039	6.2003	-1.373	-6.8414	-3.8571	2.7023	2.3566	3.3435	3.6523	5.9854
1.3361	3.5852	8.0969	6.8045	7.919	12.4341	9.9332	8.9664	13.5956	9.8929	8.6374	12.3669	6.2741	-1.3361	-6.7575	-3.8068	2.6385	2.4237	3.461	3.6121	5.9283
1.4267	3.5986	8.1741	6.9489	7.872	12.4744	10.0137	8.9429	13.656	10.0037	8.6609	12.4039	6.3748	-1.3058	-6.7072	-3.7799	2.5714	2.511	3.5852	3.5785	5.8813
1.5207	3.6288	8.2581	7.0798	7.8586	12.5247	10.1379	8.9026	13.6862	10.1178	8.6575	12.4139	6.4856	-1.2723	-6.6064	-3.743	2.4942	2.5983	3.6758	3.5416	5.7874
1.5744	3.6322	8.2983	7.2409	7.8049	12.5784	10.2454	8.8455	13.7164	10.242	8.6206	12.4139	6.6333	-1.2119	-6.5695	-3.7094	2.3935	2.6755	3.7698	3.4979	5.7034
1.665	3.6288	8.3621	7.3383	7.778	12.5784	10.3058	8.812	13.7399	10.336	8.6172	12.4173	6.7877	-1.1481	-6.5024	-3.6725	2.2491	2.7628	3.8168	3.461	5.5927
1.7221	3.6389	8.4259	7.3853	7.7679	12.5986	10.2991	8.7683	13.7299	10.4031	8.5971	12.4207	6.8985	-1.0608	-6.4587	-3.6859	2.0847	2.8568	3.8336	3.3939	5.4684
1.7825	3.6288	8.4561	7.4423	7.7444	12.6321	10.289	8.7482	13.7097	10.4535	8.5703	12.3602	7.0026	-0.9567	-6.3614	-3.6591	1.9034	2.9306	3.8034	3.3334	5.3543
1.7926	3.6288	8.4595	7.4759	7.731	12.5885	10.2554	8.6978	13.6728	10.4468	8.53	12.2998	7.0764	-0.8762	-6.3144	-3.6456	1.7355	3.0011	3.6826	3.2629	5.2167
1.8396	3.6792	8.4863	7.486	7.7243	12.6053	10.2219	8.6945	13.6191	10.4736	8.5132	12.2327	7.1771	-0.799	-6.2573	-3.6255	1.5576	3.0515	3.4979	3.2294	5.1126
1.8698	3.7195	8.5098	7.5162	7.7411	12.5952	10.2185	8.7079	13.5788	10.4535	8.5065	12.1286	7.2107	-0.7083	-6.2036	-3.6255	1.3864	3.1219	3.2797	3.2394	4.985
1.8564	3.7732	8.5233	7.5095	7.7579	12.5281	10.1883	8.6609	13.4814	10.43	8.4863	12.0145	7.2678	-0.6479	-6.16	-3.6087	1.2555	3.1689	3.028	3.2227	4.8642
1.853	3.837	8.4763	7.4826	7.7847	12.4945	10.1782	8.6642	13.3807	10.4166	8.4595	11.8701	7.2946	-0.5841	-6.1163	-3.6053	1.1279	3.2294	2.793	3.2126	4.74
1.8631	3.8873	8.4729	7.4255	7.8116	12.3938	10.1044	8.634	13.2465	10.383	8.3823	11.6956	7.2946	-0.517	-6.0895	-3.6087	1.0037	3.2462	2.5748	3.226	4.6191
1.8463	3.9142	8.4058	7.3416	7.8082	12.2998	10.0305	8.577	13.0887	10.3259	8.3118	11.5076	7.3013	-0.4666	-6.0492	-3.5785	0.8997	3.2797	2.3935	3.2092	4.4781
1.8127	3.9041	8.3621	7.2845	7.7545	12.2058	9.9802	8.4796	12.9376	10.2655	8.2278	11.3162	7.2879	-0.4196	-6.0358	-3.6188	0.8124	3.2965	2.2861	3.1488	4.317
1.7523	3.9008	8.2983	7.2476	7.6974	12.0816	9.8929	8.3755	12.7664	10.2286	8.1238	11.1014	7.3383	-0.3726	-6.0358	-3.6087	0.7184	3.3401	2.1719	3.1488	4.176
1.7188	3.8336	8.2312	7.1973	7.6035	11.954	9.8425	8.2379	12.5751	10.1816	8.0096	10.8731	7.3517	-0.3424	-6.0022	-3.6053	0.6378	3.3569	2.0645	3.1052	4.0182
1.6348	3.7866	8.1238	7.1268	7.5095	11.8265	9.8425	8.1137	12.3871	10.2219	7.919	10.6985	7.3886	-0.2988	-6.0056	-3.6121	0.5539	3.367	1.9101	3.0817	3.9142
1.5744	3.7296	7.9929	7.0462	7.3953	11.7157	9.8157	7.9828	12.2427	10.2118	7.8015	10.5341	7.4557	-0.2786	-6.0358	-3.6188	0.5035	3.4207	1.6885	3.0917	3.837
1.5106	3.696	7.9694	7.0261	7.3584	11.6083	9.8291	7.8989	12.095	10.2722	7.7948	10.4233	7.5598	-0.2283	-6.0626	-3.6356	0.4364	3.4778	1.4771	3.1589	3.8101
1.4334	3.6557	7.8586	7.0059	7.2913	11.5109	9.8257	7.8586	11.9775	10.3024	7.7478	10.2991	7.674	-0.2182	-6.0559	-3.6557	0.4095	3.5449	1.1884	3.1723	3.8068
1.3528	3.5718	7.7814	7.0395	7.2375	11.4001	9.8157	7.8149	11.86	10.3561	7.7277	10.1782	7.7881	-0.1947	-6.0962	-3.6926	0.3793	3.6389	0.9366	3.2361	3.8269
1.2924	3.5181	7.684	7.0831	7.1637	11.2827	9.7821	7.7444	11.7493	10.3595	7.6941	10.0909	7.8989	-0.2048	-6.1465	-3.7161	0.386	3.7128	0.6747	3.2898	3.9175
1.1917	3.4241	7.5632	7.1536	7.0798	11.1618	9.7183	7.6639	11.6016	10.3629	7.6572	9.9768	7.9593	-0.2316	-6.2238	-3.7631	0.4196	3.7799	0.4599	3.3234	3.9813
1.0272	3.2797	7.4155	7.1671	6.9052	10.9805	9.6445	7.5195	11.427	10.3058	7.5598	9.809	7.9794	-0.2652	-6.3345	-3.8437	0.4901	3.8202	0.2686	3.3368	4.082
0.8862	3.0951	7.251	7.1402	6.7206	10.7758	9.5169	7.3383	11.2122	10.2118	7.4423	9.6243	7.9224	-0.2954	-6.4117	-3.9108	0.564	3.8571	0.1007	3.32	4.1626
0.7016	2.9373	7.0428	7.0831	6.5527	10.5508	9.3759	7.1469	11.004	10.0742	7.3047	9.4464	7.8787	-0.329	-6.5158	-4.0082	0.6311	3.894	-0.0134	3.2797	4.2935
0.5673	2.793	6.8314	6.9656	6.3412	10.3394	9.198	6.9489	10.759	9.9432	7.1637	9.2114	7.8015	-0.376	-6.6165	-4.0686	0.7217	3.884	-0.1175	3.2495	4.4244
0.3793	2.6117	6.6434	6.8213	6.1298	10.101	8.9832	6.7407	10.5173	9.7418	6.9858	8.9764	7.6437	-0.423	-6.7139	-4.1525	0.809	3.8739	-0.1544	3.1622	4.5319
0.1981	2.4371	6.4185	6.6501	5.8847	9.8291	8.7616	6.5225	10.2454	9.5337	6.7978	8.7213	7.4658	-0.4599	-6.8414	-4.213	0.9131	3.8437	-0.1981	3.0917	4.6124
0.0235	2.2894	6.1734	6.3882	5.6799	9.584	8.4796	6.2842	9.9701	9.292	6.593	8.4763	7.2711	-0.5203	-6.9153	-4.2834	0.997	3.8135	-0.2048	2.9977	4.6829
-0.1511	2.0779	5.925	6.0995	5.4147	9.2886	8.1775	6.0626	9.6713	9.0671	6.3647	8.2043	7.0361	-0.5505	-7.0261	-4.3472	1.0742	3.7531	-0.2115	2.9071	4.74
-0.2988	1.937	5.7068	5.8109	5.2032	9.0469	7.9022	5.8478	9.4296	8.822	6.1902	7.9895	6.8381	-0.5807	-7.063	-4.411	1.1346	3.743	-0.2249	2.8333	4.7971
-0.4297	1.8027	5.4953	5.5322	5.022	8.7952	7.6001	5.6766	9.1644	8.5837	5.9988	7.7881	6.6467	-0.6042	-7.1268	-4.4211	1.1816	3.7027	-0.2081	2.756	4.834
-0.5203	1.712	5.3375	5.2737	4.9246	8.5971	7.3383	5.5356	8.9529	8.3588	5.8411	7.5665	6.4386	-0.6277	-7.1603	-4.4244	1.2119	3.6792	-0.1645	2.6755	4.8709
-0.6076	1.6449	5.1865	5.0723	4.8508	8.4058	7.1234	5.455	8.775	8.1708	5.7269	7.4121	6.2741	-0.6277	-7.1906	-4.4379	1.2219	3.6624	-0.1074	2.6385	4.928
-0.6277	1.6986	5.0858	4.9783	4.8407	8.2614	6.9925	5.4315	8.6374	8.0466	5.6094	7.3047	6.1398	-0.6345	-7.1973	-4.4077	1.2286	3.6624	-0.0302	2.6151	4.9783
-0.668	1.7557	5.0018	4.9078	4.8474	8.1406	6.8918	5.4248	8.4998	7.9291	5.5054	7.2006	6.0458	-0.6244	-7.1738	-4.3942	1.2253	3.6725	0.0604	2.6016	4.9582
-0.6311	1.8262	4.9716	4.8608	4.8944	8.0701	6.8448	5.408	8.3923	7.8653	5.3845	7.0831	5.9619	-0.6076	-7.1671	-4.3707	1.1917	3.6792	0.1712	2.5815	4.9515
-0.6546	1.8564	4.8877	4.8004	4.8843	7.9694	6.8045	5.3711	8.2816	7.8116	5.2402	6.9925	5.8713	-0.6076	-7.1637	-4.3707	1.1816	3.6792	0.2551	2.5446	4.9078
-0.658	1.843	4.8575	4.7501	4.8138	7.8653	6.7844	5.2972	8.1708	7.7243	5.1093	6.8884	5.7336	-0.6042	-7.1671	-4.4244	1.1615	3.6523	0.3995	2.5345	4.881
-0.7251	1.7926	4.7501	4.6057	4.7366	7.7075	6.7038	5.1932	8.0063	7.6102	4.9313	6.734	5.549	-0.5875	-7.1503	-4.4446	1.1514	3.5919	0.5002	2.5043	4.8239
-0.7687	1.7322	4.6695	4.4345	4.6259	7.58	6.5762	5.0522	7.8351	7.4692	4.7232	6.5561	5.3879	-0.574	-7.1368	-4.505	1.1212	3.5516	0.5975	2.4506	4.7668
-0.8527	1.6382	4.5554	4.2331	4.4278	7.3987	6.4218	4.8407	7.6135	7.3181	4.4983	6.3748	5.163	-0.5807	-7.11	-4.5453	1.1212	3.4341	0.668	2.3599	4.7232
-0.8997	1.4938	4.4211	4.0451	4.2432	7.2174	6.2808	4.6359	7.3718	7.1402	4.2599	6.16	4.9011	-0.5707	-7.1133	-4.6225	1.1011	3.3469	0.7486	2.2827	4.6628
-1.0239	1.2891	4.2834	3.7799	3.9914	7.0026	6.0895	4.4043	7.1368	6.9186	4.025	5.9015	4.6225	-0.5841	-7.1234	-4.7064	1.1179	3.1924	0.8392	2.1451	4.5654
-1.1145	1.1111	4.1425	3.5349	3.7128	6.8146	5.9485	4.1458	6.8951	6.7307	3.7766	5.6766	4.3036	-0.5875	-7.1234	-4.7903	1.1346	3.0112	0.9164	2.0477	4.5117
-1.1783	0.9332	4.0149	3.3301	3.4845	6.6434	5.8545	3.9175	6.6702	6.5427	3.5315	5.4416	4.0082	-0.5908	-7.1368	-4.8709	1.1548	2.85	1.0709	1.947	4.4312
-1.2689	0.7285	3.8773	3.1454	3.2092	6.4386	5.7672	3.6591	6.4386	6.358	3.2764	5.1932	3.7061	-0.621	-7.1234	-4.9347	1.2219	2.6587	1.1581	1.8396	4.3506
-1.3831	0.4666	3.743	3.0212	2.9239	6.254	5.7336	3.3939	6.1868	6.1868	3.0179	4.9515	3.4106	-0.6747	-7.1234	-4.9716	1.3126	2.4438	1.2421	1.759	4.2197
-1.4502	0.2585	3.649	3.0112	2.6956	6.113	5.7236	3.1589	6.019	6.0458	2.7829	4.7903	3.1757	-0.7083	-7.11	-4.9817	1.3898	2.2659	1.3361	1.7288	4.0887
-1.4938	0.0537	3.5583	3.0313	2.5009	5.9854	5.7034	2.9306	5.8444	5.925	2.5681	4.6057	2.944	-0.7486	-7.0865	-5.0119	1.4804	2.0914	1.3864	1.7355	3.931
-1.5308	-0.1208	3.5147	3.075	2.3364	5.9048	5.6497	2.7628	5.7169	5.8109	2.3734	4.4916	2.7493	-0.799	-7.0898	-5.0018	1.5576	1.937	1.373	1.7422	3.7296
-1.5442	-0.2383	3.4778	3.075	2.2156	5.8344	5.5725	2.5916	5.5927	5.7034	2.1719	4.3976	2.5647	-0.8292	-7.0294	-4.9918	1.6315	1.7926	1.3092	1.7792	3.5281
-1.5341	-0.2988	3.4711	3.1052	2.1484	5.784	5.5255	2.4707	5.5121	5.5994	2.0276	4.3271	2.4103	-0.8627	-6.9489	-4.9112	1.6953	1.655	1.232	1.8396	3.3469
-1.5375	-0.3323	3.461	3.132	2.1082	5.7706	5.4651	2.4036	5.4517	5.502	1.9336	4.2969	2.2961	-0.8862	-6.8884	-4.8508	1.7389	1.5643	1.0809	1.9336	3.1757
-1.5106	-0.3391	3.4912	3.1622	2.1317	5.784	5.4382	2.3599	5.4382	5.4282	1.8362	4.2801	2.1753	-0.8997	-6.781	-4.7501	1.7691	1.4603	0.9433	2.0041	2.9776
-1.4703	-0.329	3.5349	3.1589	2.1283	5.8075	5.4349	2.3398	5.4449	5.3912	1.7758	4.27	2.0847	-0.9232	-6.6803	-4.5956	1.7993	1.3663	0.8124	2.1182	2.8635
-1.4166	-0.3223	3.602	3.1824	2.182	5.8176	5.4483	2.3499	5.4517	5.3543	1.7322	4.2902	1.994	-0.9332	-6.593	-4.5016	1.8295	1.2555	0.6815	2.2357	2.7762
-1.3562	-0.235	3.6188	3.1857	2.2055	5.8511	5.4416	2.3734	5.4282	5.3342	1.6852	4.2935	1.9034	-0.9332	-6.4957	-4.411	1.8329	1.1951	0.517	2.3264	2.7493
-1.3562	-0.1343	3.6456	3.1723	2.2726	5.8914	5.4181	2.4069	5.4315	5.2704	1.6617	4.2868	1.759	-0.9399	-6.395	-4.3137	1.8295	1.0776	0.3961	2.3969	2.7527
-1.3126	-0.0034	3.7128	3.1454	2.3499	5.8914	5.351	2.4908	5.4114	5.1999	1.6483	4.27	1.6281	-0.9567	-6.3513	-4.2365	1.8665	0.9433	0.3122	2.4405	2.7057
-1.2622	0.2048	3.7766	3.1689	2.4841	5.9216	5.3308	2.605	5.4382	5.1227	1.712	4.2398	1.4737	-0.9467	-6.2607	-4.1458	1.8732	0.8224	0.3189	2.4707	2.7661
-1.2219	0.4565	3.8336	3.1891	2.6453	5.9518	5.3006	2.746	5.4584	5.0589	1.7456	4.223	1.3293	-0.9769	-6.1935	-4.0921	1.9	0.668	0.329	2.4942	2.8467
-1.1313	0.6815	3.9343	3.2025	2.7997	5.9787	5.2771	2.9138	5.4181	4.9515	1.7993	4.2163	1.1548	-0.9802	-6.1163	-4.0216	1.9302	0.5338	0.3424	2.4506	2.9373
-1.0843	0.9164	3.9645	3.179	2.9541	6.0056	5.21	3.0884	5.4483	4.8608	1.853	4.2062	1.0172	-0.997	-6.0492	-3.978	1.9504	0.3894	0.3995	2.3666	3.0078
-1.0138	1.1716	4.0048	3.2159	3.1119	6.0056	5.1596	3.2394	5.4416	4.7534	1.9202	4.1995	0.8325	-0.997	-6.0056	-3.9075	1.9604	0.2383	0.4398	2.2626	3.1052
-0.9433	1.4502	4.0787	3.2495	3.2898	6.0123	5.1025	3.3771	5.4382	4.6292	1.9537	4.1861	0.6848	-1.0004	-5.9451	-3.8605	1.9873	0.0739	0.5103	2.1048	3.1891
-0.8694	1.6785	4.1391	3.2999	3.4207	6.0425	5.0824	3.5046	5.4718	4.5285	2.0074	4.2096	0.5539	-0.9937	-5.8679	-3.8135	1.9839	-0.0671	0.5807	1.9571	3.2294
-0.7956	1.8597	4.2163	3.3939	3.5684	6.0693	5.0522	3.6322	5.4953	4.4144	2.0779	4.2163	0.4498	-1.0104	-5.7941	-3.7967	2.0142	-0.2216	0.6915	1.7758	3.2663
-0.7083	2.0612	4.2734	3.4845	3.6758	6.1197	5.0455	3.7296	5.5154	4.3036	2.1552	4.2599	0.3793	-1.0272	-5.7739	-3.7766	2.0276	-0.3189	0.799	1.6113	3.2797
-0.658	2.1921	4.3439	3.5315	3.7497	6.1465	4.9716	3.8101	5.5557	4.2096	2.182	4.2801	0.3021	-1.0373	-5.7202	-3.7564	2.0444	-0.48	0.9198	1.4468	3.2562
-0.5841	2.3196	4.3909	3.6288	3.8235	6.1734	4.9615	3.8739	5.5893	4.1324	2.2055	4.3304	0.235	-1.0541	-5.7034	-3.7799	2.0746	-0.574	1.0541	1.2823	3.226
-0.5136	2.4371	4.4614	3.6658	3.8638	6.1566	4.9213	3.8873	5.5927	4.082	2.2089	4.3707	0.1947	-1.0474	-5.643	-3.7363	2.0746	-0.668	1.2186	1.1749	3.1656
-0.4868	2.4908	4.4748	3.6288	3.8672	6.1533	4.8541	3.847	5.5826	3.9746	2.1786	4.3506	0.1376	-1.0742	-5.6296	-3.7564	2.1216	-0.7721	1.3394	1.0373	3.0548
-0.4565	2.5009	4.4916	3.5886	3.8638	6.1264	4.7736	3.8235	5.5792	3.8773	2.1384	4.3405	0.0705	-1.0843	-5.5994	-3.7631	2.1384	-0.8661	1.4636	0.903	2.9608
-0.3961	2.5513	4.5218	3.5483	3.8773	6.1197	4.7232	3.7866	5.5893	3.8068	2.1115	4.3137	0.0101	-1.1011	-5.549	-3.743	2.1518	-0.9232	1.571	0.809	2.8601
-0.3424	2.5882	4.5587	3.5718	3.9041	6.1029	4.6762	3.743	5.5356	3.7228	2.0712	4.2767	-0.0369	-1.0944	-5.4987	-3.7128	2.1518	-0.9634	1.6583	0.7117	2.7594
-0.3088	2.6419	4.5856	3.5181	3.941	6.0895	4.5789	3.6826	5.5188	3.649	2.0511	4.2432	-0.0906	-1.1078	-5.455	-3.7363	2.1585	-1.0138	1.6684	0.6143	2.6486
-0.2853	2.6016	4.5822	3.4744	3.9478	6.0458	4.5419	3.6356	5.4718	3.555	2.0041	4.2096	-0.1779	-1.1078	-5.4047	-3.7128	2.1719	-1.0205	1.608	0.5405	2.5446
-0.282	2.5446	4.5654	3.3737	3.9108	5.9653	4.4513	3.5852	5.408	3.4644	1.9907	4.129	-0.2484	-1.1179	-5.3442	-3.7094	2.1686	-1.044	1.4737	0.4364	2.4506
-0.2551	2.4741	4.5319	3.3267	3.8806	5.9015	4.3842	3.5214	5.3375	3.3704	1.9806	4.0585	-0.2887	-1.1111	-5.304	-3.7262	2.1753	-1.0306	1.2958	0.3726	2.4103
-0.2316	2.3566	4.5117	3.226	3.8101	5.8578	4.2969	3.4778	5.2637	3.273	1.9604	3.978	-0.3088	-1.1044	-5.22	-3.6624	2.1585	-0.997	1.0944	0.3223	2.3734
-0.2652	2.2357	4.4949	3.1354	3.7698	5.8041	4.2163	3.461	5.22	3.2126	1.9604	3.9243	-0.3021	-1.091	-5.1999	-3.6725	2.1451	-0.9467	0.8594	0.2484	2.37
-0.2249	2.1887	4.4983	3.0917	3.7631	5.7605	4.223	3.4576	5.1932	3.2126	1.9873	3.9075	-0.2652	-1.0742	-5.1093	-3.5953	2.1048	-0.8795	0.6244	0.2216	2.3868
-0.2115	2.1552	4.5084	3.1152	3.79	5.7605	4.2465	3.4744	5.1932	3.2294	2.0276	3.9075	-0.188	-1.0641	-5.0253	-3.5382	2.0746	-0.7855	0.3995	0.1544	2.3969
-0.1242	2.1786	4.5923	3.2294	3.8504	5.8209	4.4412	3.5382	5.2502	3.3704	2.135	3.9645	0.0101	-1.0272	-4.9515	-3.4341	2.0242	-0.621	0.2216	0.1779	2.4506
-0.047	2.2156	4.6426	3.3569	3.931	5.8948	4.6359	3.6288	5.3409	3.5281	2.2055	4.0015	0.2081	-1.0205	-4.8676	-3.3368	1.9839	-0.4633	0.0269	0.1544	2.4774
0.0034	2.2827	4.7299	3.4543	4.0585	5.9653	4.8776	3.7363	5.4449	3.7262	2.2861	4.0988	0.4028	-0.9937	-4.7803	-3.2126	1.9403	-0.2853	-0.1544	0.1477	2.5177
0.0772	2.3431	4.8071	3.5953	4.1895	6.076	5.1093	3.8672	5.549	3.9377	2.4103	4.1861	0.668	-0.9567	-4.7433	-3.1387	1.8866	-0.1309	-0.3558	0.1208	2.5143
0.1443	2.4304	4.9213	3.7228	4.3271	6.1633	5.351	3.978	5.643	4.176	2.5043	4.2801	0.9064	-0.9332	-4.6729	-3.0078	1.8329	0.1007	-0.5606	0.1175	2.5781
0.188	2.5076	4.9615	3.7665	4.4446	6.2573	5.5591	4.119	5.7336	4.3774	2.6218	4.3707	1.1581	-0.9097	-4.6124	-2.9306	1.7825	0.282	-0.7452	0.1208	2.6385
0.2283	2.5647	5.0253	3.7799	4.4983	6.311	5.7135	4.1794	5.8008	4.5721	2.6553	4.4043	1.326	-0.8829	-4.5822	-2.85	1.7422	0.4431	-0.8929	0.0671	2.6453
0.2316	2.558	5.0421	3.7128	4.5285	6.3647	5.8243	4.2331	5.8209	4.7266	2.6855	4.4043	1.5005	-0.8594	-4.5587	-2.7795	1.6885	0.6042	-1.0138	0.0772	2.6553
0.2249	2.5815	5.0522	3.6221	4.5084	6.348	5.831	4.2297	5.8209	4.8239	2.6486	4.364	1.6348	-0.8359	-4.5251	-2.746	1.6415	0.715	-1.0608	0.0906	2.6218
0.2014	2.5446	5.032	3.4409	4.4009	6.311	5.7907	4.1357	5.7706	4.8709	2.5781	4.2667	1.6751	-0.8124	-4.4781	-2.6788	1.5979	0.8325	-1.044	0.1041	2.5613
0.1779	2.5076	4.9817	3.226	4.2734	6.2204	5.6967	4.0317	5.6766	4.8944	2.4908	4.1626	1.7087	-0.799	-4.4916	-2.6419	1.5576	0.9299	-1.0104	0.1611	2.4976
0.1208	2.4237	4.8843	2.9843	4.0686	6.0861	5.4987	3.837	5.5255	4.8508	2.3062	3.9813	1.6583	-0.7889	-4.4547	-2.6151	1.561	0.9769	-0.9601	0.2182	2.3499
0.0671	2.3297	4.8138	2.7292	3.8638	5.972	5.2737	3.6423	5.361	4.7501	2.0914	3.8101	1.5845	-0.7922	-4.3976	-2.5546	1.5408	0.997	-0.8963	0.2954	2.2021
0.0571	2.2861	4.7333	2.4606	3.6557	5.8411	4.9985	3.4241	5.1932	4.6393	1.8597	3.6087	1.5173	-0.7721	-4.3573	-2.5177	1.524	1.0239	-0.8627	0.3827	2.0578
-0.0201	2.2256	4.6393	2.1854	3.4912	5.7236	4.7266	3.1958	5.0287	4.5386	1.6617	3.4442	1.4401	-0.7788	-4.3036	-2.5009	1.5274	1.0037	-0.8627	0.4431	1.8866
-0.0302	2.1686	4.5889	1.947	3.2999	5.5658	4.4748	2.9642	4.8642	4.4211	1.42	3.273	1.3159	-0.7654	-4.2398	-2.4405	1.5073	0.95	-0.9299	0.48	1.7053
-0.0906	2.1115	4.4949	1.7456	3.1421	5.4483	4.213	2.7963	4.7098	4.3036	1.2253	3.1085	1.2454	-0.7486	-4.1928	-2.3969	1.4804	0.9265	-1.0675	0.5203	1.5677
-0.0772	2.0544	4.4547	1.5945	2.9877	5.351	4.0149	2.5815	4.5621	4.223	1.0004	2.9373	1.1346	-0.7419	-4.1223	-2.3767	1.4603	0.8862	-1.2354	0.5573	1.4133
-0.0739	1.9839	4.4278	1.5475	2.8333	5.2939	3.8605	2.4237	4.4345	4.1727	0.8157	2.8198	1.0608	-0.7251	-4.0652	-2.2928	1.4133	0.8426	-1.4133	0.5942	1.2924
-0.047	1.8564	4.4077	1.5308	2.6553	5.1932	3.7094	2.2156	4.3204	4.0552	0.574	2.6923	0.9769	-0.705	-3.9746	-2.2223	1.3898	0.7587	-1.6113	0.5807	1.1346
-0.0302	1.7288	4.4009	1.6113	2.4942	5.126	3.5818	2.0242	4.2029	3.9578	0.3827	2.558	0.856	-0.6915	-3.8873	-2.2324	1.3528	0.6915	-1.8362	0.5908	0.9869
-0.0269	1.5408	4.3741	1.6953	2.3029	5.0455	3.4509	1.8396	4.0652	3.8101	0.1779	2.4304	0.7217	-0.6882	-3.847	-2.1921	1.3293	0.5875	-2.0847	0.5774	0.8292
0	1.3495	4.3808	1.8127	2.1753	4.9615	3.3536	1.6718	3.9175	3.6893	-0.0034	2.2659	0.5472	-0.6546	-3.7799	-2.1786	1.2924	0.4733	-2.3499	0.574	0.6915
0.0269	1.1682	4.3539	1.9	2.0712	4.8877	3.2529	1.5073	3.79	3.5214	-0.1813	2.1082	0.3323	-0.6479	-3.7564	-2.1619	1.2756	0.3458	-2.605	0.5338	0.5807
0.0235	0.9433	4.3271	1.9302	1.9101	4.8004	3.075	1.3596	3.6188	3.3167	-0.3894	1.9269	0.0873	-0.6345	-3.7396	-2.1518	1.2521	0.1846	-2.8299	0.5136	0.4599
-0.0201	0.6882	4.2633	1.9168	1.7087	4.6359	2.8769	1.1447	3.4241	3.075	-0.5908	1.7188	-0.2316	-0.6277	-3.7363	-2.2021	1.2421	0.0369	-3.0783	0.4532	0.3894
-0.0772	0.3961	4.176	1.8362	1.5375	4.5218	2.6889	0.9634	3.1992	2.7695	-0.7956	1.4771	-0.5371	-0.6378	-3.7396	-2.2861	1.2488	-0.1746	-3.3167	0.376	0.2686
-0.1376	0.1343	4.1055	1.7993	1.3696	4.3707	2.5446	0.752	2.9843	2.5143	-1.0172	1.2488	-0.8963	-0.6445	-3.7296	-2.323	1.2521	-0.386	-3.4845	0.2786	0.1645
-0.188	-0.141	4.0283	1.6953	1.1615	4.2163	2.37	0.5875	2.7493	2.2424	-1.2354	0.9937	-1.2488	-0.658	-3.7497	-2.3935	1.279	-0.6009	-3.6288	0.2048	0.047
-0.2182	-0.3323	3.9612	1.5912	1.0172	4.0955	2.2189	0.4263	2.5311	1.9839	-1.4099	0.7687	-1.608	-0.658	-3.7396	-2.4841	1.2857	-0.7922	-3.7061	0.1242	-0.0739
-0.2753	-0.4834	3.9041	1.4569	0.8795	3.9679	2.0578	0.282	2.3331	1.749	-1.6013	0.5707	-1.9235	-0.668	-3.743	-2.5278	1.2891	-0.9869	-3.7296	0.0705	-0.1544
-0.3122	-0.564	3.8504	1.3293	0.7654	3.8739	1.9135	0.1141	2.1585	1.5039	-1.7926	0.3726	-2.2223	-0.6647	-3.7329	-2.6151	1.2958	-1.1816	-3.696	0.0168	-0.2686
-0.2652	-0.5539	3.8504	1.2286	0.6982	3.7967	1.8161	-0.0067	2.0343	1.3394	-1.9202	0.2115	-2.4875	-0.6613	-3.6926	-2.6788	1.2891	-1.3327	-3.5818	-0.0537	-0.3827
-0.2518	-0.5203	3.8672	1.1649	0.6378	3.7698	1.7322	-0.0974	1.8967	1.1581	-2.0746	0.0974	-2.7292	-0.6647	-3.6859	-2.7258	1.2857	-1.4804	-3.4778	-0.1141	-0.4733
-0.2048	-0.4129	3.9075	1.1514	0.6345	3.7598	1.7355	-0.1846	1.8094	1.091	-2.1954	-0.0067	-2.8937	-0.6546	-3.6322	-2.7393	1.2857	-1.6046	-3.3334	-0.1343	-0.5573
-0.1611	-0.2988	3.9713	1.1548	0.5942	3.7665	1.7758	-0.2551	1.7389	1.0339	-2.323	-0.0537	-3.0112	-0.6647	-3.5986	-2.7695	1.2891	-1.6919	-3.1723	-0.1813	-0.6177
-0.0806	-0.2048	4.035	1.1884	0.5338	3.7833	1.8698	-0.3961	1.6885	1.0239	-2.4304	-0.0839	-3.1085	-0.6647	-3.5449	-2.7594	1.2924	-1.7456	-2.981	-0.1947	-0.7117
0.0201	-0.0739	4.1223	1.2723	0.4767	3.8135	2.0007	-0.517	1.655	1.0574	-2.5916	-0.1276	-3.179	-0.6747	-3.4644	-2.7191	1.3159	-1.8262	-2.7325	-0.1947	-0.8057
0.0906	0.0134	4.1895	1.3495	0.3659	3.8705	2.1417	-0.6815	1.6281	1.0876	-2.7359	-0.1611	-3.2327	-0.6882	-3.4106	-2.7325	1.3461	-1.8564	-2.4606	-0.2148	-0.9064
0.1913	0.1175	4.2432	1.4435	0.2216	3.8773	2.276	-0.856	1.6046	1.1514	-2.9407	-0.2014	-3.2831	-0.7217	-3.3435	-2.662	1.3931	-1.947	-2.1585	-0.2417	-1.0071
0.2686	0.2014	4.3405	1.5677	0.1007	3.9209	2.4472	-1.0406	1.5543	1.1951	-3.0917	-0.2686	-3.3368	-0.7251	-3.2697	-2.6318	1.4133	-1.9839	-1.8463	-0.2283	-1.1145
0.3256	0.3491	4.4177	1.7188	0.0269	3.941	2.6218	-1.1682	1.4905	1.2488	-3.2965	-0.3458	-3.4006	-0.7251	-3.1857	-2.5949	1.4334	-2.0544	-1.5643	-0.2115	-1.2219
0.4163	0.5203	4.4714	1.7892	-0.0369	3.9478	2.7292	-1.3058	1.4233	1.279	-3.461	-0.4532	-3.4879	-0.7318	-3.1354	-2.5177	1.4569	-2.135	-1.2723	-0.2216	-1.3126
0.5103	0.7184	4.5084	1.8832	-0.0235	3.9679	2.8635	-1.4267	1.3629	1.3193	-3.5919	-0.5673	-3.5919	-0.7452	-3.075	-2.4271	1.4703	-2.2357	-0.9869	-0.2148	-1.3898
0.5807	0.8795	4.5822	1.9269	-0.0201	3.931	2.9742	-1.5173	1.2555	1.3058	-3.7497	-0.6882	-3.7396	-0.7486	-3.0246	-2.3364	1.4838	-2.3264	-0.7687	-0.2585	-1.4502
0.6479	1.0742	4.6359	1.9806	0.0168	3.9612	3.0414	-1.5408	1.1884	1.2958	-3.8672	-0.7922	-3.8705	-0.7452	-2.9507	-2.2357	1.4737	-2.4304	-0.6244	-0.282	-1.5207
0.715	1.2387	4.6695	1.9907	0.0101	3.9343	3.075	-1.6214	1.0742	1.2421	-3.9981	-0.9702	-4.025	-0.7452	-2.8635	-2.0981	1.467	-2.5613	-0.5438	-0.3525	-1.5845
0.7788	1.3495	4.7165	1.9974	0.0504	3.9108	3.1119	-1.6382	0.9903	1.1951	-4.0955	-1.0843	-4.176	-0.7419	-2.7896	-1.947	1.4267	-2.699	-0.5069	-0.4095	-1.6348
0.8493	1.4267	4.7232	2.0074	0.0772	3.8873	3.0884	-1.6415	0.8997	1.1111	-4.166	-1.2488	-4.3304	-0.7016	-2.6889	-1.7859	1.3797	-2.8299	-0.5606	-0.4431	-1.6718
0.9399	1.5543	4.7467	1.9839	0.1343	3.8638	3.0515	-1.6382	0.8057	1.0239	-4.2331	-1.3495	-4.5184	-0.6747	-2.5815	-1.6214	1.3159	-2.9642	-0.715	-0.4834	-1.6852
1.0272	1.6919	4.7971	1.947	0.2148	3.8336	3.0045	-1.5845	0.7318	0.9232	-4.2834	-1.4468	-4.6359	-0.6445	-2.4606	-1.4066	1.2756	-3.1287	-0.8627	-0.5103	-1.702
1.1111	1.8497	4.8105	1.8933	0.2786	3.837	2.9541	-1.4972	0.6949	0.8359	-4.2633	-1.4871	-4.7736	-0.6009	-2.323	-1.2219	1.1884	-3.2495	-1.0574	-0.5774	-1.6818
1.2119	1.994	4.8508	1.8497	0.3894	3.8269	2.9105	-1.4233	0.7016	0.7587	-4.2633	-1.5308	-4.8508	-0.5807	-2.2189	-1.0138	1.1346	-3.3569	-1.2656	-0.6512	-1.6583
1.3327	2.1786	4.9313	1.8463	0.5338	3.8873	2.9474	-1.2924	0.7251	0.752	-4.2096	-1.4938	-4.8743	-0.5438	-2.0578	-0.7822	1.0574	-3.4509	-1.4737	-0.6949	-1.6113
1.4905	2.4036	5.0555	1.853	0.7956	3.9679	2.981	-1.1246	0.7855	0.7788	-4.1022	-1.4267	-4.8709	-0.5069	-1.8967	-0.5371	0.9869	-3.5281	-1.6684	-0.7251	-1.561
1.6483	2.6184	5.1831	1.9202	1.0608	4.0787	3.0783	-0.9064	0.8896	0.8694	-3.9981	-1.3562	-4.8575	-0.4733	-1.7456	-0.2887	0.9399	-3.5852	-1.8329	-0.7553	-1.5005
1.8396	2.8668	5.3107	1.9974	1.326	4.166	3.2394	-0.7251	0.997	0.9634	-3.894	-1.2958	-4.8407	-0.4633	-1.524	-0.0201	0.9131	-3.6322	-1.9974	-0.7587	-1.4334
2.0276	3.085	5.4617	2.1753	1.6113	4.2902	3.4174	-0.5103	1.0977	1.0507	-3.7497	-1.185	-4.7903	-0.4565	-1.3696	0.2115	0.9064	-3.6523	-2.1317	-0.752	-1.3831
2.182	3.2596	5.5994	2.3532	1.8631	4.3976	3.5751	-0.3357	1.1884	1.1279	-3.6456	-1.1414	-4.7736	-0.4599	-1.1615	0.433	0.9232	-3.7128	-2.2794	-0.762	-1.3562
2.3364	3.3838	5.6967	2.5781	2.0511	4.458	3.6926	-0.1913	1.2689	1.1816	-3.5181	-1.1044	-4.7903	-0.4868	-1.0004	0.6512	0.9433	-3.7698	-2.4237	-0.762	-1.3025
2.4606	3.4241	5.7672	2.7997	2.1887	4.5084	3.7799	-0.0705	1.3058	1.1716	-3.4341	-1.0944	-4.8474	-0.5136	-0.8896	0.8224	1.0004	-3.8336	-2.511	-0.7822	-1.2924
2.5781	3.4106	5.8545	3.0515	2.3129	4.5218	3.8605	0.0101	1.3193	1.1716	-3.3737	-1.1078	-4.9448	-0.5304	-0.7755	0.9634	1.0306	-3.9041	-2.6285	-0.8292	-1.2622
2.6587	3.3133	5.8746	3.2898	2.3566	4.5117	3.8638	0.0537	1.2689	1.0574	-3.3469	-1.1682	-5.0958	-0.5606	-0.6512	1.0843	1.091	-4.0149	-2.7225	-0.9232	-1.2622
2.7023	3.1992	5.8578	3.5349	2.3297	4.4681	3.8168	0.0504	1.2555	0.9869	-3.3133	-1.1917	-5.2133	-0.5942	-0.5841	1.2051	1.1414	-4.1357	-2.803	-1.0272	-1.2924
2.7426	3.0615	5.8377	3.7396	2.2726	4.411	3.7698	0.0168	1.1816	0.8493	-3.2965	-1.2521	-5.3711	-0.6143	-0.5304	1.279	1.2018	-4.2331	-2.9407	-1.1481	-1.3596
2.7728	2.8836	5.8243	3.9377	2.2357	4.3439	3.6792	0.0101	1.1078	0.6882	-3.2697	-1.3293	-5.4987	-0.6479	-0.4532	1.326	1.2589	-4.3472	-3.0515	-1.2689	-1.4569
2.7594	2.7325	5.7706	4.0552	2.1887	4.2801	3.6087	0	1.0709	0.5875	-3.2126	-1.3461	-5.5994	-0.6647	-0.4163	1.3495	1.3058	-4.4077	-3.1421	-1.3428	-1.5509
2.7594	2.5848	5.7471	4.1592	2.1552	4.2633	3.555	0.0269	1.0608	0.5035	-3.1555	-1.3461	-5.643	-0.6647	-0.3256	1.3797	1.2991	-4.4412	-3.2159	-1.42	-1.6415
2.7829	2.4371	5.7202	4.2197	2.1451	4.2499	3.4879	0.0873	1.0742	0.48	-3.0582	-1.2924	-5.6631	-0.6546	-0.2887	1.3965	1.2857	-4.458	-3.2428	-1.4636	-1.7758
2.8232	2.3364	5.7135	4.2834	2.2021	4.2331	3.4341	0.1712	1.1447	0.4935	-2.9105	-1.1951	-5.5859	-0.6244	-0.2048	1.467	1.2387	-4.4211	-3.2663	-1.4536	-1.8631
2.8802	2.3331	5.7504	4.3036	2.2559	4.2935	3.4207	0.3055	1.2454	0.5405	-2.7325	-1.0574	-5.4886	-0.5875	-0.1208	1.4703	1.1414	-4.3472	-3.3032	-1.4032	-1.8933
2.9373	2.3868	5.784	4.3002	2.3096	4.3405	3.3435	0.4364	1.3461	0.5975	-2.5446	-0.9265	-5.351	-0.5472	-0.0537	1.4871	1.0541	-4.2633	-3.3401	-1.3495	-1.8732
3.0212	2.5177	5.8478	4.2163	2.4136	4.4211	3.2562	0.5774	1.4569	0.6378	-2.3499	-0.7721	-5.22	-0.48	0.0302	1.5408	0.9198	-4.1626	-3.3334	-1.2521	-1.8631
3.075	2.6688	5.8981	4.1223	2.5043	4.4614	3.1219	0.7016	1.561	0.6747	-2.1887	-0.6512	-5.1025	-0.4062	0.1041	1.5744	0.8023	-4.0283	-3.3401	-1.1581	-1.8195
3.2092	2.8937	5.9451	4.0451	2.6151	4.5184	3.0347	0.8292	1.6919	0.7285	-2.0309	-0.4935	-4.9683	-0.3391	0.1712	1.5979	0.668	-3.9075	-3.3133	-1.0641	-1.7255
3.2898	3.1287	6.0089	3.9847	2.709	4.6158	2.944	0.9433	1.7825	0.7687	-1.8698	-0.3726	-4.8373	-0.2753	0.2417	1.6415	0.5539	-3.79	-3.2797	-0.9567	-1.6348
3.3536	3.3737	6.0391	3.9645	2.8098	4.6393	2.8433	1.0306	1.843	0.7956	-1.7255	-0.2551	-4.7198	-0.2417	0.3323	1.6617	0.47	-3.696	-3.2394	-0.8862	-1.571
3.4744	3.5483	6.066	3.9209	2.8735	4.6997	2.7997	1.091	1.8832	0.8292	-1.6113	-0.1779	-4.6191	-0.2283	0.3894	1.6785	0.423	-3.5751	-3.1488	-0.8795	-1.4938
