"FZ"	"FC3"	"FCZ"	"FC4"	"C3"	"CZ"	"C4"	"CP3"	"CPZ"	"CP4"	"P3"	"PZ"	"P4"	"OZ"	"FP1"	"FP2"	"A2"	"P8"	"TP7"	"TP8"	"P7"	"VEOG"	"HEOG"
0.7534	0.0195	0.4294	0.0742	-0.242	-0.5465	-0.2537	-0.6011	-1.2374	-0.3123	-0.7495	-1.3115	-0.3435	-0.3513	-0.0039	-0.4489	0.6558	0.4294	0.4216	0.3474	0.0781	0.1639	-0.0937
0.7299	-0.0429	0.3903	0.0625	-0.2615	-0.5465	-0.2342	-0.5738	-1.1983	-0.3357	-0.6792	-1.2569	-0.3357	-0.2928	0.0468	-0.1991	0.5777	0.3357	0.4489	0.2771	0.0586	0.0859	0.0039
0.687	-0.121	0.324	0.0664	-0.2928	-0.566	-0.1718	-0.5348	-1.1476	-0.324	-0.6284	-1.1749	-0.3045	-0.2537	0.0625	0.0195	0.4801	0.2693	0.4645	0.2303	0.0937	0.0351	0.0625
0.6402	-0.2498	0.2459	0.0507	-0.3045	-0.5816	-0.1796	-0.527	-1.1203	-0.3396	-0.5855	-1.1242	-0.3045	-0.203	0.1249	0.2147	0.3942	0.2225	0.484	0.1796	0.1171	-0.0039	0.0937
0.6245	-0.3201	0.1952	0.0742	-0.3513	-0.5816	-0.1093	-0.484	-1.0617	-0.3006	-0.5231	-1.0539	-0.2342	-0.1522	0.1444	0.406	0.2849	0.1522	0.5113	0.1366	0.1796	-0.0273	0.1483
0.566	-0.3942	0.1288	0.0546	-0.3942	-0.5855	-0.0703	-0.4762	-1.0422	-0.3084	-0.4918	-0.9915	-0.2342	-0.1132	0.1874	0.605	0.1874	0.1093	0.5231	0.0703	0.1991	-0.0039	0.2108
0.5231	-0.5348	0.0664	0.0312	-0.4333	-0.6089	-0.0546	-0.4333	-1.011	-0.2967	-0.4177	-0.8978	-0.16	-0.0586	0.2225	0.7221	0.0976	0.1054	0.5777	0.0468	0.2459	0.0234	0.2381
0.4411	-0.6167	-0.0078	0.0156	-0.4879	-0.6402	-0.039	-0.4294	-0.9719	-0.2732	-0.3513	-0.8236	-0.1444	-0.0117	0.2342	0.8588	0	0.082	0.5972	0.0117	0.3084	0.0937	0.2537
0.3747	-0.7104	-0.0625	0.0039	-0.5348	-0.6089	0.0039	-0.3903	-0.9212	-0.2732	-0.281	-0.7534	-0.1015	0.0586	0.3084	1.0188	-0.1015	0.1093	0.5855	0.0195	0.3708	0.1678	0.2732
0.3045	-0.8197	-0.1171	-0.0468	-0.5777	-0.6675	-0.0273	-0.3903	-0.89	-0.2732	-0.2381	-0.7026	-0.0937	0.082	0.3084	1.1398	-0.1718	0.0781	0.6284	0.0039	0.4099	0.2498	0.2732
0.2576	-0.8705	-0.1835	-0.0742	-0.6284	-0.6441	-0.0234	-0.363	-0.8431	-0.242	-0.1678	-0.6363	-0.0156	0.1327	0.3435	1.2335	-0.2615	0.1249	0.6363	0.0156	0.5113	0.3396	0.2576
0.1639	-0.9876	-0.2381	-0.1483	-0.7065	-0.6597	-0.0546	-0.3747	-0.8119	-0.2459	-0.1561	-0.5894	-0.0039	0.1522	0.3552	1.3467	-0.3123	0.1288	0.6402	-0.0195	0.5504	0.4216	0.2654
0.1093	-1.0578	-0.2889	-0.1522	-0.726	-0.6636	-0.0625	-0.3474	-0.769	-0.2186	-0.1249	-0.5231	0.0546	0.1991	0.3786	1.4638	-0.3903	0.1405	0.648	0.0234	0.605	0.4723	0.281
0.0742	-1.1164	-0.3357	-0.1991	-0.7924	-0.6753	-0.0859	-0.3435	-0.7416	-0.2108	-0.039	-0.4645	0.0781	0.2303	0.4021	1.5731	-0.4489	0.16	0.6636	0.0234	0.648	0.5192	0.2654
0.0117	-1.1905	-0.3825	-0.203	-0.8314	-0.6675	-0.121	-0.3708	-0.7299	-0.1913	-0.0312	-0.4372	0.1249	0.2537	0.3903	1.6863	-0.484	0.1796	0.6284	0.0351	0.6675	0.5192	0.2654
-0.0429	-1.2179	-0.406	-0.2693	-0.8705	-0.6792	-0.16	-0.3669	-0.7221	-0.1757	-0.0078	-0.3942	0.16	0.2732	0.3981	1.8151	-0.5309	0.1913	0.6089	0.0859	0.6987	0.4957	0.2771
-0.0546	-1.2608	-0.4294	-0.2967	-0.8939	-0.6831	-0.1757	-0.3669	-0.6597	-0.16	0.0156	-0.3552	0.203	0.2732	0.3942	1.9361	-0.5582	0.2342	0.5426	0.1171	0.7456	0.4333	0.2732
-0.082	-1.3115	-0.4528	-0.3201	-0.9251	-0.6636	-0.2186	-0.3747	-0.6597	-0.1718	0.039	-0.3162	0.203	0.2732	0.3708	2.0142	-0.5699	0.242	0.4801	0.1405	0.7495	0.3474	0.2615
-0.0781	-1.2998	-0.4294	-0.3435	-0.9407	-0.6402	-0.2264	-0.3591	-0.5933	-0.1405	0.082	-0.2537	0.2654	0.2928	0.3552	2.0766	-0.5855	0.2732	0.4684	0.2069	0.7924	0.2342	0.2537
-0.082	-1.2491	-0.4255	-0.3513	-0.8978	-0.5777	-0.2576	-0.324	-0.5621	-0.121	0.1249	-0.2264	0.2967	0.2849	0.3513	2.1156	-0.566	0.2889	0.4411	0.2576	0.7885	0.0703	0.2615
-0.0507	-1.1905	-0.4099	-0.3552	-0.8744	-0.5699	-0.2771	-0.281	-0.5153	-0.1093	0.1718	-0.1678	0.3357	0.2928	0.3669	2.1235	-0.5777	0.3045	0.3942	0.3123	0.808	-0.0937	0.2537
0.0039	-1.1242	-0.3435	-0.3669	-0.7924	-0.484	-0.2732	-0.2498	-0.4255	-0.0703	0.2459	-0.0859	0.3669	0.2889	0.3708	2.0805	-0.5855	0.3552	0.4021	0.4021	0.8431	-0.2928	0.2615
0.0273	-1.0149	-0.2889	-0.3474	-0.7416	-0.4138	-0.2928	-0.203	-0.3786	-0.0625	0.2967	-0.0234	0.406	0.281	0.3591	2.0142	-0.5816	0.3864	0.4138	0.4645	0.8822	-0.5035	0.2693
0.0781	-0.9212	-0.2498	-0.3318	-0.6597	-0.3435	-0.2849	-0.121	-0.3201	-0.0195	0.3591	0.0234	0.4606	0.2967	0.3318	1.8736	-0.5816	0.406	0.406	0.4996	0.8822	-0.7143	0.3162
0.1444	-0.7924	-0.1757	-0.3357	-0.5543	-0.2693	-0.2849	-0.0546	-0.2459	-0.0117	0.406	0.1015	0.5153	0.2849	0.3669	1.7331	-0.5777	0.4294	0.3903	0.5855	0.8939	-0.9407	0.3162
0.1952	-0.6519	-0.1054	-0.3201	-0.4606	-0.1796	-0.324	0.0039	-0.1561	-0.0039	0.4723	0.1405	0.5426	0.2693	0.3942	1.5418	-0.5621	0.4411	0.4099	0.6089	0.8939	-1.1593	0.3006
0.2576	-0.4996	-0.0273	-0.2771	-0.3513	-0.1093	-0.2928	0.082	-0.0976	0.0117	0.527	0.2147	0.5816	0.2615	0.3669	1.3389	-0.5387	0.4879	0.4528	0.7026	0.9095	-1.3662	0.3318
0.363	-0.3474	0.0429	-0.1952	-0.2459	-0.0156	-0.2849	0.1561	0.0039	0.0468	0.5738	0.2771	0.6089	0.2381	0.4372	1.1788	-0.5113	0.5035	0.4606	0.726	0.9056	-1.5848	0.3396
0.4099	-0.1835	0.1171	-0.1054	-0.1327	0.0664	-0.2654	0.2537	0.0429	0.0507	0.6441	0.3357	0.6519	0.2498	0.4255	0.9915	-0.4918	0.5153	0.4879	0.7573	0.9134	-1.7956	0.3162
0.5309	-0.0117	0.2459	0.039	-0.0078	0.1991	-0.1796	0.3357	0.1678	0.1015	0.7377	0.4411	0.687	0.2225	0.4996	0.8548	-0.4567	0.5231	0.5035	0.8158	0.9095	-1.9751	0.2889
0.5894	0.1444	0.3084	0.1366	0.0859	0.2615	-0.1874	0.3825	0.2186	0.1054	0.7612	0.4801	0.7182	0.1678	0.4918	0.7143	-0.3747	0.4801	0.4957	0.7456	0.8744	-2.1235	0.2576
0.7065	0.3045	0.4255	0.281	0.2186	0.3591	-0.1015	0.4645	0.281	0.1405	0.8627	0.5504	0.7456	0.1757	0.4996	0.6089	-0.324	0.4801	0.5074	0.7729	0.8744	-2.2406	0.2147
0.8002	0.4684	0.4801	0.4255	0.324	0.4606	-0.0468	0.5621	0.3786	0.203	0.929	0.6206	0.8041	0.121	0.5035	0.5035	-0.2654	0.4723	0.5348	0.726	0.9017	-2.3108	0.1835
0.8705	0.6011	0.5933	0.5348	0.4177	0.4996	-0.0039	0.6402	0.445	0.2108	0.9602	0.7338	0.8431	0.0976	0.4723	0.363	-0.2108	0.4645	0.5387	0.7026	0.8861	-2.3342	0.1835
0.9407	0.7143	0.6363	0.6792	0.527	0.6089	0.0703	0.6909	0.5113	0.2615	1.0227	0.7768	0.8588	0.0781	0.445	0.2381	-0.1522	0.4723	0.5699	0.6441	0.9134	-2.2991	0.1132
1.011	0.8314	0.7182	0.7807	0.5933	0.648	0.1171	0.7573	0.6128	0.2771	1.0812	0.8548	0.8978	0.0468	0.4216	0.1405	-0.0937	0.4372	0.5816	0.6089	0.8939	-2.221	0.082
1.011	0.8822	0.7612	0.8588	0.6636	0.7338	0.1757	0.8119	0.6753	0.3162	1.1554	0.8939	0.9329	0.0117	0.3981	0.039	-0.0429	0.4216	0.6089	0.5582	0.9212	-2.1078	0.0742
1.0617	0.9524	0.8041	0.9563	0.7377	0.7885	0.242	0.9134	0.7612	0.3552	1.2062	0.9798	0.9563	-0.0039	0.3552	-0.0351	0.0039	0.4216	0.648	0.4996	0.9251	-1.9478	0.0429
1.0422	0.9993	0.8314	1.011	0.769	0.8119	0.2498	0.9173	0.7807	0.3786	1.2413	1.0305	0.9641	-0.0273	0.3162	-0.0468	0.0703	0.406	0.6324	0.4411	0.9368	-1.7331	0.0429
1.0617	1.0695	0.8548	1.0617	0.8353	0.8431	0.3318	0.9759	0.8627	0.3942	1.2803	1.0851	0.9954	-0.0664	0.2889	-0.0468	0.1171	0.3981	0.6987	0.3825	0.968	-1.4794	0.0234
1.05	1.1008	0.8783	1.0969	0.8861	0.8783	0.3513	1.0383	0.9368	0.445	1.3428	1.1437	1.0305	-0.0625	0.2615	-0.0468	0.1288	0.4021	0.6948	0.3981	0.9993	-1.2023	0.0273
1.0617	1.1554	0.8861	1.1047	0.9485	0.9251	0.4255	1.093	0.9524	0.4918	1.3623	1.1671	1.0344	-0.0781	0.2459	-0.0586	0.1678	0.3942	0.7182	0.363	1.0344	-0.89	0.0117
0.9915	1.1125	0.8783	1.1437	0.9602	0.9446	0.4684	1.1047	0.9954	0.5113	1.4169	1.2335	1.0344	-0.0781	0.2108	-0.0664	0.1718	0.3903	0.7768	0.3708	1.0617	-0.5504	-0.0078
0.968	1.093	0.8509	1.093	1.0032	0.9446	0.4606	1.1125	1.05	0.4996	1.4208	1.2569	1.0266	-0.0937	0.1952	-0.0859	0.1835	0.4099	0.7924	0.363	1.0851	-0.2186	-0.0078
0.9602	1.1125	0.8783	1.1008	1.0344	0.9876	0.5035	1.1437	1.0695	0.5153	1.413	1.2959	0.9915	-0.1015	0.1952	-0.0586	0.1796	0.4138	0.8392	0.3708	1.1203	0.0742	-0.0195
0.9134	1.0969	0.8431	1.1008	1.0617	0.9759	0.4879	1.1437	1.1047	0.5035	1.4169	1.2959	0.9641	-0.0976	0.2186	-0.121	0.1874	0.4021	0.8509	0.3981	1.1242	0.3435	-0.039
0.89	1.0578	0.8392	1.0773	1.1086	0.9524	0.527	1.1905	1.1203	0.4957	1.4286	1.3037	0.9329	-0.1015	0.203	-0.1249	0.1757	0.3786	0.8822	0.4099	1.1203	0.5699	-0.0351
0.8392	1.0305	0.8197	1.0656	1.1242	0.9407	0.5113	1.1788	1.1242	0.4606	1.3896	1.2881	0.9095	-0.0898	0.2381	-0.1171	0.1796	0.363	0.8548	0.4138	1.1086	0.7456	-0.0429
0.7924	0.9954	0.7963	1.0149	1.1125	0.9212	0.5035	1.1632	1.1242	0.445	1.3467	1.2998	0.847	-0.0898	0.2576	-0.1054	0.16	0.3396	0.8275	0.445	1.0617	0.9017	-0.039
0.769	0.9524	0.7612	0.9641	1.1554	0.8978	0.5113	1.1554	1.1281	0.4216	1.3194	1.2881	0.7846	-0.0781	0.3084	-0.0703	0.1444	0.3357	0.8627	0.445	0.9993	0.9993	-0.0312
0.7221	0.9056	0.7495	0.9212	1.1398	0.847	0.4723	1.132	1.0773	0.3981	1.2647	1.2569	0.7065	-0.0429	0.324	-0.0703	0.1132	0.2967	0.8392	0.4099	0.9446	1.0969	-0.0273
0.6831	0.8158	0.648	0.8353	1.1398	0.8158	0.4645	1.0851	1.0695	0.3435	1.1866	1.2023	0.6128	-0.0625	0.3357	-0.0429	0.1015	0.2771	0.8197	0.406	0.9173	1.1398	-0.0468
0.5855	0.7807	0.5933	0.7456	1.093	0.7338	0.4294	1.0422	0.9954	0.3279	1.093	1.1281	0.5543	-0.0546	0.3669	-0.0429	0.0937	0.2342	0.8002	0.3669	0.8314	1.1788	-0.0781
0.5348	0.6753	0.5074	0.6206	1.0734	0.6636	0.3747	1.0071	0.9563	0.2342	1.0227	1.0695	0.4684	-0.0546	0.3552	-0.0507	0.0937	0.2069	0.7729	0.3357	0.7495	1.1827	-0.0703
0.4918	0.6245	0.4606	0.5231	1.0617	0.5972	0.3045	0.9759	0.9017	0.2186	0.9251	1.0227	0.3825	-0.0468	0.3708	-0.0703	0.0976	0.1483	0.7651	0.3006	0.6441	1.1632	-0.121
0.406	0.5387	0.3669	0.3747	0.9798	0.484	0.2225	0.89	0.808	0.1639	0.8353	0.9212	0.2889	-0.0625	0.3669	-0.0195	0.1054	0.1249	0.7416	0.2147	0.5543	1.1047	-0.1249
0.324	0.4684	0.2771	0.203	0.9329	0.4216	0.1561	0.8431	0.7807	0.0664	0.7338	0.8275	0.203	-0.0625	0.3942	0.0429	0.121	0.0664	0.726	0.1678	0.4684	1.0188	-0.1405
0.2615	0.3786	0.1796	0.0546	0.8588	0.2732	0.0742	0.7924	0.7065	0.0351	0.648	0.7534	0.1483	-0.0781	0.3747	0.0507	0.1327	0.039	0.7221	0.121	0.3942	0.9095	-0.1561
0.1718	0.3162	0.082	-0.0781	0.7963	0.1835	-0.0117	0.7377	0.6441	-0.0234	0.5621	0.6792	0.0859	-0.0937	0.363	0.0664	0.16	-0.0078	0.7299	0.0312	0.3435	0.7885	-0.1678
0.0859	0.2264	-0.0156	-0.242	0.7221	0.1093	-0.1093	0.6675	0.5972	-0.0429	0.4762	0.5933	-0.0156	-0.0937	0.3552	0.0078	0.1796	-0.0468	0.6909	-0.0507	0.2654	0.6675	-0.2069
-0.0195	0.16	-0.1249	-0.3708	0.6284	-0.0039	-0.1874	0.5894	0.5035	-0.0742	0.3825	0.5387	-0.0937	-0.1093	0.3357	-0.0429	0.1952	-0.0898	0.6636	-0.1327	0.1522	0.5465	-0.2303
-0.1015	0.0664	-0.2069	-0.4879	0.5465	-0.1093	-0.2732	0.5231	0.4294	-0.1444	0.3162	0.4333	-0.1757	-0.1171	0.2693	-0.1835	0.2225	-0.1561	0.6284	-0.2147	0.0898	0.445	-0.2693
-0.2342	-0.0078	-0.2928	-0.6089	0.4801	-0.1757	-0.3552	0.4684	0.3513	-0.1796	0.2108	0.3552	-0.2303	-0.1327	0.2928	-0.3513	0.2459	-0.1874	0.5699	-0.3201	0.0039	0.3201	-0.3045
-0.3123	-0.0898	-0.3552	-0.6714	0.3591	-0.2693	-0.4372	0.363	0.281	-0.2147	0.1483	0.2654	-0.3201	-0.1522	0.2537	-0.5504	0.2889	-0.2732	0.5426	-0.4099	-0.0703	0.2498	-0.3162
-0.3981	-0.1327	-0.4333	-0.7495	0.3045	-0.3045	-0.4918	0.324	0.2732	-0.2264	0.0546	0.1952	-0.3708	-0.1639	0.2498	-0.7573	0.324	-0.3279	0.4723	-0.5074	-0.1639	0.16	-0.3084
-0.4996	-0.1913	-0.5153	-0.847	0.1991	-0.3825	-0.527	0.2654	0.1952	-0.2654	-0.0039	0.1561	-0.4099	-0.1913	0.1991	-0.9485	0.363	-0.3669	0.4177	-0.566	-0.2147	0.0664	-0.2849
-0.5426	-0.2303	-0.5582	-0.8861	0.1483	-0.406	-0.566	0.2108	0.1835	-0.2654	-0.0546	0.0937	-0.4801	-0.2108	0.2147	-1.132	0.406	-0.406	0.363	-0.6245	-0.2928	-0.0507	-0.281
-0.5894	-0.2342	-0.5699	-0.9095	0.0976	-0.4255	-0.6011	0.1561	0.1444	-0.2889	-0.1054	0.0546	-0.5348	-0.2186	0.2615	-1.2452	0.4138	-0.4372	0.3123	-0.6675	-0.3318	-0.1522	-0.2381
-0.6011	-0.2576	-0.5777	-0.9368	0.0625	-0.4333	-0.5894	0.1444	0.1405	-0.2732	-0.1522	0.0273	-0.5465	-0.242	0.2928	-1.2959	0.4567	-0.4684	0.2693	-0.6948	-0.363	-0.3084	-0.1913
-0.6206	-0.2381	-0.5738	-0.9212	0.0156	-0.3903	-0.5777	0.121	0.1405	-0.2342	-0.1639	0.0468	-0.5348	-0.2381	0.3123	-1.2842	0.484	-0.4411	0.2186	-0.687	-0.4372	-0.4489	-0.1405
-0.6167	-0.1991	-0.5309	-0.8588	0.0273	-0.3552	-0.5231	0.121	0.1913	-0.2069	-0.1874	0.039	-0.5582	-0.2498	0.363	-1.1827	0.4996	-0.4333	0.2147	-0.6675	-0.4411	-0.6284	-0.0859
-0.5738	-0.1171	-0.4801	-0.8158	0.0234	-0.2928	-0.4645	0.1288	0.2108	-0.1483	-0.2147	0.0234	-0.5543	-0.2693	0.3786	-1.0539	0.5074	-0.4333	0.1718	-0.6753	-0.445	-0.7924	-0.0742
-0.5582	-0.0625	-0.4411	-0.7065	0.0468	-0.2108	-0.363	0.1171	0.2654	-0.0937	-0.203	0.0546	-0.5231	-0.2615	0.4294	-0.8588	0.5035	-0.4099	0.121	-0.6402	-0.4879	-0.9759	0.0234
-0.5113	0.0234	-0.3825	-0.6519	0.0742	-0.1288	-0.3123	0.1093	0.2615	-0.0351	-0.203	0.0703	-0.5035	-0.2654	0.406	-0.6519	0.5153	-0.4021	0.0664	-0.6245	-0.5035	-1.1437	0.121
-0.4996	0.1249	-0.3123	-0.6011	0.0625	-0.0468	-0.203	0.0742	0.3006	0.0468	-0.2576	0.0703	-0.4645	-0.2693	0.4216	-0.3942	0.5153	-0.3708	-0.0312	-0.6089	-0.5504	-1.3154	0.1639
-0.4684	0.1874	-0.2849	-0.5543	0.0937	0.0468	-0.1405	0.0664	0.3123	0.0742	-0.2693	0.0546	-0.4411	-0.242	0.3747	-0.1561	0.484	-0.3357	-0.0976	-0.5777	-0.5816	-1.456	0.2186
-0.4957	0.2498	-0.242	-0.5465	0.0898	0.0625	-0.082	0.0156	0.324	0.0898	-0.2967	0.0625	-0.4606	-0.242	0.2889	0.0898	0.4762	-0.3591	-0.2498	-0.5699	-0.6558	-1.5848	0.3201
-0.4879	0.3318	-0.203	-0.4801	0.0781	0.1522	0.0078	-0.0078	0.3591	0.1249	-0.3318	0.0429	-0.4294	-0.2225	0.2108	0.2654	0.4294	-0.3357	-0.3162	-0.5465	-0.7338	-1.6511	0.363
-0.4723	0.3903	-0.1561	-0.4372	0.0781	0.2342	0.0664	-0.0625	0.3318	0.1522	-0.3942	0.0117	-0.4333	-0.2108	0.1132	0.3942	0.4021	-0.3318	-0.4723	-0.5309	-0.8197	-1.698	0.4177
-0.4801	0.445	-0.1054	-0.3786	0.0625	0.3201	0.1249	-0.121	0.3396	0.2186	-0.4606	0	-0.4411	-0.1757	0.0546	0.5231	0.3552	-0.3513	-0.605	-0.4996	-0.8861	-1.7136	0.445
-0.5074	0.4762	-0.082	-0.3279	0.0273	0.3435	0.1913	-0.203	0.3357	0.2108	-0.527	-0.0507	-0.4333	-0.1561	-0.0468	0.566	0.3123	-0.3279	-0.7807	-0.4918	-0.9563	-1.6746	0.4762
-0.5777	0.4996	-0.0586	-0.2537	-0.0195	0.363	0.242	-0.2459	0.3045	0.2498	-0.5699	-0.1054	-0.4294	-0.1444	-0.1483	0.566	0.2498	-0.3474	-0.9173	-0.4723	-0.9954	-1.577	0.4879
-0.5738	0.4957	-0.0507	-0.2069	-0.0468	0.4021	0.3279	-0.3357	0.2615	0.2537	-0.6636	-0.1678	-0.4918	-0.1054	-0.2381	0.4918	0.1991	-0.3513	-1.0695	-0.4645	-1.0969	-1.4052	0.4996
-0.6167	0.4645	-0.0664	-0.1444	-0.1054	0.4216	0.3786	-0.4099	0.2342	0.2654	-0.726	-0.1913	-0.4801	-0.0742	-0.3513	0.3708	0.1249	-0.3903	-1.214	-0.4411	-1.1866	-1.1671	0.4645
-0.7065	0.4021	-0.0859	-0.0625	-0.1678	0.3825	0.4333	-0.527	0.1718	0.242	-0.808	-0.2889	-0.4996	-0.0546	-0.4996	0.1522	0.082	-0.3591	-1.3662	-0.4177	-1.2608	-0.8861	0.4177
-0.7534	0.3513	-0.1054	0.0039	-0.2186	0.4021	0.484	-0.6324	0.0781	0.2381	-0.929	-0.3552	-0.5465	-0.0117	-0.6363	-0.0625	0.0117	-0.363	-1.5301	-0.4138	-1.3545	-0.566	0.3279
-0.8158	0.2654	-0.1483	0.0664	-0.3084	0.3396	0.5465	-0.7416	-0.0039	0.2108	-1.05	-0.4567	-0.605	0.0156	-0.7846	-0.3591	-0.0351	-0.4021	-1.6707	-0.3864	-1.4599	-0.1913	0.2498
-0.9173	0.1952	-0.1991	0.1249	-0.3981	0.2849	0.5426	-0.8548	-0.1054	0.203	-1.1866	-0.5816	-0.6831	0.0351	-0.929	-0.6245	-0.0898	-0.4255	-1.7761	-0.4099	-1.5536	0.1952	0.1405
-0.9798	0.0937	-0.2225	0.1405	-0.5113	0.1991	0.5192	-0.9641	-0.2225	0.1522	-1.3037	-0.687	-0.7104	0.0664	-1.1008	-0.9329	-0.121	-0.445	-1.9127	-0.4099	-1.6629	0.6519	0.0156
-1.0695	-0.0429	-0.2889	0.1718	-0.5972	0.1171	0.5074	-1.0461	-0.3318	0.0742	-1.4013	-0.7924	-0.7924	0.0781	-1.2881	-1.2179	-0.1639	-0.4801	-2.0142	-0.406	-1.7409	1.0773	-0.1054
-1.1203	-0.1366	-0.3474	0.1718	-0.6714	-0.0078	0.4567	-1.1827	-0.4528	0.0312	-1.4989	-0.9212	-0.8353	0.1015	-1.4677	-1.5106	-0.2069	-0.4957	-2.1235	-0.4177	-1.8151	1.5223	-0.2186
-1.1983	-0.2303	-0.4177	0.1249	-0.769	-0.1132	0.3903	-1.2725	-0.5933	-0.0429	-1.6277	-1.0422	-0.9017	0.1054	-1.5965	-1.7761	-0.2147	-0.5543	-2.221	-0.4216	-1.9166	1.9244	-0.3396
-1.2608	-0.2889	-0.4801	0.0781	-0.8353	-0.2342	0.2928	-1.3701	-0.7377	-0.1015	-1.7175	-1.1632	-0.9719	0.1132	-1.7565	-2.0415	-0.2303	-0.566	-2.3108	-0.4333	-1.9751	2.342	-0.4645
-1.292	-0.3747	-0.5387	0.0351	-0.9017	-0.3435	0.2186	-1.4326	-0.8705	-0.1678	-1.819	-1.2803	-1.0422	0.1288	-1.8424	-2.2796	-0.2537	-0.5855	-2.3538	-0.4528	-2.022	2.709	-0.605
-1.3272	-0.4216	-0.5855	-0.0507	-0.9602	-0.4294	0.1288	-1.5379	-1.0305	-0.2498	-1.8853	-1.3935	-1.093	0.1249	-1.8658	-2.4865	-0.2693	-0.6167	-2.4045	-0.4606	-2.0454	3.029	-0.7299
-1.3311	-0.4723	-0.6363	-0.1054	-1.0266	-0.5738	0.0234	-1.5926	-1.1437	-0.3045	-1.9556	-1.4989	-1.1398	0.1366	-1.9439	-2.6934	-0.2654	-0.6441	-2.4435	-0.4879	-2.0844	3.3296	-0.8314
-1.3389	-0.5035	-0.6948	-0.2108	-1.0734	-0.6948	-0.0976	-1.6355	-1.2842	-0.4021	-2.0064	-1.6004	-1.2335	0.1444	-1.901	-2.8183	-0.2732	-0.6909	-2.4201	-0.5192	-2.0649	3.5365	-0.9368
-1.3037	-0.5074	-0.7026	-0.2849	-1.0578	-0.7924	-0.1835	-1.6668	-1.3974	-0.4567	-2.0298	-1.6863	-1.2647	0.1327	-1.8619	-2.8924	-0.2849	-0.7299	-2.4162	-0.527	-2.061	3.7082	-1.0071
-1.2452	-0.5309	-0.7534	-0.363	-1.0695	-0.89	-0.3084	-1.698	-1.5223	-0.5348	-2.0649	-1.7761	-1.335	0.1561	-1.7448	-2.9041	-0.2889	-0.7963	-2.4045	-0.5543	-2.0337	3.8058	-1.0617
-1.2101	-0.4957	-0.7768	-0.4606	-1.0344	-0.968	-0.4099	-1.6785	-1.6043	-0.5699	-2.0337	-1.819	-1.374	0.1405	-1.6277	-2.8456	-0.2849	-0.8119	-2.2952	-0.5426	-1.9634	3.8449	-1.0969
-1.1554	-0.4489	-0.8002	-0.4996	-1.0188	-1.0305	-0.5074	-1.6668	-1.7175	-0.6402	-2.0181	-1.9049	-1.4091	0.1483	-1.4716	-2.6973	-0.2928	-0.8627	-2.2249	-0.5777	-1.9127	3.8488	-1.1476
-1.0617	-0.4099	-0.7846	-0.5699	-0.9876	-1.0891	-0.6402	-1.6472	-1.7721	-0.7104	-1.979	-1.9595	-1.4521	0.1366	-1.2764	-2.5528	-0.2928	-0.8978	-2.1196	-0.5855	-1.7839	3.7824	-1.1632
-0.9719	-0.3591	-0.7924	-0.6089	-0.929	-1.1593	-0.7104	-1.6043	-1.8307	-0.7768	-1.9361	-2.0103	-1.4989	0.1288	-1.0734	-2.385	-0.2537	-0.9719	-1.9634	-0.6402	-1.6785	3.6926	-1.1827
-0.847	-0.281	-0.7846	-0.6519	-0.8861	-1.2023	-0.7846	-1.5575	-1.8932	-0.8236	-1.8619	-2.0298	-1.5145	0.1015	-0.9017	-2.1898	-0.2147	-1.0032	-1.8073	-0.6363	-1.5692	3.5794	-1.2023
-0.7299	-0.1913	-0.7573	-0.605	-0.7924	-1.2062	-0.8041	-1.456	-1.9049	-0.8431	-1.7721	-2.0376	-1.5028	0.0781	-0.7026	-1.9829	-0.1718	-1.0617	-1.6199	-0.6597	-1.4286	3.4194	-1.2491
-0.6324	-0.1249	-0.7143	-0.6363	-0.7221	-1.2374	-0.8822	-1.4169	-1.9361	-0.9173	-1.7097	-2.0376	-1.5106	0.0351	-0.4996	-1.7292	-0.082	-1.1281	-1.4169	-0.6909	-1.2803	3.2437	-1.2764
-0.5582	-0.0625	-0.7143	-0.6284	-0.6636	-1.2569	-0.929	-1.3584	-1.9478	-0.9212	-1.6121	-2.0493	-1.5223	0.0039	-0.2849	-1.5067	0.0078	-1.171	-1.2491	-0.7182	-1.1437	3.0408	-1.2959
-0.4606	0.0078	-0.6831	-0.6089	-0.5621	-1.2842	-0.968	-1.2686	-1.9712	-0.9837	-1.5067	-2.0415	-1.5145	-0.0586	-0.1171	-1.2179	0.1015	-1.214	-1.0539	-0.726	-0.9876	2.8612	-1.3233
-0.3825	0.0976	-0.6753	-0.6089	-0.5309	-1.2842	-1.0188	-1.1905	-1.9439	-1.011	-1.4052	-2.0415	-1.5184	-0.1171	0.0546	-0.9641	0.2108	-1.2491	-0.8236	-0.7573	-0.847	2.6738	-1.3818
-0.3279	0.1405	-0.7065	-0.6167	-0.4528	-1.2998	-1.0891	-1.1476	-1.9478	-1.0539	-1.3233	-2.022	-1.5379	-0.1835	0.2069	-0.7338	0.3318	-1.2881	-0.6714	-0.8002	-0.7104	2.5333	-1.4052
-0.2732	0.2225	-0.687	-0.6011	-0.4099	-1.3194	-1.1125	-1.0851	-1.9439	-1.093	-1.2179	-1.979	-1.5262	-0.2147	0.363	-0.445	0.4255	-1.3389	-0.5153	-0.808	-0.5933	2.4123	-1.4169
-0.2459	0.2771	-0.687	-0.5738	-0.3591	-1.3272	-1.1359	-1.0071	-1.9439	-1.132	-1.1242	-1.9751	-1.5575	-0.2732	0.4567	-0.2459	0.5192	-1.3584	-0.363	-0.8431	-0.445	2.3733	-1.4677
-0.2147	0.324	-0.7104	-0.5621	-0.2732	-1.3194	-1.1827	-0.9641	-1.94	-1.1866	-1.0383	-1.9556	-1.5653	-0.3045	0.566	-0.0625	0.5816	-1.374	-0.242	-0.8431	-0.3474	2.3616	-1.495
-0.1991	0.3786	-0.6909	-0.5348	-0.2498	-1.3194	-1.2101	-0.89	-1.9166	-1.1944	-0.9446	-1.9049	-1.5731	-0.3162	0.6441	0.0625	0.605	-1.3818	-0.121	-0.8314	-0.2342	2.3928	-1.5301
-0.1678	0.4255	-0.7143	-0.4879	-0.2342	-1.3272	-1.2218	-0.8588	-1.8932	-1.2374	-0.8705	-1.9244	-1.5653	-0.3318	0.7338	0.1796	0.6363	-1.4208	-0.0156	-0.8548	-0.1561	2.4396	-1.5614
-0.16	0.4918	-0.7143	-0.4489	-0.1952	-1.292	-1.2491	-0.8158	-1.8541	-1.2725	-0.8041	-1.8775	-1.5653	-0.3201	0.8236	0.2849	0.6284	-1.413	0.0586	-0.8158	-0.0703	2.5099	-1.5848
-0.1327	0.527	-0.6675	-0.3981	-0.121	-1.2647	-1.2374	-0.7377	-1.8034	-1.2764	-0.7182	-1.858	-1.5926	-0.3162	0.8861	0.4099	0.6128	-1.4365	0.1522	-0.7924	0.0078	2.588	-1.6043
-0.1054	0.5855	-0.6597	-0.3552	-0.0898	-1.2179	-1.2608	-0.6909	-1.7761	-1.3272	-0.6519	-1.819	-1.6238	-0.3084	0.9524	0.5543	0.5894	-1.4833	0.203	-0.8002	0.0664	2.666	-1.6238
-0.0586	0.6206	-0.6519	-0.3201	-0.039	-1.1944	-1.2569	-0.648	-1.7643	-1.3896	-0.6167	-1.7878	-1.6668	-0.2889	0.9954	0.7299	0.5465	-1.5614	0.2693	-0.7807	0.1132	2.7636	-1.616
0.0078	0.7104	-0.6011	-0.2615	0.0195	-1.1437	-1.2725	-0.5738	-1.6902	-1.3935	-0.5426	-1.7643	-1.6902	-0.242	1.0617	0.8783	0.4762	-1.6043	0.3747	-0.7651	0.1874	2.8612	-1.6355
0.0156	0.7299	-0.5777	-0.281	0.0586	-1.1476	-1.3154	-0.5543	-1.7019	-1.495	-0.5192	-1.7721	-1.7761	-0.2264	1.0617	1.0344	0.4255	-1.7058	0.3903	-0.7963	0.242	2.9666	-1.6433
0.0625	0.8314	-0.5465	-0.2732	0.1249	-1.0734	-1.3272	-0.5113	-1.6394	-1.5184	-0.4333	-1.7448	-1.8112	-0.1835	1.0695	1.2296	0.3396	-1.7643	0.4762	-0.7807	0.2928	3.0603	-1.6238
0.0625	0.8627	-0.527	-0.3162	0.1483	-1.0812	-1.3974	-0.4996	-1.6589	-1.6238	-0.4255	-1.7565	-1.9049	-0.1444	1.0578	1.3818	0.2849	-1.8814	0.5113	-0.8158	0.3084	3.1227	-1.6394
0.1171	0.9368	-0.4723	-0.3396	0.1835	-1.0344	-1.4716	-0.4411	-1.6277	-1.7253	-0.3903	-1.7682	-2.0103	-0.121	1.0734	1.5418	0.242	-1.9868	0.5855	-0.8744	0.3552	3.1422	-1.6511
0.1093	0.9915	-0.445	-0.3981	0.2225	-1.0266	-1.5575	-0.4177	-1.6316	-1.8463	-0.406	-1.7839	-2.1196	-0.1288	1.0773	1.6277	0.2303	-2.1313	0.5894	-0.9798	0.363	3.1461	-1.6472
0.1678	1.0695	-0.3786	-0.4138	0.2693	-0.9876	-1.6082	-0.3747	-1.6355	-1.9439	-0.3903	-1.8112	-2.2328	-0.1054	1.1203	1.7604	0.1991	-2.2718	0.6245	-1.0656	0.406	3.1032	-1.6433
0.2342	1.1515	-0.3162	-0.4372	0.3201	-0.9524	-1.6629	-0.3435	-1.6433	-2.061	-0.3786	-1.8541	-2.3577	-0.1093	1.1827	1.8346	0.1874	-2.4006	0.6402	-1.1515	0.3981	3.0173	-1.6589
0.2889	1.2179	-0.242	-0.4411	0.3864	-0.9134	-1.6902	-0.3084	-1.6472	-2.1274	-0.3786	-1.8697	-2.4474	-0.1015	1.214	1.8893	0.1874	-2.5255	0.6909	-1.2686	0.3981	2.9237	-1.6824
0.3591	1.3154	-0.1639	-0.4099	0.4372	-0.8314	-1.7175	-0.2849	-1.6433	-2.2288	-0.3786	-1.9244	-2.5958	-0.0898	1.2764	1.9244	0.1874	-2.6738	0.7026	-1.3545	0.4216	2.7909	-1.6941
0.4255	1.4208	-0.0586	-0.3825	0.5231	-0.7495	-1.7331	-0.2498	-1.6043	-2.2991	-0.3279	-1.9088	-2.6738	-0.0898	1.3506	1.9439	0.1952	-2.7909	0.7026	-1.4794	0.4255	2.6426	-1.7097
0.5465	1.5184	0.0703	-0.3162	0.6128	-0.6597	-1.7214	-0.1952	-1.5848	-2.3538	-0.3513	-1.9322	-2.7831	-0.1015	1.4482	2.0103	0.1913	-2.9002	0.7221	-1.577	0.4489	2.4943	-1.7175
0.7026	1.655	0.2342	-0.2381	0.6909	-0.5582	-1.6941	-0.1327	-1.5418	-2.3967	-0.3123	-1.94	-2.8222	-0.0937	1.5418	2.061	0.1835	-2.9705	0.7456	-1.6941	0.4567	2.3538	-1.7487
0.8314	1.7604	0.3747	-0.1444	0.7885	-0.4255	-1.6668	-0.0586	-1.4794	-2.4045	-0.2693	-1.9166	-2.9002	-0.1093	1.6316	2.1078	0.2108	-3.0954	0.769	-1.7995	0.4606	2.2093	-1.7682
0.9485	1.8541	0.5192	-0.0742	0.8392	-0.3318	-1.6043	-0.0312	-1.4013	-2.4396	-0.2771	-1.94	-2.9861	-0.1366	1.7097	2.1039	0.2576	-3.2125	0.7182	-1.9166	0.4411	2.0883	-1.7956
1.093	1.9673	0.6987	0.0156	0.9641	-0.1405	-1.5418	0.039	-1.3389	-2.4084	-0.2537	-1.901	-2.9627	-0.1444	1.7448	2.1117	0.2849	-3.275	0.7573	-2.0064	0.4567	1.9907	-1.8502
1.214	2.061	0.8431	0.082	1.0227	-0.039	-1.4989	0.0937	-1.2725	-2.3967	-0.1991	-1.8736	-3.0173	-0.1913	1.7526	2.0415	0.3513	-3.3686	0.7104	-2.1078	0.4177	1.9556	-1.8814
1.3428	2.1274	0.9837	0.16	1.0695	0.0937	-1.4091	0.1288	-1.1866	-2.3889	-0.1874	-1.8268	-3.0173	-0.2108	1.7409	1.9829	0.406	-3.4272	0.6948	-2.1781	0.406	1.9517	-1.9166
1.4794	2.1937	1.1905	0.242	1.1671	0.2498	-1.3467	0.203	-1.0812	-2.3381	-0.1561	-1.7761	-3.0017	-0.2381	1.7058	1.901	0.4645	-3.4818	0.687	-2.2718	0.3903	2.0064	-1.9517
1.5692	2.221	1.2959	0.281	1.214	0.3747	-1.2881	0.2537	-1.0032	-2.2952	-0.1405	-1.7214	-3.0056	-0.2654	1.6746	1.7839	0.5387	-3.5443	0.5972	-2.3342	0.3552	2.1	-1.9751
1.6902	2.2835	1.4794	0.3669	1.2413	0.5231	-1.1944	0.3318	-0.8392	-2.2367	-0.1054	-1.616	-2.9432	-0.281	1.6668	1.7058	0.566	-3.5638	0.5855	-2.3967	0.3279	2.2249	-2.0376
1.7878	2.3108	1.6004	0.4567	1.3037	0.648	-1.1125	0.3747	-0.7377	-2.1703	-0.0742	-1.5418	-2.9041	-0.3123	1.6629	1.5848	0.6284	-3.6028	0.5426	-2.4591	0.324	2.3772	-2.0532
1.8853	2.2874	1.7331	0.5426	1.335	0.7963	-1.0305	0.3981	-0.6363	-2.0883	-0.0546	-1.4677	-2.8534	-0.3474	1.6199	1.4404	0.6675	-3.6653	0.4957	-2.5294	0.2732	2.5684	-2.1
1.9673	2.303	1.8502	0.605	1.3623	0.9173	-0.9407	0.4567	-0.5192	-2.0298	-0.0117	-1.3584	-2.8066	-0.363	1.6394	1.3467	0.7104	-3.6926	0.4723	-2.5997	0.2498	2.7714	-2.1508
2.0103	2.2718	1.9595	0.6519	1.3896	1.0149	-0.8666	0.4762	-0.4099	-1.9946	0.0039	-1.2647	-2.7675	-0.3786	1.6238	1.1632	0.7612	-3.7121	0.4138	-2.6699	0.203	2.9939	-2.221
2.0883	2.2601	2.0571	0.6909	1.3896	1.1203	-0.7963	0.5231	-0.2967	-1.9166	0.0586	-1.1632	-2.7012	-0.3786	1.6121	0.9915	0.7729	-3.7473	0.3669	-2.7363	0.1874	3.2398	-2.264
2.1274	2.2171	2.1469	0.7807	1.3896	1.2101	-0.726	0.5699	-0.1874	-1.8073	0.0859	-1.0539	-2.6075	-0.406	1.6043	0.7807	0.8002	-3.7707	0.3591	-2.7792	0.1718	3.4936	-2.3342
2.1274	2.1352	2.1859	0.7924	1.4208	1.2491	-0.6714	0.5738	-0.1171	-1.7761	0.0859	-0.9446	-2.5528	-0.4294	1.5848	0.5426	0.8353	-3.7746	0.3045	-2.83	0.121	3.7551	-2.3889
2.2093	2.143	2.2757	0.8705	1.4404	1.3115	-0.6011	0.6245	-0.0195	-1.6511	0.1639	-0.8158	-2.4709	-0.445	1.6082	0.3474	0.847	-3.7629	0.3006	-2.869	0.1171	3.9932	-2.4396
2.2523	2.0883	2.3186	0.9212	1.4638	1.3779	-0.5231	0.6831	0.0859	-1.5575	0.1991	-0.7026	-2.3811	-0.4333	1.6004	0.1327	0.8548	-3.7395	0.3006	-2.8846	0.1054	4.2274	-2.4865
2.2718	2.0493	2.3186	0.9407	1.4638	1.3935	-0.4645	0.7338	0.1757	-1.5067	0.1991	-0.6089	-2.3108	-0.445	1.5809	-0.0625	0.8744	-3.7356	0.2967	-2.908	0.0586	4.4499	-2.5841
2.303	1.9946	2.3811	0.9954	1.4911	1.4286	-0.3942	0.7924	0.2967	-1.4052	0.2732	-0.4801	-2.2249	-0.4294	1.6004	-0.2069	0.8509	-3.716	0.281	-2.8846	0.039	4.6294	-2.6153
2.3186	1.9712	2.3967	1.0344	1.5145	1.4521	-0.3357	0.8236	0.4021	-1.335	0.3045	-0.3474	-2.1391	-0.4372	1.6355	-0.2967	0.8627	-3.6731	0.2537	-2.8534	0.0312	4.7739	-2.6504
2.3577	1.9127	2.3772	1.0383	1.5262	1.4482	-0.3084	0.8548	0.4567	-1.2725	0.3552	-0.2069	-2.0415	-0.4333	1.6629	-0.363	0.847	-3.6263	0.2537	-2.7948	0	4.8871	-2.6973
2.346	1.9127	2.4006	1.0422	1.5536	1.4638	-0.2459	0.9368	0.5816	-1.1749	0.4294	-0.082	-1.9244	-0.4099	1.7292	-0.3747	0.8119	-3.5287	0.2264	-2.7246	-0.0039	4.9964	-2.7246
2.3967	1.8814	2.3928	1.0461	1.6355	1.4638	-0.203	1.0344	0.6636	-1.0851	0.4801	0.0351	-1.8268	-0.3942	1.7878	-0.3435	0.7846	-3.474	0.2342	-2.6465	0.0117	5.0471	-2.7363
2.3928	1.8775	2.3772	1.0266	1.6746	1.4638	-0.1639	1.0617	0.7221	-1.0539	0.5309	0.1483	-1.7721	-0.3825	1.8658	-0.2928	0.726	-3.4038	0.2654	-2.545	0.0273	5.1096	-2.7714
2.4084	1.8893	2.3303	0.9915	1.7409	1.4872	-0.1366	1.1281	0.8119	-0.9798	0.6011	0.2576	-1.6863	-0.3357	1.9322	-0.2264	0.6558	-3.3296	0.2576	-2.4435	0.0156	5.1369	-2.7792
2.4045	1.9283	2.3225	0.9954	1.8034	1.4677	-0.1366	1.1944	0.9368	-0.9056	0.687	0.3942	-1.5809	-0.2967	2.0142	-0.1054	0.5621	-3.2164	0.3006	-2.2913	0.0546	5.1642	-2.7675
2.424	1.9712	2.303	1.0071	1.8424	1.4872	-0.0976	1.2647	1.0071	-0.847	0.7456	0.4918	-1.5028	-0.2303	2.1156	0.0468	0.445	-3.1344	0.3435	-2.1586	0.0664	5.1798	-2.7831
2.3928	1.9985	2.2874	0.9915	1.9361	1.5028	-0.039	1.3194	1.0773	-0.7885	0.7924	0.5699	-1.413	-0.1913	2.1898	0.203	0.3708	-3.0251	0.324	-2.0103	0.0625	5.1915	-2.8026
2.3889	2.0766	2.2679	1.0227	2.0024	1.5184	-0.0039	1.3584	1.1515	-0.7026	0.8158	0.6558	-1.3428	-0.1366	2.2913	0.4021	0.2849	-2.9393	0.324	-1.8893	0.0781	5.1876	-2.8026
2.4006	2.1391	2.264	1.0227	2.0493	1.5145	0.0039	1.4247	1.2179	-0.6597	0.8666	0.7104	-1.2842	-0.1054	2.4006	0.6284	0.2147	-2.8378	0.3864	-1.737	0.0859	5.1681	-2.8066
2.4123	2.2054	2.2328	1.093	2.1664	1.5692	0.0703	1.5067	1.3194	-0.5933	0.8939	0.808	-1.2335	-0.0625	2.5567	0.9173	0.1444	-2.7324	0.3942	-1.6199	0.0859	5.1564	-2.83
2.385	2.2718	2.2015	1.132	2.2054	1.5809	0.0859	1.5223	1.3545	-0.5621	0.8978	0.8509	-1.1671	-0.0507	2.6153	1.1905	0.0976	-2.6895	0.3786	-1.5067	0.0625	5.1486	-2.8495
2.3772	2.3264	2.1859	1.1281	2.2718	1.6043	0.1288	1.5692	1.4326	-0.4918	0.9017	0.8822	-1.1125	-0.0273	2.748	1.5418	0.0546	-2.6192	0.3981	-1.3779	0.0781	5.1213	-2.8456
2.3538	2.3928	2.1703	1.1983	2.3499	1.6589	0.1561	1.6043	1.4677	-0.445	0.8861	0.929	-1.1125	-0.0195	2.8651	1.8775	0.0312	-2.5177	0.4138	-1.2842	0.0742	5.09	-2.8417
2.3225	2.4709	2.182	1.2413	2.3577	1.6824	0.1796	1.616	1.5379	-0.4099	0.8861	0.9524	-1.0383	-0.0039	2.9549	2.2757	0.0117	-2.4787	0.445	-1.1827	0.0586	5.051	-2.8456
2.3225	2.5216	2.1664	1.253	2.4513	1.7487	0.2069	1.6629	1.5848	-0.363	0.8744	0.9993	-1.0188	0.0156	3.072	2.6621	-0.0234	-2.4162	0.4489	-1.0851	0.0625	5.0081	-2.8261
2.3303	2.588	2.1781	1.2842	2.4865	1.8034	0.2303	1.698	1.6511	-0.3435	0.8627	1.0305	-0.9524	0.0312	3.193	3.0408	-0.0312	-2.346	0.4801	-1.0032	0.0586	4.9534	-2.787
2.3303	2.6699	2.2249	1.3389	2.5684	1.8736	0.2693	1.7448	1.7019	-0.2498	0.847	1.0383	-0.8978	0.039	3.3491	3.4389	-0.0586	-2.2835	0.5465	-0.9563	0.0546	4.891	-2.7597
2.3147	2.7285	2.2445	1.3115	2.6153	1.9127	0.2849	1.7448	1.7565	-0.203	0.8314	1.0812	-0.847	0.0507	3.4506	3.7668	-0.082	-2.2406	0.5387	-0.8392	0.0351	4.8519	-2.7246
2.2991	2.7792	2.2406	1.3037	2.6426	1.9946	0.3045	1.7682	1.8385	-0.1561	0.7924	1.093	-0.7846	0.0703	3.5404	4.0674	-0.1171	-2.1703	0.5543	-0.7729	0.0664	4.8558	-2.6621
2.2562	2.7948	2.2406	1.2569	2.6426	2.0181	0.2928	1.7487	1.8346	-0.121	0.7846	1.0734	-0.7534	0.0468	3.5872	4.2742	-0.1249	-2.1469	0.5504	-0.7182	0.0312	4.8715	-2.6465
2.2562	2.83	2.2757	1.2101	2.6855	2.0961	0.3006	1.7839	1.8775	-0.1015	0.7495	1.0461	-0.7299	0.0664	3.6575	4.4811	-0.1366	-2.1469	0.5894	-0.6987	0.0507	4.9144	-2.588
2.1859	2.7909	2.2484	1.1437	2.6816	2.1196	0.2459	1.7175	1.8463	-0.0781	0.6831	1.0032	-0.7143	0.0586	3.6341	4.5319	-0.1366	-2.1313	0.566	-0.7143	0.0156	5.0354	-2.5294
2.1196	2.7753	2.2288	1.0734	2.6309	2.1352	0.2381	1.6824	1.8814	-0.0507	0.6441	0.9641	-0.7104	0.0742	3.595	4.5631	-0.1405	-2.1703	0.5309	-0.7299	-0.0234	5.1486	-2.5021
2.0493	2.7285	2.1859	0.9602	2.588	2.1313	0.1874	1.6199	1.7995	-0.0468	0.5309	0.8627	-0.7182	0.0664	3.4857	4.4811	-0.1288	-2.1976	0.4762	-0.7651	-0.0703	5.2969	-2.4631
1.9634	2.6738	2.143	0.8588	2.4904	2.1274	0.1288	1.5301	1.7643	-0.0703	0.3981	0.7807	-0.7924	0.0546	3.3999	4.3874	-0.1093	-2.2757	0.4177	-0.8236	-0.1522	5.4492	-2.424
1.8541	2.5489	2.0961	0.7495	2.3733	2.1039	0.0976	1.4286	1.6785	-0.1132	0.2967	0.6597	-0.8666	0.0546	3.3101	4.2157	-0.0859	-2.3577	0.3279	-0.8783	-0.2693	5.578	-2.3928
1.7331	2.4435	2.0142	0.6948	2.2796	2.0454	0.0195	1.2764	1.5653	-0.1561	0.1796	0.5192	-0.9641	0.0234	3.1774	4.0127	-0.0507	-2.4318	0.2654	-0.9524	-0.3396	5.7224	-2.3655
1.655	2.346	1.9244	0.5621	2.1625	1.9985	-0.0429	1.1788	1.4599	-0.2342	0.0234	0.3357	-1.0539	0.0078	2.9978	3.7785	-0.0156	-2.5255	0.1522	-1.0422	-0.4372	5.8473	-2.3616
1.4989	2.1625	1.8463	0.4528	2.022	1.9439	-0.1093	1.0422	1.3584	-0.3084	-0.0898	0.2069	-1.1164	0.0039	2.8495	3.5443	-0.0078	-2.6231	0.0156	-1.1008	-0.5504	5.9605	-2.3342
1.4013	2.0415	1.7643	0.4099	1.858	1.8658	-0.1835	0.8861	1.1905	-0.3747	-0.2381	0.0312	-1.2257	0.0078	2.7168	3.2633	0.0078	-2.7129	-0.0937	-1.1749	-0.6324	6.0503	-2.3186
1.2959	1.901	1.655	0.3435	1.7136	1.8073	-0.2186	0.7846	1.0773	-0.4333	-0.3552	-0.1366	-1.335	-0.0195	2.6153	3.0212	0.0078	-2.7792	-0.1835	-1.2647	-0.7104	6.0854	-2.3264
1.1632	1.7604	1.6121	0.281	1.5848	1.7487	-0.2771	0.6245	0.9563	-0.5074	-0.4528	-0.2967	-1.4247	-0.0039	2.4709	2.8339	0.0156	-2.8573	-0.2693	-1.3037	-0.769	6.0854	-2.303
1.0578	1.6316	1.5262	0.2459	1.4716	1.6824	-0.3162	0.5192	0.8588	-0.5894	-0.5348	-0.4138	-1.4794	0	2.3186	2.588	0.0117	-2.9315	-0.3591	-1.3467	-0.8197	6.0659	-2.3069
0.9524	1.5301	1.4286	0.2108	1.3389	1.6082	-0.3786	0.4177	0.7299	-0.6636	-0.6363	-0.5465	-1.5575	-0.0039	2.2132	2.385	0	-2.9783	-0.4138	-1.3857	-0.8861	6.0073	-2.346
0.8588	1.3935	1.3857	0.2342	1.2413	1.5458	-0.3669	0.3591	0.6363	-0.7104	-0.6558	-0.6284	-1.6121	0.0234	2.0415	2.1117	-0.0351	-3.0134	-0.4528	-1.4091	-0.8861	5.9332	-2.3772
0.7651	1.292	1.3037	0.2225	1.1398	1.5145	-0.4216	0.2459	0.5387	-0.7768	-0.6675	-0.7377	-1.6511	0.0195	1.858	1.8229	-0.0429	-3.0408	-0.5153	-1.4247	-0.9212	5.8707	-2.3889
0.6675	1.1749	1.2296	0.2108	1.0617	1.4443	-0.3981	0.1796	0.4528	-0.7924	-0.6987	-0.7768	-1.6316	0.0312	1.6824	1.5184	-0.0703	-3.0095	-0.5309	-1.4169	-0.9134	5.8161	-2.4318
0.5621	1.0891	1.1359	0.2225	0.9641	1.374	-0.4177	0.121	0.363	-0.8275	-0.6909	-0.8236	-1.616	0.039	1.4911	1.171	-0.0859	-3.0095	-0.5621	-1.3662	-0.9095	5.7653	-2.4474
0.484	1.0305	1.0969	0.2654	0.9095	1.3584	-0.3396	0.1249	0.3591	-0.8158	-0.5933	-0.8431	-1.5497	0.0742	1.3233	0.8392	-0.1288	-2.8885	-0.566	-1.2959	-0.8783	5.7575	-2.4591
0.4255	0.968	1.05	0.3123	0.8627	1.3194	-0.3006	0.1249	0.3123	-0.7573	-0.5621	-0.8236	-1.4872	0.0898	1.0851	0.445	-0.16	-2.7792	-0.5504	-1.2335	-0.7963	5.7888	-2.5021
0.3006	0.89	0.968	0.3591	0.7807	1.2335	-0.3006	0.121	0.2849	-0.7651	-0.4957	-0.8431	-1.4091	0.0898	0.89	0.0195	-0.1678	-2.7207	-0.5621	-1.1749	-0.7807	5.8434	-2.5645
0.2264	0.847	0.9056	0.4021	0.7221	1.2062	-0.2342	0.1327	0.2889	-0.6987	-0.3942	-0.7729	-1.2725	0.1093	0.7221	-0.3747	-0.203	-2.5255	-0.527	-1.0617	-0.7065	5.9215	-2.5919
0.1249	0.7612	0.8119	0.4216	0.6753	1.1359	-0.2186	0.1171	0.2576	-0.648	-0.2849	-0.7143	-1.1242	0.1249	0.5582	-0.7612	-0.2303	-2.3811	-0.5309	-0.929	-0.6363	6.0113	-2.6348
0.0703	0.7338	0.7651	0.5035	0.6441	1.1125	-0.1522	0.1249	0.2849	-0.5777	-0.1522	-0.6245	-0.968	0.1288	0.4021	-1.1515	-0.2732	-2.182	-0.5192	-0.8509	-0.5387	6.1284	-2.6621
0.0234	0.6909	0.7143	0.5582	0.6011	1.0461	-0.1015	0.16	0.281	-0.4879	-0.0234	-0.527	-0.8119	0.1483	0.2654	-1.5458	-0.3006	-1.9751	-0.4918	-0.7143	-0.4372	6.2259	-2.6934
-0.0703	0.6206	0.6441	0.5816	0.5543	0.9719	-0.1093	0.1757	0.2771	-0.445	0.0703	-0.445	-0.6363	0.1483	0.1444	-1.9439	-0.3084	-1.7839	-0.4528	-0.6167	-0.3708	6.3548	-2.7168
-0.0976	0.5972	0.6089	0.6402	0.5465	0.9368	-0.1054	0.2186	0.2928	-0.324	0.2342	-0.3357	-0.4489	0.1639	-0.0156	-2.346	-0.324	-1.577	-0.4567	-0.4918	-0.2654	6.4719	-2.748
-0.16	0.5738	0.566	0.6909	0.5387	0.8861	-0.0976	0.2342	0.324	-0.2576	0.3591	-0.2225	-0.2654	0.1678	-0.1639	-2.7246	-0.3435	-1.3818	-0.4255	-0.3318	-0.1522	6.589	-2.7948
-0.203	0.5035	0.4489	0.726	0.4879	0.8119	-0.1054	0.242	0.3162	-0.1678	0.4957	-0.1171	-0.0546	0.1718	-0.2849	-3.0954	-0.3513	-1.1905	-0.4177	-0.2303	-0.0703	6.7139	-2.8222
-0.3084	0.445	0.3552	0.7299	0.4567	0.7416	-0.1132	0.2498	0.3318	-0.0742	0.5855	0	0.121	0.1639	-0.4684	-3.4428	-0.3279	-1.0071	-0.4372	-0.1366	0.0234	6.8427	-2.8495
-0.3981	0.4489	0.2849	0.6948	0.4372	0.6597	-0.1522	0.2537	0.3045	-0.039	0.6792	0.1288	0.3045	0.1678	-0.5894	-3.7434	-0.3318	-0.8197	-0.3942	-0.0429	0.1171	6.9871	-2.8963
-0.4762	0.3669	0.1678	0.6441	0.3981	0.5582	-0.1757	0.2771	0.3279	0.0312	0.7846	0.2069	0.4762	0.1561	-0.7299	-3.9971	-0.3279	-0.6245	-0.3981	0.0117	0.1678	7.1393	-2.9705
-0.6245	0.3045	0.0078	0.5621	0.3318	0.4333	-0.2771	0.2576	0.3123	0.0898	0.8275	0.2889	0.687	0.1483	-0.8548	-4.2508	-0.3045	-0.4411	-0.3669	0.1054	0.2381	7.3111	-3.0642
-0.7456	0.2459	-0.1483	0.4411	0.2889	0.3201	-0.3552	0.2498	0.2889	0.1132	0.9212	0.3942	0.8353	0.1483	-0.9563	-4.446	-0.2889	-0.2693	-0.3513	0.1639	0.3279	7.5024	-3.1149
-0.8939	0.203	-0.3084	0.2771	0.2459	0.1952	-0.4567	0.2576	0.2732	0.1522	0.9759	0.484	0.9954	0.1327	-1.0383	-4.5865	-0.2654	-0.0742	-0.3357	0.2147	0.406	7.717	-3.1969
-1.0617	0.1171	-0.4801	0.0507	0.2069	0.0859	-0.5699	0.2693	0.2615	0.1757	1.05	0.5816	1.1476	0.1327	-1.1632	-4.6919	-0.2576	0.1054	-0.3162	0.2732	0.4723	7.9786	-3.2867
-1.2842	0.0351	-0.6792	-0.2108	0.1483	-0.039	-0.6831	0.2537	0.2264	0.1952	1.0969	0.6167	1.3115	0.1171	-1.2179	-4.7505	-0.2264	0.2732	-0.281	0.3045	0.5582	8.2479	-3.3608
-1.4599	-0.0273	-0.8666	-0.4489	0.1327	-0.1991	-0.8627	0.2771	0.2186	0.2342	1.1281	0.6987	1.4286	0.121	-1.2764	-4.7661	-0.2342	0.4606	-0.2381	0.3669	0.6519	8.4899	-3.4233
-1.6589	-0.1015	-1.0734	-0.7182	0.1015	-0.2967	-0.9798	0.2771	0.1913	0.2225	1.1749	0.7573	1.5458	0.0976	-1.3037	-4.7856	-0.2147	0.5933	-0.1796	0.3786	0.7456	8.7475	-3.4975
-1.8541	-0.1249	-1.2257	-0.9095	0.121	-0.3903	-1.0891	0.3318	0.2108	0.2654	1.2491	0.8431	1.698	0.1171	-1.2608	-4.7192	-0.2342	0.7924	-0.1366	0.4372	0.8392	8.9661	-3.5482
-2.0298	-0.1952	-1.4169	-1.1788	0.1132	-0.4879	-1.214	0.3591	0.2225	0.2498	1.2725	0.9056	1.7956	0.1093	-1.3115	-4.6763	-0.2381	0.9602	-0.0859	0.445	0.9446	9.1847	-3.6068
-2.2523	-0.2381	-1.5653	-1.3935	0.1054	-0.5621	-1.3233	0.3708	0.1718	0.2303	1.3076	0.9173	1.8775	0.1171	-1.2998	-4.5943	-0.242	1.1047	-0.0468	0.4801	1.0032	9.3682	-3.6575
-2.4045	-0.2654	-1.698	-1.6199	0.1093	-0.6284	-1.4247	0.3825	0.1952	0.2264	1.3389	0.9602	1.9439	0.1327	-1.3076	-4.5123	-0.2537	1.2608	0	0.4801	1.1203	9.5438	-3.6887
-2.5958	-0.3084	-1.8658	-1.8424	0.0859	-0.7377	-1.5458	0.3864	0.1522	0.2108	1.3233	0.9602	2.0259	0.1327	-1.3115	-4.4148	-0.2576	1.3779	0.0351	0.4801	1.1827	9.7156	-3.7278
-2.787	-0.3864	-2.0064	-2.061	0.0429	-0.8041	-1.6433	0.3513	0.1327	0.1561	1.2881	0.9212	2.0298	0.1327	-1.3428	-4.2938	-0.242	1.4521	0.0351	0.4372	1.2023	9.8756	-3.7278
-2.951	-0.445	-2.1117	-2.2679	0.0273	-0.8588	-1.7409	0.3552	0.0937	0.1132	1.2842	0.9134	2.0415	0.121	-1.3233	-4.1337	-0.2381	1.5223	0.039	0.4294	1.253	9.9732	-3.7082
-3.1032	-0.4996	-2.264	-2.4865	-0.0078	-0.9173	-1.8814	0.3396	0.039	-0.0117	1.2452	0.8314	2.0298	0.1093	-1.3194	-4.0127	-0.2225	1.5614	0.0351	0.3513	1.2959	10.0903	-3.677
-3.2789	-0.5894	-2.3967	-2.7558	-0.0781	-0.9837	-2.0337	0.2849	-0.0273	-0.1288	1.1554	0.7495	1.9673	0.0859	-1.3115	-3.8917	-0.1952	1.577	0.0312	0.2849	1.2881	10.1879	-3.6575
-3.4233	-0.6636	-2.5294	-2.9666	-0.1054	-1.0461	-2.1859	0.2264	-0.1093	-0.203	1.1125	0.6597	1.9244	0.0898	-1.2647	-3.7082	-0.1639	1.6277	0.0234	0.2147	1.2803	10.2504	-3.6302
-3.5638	-0.7182	-2.6348	-3.2086	-0.1991	-1.1164	-2.3186	0.1522	-0.1874	-0.3279	0.9954	0.5348	1.8385	0.0625	-1.2179	-3.5638	-0.1288	1.6589	-0.0156	0.121	1.2764	10.3089	-3.6185
-3.7043	-0.7807	-2.7636	-3.4116	-0.2615	-1.1593	-2.4435	0.1132	-0.2459	-0.4684	0.9329	0.445	1.7292	0.0351	-1.1359	-3.4584	-0.0781	1.6589	-0.0351	0.0703	1.2452	10.3401	-3.5989
-3.8644	-0.8861	-2.8456	-3.6185	-0.3201	-1.1866	-2.5606	0.0195	-0.3318	-0.5972	0.847	0.3279	1.6511	0	-1.0539	-3.3999	-0.0039	1.6746	-0.0507	-0.0429	1.214	10.3792	-3.5833
-3.9737	-0.9759	-2.951	-3.8136	-0.4177	-1.2413	-2.6973	-0.0781	-0.4372	-0.7534	0.7221	0.1366	1.5067	-0.0351	-0.9485	-3.3413	0.0781	1.6941	-0.1054	-0.1132	1.171	10.3831	-3.5833
-4.1337	-1.0305	-3.033	-3.962	-0.4996	-1.2569	-2.8066	-0.1561	-0.5153	-0.8861	0.6089	0.0351	1.3623	-0.0859	-0.8744	-3.3491	0.1639	1.6863	-0.1327	-0.1678	1.1359	10.3753	-3.5599
-4.2352	-1.1125	-3.0993	-4.1376	-0.5894	-1.3037	-2.9393	-0.2381	-0.605	-1.0344	0.5113	-0.1015	1.2296	-0.1054	-0.8431	-3.3843	0.2342	1.7058	-0.1639	-0.281	1.093	10.3597	-3.5365
-4.3367	-1.1905	-3.1735	-4.2742	-0.6636	-1.3272	-3.0486	-0.3396	-0.7026	-1.2257	0.3903	-0.281	1.05	-0.1678	-0.7768	-3.4506	0.3279	1.6629	-0.2264	-0.363	1.0578	10.3518	-3.5209
-4.446	-1.2959	-3.2554	-4.3991	-0.769	-1.3857	-3.1852	-0.4723	-0.847	-1.3974	0.242	-0.4801	0.8314	-0.2069	-0.7612	-3.5716	0.4216	1.6121	-0.3162	-0.484	0.929	10.3128	-3.517
-4.5084	-1.3506	-3.3101	-4.4967	-0.8705	-1.4052	-3.2867	-0.605	-0.9641	-1.6082	0.0703	-0.7026	0.5816	-0.2576	-0.7612	-3.7239	0.5113	1.5262	-0.3786	-0.6167	0.8431	10.2582	-3.5365
-4.6177	-1.4404	-3.3647	-4.5631	-0.9719	-1.4482	-3.4077	-0.726	-1.1164	-1.8034	-0.0507	-0.8939	0.3552	-0.2849	-0.8002	-3.88	0.5816	1.3935	-0.5035	-0.7534	0.7416	10.2308	-3.5053
-4.6763	-1.5301	-3.4233	-4.6138	-1.0734	-1.4989	-3.4896	-0.8353	-1.2608	-1.9946	-0.1913	-1.093	0.0976	-0.3162	-0.8627	-4.0595	0.6206	1.2452	-0.5816	-0.9056	0.6206	10.2113	-3.5014
-4.7583	-1.6199	-3.4896	-4.6373	-1.171	-1.5418	-3.5716	-0.9759	-1.3545	-2.1859	-0.3279	-1.292	-0.1405	-0.324	-0.9173	-4.282	0.6597	1.0461	-0.687	-1.0656	0.5192	10.2113	-3.4818
-4.8207	-1.7253	-3.5521	-4.6255	-1.2686	-1.5926	-3.6653	-1.0891	-1.5028	-2.4162	-0.4684	-1.4638	-0.4138	-0.3513	-1.0266	-4.4889	0.7065	0.847	-0.7885	-1.2491	0.3747	10.2152	-3.4623
-4.9222	-1.8463	-3.6302	-4.6607	-1.3974	-1.6746	-3.7746	-1.2413	-1.6394	-2.6465	-0.6089	-1.6746	-0.6831	-0.3708	-1.1086	-4.7465	0.7377	0.5738	-0.8939	-1.4208	0.2928	10.2543	-3.4662
-4.9808	-1.94	-3.72	-4.6568	-1.5106	-1.737	-3.8566	-1.3467	-1.7761	-2.8261	-0.726	-1.8619	-0.9407	-0.3942	-1.2179	-4.9886	0.7612	0.3123	-1.0149	-1.6199	0.1796	10.3323	-3.435
-5.0432	-2.0337	-3.7824	-4.6646	-1.5653	-1.7878	-3.8995	-1.4482	-1.8736	-2.9978	-0.8275	-2.0259	-1.1866	-0.3708	-1.2608	-5.2579	0.7377	0.0429	-1.0578	-1.7721	0.0898	10.426	-3.4506
-5.1213	-2.1508	-3.841	-4.6607	-1.655	-1.8307	-3.9424	-1.5418	-1.9634	-3.1657	-0.9134	-2.1508	-1.4169	-0.3747	-1.3076	-5.5116	0.7299	-0.2381	-1.1554	-1.9829	-0.0156	10.5392	-3.4506
-5.2072	-2.2757	-3.9229	-4.6607	-1.7487	-1.8697	-3.9698	-1.6355	-2.0805	-3.3023	-0.9641	-2.2484	-1.6199	-0.3864	-1.335	-5.7849	0.7456	-0.5309	-1.2179	-2.1625	-0.0937	10.6758	-3.4311
-5.2579	-2.3733	-3.9815	-4.649	-1.8034	-1.9283	-3.9971	-1.7019	-2.1313	-3.4155	-1.0383	-2.3655	-1.8229	-0.3864	-1.2881	-5.9761	0.7456	-0.808	-1.2686	-2.3381	-0.1913	10.7851	-3.4623
-5.3282	-2.4787	-4.0361	-4.6685	-1.858	-2.0064	-4.0127	-1.7682	-2.182	-3.4896	-1.0812	-2.4396	-1.979	-0.3981	-1.292	-6.1947	0.7612	-1.1008	-1.3037	-2.5099	-0.2576	10.8983	-3.4623
-5.3984	-2.5528	-4.1142	-4.6724	-1.9166	-2.0142	-4.0244	-1.7761	-2.2367	-3.5833	-1.1164	-2.4865	-2.1313	-0.3825	-1.2335	-6.3313	0.7612	-1.3818	-1.3311	-2.6816	-0.3201	11.0037	-3.4701
-5.4414	-2.6582	-4.1727	-4.6841	-1.9439	-2.0532	-4.0088	-1.819	-2.2601	-3.6497	-1.1281	-2.5372	-2.2367	-0.4177	-1.1632	-6.4055	0.808	-1.655	-1.374	-2.8456	-0.3942	11.0974	-3.4936
-5.457	-2.7129	-4.1884	-4.6529	-1.9517	-2.0454	-3.9463	-1.8151	-2.2367	-3.6458	-1.1125	-2.506	-2.3577	-0.4255	-1.1086	-6.4328	0.8353	-1.9244	-1.3389	-2.9978	-0.4606	11.1794	-3.5326
-5.5038	-2.7558	-4.2508	-4.6138	-1.9634	-2.0649	-3.9151	-1.8151	-2.2054	-3.677	-1.1203	-2.5372	-2.4474	-0.4684	-1.0032	-6.4601	0.89	-2.1859	-1.3701	-3.1383	-0.5387	11.2574	-3.5911
-5.5194	-2.7987	-4.2703	-4.6255	-1.9829	-2.0727	-3.8566	-1.8073	-2.182	-3.6692	-1.0969	-2.4631	-2.506	-0.4723	-0.9446	-6.4328	0.9212	-2.4552	-1.3935	-3.2984	-0.5972	11.3355	-3.638
-5.5233	-2.8339	-4.2703	-4.5943	-1.9283	-2.0493	-3.7824	-1.7682	-2.1196	-3.6263	-1.05	-2.4006	-2.5372	-0.5074	-0.8705	-6.3899	0.9602	-2.6934	-1.3779	-3.4311	-0.6284	11.398	-3.7043
-5.4765	-2.8573	-4.2508	-4.5592	-1.8853	-2.0024	-3.6887	-1.7253	-2.0454	-3.5755	-0.9993	-2.3303	-2.5372	-0.5113	-0.7612	-6.3821	0.9837	-2.9471	-1.3701	-3.5482	-0.6597	11.476	-3.7551
-5.4609	-2.8495	-4.2157	-4.5397	-1.8112	-1.9205	-3.6068	-1.6433	-1.9322	-3.4896	-0.9056	-2.2015	-2.5411	-0.5035	-0.7143	-6.3274	1.0071	-3.1696	-1.3154	-3.6965	-0.6636	11.5619	-3.8214
-5.3867	-2.8183	-4.1845	-4.5162	-1.7604	-1.858	-3.5092	-1.5497	-1.8073	-3.3921	-0.808	-2.0727	-2.506	-0.5113	-0.6206	-6.3313	1.011	-3.3999	-1.3272	-3.8331	-0.7026	11.6907	-3.9034
-5.3164	-2.7831	-4.0908	-4.4538	-1.6472	-1.78	-3.396	-1.4443	-1.6785	-3.2672	-0.7143	-1.9478	-2.4513	-0.5074	-0.5074	-6.2728	0.9837	-3.6224	-1.2959	-3.9073	-0.7221	11.839	-3.9815
-5.2462	-2.7285	-3.9893	-4.364	-1.5497	-1.6511	-3.2281	-1.3115	-1.4872	-3.0993	-0.5972	-1.7487	-2.3381	-0.4918	-0.4099	-6.2494	0.9563	-3.8488	-1.2569	-4.0205	-0.6987	12.0147	-4.0283
-5.1252	-2.666	-3.8956	-4.3016	-1.456	-1.5223	-3.0954	-1.171	-1.292	-2.9198	-0.4606	-1.5458	-2.2523	-0.4723	-0.3123	-6.1908	0.9095	-4.0088	-1.2179	-4.1337	-0.6714	12.2372	-4.1103
-4.9964	-2.5763	-3.759	-4.1688	-1.3154	-1.3623	-2.9158	-0.9876	-1.0539	-2.7441	-0.2459	-1.3154	-2.1	-0.4255	-0.1874	-6.1284	0.8431	-4.1845	-1.1476	-4.2079	-0.6441	12.4636	-4.1962
-4.8754	-2.4474	-3.5872	-4.0166	-1.1554	-1.1788	-2.7168	-0.8158	-0.808	-2.5177	-0.0937	-1.0578	-1.9127	-0.3903	-0.0429	-6.062	0.7846	-4.3445	-1.0969	-4.2703	-0.6128	12.7251	-4.2664
-4.6919	-2.2874	-3.3804	-3.8449	-1.0149	-0.9798	-2.4904	-0.6245	-0.5582	-2.2913	0.0937	-0.7885	-1.7409	-0.3786	0.1249	-5.98	0.7338	-4.4577	-1.0188	-4.2898	-0.5621	12.9827	-4.3952
-4.5358	-2.1313	-3.2125	-3.6692	-0.8158	-0.7924	-2.264	-0.4099	-0.281	-2.0415	0.2967	-0.5231	-1.5301	-0.3435	0.2889	-5.9059	0.687	-4.5162	-0.9368	-4.3211	-0.5231	13.2521	-4.5358
-4.3523	-1.9712	-2.9705	-3.4818	-0.6402	-0.5582	-2.0415	-0.2225	-0.0078	-1.7878	0.5035	-0.2381	-1.3194	-0.3357	0.4918	-5.82	0.6675	-4.6412	-0.8392	-4.325	-0.4489	13.5058	-4.7114
-4.1532	-1.7682	-2.7363	-3.2554	-0.4333	-0.324	-1.7839	0	0.2732	-1.5379	0.7026	0.0859	-1.1047	-0.3357	0.7416	-5.6951	0.6402	-4.7036	-0.7416	-4.3367	-0.3825	13.7244	-4.8519
-3.9776	-1.6199	-2.5411	-3.0486	-0.2654	-0.1249	-1.5887	0.1796	0.5465	-1.2842	0.89	0.3435	-0.89	-0.3318	1.0071	-5.5507	0.648	-4.7778	-0.6597	-4.3055	-0.363	13.8922	-5.0432
-3.7707	-1.4208	-2.3303	-2.8495	-0.1054	0.082	-1.3545	0.3591	0.8119	-1.05	1.0461	0.5933	-0.7143	-0.3552	1.2881	-5.4179	0.6558	-4.8363	-0.5894	-4.2938	-0.3318	14.0328	-5.1954
-3.5716	-1.2647	-2.0961	-2.6855	0.0468	0.3045	-1.1593	0.4957	1.05	-0.8588	1.1866	0.8666	-0.5387	-0.3435	1.5731	-5.2423	0.6558	-4.8519	-0.5309	-4.2859	-0.2889	14.1147	-5.375
-3.3725	-1.1008	-1.8893	-2.506	0.1718	0.4996	-0.9876	0.648	1.2803	-0.6519	1.3115	1.0656	-0.3708	-0.3318	1.8853	-5.0549	0.6558	-4.8871	-0.4801	-4.2274	-0.2967	14.1421	-5.5663
-3.1657	-0.9329	-1.698	-2.3381	0.3123	0.6753	-0.808	0.7729	1.4989	-0.4567	1.4091	1.2842	-0.2225	-0.3396	2.1976	-4.8558	0.648	-4.8988	-0.4489	-4.204	-0.2928	14.1499	-5.7263
-2.9783	-0.7963	-1.495	-2.1664	0.3942	0.8431	-0.6597	0.8861	1.6824	-0.2615	1.4989	1.4716	-0.0664	-0.3201	2.5606	-4.6373	0.6206	-4.8949	-0.4528	-4.1571	-0.3279	14.1069	-5.8902
-2.7792	-0.6558	-1.2959	-2.0064	0.5153	1.0188	-0.4879	0.9719	1.8853	-0.121	1.5926	1.655	0.0781	-0.3006	2.9588	-4.3523	0.5933	-4.8793	-0.4255	-4.0869	-0.3708	13.9976	-6.0503
-2.545	-0.527	-1.0891	-1.8463	0.5699	1.1593	-0.363	1.05	2.061	0.0156	1.6511	1.8112	0.1913	-0.3045	3.3335	-4.1064	0.5933	-4.8949	-0.4489	-4.0166	-0.4138	13.8805	-6.1752
-2.3733	-0.4294	-0.9212	-1.6941	0.6675	1.3311	-0.2576	1.1242	2.2406	0.1678	1.698	1.9478	0.3201	-0.3006	3.7082	-3.8175	0.5621	-4.891	-0.4489	-3.9424	-0.4372	13.7205	-6.3079
-2.1235	-0.3045	-0.7065	-1.5536	0.7377	1.4755	-0.121	1.214	2.4123	0.3084	1.7682	2.1313	0.4801	-0.2693	4.0556	-3.5755	0.5153	-4.8246	-0.4684	-3.8371	-0.4801	13.5448	-6.3938
-1.9478	-0.2108	-0.5504	-1.4208	0.8236	1.6043	-0.0195	1.2686	2.5528	0.4606	1.7917	2.2679	0.5972	-0.2615	4.3952	-3.3882	0.4996	-4.7739	-0.4996	-3.7473	-0.527	13.3809	-6.4836
-1.7604	-0.1249	-0.3786	-1.2998	0.8978	1.7721	0.0781	1.374	2.7324	0.6128	1.858	2.4435	0.808	-0.2264	4.727	-3.1891	0.4333	-4.6802	-0.5231	-3.5989	-0.5621	13.2052	-6.5538
-1.6043	-0.0429	-0.2381	-1.1632	0.9641	1.901	0.1678	1.4326	2.869	0.7416	1.901	2.5723	0.9563	-0.2069	5.0198	-3.0642	0.3942	-4.5553	-0.5426	-3.5092	-0.5933	13.0725	-6.5968
-1.4521	0.0625	-0.1015	-1.0891	1.0344	2.0103	0.2342	1.5067	3.0056	0.8861	1.9478	2.7168	1.1242	-0.1913	5.2072	-2.9588	0.3513	-4.3991	-0.5855	-3.3608	-0.6402	12.9749	-6.6436
-1.3311	0.1093	-0.0039	-0.9759	1.1125	2.1274	0.3201	1.5887	3.1813	1.0539	2.0064	2.9041	1.3428	-0.1483	5.4296	-2.8651	0.2889	-4.1727	-0.5816	-3.1735	-0.6284	12.9008	-6.667
-1.1827	0.16	0.1132	-0.9212	1.1515	2.2171	0.4372	1.6433	3.3413	1.2179	2.0805	3.0759	1.5848	-0.1171	5.6053	-2.7792	0.2108	-3.9503	-0.6402	-3.029	-0.648	12.8813	-6.7139
-1.0773	0.242	0.1913	-0.8353	1.2218	2.3342	0.484	1.7058	3.5131	1.3818	2.1274	3.1969	1.7956	-0.0937	5.7029	-2.709	0.1561	-3.6926	-0.687	-2.8495	-0.6675	12.9047	-6.7373
-0.9993	0.2459	0.2654	-0.808	1.2413	2.3928	0.5582	1.7604	3.638	1.5692	2.1898	3.3569	2.0454	-0.039	5.8317	-2.588	0.082	-3.3999	-0.7143	-2.6426	-0.6519	12.9476	-6.749
-0.9212	0.2928	0.324	-0.7573	1.335	2.4943	0.6324	1.819	3.7473	1.7214	2.2445	3.5131	2.2796	-0.0117	5.9137	-2.4826	0.0156	-3.0525	-0.7299	-2.467	-0.605	13.0257	-6.7451
-0.8744	0.2928	0.3435	-0.7299	1.3818	2.5489	0.6792	1.8932	3.8839	1.9244	2.3069	3.6614	2.5216	0.0273	5.9761	-2.3811	-0.0507	-2.7363	-0.7846	-2.2796	-0.5972	13.1428	-6.7685
-0.8627	0.3435	0.3708	-0.7065	1.4208	2.5997	0.7456	1.9517	4.001	2.0688	2.3772	3.8019	2.7441	0.0703	6.0464	-2.2601	-0.1249	-2.3694	-0.808	-2.0766	-0.5465	13.2716	-6.7724
-0.7768	0.3201	0.363	-0.6636	1.4521	2.6621	0.8119	1.9907	4.0947	2.2367	2.4474	3.919	2.9588	0.1054	6.0893	-2.0844	-0.2186	-1.9985	-0.8314	-1.9088	-0.484	13.4199	-6.7646
-0.7846	0.3435	0.3864	-0.5777	1.4755	2.7168	0.8939	2.0493	4.1962	2.3967	2.5177	4.0439	3.2125	0.1405	6.1713	-1.9517	-0.2889	-1.6472	-0.8509	-1.7136	-0.4411	13.5839	-6.7607
-0.7846	0.3201	0.3435	-0.5309	1.495	2.7168	0.9329	2.0727	4.243	2.5411	2.5606	4.122	3.4038	0.1678	6.2298	-1.8463	-0.3513	-1.2803	-0.8392	-1.495	-0.3747	13.7634	-6.7685
-0.808	0.3084	0.3123	-0.4645	1.5223	2.7129	1.0149	2.1078	4.2977	2.7012	2.6153	4.2118	3.6068	0.2147	6.2611	-1.7253	-0.4216	-0.9173	-0.8822	-1.3037	-0.2849	13.9391	-6.7529
-0.8236	0.2576	0.2693	-0.406	1.5223	2.7168	1.0773	2.1274	4.3328	2.8222	2.6738	4.3055	3.7863	0.2264	6.2806	-1.6785	-0.4528	-0.566	-0.8978	-1.1281	-0.2264	14.1108	-6.7451
-0.8392	0.2654	0.2303	-0.3006	1.5575	2.7441	1.1749	2.1586	4.3796	2.9744	2.7207	4.3991	4.0049	0.2615	6.343	-1.6355	-0.5035	-0.2342	-0.8861	-0.9251	-0.1522	14.2592	-6.7334
-0.8431	0.242	0.1991	-0.1718	1.5497	2.7285	1.2842	2.1898	4.4265	3.1149	2.7948	4.446	4.1884	0.2771	6.3626	-1.6121	-0.5582	0.1249	-0.8744	-0.7104	-0.0703	14.3607	-6.7763
-0.8705	0.2225	0.1874	-0.0273	1.5301	2.748	1.3701	2.2601	4.4382	3.2593	2.8885	4.5319	4.3757	0.2849	6.4055	-1.6121	-0.5933	0.484	-0.8392	-0.527	0.0468	14.4348	-6.7802
-0.9173	0.2147	0.1327	0.121	1.6121	2.7441	1.4794	2.2835	4.4733	3.3999	2.9549	4.5982	4.5592	0.3201	6.4445	-1.6082	-0.6284	0.8588	-0.8041	-0.2967	0.1561	14.4699	-6.8193
-0.9368	0.203	0.1015	0.2849	1.5653	2.7246	1.6199	2.2874	4.4655	3.5053	3.0408	4.6451	4.7583	0.3201	6.4836	-1.655	-0.6714	1.214	-0.7807	-0.1132	0.281	14.4543	-6.87
-0.9719	0.203	0.0273	0.445	1.577	2.6855	1.7058	2.3186	4.485	3.6419	3.0993	4.7231	4.9066	0.3318	6.5382	-1.6472	-0.687	1.5418	-0.7299	0.0468	0.3981	14.4153	-6.952
-0.9954	0.1913	-0.0273	0.6128	1.5926	2.6934	1.8112	2.3616	4.4694	3.7629	3.232	4.7778	5.094	0.3474	6.5616	-1.6707	-0.7104	1.9088	-0.6714	0.2537	0.5113	14.3919	-7.0222
-1.0539	0.16	-0.082	0.7573	1.6121	2.666	1.9127	2.3928	4.4889	3.8644	3.2867	4.8051	5.2267	0.3591	6.6085	-1.6785	-0.726	2.2288	-0.6402	0.4021	0.6519	14.3489	-7.1315
-1.1164	0.1796	-0.1327	0.8939	1.5887	2.6192	1.9907	2.4318	4.4772	3.9385	3.353	4.8558	5.3399	0.3357	6.6319	-1.6824	-0.7104	2.5489	-0.5699	0.5543	0.7729	14.2865	-7.2642
-1.1827	0.1561	-0.203	1.0227	1.5926	2.5802	2.061	2.467	4.4382	4.001	3.435	4.8832	5.4882	0.3396	6.6592	-1.7331	-0.6831	2.8924	-0.5074	0.7065	0.9173	14.2318	-7.3735
-1.2296	0.1757	-0.2615	1.0812	1.5731	2.5177	2.0883	2.4826	4.3835	4.0674	3.4818	4.8754	5.5858	0.3123	6.749	-1.7448	-0.6441	3.1657	-0.4255	0.8431	1.0539	14.1733	-7.5102
-1.3154	0.1639	-0.3669	1.1359	1.5809	2.4474	2.0844	2.5021	4.3289	4.0908	3.5443	4.8793	5.6521	0.3006	6.7646	-1.8736	-0.605	3.474	-0.3552	0.9719	1.2023	14.1225	-7.6312
-1.4286	0.1366	-0.4762	1.1008	1.5458	2.3655	2.0571	2.4904	4.282	4.0791	3.6146	4.8715	5.6951	0.2615	6.8075	-2.0298	-0.5231	3.7043	-0.2967	1.0695	1.292	14.0757	-7.7405
-1.5536	0.0859	-0.6284	1.0188	1.5223	2.2328	1.9829	2.4748	4.1767	4.0439	3.6497	4.8168	5.7107	0.2069	6.8036	-2.2328	-0.4216	3.9503	-0.2147	1.171	1.4208	14.0367	-7.8498
-1.6316	0.0273	-0.7495	0.9602	1.4872	2.1313	1.8971	2.4474	4.0791	4.0361	3.7004	4.7739	5.7458	0.1718	6.7724	-2.4865	-0.3474	4.2001	-0.1522	1.253	1.5731	14.0211	-7.9512
-1.7487	0.0195	-0.8822	0.847	1.4833	2.0024	1.7682	2.4279	3.9893	3.9854	3.7121	4.7114	5.7614	0.1444	6.7373	-2.7168	-0.2693	4.4109	-0.0703	1.3701	1.6746	14.0211	-8.0566
-1.8775	-0.0586	-1.0461	0.6987	1.4208	1.8658	1.6668	2.4084	3.8722	3.9346	3.759	4.6724	5.7966	0.0937	6.6787	-3.0017	-0.1913	4.6177	0.0351	1.4794	1.8463	14.0289	-8.123
-1.9634	-0.0898	-1.1515	0.5348	1.4091	1.7292	1.5575	2.4045	3.8136	3.8761	3.798	4.6255	5.781	0.0546	6.5851	-3.2633	-0.1366	4.8715	0.1366	1.6082	1.9829	14.0367	-8.2167
-2.061	-0.1171	-1.2803	0.3825	1.4169	1.6433	1.4599	2.4084	3.716	3.8566	3.8683	4.5865	5.8278	0.0586	6.5304	-3.5092	-0.0937	5.0588	0.1991	1.6941	2.0805	14.0406	-8.2635
-2.1156	-0.1015	-1.4091	0.2459	1.4286	1.5536	1.4052	2.4591	3.6926	3.841	3.962	4.5982	5.9215	0.0429	6.468	-3.7004	-0.0898	5.3125	0.3396	1.8541	2.2406	14.0289	-8.3338
-2.1898	-0.0898	-1.4872	0.1093	1.4443	1.4794	1.3154	2.4943	3.6653	3.8566	4.0556	4.606	5.9839	0.0468	6.4055	-3.8097	-0.0898	5.5507	0.4177	1.9907	2.3889	13.9703	-8.4119
-2.2288	-0.0625	-1.5145	0.0429	1.4911	1.4482	1.2335	2.5333	3.6575	3.8878	4.1454	4.6646	6.1166	0.0546	6.3313	-3.8878	-0.1054	5.82	0.5621	2.1703	2.5489	13.9196	-8.4704
-2.2249	-0.0273	-1.5418	-0.0312	1.5575	1.4091	1.2491	2.6114	3.6809	3.9268	4.2625	4.7192	6.2064	0.0429	6.3157	-3.8839	-0.1171	6.0542	0.6441	2.3108	2.7246	13.8298	-8.5524
-2.2249	0.0039	-1.5809	-0.1132	1.616	1.3818	1.2062	2.6543	3.7082	3.9581	4.3874	4.7661	6.3118	0.0625	6.2806	-3.8331	-0.1327	6.3118	0.7299	2.4513	2.8651	13.7127	-8.6304
-2.2093	0.0625	-1.5848	-0.1366	1.6902	1.3701	1.2101	2.7246	3.7239	4.0049	4.485	4.8402	6.4172	0.0781	6.304	-3.759	-0.16	6.5694	0.8509	2.5802	3.0017	13.5956	-8.7163
-2.2093	0.1249	-1.5887	-0.1366	1.7604	1.3467	1.2413	2.8105	3.7629	4.0635	4.5982	4.9066	6.546	0.082	6.2962	-3.6809	-0.1639	6.7451	0.8861	2.7012	3.1188	13.4629	-8.7827
-2.221	0.16	-1.6394	-0.1991	1.7839	1.3115	1.2335	2.8417	3.7824	4.0752	4.6763	4.9417	6.6514	0.0703	6.2923	-3.5911	-0.1405	6.9286	0.9446	2.7909	3.2554	13.3653	-8.8451
-2.182	0.203	-1.6472	-0.1991	1.8619	1.3115	1.2179	2.9119	3.7863	4.1298	4.7622	4.9768	6.7451	0.0742	6.3469	-3.4662	-0.1444	7.0964	0.9759	2.8768	3.3725	13.2404	-8.9427
-2.1742	0.2693	-1.6277	-0.203	1.9127	1.292	1.2647	2.951	3.8214	4.1688	4.891	5.0276	6.7997	0.0664	6.3899	-3.3882	-0.1444	7.2564	1.011	2.9393	3.4467	13.1506	-9.0013
-2.1859	0.2849	-1.6589	-0.1796	1.9439	1.2257	1.2452	3.0095	3.8331	4.1884	4.9808	5.0627	6.8856	0.0703	6.4289	-3.2828	-0.1522	7.3931	1.0461	2.9627	3.5287	13.0647	-9.0676
-2.1547	0.3045	-1.6746	-0.1522	1.9907	1.214	1.2803	3.0408	3.8605	4.2274	5.0549	5.1057	6.9442	0.0742	6.5226	-3.2125	-0.1718	7.5063	1.0812	3.0017	3.6692	12.9984	-9.1418
-2.1391	0.3513	-1.6785	-0.0937	2.0454	1.2296	1.3076	3.1383	3.8956	4.2625	5.1486	5.1798	7.0144	0.1093	6.6358	-3.1032	-0.2303	7.6195	1.132	3.0369	3.7941	12.9281	-9.1847
-2.1196	0.3435	-1.7019	-0.0546	2.0532	1.1788	1.3233	3.2047	3.9112	4.2859	5.2384	5.1876	7.0574	0.1366	6.7763	-3.0056	-0.2615	7.6585	1.1749	3.0212	3.8956	12.8813	-9.2589
-2.1117	0.3591	-1.7214	-0.0273	2.0922	1.1203	1.3389	3.2554	3.9151	4.3016	5.3399	5.2228	7.1198	0.1405	6.8934	-2.9198	-0.2967	7.7405	1.2257	3.0447	4.0127	12.8344	-9.3292
-2.1508	0.3591	-1.7682	-0.0078	2.0922	1.0969	1.3584	3.3101	3.9581	4.3133	5.4062	5.2345	7.1589	0.1561	7.0457	-2.8456	-0.3279	7.7873	1.2959	3.029	4.1142	12.8071	-9.3877
-2.2132	0.3084	-1.8229	0.0039	2.0961	1.0344	1.3506	3.3179	3.9385	4.2977	5.4843	5.3047	7.1745	0.1639	7.1979	-2.7909	-0.3318	7.8341	1.3076	3.0095	4.1845	12.811	-9.4267
-2.2796	0.2498	-1.9166	0.0078	2.0649	0.9993	1.3467	3.3765	3.9268	4.3055	5.5624	5.3164	7.2135	0.1757	7.3306	-2.7246	-0.3552	7.8576	1.3857	2.9978	4.3055	12.85	-9.4697
-2.385	0.1483	-2.0454	-0.0234	1.9985	0.8978	1.3037	3.3725	3.8917	4.2547	5.6092	5.3282	7.194	0.1757	7.4321	-2.7363	-0.3396	7.8459	1.4013	2.9705	4.364	12.9164	-9.4814
-2.5411	0.0234	-2.1937	-0.1132	1.9283	0.7495	1.2218	3.353	3.8722	4.2001	5.6404	5.3399	7.1745	0.1522	7.5063	-2.787	-0.3084	7.799	1.4013	2.9237	4.4187	13.0491	-9.5048
-2.6895	-0.0781	-2.3538	-0.1796	1.8307	0.6167	1.1905	3.3218	3.8058	4.1103	5.6482	5.2774	7.1315	0.1522	7.5687	-2.8261	-0.3123	7.7483	1.4091	2.8846	4.4655	13.2013	-9.5243
-2.8729	-0.2303	-2.5294	-0.2537	1.7721	0.484	1.1047	3.2906	3.7317	4.0361	5.6638	5.2462	7.1159	0.1405	7.6038	-2.9237	-0.2967	7.7131	1.3896	2.8612	4.4928	13.3731	-9.5595
-3.0954	-0.3864	-2.7402	-0.3669	1.6238	0.324	0.9524	3.2086	3.6497	3.9346	5.6443	5.2072	7.0222	0.1366	7.6156	-3.0251	-0.2654	7.6429	1.3818	2.8066	4.5162	13.58	-9.5634
-3.314	-0.5426	-2.9588	-0.4879	1.5067	0.16	0.8392	3.1618	3.5521	3.8058	5.6053	5.1486	6.9442	0.1132	7.6077	-3.1188	-0.2186	7.5375	1.3857	2.7363	4.5397	13.7712	-9.5829
-3.5326	-0.6792	-3.1618	-0.605	1.3857	-0.0195	0.7495	3.0993	3.4467	3.7121	5.6131	5.0979	6.8427	0.0898	7.596	-3.2398	-0.1952	7.4204	1.3857	2.6895	4.5475	14.0054	-9.6024
-3.759	-0.8783	-3.396	-0.7338	1.1983	-0.1952	0.6206	3.0212	3.3296	3.5716	5.578	5.0003	6.7217	0.0898	7.5531	-3.3101	-0.16	7.3306	1.3701	2.627	4.5514	14.2162	-9.6648
-3.9854	-1.05	-3.6302	-0.8705	1.0656	-0.3669	0.4918	2.9158	3.2125	3.4428	5.5155	4.9144	6.6163	0.0507	7.4828	-3.4038	-0.1132	7.2057	1.335	2.5489	4.5436	14.4426	-9.6805
-4.1845	-1.2179	-3.8331	-1.0032	0.9329	-0.527	0.3552	2.83	3.0798	3.3101	5.4648	4.8207	6.4484	0.0351	7.3892	-3.4818	-0.0703	7.112	1.3272	2.4396	4.5397	14.6768	-9.6883
-4.4109	-1.413	-4.0752	-1.1359	0.769	-0.6987	0.242	2.748	2.9939	3.1774	5.3984	4.7465	6.3235	0.0039	7.315	-3.5716	-0.0156	6.9793	1.292	2.3616	4.5514	14.8798	-9.7195
-4.5943	-1.5848	-4.2781	-1.253	0.6324	-0.8744	0.1054	2.6387	2.83	3.0486	5.336	4.6373	6.1791	-0.0117	7.1901	-3.638	0.0546	6.8388	1.2881	2.2406	4.5319	15.0359	-9.7937
-4.809	-1.7604	-4.5123	-1.3818	0.4684	-1.0422	-0.0273	2.5606	2.6934	2.8885	5.2462	4.5202	6.0269	-0.0703	7.0535	-3.7317	0.1405	6.6748	1.2725	2.1508	4.5084	15.1726	-9.8522
-5.0081	-1.9244	-4.6958	-1.5262	0.3513	-1.1905	-0.1444	2.4982	2.6114	2.7909	5.2306	4.4616	5.9488	-0.1015	6.9403	-3.7707	0.2069	6.5421	1.2764	2.0571	4.5514	15.2545	-9.9186
-5.1837	-2.0883	-4.9066	-1.6316	0.2147	-1.3701	-0.2849	2.4513	2.5255	2.709	5.1798	4.4109	5.8317	-0.1405	6.8154	-3.8449	0.2889	6.4211	1.2881	1.9829	4.5553	15.2819	-9.9849
-5.3633	-2.2484	-5.0822	-1.7761	0.0976	-1.4755	-0.3747	2.3889	2.4201	2.5997	5.1525	4.3484	5.7302	-0.1913	6.7529	-3.9737	0.3591	6.304	1.3115	1.8697	4.5631	15.2623	-10.0747
-5.5233	-2.3694	-5.2696	-1.8893	0.0156	-1.6316	-0.5113	2.3577	2.3655	2.545	5.1213	4.2938	5.6404	-0.2459	6.6241	-4.0791	0.4606	6.1791	1.3272	1.7956	4.5709	15.2155	-10.1723
-5.6795	-2.5021	-5.4218	-2.0181	-0.0312	-1.6707	-0.5816	2.3538	2.3342	2.4943	5.1369	4.282	5.6248	-0.2693	6.5655	-4.2079	0.5348	6.0815	1.3818	1.7136	4.6138	15.1569	-10.2582
-5.8278	-2.588	-5.5858	-2.1703	-0.1249	-1.7721	-0.6675	2.3577	2.3069	2.4631	5.1798	4.325	5.6053	-0.3396	6.507	-4.3367	0.6324	6.0073	1.4326	1.6746	4.6802	15.0945	-10.3597
-5.9839	-2.6543	-5.7458	-2.3069	-0.1132	-1.8346	-0.7495	2.3616	2.2835	2.4709	5.1915	4.3562	5.5936	-0.3786	6.4367	-4.5241	0.7377	5.9527	1.5106	1.6004	4.7231	15.032	-10.4729
-6.1518	-2.7402	-5.9059	-2.4201	-0.1561	-1.9322	-0.8353	2.4006	2.3069	2.4513	5.2267	4.3718	5.6053	-0.4411	6.3938	-4.6997	0.8783	5.8434	1.5887	1.5418	4.7739	14.9735	-10.5939
-6.2923	-2.8183	-6.0737	-2.6075	-0.1718	-1.9946	-0.9329	2.4318	2.3108	2.467	5.2774	4.3952	5.6287	-0.5074	6.3313	-4.8949	0.9915	5.8005	1.6746	1.4989	4.8519	14.9345	-10.7344
-6.4601	-2.8729	-6.222	-2.7831	-0.1718	-2.0649	-1.0227	2.4865	2.3186	2.4435	5.3047	4.4499	5.6599	-0.566	6.2689	-5.1018	1.093	5.7263	1.7604	1.4443	4.9066	14.9266	-10.8827
-6.5812	-2.9158	-6.3665	-2.9666	-0.1444	-2.0883	-1.0969	2.5255	2.3225	2.424	5.3399	4.5202	5.6873	-0.6128	6.222	-5.2696	1.214	5.6599	1.8853	1.3857	4.9495	14.911	-11.0349
-6.7412	-2.9588	-6.5109	-3.193	-0.1522	-2.182	-1.1944	2.588	2.346	2.4591	5.4101	4.567	5.6834	-0.6792	6.1284	-5.4375	1.3311	5.5858	1.9634	1.3194	5.0081	14.9149	-11.2145
-6.8856	-2.9783	-6.6475	-3.3804	-0.1405	-2.2288	-1.2998	2.6114	2.3772	2.4474	5.4296	4.5943	5.7302	-0.7377	6.062	-5.6287	1.4247	5.5116	2.0532	1.292	5.0237	14.9305	-11.3823
-7.03	-3.033	-6.7763	-3.595	-0.1054	-2.2718	-1.3935	2.666	2.4162	2.4201	5.4765	4.6412	5.7614	-0.7885	6.023	-5.7341	1.5379	5.4218	2.143	1.2374	5.0822	14.954	-11.5463
-7.1432	-3.0134	-6.87	-3.8058	-0.0703	-2.2952	-1.4638	2.7441	2.4865	2.4513	5.4921	4.7075	5.7731	-0.8236	5.9644	-5.8161	1.6082	5.3164	2.2484	1.2101	5.1018	14.9696	-11.7102
-7.2369	-3.0447	-6.9871	-4.04	-0.0312	-2.303	-1.5575	2.7792	2.5411	2.4474	5.5467	4.7583	5.82	-0.8744	5.9176	-5.9137	1.7097	5.2228	2.3381	1.1671	5.1291	14.9969	-11.8508
-7.315	-3.0564	-7.0222	-4.2157	0.0351	-2.2991	-1.6199	2.8846	2.627	2.5216	5.617	4.8363	5.8629	-0.8978	5.8356	-5.9722	1.7643	5.1525	2.4162	1.1671	5.1603	15.0633	-11.9757
-7.3853	-3.033	-7.0691	-4.407	0.1288	-2.2796	-1.6668	2.9822	2.7168	2.545	5.6951	4.9495	5.941	-0.9251	5.7692	-6.0034	1.8346	5.094	2.5021	1.1437	5.2189	15.1179	-12.0733
-7.4438	-3.0095	-7.0925	-4.5865	0.2264	-2.2523	-1.7214	3.0798	2.83	2.6036	5.7927	5.0471	5.98	-0.968	5.6873	-6.0698	1.8932	5.0042	2.5919	1.1086	5.2696	15.1765	-12.163
-7.4906	-2.9354	-7.1003	-4.7114	0.3513	-2.1781	-1.7526	3.2086	2.9627	2.6543	5.8785	5.1759	6.062	-0.9954	5.6209	-6.0425	1.9439	4.93	2.6816	1.1125	5.3282	15.2038	-12.2801
-7.4985	-2.8339	-7.0496	-4.8402	0.4879	-2.0922	-1.7292	3.3608	3.1227	2.7597	6.0191	5.3477	6.183	-0.9993	5.5585	-6.0503	1.9556	4.9222	2.7909	1.093	5.4218	15.2233	-12.3387
-7.475	-2.7285	-6.9832	-4.891	0.6987	-1.9439	-1.6902	3.5404	3.3179	2.8807	6.1674	5.5428	6.304	-0.9798	5.5155	-6.0308	1.9361	4.9144	2.8885	1.1008	5.4882	15.2272	-12.4011
-7.4126	-2.5216	-6.8427	-4.8676	0.9251	-1.7721	-1.5731	3.7824	3.5599	2.9978	6.3548	5.7614	6.468	-0.9641	5.4804	-6.0308	1.9127	4.9222	3.0212	1.1125	5.6131	15.2038	-12.4714
-7.354	-2.3694	-6.6826	-4.8597	1.1827	-1.6004	-1.4833	3.9971	3.8058	3.1618	6.5655	5.9956	6.6397	-0.9602	5.4453	-6.0308	1.901	4.9339	3.1735	1.1749	5.7419	15.1687	-12.487
-7.2291	-2.143	-6.4601	-4.7426	1.4443	-1.3233	-1.3115	4.2508	4.0752	3.353	6.7919	6.2533	6.8388	-0.9602	5.4453	-6.0191	1.8814	5.0081	3.3062	1.2296	5.8707	15.1101	-12.5104
-7.0691	-1.8736	-6.1947	-4.5553	1.7487	-1.0227	-1.1008	4.567	4.4148	3.5716	7.0379	6.546	7.0535	-0.9212	5.4375	-5.941	1.8424	5.1096	3.5131	1.3076	6.0073	15.0555	-12.5182
-6.8427	-1.5575	-5.902	-4.3601	2.1235	-0.7182	-0.8392	4.8519	4.77	3.8488	7.3189	6.8661	7.3306	-0.9212	5.4414	-5.902	1.8034	5.2228	3.6887	1.3935	6.1635	14.9891	-12.4948
-6.5968	-1.2257	-5.5936	-4.0674	2.4865	-0.3864	-0.6089	5.2189	5.1291	4.122	7.6117	7.1901	7.5843	-0.9056	5.4296	-5.8512	1.7565	5.3594	3.9034	1.5262	6.3509	14.9345	-12.53
-6.3235	-0.89	-5.1954	-3.7746	2.8885	0.0195	-0.324	5.5467	5.5077	4.4226	7.9044	7.5453	7.842	-0.8822	5.4687	-5.8083	1.7175	5.5077	4.1337	1.6199	6.5343	14.8915	-12.5065
-6.0191	-0.5504	-4.8246	-3.4311	3.2711	0.4021	-0.0117	5.9332	5.902	4.7075	8.2128	7.9005	8.1269	-0.8431	5.5507	-5.7068	1.6746	5.699	4.3562	1.78	6.7373	14.8642	-12.5182
-5.6951	-0.1678	-4.4187	-3.0798	3.7121	0.8158	0.3045	6.3391	6.3352	5.0315	8.5602	8.2596	8.4353	-0.8392	5.6248	-5.6365	1.6316	5.8551	4.606	1.901	6.9325	14.8525	-12.5417
-5.3633	0.242	-3.9971	-2.6934	4.1259	1.2842	0.6753	6.7022	6.7217	5.3711	8.8334	8.5992	8.6968	-0.7846	5.7341	-5.5663	1.5848	6.0113	4.8363	2.0103	7.1237	14.8798	-12.5768
-5.0393	0.5777	-3.6185	-2.3225	4.485	1.6941	1.0071	7.0691	7.155	5.6873	9.1691	8.9622	9.0052	-0.7768	5.8512	-5.5507	1.5223	6.2181	5.0744	2.1508	7.3345	14.9423	-12.5924
-4.7348	0.929	-3.2125	-1.94	4.8988	2.1235	1.3311	7.4555	7.557	6.0347	9.5048	9.294	9.2901	-0.7573	5.98	-5.496	1.4872	6.3352	5.3008	2.264	7.5024	14.993	-12.6314
-4.3952	1.3037	-2.7831	-1.534	5.3243	2.5606	1.737	7.8693	7.9864	6.3977	9.8327	9.6805	9.6102	-0.7221	6.1557	-5.3867	1.4169	6.5772	5.5311	2.4201	7.7483	15.0555	-12.6666
-4.0908	1.6355	-2.424	-1.1827	5.7068	3.0056	2.0922	8.205	8.4158	6.7295	10.1528	10.0552	9.9225	-0.7104	6.2767	-5.3243	1.4091	6.749	5.6912	2.5372	7.9395	15.153	-12.7017
-3.798	1.9946	-2.0415	-0.8353	6.0893	3.3921	2.4591	8.5875	8.849	7.1003	10.4807	10.4104	10.2582	-0.7026	6.4172	-5.2072	1.3779	6.952	5.9215	2.6777	8.1464	15.2194	-12.7524
-3.5872	2.2718	-1.7214	-0.5035	6.4172	3.8175	2.8183	8.9349	9.2277	7.4243	10.8437	10.7968	10.5626	-0.7143	6.5226	-5.0393	1.3857	7.155	6.1127	2.7987	8.3455	15.2897	-12.7681
-3.3296	2.6153	-1.3662	-0.203	6.7607	4.2196	3.1774	9.3018	9.6687	7.7951	11.1755	11.1481	10.9139	-0.6909	6.628	-4.8754	1.3701	7.3696	6.2845	2.9549	8.5329	15.3755	-12.8149
-3.1032	2.869	-1.093	0.0664	7.0457	4.567	3.4545	9.6141	10.0435	8.123	11.4409	11.4838	11.2106	-0.7182	6.7256	-4.6607	1.4052	7.5648	6.4016	3.0915	8.6968	15.4497	-12.8813
-2.8885	3.1032	-0.769	0.3123	7.3696	4.9573	3.7707	9.9732	10.4572	8.4587	11.7961	11.8664	11.5658	-0.7299	6.8349	-4.4109	1.4326	7.838	6.6007	3.2359	8.9193	15.5239	-12.9242
-2.7285	3.3179	-0.5621	0.5231	7.6585	5.3164	4.0791	10.2972	10.8203	8.8256	12.1123	12.2255	11.9171	-0.7768	6.8778	-4.1845	1.5028	8.0488	6.7451	3.4116	9.0989	15.6136	-12.9827
-2.5997	3.5404	-0.3045	0.6987	7.9005	5.6326	4.3133	10.5821	11.1833	9.134	12.3894	12.5573	12.2177	-0.8041	6.952	-3.9815	1.5809	8.2479	6.8544	3.5443	9.2706	15.7229	-13.0413
-2.4982	3.6887	-0.1444	0.8666	8.1386	5.941	4.5709	10.8866	11.5424	9.4267	12.6822	12.9164	12.5534	-0.8431	6.9988	-3.759	1.6785	8.4782	6.9793	3.7043	9.4658	15.84	-13.092
-2.4162	3.8605	0.0507	0.9993	8.3728	6.2298	4.8012	11.1481	11.8703	9.7273	12.9749	13.2365	12.85	-0.929	7.0457	-3.6028	1.7878	8.6578	7.1042	3.8331	9.6219	15.9845	-13.1428
-2.3147	3.9932	0.242	1.1827	8.5758	6.4836	5.0471	11.3941	12.1786	10.0396	13.2482	13.5331	13.1389	-0.9602	7.1042	-3.4506	1.8893	8.8373	7.2955	3.9776	9.7819	16.1094	-13.217
-2.2757	4.0908	0.3708	1.3037	8.7671	6.7724	5.2735	11.6517	12.5182	10.3128	13.498	13.8532	13.4433	-1.0305	7.1628	-3.3647	2.0024	9.013	7.4087	4.122	9.9732	16.2655	-13.2716
-2.2015	4.1727	0.4996	1.4052	8.9271	7.0027	5.4843	11.8742	12.7993	10.5861	13.7673	14.1303	13.7244	-1.0891	7.2408	-3.2593	2.1274	9.1418	7.518	4.2508	10.1372	16.3553	-13.3067
-2.1703	4.2586	0.6206	1.5028	9.0754	7.2447	5.6795	12.1084	13.0998	10.8242	13.9898	14.4114	13.9547	-1.1398	7.3111	-3.1618	2.2288	9.2862	7.6624	4.3952	10.2621	16.4373	-13.3028
-2.1196	4.325	0.7221	1.5965	9.2199	7.4516	5.8629	12.2918	13.3458	11.0388	14.1772	14.6534	14.1694	-1.1788	7.3774	-3.0837	2.3381	9.3526	7.7522	4.4889	10.3987	16.4919	-13.3301
-2.0922	4.3718	0.8197	1.6941	9.3174	7.6429	6.0503	12.4675	13.5917	11.2848	14.3802	14.911	14.4114	-1.2257	7.4399	-3.0642	2.4279	9.458	7.8966	4.5904	10.5236	16.5505	-13.3262
-2.0337	4.4148	0.9251	1.7682	9.4463	7.8576	6.2337	12.6353	13.8415	11.5034	14.5558	15.1452	14.6066	-1.2686	7.4945	-3.0447	2.5138	9.5282	7.9825	4.6724	10.6173	16.5739	-13.3106
-1.9985	4.4499	1.0227	1.9127	9.5829	8.0801	6.4484	12.7954	14.0835	11.7298	14.7471	15.3755	14.8369	-1.3115	7.5336	-3.033	2.5919	9.6024	8.084	4.7622	10.7578	16.5817	-13.295
-1.9595	4.4616	1.1242	2.0298	9.6687	8.2557	6.6085	12.9281	14.3177	11.921	14.9423	15.6175	15.0437	-1.3506	7.5414	-3.0525	2.6699	9.6844	8.1816	4.8402	10.8554	16.609	-13.2755
-1.9595	4.5084	1.1905	2.143	9.7819	8.4431	6.8115	13.0998	14.5363	12.1552	15.0906	15.8166	15.2662	-1.3935	7.4906	-3.1579	2.7402	9.7507	8.2557	4.9261	10.9491	16.6285	-13.2521
-1.9361	4.5319	1.2803	2.2484	9.86	8.6148	6.9793	13.2248	14.7549	12.3621	15.2545	16.086	15.4809	-1.4326	7.4204	-3.2867	2.8378	9.8171	8.326	4.9847	11.0779	16.6598	-13.2443
-1.8619	4.5748	1.413	2.385	9.9693	8.8178	7.1315	13.377	14.9852	12.5768	15.4068	16.3045	15.6722	-1.4716	7.3306	-3.3843	2.9041	9.8639	8.4353	5.0471	11.1911	16.6793	-13.2209
-1.8268	4.6412	1.5145	2.4709	10.0825	8.9974	7.276	13.5214	15.1999	12.7837	15.5512	16.5114	15.8557	-1.5028	7.2018	-3.5326	2.9627	9.9303	8.5251	5.1096	11.3043	16.7222	-13.2248
-1.7917	4.6802	1.616	2.5528	10.1996	9.1808	7.4438	13.6854	15.4146	12.9671	15.7073	16.7222	16.0703	-1.5379	7.0613	-3.7239	3.0212	9.9888	8.65	5.1486	11.4058	16.773	-13.2248
-1.7292	4.7387	1.7565	2.6153	10.2894	9.3604	7.5453	13.8025	15.6175	13.1701	15.8205	16.9213	16.246	-1.5575	6.8739	-3.9034	3.0759	10.0318	8.7163	5.1876	11.4955	16.8315	-13.2326
-1.6746	4.8129	1.8385	2.6855	10.4065	9.5204	7.6819	13.9313	15.801	13.3536	15.9298	17.1165	16.406	-1.5692	6.6787	-4.1337	3.1149	10.0357	8.81	5.215	11.5892	16.8901	-13.2287
-1.5926	4.8832	1.94	2.7168	10.5041	9.6766	7.7639	14.0484	16.004	13.5292	16.0469	17.3272	16.5661	-1.5692	6.4601	-4.3523	3.1149	10.0981	8.8686	5.2345	11.6907	16.9798	-13.2443
-1.4989	4.9768	2.0844	2.7363	10.6368	9.8873	7.8771	14.1889	16.2031	13.7049	16.1874	17.5107	16.7183	-1.5536	6.2298	-4.567	3.0915	10.1215	8.97	5.2891	11.761	17.0813	-13.2443
-1.4443	5.0861	2.2093	2.8066	10.7734	10.063	7.9825	14.3255	16.3748	13.8844	16.2967	17.6981	16.8627	-1.5418	6.0425	-4.8129	3.0408	10.1254	9.0481	5.2969	11.8664	17.2023	-13.2365
-1.3037	5.2384	2.3889	2.869	10.9569	10.2933	8.1035	14.4738	16.5934	14.0484	16.4451	17.8776	17.0033	-1.4989	5.8434	-5.0354	2.9471	10.1606	9.1535	5.3125	11.9561	17.339	-13.2404
-1.171	5.3438	2.545	2.9119	11.0779	10.4611	8.1816	14.6105	16.7573	14.1889	16.5583	18.0572	17.1555	-1.4599	5.6131	-5.2735	2.8963	10.1801	9.2199	5.3438	12.0264	17.4756	-13.2794
-1.0695	5.4765	2.7207	2.9744	11.2457	10.6602	8.3221	14.7783	16.9994	14.3685	16.652	18.2445	17.2726	-1.413	5.4648	-5.5077	2.8144	10.1879	9.3213	5.3516	12.1357	17.5849	-13.2599
-0.8666	5.6756	2.9198	3.072	11.4409	10.8944	8.4392	14.9188	17.2101	14.548	16.7886	18.4397	17.4287	-1.3623	5.2657	-5.6873	2.7051	10.1957	9.3799	5.3945	12.2411	17.7098	-13.256
-0.6831	5.8512	3.1227	3.1852	11.64	11.0974	8.6031	15.0789	17.4209	14.7159	16.933	18.6271	17.5771	-1.3154	5.0861	-5.8278	2.6114	10.223	9.4424	5.3906	12.3231	17.7683	-13.2482
-0.5074	6.0152	3.3491	3.2906	11.8625	11.3628	8.7475	15.274	17.6668	14.8486	17.0618	18.8418	17.7176	-1.2803	4.9183	-5.941	2.5216	10.2152	9.5243	5.4062	12.3933	17.8191	-13.2365
-0.3123	6.2181	3.5794	3.4272	12.0498	11.6244	8.8881	15.4575	17.901	15.0281	17.1789	19.0291	17.8776	-1.2413	4.7505	-6.0347	2.4279	10.2191	9.5868	5.4179	12.5065	17.8425	-13.1935
-0.1015	6.4367	3.8136	3.5755	12.2411	11.8547	9.0442	15.6293	18.147	15.1726	17.2999	19.236	17.9908	-1.1944	4.5748	-6.0425	2.3538	10.2152	9.657	5.4257	12.5651	17.8503	-13.1545
0.1366	6.6553	4.0478	3.7278	12.4597	12.0889	9.1964	15.7971	18.3734	15.3248	17.4287	19.4429	18.1352	-1.1476	4.4889	-6.023	2.2679	10.2269	9.7234	5.4414	12.6549	17.823	-13.1194
0.2889	6.8739	4.282	3.8722	12.6705	12.3348	9.3682	16.0001	18.6076	15.4926	17.5927	19.6498	18.3343	-1.1281	4.2781	-6.0347	2.2171	10.2035	9.778	5.4375	12.7446	17.8074	-13.0764
0.5309	7.1471	4.5592	4.0674	12.9008	12.6002	9.5165	16.1718	18.8613	15.641	17.7059	19.8293	18.467	-1.1125	4.1727	-5.9566	2.1898	10.2308	9.8327	5.4335	12.7837	17.7683	-13.053
0.7456	7.354	4.8129	4.2079	13.1194	12.8695	9.6531	16.367	19.0994	15.7659	17.8308	20.0167	18.5919	-1.1008	4.0752	-5.8746	2.182	10.2152	9.8991	5.4101	12.8383	17.7215	-12.9906
0.9212	7.596	5.0393	4.3952	13.3106	13.0959	9.7976	16.5114	19.3219	15.8869	17.9245	20.1845	18.6817	-1.1047	3.9971	-5.7731	2.2054	10.2191	9.9576	5.4179	12.8656	17.6903	-12.9788
1.0891	7.7795	5.3008	4.5241	13.5097	13.3458	9.9498	16.6832	19.5483	16.0001	18.0416	20.3329	18.7949	-1.1398	3.8956	-5.6951	2.2445	10.2269	10.0005	5.3984	12.9476	17.6981	-12.9554
1.2296	7.9825	5.4882	4.6607	13.6854	13.5565	10.0864	16.812	19.6966	16.0821	18.104	20.489	18.8886	-1.1515	3.8488	-5.5936	2.2679	10.2035	10.0279	5.3594	12.9593	17.7254	-12.9242
1.3896	8.1503	5.699	4.7817	13.8727	13.7751	10.1879	16.9447	19.9074	16.1757	18.1782	20.5827	18.9394	-1.1593	3.798	-5.4804	2.3108	10.184	10.0318	5.3594	12.9866	17.7722	-12.8774
1.5184	8.3455	5.902	4.9105	14.0523	13.9703	10.2972	17.0501	20.0557	16.2187	18.2523	20.692	18.994	-1.1866	3.7824	-5.3321	2.346	10.1762	10.0786	5.336	13.0023	17.8308	-12.8422
1.616	8.4938	6.0698	4.9768	14.2162	14.1538	10.3714	17.1711	20.1884	16.2694	18.2914	20.7935	19.0096	-1.2335	3.7707	-5.2032	2.424	10.1411	10.0825	5.3125	13.014	17.901	-12.7798
1.7292	8.6695	6.2533	5.1018	14.3489	14.3607	10.4768	17.2765	20.3368	16.2967	18.3265	20.8676	19.0252	-1.2725	3.7707	-5.0237	2.4943	10.1059	10.102	5.3047	12.9984	17.9791	-12.7329
1.8073	8.8139	6.3977	5.1525	14.4934	14.4778	10.5275	17.3155	20.4305	16.285	18.3382	20.8911	18.9784	-1.2998	3.8019	-4.8519	2.5802	10.0396	10.0591	5.2579	12.9554	18.0728	-12.6861
1.8893	8.9544	6.5929	5.2774	14.6456	14.6768	10.6329	17.4209	20.571	16.3045	18.3929	20.9613	19.0057	-1.3584	3.8136	-4.6138	2.6582	10.0122	10.0903	5.2618	12.9788	18.1157	-12.6353
2.0024	9.1223	6.7724	5.3672	14.8291	14.8837	10.7188	17.5224	20.6608	16.3514	18.4202	21.0238	19.0096	-1.3779	3.8527	-4.3406	2.7207	9.9615	10.1137	5.2852	12.9632	18.1392	-12.5963
2.1078	9.294	6.9403	5.4335	14.9852	15.0281	10.7929	17.6005	20.7896	16.3553	18.4319	21.055	19.0057	-1.4208	3.919	-4.1025	2.8066	9.9537	10.1059	5.293	12.9554	18.1313	-12.53
2.2288	9.4658	7.1432	5.535	15.1296	15.2623	10.871	17.7176	20.9262	16.3826	18.5061	21.1136	19.0447	-1.4443	3.9854	-3.8136	2.869	9.9576	10.1489	5.3633	12.9671	18.0962	-12.5026
2.4123	9.657	7.3462	5.6482	15.3092	15.4497	10.9803	17.8425	21.0862	16.4451	18.5568	21.1994	19.0721	-1.4911	4.1142	-3.5365	2.9354	9.981	10.1918	5.3867	12.9593	18.0181	-12.4207
2.545	9.8288	7.5531	5.7653	15.5356	15.6917	11.0818	17.9713	21.2033	16.4997	18.6427	21.3048	19.1228	-1.5028	4.1845	-3.2554	2.9705	10.0357	10.2465	5.4804	13.0101	17.9479	-12.3387
2.7051	10.0318	7.7639	5.8863	15.6839	15.883	11.1755	18.0923	21.3243	16.5739	18.7286	21.3985	19.1775	-1.5184	4.2625	-3.029	3.0056	10.1059	10.2699	5.5663	13.0179	17.8464	-12.2723
2.8573	10.2269	7.9981	6.0034	15.8869	16.1055	11.2848	18.1977	21.4766	16.6598	18.7598	21.4688	19.2126	-1.5301	4.3328	-2.8339	3.0251	10.1957	10.344	5.6678	13.0335	17.7761	-12.1865
2.99	10.4221	8.2479	6.1049	16.0508	16.3085	11.3863	18.3304	21.6015	16.73	18.8418	21.5273	19.2555	-1.5262	4.4187	-2.6582	3.0369	10.266	10.3909	5.781	13.0452	17.6785	-12.1201
3.1735	10.5939	8.4587	6.2377	16.2265	16.527	11.4838	18.4358	21.7537	16.8276	18.8808	21.621	19.3258	-1.5418	4.4538	-2.5645	3.0212	10.3675	10.4299	5.8942	13.0842	17.6473	-12.0186
3.3452	10.7617	8.6539	6.3509	16.3826	16.6832	11.5307	18.5139	21.8279	16.8744	18.9042	21.6874	19.357	-1.5262	4.4928	-2.4787	3.0173	10.4611	10.4416	6.0191	13.092	17.6044	-11.9327
3.4506	10.9374	8.8412	6.4133	16.488	16.8432	11.597	18.5685	21.9177	16.9135	18.9081	21.6991	19.3336	-1.5262	4.4889	-2.4591	3.0212	10.5041	10.4455	6.0893	13.092	17.6317	-11.8469
3.5989	11.0428	9.0325	6.4953	16.6012	17.0228	11.6751	18.6349	21.9762	16.9681	18.9159	21.7225	19.3531	-1.5184	4.5045	-2.4162	2.9822	10.5548	10.4768	6.1479	13.0491	17.6668	-11.8234
3.7239	11.1872	9.2238	6.589	16.7378	17.1321	11.7337	18.6895	22.0621	17.015	18.9159	21.7342	19.3414	-1.5028	4.4655	-2.4474	2.9471	10.6017	10.4768	6.1947	13.0218	17.7488	-11.7337
3.8761	11.2848	9.376	6.6631	16.7925	17.2882	11.7493	18.7286	22.0738	17.0462	18.8769	21.7069	19.2868	-1.4599	4.4811	-2.3928	2.8924	10.6095	10.4494	6.2533	12.9788	17.8425	-11.718
3.9542	11.3667	9.5243	6.7568	16.8823	17.3897	11.8312	18.7286	22.1167	17.0852	18.8535	21.6834	19.2633	-1.4521	4.4616	-2.3538	2.8534	10.6173	10.426	6.2377	12.9398	17.9596	-11.679
4.0595	11.4331	9.657	6.8388	16.9447	17.5146	11.8976	18.7637	22.1441	17.1008	18.791	21.6444	19.2399	-1.4365	4.4382	-2.3225	2.83	10.6173	10.3792	6.2806	12.893	18.0923	-11.6556
4.1767	11.5268	9.8249	6.9793	16.972	17.5927	11.9093	18.7637	22.1401	17.1477	18.7208	21.6132	19.1775	-1.413	4.403	-2.1898	2.7714	10.5861	10.3597	6.2962	12.811	18.225	-11.6595
4.2938	11.5931	9.9576	7.0925	17.0228	17.6981	12.0108	18.7559	22.1441	17.1672	18.6583	21.5546	19.1228	-1.3857	4.4187	-2.0532	2.7324	10.5821	10.344	6.3001	12.7642	18.3343	-11.6517
4.4148	11.6322	10.0825	7.2252	17.0852	17.8035	12.0928	18.7442	22.1597	17.1945	18.6271	21.5429	19.0916	-1.3662	4.407	-1.8853	2.6816	10.5782	10.3128	6.3391	12.7095	18.4397	-11.64
4.5202	11.7063	10.1918	7.3735	17.0969	17.8698	12.1396	18.7247	22.1206	17.2023	18.5373	21.4649	19.0369	-1.3389	4.4148	-1.7253	2.6387	10.5626	10.2933	6.3743	12.6353	18.5217	-11.6517
4.6412	11.761	10.3206	7.4828	17.1126	17.9284	12.2177	18.7286	22.1128	17.257	18.4475	21.3829	18.994	-1.3115	4.4421	-1.5028	2.5802	10.5431	10.2582	6.3938	12.5378	18.5841	-11.6361
4.7192	11.8312	10.4299	7.6117	17.1126	17.9791	12.2762	18.6934	22.0738	17.2843	18.3773	21.3165	18.9472	-1.2959	4.4304	-1.3935	2.545	10.5587	10.2152	6.4367	12.4831	18.6583	-11.6244
4.8441	11.8781	10.5626	7.7483	17.1555	18.026	12.3816	18.6778	22.0699	17.3077	18.2719	21.2541	18.9042	-1.2569	4.4577	-1.1593	2.4709	10.5626	10.1879	6.4836	12.3777	18.6739	-11.6244
4.9261	11.9288	10.629	7.838	17.1672	18.0494	12.4324	18.6349	22.023	17.3429	18.2016	21.1955	18.873	-1.2335	4.4265	-1.011	2.4201	10.5626	10.145	6.5226	12.2801	18.6973	-11.5931
5.0354	11.9796	10.7344	7.9239	17.1789	18.104	12.4792	18.5958	21.9645	17.3585	18.0845	21.0784	18.8027	-1.1983	4.3757	-0.8861	2.346	10.5782	10.0669	6.5616	12.1786	18.7169	-11.6048
5.1486	12.0654	10.8281	8.0215	17.1672	18.0962	12.53	18.5178	21.9294	17.3468	17.9791	20.9925	18.7364	-1.1476	4.3328	-0.8275	2.2562	10.5704	9.9888	6.5812	12.0889	18.7559	-11.558
5.2657	12.1045	10.9296	8.0957	17.1633	18.0923	12.5378	18.4553	21.8318	17.3507	17.8113	20.8637	18.6856	-1.1008	4.2547	-0.808	2.1742	10.5548	9.9108	6.6202	11.9757	18.7715	-11.5853
5.3399	12.1279	10.9491	8.1152	17.1399	18.0572	12.5417	18.346	21.7264	17.3429	17.6668	20.7505	18.6271	-1.0539	4.2079	-0.847	2.1	10.5665	9.8249	6.6358	11.8039	18.7754	-11.5463
5.4335	12.1825	11.0193	8.1269	17.1008	18.0377	12.5143	18.2758	21.6522	17.3507	17.5732	20.6412	18.5529	-1.0227	4.0674	-0.9719	2.022	10.5743	9.7039	6.6865	11.7141	18.7832	-11.5112
5.5702	12.2177	11.0779	8.1542	17.0813	17.9908	12.5221	18.1782	21.5429	17.335	17.4053	20.5241	18.5022	-0.9993	3.9815	-1.1008	1.9439	10.5626	9.5829	6.7139	11.5814	18.7715	-11.4799
5.6951	12.2372	11.1442	8.162	17.0501	17.9557	12.5104	18.1001	21.4336	17.335	17.2648	20.368	18.4709	-0.9446	3.8761	-1.3037	1.8736	10.5665	9.4814	6.7373	11.437	18.7754	-11.4721
5.777	12.2723	11.1872	8.1816	17.0228	17.9206	12.5104	18.0064	21.336	17.3507	17.1633	20.2977	18.4475	-0.9212	3.7239	-1.5497	1.7956	10.6212	9.3331	6.7919	11.3433	18.7871	-11.4175
5.8824	12.2684	11.2145	8.1894	16.9525	17.8737	12.53	17.8971	21.2228	17.335	17.0345	20.1689	18.428	-0.8822	3.5989	-1.8034	1.7409	10.629	9.2277	6.8505	11.2301	18.7949	-11.3706
5.9488	12.2684	11.2731	8.2011	16.9057	17.8386	12.5456	17.8074	21.1331	17.3858	16.9525	20.083	18.4163	-0.8627	3.4467	-2.143	1.6746	10.6993	9.1652	6.9207	11.1247	18.8222	-11.316
6.101	12.2879	11.3238	8.2791	16.8627	17.8152	12.5963	17.7488	21.0706	17.4053	16.8783	20.0245	18.4397	-0.8236	3.3296	-2.424	1.6004	10.7422	9.052	7.0027	11.0506	18.8457	-11.2496
6.1596	12.2996	11.3628	8.3143	16.8354	17.78	12.6314	17.659	20.9808	17.4561	16.8315	19.9425	18.467	-0.7807	3.1188	-2.7636	1.5458	10.8632	8.9739	7.1081	10.992	18.9276	-11.1833
6.2572	12.3192	11.4214	8.3845	16.8003	17.7488	12.7017	17.6083	20.9379	17.5146	16.8081	19.923	18.5373	-0.7534	2.9627	-3.1227	1.4755	10.9608	8.9271	7.194	10.9842	19.0291	-11.1364
6.3118	12.3387	11.4448	8.4665	16.7417	17.7254	12.7603	17.5653	20.8481	17.5927	16.7808	19.8762	18.5841	-0.7143	2.8026	-3.4389	1.413	11.0779	8.9037	7.3111	10.9608	19.1579	-11.0584
6.3587	12.3426	11.4994	8.5251	16.6988	17.6942	12.811	17.5107	20.813	17.6278	16.7534	19.8176	18.6349	-0.6792	2.6621	-3.7239	1.3389	11.2028	8.892	7.4477	10.9725	19.2789	-11.0193
6.3743	12.327	11.4799	8.5407	16.6715	17.6512	12.9008	17.4756	20.7505	17.6903	16.7534	19.7903	18.6856	-0.648	2.5255	-3.9542	1.2725	11.2926	8.892	7.5375	10.9881	19.4546	-10.9686
6.3821	12.3348	11.5268	8.5992	16.6559	17.62	12.9398	17.4482	20.6998	17.78	16.7964	19.7825	18.7442	-0.6324	2.4084	-4.1298	1.2257	11.398	8.8959	7.6702	10.9803	19.6224	-10.9452
6.4055	12.327	11.5151	8.6422	16.6207	17.5966	13.0023	17.4092	20.6022	17.8113	16.7612	19.7005	18.7793	-0.5894	2.3303	-4.243	1.1437	11.4682	8.8803	7.76	11.0037	19.8176	-10.9256
6.3743	12.3192	11.5268	8.6617	16.5583	17.5263	13.0491	17.3663	20.528	17.8659	16.7378	19.6615	18.7793	-0.5699	2.2171	-4.3562	1.1008	11.5463	8.8998	7.838	11.0037	20.005	-10.9256
6.3665	12.284	11.519	8.689	16.5114	17.4951	13.135	17.3038	20.4461	17.9049	16.7027	19.5873	18.7871	-0.527	2.1235	-4.3952	1.0188	11.6009	8.9037	7.9044	11.0232	20.1767	-10.9296
6.3157	12.2645	11.4799	8.7046	16.4685	17.4248	13.1545	17.2609	20.3446	17.8893	16.6715	19.5092	18.7676	-0.5035	2.0181	-4.4655	0.9759	11.64	8.9115	7.9825	11.0193	20.3563	-10.9686
6.2962	12.2177	11.4565	8.7163	16.3826	17.3311	13.1623	17.175	20.2314	17.8815	16.5778	19.3765	18.6856	-0.4801	1.9556	-4.4811	0.9251	11.6322	8.892	7.9981	10.9881	20.4929	-11.0271
6.2611	12.2333	11.4292	8.7554	16.3202	17.2648	13.2052	17.0891	20.083	17.8971	16.5231	19.2516	18.6349	-0.4528	1.8736	-4.4577	0.89	11.6205	8.9037	8.0488	10.9608	20.5827	-11.0428
6.2494	12.2177	11.3941	8.7944	16.2733	17.214	13.2482	16.9994	19.9659	17.862	16.4295	19.1384	18.5451	-0.4489	1.8112	-4.3601	0.8666	11.597	8.9037	8.0879	10.9686	20.6256	-11.0857
6.2494	12.2411	11.3902	8.8334	16.2265	17.1204	13.2443	16.9252	19.7903	17.8386	16.3514	18.9706	18.4514	-0.4294	1.7839	-4.2898	0.8509	11.5541	8.9076	8.123	10.9178	20.6139	-11.1325
6.2142	12.2177	11.3472	8.8334	16.1796	17.0345	13.2872	16.8549	19.6537	17.78	16.2226	18.8027	18.3343	-0.4411	1.7643	-4.1376	0.8548	11.5112	8.9193	8.0918	10.8749	20.5476	-11.1794
6.2103	12.2567	11.316	8.9115	16.1172	16.9525	13.2872	16.7261	19.5132	17.7527	16.1133	18.6505	18.2172	-0.4333	1.7565	-4.0166	0.8509	11.4565	8.9271	8.1152	10.8398	20.4617	-11.2106
6.183	12.2411	11.2887	8.9154	16.0313	16.8588	13.3028	16.648	19.3687	17.6629	15.9532	18.4944	18.0962	-0.4411	1.7292	-3.8722	0.8548	11.4214	8.9193	8.1191	10.8085	20.3563	-11.2574
6.1713	12.2762	11.2613	8.9115	16.0196	16.773	13.2794	16.5153	19.1853	17.5927	15.8478	18.2875	17.9908	-0.4645	1.6824	-3.7707	0.8939	11.3745	8.9232	8.0996	10.7266	20.2509	-11.3043
6.1479	12.3075	11.2301	8.9466	15.9806	16.7144	13.2677	16.4685	19.0565	17.538	15.762	18.1235	17.901	-0.4723	1.6199	-3.6536	0.9212	11.3238	8.9388	8.1113	10.7227	20.0791	-11.3706
6.0971	12.3153	11.1989	8.9388	15.9493	16.6441	13.2677	16.3631	18.8925	17.4678	15.6371	18.0025	17.823	-0.4996	1.5692	-3.595	0.9719	11.3082	8.9661	8.1074	10.6836	19.9738	-11.3863
6.0503	12.3348	11.1559	8.9037	15.8986	16.5544	13.2365	16.2382	18.7598	17.3858	15.5239	17.8542	17.6903	-0.5153	1.5106	-3.556	0.9993	11.3121	9.013	8.1035	10.6602	19.8684	-11.4175
5.9995	12.3504	11.1091	8.8686	15.8674	16.4607	13.1857	16.1562	18.6193	17.3116	15.4068	17.7137	17.5927	-0.5348	1.3896	-3.556	1.05	11.2535	9.052	8.0723	10.629	19.8254	-11.4604
5.9293	12.3231	11.0506	8.7983	15.8283	16.3709	13.1623	16.0625	18.4983	17.2453	15.317	17.581	17.5068	-0.5543	1.2959	-3.5677	1.0891	11.2301	9.0754	8.0566	10.5978	19.8098	-11.5112
5.8434	12.3426	10.9608	8.7163	15.7893	16.246	13.1116	15.961	18.3577	17.1633	15.2194	17.4209	17.4248	-0.5933	1.1593	-3.6146	1.1593	11.2496	9.1106	8.0762	10.5939	19.8801	-11.5424
5.7185	12.3114	10.8827	8.6422	15.719	16.1796	13.0452	15.8713	18.2055	17.0852	15.153	17.2882	17.3311	-0.6284	0.9876	-3.677	1.2335	11.2535	9.1301	8.0762	10.5587	19.9816	-11.5502
5.6014	12.2528	10.7656	8.5329	15.6605	16.0508	13.014	15.7815	18.0962	16.9955	15.0281	17.1477	17.257	-0.6519	0.8392	-3.716	1.2803	11.2809	9.1262	8.0879	10.547	20.1533	-11.5541
5.4648	12.1865	10.6563	8.4275	15.5824	15.9064	12.9437	15.6839	17.983	16.9369	14.9657	17.0267	17.1828	-0.687	0.687	-3.7668	1.3389	11.2848	9.1496	8.1152	10.5314	20.3758	-11.5775
5.3125	12.0733	10.5314	8.2869	15.5317	15.8166	12.8774	15.6097	17.8464	16.8432	14.8876	16.9096	17.1321	-0.7221	0.5074	-3.8371	1.4052	11.3082	9.2081	8.1581	10.5431	20.6295	-11.5658
5.1525	12.003	10.4065	8.1933	15.4887	15.6644	12.8227	15.5512	17.7605	16.8003	14.8213	16.7964	17.0969	-0.7377	0.3396	-3.9034	1.4599	11.3511	9.2081	8.1933	10.5236	20.895	-11.5541
5.012	11.9015	10.2894	8.084	15.4224	15.5668	12.7642	15.5043	17.6239	16.7456	14.7861	16.7183	17.0774	-0.7729	0.1796	-3.9229	1.5184	11.4331	9.2511	8.2674	10.5548	21.1799	-11.5229
4.8519	11.8195	10.1606	7.9786	15.3716	15.4653	12.7251	15.4575	17.5536	16.7027	14.7627	16.6598	17.0774	-0.8041	0.0586	-3.8839	1.5653	11.4994	9.2901	8.3416	10.6212	21.4141	-11.4916
4.688	11.718	10.024	7.8263	15.3326	15.3209	12.6744	15.4263	17.4912	16.6402	14.7315	16.5934	17.0618	-0.8158	-0.0468	-3.8722	1.616	11.5814	9.3409	8.4197	10.6524	21.6444	-11.4448
4.5436	11.6087	9.903	7.7639	15.2936	15.2194	12.6392	15.4068	17.4287	16.6168	14.7393	16.5427	17.0579	-0.8431	-0.1093	-3.798	1.6511	11.7298	9.3838	8.5094	10.7227	21.8201	-11.4253
4.4304	11.519	9.7585	7.6897	15.274	15.1101	12.608	15.399	17.378	16.5856	14.79	16.527	17.1047	-0.8509	-0.2186	-3.7473	1.6824	11.8156	9.4384	8.607	10.7578	21.9918	-11.4058
4.2157	11.4136	9.6336	7.5843	15.2389	15.0203	12.5495	15.4068	17.3233	16.5739	14.8134	16.5231	17.1594	-0.8588	-0.2889	-3.7043	1.6941	11.9405	9.4775	8.7085	10.8593	22.0972	-11.3628
4.0595	11.2887	9.5009	7.4867	15.1921	14.9188	12.5182	15.4146	17.2492	16.5192	14.8369	16.5114	17.1906	-0.8627	-0.3435	-3.6263	1.6902	12.042	9.5204	8.771	10.9296	22.1753	-11.3472
3.8995	11.2067	9.3643	7.4243	15.196	14.8173	12.4597	15.4263	17.2297	16.488	14.8525	16.5153	17.214	-0.8431	-0.4099	-3.5599	1.6668	12.1318	9.6063	8.8998	10.9842	22.2182	-11.3355
3.7668	11.113	9.2511	7.3462	15.1491	14.6963	12.3816	15.4263	17.1906	16.4177	14.9149	16.4841	17.214	-0.8275	-0.4528	-3.517	1.6316	12.2294	9.6414	8.9427	11.0506	22.2182	-11.3433
3.6419	11.0428	9.1457	7.2916	15.1062	14.5988	12.3387	15.4263	17.1126	16.3631	14.9384	16.4685	17.2375	-0.7885	-0.4918	-3.4701	1.5692	12.3192	9.6922	8.9778	11.1247	22.1558	-11.3667
3.4818	10.8983	8.9857	7.2018	15.0789	14.5207	12.2333	15.4068	17.0306	16.2733	14.9032	16.4451	17.2062	-0.7534	-0.5504	-3.4779	1.495	12.3933	9.7117	9.013	11.1638	22.0933	-11.3745
3.3647	10.8359	8.9232	7.1589	15.0164	14.3841	12.1513	15.3638	16.9681	16.1796	14.8954	16.3826	17.1789	-0.7221	-0.5777	-3.5131	1.4091	12.3777	9.7585	9.0364	11.1794	21.984	-11.3941
3.2437	10.7227	8.7788	7.0925	14.9579	14.2787	12.042	15.3326	16.8432	16.0547	14.8642	16.3202	17.0813	-0.687	-0.6519	-3.6146	1.3545	12.405	9.7663	9.0247	11.2067	21.824	-11.4214
3.1422	10.6251	8.65	7.0261	14.8564	14.1186	11.9327	15.2623	16.7612	15.9259	14.8213	16.2343	17.0111	-0.6519	-0.7182	-3.6965	1.2803	12.3582	9.7702	8.9817	11.195	21.6249	-11.4565
3.033	10.5158	8.5211	6.9988	14.7861	13.9898	11.8312	15.1804	16.6246	15.7581	14.7237	16.1406	16.8823	-0.6128	-0.7768	-3.9073	1.2179	12.3075	9.7976	8.9193	11.1481	21.4258	-11.4838
2.9158	10.4143	8.4236	6.9676	14.6846	13.8649	11.7337	15.1218	16.5075	15.598	14.6651	16.0313	16.7573	-0.5894	-0.8588	-4.1688	1.171	12.2255	9.778	8.849	11.1169	21.2072	-11.5073
2.869	10.3479	8.3689	6.9403	14.6105	13.7556	11.6478	15.0516	16.3904	15.4692	14.5753	15.9376	16.6324	-0.5777	-0.9212	-4.4538	1.132	12.1786	9.7937	8.7866	11.0896	20.973	-11.5307
2.8222	10.2386	8.2752	6.9403	14.509	13.6385	11.5502	14.9423	16.2811	15.2975	14.4973	15.8205	16.488	-0.5582	-0.9719	-4.7387	1.0969	12.0889	9.7663	8.7397	11.0701	20.7466	-11.5736
2.7948	10.1723	8.1933	6.9129	14.4426	13.5409	11.4838	14.8759	16.1523	15.1648	14.3919	15.7347	16.367	-0.5465	-1.05	-5.09	1.0695	12.0459	9.7312	8.6812	11.0076	20.528	-11.5931
2.7402	10.1137	8.1113	6.8817	14.3372	13.4121	11.4136	14.8017	16.004	15.0125	14.3177	15.6254	16.2109	-0.5621	-1.171	-5.4648	1.0773	11.9522	9.6961	8.5602	10.9413	20.3251	-11.5892
2.7285	10.0786	8.0488	6.9012	14.2553	13.3145	11.3472	14.6963	15.8908	14.872	14.2084	15.5043	16.0821	-0.5504	-1.2452	-5.8551	1.0773	11.8469	9.657	8.4977	10.871	20.1143	-11.597
2.6973	10.0083	7.9786	6.8661	14.1538	13.213	11.2731	14.6066	15.7854	14.7588	14.0991	15.3872	15.9337	-0.5582	-1.3467	-6.1947	1.0812	11.7844	9.5595	8.4119	10.8007	19.8957	-11.5931
2.6777	9.9693	7.9083	6.8505	14.0718	13.1116	11.2379	14.4817	15.6722	14.6573	13.9703	15.2936	15.7932	-0.5465	-1.4365	-6.5187	1.0773	11.6673	9.5087	8.3533	10.7032	19.6771	-11.5853
2.6621	9.9342	7.8146	6.8466	13.9898	13.0335	11.1599	14.3997	15.559	14.5285	13.8493	15.1804	15.6332	-0.527	-1.5379	-6.7997	1.0383	11.5931	9.4111	8.2947	10.6524	19.4897	-11.5424
2.6309	9.8834	7.7912	6.7685	13.9	12.932	11.1052	14.2709	15.4419	14.4192	13.74	15.0516	15.4809	-0.5348	-1.6433	-7.1081	1.0305	11.5151	9.3174	8.1933	10.5431	19.3102	-11.519
2.5919	9.8366	7.7092	6.7295	13.7908	12.8305	11.0349	14.1655	15.3092	14.2787	13.58	14.9149	15.3248	-0.4996	-1.7643	-7.4399	0.9993	11.4058	9.1769	8.1308	10.3792	19.1853	-11.4721
2.5099	9.7819	7.6156	6.6553	13.6541	12.7446	10.953	14.0054	15.1765	14.146	13.4082	14.7783	15.1218	-0.5309	-1.9127	-7.8029	1.011	11.2652	9.0676	8.0098	10.2582	19.0682	-11.4253
2.424	9.7	7.5102	6.5616	13.4824	12.6275	10.8749	13.8259	15.0008	13.9937	13.2052	14.6066	14.8954	-0.5113	-2.0844	-8.0996	0.9837	11.0857	8.9232	7.881	10.1137	19.0135	-11.3941
2.342	9.5868	7.3931	6.4914	13.3497	12.5339	10.7734	13.6541	14.8525	13.8454	13.0179	14.4075	14.6807	-0.5035	-2.3069	-8.4509	0.9798	10.9296	8.7554	7.76	9.9147	19.0018	-11.3706
2.2328	9.4853	7.2994	6.3587	13.135	12.3933	10.6329	13.4316	14.6768	13.6541	12.7524	14.1928	14.4036	-0.5074	-2.5021	-8.7514	0.9837	10.7032	8.607	7.6273	9.7156	19.0408	-11.3316
2.0844	9.3487	7.1706	6.2455	12.9671	12.2684	10.5002	13.2365	14.4895	13.459	12.487	13.982	14.1343	-0.5231	-2.7168	-9.0403	0.9915	10.4689	8.4353	7.4555	9.5087	19.1111	-11.2848
1.9517	9.2277	7.0183	6.0737	12.7563	12.1357	10.3753	12.9788	14.3294	13.2911	12.2255	13.7283	13.8571	-0.5231	-2.9432	-9.2706	1.0032	10.223	8.2752	7.3267	9.3057	19.197	-11.2848
1.8424	9.0637	6.9168	5.902	12.5612	12.0108	10.223	12.7485	14.1421	13.1038	11.9327	13.4941	13.5683	-0.5309	-3.1422	-9.4463	1.0266	9.9381	8.0879	7.1589	9.0364	19.2985	-11.2613
1.7331	8.9466	6.8036	5.7185	12.4011	11.9171	10.0591	12.5221	13.9586	12.8852	11.6751	13.2794	13.2677	-0.5309	-3.3413	-9.5516	1.05	9.6531	7.9512	6.991	8.7905	19.3921	-11.2496
1.6004	8.81	6.6787	5.5233	12.163	11.8195	9.8912	12.3075	13.822	12.7017	11.3784	13.053	12.9788	-0.5621	-3.5521	-9.5829	1.0969	9.3643	7.799	6.8232	8.5719	19.5171	-11.2731
1.4911	8.7007	6.5929	5.3594	12.0069	11.761	9.7585	12.0733	13.6736	12.5378	11.1169	12.8461	12.7368	-0.5699	-3.677	-9.497	1.1125	9.0949	7.6585	6.6748	8.326	19.599	-11.2731
1.4326	8.6109	6.5499	5.1876	11.8625	11.6985	9.6336	11.8547	13.5409	12.3816	10.8866	12.6549	12.4831	-0.5855	-3.7278	-9.3135	1.1281	8.8061	7.5492	6.5265	8.1074	19.6615	-11.2965
1.3389	8.5251	6.4719	4.9612	11.7415	11.6595	9.497	11.6907	13.4199	12.1982	10.6368	12.4597	12.2138	-0.5933	-3.7512	-9.0637	1.1593	8.5055	7.475	6.3548	7.9044	19.6966	-11.3121
1.292	8.5016	6.4992	4.8558	11.6322	11.64	9.3916	11.5424	13.3575	12.085	10.4221	12.3192	11.9952	-0.605	-3.6458	-8.6617	1.1788	8.1816	7.4009	6.2064	7.7209	19.6966	-11.3433
1.2647	8.4665	6.4758	4.7114	11.5346	11.6673	9.3096	11.437	13.3106	11.9757	10.2269	12.1591	11.8078	-0.6245	-3.5911	-8.2674	1.214	7.8771	7.354	6.0191	7.5258	19.7122	-11.3902
1.253	8.447	6.4719	4.5709	11.4916	11.6751	9.2238	11.3121	13.2521	11.8429	10.0825	12.0459	11.5931	-0.6441	-3.4233	-7.8068	1.2491	7.596	7.3345	5.8317	7.3892	19.7278	-11.4292
1.1671	8.4197	6.4601	4.4148	11.4097	11.6946	9.0989	11.1833	13.2091	11.7454	9.86	11.921	11.398	-0.6831	-3.3023	-7.3814	1.3428	7.315	7.2955	5.6287	7.2486	19.7747	-11.4487
1.1554	8.4158	6.4875	4.2938	11.3823	11.7063	9.0013	11.113	13.1623	11.6048	9.6922	11.7766	11.1833	-0.7221	-3.1422	-6.9247	1.4208	6.9871	7.2994	5.414	7.073	19.8606	-11.4682
1.1125	8.4079	6.4953	4.1688	11.355	11.7454	8.9271	11.0232	13.1116	11.5073	9.5438	11.6478	10.9725	-0.769	-2.9783	-6.4992	1.5145	6.6826	7.3111	5.1603	6.991	19.9699	-11.5346
1.0383	8.3884	6.468	4.0088	11.3277	11.7298	8.7983	10.9139	13.0608	11.3628	9.3682	11.5112	10.7461	-0.8353	-2.8144	-6.0893	1.6355	6.3352	7.3111	4.9222	6.8427	20.1182	-11.5892
1.0266	8.4236	6.5148	3.8683	11.3004	11.7883	8.6773	10.8671	13.0491	11.2379	9.2003	11.3667	10.5353	-0.8744	-2.6231	-5.699	1.737	6.0386	7.3384	4.6919	6.7256	20.2548	-11.6634
0.9719	8.3962	6.507	3.7473	11.2926	11.7961	8.5797	10.7656	12.9554	11.074	9.0208	11.2067	10.2699	-0.9602	-2.4904	-5.3516	1.901	5.6678	7.3228	4.4343	6.6007	20.3992	-11.7415
0.9524	8.3962	6.5577	3.6614	11.2809	11.8351	8.5055	10.711	12.9359	10.9608	8.8451	11.0818	10.024	-1.0305	-2.3694	-5.012	2.0181	5.3516	7.3735	4.2352	6.507	20.5007	-11.8039
0.9212	8.3728	6.5499	3.5794	11.2106	11.8664	8.3845	10.5861	12.8344	10.7929	8.65	10.8827	9.7624	-1.1008	-2.2288	-4.7309	2.1859	4.9847	7.3696	3.9854	6.3899	20.5944	-11.8586
0.8822	8.326	6.5382	3.4857	11.1989	11.8469	8.2908	10.4963	12.7642	10.6017	8.4353	10.6953	9.4775	-1.2062	-2.1235	-4.4499	2.3538	4.6255	7.3853	3.7434	6.222	20.6529	-11.9561
0.89	8.2908	6.5616	3.4389	11.1169	11.8742	8.2206	10.3792	12.6783	10.4338	8.2752	10.5275	9.1691	-1.2686	-2.0415	-4.1806	2.4943	4.2938	7.397	3.5014	6.1127	20.6998	-12.003
0.9095	8.2987	6.6007	3.4116	11.0935	11.8937	8.1191	10.2699	12.5885	10.266	8.0488	10.3089	8.9076	-1.3272	-1.9673	-3.9268	2.6348	3.9034	7.397	3.275	5.9488	20.7154	-12.0381
0.929	8.2713	6.6397	3.4077	11.0428	11.8859	8.0684	10.1567	12.5104	10.1333	7.8615	10.1528	8.6461	-1.4013	-1.9283	-3.7356	2.7597	3.5755	7.4204	3.0408	5.8356	20.7349	-12.0889
0.9641	8.2167	6.6358	3.3335	10.9842	11.9015	8.0098	10.0786	12.4207	9.981	7.678	9.9537	8.3806	-1.4599	-1.9361	-3.5638	2.8651	3.2633	7.3774	2.8495	5.6912	20.7349	-12.1201
0.9915	8.1855	6.6826	3.3218	10.8983	11.921	7.9473	9.9693	12.3153	9.8327	7.4945	9.7663	8.1542	-1.495	-1.94	-3.4155	2.9471	2.9315	7.3814	2.6621	5.5975	20.7232	-12.1708
1.0383	8.1464	6.7178	3.2867	10.871	11.9249	7.9278	9.8795	12.2528	9.739	7.3774	9.6297	7.92	-1.5418	-1.9595	-3.3608	3.0134	2.666	7.3774	2.4982	5.496	20.6959	-12.1982
1.0969	8.1308	6.7607	3.2711	10.8164	11.9561	7.9317	9.8249	12.2138	9.6609	7.276	9.5438	7.76	-1.5418	-2.0142	-3.314	3.0369	2.4318	7.3462	2.3616	5.4257	20.6686	-12.2255
1.171	8.0918	6.8349	3.2398	10.8046	11.9679	7.9083	9.8132	12.1904	9.6102	7.1745	9.4619	7.6234	-1.5536	-2.0766	-3.3296	3.0525	2.2093	7.3735	2.2679	5.3672	20.6725	-12.284
1.253	8.084	6.8856	3.2828	10.7578	12.0381	7.9317	9.7585	12.1318	9.6024	7.112	9.3799	7.5258	-1.5458	-2.1313	-3.3725	3.0447	2.0259	7.3423	2.2093	5.293	20.6569	-12.3387
1.3311	8.0449	6.9403	3.3023	10.7656	12.0654	8.0137	9.7663	12.1357	9.5673	7.0847	9.337	7.4087	-1.5262	-2.182	-3.4896	3.0095	1.9127	7.354	2.1508	5.293	20.6725	-12.3933
1.3818	8.0254	7.0261	3.3296	10.7266	12.0811	8.0566	9.7546	12.1318	9.5868	7.0496	9.2979	7.3267	-1.5184	-2.303	-3.6731	2.9861	1.7604	7.3423	2.1274	5.2657	20.6959	-12.4597
1.4794	7.9942	7.0652	3.3725	10.7149	12.1162	8.1347	9.7468	12.0967	9.5985	7.0339	9.2745	7.2877	-1.5067	-2.3811	-3.9034	2.9705	1.5926	7.3267	2.0688	5.2735	20.7115	-12.5417
1.5418	7.9395	7.1042	3.4155	10.6797	12.1318	8.2011	9.7468	12.0811	9.5946	7.0105	9.2277	7.2057	-1.4911	-2.4396	-4.1688	2.9158	1.495	7.3228	2.0454	5.2423	20.7544	-12.6002
1.6043	7.9083	7.1393	3.4936	10.6797	12.1435	8.2869	9.7546	12.0733	9.6414	6.9832	9.1925	7.1784	-1.4638	-2.5216	-4.5358	2.8846	1.374	7.2877	2.0766	5.2501	20.7974	-12.6549
1.6707	7.8888	7.1979	3.5794	10.6914	12.1591	8.3572	9.7663	12.0693	9.6844	6.9871	9.1886	7.112	-1.4521	-2.5763	-4.9105	2.8456	1.2647	7.3072	2.0844	5.254	20.8286	-12.69
1.7292	7.8459	7.233	3.6536	10.7032	12.1591	8.4587	9.7702	12.0615	9.7	6.9949	9.1652	7.0496	-1.4286	-2.627	-5.3086	2.7909	1.1632	7.2838	2.1039	5.2189	20.8872	-12.7173
1.7917	7.8146	7.2369	3.72	10.6914	12.163	8.5211	9.7819	12.0381	9.7351	6.9754	9.1418	7.0066	-1.4013	-2.6465	-5.699	2.7714	1.05	7.2564	2.1469	5.2111	20.9106	-12.7603
1.8463	7.7756	7.2096	3.8175	10.6797	12.1591	8.6226	9.8093	12.0186	9.7429	6.9754	9.1184	6.9793	-1.3857	-2.6426	-6.0659	2.7324	0.9837	7.2291	2.1781	5.2032	20.9184	-12.7329
1.9205	7.7912	7.2642	3.9151	10.7188	12.1786	8.7202	9.8678	12.0303	9.778	7.0144	9.1067	6.9715	-1.3662	-2.588	-6.3704	2.666	0.8783	7.2564	2.2367	5.2462	20.9067	-12.7056
1.9751	7.7639	7.2916	4.0127	10.75	12.206	8.8061	9.9225	12.0381	9.8015	7.0379	9.1028	6.9442	-1.3272	-2.5177	-6.6436	2.6075	0.8392	7.2369	2.3342	5.254	20.8715	-12.6431
2.0532	7.7756	7.3189	4.1298	10.789	12.245	8.9037	9.9732	12.0459	9.8639	7.0847	9.1106	6.9637	-1.2881	-2.4279	-6.87	2.5489	0.7456	7.2564	2.3889	5.2735	20.8208	-12.6002
2.1625	7.8341	7.3735	4.2391	10.8671	12.284	8.9857	10.0864	12.0967	9.9147	7.151	9.1574	6.9832	-1.253	-2.2874	-6.9676	2.4826	0.7221	7.2838	2.4982	5.3438	20.7115	-12.5143
2.2523	7.92	7.4594	4.3601	10.9803	12.3621	9.1652	10.1996	12.163	10.0083	7.2682	9.2355	7.0339	-1.2179	-2.1313	-7.0222	2.4045	0.7065	7.3345	2.5684	5.4101	20.6295	-12.4324
2.385	7.9903	7.4985	4.4967	11.0701	12.4128	9.2667	10.3323	12.2372	10.0786	7.3814	9.2979	7.1081	-1.2062	-2.0024	-7.0183	2.3733	0.6831	7.4048	2.627	5.5116	20.5397	-12.3699
2.4865	8.0488	7.5921	4.649	11.2106	12.526	9.3643	10.4885	12.3348	10.1996	7.5414	9.3838	7.2057	-1.171	-1.8463	-6.909	2.3186	0.6987	7.436	2.6973	5.6092	20.4265	-12.2762
2.6075	8.1933	7.6936	4.8012	11.355	12.608	9.5165	10.6329	12.4324	10.305	7.6975	9.4931	7.2799	-1.1671	-1.6941	-6.749	2.2991	0.6792	7.5024	2.7636	5.7107	20.329	-12.2021
2.7207	8.3065	7.7795	4.969	11.4994	12.7329	9.6687	10.7929	12.5221	10.387	7.838	9.5868	7.3618	-1.1515	-1.5418	-6.4953	2.2757	0.7338	7.557	2.7987	5.8161	20.247	-12.1318
2.8105	8.404	7.881	5.0861	11.6283	12.811	9.7663	10.9569	12.6627	10.4533	7.9864	9.7195	7.436	-1.171	-1.3818	-6.1986	2.2991	0.6987	7.6156	2.83	5.8981	20.165	-12.0342
2.9119	8.5211	7.9395	5.2267	11.7805	12.932	9.9186	11.0974	12.7681	10.5353	8.1347	9.821	7.5102	-1.1944	-1.2179	-5.82	2.3264	0.687	7.6507	2.8183	5.9878	20.0987	-11.9679
3.072	8.6148	8.0566	5.3711	11.9405	13.0218	10.0122	11.2457	12.8735	10.6368	8.283	9.9303	7.5843	-1.1905	-1.0266	-5.414	2.3499	0.6714	7.7209	2.8729	6.0737	20.0284	-11.8859
3.1735	8.7397	8.1464	5.5155	12.085	13.0764	10.102	11.3745	12.9593	10.6524	8.3728	10.0122	7.5804	-1.1983	-0.8197	-4.9495	2.3772	0.6245	7.76	2.8573	6.1127	19.9425	-11.8039
3.3335	8.8803	8.2635	5.656	12.2255	13.2209	10.2543	11.5151	13.0374	10.7266	8.4704	10.0435	7.6077	-1.2257	-0.6402	-4.4577	2.4006	0.5933	7.842	2.8417	6.1674	19.8567	-11.7376
3.4467	8.9857	8.3533	5.7927	12.3855	13.295	10.344	11.6478	13.0959	10.75	8.5875	10.0942	7.6351	-1.2413	-0.4411	-3.9463	2.4318	0.5074	7.9239	2.8378	6.1986	19.7395	-11.6634
3.5911	9.1106	8.4665	5.9449	12.487	13.377	10.4494	11.7454	13.1545	10.8085	8.6422	10.1176	7.6273	-1.2491	-0.2342	-3.4311	2.4513	0.4216	7.9825	2.8183	6.2259	19.6303	-11.5853
3.7356	9.2433	8.5758	6.101	12.6275	13.5058	10.5626	11.8156	13.2326	10.8398	8.6851	10.1684	7.596	-1.2491	-0.0234	-2.9041	2.4709	0.3825	8.0371	2.8026	6.2337	19.4858	-11.4994
3.8839	9.3916	8.6929	6.2416	12.772	13.5644	10.6797	11.921	13.2755	10.8671	8.7319	10.1333	7.5843	-1.2686	0.16	-2.4045	2.4865	0.281	8.1347	2.7597	6.2416	19.3375	-11.4877
4.0244	9.4931	8.8022	6.3938	12.8891	13.658	10.7929	11.9718	13.338	10.9061	8.7475	10.1606	7.5804	-1.2764	0.2732	-1.9712	2.506	0.2498	8.2284	2.7207	6.2416	19.2009	-11.4292
4.1884	9.6375	8.9388	6.5421	12.9866	13.7595	10.9217	12.0576	13.338	10.9569	8.7632	10.1411	7.5609	-1.2686	0.3864	-1.5458	2.4943	0.2069	8.3143	2.6582	6.2494	19.0565	-11.3472
4.3523	9.7624	9.0247	6.7256	13.0959	13.8571	11.074	12.1279	13.3926	11.0115	8.7944	10.1606	7.5843	-1.253	0.4918	-1.1632	2.4787	0.2069	8.3884	2.6348	6.2416	18.9042	-11.2926
4.5006	9.8873	9.1496	6.8739	13.1779	13.9469	11.195	12.1747	13.4316	11.0701	8.7905	10.1411	7.5882	-1.2374	0.5777	-0.8236	2.4631	0.2264	8.4509	2.588	6.2298	18.7169	-11.2262
4.6451	9.9693	9.2784	7.0027	13.256	14.0015	11.3082	12.2021	13.4433	11.1247	8.7866	10.1254	7.6077	-1.2413	0.6402	-0.5621	2.4435	0.2186	8.4704	2.5333	6.1947	18.588	-11.1481
4.8051	10.0981	9.3916	7.1901	13.3536	14.1147	11.4799	12.2606	13.498	11.195	8.7671	10.1215	7.6702	-1.2062	0.6987	-0.2654	2.3772	0.2615	8.5329	2.545	6.183	18.4397	-11.1208
4.9534	10.1606	9.4463	7.3462	13.3419	14.1499	11.6009	12.2411	13.4785	11.2535	8.7124	10.0825	7.6624	-1.2023	0.7612	-0.082	2.3616	0.2967	8.5094	2.4474	6.1088	18.3109	-11.0584
5.0432	10.2386	9.5634	7.5141	13.3809	14.2123	11.7298	12.2255	13.4707	11.3043	8.6539	10.0396	7.6858	-1.1554	0.808	0.0898	2.2952	0.324	8.5055	2.4631	6.0464	18.2016	-11.0271
5.1486	10.2582	9.6297	7.6624	13.3497	14.2396	11.839	12.1669	13.4355	11.3355	8.529	9.942	7.6702	-1.132	0.8314	0.2225	2.2445	0.3435	8.4665	2.424	5.9254	18.1079	-10.992
5.2345	10.2972	9.7	7.7912	13.3614	14.2709	11.9561	12.1201	13.3965	11.3511	8.4275	9.8756	7.6663	-1.1047	0.8744	0.3786	2.1586	0.406	8.4197	2.4045	5.8239	18.0533	-10.9296
5.2774	10.2777	9.7273	7.8732	13.3301	14.3138	12.0069	12.0498	13.3184	11.3589	8.244	9.7507	7.596	-1.05	0.8978	0.3981	2.0766	0.3903	8.3338	2.3967	5.6717	18.0377	-10.8944
5.3008	10.2543	9.7234	7.92	13.2482	14.2904	12.0264	11.9327	13.2326	11.3394	8.0527	9.6063	7.5258	-1.0188	0.9056	0.406	2.0024	0.4216	8.2362	2.4123	5.5077	18.0533	-10.8515
5.3086	10.1723	9.6961	7.9669	13.1428	14.267	12.0186	11.7883	13.1116	11.2965	7.8576	9.4306	7.4672	-0.9759	0.9212	0.4333	1.9166	0.4216	8.123	2.424	5.3125	18.1001	-10.7851
5.3164	10.0825	9.6531	7.9552	13.0374	14.1889	12.0069	11.6322	12.9749	11.234	7.6273	9.2394	7.3228	-0.9251	0.9837	0.406	1.8229	0.4099	8.0176	2.4279	5.0979	18.1743	-10.7305
5.2735	9.9693	9.5946	7.9317	12.8852	14.1069	11.964	11.4643	12.8149	11.1559	7.3579	9.0325	7.2057	-0.8822	0.9524	0.3786	1.7409	0.3825	7.8341	2.4474	4.848	18.2914	-10.668
5.215	9.8678	9.5556	7.8927	12.7915	14.0445	11.9093	11.2731	12.6705	11.0662	7.1237	8.849	7.073	-0.8353	0.9993	0.363	1.6394	0.3786	7.6936	2.4591	4.6216	18.4241	-10.6095
5.1525	9.7273	9.4814	7.8537	12.6392	13.9586	11.8429	11.0974	12.5417	10.9725	6.8388	8.6382	6.9325	-0.8119	0.9954	0.2849	1.5809	0.3435	7.518	2.4591	4.3913	18.5685	-10.547
5.1135	9.579	9.3994	7.76	12.4909	13.8571	11.7532	10.9452	12.3543	10.8749	6.5851	8.4158	6.8193	-0.7729	1.011	0.2186	1.5106	0.3357	7.3345	2.4787	4.1454	18.7208	-10.508
5.0432	9.4384	9.3174	7.6897	12.3504	13.7517	11.6829	10.7383	12.2138	10.7851	6.3274	8.2518	6.6904	-0.7338	1.0383	0.0742	1.4482	0.3123	7.1706	2.4709	3.9229	18.8808	-10.4533
4.9456	9.3057	9.2394	7.596	12.206	13.6697	11.5736	10.59	12.0733	10.6875	6.1205	8.0566	6.5851	-0.7143	1.0422	-0.0351	1.4091	0.3201	7.0339	2.467	3.7473	19.0135	-10.4299
4.891	9.2199	9.1613	7.4867	12.1084	13.6073	11.476	10.4533	11.9835	10.6563	5.9098	7.9161	6.5304	-0.6987	1.0539	-0.1288	1.3623	0.3318	6.8856	2.4709	3.5716	19.1345	-10.4026
4.8676	9.1496	9.1184	7.4165	12.0381	13.5565	11.4019	10.3675	11.8898	10.6134	5.7653	7.8302	6.4914	-0.6831	1.0617	-0.2147	1.335	0.3786	6.8115	2.5099	3.4038	19.2399	-10.3518
4.8246	9.0832	9.091	7.3423	11.964	13.4902	11.3784	10.2894	11.8429	10.6173	5.656	7.76	6.4758	-0.6675	1.0734	-0.3357	1.3037	0.4177	6.7022	2.5333	3.2945	19.3336	-10.3206
4.8207	9.0559	9.0793	7.2799	11.9132	13.4551	11.2809	10.2074	11.7258	10.5665	5.5428	7.678	6.4562	-0.6597	1.093	-0.4333	1.3076	0.4372	6.5851	2.5021	3.1969	19.4039	-10.2933
4.7583	9.0247	9.0676	7.2096	11.8664	13.4355	11.2691	10.1372	11.6985	10.5548	5.4296	7.6038	6.4484	-0.6753	1.0851	-0.484	1.3272	0.4918	6.5577	2.5216	3.0759	19.4546	-10.266
4.7661	9.013	9.0754	7.1589	11.839	13.4043	11.2535	10.0864	11.6556	10.547	5.3203	7.5141	6.4094	-0.6909	1.0891	-0.5543	1.3506	0.4957	6.4445	2.5138	3.0056	19.4858	-10.2582
4.7583	8.9935	9.0637	7.1159	11.8078	13.3692	11.2106	10.0513	11.5853	10.5353	5.2462	7.4789	6.4055	-0.7065	1.1203	-0.6206	1.3974	0.5192	6.3704	2.4865	2.9354	19.5249	-10.2308
4.7426	8.97	9.0364	7.0496	11.7688	13.2872	11.1481	9.9927	11.4994	10.5041	5.1642	7.3618	6.3587	-0.7338	1.0812	-0.6675	1.4638	0.445	6.304	2.3967	2.8612	19.5678	-10.2465
4.7465	8.9427	9.013	7.0222	11.7376	13.2443	11.1208	9.9381	11.4058	10.4689	5.0393	7.2916	6.2845	-0.7807	1.0695	-0.6948	1.5262	0.3903	6.2416	2.3147	2.787	19.6224	-10.2269
4.7426	8.9583	9.0247	7.0066	11.7141	13.2091	11.0701	9.9186	11.3472	10.4338	4.9808	7.2018	6.1947	-0.808	1.0695	-0.6948	1.5809	0.363	6.183	2.2601	2.7402	19.6498	-10.2465
4.77	8.97	9.0013	6.9832	11.7102	13.1506	11.0388	9.8561	11.2418	10.3597	4.8793	7.1276	6.1479	-0.8509	1.0695	-0.7026	1.6472	0.2849	6.1401	2.1391	2.6895	19.681	-10.2504
4.7465	8.9661	8.9778	6.9637	11.7063	13.053	10.992	9.8132	11.1286	10.3089	4.8285	7.03	6.0503	-0.8588	1.0734	-0.7456	1.6941	0.242	6.1049	2.0454	2.6816	19.72	-10.2894
4.8012	8.9817	8.9739	6.9442	11.6868	13.0218	10.9491	9.7976	11.0349	10.2504	4.7348	6.909	5.9644	-0.8822	1.0812	-0.7534	1.7292	0.1718	6.1127	1.9322	2.6895	19.7395	-10.2972
4.8129	9.0013	9.0013	6.9715	11.7337	12.9945	10.9335	9.7937	10.992	10.2386	4.7192	6.8583	5.9137	-0.8783	1.1398	-0.769	1.7409	0.16	6.0932	1.8697	2.7285	19.7278	-10.2933
4.8793	9.0559	9.013	6.9676	11.7376	12.9671	10.9061	9.7819	10.9139	10.1996	4.6841	6.7724	5.8434	-0.8861	1.2062	-0.7963	1.7565	0.1366	6.1362	1.7917	2.7324	19.7044	-10.3089
4.969	9.0989	9.0598	7.0144	11.7532	12.9203	10.9061	9.8093	10.832	10.1957	4.6919	6.7334	5.82	-0.8822	1.2842	-0.8158	1.7565	0.121	6.1791	1.7253	2.8105	19.6146	-10.3011
5.0627	9.1769	9.1379	7.0613	11.8234	12.8969	10.9256	9.8366	10.832	10.184	4.727	6.6865	5.8083	-0.8744	1.3857	-0.8353	1.7409	0.1561	6.222	1.7409	2.8612	19.4936	-10.2972
5.1954	9.2784	9.1964	7.1393	11.8547	12.893	10.9569	9.8912	10.7695	10.1684	4.7465	6.6787	5.7849	-0.8822	1.4755	-0.8197	1.7253	0.1483	6.2767	1.7292	2.9471	19.3453	-10.2699
5.293	9.3135	9.2589	7.1901	11.8859	12.9125	10.9725	9.9186	10.7032	10.1762	4.7817	6.6514	5.8005	-0.8548	1.5887	-0.7768	1.6902	0.1718	6.3548	1.7487	3.0134	19.1306	-10.2582
5.4218	9.3994	9.3213	7.2642	11.921	12.8969	10.992	9.9459	10.6875	10.1957	4.8363	6.6319	5.8005	-0.847	1.7097	-0.7338	1.6629	0.1639	6.3899	1.737	3.1032	18.8964	-10.1996
5.5624	9.4814	9.4072	7.2994	11.9483	12.8774	10.9881	9.9771	10.6719	10.1333	4.8558	6.6085	5.7653	-0.8353	1.8385	-0.6558	1.6394	0.2069	6.4484	1.7331	3.1852	18.631	-10.1918
5.6795	9.5556	9.4736	7.3696	11.9874	12.8813	10.9647	10.0044	10.5939	10.1411	4.9222	6.6124	5.7731	-0.7963	1.9868	-0.5738	1.5965	0.1913	6.5187	1.7839	3.2398	18.3538	-10.1254
5.8278	9.5907	9.5595	7.4243	11.9679	12.8695	10.9608	9.9888	10.5236	10.102	4.9534	6.5694	5.7302	-0.7807	2.1196	-0.5192	1.5692	0.1561	6.5499	1.7604	3.2515	18.1157	-10.0942
5.902	9.6102	9.5868	7.4867	11.9288	12.8344	10.9296	9.981	10.4494	10.0591	4.969	6.5499	5.6873	-0.7768	2.2093	-0.4372	1.5262	0.121	6.5812	1.7526	3.2945	17.8815	-10.0513
6.0191	9.657	9.657	7.5453	11.9288	12.7759	10.91	9.9849	10.3987	9.9888	4.9768	6.4875	5.6131	-0.7416	2.3772	-0.3669	1.4677	0.0742	6.589	1.7292	3.3257	17.6473	-10.0435
6.1323	9.6375	9.6687	7.6273	11.882	12.7446	10.8632	9.9186	10.3011	9.9264	4.9729	6.4211	5.5507	-0.7104	2.4904	-0.2928	1.3896	0.0156	6.589	1.7136	3.3257	17.4912	-10.024
6.1869	9.6297	9.6922	7.678	11.8039	12.6705	10.8593	9.8483	10.2113	9.8444	4.93	6.3274	5.4414	-0.6948	2.5372	-0.2615	1.3467	-0.1015	6.5733	1.6511	3.2789	17.3858	-10.0474
6.2806	9.6336	9.6844	7.7405	11.7571	12.6197	10.7968	9.8171	10.145	9.7351	4.9222	6.2611	5.3321	-0.648	2.6387	-0.1718	1.2725	-0.1874	6.5499	1.5926	3.275	17.3155	-10.0708
6.3079	9.5829	9.6883	7.8224	11.679	12.5339	10.7383	9.7312	10.0513	9.6336	4.8715	6.1713	5.215	-0.6284	2.7168	-0.1054	1.2296	-0.3123	6.5187	1.5614	3.2593	17.2999	-10.0864
6.3391	9.5516	9.6609	7.9044	11.5931	12.4753	10.7071	9.6844	9.9537	9.5165	4.8715	6.0932	5.0861	-0.6128	2.7129	-0.0468	1.1983	-0.4177	6.4992	1.4638	3.2242	17.335	-10.1254
6.3665	9.5282	9.6609	7.9669	11.5151	12.3738	10.6485	9.6141	9.8795	9.3955	4.8715	6.0308	4.9651	-0.6011	2.7558	0.1015	1.1749	-0.5465	6.4836	1.3935	3.2437	17.3975	-10.1723
6.4055	9.5126	9.6453	8.0723	11.4604	12.3387	10.6368	9.5712	9.821	9.2862	4.8676	5.9839	4.8676	-0.5777	2.8026	0.2342	1.1476	-0.648	6.4914	1.3506	3.2711	17.4717	-10.2191
6.3977	9.4775	9.6102	8.1425	11.398	12.2879	10.5978	9.536	9.778	9.2433	4.9027	5.9215	4.7739	-0.6011	2.8222	0.3786	1.171	-0.7612	6.4992	1.2803	3.314	17.5575	-10.2777
6.3938	9.458	9.6063	8.2011	11.316	12.245	10.5665	9.4892	9.7273	9.1379	4.9339	5.9137	4.7075	-0.6089	2.8456	0.5855	1.1866	-0.8314	6.4797	1.2179	3.3725	17.6668	-10.3206
6.4055	9.4424	9.5673	8.2518	11.2887	12.206	10.5236	9.4814	9.7234	9.0832	5.0354	5.9215	4.6333	-0.6284	2.9041	0.7729	1.2257	-0.9056	6.546	1.2101	3.4428	17.7566	-10.3792
6.3782	9.4306	9.5556	8.2596	11.2574	12.1825	10.4611	9.4814	9.7234	9.0364	5.1018	5.9488	4.606	-0.6519	2.9315	0.9641	1.2842	-0.9485	6.5812	1.1632	3.5482	17.8581	-10.4026
6.3704	9.4111	9.5165	8.2635	11.2028	12.1201	10.4065	9.4736	9.7312	8.9935	5.1954	5.9722	4.5982	-0.6675	3.0173	1.1827	1.3272	-0.9954	6.6241	1.1671	3.6341	17.9284	-10.4494
6.3157	9.3643	9.4814	8.244	11.1599	12.1045	10.3362	9.4697	9.7351	8.931	5.3008	5.9956	4.5904	-0.7026	3.0525	1.3974	1.3935	-1.011	6.6436	1.1437	3.7317	17.9947	-10.465
6.2884	9.3526	9.4306	8.205	11.1403	12.0537	10.2738	9.4619	9.7507	8.8842	5.3789	6.0698	4.5709	-0.7416	3.1383	1.5848	1.4521	-1.0734	6.6787	1.1008	3.8371	18.0377	-10.5236
6.2455	9.3487	9.3877	8.1698	11.1091	12.0264	10.184	9.4814	9.7663	8.849	5.4687	6.0971	4.5826	-0.7573	3.1657	1.7721	1.495	-1.1242	6.6787	1.0891	3.9307	18.0611	-10.5314
6.183	9.3018	9.3174	8.0527	11.0388	11.9561	10.102	9.4345	9.7468	8.7788	5.5116	6.0815	4.5436	-0.7846	3.2398	2.0024	1.5458	-1.1866	6.6826	1.0305	3.9893	18.0455	-10.6017
6.0932	9.2433	9.2433	7.9356	10.9686	11.9132	10.0044	9.3682	9.7078	8.689	5.5272	6.0776	4.4694	-0.8197	3.2281	2.1664	1.6043	-1.3076	6.6514	0.9446	3.9854	18.0142	-10.6134
6.0347	9.1691	9.1301	7.7873	10.8905	11.8351	9.8756	9.294	9.6531	8.6031	5.5272	6.0191	4.4109	-0.8392	3.2945	2.4474	1.6316	-1.3857	6.6124	0.8822	4.0361	17.9323	-10.629
5.9566	9.0832	9.0364	7.6077	10.8242	11.7415	9.7624	9.216	9.6024	8.5133	5.4726	5.9605	4.3289	-0.8314	3.3023	2.6309	1.6433	-1.5106	6.5421	0.7807	4.0088	17.8815	-10.6602
5.8161	8.9622	8.8998	7.4321	10.6875	11.6087	9.5985	9.0754	9.4775	8.3572	5.4023	5.8668	4.204	-0.8548	3.3101	2.8378	1.6746	-1.6394	6.4289	0.687	3.962	17.7722	-10.6329
5.7146	8.8686	8.7436	7.2369	10.5743	11.4721	9.4424	8.9349	9.3565	8.2245	5.3047	5.7536	4.0869	-0.8705	3.3335	3.029	1.7019	-1.8034	6.3352	0.5738	3.8644	17.6668	-10.6563
5.6365	8.7866	8.6148	7.0808	10.465	11.3823	9.3057	8.8061	9.2316	8.1074	5.1954	5.6326	3.9503	-0.8705	3.3882	3.2437	1.698	-1.9244	6.2025	0.4723	3.7941	17.5068	-10.6524
5.5389	8.6929	8.4821	6.9207	10.3245	11.2613	9.1925	8.6812	9.1262	7.9708	5.0979	5.5428	3.8253	-0.8744	3.4272	3.4545	1.7058	-2.0844	6.0971	0.3396	3.7004	17.3155	-10.629
5.4453	8.5446	8.3533	6.7763	10.184	11.1286	9.052	8.4977	8.9466	7.8498	4.9495	5.3906	3.7121	-0.8705	3.4467	3.6419	1.7058	-2.221	5.9449	0.2537	3.5755	17.1243	-10.6368
5.3438	8.447	8.2713	6.6475	10.0552	11.0193	8.9583	8.365	8.8568	7.7717	4.848	5.3047	3.6146	-0.8627	3.4779	3.8488	1.6902	-2.3499	5.7849	0.1405	3.4662	16.9018	-10.6407
5.2462	8.3455	8.1425	6.5343	9.8951	10.9178	8.8803	8.1855	8.7241	7.6546	4.6802	5.1642	3.5131	-0.8666	3.5092	3.9893	1.6863	-2.4631	5.6248	0.0351	3.3491	16.6637	-10.6407
5.1681	8.2284	7.9903	6.4211	9.7273	10.789	8.7944	8.0293	8.5563	7.5648	4.5514	5.0549	3.4155	-0.847	3.5287	4.1571	1.6511	-2.5723	5.4687	-0.0625	3.193	16.4216	-10.6407
5.0979	8.1542	7.9591	6.425	9.6258	10.7227	8.7124	7.9044	8.4626	7.5141	4.4421	4.9768	3.3335	-0.808	3.5989	4.3523	1.5692	-2.627	5.3086	-0.0937	3.0759	16.1601	-10.6251
5.0276	8.0527	7.8459	6.3391	9.4697	10.6134	8.6695	7.76	8.3533	7.4672	4.3367	4.8754	3.275	-0.7807	3.6263	4.4538	1.5106	-2.6973	5.1837	-0.1913	2.9471	15.922	-10.6251
4.9378	7.9317	7.7678	6.265	9.3409	10.5431	8.6187	7.6077	8.2284	7.397	4.2001	4.7856	3.232	-0.7456	3.6028	4.5748	1.4638	-2.7363	4.9847	-0.2381	2.8144	15.7112	-10.6446
4.8597	7.8498	7.7092	6.222	9.2277	10.4611	8.568	7.4672	8.1464	7.3814	4.0635	4.727	3.2125	-0.7026	3.6302	4.6255	1.3662	-2.748	4.8676	-0.2537	2.7012	15.5434	-10.6563
4.7817	7.7053	7.5882	6.1323	9.0754	10.3518	8.5172	7.3345	8.0293	7.3501	3.9307	4.6412	3.1618	-0.6714	3.5794	4.6294	1.3076	-2.7948	4.7192	-0.2732	2.5723	15.4185	-10.6797
4.727	7.5999	7.5258	6.0932	8.9466	10.2465	8.5094	7.2018	7.8966	7.3189	3.7785	4.5358	3.0954	-0.6324	3.5209	4.5865	1.2218	-2.8183	4.5709	-0.2889	2.4396	15.3443	-10.6875
4.6255	7.4516	7.4204	6.0073	8.7788	10.1254	8.4236	7.0261	7.7366	7.2564	3.6107	4.4304	3.0447	-0.5777	3.4662	4.5006	1.1281	-2.8573	4.4499	-0.2615	2.2679	15.2858	-10.668
4.5084	7.315	7.3228	5.9176	8.6539	10.0162	8.3299	6.8466	7.5999	7.1589	3.4272	4.3055	2.9471	-0.5543	3.396	4.3601	1.05	-2.9237	4.3016	-0.2771	2.0766	15.2701	-10.6797
4.4148	7.1432	7.1784	5.8005	8.4743	9.8171	8.2089	6.6826	7.4399	7.0574	3.2359	4.1493	2.8261	-0.4918	3.2867	4.1767	0.9524	-3.0056	4.1025	-0.281	1.901	15.274	-10.7071
4.3055	6.9637	7.0574	5.6756	8.2596	9.6531	8.0996	6.4601	7.2018	6.8934	3.0095	3.9659	2.6738	-0.4489	3.1501	3.9503	0.8744	-3.1227	3.9073	-0.2928	1.6785	15.2936	-10.6797
4.1884	6.7568	6.9051	5.5194	8.0762	9.4814	7.9591	6.2298	6.9793	6.7295	2.7051	3.7082	2.4748	-0.4138	3.033	3.6653	0.7924	-3.232	3.7239	-0.324	1.4599	15.3053	-10.6797
4.0595	6.5226	6.7178	5.3828	7.8185	9.2277	7.7756	5.98	6.7178	6.546	2.4318	3.4584	2.2406	-0.3669	2.8807	3.396	0.6948	-3.3335	3.4818	-0.3708	1.2179	15.3326	-10.6914
3.919	6.3235	6.5772	5.2306	7.6195	9.0286	7.6038	5.7458	6.4719	6.3274	2.1625	3.1891	2.022	-0.3201	2.7207	3.0837	0.6167	-3.4779	3.232	-0.4021	0.9641	15.3248	-10.6758
3.7278	6.0815	6.3782	5.0471	7.3384	8.7749	7.3892	5.4218	6.1557	6.0737	1.8346	2.8846	1.7761	-0.3084	2.5645	2.7792	0.5621	-3.6302	2.9978	-0.4606	0.7104	15.3482	-10.6641
3.6028	5.8668	6.183	4.8676	7.1198	8.5172	7.194	5.1681	5.8981	5.8083	1.534	2.5606	1.5184	-0.2537	2.4201	2.4982	0.4996	-3.7746	2.748	-0.527	0.4606	15.3599	-10.6758
3.4623	5.6834	6.0113	4.7348	6.8856	8.283	6.9871	4.9066	5.5897	5.5702	1.2062	2.2718	1.2413	-0.2303	2.2601	2.1976	0.4372	-3.8995	2.5489	-0.6089	0.242	15.4068	-10.6485
3.3257	5.4531	5.8356	4.5826	6.6202	8.0215	6.7724	4.6412	5.3086	5.3243	0.9134	1.9634	0.9837	-0.203	2.0961	1.9166	0.4177	-4.0088	2.3147	-0.6363	-0.0195	15.4614	-10.6329
3.1735	5.3125	5.6599	4.446	6.4172	7.8068	6.5655	4.3757	5.0159	5.051	0.6324	1.6589	0.6987	-0.203	1.9439	1.6472	0.3864	-4.1337	2.143	-0.7143	-0.2186	15.5668	-10.629
3.0408	5.1408	5.4999	4.3094	6.2181	7.5648	6.3782	4.1532	4.7583	4.8246	0.3513	1.3701	0.4372	-0.1874	1.8268	1.3896	0.3552	-4.2469	1.9868	-0.7768	-0.4021	15.7229	-10.6056
2.9002	4.9847	5.3633	4.1923	5.9995	7.3384	6.1947	3.9073	4.4655	4.5631	0.082	1.0773	0.1522	-0.1874	1.6472	1.1359	0.363	-4.3484	1.7839	-0.8041	-0.5855	15.9142	-10.59
2.7636	4.8597	5.2345	4.122	5.8395	7.1471	6.023	3.6926	4.2274	4.3133	-0.1639	0.7924	-0.0976	-0.1874	1.5418	0.929	0.3669	-4.4304	1.6433	-0.8588	-0.7221	16.125	-10.5665
2.6543	4.7114	5.1057	4.0361	5.6599	6.9637	5.8395	3.4662	3.9659	4.0556	-0.4294	0.4645	-0.3747	-0.2069	1.4208	0.7377	0.3942	-4.5084	1.5028	-0.9173	-0.8705	16.3592	-10.5392
2.5723	4.6255	4.9964	3.9737	5.5194	6.7802	5.699	3.2672	3.7004	3.8292	-0.6753	0.2108	-0.6597	-0.2186	1.3779	0.6206	0.4177	-4.5553	1.3779	-0.968	-1.0227	16.5934	-10.5548
2.5255	4.5865	4.9222	3.8995	5.4023	6.6397	5.5311	3.0642	3.4818	3.5911	-0.9251	-0.1093	-0.9251	-0.2225	1.3623	0.5543	0.4294	-4.5982	1.2686	-1.0032	-1.1398	16.8081	-10.5314
2.4435	4.5123	4.8285	3.841	5.2735	6.5226	5.3633	2.8651	3.1813	3.3335	-1.2101	-0.4372	-1.2218	-0.2459	1.3389	0.5113	0.4645	-4.6958	1.1983	-1.0344	-1.2647	17.0228	-10.5353
2.3928	4.4889	4.7778	3.7902	5.1447	6.3548	5.2384	2.6738	2.9432	3.0837	-1.4755	-0.7612	-1.5536	-0.2459	1.3545	0.4996	0.4684	-4.7856	1.1437	-1.0812	-1.4013	17.1906	-10.5041
2.3538	4.446	4.7348	3.6926	5.0354	6.2377	5.09	2.4513	2.6426	2.8105	-1.8151	-1.1125	-1.8697	-0.2303	1.3818	0.5426	0.4684	-4.8519	1.0617	-1.1242	-1.5262	17.3507	-10.5041
2.3147	4.4304	4.6841	3.6302	4.9339	6.1088	4.9534	2.2445	2.385	2.5528	-2.1	-1.4716	-2.1898	-0.242	1.4326	0.6167	0.4762	-4.9378	1.0422	-1.1905	-1.6511	17.4873	-10.4729
2.2991	4.4265	4.6412	3.5404	4.8246	6.0034	4.7934	2.0259	2.1117	2.2757	-2.4201	-1.8424	-2.5489	-0.2342	1.5067	0.7377	0.4645	-5.0588	1.0227	-1.214	-1.7917	17.6005	-10.4846
2.2991	4.4304	4.6255	3.5092	4.7231	5.8902	4.6841	1.8151	1.8346	2.022	-2.7051	-2.1703	-2.8846	-0.2498	1.5614	0.8588	0.4684	-5.133	1.0383	-1.2959	-1.901	17.6825	-10.465
2.2952	4.4499	4.606	3.4701	4.6451	5.7966	4.5826	1.6199	1.5497	1.7839	-3.0017	-2.5411	-3.2281	-0.2459	1.6785	0.9837	0.4645	-5.2267	1.05	-1.335	-1.9868	17.7449	-10.5041
2.2835	4.485	4.5982	3.4467	4.5397	5.7146	4.4889	1.4208	1.3154	1.534	-3.2867	-2.8924	-3.5365	-0.2537	1.7604	1.1008	0.4567	-5.3125	1.0773	-1.3779	-2.0727	17.7878	-10.5041
2.3381	4.5436	4.606	3.4389	4.4733	5.6599	4.4148	1.2413	1.0461	1.3311	-3.5794	-3.2008	-3.8331	-0.2342	1.8736	1.2569	0.4528	-5.3633	1.1047	-1.4013	-2.1703	17.8191	-10.5353
2.3303	4.5943	4.6216	3.4428	4.4265	5.5897	4.3406	1.0617	0.8744	1.1476	-3.8214	-3.5053	-4.0869	-0.2264	1.9751	1.3935	0.4372	-5.4179	1.1788	-1.3896	-2.2249	17.8191	-10.5431
2.3967	4.6724	4.6529	3.4506	4.3952	5.5624	4.3211	0.9251	0.6753	0.968	-4.0752	-3.7707	-4.3211	-0.2069	2.1196	1.5536	0.3981	-5.4375	1.2413	-1.3779	-2.2757	17.7996	-10.5743
2.4826	4.8012	4.6958	3.4701	4.3445	5.5233	4.2977	0.8158	0.4762	0.847	-4.2742	-4.0205	-4.4928	-0.1991	2.2874	1.6589	0.3708	-5.4453	1.3272	-1.3623	-2.2874	17.7683	-10.6017
2.5684	4.9066	4.7465	3.4896	4.3172	5.4843	4.2859	0.6792	0.324	0.7182	-4.5319	-4.243	-4.7153	-0.1874	2.4787	1.7761	0.3396	-5.4843	1.374	-1.3467	-2.342	17.7059	-10.629
2.6426	5.0081	4.809	3.5248	4.3055	5.4765	4.2859	0.5699	0.1522	0.6011	-4.7505	-4.4577	-4.9027	-0.1678	2.6621	1.8112	0.3279	-5.4921	1.4404	-1.3194	-2.3967	17.6395	-10.6719
2.7207	5.1213	4.848	3.5833	4.2703	5.4453	4.2977	0.445	0.0195	0.5348	-4.969	-4.6958	-5.0822	-0.16	2.83	1.8034	0.3084	-5.5155	1.4911	-1.3076	-2.4748	17.5888	-10.6993
2.8378	5.2189	4.9183	3.595	4.2508	5.4296	4.2977	0.3162	-0.1678	0.4489	-5.1954	-4.93	-5.2345	-0.1522	3.0095	1.7643	0.3123	-5.5467	1.5262	-1.2764	-2.5411	17.5185	-10.7539
2.9158	5.3008	4.9456	3.6341	4.2079	5.3633	4.3211	0.1522	-0.3318	0.3708	-5.457	-5.1681	-5.4101	-0.1678	3.111	1.6589	0.3279	-5.6365	1.5301	-1.2725	-2.6699	17.46	-10.7929
3.0212	5.3906	5.012	3.7082	4.1376	5.3477	4.3445	0.0312	-0.5153	0.3201	-5.6795	-5.414	-5.5663	-0.1639	3.2672	1.5458	0.3123	-5.6912	1.5379	-1.2998	-2.7909	17.3975	-10.8515
3.111	5.4453	5.0588	3.7824	4.1064	5.2969	4.3835	-0.1171	-0.6792	0.2498	-5.9488	-5.6521	-5.7341	-0.16	3.3335	1.4521	0.3162	-5.7575	1.4989	-1.2998	-2.9354	17.3311	-10.8866
3.1579	5.4687	5.0744	3.8371	3.9932	5.2072	4.407	-0.3006	-0.8744	0.1639	-6.2337	-5.9059	-5.8981	-0.1796	3.396	1.374	0.324	-5.8629	1.4326	-1.3037	-3.1305	17.2687	-10.91
3.2554	5.5428	5.0705	3.8839	3.9073	5.1291	4.4109	-0.5113	-1.1008	0.0703	-6.5499	-6.1869	-6.0893	-0.1678	3.4467	1.374	0.3279	-5.9332	1.3935	-1.3154	-3.3257	17.1906	-10.9647
3.3218	5.5741	5.1291	3.9854	3.841	5.0861	4.4421	-0.6441	-1.2491	0.0195	-6.8193	-6.4328	-6.2455	-0.1639	3.517	1.4365	0.3123	-6.0113	1.3779	-1.2998	-3.4857	17.1204	-10.9725
3.4272	5.6014	5.1876	4.0322	3.7668	5.0276	4.4382	-0.8314	-1.4326	-0.0312	-7.0535	-6.6475	-6.3977	-0.1639	3.5092	1.5692	0.3162	-6.0932	1.3233	-1.3311	-3.6497	17.054	-11.0037
3.4584	5.6209	5.1486	4.0556	3.638	4.9027	4.4499	-0.9954	-1.5965	-0.0937	-7.3267	-6.9129	-6.5499	-0.1796	3.5248	1.7409	0.3279	-6.1674	1.2686	-1.3311	-3.8253	17.0111	-11.0232
3.5521	5.656	5.2189	4.1298	3.595	4.891	4.4655	-1.0891	-1.7097	-0.1171	-7.5024	-7.0535	-6.6514	-0.1678	3.517	1.9556	0.2928	-6.1947	1.2647	-1.3037	-3.9034	16.9798	-11.0076
3.5716	5.6443	5.254	4.161	3.517	4.8402	4.4499	-1.214	-1.8463	-0.1405	-7.6858	-7.1901	-6.7568	-0.1796	3.5053	2.2054	0.3006	-6.2298	1.2218	-1.2842	-4.0205	16.9798	-11.0076
3.6614	5.6951	5.3125	4.1454	3.5053	4.8402	4.4616	-1.2959	-1.8853	-0.1054	-7.7912	-7.3189	-6.7919	-0.1561	3.4896	2.4474	0.2615	-6.2337	1.2296	-1.2257	-4.0869	17.0072	-11.0115
3.7082	5.6521	5.2891	4.1415	3.4428	4.7895	4.4382	-1.3779	-1.9712	-0.1366	-7.9317	-7.4282	-6.8544	-0.1405	3.4623	2.6855	0.2576	-6.2337	1.1944	-1.2101	-4.1688	17.0735	-10.9959
3.7043	5.656	5.336	4.1181	3.4194	4.7583	4.407	-1.4326	-1.9751	-0.1249	-8.0059	-7.5063	-6.8739	-0.1288	3.4506	2.9549	0.2342	-6.265	1.1827	-1.1983	-4.2508	17.1555	-10.9881
3.716	5.6404	5.3516	4.083	3.3608	4.7465	4.3796	-1.4755	-2.0493	-0.0859	-8.0605	-7.5492	-6.8739	-0.1171	3.4389	3.1813	0.1952	-6.2494	1.1866	-1.1515	-4.2508	17.2609	-10.9764
3.7317	5.5858	5.3594	3.9854	3.2906	4.7153	4.3601	-1.5614	-2.061	-0.0781	-8.1191	-7.5804	-6.8778	-0.1171	3.3999	3.4155	0.203	-6.2689	1.1203	-1.1437	-4.3172	17.3897	-10.9608
3.7473	5.5546	5.4101	3.9698	3.275	4.7387	4.3796	-1.5536	-1.9868	-0.0156	-8.1152	-7.518	-6.8075	-0.0859	3.3999	3.638	0.1561	-6.2611	1.1203	-1.093	-4.3328	17.5302	-10.9217
3.7434	5.4999	5.4101	3.9424	3.2633	4.7583	4.3328	-1.6004	-1.9751	0.0507	-8.1503	-7.5297	-6.7919	-0.0859	3.3765	3.8136	0.1327	-6.2845	1.0773	-1.0617	-4.3991	17.702	-10.8788
3.7551	5.4687	5.4296	3.9424	3.2281	4.8129	4.3172	-1.5926	-1.9283	0.082	-8.1308	-7.5102	-6.7295	-0.0507	3.3725	3.962	0.0976	-6.2689	1.0422	-1.0578	-4.4109	17.9088	-10.8437
3.8019	5.4179	5.5155	3.9776	3.2437	4.8676	4.3952	-1.616	-1.8697	0.1678	-8.084	-7.4282	-6.6319	-0.039	3.4116	4.1337	0.0586	-6.2572	0.9759	-1.0656	-4.4538	18.0884	-10.789
