"FZ"	"FC3"	"FCZ"	"FC4"	"C3"	"CZ"	"C4"	"CP3"	"CPZ"	"CP4"	"P3"	"PZ"	"P4"	"OZ"	"FP1"	"FP2"	"A2"	"P8"	"TP7"	"TP8"	"P7"
-0.9844	-1.0071	-1.3292	-0.068	-0.4083	-0.8801	0.2495	-0.2676	-0.1996	0.5126	0.1316	0.1633	0.7258	0.1452	1.5197	1.5469	-0.2903	0.5171	-1.8826	0.0726	-0.7667
-0.9436	-1.0252	-1.2611	0.0181	-0.431	-0.871	0.2722	-0.2994	-0.2132	0.5081	0.0499	0.1225	0.7077	0.1043	1.5651	1.5242	-0.2041	0.5126	-1.9098	0.0771	-0.7757
-0.9027	-1.0025	-1.2067	0.0998	-0.4582	-0.8302	0.3402	-0.3402	-0.1996	0.5262	0.0318	0.1134	0.6714	0.0771	1.5832	1.5242	-0.1452	0.5444	-1.8508	0.1043	-0.753
-0.8665	-1.0434	-1.1749	0.1497	-0.4809	-0.8029	0.3584	-0.3674	-0.2268	0.5081	-0.0045	0.0635	0.6578	0.0363	1.5424	1.5106	-0.0408	0.5534	-1.8009	0.1361	-0.7621
-0.812	-1.0252	-1.1205	0.2132	-0.5126	-0.7984	0.3992	-0.4219	-0.2813	0.4763	-0.068	0.0318	0.6215	-0.0227	1.5106	1.4743	0.059	0.6033	-1.7647	0.1179	-0.7077
-0.7984	-1.0434	-1.0615	0.2404	-0.5262	-0.7803	0.4083	-0.4355	-0.3085	0.4173	-0.0998	-0.0318	0.5716	-0.0771	1.4607	1.4426	0.1452	0.6124	-1.6785	0.1452	-0.685
-0.7576	-1.0388	-1.0524	0.2314	-0.5534	-0.7848	0.3765	-0.4809	-0.3402	0.372	-0.1316	-0.0771	0.4945	-0.1316	1.3836	1.4108	0.2404	0.5761	-1.6195	0.1769	-0.6578
-0.753	-1.0434	-1.0298	0.2495	-0.5807	-0.7712	0.3493	-0.4809	-0.4037	0.3221	-0.1996	-0.1361	0.44	-0.1452	1.3655	1.438	0.2994	0.5943	-1.5061	0.1951	-0.6306
-0.744	-1.0615	-0.9844	0.1996	-0.6169	-0.8256	0.2813	-0.5353	-0.4627	0.2223	-0.2586	-0.1951	0.3357	-0.1815	1.2747	1.3927	0.3674	0.5625	-1.4154	0.1633	-0.6669
-0.7122	-1.057	-1.0071	0.1724	-0.626	-0.812	0.1905	-0.558	-0.5534	0.1452	-0.2949	-0.2586	0.2722	-0.1996	1.1885	1.3745	0.3947	0.5489	-1.3201	0.1769	-0.6169
-0.6895	-1.0388	-0.9617	0.1089	-0.6669	-0.8801	0.1361	-0.6124	-0.5988	0.0318	-0.3629	-0.3312	0.1497	-0.2268	1.1205	1.3564	0.44	0.5308	-1.2384	0.1134	-0.6079
-0.6805	-1.0434	-0.9663	0.0635	-0.7122	-0.8982	0.0136	-0.6306	-0.6714	-0.0817	-0.4083	-0.3538	0.0726	-0.2268	1.057	1.3428	0.4582	0.5035	-1.1477	0.059	-0.6079
-0.6669	-1.0524	-0.9436	-0.0318	-0.7213	-0.9073	-0.0771	-0.6805	-0.7077	-0.1951	-0.4718	-0.3947	-0.0363	-0.2314	0.9889	1.3382	0.4672	0.4718	-1.0751	0.0136	-0.5988
-0.6442	-1.0524	-0.9663	-0.127	-0.7394	-0.9164	-0.1815	-0.6714	-0.744	-0.2994	-0.5262	-0.4173	-0.1497	-0.2404	0.9254	1.3065	0.4763	0.4128	-1.0207	-0.059	-0.6033
-0.6895	-1.0751	-0.9663	-0.245	-0.7939	-0.9708	-0.3175	-0.7667	-0.7984	-0.4219	-0.5852	-0.4854	-0.2359	-0.2404	0.8483	1.2838	0.499	0.3493	-1.0252	-0.1542	-0.6079
-0.6759	-1.0207	-0.939	-0.313	-0.8302	-0.9572	-0.4083	-0.7712	-0.812	-0.5308	-0.6215	-0.5171	-0.3357	-0.2359	0.7485	1.2248	0.4763	0.2949	-1.0071	-0.2041	-0.6079
-0.685	-1.0252	-0.9209	-0.4219	-0.8392	-0.939	-0.5126	-0.7984	-0.8392	-0.5897	-0.6623	-0.5308	-0.3856	-0.2268	0.6714	1.1659	0.4582	0.254	-1.057	-0.2813	-0.6351
-0.6669	-1.0025	-0.9481	-0.4945	-0.8347	-0.9753	-0.6351	-0.812	-0.8574	-0.7213	-0.6986	-0.5262	-0.5171	-0.2268	0.567	1.0706	0.4536	0.1996	-1.125	-0.372	-0.6487
-0.685	-0.9617	-0.9209	-0.626	-0.8665	-0.998	-0.7394	-0.8619	-0.8619	-0.7984	-0.7258	-0.5217	-0.567	-0.2177	0.4672	0.9753	0.4219	0.1497	-1.184	-0.4491	-0.685
-0.6714	-0.9164	-0.8937	-0.6759	-0.8347	-0.9844	-0.7848	-0.8392	-0.8392	-0.8392	-0.7621	-0.5171	-0.6215	-0.1951	0.3674	0.8665	0.3947	0.1089	-1.243	-0.5489	-0.6623
-0.6805	-0.8846	-0.9073	-0.753	-0.8665	-0.9481	-0.871	-0.8619	-0.8211	-0.8891	-0.7621	-0.5126	-0.6714	-0.1815	0.2949	0.7349	0.3674	0.0499	-1.2883	-0.6623	-0.685
-0.6805	-0.8483	-0.9027	-0.8302	-0.8528	-0.9526	-0.9118	-0.8846	-0.8166	-0.9345	-0.7848	-0.4809	-0.7122	-0.1815	0.186	0.6124	0.3538	-0.0091	-1.3292	-0.7667	-0.7031
-0.7213	-0.812	-0.8801	-0.8891	-0.8846	-0.93	-0.9753	-0.8891	-0.7984	-0.9889	-0.7984	-0.4355	-0.7667	-0.1633	0.0635	0.4536	0.313	-0.068	-1.3518	-0.8619	-0.6895
-0.7394	-0.753	-0.8891	-0.9708	-0.8937	-0.9209	-0.9799	-0.9164	-0.7939	-0.9889	-0.7893	-0.4355	-0.8075	-0.1542	-0.059	0.3266	0.2858	-0.1134	-1.3518	-0.9526	-0.6805
-0.7213	-0.7349	-0.8619	-0.9935	-0.8937	-0.9073	-1.0025	-0.9164	-0.7667	-0.9935	-0.7712	-0.4083	-0.8211	-0.1043	-0.1225	0.1724	0.2314	-0.1497	-1.3382	-0.9935	-0.6442
-0.7485	-0.685	-0.8891	-1.0524	-0.9027	-0.8801	-1.0434	-0.93	-0.7485	-1.0343	-0.7893	-0.3811	-0.8392	-0.0907	-0.2676	0.0408	0.2041	-0.1815	-1.2883	-1.0298	-0.6306
-0.7576	-0.6805	-0.8528	-1.0797	-0.9345	-0.8483	-1.0524	-0.939	-0.7485	-1.0207	-0.8029	-0.372	-0.8755	-0.068	-0.3266	-0.0771	0.1497	-0.1951	-1.2475	-1.0524	-0.5988
-0.7712	-0.6351	-0.8438	-1.0933	-0.9209	-0.8302	-1.0434	-0.9345	-0.7077	-1.0207	-0.812	-0.3629	-0.8846	-0.0408	-0.3992	-0.2268	0.1089	-0.1951	-1.2384	-1.0887	-0.5852
-0.7394	-0.5943	-0.8075	-1.1114	-0.9254	-0.812	-1.0524	-0.9663	-0.6578	-1.0116	-0.8075	-0.3584	-0.8937	-0.0091	-0.4083	-0.2949	0.0363	-0.2268	-1.2021	-1.0615	-0.5807
-0.753	-0.5897	-0.812	-1.1114	-0.9572	-0.7757	-1.0071	-0.9753	-0.6306	-0.9708	-0.7939	-0.3402	-0.8801	0.0227	-0.3811	-0.3584	-0.0272	-0.2223	-1.1568	-1.0434	-0.5444
-0.7258	-0.558	-0.7576	-1.0933	-0.9663	-0.7349	-1.0071	-0.9935	-0.5807	-0.9436	-0.8256	-0.3448	-0.871	0.0635	-0.3538	-0.4128	-0.0862	-0.2314	-1.1386	-1.0298	-0.5171
-0.7031	-0.5444	-0.7621	-1.1023	-0.9889	-0.6895	-0.9935	-1.057	-0.5807	-0.9617	-0.8438	-0.3765	-0.9118	0.0635	-0.2903	-0.4672	-0.1089	-0.2586	-1.1568	-1.0071	-0.5489
-0.6578	-0.4945	-0.6895	-1.0434	-0.9935	-0.6532	-0.9073	-1.0434	-0.5489	-0.8982	-0.8665	-0.3493	-0.8665	0.0862	-0.2132	-0.4763	-0.1633	-0.254	-1.1069	-0.9254	-0.5353
-0.6079	-0.4809	-0.6487	-1.0071	-0.9844	-0.5807	-0.8574	-1.0434	-0.4809	-0.8528	-0.8392	-0.3266	-0.8438	0.0953	-0.1043	-0.4219	-0.2041	-0.2268	-1.0524	-0.8483	-0.5308
-0.5217	-0.3901	-0.5398	-0.9027	-0.9572	-0.4899	-0.7803	-0.9708	-0.3856	-0.7893	-0.8211	-0.2813	-0.7939	0.1361	0.0272	-0.3901	-0.2495	-0.186	-1.0071	-0.7304	-0.499
-0.44	-0.3629	-0.4536	-0.8574	-0.9027	-0.3856	-0.6895	-0.9572	-0.3221	-0.7031	-0.8075	-0.2676	-0.7168	0.1497	0.1316	-0.3175	-0.3039	-0.1678	-1.0116	-0.5761	-0.4854
-0.3674	-0.3493	-0.3856	-0.7667	-0.9209	-0.3085	-0.6351	-0.9526	-0.2676	-0.6532	-0.7893	-0.2359	-0.6941	0.1588	0.254	-0.2586	-0.3312	-0.1179	-0.9935	-0.431	-0.4899
-0.2495	-0.2813	-0.254	-0.6759	-0.8846	-0.186	-0.5398	-0.9027	-0.1542	-0.567	-0.7848	-0.1633	-0.6215	0.1996	0.3538	-0.1815	-0.3947	-0.0544	-0.9617	-0.254	-0.4854
-0.1588	-0.2495	-0.1724	-0.5852	-0.8528	-0.0771	-0.44	-0.8528	-0.068	-0.4582	-0.7485	-0.1134	-0.5262	0.2132	0.4446	-0.1179	-0.4355	-0.0272	-0.9436	-0.068	-0.44
-0.0862	-0.2404	-0.0817	-0.4627	-0.8438	0.0635	-0.3493	-0.8166	0.0272	-0.3584	-0.6895	-0.0544	-0.4718	0.2359	0.4536	-0.0907	-0.4718	0	-0.93	0.0862	-0.4083
0.0045	-0.2314	-0.0181	-0.4083	-0.812	0.1361	-0.2903	-0.812	0.0998	-0.3357	-0.6895	-0.0363	-0.3947	0.2404	0.4173	-0.059	-0.4854	0.0136	-0.9027	0.2041	-0.3992
0.0953	-0.2223	0.0953	-0.3448	-0.8166	0.2268	-0.2132	-0.7757	0.1678	-0.2767	-0.6669	0.0318	-0.313	0.2586	0.3811	0.0045	-0.5217	0.0499	-0.8528	0.2858	-0.3448
0.1996	-0.1633	0.1588	-0.2041	-0.7621	0.3493	-0.1225	-0.7122	0.2767	-0.1588	-0.6306	0.0953	-0.245	0.2722	0.3266	0.0272	-0.567	0.1043	-0.7667	0.4355	-0.3085
0.2813	-0.1452	0.2676	-0.1316	-0.7258	0.4491	-0.0499	-0.6714	0.372	-0.0862	-0.5534	0.1406	-0.1951	0.313	0.2177	0.0499	-0.5852	0.0771	-0.7031	0.5081	-0.2949
0.3448	-0.1179	0.3448	-0.0998	-0.6895	0.5217	0.0045	-0.5852	0.4763	-0.0045	-0.5262	0.1815	-0.1043	0.2813	0.1179	0.0454	-0.5852	0.0907	-0.6079	0.567	-0.2586
0.4627	-0.0907	0.4627	0.0045	-0.5897	0.626	0.1043	-0.5126	0.558	0.0817	-0.4536	0.2586	-0.0272	0.3039	0.0408	0.1134	-0.6079	0.1179	-0.499	0.626	-0.2087
0.5035	-0.0227	0.558	0.0998	-0.5081	0.7349	0.1951	-0.3901	0.685	0.1542	-0.3357	0.3175	0.0953	0.3175	-0.0544	0.1497	-0.6169	0.1043	-0.3402	0.7031	-0.1179
0.6169	0.0862	0.6396	0.1678	-0.3765	0.8619	0.2767	-0.2813	0.7757	0.2767	-0.2767	0.44	0.1905	0.3175	-0.1179	0.1815	-0.6079	0.1316	-0.2314	0.7213	-0.0726
0.6986	0.1588	0.7258	0.245	-0.2223	0.9663	0.3493	-0.1316	0.9209	0.3765	-0.1724	0.5262	0.2495	0.2903	-0.1724	0.245	-0.5897	0.1542	-0.0499	0.7621	0.0318
0.7621	0.2767	0.8528	0.3357	-0.059	1.0524	0.4128	-0.0045	1.0524	0.4627	-0.0408	0.6532	0.3448	0.2858	-0.2223	0.3175	-0.5761	0.1678	0.1134	0.8211	0.0953
0.8891	0.3947	0.9481	0.4219	0.0953	1.1704	0.5262	0.1633	1.1749	0.558	0.0771	0.7667	0.4718	0.2631	-0.2495	0.3402	-0.5308	0.2268	0.254	0.8483	0.1633
0.9617	0.5035	1.0025	0.4899	0.2404	1.2657	0.5761	0.313	1.3065	0.6351	0.1905	0.8347	0.5353	0.254	-0.186	0.4536	-0.4854	0.2495	0.4173	0.9118	0.2767
1.0162	0.5943	1.1023	0.5444	0.4355	1.3428	0.6442	0.4718	1.3972	0.7258	0.3493	0.9481	0.6215	0.2268	-0.1905	0.4945	-0.4491	0.2858	0.5761	0.9118	0.3674
1.0479	0.7031	1.1522	0.5988	0.5943	1.4154	0.6714	0.5852	1.4743	0.7939	0.4446	1.0252	0.685	0.2041	-0.186	0.5171	-0.3992	0.2903	0.7304	0.9481	0.4264
1.0978	0.8075	1.1976	0.6079	0.7258	1.4335	0.7213	0.7122	1.5696	0.8801	0.5353	1.0751	0.7712	0.1815	-0.1316	0.5217	-0.3493	0.3402	0.8574	0.93	0.5035
1.0933	0.8347	1.2067	0.6306	0.8256	1.4698	0.7168	0.8075	1.615	0.9209	0.5988	1.1296	0.7984	0.1542	-0.0998	0.5217	-0.2994	0.3402	0.9844	0.9572	0.5761
1.0842	0.8801	1.2248	0.6306	0.9345	1.4743	0.7304	0.8891	1.6376	0.9526	0.6895	1.1568	0.8483	0.127	-0.0726	0.5081	-0.254	0.3856	1.0479	0.9753	0.6215
1.0797	0.871	1.2067	0.5897	1.0252	1.4562	0.7258	0.9708	1.6422	0.9526	0.7621	1.1795	0.8528	0.1089	-0.0136	0.5489	-0.2041	0.4173	1.0661	1.0071	0.6578
1.0116	0.8846	1.1749	0.558	1.0661	1.4607	0.6986	0.9935	1.6286	0.9753	0.7757	1.1432	0.8528	0.0726	0.0045	0.4627	-0.1361	0.3901	1.0434	1.0207	0.6623
0.9889	0.8982	1.1341	0.5262	1.0978	1.4199	0.6941	1.0434	1.6195	0.9481	0.7939	1.1296	0.8574	0.059	0.0408	0.4945	-0.0998	0.3811	1.0116	1.0071	0.6578
0.9027	0.8483	1.0887	0.4809	1.116	1.3518	0.6578	1.0615	1.5651	0.9436	0.8029	1.1069	0.8755	0.0318	0.0499	0.4627	-0.0635	0.3765	0.9164	1.0434	0.6306
0.8211	0.8347	1.0071	0.4037	1.1069	1.2793	0.5988	1.0343	1.4789	0.9073	0.7984	1.0252	0.8075	0.0227	0.068	0.4446	-0.0318	0.3674	0.8075	0.9935	0.5988
0.7213	0.7712	0.8937	0.3448	1.0751	1.1976	0.5625	1.0252	1.4017	0.8801	0.7485	0.9889	0.8075	0.0045	0.0499	0.3674	-0.0181	0.3448	0.7031	0.9526	0.5308
0.6079	0.7349	0.8075	0.2813	1.057	1.1205	0.5398	0.9889	1.311	0.8438	0.7122	0.9254	0.7621	0.0227	0.0091	0.3175	-0.0272	0.3266	0.626	0.8619	0.4763
0.4809	0.626	0.7213	0.1815	0.9889	1.0071	0.4627	0.9027	1.1931	0.7893	0.6941	0.8347	0.6895	0.0181	-0.0408	0.2268	-0.0318	0.2903	0.5625	0.7803	0.4037
0.3765	0.5534	0.6169	0.1043	0.939	0.8982	0.4083	0.8665	1.0933	0.7304	0.6714	0.753	0.6306	0.0318	-0.1815	0.0862	-0.0635	0.2676	0.499	0.7122	0.3856
0.2087	0.431	0.4672	0.0318	0.8392	0.7757	0.3584	0.7939	0.9617	0.6578	0.6169	0.6396	0.5852	0.0408	-0.2767	-0.0318	-0.1089	0.2223	0.4718	0.6351	0.313
0.1134	0.3402	0.3629	0	0.7712	0.6941	0.3266	0.7349	0.8302	0.6351	0.5625	0.5625	0.5398	0.0726	-0.3992	-0.1633	-0.1361	0.2087	0.4219	0.5716	0.2767
0	0.245	0.2858	-0.0499	0.7168	0.5716	0.2858	0.6895	0.7213	0.5761	0.5353	0.4718	0.499	0.0817	-0.4809	-0.2903	-0.1724	0.1588	0.4491	0.5126	0.2359
-0.127	0.1633	0.1951	-0.0635	0.6532	0.4672	0.2767	0.6306	0.5897	0.5217	0.499	0.3901	0.4582	0.0998	-0.5625	-0.4128	-0.1996	0.1406	0.4627	0.4672	0.2132
-0.186	0.0953	0.1497	-0.068	0.5716	0.3811	0.2631	0.5897	0.4491	0.4672	0.4355	0.2949	0.4037	0.1134	-0.5852	-0.4718	-0.2314	0.0998	0.4809	0.4037	0.2177
-0.2359	0.059	0.059	-0.0544	0.5353	0.3402	0.2404	0.5534	0.3221	0.3992	0.3901	0.186	0.3674	0.1179	-0.5852	-0.558	-0.2359	0.0907	0.4763	0.3992	0.1815
-0.2676	0.0363	0.0544	-0.0499	0.5308	0.254	0.254	0.5308	0.2495	0.4173	0.372	0.1225	0.3448	0.1497	-0.5534	-0.5943	-0.2676	0.0544	0.5081	0.3448	0.1678
-0.3493	0.0091	0.0136	-0.0454	0.4718	0.1633	0.2631	0.5035	0.1225	0.3674	0.3538	0.0454	0.3085	0.127	-0.558	-0.6578	-0.2722	0.0091	0.5353	0.3221	0.1769
-0.3221	0.0227	-0.0091	-0.0136	0.4718	0.127	0.2676	0.4854	-0.0136	0.3674	0.3312	-0.0227	0.2813	0.1452	-0.4854	-0.6669	-0.2813	0.0227	0.5852	0.2858	0.1996
-0.2903	0.0272	0.0181	0.0318	0.4809	0.0907	0.2767	0.4536	-0.0817	0.3221	0.3402	-0.068	0.2722	0.1588	-0.4536	-0.6759	-0.3039	-0.0045	0.6442	0.2586	0.2359
-0.2767	0.0635	0.0136	0.0907	0.4582	0.0635	0.2994	0.4809	-0.1633	0.3039	0.3312	-0.1361	0.3039	0.1361	-0.4128	-0.6941	-0.2722	-0.0272	0.7304	0.2676	0.2631
-0.2359	0.0544	0.0499	0.1452	0.4672	0.0181	0.3402	0.4718	-0.2268	0.2994	0.313	-0.1951	0.245	0.1179	-0.4219	-0.6895	-0.245	-0.0318	0.8302	0.2722	0.2949
-0.1996	0.1588	0.0771	0.1724	0.4763	0	0.3357	0.4718	-0.2949	0.2903	0.3221	-0.2268	0.2132	0.1043	-0.372	-0.7213	-0.2087	-0.0771	0.9118	0.2676	0.3448
-0.1678	0.1497	0.0907	0.1951	0.4718	-0.0272	0.3584	0.4355	-0.3493	0.2767	0.3312	-0.2858	0.2314	0.0771	-0.3856	-0.7667	-0.1678	-0.0907	1.0252	0.2676	0.3674
-0.1406	0.1905	0.1361	0.2722	0.4899	-0.0318	0.3448	0.4718	-0.3811	0.2631	0.3493	-0.3085	0.2132	0.0499	-0.3992	-0.8392	-0.0953	-0.1497	1.1477	0.2314	0.4264
-0.0726	0.2177	0.1815	0.2813	0.4763	-0.0635	0.313	0.4536	-0.4219	0.2359	0.3629	-0.3266	0.1724	0.0136	-0.44	-0.9164	-0.0454	-0.1588	1.2747	0.2268	0.4854
-0.0091	0.2631	0.2223	0.3039	0.5398	-0.068	0.3175	0.4945	-0.4763	0.1951	0.372	-0.3584	0.1452	-0.0181	-0.4899	-1.0207	0.0227	-0.2041	1.37	0.2087	0.5081
0.0091	0.2813	0.2177	0.3039	0.5126	-0.0953	0.2813	0.4672	-0.499	0.1316	0.3901	-0.3765	0.1134	-0.0408	-0.5988	-1.125	0.0862	-0.254	1.4562	0.1724	0.567
0.0635	0.3312	0.245	0.3538	0.5353	-0.1134	0.2631	0.4854	-0.4945	0.1134	0.4128	-0.3901	0.1089	-0.0726	-0.6986	-1.2929	0.1406	-0.3312	1.5651	0.0998	0.5761
0.1089	0.431	0.2903	0.4037	0.5534	-0.1134	0.2495	0.5126	-0.5262	0.0907	0.4627	-0.3856	0.059	-0.0953	-0.7667	-1.4017	0.186	-0.3856	1.6331	0.0136	0.6124
0.1361	0.4854	0.3312	0.4173	0.5444	-0.1361	0.2177	0.5217	-0.5217	0.0318	0.4491	-0.3992	0	-0.1179	-0.8755	-1.5333	0.2404	-0.4491	1.683	-0.0363	0.6306
0.2314	0.5444	0.3856	0.4491	0.6033	-0.127	0.2041	0.5398	-0.5353	-0.0091	0.5081	-0.3947	-0.0363	-0.1452	-0.9526	-1.6649	0.2949	-0.5171	1.7102	-0.1542	0.6714
0.2813	0.6215	0.4264	0.5398	0.6306	-0.1225	0.186	0.5852	-0.5534	-0.0907	0.5171	-0.3947	-0.0771	-0.1815	-0.9935	-1.742	0.3538	-0.5807	1.7873	-0.2631	0.6986
0.3629	0.6895	0.4627	0.5625	0.6442	-0.1225	0.1406	0.6033	-0.5489	-0.1316	0.5489	-0.4083	-0.1089	-0.2041	-1.0298	-1.7692	0.4219	-0.6532	1.8282	-0.3493	0.744
0.44	0.7757	0.5171	0.6079	0.7031	-0.0817	0.1361	0.6487	-0.5308	-0.1678	0.567	-0.3901	-0.1588	-0.2268	-1.0162	-1.7647	0.4809	-0.7258	1.8282	-0.5081	0.7757
0.5398	0.8982	0.5852	0.6805	0.744	-0.0907	0.1406	0.6759	-0.5126	-0.2087	0.5807	-0.3811	-0.1678	-0.2676	-0.9481	-1.7238	0.5308	-0.7893	1.8327	-0.6442	0.8166
0.6306	1.0116	0.6532	0.6986	0.8256	-0.0771	0.0862	0.7258	-0.499	-0.2858	0.626	-0.3765	-0.2404	-0.2949	-0.9118	-1.624	0.5943	-0.8619	1.8372	-0.7621	0.8166
0.7485	1.1205	0.7122	0.7394	0.8891	-0.0272	0.0862	0.7939	-0.4718	-0.3175	0.6442	-0.3629	-0.2676	-0.3175	-0.8211	-1.4653	0.626	-0.9164	1.8645	-0.8619	0.8211
0.9027	1.2384	0.7848	0.7984	0.9708	0.0091	0.059	0.8483	-0.4491	-0.3402	0.6442	-0.3085	-0.2722	-0.313	-0.7031	-1.3019	0.6442	-0.9526	1.869	-0.9572	0.8256
1.0025	1.3382	0.8438	0.8392	1.0434	0.0408	0.068	0.8937	-0.4173	-0.372	0.685	-0.313	-0.3039	-0.3402	-0.6396	-1.1069	0.6759	-0.9799	1.8962	-1.057	0.8846
1.1069	1.4471	0.9118	0.8483	1.1023	0.0635	0.0499	0.9254	-0.372	-0.3811	0.6805	-0.2813	-0.3039	-0.3538	-0.5217	-0.9164	0.6669	-1.0071	1.937	-1.0978	0.8528
1.2248	1.5696	0.9889	0.8891	1.1613	0.127	0.068	0.9844	-0.3448	-0.3947	0.685	-0.2359	-0.313	-0.3312	-0.4219	-0.6895	0.6623	-1.0116	1.9144	-1.184	0.8256
1.3382	1.6059	1.0207	0.93	1.1795	0.1089	0.0544	1.0162	-0.3402	-0.3992	0.6941	-0.245	-0.3266	-0.3357	-0.3493	-0.4945	0.6623	-1.0071	1.9144	-1.1568	0.8574
1.4471	1.7011	1.0706	0.9617	1.2158	0.1678	0.0862	1.0207	-0.3402	-0.3901	0.685	-0.2177	-0.3538	-0.3221	-0.2495	-0.3085	0.6306	-0.998	1.8962	-1.1386	0.8665
1.5106	1.7284	1.0842	0.9617	1.184	0.1542	0.1089	1.0071	-0.3266	-0.4173	0.626	-0.1996	-0.3312	-0.3175	-0.1951	-0.1996	0.6169	-0.9753	1.8372	-1.0887	0.8392
1.5378	1.7329	1.0797	0.9572	1.1704	0.1225	0.0726	0.9617	-0.3765	-0.4536	0.5852	-0.2404	-0.3765	-0.3175	-0.1406	-0.0817	0.6079	-0.998	1.751	-1.057	0.7712
1.5787	1.7601	1.0887	0.9889	1.1386	0.0998	0.0953	0.9526	-0.3811	-0.4083	0.499	-0.2132	-0.3765	-0.2767	-0.0998	0.0045	0.558	-0.939	1.6921	-0.9617	0.7485
1.6013	1.7692	1.0842	1.0025	1.0797	0.0817	0.1361	0.8846	-0.3947	-0.4173	0.4446	-0.2586	-0.3947	-0.2631	-0.059	0.0817	0.4899	-0.9118	1.6286	-0.8891	0.6759
1.5968	1.7692	1.0388	0.9935	1.0479	0.0363	0.1316	0.8075	-0.4491	-0.4446	0.3629	-0.2858	-0.431	-0.2268	-0.0635	0.0771	0.4582	-0.9254	1.5152	-0.7803	0.5943
1.6059	1.7374	1.057	1.0252	1.0207	0.0181	0.1406	0.7394	-0.4672	-0.4173	0.245	-0.2903	-0.4536	-0.1951	0	0.0544	0.3856	-0.8891	1.4426	-0.6759	0.5171
1.5923	1.7102	0.998	1.0162	0.9254	-0.0136	0.1633	0.6351	-0.5217	-0.4672	0.127	-0.3448	-0.4672	-0.1815	-0.0408	0	0.3448	-0.8937	1.3382	-0.5716	0.4627
1.5242	1.6422	0.9436	0.9663	0.8347	-0.059	0.1633	0.5444	-0.5534	-0.4718	0.0227	-0.3901	-0.5081	-0.1633	-0.0726	-0.0998	0.2994	-0.8619	1.3246	-0.4854	0.3765
1.4879	1.5968	0.9209	0.939	0.7667	-0.0726	0.186	0.4809	-0.5761	-0.44	-0.0726	-0.3811	-0.5035	-0.1134	-0.0227	-0.1542	0.2404	-0.8483	1.2838	-0.3584	0.313
1.4426	1.5333	0.8755	0.9526	0.7168	-0.0817	0.2177	0.4355	-0.6169	-0.4536	-0.1678	-0.372	-0.4672	-0.0953	-0.0318	-0.2903	0.186	-0.8302	1.2929	-0.2722	0.2994
1.4108	1.4653	0.8528	0.9118	0.6578	-0.1089	0.2359	0.3312	-0.6396	-0.44	-0.2404	-0.3992	-0.4899	-0.0817	-0.0272	-0.3584	0.1406	-0.7893	1.2838	-0.1996	0.254
1.3428	1.3972	0.812	0.9254	0.6079	-0.0998	0.2631	0.2676	-0.6442	-0.3992	-0.2722	-0.3765	-0.4627	-0.0408	-0.068	-0.5444	0.0817	-0.7712	1.3292	-0.1542	0.254
1.2566	1.3156	0.7667	0.871	0.5716	-0.1134	0.3039	0.2268	-0.6578	-0.372	-0.3674	-0.3629	-0.4536	-0.0408	-0.1089	-0.6714	0.059	-0.7893	1.3518	-0.1406	0.2177
1.184	1.2294	0.7576	0.8392	0.5444	-0.0998	0.3312	0.1951	-0.6396	-0.3402	-0.4219	-0.3538	-0.4355	-0.0227	-0.1406	-0.7349	0.0318	-0.7757	1.3246	-0.1361	0.2132
1.1296	1.1341	0.7122	0.8211	0.4763	-0.0953	0.3402	0.1316	-0.6396	-0.3085	-0.4627	-0.3357	-0.4355	-0.0045	-0.1588	-0.871	0.0091	-0.7712	1.3518	-0.1542	0.1769
1.0661	1.0661	0.7031	0.8166	0.4763	-0.0771	0.3765	0.0998	-0.626	-0.2631	-0.4854	-0.3175	-0.3992	0.0181	-0.127	-0.9481	-0.0318	-0.7803	1.3791	-0.1497	0.1905
1.0162	0.9935	0.6986	0.7893	0.4718	-0.0408	0.3947	0.0771	-0.6169	-0.245	-0.5081	-0.2858	-0.4128	0	-0.1497	-1.0071	-0.0181	-0.8166	1.3836	-0.2041	0.1497
0.9617	0.939	0.7031	0.7712	0.4582	-0.059	0.4037	0.0726	-0.5988	-0.2177	-0.5534	-0.254	-0.4219	0.0091	-0.1452	-1.0524	-0.0318	-0.8211	1.4335	-0.254	0.1815
0.8891	0.8392	0.6714	0.7349	0.4763	-0.0363	0.4128	0.0907	-0.5761	-0.2041	-0.5852	-0.2041	-0.4083	0.0091	-0.186	-1.0978	-0.0318	-0.8392	1.4743	-0.3085	0.1815
0.8528	0.8211	0.6941	0.7304	0.4809	0	0.4128	0.0907	-0.5217	-0.1905	-0.5716	-0.1769	-0.3992	0.0136	-0.245	-1.1568	-0.0499	-0.8483	1.5741	-0.3674	0.2359
0.8438	0.8166	0.6986	0.7621	0.5171	0.0454	0.431	0.1089	-0.4491	-0.1724	-0.5534	-0.1134	-0.3901	0.0272	-0.2767	-1.2203	-0.0771	-0.8483	1.6875	-0.3992	0.245
0.7848	0.7939	0.6986	0.7394	0.5716	0.0726	0.4536	0.1769	-0.4083	-0.1633	-0.5444	-0.0544	-0.3765	0.0272	-0.3765	-1.252	-0.068	-0.8665	1.8146	-0.4037	0.2722
0.7712	0.7712	0.7077	0.7304	0.6759	0.1542	0.5126	0.2268	-0.3312	-0.1134	-0.4899	-0.0045	-0.3674	0.0363	-0.4173	-1.311	-0.068	-0.8755	1.9643	-0.4128	0.3085
0.7394	0.8029	0.744	0.7349	0.7258	0.2177	0.5308	0.313	-0.254	-0.0817	-0.4491	0.0363	-0.3448	0.0408	-0.4809	-1.3881	-0.0817	-0.8528	2.0958	-0.3765	0.3765
0.7077	0.8166	0.753	0.7213	0.812	0.2586	0.5171	0.3674	-0.1905	-0.0544	-0.4037	0.0771	-0.3538	0.0408	-0.5625	-1.4516	-0.0907	-0.8347	2.2501	-0.3448	0.4355
0.7168	0.8528	0.7893	0.744	0.9254	0.3266	0.5943	0.4763	-0.1089	-0.0136	-0.3584	0.1497	-0.3039	0.0544	-0.6306	-1.5061	-0.1089	-0.8166	2.3725	-0.2949	0.5035
0.685	0.8619	0.7893	0.7621	0.998	0.3992	0.6215	0.5353	-0.0318	0.0363	-0.313	0.1996	-0.2903	0.0454	-0.6714	-1.6013	-0.1043	-0.7803	2.495	-0.2314	0.5489
0.7304	0.93	0.8574	0.7667	1.1023	0.4672	0.6578	0.6442	0.0544	0.0635	-0.2722	0.2495	-0.2495	0.059	-0.6941	-1.5923	-0.1179	-0.7667	2.5948	-0.1996	0.6351
0.7485	1.0025	0.9118	0.8302	1.2702	0.5897	0.6986	0.7893	0.1678	0.1134	-0.1633	0.3221	-0.2087	0.068	-0.7258	-1.6467	-0.1179	-0.7213	2.7173	-0.1588	0.6895
0.7667	1.057	0.9526	0.8755	1.3791	0.6759	0.7258	0.8392	0.2676	0.127	-0.0907	0.4083	-0.1769	0.0771	-0.7258	-1.6694	-0.1316	-0.6714	2.8035	-0.0907	0.7803
0.7485	1.0978	0.9663	0.8891	1.4562	0.7394	0.7394	0.9209	0.3402	0.1633	-0.059	0.4128	-0.1316	0.059	-0.7757	-1.7011	-0.1134	-0.6442	2.8352	-0.0635	0.812
0.7803	1.1704	1.0388	0.9118	1.5923	0.7984	0.7576	1.0162	0.4173	0.1815	-0.0318	0.499	-0.1497	0.0318	-0.8029	-1.7556	-0.0726	-0.6079	2.8806	0.0136	0.8846
0.8075	1.2384	1.0615	0.9345	1.6739	0.8665	0.7621	1.0661	0.4899	0.2177	0.0181	0.499	-0.1134	0.0363	-0.8302	-1.7601	-0.0454	-0.567	2.9169	0.0726	0.939
0.8075	1.3156	1.0887	0.93	1.7556	0.9345	0.7621	1.1522	0.5716	0.2177	0.059	0.5353	-0.1316	-0.0091	-0.8574	-1.7193	-0.0091	-0.5444	2.9532	0.0998	0.998
0.812	1.3655	1.1069	0.9481	1.8282	0.9617	0.744	1.1976	0.5897	0.2177	0.0998	0.5716	-0.1316	-0.0181	-0.8256	-1.6966	0.0318	-0.5308	2.9759	0.1134	1.0298
0.8438	1.4199	1.1522	0.93	1.9098	1.0298	0.7304	1.2203	0.6351	0.2314	0.1089	0.5534	-0.1316	-0.0272	-0.7848	-1.6649	0.0726	-0.5262	2.9895	0.1678	1.0343
0.8619	1.5106	1.2021	0.93	1.9688	1.1069	0.7168	1.2611	0.7077	0.2404	0.1406	0.5534	-0.1043	-0.0363	-0.7712	-1.5923	0.0907	-0.4854	3.0303	0.2132	1.0797
0.9073	1.5424	1.2021	0.9027	1.9915	1.125	0.6895	1.3019	0.7122	0.245	0.1361	0.5444	-0.1452	-0.0544	-0.753	-1.5424	0.1361	-0.4809	3.0303	0.2586	1.1205
0.9345	1.6422	1.243	0.9164	2.0414	1.1659	0.7031	1.3428	0.7712	0.254	0.1452	0.5444	-0.1406	-0.0862	-0.7077	-1.497	0.1588	-0.4536	3.0621	0.313	1.1704
0.9753	1.6694	1.2747	0.9345	2.055	1.2067	0.685	1.3609	0.7939	0.2586	0.1406	0.5308	-0.1316	-0.0953	-0.6714	-1.3927	0.186	-0.4763	3.0575	0.3402	1.1976
1.0162	1.6875	1.2838	0.9617	2.0958	1.2294	0.685	1.3836	0.8029	0.2586	0.1724	0.5534	-0.127	-0.0998	-0.6442	-1.3745	0.1996	-0.4582	3.0757	0.3538	1.243
1.0162	1.742	1.3201	0.939	2.0686	1.2611	0.685	1.3836	0.8438	0.3039	0.1497	0.5081	-0.1452	-0.1179	-0.6487	-1.3791	0.2359	-0.4672	3.1301	0.3629	1.2793
1.0797	1.7556	1.3246	0.9481	2.0822	1.2883	0.7122	1.3927	0.8438	0.3039	0.1724	0.5081	-0.1678	-0.1179	-0.6306	-1.3655	0.2404	-0.4491	3.1301	0.3357	1.3201
1.0842	1.7374	1.3156	0.9708	2.055	1.2883	0.7077	1.3836	0.8392	0.3175	0.1769	0.4536	-0.186	-0.1316	-0.6306	-1.4063	0.2631	-0.499	3.1664	0.2858	1.3564
1.1023	1.7329	1.3292	0.9708	2.0459	1.3065	0.6986	1.3745	0.8483	0.3357	0.1996	0.431	-0.1951	-0.1452	-0.6805	-1.4743	0.2586	-0.4945	3.1936	0.2268	1.4199
1.0797	1.7329	1.311	0.9753	2.0051	1.2974	0.7031	1.3655	0.8619	0.3312	0.2041	0.4083	-0.2268	-0.1497	-0.7667	-1.5378	0.2858	-0.5398	3.2571	0.1406	1.4471
1.0933	1.6966	1.2929	0.9753	1.9824	1.2929	0.7485	1.3655	0.8347	0.3901	0.2359	0.3856	-0.2177	-0.1497	-0.8619	-1.6649	0.2903	-0.5353	3.3116	0.0862	1.4879
1.0887	1.7102	1.3156	0.998	2.0096	1.3065	0.7667	1.3972	0.8392	0.4083	0.2495	0.3811	-0.186	-0.1406	-0.9526	-1.7873	0.2631	-0.5398	3.4068	0.0726	1.5378
1.0933	1.7238	1.3019	1.0933	1.9597	1.2974	0.8029	1.3836	0.871	0.5035	0.2903	0.4037	-0.1542	-0.1179	-1.0887	-1.9008	0.2631	-0.5398	3.4658	0.0454	1.556
1.0842	1.683	1.2657	1.057	1.9325	1.2611	0.7893	1.3791	0.8392	0.4899	0.3039	0.4173	-0.1542	-0.1452	-1.2793	-2.0278	0.2903	-0.5308	3.5611	0.0091	1.5923
1.057	1.6739	1.2566	1.0887	1.8962	1.2657	0.8029	1.3836	0.8347	0.5035	0.3357	0.3947	-0.1361	-0.1542	-1.3428	-2.123	0.3175	-0.499	3.6427	0.0363	1.6467
1.0479	1.6331	1.2021	1.0933	1.9098	1.2339	0.8075	1.3972	0.8211	0.558	0.3947	0.431	-0.0953	-0.1815	-1.4789	-2.2364	0.3629	-0.4355	3.7062	0.068	1.6875
1.0388	1.6104	1.2158	1.1069	1.8645	1.2158	0.8029	1.4063	0.8029	0.5444	0.44	0.4446	-0.0726	-0.1996	-1.5514	-2.2773	0.4173	-0.4355	3.7879	0.1542	1.7057
1.0207	1.5832	1.2021	1.0661	1.8282	1.1477	0.7712	1.4154	0.744	0.5262	0.4899	0.44	-0.0408	-0.2359	-1.5651	-2.2909	0.4809	-0.4128	3.8514	0.1905	1.742
1.0162	1.5288	1.1659	1.0661	1.8418	1.1296	0.7621	1.438	0.7349	0.5625	0.5353	0.4355	0	-0.2586	-1.6104	-2.2591	0.5353	-0.3856	3.8877	0.2949	1.7828
1.0524	1.5242	1.1386	1.0388	1.8055	1.0933	0.7168	1.429	0.6805	0.5353	0.5489	0.4037	0.0227	-0.2949	-1.5696	-2.2092	0.5988	-0.3266	3.9512	0.3901	1.7828
1.0388	1.4698	1.1114	1.0071	1.8236	1.0434	0.6986	1.4471	0.6578	0.5081	0.6169	0.3992	0.0272	-0.3312	-1.5424	-2.1276	0.6578	-0.2949	3.9648	0.4672	1.8146
1.0751	1.4879	1.1386	0.9617	1.8009	1.0025	0.6532	1.4562	0.6351	0.5081	0.6895	0.3947	0.0408	-0.3538	-1.3881	-2.0051	0.7168	-0.2495	3.9966	0.5625	1.8372
1.0434	1.4335	1.057	0.8982	1.7692	0.9708	0.5897	1.4335	0.567	0.4446	0.7213	0.3629	0.0318	-0.3901	-1.3292	-1.9189	0.7893	-0.2132	4.0419	0.626	1.8463
1.0524	1.438	1.0661	0.7984	1.7828	0.939	0.5217	1.4516	0.5308	0.3901	0.7803	0.3674	0.068	-0.4173	-1.1795	-1.8236	0.8347	-0.1633	4.0102	0.6986	1.8781
1.0116	1.4063	1.0434	0.7122	1.7556	0.9073	0.4763	1.4607	0.4854	0.3584	0.8483	0.3448	0.0726	-0.431	-1.0978	-1.7556	0.8846	-0.1588	4.0555	0.7394	1.8826
1.0298	1.3836	1.0116	0.6215	1.751	0.8937	0.3811	1.4789	0.4627	0.2994	0.8891	0.3811	0.0817	-0.4491	-0.9799	-1.7284	0.9209	-0.1225	4.0283	0.7621	1.9144
0.9799	1.3745	0.998	0.5217	1.7238	0.8483	0.2994	1.4743	0.44	0.2404	0.9209	0.3856	0.0635	-0.4718	-0.9118	-1.7284	0.9481	-0.1361	4.0238	0.7485	1.9325
0.9481	1.3292	0.9572	0.4264	1.683	0.8302	0.2314	1.4789	0.3765	0.1678	1.0025	0.3992	0.0771	-0.4809	-0.8755	-1.7737	0.9572	-0.1134	4.0238	0.744	1.9507
0.8755	1.2929	0.9027	0.3085	1.6603	0.7803	0.1633	1.4698	0.3629	0.0953	1.0524	0.4264	0.0499	-0.4809	-0.9027	-1.9098	0.9572	-0.1134	3.9966	0.7122	1.9325
0.8438	1.252	0.8891	0.2495	1.5968	0.744	0.0998	1.429	0.3221	0.0363	1.0706	0.431	0.0499	-0.4763	-0.9164	-1.996	0.9708	-0.1316	3.9421	0.6805	1.9144
0.7712	1.184	0.8347	0.1678	1.5424	0.6986	0.0544	1.3972	0.2949	-0.0454	1.1069	0.4763	0.0272	-0.4854	-0.9753	-2.1775	0.9663	-0.1769	3.8514	0.6079	1.8871
0.7258	1.1296	0.8075	0.1361	1.4743	0.6623	0.0318	1.3564	0.2404	-0.068	1.1205	0.4809	0.0363	-0.4672	-1.0298	-2.3	0.9481	-0.1905	3.7652	0.5489	1.8781
0.6487	1.0615	0.7667	0.0454	1.3609	0.5897	-0.0227	1.2883	0.1678	-0.1361	1.0887	0.4718	-0.0227	-0.4718	-1.116	-2.4633	0.9436	-0.2087	3.6518	0.4627	1.8418
0.6215	0.998	0.7485	0.0272	1.2929	0.5217	-0.0771	1.2021	0.0817	-0.186	1.0751	0.4128	-0.068	-0.4582	-1.1931	-2.5358	0.8937	-0.2767	3.5565	0.3266	1.7783
0.5943	0.9436	0.6805	0.0227	1.1795	0.4672	-0.0998	1.1205	0	-0.2359	1.0343	0.3765	-0.0998	-0.4173	-1.2974	-2.6311	0.8528	-0.2767	3.4613	0.2132	1.742
0.5807	0.8574	0.6532	-0.0136	1.0978	0.3856	-0.1361	1.0479	-0.0998	-0.3039	0.9708	0.2767	-0.1724	-0.4173	-1.4063	-2.6765	0.8347	-0.3629	3.3842	0.059	1.6785
0.6169	0.8392	0.6759	-0.0136	1.0298	0.3901	-0.1497	1.0116	-0.1724	-0.3221	0.9118	0.1905	-0.1905	-0.3856	-1.497	-2.7082	0.7621	-0.3765	3.3297	-0.0544	1.6603
0.6351	0.8347	0.6396	0.0091	0.9799	0.3175	-0.1633	0.9526	-0.2631	-0.372	0.8574	0.0771	-0.2404	-0.3629	-1.5469	-2.6946	0.7258	-0.4355	3.307	-0.1542	1.6286
0.6895	0.8665	0.6578	0.0408	0.998	0.3402	-0.1497	0.9118	-0.3402	-0.3493	0.8256	-0.0181	-0.254	-0.3402	-1.6013	-2.6311	0.685	-0.4491	3.366	-0.2359	1.6467
0.7576	0.9027	0.7031	0.1043	0.9935	0.3312	-0.1316	0.9209	-0.3811	-0.3811	0.8256	-0.1089	-0.2949	-0.3266	-1.6467	-2.6084	0.6487	-0.4718	3.3842	-0.2994	1.6603
0.8302	0.9572	0.753	0.1769	1.0661	0.3538	-0.1134	0.9254	-0.4173	-0.3765	0.7803	-0.2223	-0.3266	-0.313	-1.6422	-2.5177	0.6215	-0.4899	3.425	-0.3493	1.6921
0.9436	1.0524	0.8075	0.2495	1.116	0.3538	-0.0635	0.9617	-0.4355	-0.3674	0.7848	-0.2858	-0.3357	-0.2903	-1.6059	-2.4497	0.5897	-0.4945	3.5293	-0.3584	1.7329
0.998	1.0978	0.8483	0.3402	1.1613	0.3856	-0.0544	0.9935	-0.4491	-0.3493	0.8029	-0.3538	-0.3402	-0.2813	-1.6331	-2.4134	0.5716	-0.4854	3.5974	-0.3765	1.7873
1.0751	1.1704	0.9073	0.3765	1.2248	0.4264	-0.0045	1.0479	-0.431	-0.3175	0.8438	-0.3674	-0.3493	-0.2722	-1.615	-2.368	0.567	-0.4899	3.6699	-0.3538	1.8372
1.1205	1.2657	0.9526	0.5171	1.3473	0.4763	0.0318	1.0842	-0.4037	-0.2813	0.8347	-0.3901	-0.3312	-0.2631	-1.6013	-2.368	0.5353	-0.5171	3.7335	-0.3538	1.869
1.1522	1.2747	0.9799	0.5398	1.3745	0.4945	0.0363	1.1205	-0.3856	-0.2676	0.8392	-0.3856	-0.3402	-0.2586	-1.6013	-2.3952	0.5308	-0.5171	3.8015	-0.3175	1.9008
1.1341	1.3019	0.9889	0.5943	1.4562	0.5035	0.059	1.1386	-0.3357	-0.2177	0.8302	-0.4128	-0.3357	-0.2586	-1.6286	-2.4451	0.5217	-0.499	3.8242	-0.3085	1.9416
1.0978	1.3065	0.9799	0.6033	1.5106	0.499	0.0544	1.1704	-0.3039	-0.2314	0.8574	-0.3448	-0.2903	-0.254	-1.6875	-2.5222	0.5126	-0.5171	3.8559	-0.2767	1.9915
1.0797	1.3156	0.9617	0.6215	1.5242	0.5353	0.0454	1.2248	-0.2404	-0.2132	0.8937	-0.2631	-0.2858	-0.2404	-1.7374	-2.5812	0.499	-0.4899	3.9149	-0.2223	1.9915
0.9708	1.2929	0.8891	0.6079	1.5605	0.5308	0	1.243	-0.1905	-0.1996	0.9209	-0.1497	-0.2586	-0.2586	-1.8418	-2.6855	0.499	-0.5126	3.9603	-0.2314	2.0187
0.9209	1.2747	0.8528	0.6079	1.5968	0.5353	0	1.2611	-0.1089	-0.1996	0.9799	0.0136	-0.2132	-0.2495	-1.9008	-2.7717	0.4854	-0.4945	3.983	-0.1951	2.0595
0.8166	1.2203	0.7939	0.558	1.624	0.5353	-0.0408	1.2838	-0.0272	-0.1905	1.057	0.2268	-0.1588	-0.2359	-2.0232	-2.8761	0.4899	-0.4899	4.0465	-0.1452	2.123
0.7168	1.2021	0.7349	0.499	1.6059	0.5262	-0.1043	1.3201	0.1043	-0.1588	1.1296	0.4491	-0.0771	-0.245	-2.114	-2.9668	0.499	-0.4582	4.11	-0.1225	2.1366
0.5988	1.1477	0.6442	0.4219	1.624	0.5534	-0.1724	1.3655	0.2676	-0.1588	1.2747	0.7258	0.0635	-0.2359	-2.2501	-3.0757	0.4854	-0.3947	4.2279	-0.0726	2.2228
0.4945	1.1296	0.567	0.3493	1.6195	0.5943	-0.1815	1.438	0.4446	-0.0998	1.3836	1.0751	0.1996	-0.2268	-2.3453	-3.1573	0.4718	-0.3402	4.3277	-0.0363	2.2637
0.3584	1.0706	0.5126	0.2903	1.6558	0.6532	-0.2495	1.5424	0.6669	-0.0408	1.556	1.4789	0.3765	-0.2314	-2.4406	-3.2299	0.4536	-0.2813	4.4185	-0.0181	2.3952
0.2813	1.0842	0.4627	0.2676	1.6875	0.7077	-0.2132	1.6558	0.8891	0.0499	1.7692	1.9189	0.5852	-0.2087	-2.5495	-3.2934	0.431	-0.1678	4.5409	0.0227	2.4814
0.1769	1.0887	0.4083	0.2404	1.742	0.7893	-0.2177	1.7737	1.1795	0.1497	2.0006	2.4088	0.8483	-0.1905	-2.6447	-3.3705	0.4037	-0.068	4.6453	0.0726	2.5948
0.0726	1.0933	0.3811	0.2177	1.8372	0.8846	-0.2314	1.9461	1.4925	0.2903	2.2455	2.9487	1.1477	-0.1815	-2.7309	-3.4567	0.3901	0.0998	4.7632	0.1678	2.7309
0.0227	1.1386	0.3901	0.2041	1.9325	1.0252	-0.1588	2.1004	1.8327	0.4582	2.5404	3.4976	1.4335	-0.1815	-2.7944	-3.5112	0.3584	0.2041	4.8585	0.186	2.8579
-0.068	1.2203	0.3674	0.2223	2.0187	1.1704	-0.1225	2.2954	2.1911	0.626	2.8352	4.0828	1.8191	-0.1588	-2.867	-3.5792	0.3312	0.3765	4.9537	0.2767	3.0258
-0.1179	1.2294	0.3765	0.1905	2.1094	1.3019	-0.0771	2.4497	2.5268	0.8211	3.1256	4.6407	2.1593	-0.1588	-2.9441	-3.6654	0.3039	0.5807	5.0127	0.3448	3.1573
-0.1678	1.3065	0.4037	0.2268	2.2228	1.5106	0.0045	2.6583	2.9033	0.9935	3.425	5.2078	2.5313	-0.1542	-2.9804	-3.7108	0.3039	0.744	5.0762	0.4491	3.3161
-0.2268	1.3564	0.4219	0.2495	2.3317	1.6603	0.0862	2.8398	3.2753	1.2112	3.7153	5.7658	2.9487	-0.1542	-3.0757	-3.7834	0.3085	0.9708	5.1896	0.5035	3.4613
-0.2495	1.4199	0.4582	0.2994	2.4043	1.8463	0.1815	3.0303	3.6563	1.429	3.9966	6.2965	3.3479	-0.127	-3.0711	-3.8469	0.2903	1.1613	5.2577	0.6396	3.6064
-0.2087	1.5106	0.558	0.3448	2.5404	2.055	0.3266	3.2118	4.051	1.683	4.3141	6.8454	3.7561	-0.127	-3.1074	-3.8423	0.2631	1.3836	5.3257	0.7349	3.7607
-0.2041	1.615	0.6714	0.4037	2.6583	2.2591	0.4718	3.4068	4.4094	1.9643	4.5954	7.349	4.1962	-0.1179	-3.18	-3.8786	0.2586	1.5923	5.421	0.8619	3.9376
-0.2041	1.6603	0.7258	0.4536	2.7354	2.4633	0.5852	3.5475	4.7179	2.1775	4.8494	7.7482	4.5682	-0.1588	-3.239	-3.9104	0.3039	1.7284	5.5072	0.9481	4.0828
-0.1678	1.7556	0.8256	0.5625	2.8534	2.6901	0.7213	3.7017	5.049	2.4542	5.0989	8.1655	4.9855	-0.1542	-3.2753	-3.924	0.2903	1.9325	5.6161	1.0661	4.2325
-0.1089	1.7964	0.9164	0.5852	2.9487	2.8489	0.8528	3.8559	5.3303	2.7082	5.2985	8.5194	5.3666	-0.1678	-3.3479	-3.9739	0.3266	2.0913	5.7068	1.1613	4.3686
-0.0953	1.8418	0.9799	0.6714	2.9713	2.9895	0.9844	3.9376	5.548	2.9169	5.4845	8.8006	5.7249	-0.2041	-3.4703	-4.0465	0.3856	2.2637	5.7839	1.2248	4.4729
-0.0181	1.8599	1.0842	0.7485	3.0258	3.1573	1.125	4.0419	5.7748	3.1664	5.675	9.0546	6.0606	-0.2087	-3.5792	-4.0782	0.4173	2.4134	5.8973	1.3382	4.6226
0.0318	1.8781	1.1522	0.812	3.0303	3.2707	1.1885	4.0601	5.9291	3.3252	5.7839	9.1817	6.36	-0.245	-3.6836	-4.2007	0.4627	2.5721	5.988	1.4108	4.7496
0.059	1.8781	1.243	0.8982	3.0122	3.3705	1.3156	4.1009	6.0606	3.5021	5.9064	9.286	6.6413	-0.245	-3.8015	-4.2914	0.4945	2.7218	6.0742	1.5288	4.8721
0.1089	1.8554	1.3428	0.9526	3.0167	3.4431	1.3972	4.11	6.1332	3.6699	5.9744	9.3314	6.8817	-0.254	-3.8877	-4.3595	0.5081	2.8489	6.1196	1.6195	4.9311
0.1815	1.8508	1.4335	1.0252	2.9849	3.5384	1.4789	4.1009	6.2103	3.797	6.0379	9.3268	7.104	-0.2586	-4.0056	-4.4321	0.4899	2.9804	6.165	1.6875	5.0173
0.245	1.8735	1.5469	1.116	2.9487	3.5792	1.5197	4.0737	6.2013	3.9376	6.0606	9.2588	7.2855	-0.2314	-4.0737	-4.5001	0.4536	3.0893	6.2103	1.8055	5.1125
0.3085	1.8463	1.5696	1.1613	2.8988	3.62	1.6013	4.0192	6.165	4.0283	6.0379	9.1408	7.4533	-0.2041	-4.1689	-4.5682	0.4264	3.1709	6.2648	1.8645	5.1624
0.3947	1.8554	1.7193	1.2611	2.8715	3.6518	1.6512	3.9648	6.1377	4.0918	6.0561	8.9685	7.5576	-0.1815	-4.2415	-4.6498	0.3493	3.2617	6.3011	1.9325	5.2032
0.4355	1.81	1.7737	1.3065	2.8171	3.6337	1.6966	3.8514	6.0243	4.1327	6.0107	8.7371	7.662	-0.1497	-4.2642	-4.7179	0.2903	3.3206	6.3056	2.0006	5.2214
0.5398	1.7873	1.8508	1.3609	2.7309	3.6291	1.7329	3.7743	5.8928	4.1871	5.9472	8.4785	7.6937	-0.1134	-4.3459	-4.7723	0.2223	3.366	6.3192	2.055	5.2395
0.5988	1.7148	1.9234	1.4199	2.6266	3.611	1.751	3.6337	5.7522	4.2007	5.8746	8.1837	7.7482	-0.0907	-4.3912	-4.804	0.1588	3.3842	6.3101	2.0822	5.2395
0.7077	1.7238	2.0414	1.5015	2.5948	3.6382	1.8009	3.5475	5.675	4.2642	5.7884	7.9024	7.7708	-0.0318	-4.3958	-4.8267	0.0635	3.3887	6.2648	2.0958	5.1896
0.8347	1.7465	2.1729	1.6286	2.5585	3.6473	1.8826	3.4658	5.5707	4.305	5.7159	7.6348	7.8117	0.0363	-4.4003	-4.8177	-0.068	3.4068	6.2648	2.1185	5.167
0.9889	1.7692	2.3136	1.7284	2.5358	3.6926	1.9643	3.3978	5.4981	4.3776	5.607	7.3762	7.8207	0.0817	-4.3912	-4.8177	-0.1633	3.3796	6.2194	2.123	5.1034
1.1023	1.7737	2.4406	1.8418	2.4996	3.7289	2.0777	3.3025	5.3983	4.3822	5.5208	7.0768	7.848	0.1406	-4.3958	-4.8313	-0.2676	3.3751	6.174	2.1775	5.0581
1.2929	1.8508	2.6175	1.9688	2.5132	3.8015	2.1684	3.2571	5.3529	4.4729	5.4301	6.8409	7.8933	0.1769	-4.4003	-4.795	-0.372	3.3705	6.1287	2.2138	4.9674
1.4789	1.9234	2.7944	2.1094	2.554	3.9058	2.2591	3.2208	5.3121	4.5545	5.3711	6.6322	7.9478	0.2177	-4.3186	-4.7451	-0.4627	3.3252	6.0742	2.2138	4.8812
1.6649	2.0278	2.9713	2.3045	2.6039	4.0147	2.3998	3.2208	5.3076	4.668	5.294	6.4371	7.9659	0.2586	-4.2914	-4.7405	-0.5398	3.2889	6.0334	2.241	4.7496
1.8781	2.2002	3.2118	2.495	2.7354	4.1599	2.554	3.2299	5.3529	4.7678	5.2849	6.2648	8.034	0.3221	-4.119	-4.6226	-0.6169	3.2617	6.0153	2.2682	4.6589
2.1185	2.3317	3.4295	2.6992	2.8262	4.3413	2.7037	3.2571	5.4346	4.8902	5.235	6.1241	8.1202	0.3357	-3.9194	-4.5273	-0.6759	3.2526	6.047	2.3317	4.5409
2.368	2.495	3.6836	2.8579	2.9668	4.5319	2.9124	3.2934	5.5208	5.0082	5.1987	6.0017	8.1746	0.3538	-3.7153	-4.3958	-0.6941	3.1709	6.0198	2.3725	4.3912
2.6447	2.7581	3.9693	3.0893	3.1483	4.7723	3.112	3.3978	5.6478	5.1896	5.1896	5.9291	8.2925	0.3493	-3.366	-4.1826	-0.7258	3.1347	6.0062	2.4406	4.305
2.9577	3.0076	4.2824	3.3569	3.3887	5.0626	3.3433	3.5112	5.8202	5.3892	5.235	5.9245	8.4105	0.372	-3.0348	-3.9875	-0.7349	3.0938	6.0289	2.5404	4.1689
3.307	3.2707	4.6044	3.5883	3.6427	5.3121	3.5701	3.6518	6.0062	5.5707	5.2214	5.9245	8.4695	0.3448	-2.5767	-3.6926	-0.7168	3.0076	6.0561	2.6084	4.051
3.6246	3.5974	4.9356	3.8786	3.9376	5.6297	3.8333	3.8877	6.2466	5.7658	5.2622	5.9835	8.6101	0.3266	-2.114	-3.4522	-0.6669	2.9713	6.0652	2.6901	3.9693
4.0283	3.9739	5.3121	4.1735	4.2325	5.9971	4.1372	4.0737	6.5052	5.988	5.3439	6.0652	8.7371	0.3085	-1.6603	-3.1301	-0.6169	2.9033	6.1151	2.8171	3.8741
4.423	4.3413	5.7522	4.4956	4.609	6.3872	4.4048	4.2824	6.7774	6.2693	5.4437	6.2194	8.8732	0.2722	-1.1296	-2.7853	-0.5625	2.8126	6.1695	2.8942	3.7879
4.8676	4.7768	6.1287	4.8539	5.0173	6.7728	4.7587	4.5682	7.1403	6.5324	5.5662	6.4009	9.0456	0.2767	-0.5988	-2.4224	-0.5217	2.7581	6.2738	3.0167	3.6881
5.2531	5.167	6.5324	5.1715	5.3756	7.172	5.0898	4.8222	7.4714	6.7728	5.675	6.6504	9.2134	0.2223	-0.1452	-2.0867	-0.4582	2.681	6.3283	3.112	3.6155
5.6796	5.607	6.9861	5.5253	5.7703	7.5758	5.4165	5.1034	7.8389	7.0541	5.7839	6.8999	9.3495	0.186	0.2813	-1.7964	-0.3856	2.6039	6.3963	3.1982	3.5293
6.106	6.0243	7.3853	5.8383	6.1377	7.9931	5.7567	5.4028	8.2154	7.3354	5.92	7.2219	9.5627	0.1724	0.6805	-1.438	-0.3357	2.4859	6.4326	3.2617	3.4386
6.5052	6.4417	7.8298	6.1695	6.5324	8.4014	6.047	5.6977	8.5783	7.5849	6.0289	7.5077	9.6398	0.1179	1.0071	-1.184	-0.245	2.4043	6.4961	3.2889	3.3433
6.9588	6.8863	8.2699	6.5551	6.9679	8.8823	6.4099	6.0153	9.032	7.8797	6.174	7.8389	9.8258	0.0953	1.37	-0.9118	-0.1951	2.2954	6.5415	3.3297	3.2571
7.3399	7.2809	8.6917	6.8999	7.3444	9.2905	6.7547	6.2829	9.4221	8.1474	6.2829	8.2018	10.0073	0.059	1.6694	-0.6351	-0.1179	2.1684	6.6231	3.366	3.1528
7.7391	7.6892	9.0819	7.2083	7.73	9.7306	7.0541	6.5732	9.7986	8.4059	6.4009	8.533	10.1298	0.0318	1.9144	-0.372	-0.0635	2.0686	6.673	3.4068	3.0847
8.1202	8.0793	9.5038	7.5213	8.1111	10.1298	7.4079	6.8726	10.2024	8.6645	6.5233	8.8868	10.2296	0.0045	2.1276	-0.1406	-0.0045	1.9688	6.7456	3.425	2.9986
8.5148	8.4332	9.8621	7.8389	8.4558	10.529	7.6847	7.1176	10.5653	8.8913	6.5868	9.1998	10.3158	-0.0136	2.3	0.1089	0.0499	1.8418	6.8182	3.425	2.9169
8.8777	8.7825	10.2341	8.1202	8.8097	10.9236	7.9841	7.3399	10.9055	9.1091	6.6504	9.5083	10.4065	-0.0227	2.4723	0.3266	0.0544	1.7556	6.8454	3.4703	2.8171
9.227	9.1454	10.6016	8.4468	9.1	11.2911	8.2971	7.5712	11.2367	9.345	6.6957	9.7895	10.4791	-0.0227	2.6402	0.5534	0.0454	1.6376	6.9135	3.5066	2.7309
9.5219	9.4357	10.9236	8.728	9.3767	11.6313	8.542	7.7346	11.5043	9.5038	6.7093	10.0481	10.5063	-0.0136	2.7354	0.8029	0.0318	1.5288	6.9225	3.5475	2.5994
9.8168	9.7306	11.214	8.9911	9.6126	11.9171	8.7643	7.9024	11.7719	9.6671	6.673	10.2659	10.4972	-0.0091	2.7944	0.9799	0.0272	1.4426	6.9044	3.5747	2.4859
10.0935	9.9619	11.468	9.2361	9.8304	12.1893	8.9866	8.0067	11.9625	9.8258	6.6594	10.4519	10.4972	0.0272	2.9033	1.2294	-0.0454	1.3337	6.8772	3.5928	2.368
10.3112	10.157	11.6676	9.4221	9.9755	12.4025	9.159	8.0929	12.085	9.8757	6.5279	10.5743	10.3974	0.0499	2.9849	1.4199	-0.0817	1.2384	6.8636	3.6064	2.241
10.4972	10.3112	11.8536	9.6262	10.1026	12.5976	9.286	8.1338	12.2029	9.9166	6.4009	10.6923	10.2976	0.0862	3.0802	1.5968	-0.1361	1.125	6.8137	3.5883	2.0641
10.6333	10.4156	11.9897	9.7351	10.1797	12.7019	9.3813	8.1247	12.3027	9.9347	6.2239	10.7467	10.1661	0.0953	3.1483	1.7102	-0.1815	0.9935	6.791	3.5656	1.9189
10.7467	10.5018	12.094	9.8531	10.2069	12.7972	9.4357	8.1111	12.3299	9.8939	6.0243	10.7603	9.9982	0.127	3.2072	1.8191	-0.2359	0.8619	6.7456	3.4749	1.7238
10.8193	10.5471	12.1349	9.8984	10.2114	12.8652	9.4765	8.0521	12.3209	9.8485	5.8157	10.7785	9.8258	0.1497	3.3116	1.8962	-0.2858	0.7077	6.6866	3.4114	1.5378
10.8329	10.5698	12.1575	9.9075	10.2024	12.838	9.413	7.975	12.2437	9.726	5.5752	10.7331	9.5763	0.1678	3.4431	1.9507	-0.3266	0.5716	6.6141	3.3252	1.3745
10.8874	10.5789	12.1621	9.9256	10.1615	12.8289	9.3858	7.8979	12.1848	9.6217	5.3484	10.7014	9.3631	0.1996	3.5384	2.0006	-0.3674	0.4809	6.5914	3.2163	1.2294
10.8647	10.5154	12.085	9.8939	10.0935	12.7745	9.3178	7.7799	12.0577	9.4675	5.0944	10.597	9.0955	0.2041	3.62	2.0505	-0.3901	0.3493	6.5324	3.1165	1.0751
10.8193	10.4519	12.0668	9.8667	9.9891	12.7382	9.2452	7.6892	11.9942	9.3178	4.8585	10.5108	8.8641	0.2177	3.7108	2.0641	-0.4173	0.2177	6.5279	3.0485	0.9436
10.7603	10.3657	11.9534	9.7669	9.8984	12.6021	9.1318	7.5758	11.8218	9.1318	4.6725	10.4156	8.5829	0.2177	3.7607	2.0368	-0.4355	0.1452	6.5097	2.9804	0.8211
10.6605	10.2341	11.8445	9.717	9.7623	12.5068	8.9866	7.4215	11.6812	8.9322	4.4411	10.2749	8.3334	0.2268	3.7471	1.9824	-0.4582	0.0635	6.5324	2.9441	0.7213
10.5698	10.0889	11.6948	9.5899	9.6716	12.3435	8.8414	7.29	11.5179	8.728	4.2325	10.1162	8.043	0.2404	3.7017	1.8735	-0.4582	-0.0227	6.5143	2.8715	0.626
10.4246	9.971	11.5542	9.4901	9.5537	12.1757	8.6827	7.1857	11.3183	8.5103	4.0419	9.9529	7.7708	0.2268	3.62	1.7783	-0.4491	-0.0953	6.5415	2.8398	0.5625
10.2523	9.8122	11.3591	9.3495	9.4221	11.9852	8.5148	7.0405	11.1278	8.2699	3.8378	9.7669	7.5123	0.2359	3.4522	1.5968	-0.4627	-0.1588	6.5551	2.8443	0.4809
10.0753	9.5854	11.1323	9.218	9.2815	11.7719	8.356	6.9089	10.91	8.0476	3.7108	9.5763	7.2356	0.2495	3.3343	1.4426	-0.4899	-0.1633	6.5732	2.8171	0.44
9.8304	9.3722	10.9282	9.0365	9.1	11.5587	8.161	6.7955	10.6968	7.8344	3.5792	9.3813	6.9362	0.2586	3.1256	1.2475	-0.499	-0.2087	6.5778	2.8126	0.3856
9.6126	9.1499	10.6787	8.8777	8.9458	11.3183	7.9659	6.6594	10.4836	7.6075	3.4159	9.1681	6.7139	0.2676	2.926	1.0162	-0.5398	-0.2177	6.5868	2.8171	0.3629
9.3949	8.914	10.4337	8.6691	8.8278	11.1096	7.7754	6.5324	10.2795	7.3898	3.2934	9.0047	6.4916	0.2858	2.6901	0.744	-0.558	-0.1951	6.5778	2.8171	0.3538
9.1408	8.6418	10.1751	8.4921	8.6328	10.8737	7.5939	6.4054	10.0436	7.1766	3.1709	8.8142	6.2239	0.2949	2.4723	0.5398	-0.5852	-0.1678	6.5506	2.8352	0.3584
8.8732	8.4377	9.8984	8.2472	8.4695	10.6106	7.3898	6.2965	9.8258	7.0042	3.1074	8.6192	6.0062	0.3266	2.2501	0.2994	-0.626	-0.1542	6.5506	2.8489	0.3493
8.6464	8.1882	9.6126	8.034	8.3107	10.3883	7.2265	6.1604	9.6036	6.7864	3.0258	8.4649	5.8383	0.3357	2.0323	0.0726	-0.6532	-0.1134	6.5052	2.8851	0.3674
8.3515	7.9977	9.354	7.7935	8.161	10.1615	7.0269	6.1105	9.404	6.6277	2.9804	8.3198	5.6705	0.3584	1.8599	-0.0953	-0.6941	-0.0726	6.5007	2.8897	0.4083
8.1202	7.7754	9.0909	7.6211	8.0476	9.9211	6.8863	6.0107	9.227	6.487	2.8851	8.1746	5.5389	0.3538	1.6966	-0.2858	-0.6986	-0.0272	6.478	2.8851	0.4219
7.8661	7.5667	8.8188	7.4125	7.9251	9.7124	6.7003	5.9245	9.0592	6.3328	2.8897	8.0249	5.421	0.3765	1.4925	-0.5308	-0.6986	0.0318	6.5007	2.8579	0.4718
7.6211	7.3853	8.5829	7.2038	7.7935	9.5038	6.5642	5.8565	8.9322	6.2013	2.8307	7.8933	5.2985	0.3493	1.2747	-0.7394	-0.6669	0.0454	6.5007	2.8625	0.5625
7.349	7.2129	8.3061	6.9815	7.7119	9.2905	6.4281	5.7884	8.7643	6.047	2.8307	7.7527	5.1942	0.313	1.0751	-1.0343	-0.6033	0.0862	6.5279	2.808	0.626
7.0995	7.0496	8.0521	6.7638	7.6302	9.1	6.2648	5.7295	8.5965	5.9245	2.8262	7.6302	5.1216	0.2903	0.8755	-1.2384	-0.5625	0.1089	6.5369	2.7173	0.7031
6.8454	6.8908	7.8162	6.5324	7.535	8.9004	6.1241	5.7023	8.4422	5.8157	2.8171	7.5077	5.0535	0.2495	0.685	-1.4335	-0.5035	0.1406	6.5097	2.622	0.8029
6.6005	6.7819	7.544	6.3283	7.4442	8.719	5.988	5.666	8.3061	5.6614	2.8489	7.358	4.9583	0.2223	0.4899	-1.6739	-0.4446	0.1769	6.5324	2.5268	0.939
6.3736	6.6458	7.3716	6.106	7.4125	8.5693	5.8202	5.6342	8.2063	5.5798	2.8761	7.2628	4.8857	0.1951	0.313	-1.8554	-0.372	0.1588	6.5551	2.3998	1.0298
6.1604	6.5415	7.1312	5.8882	7.3036	8.356	5.7113	5.5979	8.0476	5.4573	2.9396	7.1221	4.8177	0.1497	0.1316	-2.0278	-0.2949	0.1996	6.5687	2.2727	1.1613
5.9472	6.4009	6.9407	5.6705	7.2537	8.1701	5.5117	5.5843	7.9069	5.3303	2.9986	7.0042	4.7814	0.1043	-0.0454	-2.2002	-0.1996	0.2087	6.5732	2.1548	1.2838
5.6977	6.2874	6.7184	5.4618	7.2083	8.0022	5.3892	5.5662	7.7935	5.2123	3.0984	6.8999	4.7587	0.0454	-0.2858	-2.3589	-0.1089	0.1996	6.6095	2.0595	1.4562
5.4936	6.1468	6.5233	5.2668	7.1584	7.8389	5.2577	5.5752	7.6529	5.1352	3.2526	6.8273	4.7451	0.0045	-0.5081	-2.5268	-0.0136	0.2495	6.6504	1.9552	1.6512
5.3076	6.0379	6.3464	5.0762	7.0677	7.7119	5.1261	5.5752	7.5939	5.0535	3.3887	6.7955	4.7269	-0.059	-0.744	-2.6583	0.1043	0.245	6.673	1.8554	1.8327
5.1307	5.9064	6.165	4.922	7.036	7.5531	5.0309	5.6251	7.4941	4.9855	3.5565	6.791	4.7587	-0.1043	-0.9708	-2.808	0.1951	0.2858	6.7774	1.8191	2.0913
4.9991	5.8111	6.0107	4.7405	7.0178	7.4624	4.9537	5.675	7.4624	4.9855	3.7561	6.8137	4.8086	-0.1452	-1.1976	-2.9396	0.2994	0.313	6.8726	1.7102	2.2909
4.8449	5.7068	5.92	4.6362	7.0178	7.3898	4.9038	5.7295	7.4533	5.0036	3.9875	6.8863	4.9038	-0.1996	-1.438	-3.0621	0.3947	0.3402	6.9997	1.6739	2.5585
4.7133	5.5798	5.793	4.5046	7.0178	7.3081	4.8403	5.7748	7.4624	4.99	4.2234	6.9316	5.0263	-0.2586	-1.6422	-3.2072	0.499	0.3811	7.0995	1.5877	2.808
4.5908	5.5117	5.7204	4.4321	6.9861	7.2492	4.8222	5.861	7.4488	5.0127	4.4729	7.0722	5.1624	-0.313	-1.8009	-3.298	0.6079	0.431	7.2356	1.5288	3.0802
4.5001	5.4437	5.6251	4.3776	7.0223	7.1947	4.8086	5.979	7.4987	5.0535	4.7315	7.1675	5.303	-0.3357	-1.9416	-3.3932	0.6714	0.4854	7.3626	1.4789	3.3705
4.4502	5.3983	5.5843	4.3413	7.0541	7.2038	4.8449	6.0969	7.5803	5.1307	5.0082	7.2991	5.48	-0.3538	-2.0187	-3.4794	0.7213	0.5353	7.4851	1.4653	3.6382
4.3686	5.3711	5.5344	4.3005	7.0722	7.1993	4.8766	6.2103	7.6257	5.1987	5.2758	7.4488	5.6614	-0.4037	-2.1094	-3.5565	0.7803	0.6124	7.5985	1.4607	3.9149
4.3368	5.2894	5.4709	4.3277	7.1085	7.2174	4.9129	6.3056	7.7073	5.3348	5.5571	7.5803	5.852	-0.4037	-2.1049	-3.6382	0.8166	0.6578	7.7164	1.438	4.1735
4.3186	5.294	5.4573	4.3549	7.1403	7.2219	4.9537	6.4508	7.8026	5.4482	5.8383	7.7527	6.0878	-0.4083	-2.0777	-3.6972	0.812	0.744	7.8344	1.4471	4.4457
4.2687	5.2804	5.4346	4.3867	7.1993	7.2673	5.0808	6.5868	7.916	5.607	6.1287	7.8933	6.2784	-0.4128	-2.1185	-3.7834	0.812	0.8302	8.0113	1.4925	4.6997
4.1916	5.2441	5.421	4.4185	7.2401	7.2991	5.1307	6.7184	8.0249	5.6977	6.4009	8.0566	6.5052	-0.4173	-2.1185	-3.9285	0.8256	0.9118	8.102	1.5061	4.9537
4.1644	5.2486	5.3892	4.4366	7.29	7.3354	5.2078	6.8318	8.1428	5.8338	6.673	8.1927	6.7048	-0.4219	-2.1276	-4.0102	0.8211	1.0116	8.2517	1.5787	5.1942
4.119	5.2486	5.3892	4.5092	7.3671	7.3762	5.2894	7.0133	8.2472	6.0062	6.9498	8.347	6.9316	-0.4037	-2.1276	-4.11	0.8166	1.0933	8.4014	1.6512	5.4074
4.0691	5.2713	5.362	4.5863	7.4669	7.4669	5.3756	7.1811	8.3787	6.1287	7.1947	8.4785	7.1358	-0.4264	-2.1185	-4.2461	0.8483	1.2203	8.5239	1.7057	5.6796
4.0465	5.3212	5.3575	4.668	7.5667	7.535	5.4845	7.3399	8.5012	6.2738	7.5259	8.7008	7.3853	-0.4446	-2.1503	-4.3731	0.8846	1.3246	8.6781	1.7964	5.9019
3.9557	5.3484	5.3439	4.7042	7.671	7.5849	5.5707	7.5259	8.6464	6.4281	7.7935	8.8732	7.5985	-0.4899	-2.1321	-4.5001	0.9481	1.438	8.8505	1.8917	6.1332
3.9331	5.3666	5.3666	4.8358	7.7981	7.7209	5.6886	7.7073	8.8278	6.5959	8.0748	9.0773	7.8706	-0.5171	-2.1457	-4.6226	1.0116	1.5696	9.0819	2.0006	6.3963
3.8968	5.3983	5.3756	4.8902	7.9523	7.8071	5.793	7.9205	9.032	6.8046	8.415	9.3495	8.1474	-0.5398	-2.1503	-4.7179	1.0706	1.7011	9.2769	2.114	6.6231
3.9104	5.4754	5.4074	5.0036	8.043	7.9342	5.8837	8.1156	9.218	6.9724	8.7144	9.5854	8.4059	-0.5807	-2.1865	-4.7814	1.1386	1.8009	9.472	2.2183	6.859
3.8832	5.4981	5.3892	5.0581	8.1428	8.0294	6.0153	8.3016	9.4085	7.1766	8.9775	9.8258	8.6736	-0.626	-2.2092	-4.863	1.2248	1.9733	9.6671	2.3	7.0677
3.865	5.4845	5.4119	5.1216	8.2699	8.161	6.1015	8.4876	9.6036	7.3716	9.2769	10.0663	8.9685	-0.6442	-2.2183	-4.8812	1.2747	2.1094	9.8576	2.4406	7.2718
3.8469	5.5571	5.4573	5.1579	8.3923	8.2744	6.1922	8.66	9.7805	7.5395	9.5174	10.2749	9.2134	-0.6714	-2.2546	-4.9855	1.3246	2.241	10.0209	2.5358	7.4578
3.8106	5.5798	5.421	5.1624	8.4921	8.347	6.2602	8.8369	9.9619	7.7073	9.726	10.4473	9.4539	-0.6986	-2.3136	-5.0399	1.3972	2.3544	10.1298	2.6402	7.5758
3.7834	5.6024	5.4301	5.1987	8.5783	8.4785	6.3373	8.9957	10.1343	7.8843	9.9483	10.6242	9.717	-0.7168	-2.368	-5.1125	1.4154	2.5676	10.3022	2.7899	7.7663
3.7289	5.5888	5.421	5.1942	8.6328	8.5466	6.3872	9.1272	10.2613	8.043	10.1388	10.7785	9.9574	-0.7258	-2.4542	-5.2123	1.4607	2.7082	10.4246	2.8579	7.8888
3.6926	5.5707	5.3983	5.176	8.7099	8.6373	6.4825	9.2588	10.402	8.1882	10.3339	10.9236	10.1706	-0.7349	-2.5313	-5.3121	1.4516	2.8534	10.5517	2.9986	8.0294
3.62	5.5525	5.3711	5.1851	8.7598	8.6645	6.4961	9.3858	10.4927	8.3243	10.5108	11.0008	10.3747	-0.7576	-2.6538	-5.4482	1.4698	2.9895	10.6424	3.0847	8.1428
3.5248	5.5163	5.303	5.1307	8.8188	8.6736	6.5506	9.4856	10.5698	8.4377	10.6651	11.0733	10.529	-0.7304	-2.799	-5.5888	1.4653	3.1437	10.7286	3.1936	8.2336
3.4341	5.4391	5.2486	5.0717	8.8278	8.6917	6.5596	9.5582	10.6333	8.5103	10.7785	11.1142	10.6741	-0.7304	-2.9623	-5.793	1.4426	3.2889	10.8238	3.2844	8.3606
3.3206	5.4074	5.1806	5.0263	8.8278	8.66	6.5642	9.6308	10.6515	8.6055	10.901	11.1414	10.7876	-0.7122	-3.121	-5.979	1.4063	3.3932	10.8874	3.3751	8.4649
3.18	5.3303	5.0989	4.9537	8.8188	8.6645	6.5143	9.6807	10.6424	8.6192	11.0189	11.1232	10.8601	-0.6895	-3.307	-6.1559	1.3881	3.5021	10.9554	3.4159	8.533
3.0485	5.2713	5.0036	4.8721	8.7779	8.6055	6.4961	9.726	10.6061	8.6464	11.1051	11.1414	10.969	-0.6805	-3.493	-6.3827	1.3609	3.6064	11.0371	3.4386	8.66
2.9124	5.1715	4.8902	4.7904	8.7507	8.5239	6.4598	9.7578	10.5743	8.6736	11.214	11.1278	11.0144	-0.6895	-3.679	-6.5642	1.3564	3.7062	11.1051	3.4522	8.7643
2.7717	5.0762	4.7859	4.7088	8.6827	8.4785	6.4281	9.7759	10.5517	8.6645	11.3319	11.1641	11.087	-0.6805	-3.8378	-6.7229	1.3382	3.7924	11.2049	3.4522	8.8777
2.6493	5.0173	4.6952	4.6589	8.6691	8.4059	6.3646	9.8394	10.5517	8.6691	11.4226	11.1459	11.1187	-0.6714	-4.051	-6.9089	1.3292	3.8695	11.2911	3.4477	9.0184
2.5631	4.9492	4.6317	4.6044	8.6282	8.3424	6.3555	9.8621	10.4927	8.6645	11.5587	11.1595	11.1505	-0.6578	-4.1916	-7.0133	1.311	3.9693	11.4181	3.4341	9.1363
2.5041	4.9084	4.5591	4.5636	8.5783	8.2517	6.3283	9.8984	10.4791	8.6691	11.654	11.1641	11.1913	-0.6351	-4.3005	-7.036	1.2838	4.0329	11.5043	3.4204	9.2633
2.4179	4.863	4.4638	4.4956	8.5602	8.2109	6.2784	9.903	10.4337	8.66	11.7674	11.1641	11.2276	-0.6351	-4.4003	-7.0768	1.2657	4.0873	11.6268	3.4204	9.3813
2.3453	4.8177	4.3822	4.4411	8.5012	8.1247	6.1922	9.9438	10.4065	8.601	11.8491	11.1278	11.2276	-0.6396	-4.4956	-7.0768	1.2611	4.1599	11.6903	3.4023	9.5038
2.2682	4.7904	4.2914	4.3958	8.4876	8.0294	6.1287	9.9665	10.3294	8.5511	11.9716	11.1051	11.214	-0.6169	-4.5818	-7.0722	1.243	4.2143	11.7901	3.3751	9.6444
2.2183	4.7768	4.2551	4.3504	8.415	7.9387	6.0652	9.9937	10.2523	8.474	12.0577	11.0461	11.1958	-0.6124	-4.6498	-7.0042	1.2158	4.2778	11.8854	3.3524	9.7759
2.1911	4.7269	4.1735	4.2687	8.3742	7.8525	5.9699	10.0073	10.1887	8.3969	12.1303	10.9872	11.1459	-0.6124	-4.6861	-6.9634	1.2248	4.3323	11.9217	3.3479	9.8848
2.123	4.6861	4.0737	4.1689	8.3061	7.7209	5.861	9.9891	10.0572	8.2835	12.1848	10.8874	11.0733	-0.6169	-4.7587	-6.8999	1.2203	4.3323	11.9761	3.3116	9.9982
2.0595	4.6135	3.9467	4.1009	8.22	7.5667	5.7431	9.9846	9.9619	8.1428	12.2256	10.7649	10.9962	-0.6215	-4.8267	-6.8726	1.2248	4.3413	11.9852	3.3025	10.098
1.9869	4.5455	3.8242	3.9966	8.1428	7.417	5.5934	9.9438	9.7986	8.0067	12.2573	10.6379	10.8874	-0.6124	-4.8812	-6.9044	1.2203	4.3368	11.9988	3.2889	10.2205
1.9008	4.4684	3.7108	3.8832	8.043	7.2628	5.4573	9.8984	9.6262	7.8434	12.2528	10.4564	10.7467	-0.626	-4.9537	-6.8908	1.243	4.3186	11.9353	3.2208	10.2659
1.7964	4.3776	3.5701	3.7652	7.9251	7.0768	5.303	9.8304	9.5038	7.7028	12.2347	10.3248	10.597	-0.6169	-5.0808	-6.9135	1.2384	4.3096	11.908	3.1846	10.3339
1.7011	4.2506	3.3978	3.6019	7.8117	6.8953	5.1034	9.7623	9.2951	7.4896	12.2029	10.1388	10.4473	-0.6396	-5.1533	-6.9997	1.2657	4.2778	11.84	3.0893	10.4201
1.5741	4.1689	3.2707	3.4703	7.6665	6.7184	4.9583	9.6671	9.1136	7.3081	12.1666	9.9574	10.2568	-0.6306	-5.2622	-7.0859	1.2657	4.2415	11.7719	3.0303	10.47
1.4789	4.051	3.1074	3.3025	7.5531	6.5324	4.7632	9.5537	8.9412	7.104	12.1167	9.7759	10.0617	-0.6396	-5.3348	-7.1766	1.2793	4.1826	11.7175	2.9441	10.5108
1.37	3.9194	2.935	3.1619	7.4215	6.3464	4.6044	9.4901	8.7961	6.8772	12.094	9.6671	9.9075	-0.6396	-5.3892	-7.2582	1.2929	4.1463	11.6767	2.8579	10.5653
1.2929	3.8333	2.8035	3.0348	7.29	6.2103	4.4457	9.404	8.6781	6.7093	12.0215	9.5582	9.7623	-0.6442	-5.4028	-7.3127	1.2793	4.0782	11.6313	2.808	10.597
1.1976	3.7198	2.6855	2.9487	7.1811	6.0243	4.3186	9.3268	8.5466	6.5506	11.9897	9.4584	9.6535	-0.6442	-5.4119	-7.4079	1.2793	4.0283	11.6177	2.7627	10.6333
1.116	3.62	2.5721	2.8625	7.0949	5.8928	4.2052	9.2542	8.4468	6.3963	11.9716	9.4085	9.54	-0.626	-5.3575	-7.4215	1.2566	3.9693	11.6449	2.7264	10.6968
1.0887	3.5565	2.4859	2.7944	7.0314	5.8157	4.1145	9.2225	8.4014	6.3283	11.9942	9.3767	9.4448	-0.6079	-5.3257	-7.4714	1.2248	3.9285	11.6132	2.6855	10.7467
1.0162	3.493	2.3771	2.7491	6.977	5.7113	4.0374	9.1726	8.3651	6.2421	11.9852	9.3495	9.4221	-0.5988	-5.2577	-7.4714	1.1976	3.8741	11.5723	2.6719	10.783
0.9617	3.3978	2.2727	2.6629	6.8999	5.6387	3.992	9.1227	8.3334	6.174	12.0124	9.3404	9.3586	-0.5852	-5.2395	-7.5304	1.1704	3.8333	11.5814	2.6493	10.842
0.8891	3.3252	2.1729	2.5857	6.7864	5.5798	3.9013	9.041	8.3152	6.1196	11.9897	9.3268	9.3268	-0.567	-5.2169	-7.5168	1.125	3.8333	11.5678	2.6311	10.8828
0.7893	3.2435	2.0731	2.5222	6.7365	5.4981	3.8333	9.0093	8.288	6.0697	11.9761	9.2679	9.2769	-0.558	-5.2486	-7.603	1.1023	3.7788	11.5406	2.6175	10.9327
0.7621	3.1982	1.9915	2.495	6.6957	5.4527	3.8196	8.9866	8.2653	6.0334	11.9806	9.2316	9.2497	-0.5217	-5.2713	-7.6121	1.0298	3.7879	11.5315	2.613	10.9599
0.6532	3.1165	1.8871	2.4088	6.6186	5.3348	3.7425	8.9004	8.2109	5.9608	11.9262	9.1817	9.1726	-0.499	-5.3711	-7.6892	1.0162	3.7561	11.5179	2.5903	10.9917
0.5625	3.0666	1.7692	2.3635	6.546	5.2849	3.7108	8.8006	8.1701	5.9427	11.8808	9.1363	9.1499	-0.499	-5.4527	-7.7436	0.9753	3.7516	11.5134	2.5767	10.969
0.4582	2.9441	1.6331	2.3045	6.5007	5.1715	3.6699	8.7416	8.1292	5.8656	11.8445	9.0637	9.0955	-0.4809	-5.5707	-7.8117	0.9708	3.7425	11.4998	2.5903	10.9463
0.3493	2.8806	1.497	2.2228	6.3782	5.0989	3.62	8.6282	8.0657	5.7839	11.7674	8.973	9.0138	-0.4536	-5.675	-7.7663	0.93	3.738	11.468	2.6311	10.9327
0.2722	2.7899	1.3972	2.182	6.292	5.0218	3.5701	8.533	8.0158	5.7567	11.7039	8.9322	8.9775	-0.4672	-5.7612	-7.8389	0.9073	3.7425	11.4589	2.6629	10.9146
0.1452	2.6901	1.2747	2.1321	6.233	4.9492	3.5248	8.4196	7.9795	5.7249	11.6495	8.9186	8.9367	-0.4355	-5.8701	-7.8706	0.8665	3.7425	11.4136	2.7128	10.8692
0.0499	2.6266	1.1749	2.0867	6.106	4.8948	3.484	8.3243	7.9523	5.6796	11.5179	8.8913	8.9186	-0.4264	-5.9472	-7.8843	0.8392	3.7516	11.3864	2.74	10.8556
0	2.5404	1.1023	2.1004	6.0697	4.8267	3.4703	8.22	7.9478	5.6886	11.468	8.9004	8.9231	-0.4128	-5.9654	-7.8434	0.8075	3.7834	11.3546	2.8216	10.8102
-0.0136	2.5041	1.0706	2.1185	6.0606	4.8676	3.5429	8.1746	7.9795	5.7249	11.4453	8.9866	8.9775	-0.372	-5.9926	-7.8434	0.744	3.8333	11.3455	2.926	10.7739
-0.0771	2.4542	0.9935	2.1412	6.0062	4.8494	3.5384	8.1156	8.0249	5.7975	11.4	9.0456	9.041	-0.3493	-6.0107	-7.8298	0.7213	3.8877	11.3727	3.0303	10.7331
-0.0318	2.427	1.0116	2.1956	6.0107	4.8948	3.6019	8.0839	8.1383	5.8792	11.3909	9.1771	9.1499	-0.3266	-6.0107	-7.8026	0.6578	3.9648	11.3727	3.1256	10.6968
-0.0499	2.4088	0.9935	2.2727	5.9744	4.9447	3.6745	8.034	8.2426	5.9744	11.409	9.2951	9.2497	-0.313	-5.9699	-7.7482	0.6079	4.0555	11.4	3.2526	10.6787
0.0091	2.3816	1.0162	2.3725	5.9518	4.9991	3.7788	8.0249	8.3424	6.0833	11.4363	9.4357	9.4085	-0.2813	-5.9064	-7.6892	0.5489	4.1689	11.4045	3.3932	10.6878
0.0181	2.3816	1.0434	2.4587	5.9699	5.0672	3.8786	8.0294	8.5148	6.2194	11.468	9.5899	9.5582	-0.2495	-5.8202	-7.6574	0.499	4.237	11.4453	3.484	10.656
0.059	2.3725	1.0706	2.5404	5.9608	5.1533	3.9739	8.0158	8.6101	6.3328	11.5088	9.7215	9.717	-0.245	-5.7522	-7.6302	0.4945	4.3232	11.4862	3.5928	10.6469
0.1134	2.3725	1.1341	2.6266	5.9654	5.2032	4.0873	8.0203	8.7462	6.4598	11.5315	9.8667	9.8576	-0.245	-5.6524	-7.6211	0.4718	4.423	11.5451	3.6745	10.6469
0.127	2.3589	1.1613	2.7173	5.9744	5.2894	4.1508	8.0113	8.8687	6.5642	11.5315	9.9619	9.9891	-0.2223	-5.5662	-7.6166	0.4536	4.5228	11.5814	3.7607	10.6696
0.1588	2.3816	1.243	2.808	6.0243	5.3666	4.2597	8.0385	8.9775	6.6776	11.5678	10.0572	10.1298	-0.2132	-5.4709	-7.6257	0.44	4.6044	11.6495	3.8106	10.6424
0.1633	2.3861	1.2974	2.8715	6.0153	5.4165	4.3323	8.0294	9.0773	6.7955	11.6404	10.157	10.2341	-0.2087	-5.4301	-7.7391	0.4355	4.6543	11.7402	3.8968	10.6515
0.1497	2.3861	1.2974	2.9623	6.0788	5.4709	4.3958	8.0566	9.159	6.8636	11.6721	10.2386	10.3339	-0.2404	-5.4074	-7.8888	0.4627	4.7405	11.8264	3.9285	10.7014
0.1452	2.3771	1.3337	2.9849	6.0788	5.5208	4.4638	8.0748	9.2406	6.9906	11.7084	10.2931	10.4156	-0.2404	-5.4028	-8.043	0.4718	4.7541	11.9126	3.9194	10.6923
0.1134	2.3907	1.37	3.0439	6.1105	5.5934	4.5137	8.1202	9.3268	7.0314	11.7583	10.3974	10.5335	-0.2404	-5.4618	-8.2789	0.4718	4.7995	11.967	3.9784	10.6923
0.1361	2.3998	1.4017	3.0847	6.1559	5.6206	4.5727	8.1882	9.4402	7.1176	11.8264	10.4881	10.6106	-0.2268	-5.5389	-8.4831	0.4355	4.8993	12.0441	4.0011	10.724
0.0726	2.4406	1.429	3.0893	6.1967	5.6932	4.6181	8.2063	9.4992	7.1766	11.8763	10.5698	10.6968	-0.2223	-5.6614	-8.7552	0.4536	4.8857	12.0714	3.992	10.7014
0.068	2.4587	1.4879	3.1709	6.2375	5.7748	4.677	8.2336	9.6172	7.2628	11.9307	10.6605	10.7694	-0.2132	-5.8111	-8.9911	0.4173	4.9265	12.1076	4.0056	10.7104
0.0544	2.4587	1.5197	3.1891	6.2738	5.8383	4.6906	8.2699	9.6897	7.3217	11.9579	10.8012	10.8511	-0.2087	-5.9472	-9.1953	0.4264	4.922	12.0668	3.9784	10.6605
0.0272	2.5313	1.5514	3.239	6.3555	5.9381	4.7904	8.347	9.8394	7.4624	12.0169	10.9509	10.9509	-0.1815	-6.1377	-9.3677	0.3811	4.9537	12.085	3.983	10.6923
0.0454	2.5767	1.6422	3.2844	6.4281	6.0697	4.8131	8.3923	9.9891	7.5259	12.085	11.1278	11.0371	-0.186	-6.3101	-9.54	0.3811	4.981	12.0305	3.9648	10.6424
0.0181	2.622	1.6921	3.3025	6.4462	6.165	4.8812	8.4196	10.1298	7.5985	12.1303	11.2639	11.1595	-0.1769	-6.4825	-9.6897	0.3674	4.9719	11.9217	3.9648	10.5925
0.0318	2.6629	1.7783	3.3615	6.546	6.3147	4.9628	8.5284	10.2795	7.7119	12.1666	11.4544	11.3002	-0.1769	-6.6322	-9.7941	0.372	5.0082	11.7901	3.9421	10.5426
0.0454	2.7264	1.8508	3.4114	6.5914	6.4281	5.0762	8.5693	10.4382	7.8298	12.2301	11.6222	11.4272	-0.1951	-6.8137	-9.903	0.3811	5.0309	11.6948	3.9467	10.5154
0.0499	2.8216	1.9461	3.4703	6.6685	6.5868	5.1397	8.6554	10.6242	7.9568	12.3027	11.8037	11.5497	-0.1815	-6.9543	-9.9982	0.3947	5.0399	11.654	3.9875	10.4791
0.0953	2.9078	2.0595	3.5384	6.7502	6.7411	5.2123	8.7326	10.7785	8.0612	12.3889	11.9489	11.654	-0.1905	-7.104	-10.039	0.3992	5.0535	11.5723	4.0147	10.4564
0.1225	2.9623	2.1004	3.6019	6.8454	6.8545	5.303	8.7734	10.901	8.1519	12.4433	12.0441	11.7583	-0.2314	-7.2129	-10.1207	0.4536	5.0672	11.5406	4.0419	10.4745
0.1316	3.0122	2.1729	3.6064	6.9225	6.9724	5.3847	8.8324	11.0144	8.2336	12.525	12.153	11.8672	-0.2359	-7.2809	-10.157	0.4809	5.0989	11.5497	4.0873	10.4609
0.1089	3.053	2.241	3.6518	6.9724	7.0586	5.4346	8.8913	11.1369	8.3152	12.5522	12.2347	11.9489	-0.2495	-7.4034	-10.1751	0.5081	5.1261	11.5723	4.1236	10.4791
0.1452	3.1256	2.3317	3.6881	6.9906	7.1947	5.5026	8.9412	11.2367	8.3833	12.5794	12.2891	12.0351	-0.2676	-7.4669	-10.1343	0.5126	5.167	11.6404	4.1735	10.5063
0.1043	3.1256	2.3226	3.6972	7.0541	7.2718	5.5616	8.9866	11.3183	8.4377	12.6248	12.3299	12.0895	-0.2676	-7.4987	-10.1207	0.5171	5.2123	11.7084	4.2234	10.5607
0.0998	3.1619	2.3816	3.7108	7.0813	7.358	5.6161	9.0138	11.3954	8.4967	12.6384	12.3798	12.1575	-0.2404	-7.4987	-10.0436	0.4809	5.2894	11.7992	4.3096	10.6016
0.068	3.1755	2.4043	3.7198	7.1312	7.4352	5.675	9.032	11.468	8.5693	12.652	12.407	12.1984	-0.2314	-7.5939	-10.0799	0.4854	5.2985	11.8627	4.3413	10.6152
0.0454	3.1982	2.4315	3.7471	7.1448	7.5622	5.734	9.032	11.527	8.6328	12.6747	12.4388	12.2301	-0.2268	-7.6393	-10.0254	0.4718	5.3167	11.9579	4.4048	10.6424
0.0045	3.2072	2.4497	3.7516	7.2083	7.6393	5.793	9.1	11.6086	8.6691	12.6928	12.4932	12.2755	-0.2177	-7.6756	-10.0118	0.4446	5.362	12.0396	4.4321	10.6787
0	3.1982	2.4678	3.8015	7.2492	7.7391	5.8882	9.0909	11.7084	8.7598	12.6838	12.6021	12.3435	-0.1905	-7.7028	-9.9937	0.3765	5.4573	12.1122	4.4956	10.7377
-0.0272	3.2027	2.5404	3.8741	7.2673	7.857	5.988	9.1499	11.781	8.8097	12.6928	12.6248	12.398	-0.1588	-7.7164	-9.9392	0.3266	5.48	12.1712	4.5183	10.724
-0.0045	3.2526	2.5721	3.9512	7.3217	7.9478	6.106	9.1953	11.8627	8.9186	12.6974	12.7019	12.4978	-0.1179	-7.7618	-9.9075	0.2676	5.5163	12.2392	4.55	10.724
-0.0227	3.2571	2.5994	4.0419	7.3444	8.0839	6.2149	9.2452	11.967	8.9911	12.7291	12.7972	12.5704	-0.0862	-7.7981	-9.8939	0.1815	5.6115	12.2891	4.55	10.7467
0	3.2435	2.6719	4.1553	7.3716	8.2154	6.351	9.2316	12.0714	9.0955	12.7019	12.838	12.6293	-0.0408	-7.8117	-9.8349	0.1089	5.6478	12.3481	4.5999	10.715
0.0272	3.2299	2.7218	4.2415	7.4079	8.3198	6.4689	9.2361	12.1757	9.1544	12.6611	12.9106	12.6883	-0.0181	-7.8117	-9.8122	0.0544	5.6614	12.339	4.6135	10.7014
0.0499	3.2208	2.7763	4.3459	7.4125	8.4241	6.605	9.2769	12.2347	9.2769	12.6293	12.8879	12.7291	0.0181	-7.7708	-9.7669	0.0091	5.6886	12.3118	4.6044	10.6469
0.0817	3.2299	2.8715	4.4729	7.4352	8.5284	6.7275	9.286	12.2891	9.3404	12.5704	12.9151	12.7473	0.0318	-7.7255	-9.7487	-0.0363	5.7068	12.3118	4.6362	10.5743
0.0771	3.1528	2.9124	4.5591	7.4215	8.6418	6.8318	9.2406	12.3163	9.3631	12.4842	12.897	12.7337	0.0454	-7.6756	-9.6897	-0.0544	5.7023	12.271	4.6453	10.5517
0.0771	3.1437	2.9532	4.668	7.3989	8.7099	6.9089	9.2134	12.3299	9.4221	12.4252	12.8425	12.7064	0.0544	-7.6302	-9.6988	-0.0862	5.6886	12.2347	4.6453	10.4655
0.1179	3.0711	2.9441	4.7269	7.3898	8.7779	7.0133	9.1771	12.3708	9.4947	12.3481	12.7972	12.6656	0.0726	-7.5667	-9.726	-0.1179	5.7249	12.1938	4.677	10.4246
0.0817	3.0212	3.0076	4.7859	7.3217	8.8051	7.0314	9.1227	12.3072	9.4811	12.2528	12.7201	12.6112	0.0771	-7.544	-9.7714	-0.1179	5.7113	12.1575	4.6589	10.3521
0.0907	2.9668	3.0394	4.8812	7.3308	8.855	7.104	9.0909	12.3345	9.5083	12.1621	12.6475	12.5477	0.0726	-7.5213	-9.8122	-0.1316	5.7068	12.1076	4.6906	10.3339
0.0635	2.9214	3.0258	4.9038	7.3081	8.8596	7.1584	9.032	12.3072	9.4856	12.094	12.5613	12.5159	0.0726	-7.5123	-9.8712	-0.127	5.6932	12.0759	4.6906	10.2795
0.0408	2.9214	3.0394	4.9447	7.2991	8.9186	7.1766	9.0138	12.2483	9.472	11.9897	12.5114	12.4252	0.0635	-7.544	-9.9665	-0.1134	5.666	12.0078	4.7042	10.2341
0.0181	2.8761	3.0666	4.9764	7.2673	8.9412	7.2038	8.9594	12.2755	9.4675	11.9443	12.4751	12.3435	0.059	-7.5985	-10.0527	-0.0998	5.6387	11.9262	4.677	10.1479
0.0272	2.8579	3.0893	4.9855	7.2855	8.9911	7.2219	8.9322	12.271	9.4629	11.8581	12.4297	12.2936	0.0635	-7.662	-10.1434	-0.0998	5.6387	11.8808	4.6589	10.098
-0.0227	2.8715	3.1301	4.9991	7.3172	9.0047	7.2038	8.914	12.3118	9.4629	11.781	12.4343	12.2301	0.059	-7.6937	-10.2386	-0.1043	5.5934	11.8491	4.609	10.0436
-0.0272	2.9078	3.1846	4.9946	7.3535	9.0683	7.2219	8.9186	12.3345	9.472	11.7719	12.4433	12.1802	0.0635	-7.8071	-10.3339	-0.1225	5.5707	11.8173	4.5908	10.0345
0	2.935	3.2481	5.0672	7.4034	9.1544	7.2356	8.9548	12.407	9.4947	11.722	12.4796	12.1848	0.068	-7.8797	-10.4292	-0.1225	5.5389	11.781	4.5954	9.9846
0.0454	3.0303	3.307	5.1307	7.4851	9.2497	7.2446	9.0274	12.4932	9.5174	11.7447	12.5567	12.1621	0.0862	-7.9659	-10.5199	-0.1497	5.4981	11.7765	4.5818	9.9574
0.0454	3.1074	3.3705	5.1397	7.5712	9.3677	7.2628	9.0546	12.5704	9.5627	11.7357	12.593	12.1712	0.0817	-8.0521	-10.6106	-0.1542	5.4664	11.781	4.5908	9.9574
0.0817	3.1483	3.4477	5.2169	7.6438	9.4221	7.2718	9.0864	12.6157	9.5582	11.7674	12.6339	12.1439	0.0907	-8.1837	-10.7059	-0.1452	5.4527	11.7538	4.6044	9.9529
0.1406	3.2299	3.5611	5.3121	7.7436	9.5673	7.3263	9.1681	12.7382	9.6217	11.7901	12.711	12.153	0.0998	-8.2562	-10.7377	-0.1633	5.4664	11.7719	4.6317	9.9529
0.1951	3.3297	3.6563	5.3983	7.857	9.6489	7.358	9.2043	12.8153	9.6398	11.7901	12.7473	12.1439	0.0817	-8.3334	-10.8193	-0.1588	5.421	11.8037	4.6543	9.9665
0.2359	3.3978	3.7289	5.4482	7.9523	9.7578	7.3807	9.2996	12.8698	9.6262	11.8173	12.7745	12.1122	0.0817	-8.4468	-10.9373	-0.1452	5.4074	11.8536	4.677	9.971
0.2949	3.5112	3.8378	5.5117	8.0929	9.844	7.4034	9.3813	12.9378	9.6535	11.8581	12.8153	12.0714	0.0907	-8.5284	-11.0189	-0.1633	5.3847	11.8763	4.6997	9.9891
0.3357	3.6337	3.9512	5.5888	8.1927	9.9665	7.4306	9.4901	12.9968	9.6671	11.8808	12.7926	12.0351	0.0998	-8.5693	-11.1187	-0.186	5.3575	11.9534	4.7451	9.9891
0.3901	3.7425	4.051	5.6342	8.3243	10.0527	7.4397	9.5718	13.0421	9.6625	11.9035	12.8244	11.9942	0.1089	-8.5874	-11.1686	-0.2268	5.3167	11.9806	4.7587	10.0118
0.4219	3.8242	4.1145	5.6977	8.4513	10.1162	7.4578	9.6444	13.0648	9.6489	11.9353	12.8108	11.9534	0.1134	-8.6192	-11.2593	-0.2223	5.3303	12.026	4.795	10.0527
0.4718	3.9467	4.2279	5.7703	8.601	10.2024	7.476	9.7396	13.1102	9.6353	12.0169	12.8244	11.8854	0.1361	-8.6192	-11.3183	-0.254	5.3212	12.1167	4.8267	10.0799
0.5625	4.0737	4.3413	5.8157	8.7326	10.3203	7.5168	9.8712	13.2372	9.6761	12.0895	12.8652	11.9126	0.1452	-8.6192	-11.3727	-0.2949	5.3167	12.2074	4.8676	10.1388
0.6169	4.237	4.4684	5.8837	8.8687	10.4382	7.544	9.9891	13.3325	9.7034	12.1757	12.9242	11.908	0.1588	-8.5919	-11.3818	-0.3085	5.3303	12.2846	4.8676	10.2205
0.7213	4.3504	4.5954	5.9699	9.0274	10.5834	7.6121	10.1434	13.4096	9.7442	12.2664	13.024	11.9534	0.1724	-8.5647	-11.3909	-0.3357	5.3439	12.4116	4.8812	10.2976
0.8528	4.5228	4.7541	6.0652	9.1907	10.724	7.6801	10.2976	13.582	9.7941	12.4388	13.1646	11.9942	0.1951	-8.5466	-11.3591	-0.3584	5.3666	12.525	4.9038	10.3566
1.0025	4.6725	4.9311	6.1423	9.3813	10.9055	7.7754	10.47	13.7181	9.8984	12.5885	13.3143	12.085	0.1815	-8.5194	-11.2911	-0.3674	5.3983	12.6702	4.9175	10.4473
1.1114	4.804	5.0717	6.2375	9.5128	11.0688	7.8752	10.6333	13.8768	9.9891	12.7563	13.4595	12.1485	0.1905	-8.4649	-11.2548	-0.3538	5.4165	12.7881	4.9084	10.5517
1.2838	4.9447	5.2441	6.351	9.6761	11.2503	8.0067	10.8057	14.0674	10.1298	12.906	13.6364	12.2573	0.1815	-8.4241	-11.1641	-0.3266	5.4301	12.9151	4.8494	10.6242
1.4244	5.1216	5.4573	6.4644	9.8531	11.4589	8.1474	10.9872	14.276	10.284	13.092	13.8269	12.3844	0.1542	-8.347	-11.0597	-0.2949	5.48	13.092	4.8222	10.7739
1.6376	5.3212	5.6796	6.5868	10.0617	11.6812	8.3061	11.1822	14.4938	10.411	13.2281	13.9993	12.4932	0.1225	-8.2653	-10.9463	-0.2404	5.4981	13.2009	4.7904	10.8783
1.8191	5.489	5.8792	6.732	10.2477	11.899	8.4695	11.3727	14.7297	10.5834	13.4187	14.2261	12.652	0.068	-8.1338	-10.8102	-0.1588	5.5299	13.3461	4.736	10.9917
2.0187	5.6796	6.0969	6.8726	10.4065	12.1213	8.66	11.5451	14.9202	10.7377	13.582	14.394	12.7881	0.0544	-8.0385	-10.7014	-0.0953	5.5616	13.5094	4.6997	11.1142
2.2138	5.8338	6.2965	7.0223	10.6197	12.3708	8.8233	11.7357	15.1561	10.8964	13.7816	14.5482	12.9378	0	-7.9024	-10.5471	-0.0227	5.5934	13.6137	4.6634	11.2367
2.4451	6.0606	6.5052	7.1766	10.8057	12.584	8.9957	11.899	15.3875	11.0688	13.9403	14.6798	13.0512	-0.0227	-7.7436	-10.3883	0.0454	5.6297	13.7045	4.6317	11.3319
2.6447	6.2648	6.7592	7.3081	10.9962	12.8244	9.1817	12.0986	15.5598	11.2276	14.0946	14.8295	13.1918	-0.0771	-7.5667	-10.2205	0.1361	5.675	13.777	4.609	11.4181
2.8443	6.5143	6.9634	7.4578	11.1913	13.0557	9.3223	12.2619	15.7685	11.3818	14.2307	14.9701	13.2962	-0.1089	-7.4079	-10.0889	0.2087	5.7204	13.8859	4.609	11.5406
3.0485	6.7093	7.1993	7.5803	11.3909	13.2599	9.4992	12.4161	15.9727	11.4998	14.3895	15.0881	13.3824	-0.1497	-7.2764	-9.9166	0.2949	5.7794	13.9494	4.6181	11.6222
3.2707	6.9679	7.417	7.73	11.5905	13.4867	9.6535	12.593	16.145	11.6313	14.5074	15.1561	13.4595	-0.1996	-7.1539	-9.7396	0.4037	5.8021	13.9721	4.6317	11.6812
3.5066	7.1766	7.6801	7.9024	11.8082	13.7135	9.8032	12.779	16.3628	11.7946	14.6435	15.3058	13.6137	-0.2268	-7.036	-9.5537	0.4536	5.8383	14.0311	4.6997	11.7357
3.7289	7.4034	7.8933	8.0702	11.9897	13.9403	9.9574	12.9287	16.5442	11.9126	14.7569	15.4237	13.709	-0.2722	-6.9407	-9.345	0.5489	5.92	14.022	4.7678	11.8037
3.9285	7.6257	8.102	8.1927	12.1757	14.1399	10.1162	13.1011	16.7937	12.0623	14.8658	15.5961	13.8315	-0.3357	-6.8908	-9.2043	0.6442	5.9427	14.0492	4.8222	11.8491
4.1735	7.8389	8.3379	8.3016	12.3481	14.3441	10.2341	13.2417	16.9525	12.1712	14.9792	15.7277	13.954	-0.3629	-6.8545	-9.0456	0.7258	5.988	14.0356	4.9175	11.8763
4.3958	8.0657	8.5511	8.4921	12.5431	14.5618	10.4201	13.396	17.1839	12.3481	15.0926	15.9001	14.0719	-0.4128	-6.8409	-8.9322	0.7984	6.0652	14.0265	5.0399	11.9443
4.5772	8.2336	8.7825	8.6554	12.6611	14.7478	10.5562	13.5411	17.3517	12.4615	15.2196	16.0452	14.2035	-0.4264	-6.8273	-8.8278	0.8528	6.1196	14.0039	5.1397	11.9625
4.7814	8.3833	8.9412	8.7689	12.8516	14.9247	10.6878	13.6409	17.5377	12.5704	15.2831	16.1405	14.3169	-0.4672	-6.85	-8.7507	0.9254	6.1695	13.9812	5.2395	11.9806
4.9356	8.533	9.1363	8.8823	12.9559	15.1017	10.8238	13.7317	17.7146	12.7291	15.3602	16.2675	14.4167	-0.4945	-6.8863	-8.6736	0.9663	6.233	13.9313	5.3348	12.0215
5.0853	8.6328	9.3178	9.0002	13.0784	15.2514	10.9191	13.8405	17.8553	12.8062	15.4419	16.3809	14.4983	-0.5171	-6.9452	-8.6827	1.0162	6.3101	13.8904	5.4346	12.0487
5.2395	8.8051	9.4765	9.0909	13.1601	15.3829	11.0325	13.9222	17.9551	12.906	15.5054	16.4717	14.5936	-0.5217	-6.9951	-8.66	1.0252	6.3419	13.8496	5.5026	12.0668
5.4028	8.914	9.6398	9.2134	13.2962	15.5236	11.1142	13.9948	18.0639	12.9968	15.5735	16.5578	14.6662	-0.5171	-7.036	-8.7099	1.0207	6.4054	13.8315	5.6024	12.0804
5.48	8.9821	9.7669	9.2542	13.3733	15.6279	11.1822	14.0674	18.1501	13.0557	15.6007	16.6168	14.6979	-0.5308	-7.1403	-8.7552	1.0388	6.4598	13.7725	5.6569	12.094
5.5616	9.0546	9.8803	9.3223	13.4368	15.705	11.2367	14.1309	18.2182	13.1056	15.6687	16.7166	14.7478	-0.5081	-7.1947	-8.8732	1.0071	6.5007	13.7226	5.7068	12.1031
5.6524	9.1182	9.971	9.3677	13.5049	15.7731	11.2911	14.1853	18.259	13.1465	15.7368	16.7801	14.7297	-0.5126	-7.3036	-8.9866	0.998	6.5097	13.6455	5.6932	12.1258
5.6705	9.1771	10.0481	9.3722	13.5593	15.8093	11.282	14.2171	18.2862	13.1419	15.7594	16.8119	14.7342	-0.5035	-7.3762	-9.1499	0.9935	6.5052	13.6364	5.6977	12.1485
5.734	9.1907	10.1388	9.3767	13.6137	15.8456	11.3047	14.2806	18.2908	13.1556	15.7776	16.8754	14.707	-0.4945	-7.4851	-9.3314	0.9572	6.5097	13.5956	5.6478	12.2074
5.7748	9.2679	10.1842	9.4221	13.65	15.8955	11.3546	14.3214	18.2998	13.1918	15.8547	16.9344	14.7025	-0.4763	-7.5712	-9.5128	0.9254	6.5324	13.6001	5.5616	12.2211
5.8157	9.3178	10.2386	9.4266	13.7045	15.9273	11.3591	14.3486	18.2953	13.151	15.8729	16.9888	14.6934	-0.44	-7.6257	-9.6716	0.8801	6.5233	13.6273	5.4981	12.2619
5.8338	9.3268	10.2704	9.4629	13.7589	15.9273	11.3501	14.3622	18.2817	13.1193	15.8819	17.0024	14.6253	-0.4264	-7.7209	-9.8531	0.8619	6.487	13.6409	5.4028	12.2528
5.8565	9.3813	10.3702	9.5128	13.8133	15.9908	11.4181	14.4167	18.2908	13.1283	15.9545	17.0886	14.6344	-0.3947	-7.7708	-10.0028	0.7803	6.5097	13.6908	5.3121	12.3072
5.9155	9.4629	10.4201	9.5491	13.8723	16.0271	11.4635	14.453	18.318	13.151	15.9727	17.1385	14.6163	-0.372	-7.7663	-10.1116	0.7168	6.5188	13.7362	5.2441	12.3481
5.9381	9.5174	10.4428	9.5809	13.9358	16.0271	11.4408	14.4938	18.318	13.1238	15.9727	17.1793	14.6253	-0.3221	-7.8207	-10.2568	0.6442	6.5143	13.7952	5.1851	12.3617
6.0243	9.5899	10.5335	9.6716	14.0356	16.1042	11.4907	14.5573	18.3316	13.1737	16.018	17.2701	14.6299	-0.2767	-7.8207	-10.3475	0.5398	6.5324	13.8995	5.1397	12.4025
6.0425	9.6535	10.597	9.7396	14.1354	16.1768	11.5542	14.6435	18.4132	13.1964	16.0588	17.4152	14.6798	-0.2359	-7.8525	-10.4473	0.4446	6.5642	14.0175	5.1488	12.4207
6.1196	9.7714	10.6424	9.8122	14.276	16.2448	11.5905	14.7388	18.4722	13.2327	16.1178	17.5014	14.7206	-0.1951	-7.8661	-10.538	0.3765	6.5868	14.1263	5.1533	12.4479
6.1876	9.844	10.7558	9.9256	14.3713	16.3401	11.7084	14.8703	18.5675	13.3189	16.1768	17.6511	14.8068	-0.1497	-7.8616	-10.597	0.2722	6.6277	14.2397	5.1715	12.4796
6.2149	9.9755	10.8238	10.0254	14.4938	16.4535	11.7538	14.9565	18.7172	13.3824	16.2403	17.8326	14.893	-0.0907	-7.8706	-10.6515	0.1678	6.6912	14.3532	5.2169	12.5567
6.2829	10.0572	10.9191	10.1434	14.6526	16.5851	11.8491	15.0835	18.817	13.4686	16.3129	18.0095	14.9746	-0.0318	-7.8843	-10.724	0.0771	6.7456	14.4348	5.2486	12.6157
6.3101	10.157	11.0234	10.2114	14.7841	16.6939	11.9534	15.1969	18.9576	13.5502	16.39	18.2	15.0835	0.0045	-7.9205	-10.7921	-0.0454	6.8137	14.5936	5.2985	12.6792
6.3736	10.2432	11.0915	10.3067	14.9157	16.821	12.0577	15.3194	19.1164	13.6455	16.4535	18.3724	15.1697	0.0635	-7.9704	-10.8556	-0.1361	6.859	14.7161	5.3847	12.7518
6.3646	10.3203	11.1777	10.3702	15.0608	16.9434	12.1167	15.4374	19.257	13.7407	16.5488	18.5675	15.2559	0.1043	-8.0793	-11.0053	-0.2132	6.8999	14.834	5.4301	12.7836
6.3464	10.3384	11.2276	10.4201	15.1516	17.0387	12.2211	15.5372	19.4203	13.836	16.6032	18.7943	15.3965	0.1497	-8.1202	-11.0824	-0.3085	6.9815	14.9656	5.4981	12.8607
6.3782	10.4156	11.2548	10.47	15.2332	17.1204	12.2619	15.6052	19.5337	13.9131	16.6486	18.9848	15.4873	0.1724	-8.2517	-11.1868	-0.3493	7.045	15.0245	5.5299	12.8698
6.3646	10.4382	11.3047	10.4927	15.3512	17.2066	12.3481	15.7186	19.7106	13.9766	16.6985	19.2162	15.6234	0.2132	-8.356	-11.3228	-0.4128	7.1131	15.0881	5.5752	12.9378
6.3691	10.4655	11.3092	10.5244	15.4192	17.261	12.3708	15.7821	19.8286	14.0492	16.7393	19.4203	15.7141	0.2359	-8.4921	-11.409	-0.4627	7.1267	15.147	5.5752	12.9197
6.3419	10.4836	11.3818	10.4972	15.5372	17.3699	12.4207	15.8547	19.9874	14.1445	16.762	19.6108	15.823	0.245	-8.6101	-11.5134	-0.4854	7.1811	15.1742	5.666	12.9423
6.3918	10.5244	11.4045	10.5244	15.6097	17.4561	12.4887	15.9228	20.1325	14.2125	16.7892	19.8558	15.9772	0.2631	-8.728	-11.5814	-0.5217	7.231	15.2241	5.6705	12.9469
6.3373	10.5607	11.4363	10.5335	15.7232	17.5468	12.5613	16.0044	20.3231	14.2987	16.8754	20.0917	16.145	0.2586	-8.8505	-11.6313	-0.5126	7.2492	15.2423	5.7204	12.9469
6.3918	10.5879	11.5043	10.5653	15.7912	17.6738	12.6293	16.0951	20.5045	14.4439	16.9072	20.3457	16.331	0.2767	-8.914	-11.6268	-0.5489	7.3263	15.2559	5.7748	12.965
6.4099	10.6106	11.595	10.5834	15.8592	17.7645	12.7019	16.1586	20.7041	14.5482	16.9616	20.6043	16.5397	0.2586	-9.0229	-11.6268	-0.5262	7.3535	15.2332	5.8157	12.9469
6.4598	10.656	11.6903	10.6288	15.9545	17.9097	12.7972	16.2675	20.8901	14.6798	17.0342	20.8856	16.7665	0.2676	-9.1136	-11.6132	-0.5217	7.4669	15.2196	5.8792	12.9423
6.4598	10.6696	11.7629	10.6515	16.0407	17.9777	12.8425	16.3446	21.0852	14.7796	17.1022	21.1169	16.9797	0.2404	-9.1726	-11.5723	-0.4718	7.535	15.1561	5.979	12.9469
6.5007	10.6787	11.8491	10.715	16.1042	18.1229	12.9106	16.4354	21.2848	14.9202	17.1657	21.3664	17.1929	0.2132	-9.2361	-11.5451	-0.4219	7.6393	15.1289	6.0697	12.965
6.5506	10.6696	11.9716	10.7558	16.1904	18.2726	13.0013	16.5125	21.498	15.0835	17.2202	21.5932	17.4515	0.1769	-9.3268	-11.4952	-0.372	7.7164	15.0971	6.1786	12.9786
6.6277	10.724	12.094	10.8329	16.263	18.4223	13.0875	16.5941	21.693	15.2287	17.3018	21.8428	17.7056	0.1633	-9.3586	-11.468	-0.3039	7.8026	15.0744	6.3237	13.0195
6.7139	10.783	12.2347	10.9191	16.3537	18.5856	13.1601	16.7076	21.9153	15.3648	17.3971	22.0605	17.9596	0.1316	-9.3722	-11.3864	-0.2223	7.9024	15.0881	6.4235	13.0421
6.7728	10.7558	12.3209	10.969	16.4626	18.7126	13.2644	16.8255	22.1013	15.5099	17.4878	22.31	18.2409	0.0862	-9.3949	-11.3501	-0.1406	8.0294	15.1017	6.5732	13.0784
6.8636	10.8284	12.4978	11.0915	16.5624	18.9395	13.3914	16.9434	22.3644	15.7005	17.5831	22.5323	18.5403	0.0318	-9.4085	-11.2775	-0.0635	8.1065	15.1243	6.7003	13.1329
6.977	10.8964	12.6656	11.1913	16.6939	19.1073	13.4958	17.0931	22.6049	15.9182	17.6965	22.8135	18.8442	0.0045	-9.4312	-11.214	0.0181	8.229	15.1879	6.8363	13.2463
7.0995	10.9735	12.8516	11.341	16.821	19.3432	13.6546	17.261	22.8816	16.1496	17.8462	23.0993	19.1663	-0.0272	-9.4085	-11.155	0.0817	8.3878	15.2514	6.9634	13.3098
7.2083	10.9781	13.0512	11.4635	16.948	19.5746	13.8133	17.3925	23.1447	16.3945	18.0004	23.4033	19.4793	-0.059	-9.3813	-11.0779	0.1406	8.4876	15.3648	7.0722	13.3824
7.3127	11.0733	13.21	11.586	17.0886	19.7787	13.9585	17.5785	23.426	16.635	18.1864	23.7117	19.8286	-0.0862	-9.4085	-11.0461	0.1769	8.5874	15.5099	7.1902	13.5003
7.4397	11.1822	13.464	11.7674	17.2519	20.0826	14.1581	17.7509	23.739	16.8935	18.386	24.0837	20.2096	-0.0998	-9.3858	-11.0234	0.2132	8.7552	15.6188	7.3081	13.6092
7.5576	11.2593	13.6954	11.9126	17.4334	20.3503	14.3577	17.9777	24.0747	17.1703	18.572	24.4648	20.6043	-0.1316	-9.3586	-11.0597	0.2404	8.8732	15.7186	7.3807	13.7181
7.73	11.3818	13.9403	12.0986	17.6284	20.6814	14.5936	18.1955	24.4376	17.5014	18.817	24.864	21.0126	-0.1316	-9.3495	-11.0688	0.2676	9.0229	15.8819	7.5259	13.8814
7.7935	11.4952	14.1445	12.2437	17.828	20.9718	14.8023	18.3906	24.7869	17.8144	19.0483	25.2677	21.4027	-0.1316	-9.2951	-11.1051	0.2722	9.1771	16.0362	7.6574	14.0084
7.9115	11.5587	14.3169	12.3481	18.0004	21.194	14.9928	18.5992	25.1316	18.1093	19.2389	25.6306	21.7702	-0.1588	-9.2815	-11.2004	0.3175	9.2724	16.1178	7.7346	14.1037
8.0203	11.7084	14.5255	12.5295	18.1637	21.5207	15.2287	18.8034	25.4855	18.4314	19.443	26.0616	22.1739	-0.1588	-9.227	-11.2729	0.3221	9.3994	16.2085	7.8434	14.2125
8.1292	11.8264	14.7569	12.6838	18.3316	21.752	15.4283	18.9712	25.7985	18.7444	19.629	26.4018	22.5368	-0.1678	-9.2134	-11.3138	0.3493	9.5355	16.2494	7.8843	14.2987
8.2472	11.967	14.9293	12.7972	18.4858	22.0106	15.6415	19.1391	26.0843	19.0302	19.8286	26.7511	22.8952	-0.1769	-9.1363	-11.3682	0.3538	9.6172	16.2494	7.9205	14.335
8.2835	12.0396	15.0699	12.906	18.6174	22.2147	15.8592	19.316	26.3292	19.3069	19.9874	27.0641	23.2082	-0.1815	-9.1045	-11.4272	0.3811	9.717	16.2448	7.9069	14.3985
8.347	12.1122	15.2105	13.0376	18.7126	22.4053	16.0407	19.4112	26.5787	19.5519	20.128	27.3454	23.494	-0.186	-9.032	-11.5361	0.3765	9.7533	16.1949	7.9024	14.4484
8.3969	12.2301	15.2967	13.1419	18.8442	22.6275	16.1995	19.5337	26.7874	19.7832	20.2323	27.5949	23.739	-0.1951	-9.0365	-11.5678	0.372	9.8304	16.1405	7.8752	14.4575
8.3923	12.2982	15.3648	13.2327	18.9213	22.7273	16.331	19.6063	26.9507	19.9511	20.2595	27.7537	23.9159	-0.1951	-9.0093	-11.654	0.3856	9.8576	16.0588	7.8389	14.3895
8.4332	12.3798	15.4056	13.2826	19.003	22.8362	16.4399	19.6653	27.0732	20.1416	20.3321	27.9261	24.1246	-0.1905	-9.0229	-11.7402	0.3765	9.8893	15.9817	7.8026	14.3668
8.4196	12.4252	15.4873	13.2962	19.0483	22.9315	16.5125	19.697	27.1821	20.2822	20.3503	28.0667	24.2425	-0.186	-9.0138	-11.8218	0.3538	9.9166	15.9318	7.7255	14.2896
8.4014	12.4706	15.5009	13.3189	19.0619	22.9859	16.5987	19.6925	27.2456	20.3593	20.3457	28.1438	24.3468	-0.1542	-9.0819	-11.8899	0.3312	9.9166	15.8048	7.6756	14.2125
8.3878	12.4887	15.4918	13.3007	19.0529	23.0086	16.6304	19.6834	27.2683	20.4274	20.2958	28.1846	24.3967	-0.1633	-9.0728	-11.9852	0.3266	9.9211	15.7504	7.6121	14.09
8.3742	12.5386	15.4691	13.2871	19.0755	23.0222	16.6395	19.629	27.2683	20.4682	20.2323	28.2119	24.4512	-0.1452	-9.1091	-12.0986	0.2858	9.903	15.6687	7.5712	14.0039
8.4059	12.5704	15.4736	13.2962	19.0619	23.0177	16.6531	19.5882	27.2501	20.4864	20.1416	28.2028	24.4466	-0.1361	-9.1136	-12.1848	0.2676	9.903	15.5961	7.5213	13.895
8.3878	12.6157	15.4782	13.3234	19.0211	23.0222	16.6395	19.5519	27.2184	20.5	20.0826	28.2028	24.4512	-0.127	-9.1363	-12.271	0.2631	9.8939	15.5372	7.4533	13.7498
8.3606	12.5749	15.4056	13.2145	18.9757	22.9542	16.576	19.4566	27.105	20.441	19.9601	28.103	24.3877	-0.1316	-9.1726	-12.3844	0.2767	9.8576	15.451	7.4488	13.591
8.3742	12.5704	15.4056	13.1964	18.9485	22.9269	16.5578	19.3659	27.0687	20.4183	19.8513	28.0304	24.3242	-0.1452	-9.2043	-12.4978	0.2858	9.8258	15.4374	7.4352	13.5049
8.4105	12.5885	15.3875	13.1918	18.8669	22.868	16.5079	19.2661	26.9689	20.3684	19.7106	27.9079	24.2652	-0.1497	-9.2134	-12.593	0.2903	9.8531	15.392	7.4306	13.3869
8.4014	12.5794	15.3693	13.1556	18.8215	22.8045	16.4762	19.1753	26.8419	20.2732	19.5791	27.7945	24.1246	-0.1588	-9.2089	-12.6792	0.3266	9.8394	15.3602	7.4215	13.2417
8.4468	12.5613	15.3512	13.1193	18.7807	22.7137	16.3855	19.0755	26.6967	20.187	19.4748	27.6357	24.0157	-0.1724	-9.2679	-12.7518	0.3266	9.8213	15.3466	7.4034	13.1102
8.4377	12.5386	15.2922	13.0603	18.69	22.6185	16.3083	18.9032	26.5243	20.0373	19.2797	27.4089	23.8569	-0.1905	-9.2588	-12.8698	0.3674	9.7759	15.3058	7.3807	12.9922
8.4513	12.525	15.2423	12.9605	18.5629	22.4597	16.1768	18.7716	26.3519	19.8921	19.1164	27.2002	23.6755	-0.2041	-9.3359	-12.9832	0.4173	9.7306	15.2196	7.358	12.8471
8.4014	12.4751	15.1606	12.8561	18.4813	22.3191	16.0407	18.5856	26.0979	19.7106	18.9032	26.919	23.4441	-0.2268	-9.404	-13.092	0.4536	9.6988	15.1334	7.2809	12.6838
8.3606	12.407	15.0744	12.7518	18.3407	22.1104	15.8547	18.4178	25.8257	19.5065	18.699	26.6241	23.1447	-0.2495	-9.4675	-13.2417	0.5126	9.5945	15.0654	7.2038	12.5477
8.3152	12.3617	14.9701	12.6565	18.2046	21.8972	15.6596	18.2091	25.5626	19.2752	18.4677	26.3474	22.8725	-0.2722	-9.5264	-13.337	0.5444	9.54	14.9792	7.1539	12.4343
8.229	12.2437	14.7841	12.4706	18.0413	21.6431	15.4237	17.9868	25.2224	18.9667	18.2	26.0117	22.5232	-0.3175	-9.6671	-13.4822	0.6306	9.413	14.8794	7.0405	12.28
8.1111	12.1258	14.6344	12.3072	17.8734	21.4073	15.1924	17.76	24.9184	18.6582	17.9551	25.6579	22.1784	-0.3357	-9.7805	-13.6001	0.6805	9.2905	14.766	6.918	12.1394
8.0385	12.0124	14.4938	12.1167	17.6829	21.1169	14.9429	17.4833	24.5601	18.3543	17.6647	25.3267	21.8155	-0.3538	-9.8168	-13.6364	0.7258	9.1408	14.6526	6.7819	11.9942
7.8933	11.8763	14.2987	11.9353	17.4787	20.8311	14.6889	17.2383	24.2198	18.0367	17.4016	24.9865	21.439	-0.3947	-9.9302	-13.7181	0.7667	8.9957	14.5346	6.6005	11.8627
7.7436	11.7311	14.0674	11.7175	17.2973	20.5408	14.4031	17.016	23.8887	17.6919	17.1385	24.6689	21.0625	-0.4173	-10.03	-13.8043	0.8256	8.8505	14.4348	6.4508	11.722
7.6121	11.6132	13.9086	11.5542	17.0841	20.2369	14.1626	16.7348	23.5303	17.3517	16.8482	24.365	20.6542	-0.44	-10.0935	-13.8179	0.8665	8.6827	14.3214	6.2693	11.586
7.4714	11.4771	13.6818	11.3682	16.9026	19.9465	13.9086	16.4671	23.181	17.0296	16.5896	24.0701	20.2913	-0.4491	-10.1479	-13.8179	0.8846	8.5194	14.2488	6.1377	11.4499
7.349	11.3546	13.4958	11.1731	16.6939	19.6471	13.6409	16.2131	22.8362	16.6939	16.322	23.7526	19.9102	-0.4582	-10.1706	-13.7906	0.9118	8.3243	14.1399	5.988	11.3274
7.163	11.2321	13.2735	10.9917	16.5216	19.3432	13.4141	15.9727	22.496	16.3764	16.0407	23.4577	19.511	-0.4582	-10.1842	-13.7997	0.9164	8.1746	13.9948	5.7884	11.2004
7.0087	11.0643	13.0467	10.7739	16.3038	19.0347	13.1419	15.7277	22.1467	16.0271	15.7458	23.181	19.1164	-0.4627	-10.2432	-13.8224	0.9118	7.9977	13.8678	5.6569	11.0688
6.8908	10.9554	12.8743	10.5834	16.1405	18.7535	12.8879	15.4827	21.8291	15.705	15.46	22.8907	18.7852	-0.4582	-10.225	-13.7861	0.8937	7.8434	13.7271	5.4709	10.9146
6.6866	10.8193	12.6429	10.3475	15.9137	18.4495	12.6066	15.1969	21.4798	15.3693	15.1516	22.5913	18.3497	-0.4491	-10.2568	-13.7952	0.8846	7.6302	13.591	5.3348	10.783
6.5052	10.6741	12.3889	10.0844	15.6959	18.1093	12.3254	14.9066	21.1033	15.0291	14.7932	22.251	17.9369	-0.4582	-10.3022	-13.7997	0.9027	7.4261	13.396	5.1533	10.5925
6.3328	10.4927	12.1575	9.8168	15.4646	17.7827	12.0396	14.6299	20.7041	14.648	14.4666	21.9108	17.515	-0.4491	-10.3022	-13.8133	0.8937	7.2401	13.2327	5.0218	10.4292
6.1514	10.3657	11.899	9.5854	15.2423	17.4651	11.7629	14.3396	20.3231	14.2942	14.1354	21.5706	17.0931	-0.4491	-10.2568	-13.8179	0.8846	7.0813	13.092	4.8993	10.3294
5.9699	10.216	11.6359	9.3178	15.0155	17.1294	11.4136	14.0175	19.9057	13.9041	13.7952	21.185	16.6622	-0.44	-10.2976	-13.8315	0.9027	6.8908	12.9242	4.7496	10.1525
5.7703	10.0572	11.3818	9.041	14.8068	16.7756	11.1278	13.709	19.5201	13.5457	13.4731	20.8357	16.204	-0.4491	-10.3112	-13.8224	0.8937	6.6866	12.7972	4.6634	10.0436
5.6024	9.9166	11.1096	8.7643	14.5618	16.449	10.7921	13.4232	19.0982	13.1419	13.1193	20.5045	15.7821	-0.4672	-10.3112	-13.8088	0.9073	6.5052	12.6702	4.55	9.9438
5.4482	9.7714	10.8919	8.4921	14.3486	16.0997	10.529	13.1238	18.6854	12.8017	12.8153	20.1597	15.3376	-0.4536	-10.3158	-13.8269	0.9073	6.3237	12.5386	4.423	9.8304
5.2123	9.6081	10.6061	8.1927	14.0538	15.764	10.1887	12.7926	18.2862	12.398	12.4433	19.8241	14.8794	-0.4718	-10.3702	-13.8451	0.9526	6.1151	12.4116	4.3005	9.6943
5.0581	9.4493	10.3702	7.9342	13.8814	15.4691	9.8939	12.4932	17.9097	12.0668	12.1575	19.5247	14.4983	-0.4899	-10.3838	-13.8315	0.9663	5.9245	12.3209	4.1735	9.599
4.8812	9.2588	10.1071	7.6393	13.6455	15.1062	9.5899	12.1712	17.515	11.6767	11.8309	19.2207	14.0628	-0.499	-10.3747	-13.8179	0.998	5.734	12.1893	4.0374	9.4992
4.6906	9.1045	9.8531	7.3989	13.4141	14.7977	9.2905	11.8854	17.1567	11.341	11.5315	18.9621	13.6682	-0.5081	-10.4382	-13.7997	1.0207	5.5389	12.085	3.8514	9.3903
4.5591	8.9821	9.6489	7.1902	13.2191	14.5528	9.0546	11.5905	16.8255	11.0416	11.2775	18.7353	13.3234	-0.5171	-10.4564	-13.7952	1.0343	5.3575	12.0033	3.7108	9.2996
4.3867	8.7825	9.3813	6.9316	12.9605	14.2397	8.7825	11.3047	16.4762	10.7059	10.9645	18.4858	12.9378	-0.5534	-10.538	-13.8224	1.0661	5.1533	11.908	3.5429	9.1817
4.2415	8.6554	9.2134	6.7275	12.7609	13.9721	8.5647	11.0416	16.2131	10.411	10.6968	18.2908	12.6112	-0.5171	-10.597	-13.8542	1.0479	5.0082	11.8627	3.4159	9.1045
4.0828	8.474	8.9866	6.5279	12.5205	13.709	8.3334	10.7377	15.9182	10.1434	10.4337	18.0866	12.3118	-0.5308	-10.724	-13.9358	1.0524	4.863	11.8037	3.2571	9.0138
3.9512	8.3515	8.7961	6.3283	12.3526	13.5003	8.1474	10.4927	15.646	9.8712	10.1797	17.9414	12.0351	-0.5035	-10.783	-13.9721	1.0025	4.7088	11.7493	3.1074	8.914
3.8423	8.2245	8.6464	6.1876	12.1757	13.2916	7.9614	10.2477	15.4283	9.6489	9.9574	17.7328	11.7538	-0.4854	-10.9509	-14.0447	0.9663	4.5908	11.6903	3.0076	8.8188
3.7017	8.043	8.4785	6.0198	11.9579	13.0557	7.7799	9.9982	15.1516	9.4493	9.7533	17.5513	11.4725	-0.4536	-11.1232	-14.1354	0.9118	4.491	11.6676	2.9214	8.7462
3.611	7.8843	8.3107	5.8973	11.7629	12.8561	7.5849	9.7623	14.9111	9.218	9.4947	17.32	11.2185	-0.4264	-11.2412	-14.1808	0.8528	4.3459	11.586	2.799	8.6418
3.5293	7.7164	8.1701	5.7522	11.5905	12.6112	7.4352	9.5219	14.648	8.9594	9.2497	17.075	10.9236	-0.4219	-11.3864	-14.2035	0.8347	4.2415	11.4998	2.6992	8.542
3.4477	7.5849	8.0385	5.6297	11.4363	12.4161	7.2673	9.2951	14.4031	8.7144	9.0184	16.8119	10.6878	-0.3992	-11.5542	-14.2307	0.7803	4.1599	11.468	2.6402	8.4513
3.3388	7.4624	7.9069	5.5117	11.2639	12.2347	7.1312	9.1227	14.1672	8.4921	8.7961	16.5805	10.3747	-0.3811	-11.6858	-14.2942	0.753	4.0192	11.3818	2.5495	8.3424
3.2707	7.3626	7.7799	5.3892	11.1096	12.0396	6.9452	8.9004	13.9358	8.2426	8.5874	16.2857	10.1071	-0.3947	-11.7992	-14.2942	0.7576	3.9104	11.3138	2.4224	8.2517
3.2163	7.2492	7.6665	5.2804	10.969	11.8491	6.8001	8.7099	13.6908	8.0113	8.3923	15.9727	9.8168	-0.3674	-11.8717	-14.267	0.7304	3.8333	11.2412	2.3771	8.1519
3.1846	7.2038	7.5894	5.2169	10.8828	11.7039	6.6685	8.5874	13.4686	7.8026	8.229	15.7095	9.5491	-0.3765	-11.9217	-14.2987	0.7394	3.6972	11.1369	2.3226	8.0566
3.1936	7.1675	7.5758	5.1397	10.7966	11.6041	6.5687	8.4649	13.2916	7.6075	8.043	15.4873	9.3132	-0.372	-11.9171	-14.2216	0.7349	3.611	11.0643	2.2818	7.9841
3.2208	7.1811	7.5168	5.1125	10.7785	11.5088	6.4961	8.3833	13.1737	7.4533	7.9024	15.2877	9.1182	-0.3674	-11.8854	-14.1536	0.7349	3.552	10.9826	2.2773	7.9115
3.2844	7.1947	7.5259	5.1443	10.7558	11.4589	6.4462	8.3515	13.0376	7.3217	7.7935	15.0835	8.8959	-0.3901	-11.8445	-14.1127	0.753	3.4749	10.9236	2.2682	7.8298
3.3705	7.2401	7.5667	5.167	10.8284	11.4499	6.419	8.3016	12.9696	7.2219	7.7164	14.9202	8.7643	-0.3901	-11.713	-13.9857	0.7667	3.4114	10.91	2.3226	7.789
3.4613	7.3444	7.6257	5.2259	10.8511	11.4771	6.419	8.3243	12.9423	7.104	7.671	14.7932	8.601	-0.3992	-11.5996	-13.8678	0.7893	3.4023	10.8692	2.3499	7.7391
3.6291	7.4805	7.7255	5.3529	10.9509	11.5315	6.4553	8.3697	12.9514	7.0949	7.6166	14.6662	8.5012	-0.4173	-11.4226	-13.7226	0.8302	3.3842	10.8737	2.4043	7.7255
3.7561	7.6166	7.8616	5.48	11.096	11.595	6.5279	8.4059	12.9877	7.1085	7.5758	14.5754	8.474	-0.4355	-11.2004	-13.5956	0.8665	3.3705	10.8919	2.4859	7.7073
3.9285	7.7799	7.9795	5.6569	11.2276	11.713	6.6277	8.4876	12.9922	7.0995	7.535	14.4711	8.3833	-0.4536	-11.0008	-13.4232	0.9209	3.3297	10.901	2.5495	7.671
4.0964	7.916	8.1202	5.8066	11.3455	11.8128	6.7229	8.542	13.024	7.1312	7.5077	14.4076	8.3606	-0.4718	-10.7467	-13.2327	0.9572	3.3569	10.9055	2.6447	7.6393
4.2687	8.0839	8.288	5.9563	11.5088	11.9353	6.8545	8.6328	13.0966	7.1811	7.4941	14.3033	8.3515	-0.4899	-10.538	-13.092	0.9844	3.3615	10.9735	2.7354	7.6211
4.4411	8.229	8.415	6.1468	11.6767	12.0759	6.9679	8.7008	13.1238	7.2356	7.4805	14.2216	8.3107	-0.5081	-10.3067	-12.8879	1.0252	3.3524	11.0008	2.8171	7.5712
4.6135	8.4377	8.6237	6.36	11.8445	12.2074	7.1221	8.8233	13.2055	7.3172	7.4624	14.1263	8.3061	-0.5217	-10.0617	-12.7019	1.0388	3.3615	11.0507	2.8715	7.544
4.8222	8.6418	8.8006	6.5506	12.0441	12.3571	7.3036	8.9231	13.2554	7.3898	7.4578	14.0356	8.3107	-0.5171	-9.7941	-12.4433	1.0343	3.3479	11.0733	2.9441	7.535
5.0036	8.8188	8.9821	6.7365	12.2074	12.5386	7.4533	9.0546	13.3325	7.4805	7.4397	13.9449	8.3016	-0.5262	-9.5718	-12.2392	1.0434	3.3615	11.1006	2.9623	7.5213
5.2123	9.0274	9.1408	6.9271	12.398	12.6883	7.6211	9.1045	13.396	7.5531	7.4215	13.836	8.2744	-0.5171	-9.3722	-11.9761	1.0252	3.3796	11.1323	2.9986	7.4805
5.3892	9.1771	9.3041	7.1131	12.5658	12.8425	7.8117	9.2089	13.4686	7.6529	7.4125	13.7544	8.2336	-0.5171	-9.1544	-11.6585	1.0298	3.3297	11.1323	3.0031	7.417
5.6297	9.3813	9.531	7.3036	12.7291	13.0467	7.9931	9.3178	13.5366	7.7799	7.4215	13.6908	8.3016	-0.4945	-8.9458	-11.3909	0.9889	3.3569	11.1459	3.0575	7.3989
5.8066	9.5038	9.7034	7.4851	12.8698	13.2055	8.1428	9.3994	13.6409	7.8752	7.4261	13.6319	8.3152	-0.4945	-8.8006	-11.096	0.9799	3.3343	11.1414	3.0394	7.3444
6.0062	9.6716	9.8893	7.6574	13.0376	13.3778	8.3152	9.472	13.7317	7.9977	7.4714	13.5865	8.3334	-0.4763	-8.6464	-10.8148	0.939	3.3252	11.1822	3.0621	7.2991
6.1831	9.8032	10.0753	7.8434	13.1782	13.5638	8.4604	9.5582	13.8133	8.1065	7.4215	13.523	8.3923	-0.4446	-8.5602	-10.5925	0.9209	3.3116	11.2004	3.0711	7.2718
6.3736	9.9846	10.3067	8.0022	13.337	13.777	8.66	9.6716	13.9313	8.2336	7.4941	13.523	8.4695	-0.44	-8.3742	-10.3475	0.8755	3.307	11.2185	3.0802	7.2265
6.546	10.1071	10.47	8.161	13.4958	13.9585	8.8097	9.7533	14.0447	8.3742	7.5259	13.4912	8.5148	-0.4355	-8.3334	-10.157	0.8665	3.3025	11.3002	3.0802	7.1766
6.7275	10.2795	10.6787	8.3152	13.6682	14.1354	8.9594	9.8667	14.1717	8.4967	7.5939	13.4822	8.5783	-0.4083	-8.2245	-9.9529	0.8438	3.3388	11.3773	3.1301	7.1902
6.9225	10.4428	10.8828	8.4921	13.8632	14.3486	9.1408	9.9982	14.3033	8.6736	7.6801	13.5094	8.6827	-0.4083	-8.1564	-9.7578	0.8302	3.3252	11.4499	3.1619	7.1448
7.0632	10.6106	11.087	8.6464	14.0401	14.5528	9.2996	10.1434	14.4802	8.8324	7.7436	13.5321	8.8097	-0.3947	-8.0657	-9.6716	0.7939	3.3479	11.5769	3.2254	7.1584
7.2265	10.7966	11.2775	8.8097	14.208	14.7796	9.4493	10.2885	14.6117	8.9775	7.8933	13.5729	8.9412	-0.372	-8.0203	-9.5763	0.7667	3.4159	11.7311	3.2889	7.2129
7.3626	10.9373	11.4952	8.9276	14.4121	14.961	9.5899	10.4292	14.7614	9.1408	8.0022	13.591	9.0728	-0.3629	-7.975	-9.531	0.7304	3.4658	11.8627	3.3705	7.2265
7.4488	11.0461	11.5996	9.0229	14.5618	15.1062	9.7351	10.5789	14.9066	9.286	8.1292	13.6137	9.2043	-0.3629	-7.9659	-9.531	0.7394	3.4885	11.9579	3.4159	7.2492
7.5531	11.1505	11.7674	9.1045	14.7025	15.2831	9.8485	10.7059	14.9973	9.4085	8.2472	13.6319	9.3495	-0.3493	-7.9886	-9.54	0.7122	3.5202	12.0714	3.4976	7.2718
7.6484	11.282	11.908	9.1771	14.8839	15.4283	9.9302	10.8375	15.138	9.54	8.4014	13.6908	9.472	-0.3312	-7.9568	-9.6126	0.685	3.5565	12.212	3.5248	7.29
7.6892	11.409	12.0169	9.2497	15.0155	15.5916	10.0481	11.0098	15.2695	9.6897	8.542	13.7725	9.6217	-0.3266	-7.9977	-9.7079	0.6623	3.6382	12.3299	3.611	7.3354
7.7119	11.4589	12.1394	9.2633	15.1289	15.6733	10.1026	11.096	15.333	9.7351	8.6554	13.7861	9.7396	-0.3448	-8.0203	-9.785	0.6759	3.6699	12.4116	3.6337	7.3626
7.7482	11.5361	12.2301	9.3223	15.2468	15.8003	10.1706	11.2276	15.4419	9.844	8.7779	13.8632	9.8803	-0.3584	-8.0521	-9.9075	0.7122	3.6972	12.4479	3.6972	7.3943
7.7845	11.6268	12.3571	9.3858	15.3829	15.9727	10.2523	11.3818	15.6143	9.971	8.9458	13.9766	10.0481	-0.3493	-8.0476	-10.0028	0.6895	3.7471	12.525	3.7607	7.4215
7.8344	11.654	12.4207	9.413	15.4736	16.077	10.3294	11.4952	15.7141	10.0254	9.0456	14.0583	10.1842	-0.3448	-8.0476	-10.0708	0.6986	3.797	12.5976	3.8106	7.4669
7.8888	11.7402	12.5341	9.413	15.5961	16.2267	10.3974	11.6132	15.8638	10.1615	9.2452	14.1989	10.3611	-0.3493	-8.0566	-10.157	0.6895	3.8196	12.6656	3.8514	7.4805
7.916	11.7719	12.6339	9.4539	15.705	16.3628	10.4655	11.7674	16.0044	10.2795	9.3858	14.3804	10.5108	-0.3493	-8.0158	-10.225	0.6941	3.8333	12.7563	3.8559	7.5486
7.9977	11.8264	12.7201	9.5264	15.7957	16.5079	10.5108	11.8808	16.1632	10.3747	9.5718	14.5437	10.7195	-0.3402	-7.9977	-10.2749	0.6895	3.8741	12.7836	3.8786	7.5985
8.0203	11.899	12.8471	9.5718	15.8865	16.644	10.5879	12.0169	16.2993	10.5018	9.6988	14.6798	10.8828	-0.3357	-8.0113	-10.3747	0.6669	3.8968	12.9015	3.8922	7.6801
8.0702	11.9534	12.9015	9.5899	15.9772	16.7212	10.6651	12.1394	16.4807	10.5925	9.8848	14.8794	11.0461	-0.3312	-7.9523	-10.4065	0.6487	3.8786	12.9786	3.8968	7.7209
8.1338	11.9761	13.0195	9.658	16.0997	16.8482	10.7286	12.2528	16.6168	10.7195	10.0436	15.0518	11.2185	-0.3085	-7.9659	-10.4246	0.6124	3.9149	13.0603	3.9104	7.7799
8.161	12.0577	13.0694	9.6897	16.136	16.9752	10.7876	12.3708	16.7438	10.8012	10.1298	15.1833	11.3818	-0.2994	-7.9205	-10.4745	0.5943	3.9648	13.1283	3.9013	7.8616
8.2109	12.0759	13.1329	9.726	16.2721	17.0569	10.8511	12.4887	16.8754	10.8828	10.2659	15.3149	11.5179	-0.2767	-7.9024	-10.4382	0.5534	3.983	13.2009	3.9421	7.9024
8.2653	12.1485	13.2281	9.7759	16.3401	17.1612	10.8828	12.593	16.9843	10.9554	10.4065	15.451	11.6359	-0.2722	-7.8979	-10.4655	0.5353	4.0329	13.278	3.9512	7.9931
8.3061	12.1621	13.2554	9.7623	16.4218	17.202	10.8874	12.652	17.0523	10.9645	10.4791	15.4918	11.6903	-0.2586	-7.8525	-10.4382	0.5217	4.0329	13.2962	3.9512	8.0294
8.3379	12.212	13.2962	9.7714	16.4717	17.2338	10.8692	12.7246	17.1385	10.9781	10.5335	15.5462	11.7447	-0.254	-7.8162	-10.3702	0.5126	4.0329	13.3461	3.9966	8.0702
8.4059	12.28	13.3234	9.7533	16.5669	17.261	10.8692	12.8062	17.1703	10.9917	10.6152	15.6052	11.7765	-0.2631	-7.8207	-10.3248	0.5081	4.0238	13.4187	3.9512	8.1338
8.4377	12.2936	13.3325	9.7351	16.6168	17.261	10.8238	12.8516	17.1839	10.9781	10.6741	15.6097	11.7402	-0.2767	-7.789	-10.2341	0.5126	3.9966	13.4686	3.9421	8.1973
8.4785	12.3027	13.3415	9.6897	16.6486	17.2791	10.7876	12.9106	17.2066	10.9418	10.7195	15.6324	11.7311	-0.2586	-7.7436	-10.1525	0.5217	3.9875	13.5049	3.8877	8.229
8.4921	12.3526	13.3234	9.6398	16.6713	17.2383	10.7422	12.9151	17.2066	10.9146	10.7694	15.6506	11.6359	-0.2903	-7.7436	-10.1207	0.5489	3.9285	13.5548	3.8333	8.2971
8.5284	12.3526	13.2962	9.5718	16.7166	17.1929	10.6197	12.9287	17.1657	10.8148	10.7876	15.6506	11.5723	-0.2994	-7.7346	-10.0209	0.5897	3.8968	13.6047	3.7471	8.3515
8.5874	12.4116	13.3234	9.531	16.7711	17.1975	10.5834	12.9786	17.1929	10.7876	10.8647	15.7141	11.5406	-0.3221	-7.671	-9.8984	0.6124	3.8605	13.65	3.6563	8.4196
8.601	12.4161	13.2599	9.4357	16.762	17.0977	10.4836	12.9741	17.1748	10.7195	10.8783	15.7458	11.4181	-0.3448	-7.6393	-9.8394	0.6895	3.7743	13.6546	3.5611	8.4604
8.66	12.4796	13.269	9.4266	16.8028	17.1113	10.4246	13.0058	17.1748	10.6696	10.9146	15.8048	11.3591	-0.3629	-7.5531	-9.7396	0.7258	3.7153	13.6727	3.4703	8.542
8.6917	12.4706	13.2508	9.3949	16.7983	17.0432	10.3657	13.024	17.1385	10.6061	10.9327	15.8411	11.2593	-0.3947	-7.4352	-9.6172	0.7848	3.6518	13.6908	3.4023	8.5965
8.719	12.5023	13.2191	9.3586	16.83	17.0432	10.3203	13.0331	17.1793	10.5426	10.9554	15.8592	11.1595	-0.4264	-7.3263	-9.4901	0.8574	3.62	13.6818	3.3343	8.6328
8.7961	12.5114	13.2145	9.3223	16.821	16.9752	10.2386	13.0058	17.1385	10.47	10.9781	15.9001	11.0688	-0.4446	-7.1675	-9.3586	0.8937	3.5248	13.6772	3.2617	8.6691
8.8596	12.5205	13.1782	9.2679	16.8164	16.9117	10.157	13.0331	17.1113	10.3929	10.9509	15.9046	10.9781	-0.4854	-7.0133	-9.2588	0.9526	3.4613	13.6863	3.1982	8.7371
8.9322	12.5567	13.1737	9.2497	16.7983	16.8663	10.1116	13.0149	17.0977	10.3248	11.0008	15.9001	10.8375	-0.4809	-6.8273	-9.1136	0.9617	3.4658	13.7181	3.1936	8.8142
8.9775	12.5976	13.1374	9.227	16.8074	16.8255	10.03	13.0376	17.0523	10.2704	11.0008	15.9046	10.724	-0.499	-6.6957	-8.9957	0.9889	3.4159	13.7453	3.2027	8.855
9.0501	12.593	13.1283	9.1953	16.7937	16.7257	9.9891	13.0376	16.9933	10.1751	11.0234	15.8547	10.6152	-0.5081	-6.5143	-8.8596	0.998	3.3796	13.8133	3.2118	8.9412
9.0864	12.5885	13.083	9.1726	16.762	16.6576	9.9392	12.9922	16.8845	10.0935	11.0053	15.7912	10.4473	-0.5081	-6.3872	-8.7235	1.0343	3.3524	13.8723	3.2662	9.032
9.1045	12.6203	13.0195	9.1182	16.703	16.5079	9.8939	12.9605	16.7665	9.9619	10.9962	15.6869	10.2749	-0.5308	-6.2784	-8.5829	1.0343	3.3479	13.9449	3.2753	9.1272
9.1182	12.5658	12.9287	9.1091	16.6214	16.39	9.8258	12.9151	16.6168	9.844	10.9781	15.5825	10.0753	-0.5444	-6.174	-8.5012	1.0661	3.3116	13.9857	3.3025	9.1998
9.1091	12.5386	12.8425	9.0546	16.5578	16.2539	9.7578	12.8062	16.4717	9.6943	10.9146	15.4374	9.8531	-0.5308	-6.0379	-8.4014	1.0524	3.2707	14.022	3.3433	9.2406
9.0592	12.4479	12.6883	9.0047	16.4354	16.0498	9.6535	12.7337	16.2857	9.5128	10.8284	15.265	9.6126	-0.5534	-5.9608	-8.3061	1.0706	3.2027	14.0583	3.3025	9.3178
8.9957	12.3299	12.5295	8.9095	16.2902	15.8366	9.5128	12.5885	16.0316	9.3087	10.7603	15.0835	9.3495	-0.5534	-5.8973	-8.2699	1.0797	3.1573	14.0447	3.2707	9.3586
8.9004	12.1848	12.3481	8.8006	16.1087	15.6143	9.3677	12.4796	15.7731	9.0637	10.6333	14.8885	9.0546	-0.5262	-5.861	-8.2653	1.0706	3.0711	14.0401	3.2254	9.3722
8.7507	12.0577	12.1485	8.6827	15.9364	15.3829	9.2089	12.3299	15.5417	8.8505	10.5154	14.7025	8.7961	-0.5534	-5.852	-8.3379	1.0842	2.9577	13.9902	3.1619	9.3903
8.6237	11.8808	11.9398	8.5466	15.7368	15.1289	9.032	12.1575	15.2786	8.5874	10.402	14.4802	8.5194	-0.5761	-5.8928	-8.4468	1.116	2.8534	13.9403	3.0711	9.3949
8.4468	11.6767	11.7039	8.3923	15.5644	14.8658	8.846	11.9716	14.961	8.3152	10.2386	14.2216	8.22	-0.5807	-6.0017	-8.6101	1.1341	2.7264	13.836	2.9577	9.3677
8.2744	11.4998	11.4771	8.2517	15.3512	14.5981	8.7144	11.8128	14.6798	8.0702	10.0617	14.0356	7.916	-0.5852	-6.0969	-8.7689	1.1659	2.6175	13.7271	2.8398	9.3314
8.0521	11.282	11.214	8.0702	15.1425	14.2942	8.5194	11.6268	14.4167	7.8298	9.912	13.8043	7.6665	-0.6124	-6.2058	-8.9458	1.2067	2.5086	13.6001	2.7264	9.2815
7.848	11.087	10.9599	7.9205	14.9247	14.022	8.3288	11.4408	14.1536	7.5894	9.7533	13.5593	7.4306	-0.626	-6.3827	-9.1771	1.243	2.4406	13.464	2.622	9.2361
7.6393	10.8556	10.7104	7.7482	14.7115	13.7589	8.1519	11.2321	13.8632	7.3853	9.531	13.3279	7.1902	-0.6532	-6.5233	-9.3677	1.2838	2.3589	13.3325	2.5177	9.1771
7.4578	10.6741	10.4655	7.6348	14.4847	13.4686	7.9886	11.0053	13.6092	7.1494	9.3268	13.0512	6.9588	-0.6442	-6.6367	-9.5673	1.3065	2.2773	13.1964	2.4315	9.1
7.231	10.4382	10.2114	7.4624	14.2261	13.1918	7.7981	10.783	13.3007	6.9498	9.1408	12.8062	6.7547	-0.6759	-6.8091	-9.7442	1.3382	2.2319	13.092	2.3589	9.0501
6.9997	10.1751	9.9211	7.2809	13.9676	12.9015	7.6529	10.5517	12.9877	6.7365	8.9276	12.5159	6.5506	-0.685	-6.9452	-9.9619	1.3473	2.1503	12.9786	2.2863	8.9685
6.7774	9.9347	9.6444	7.1131	13.709	12.5885	7.4941	10.3294	12.6656	6.5188	8.6917	12.212	6.351	-0.6895	-7.0632	-10.157	1.3564	2.0913	12.906	2.2183	8.9004
6.5007	9.6716	9.3631	6.9135	13.455	12.2755	7.3081	10.0889	12.3299	6.3373	8.4513	11.8899	6.1423	-0.6714	-7.1176	-10.2976	1.3337	2.0731	12.8471	2.1185	8.8369
6.3101	9.4266	9.0728	6.7184	13.1692	11.9489	7.1267	9.844	12.0215	6.1604	8.2517	11.5814	5.9336	-0.6623	-7.163	-10.47	1.3156	2.0323	12.8153	2.0323	8.7598
6.0379	9.1817	8.7598	6.5369	12.8788	11.6313	6.9498	9.5537	11.6495	5.9336	8.043	11.2639	5.7385	-0.6351	-7.2174	-10.5879	1.2883	2.0051	12.7518	1.9915	8.6917
5.8202	8.9095	8.5012	6.3691	12.6066	11.3319	6.7819	9.3268	11.3365	5.7522	7.7935	10.9236	5.548	-0.6442	-7.2265	-10.7467	1.2747	1.9325	12.6656	1.9416	8.6101
5.5888	8.6554	8.1927	6.1377	12.3254	10.9962	6.605	9.0546	10.9735	5.5571	7.5667	10.5743	5.3666	-0.6079	-7.2038	-10.8556	1.2294	1.928	12.5885	1.8781	8.533
5.3393	8.3515	7.9205	5.9472	12.0351	10.656	6.4145	8.8051	10.656	5.3938	7.3172	10.2659	5.1942	-0.6079	-7.1584	-10.9917	1.2021	1.9144	12.5114	1.8191	8.4196
5.0853	8.1156	7.6075	5.7522	11.7629	10.3384	6.2239	8.5194	10.3203	5.2305	7.0722	9.9801	5.0309	-0.5988	-7.1403	-11.1187	1.2021	1.8781	12.4207	1.8055	8.3061
4.9084	7.8797	7.3444	5.5435	11.4725	10.0799	6.047	8.2744	10.0118	5.0672	6.8636	9.6625	4.9084	-0.5852	-7.0722	-11.223	1.1659	1.8554	12.3163	1.7828	8.2245
4.7133	7.6348	7.0904	5.3484	11.1822	9.7986	5.9019	8.034	9.726	4.9447	6.6367	9.4176	4.7678	-0.5761	-7.0042	-11.3591	1.1296	1.8599	12.1712	1.7647	8.102
4.5228	7.4079	6.85	5.1397	10.9191	9.5355	5.7068	7.8026	9.4221	4.7859	6.4508	9.1363	4.6407	-0.5625	-6.9634	-11.4544	1.1205	1.8282	12.0623	1.7329	7.9795
4.3504	7.2219	6.6776	5.0218	10.6968	9.3087	5.6024	7.5939	9.2316	4.7179	6.2738	8.9548	4.5999	-0.5308	-6.8273	-11.5361	1.0479	1.8372	11.9534	1.7919	7.8933
4.2234	7.0223	6.4326	4.8585	10.4382	9.0728	5.4482	7.3626	8.973	4.609	6.0742	8.7099	4.5137	-0.5035	-6.7365	-11.654	1.0207	1.8463	11.8627	1.8146	7.7981
4.0964	6.8454	6.2512	4.6906	10.1887	8.8823	5.3167	7.1448	8.7371	4.55	5.9109	8.4967	4.4729	-0.4899	-6.6549	-11.7266	0.9935	1.8781	11.7311	1.8191	7.671
3.9875	6.7184	6.0969	4.5954	10.0345	8.7053	5.2032	6.9906	8.5556	4.5183	5.7567	8.2699	4.4502	-0.4582	-6.5551	-11.7765	0.9345	1.8917	11.6721	1.8508	7.5894
3.8877	6.5778	5.9381	4.4457	9.8213	8.4921	5.1397	6.7774	8.3606	4.4547	5.5934	8.0929	4.4003	-0.4446	-6.4734	-11.8672	0.8982	1.8826	11.5678	1.869	7.4851
3.7924	6.4508	5.793	4.3459	9.6489	8.3379	5.0309	6.6095	8.1519	4.4003	5.4482	7.8706	4.4003	-0.4173	-6.4462	-11.9171	0.8392	1.937	11.4907	1.8962	7.4079
3.6836	6.3237	5.6524	4.2143	9.4675	8.1746	4.9084	6.4099	7.9069	4.3368	5.3167	7.6121	4.3413	-0.3947	-6.4326	-12.0169	0.7893	1.9416	11.409	1.9144	7.3354
3.5883	6.233	5.4981	4.0782	9.3041	7.9886	4.8177	6.2239	7.6937	4.2687	5.167	7.358	4.2914	-0.3811	-6.478	-12.1303	0.7576	1.9144	11.3274	1.9008	7.2673
3.4749	6.0606	5.3303	3.9376	9.0501	7.7981	4.677	5.9699	7.4397	4.178	4.9628	7.0995	4.1735	-0.3674	-6.5279	-12.1938	0.753	1.8871	11.2094	1.8645	7.1403
3.3887	5.9381	5.1715	3.8106	8.8596	7.6393	4.5364	5.7794	7.2265	4.1009	4.8313	6.8545	4.11	-0.3629	-6.6186	-12.2528	0.7213	1.8826	11.1096	1.8554	7.0722
3.2617	5.7658	5.0309	3.6382	8.6373	7.3807	4.3776	5.5435	6.9679	3.9693	4.6816	6.6322	4.0192	-0.3493	-6.7275	-12.3662	0.7213	1.8599	10.9781	1.8327	6.9951
3.1982	5.6478	4.8948	3.5339	8.4377	7.2174	4.2824	5.3529	6.7547	3.8922	4.5364	6.419	3.9693	-0.3402	-6.8273	-12.4116	0.7122	1.8282	10.9055	1.8009	6.9498
3.1165	5.5435	4.7678	3.425	8.2608	7.0586	4.1871	5.1352	6.5188	3.806	4.4094	6.2058	3.8695	-0.3765	-6.9588	-12.4569	0.753	1.7783	10.8329	1.7011	6.85
3.0394	5.4618	4.668	3.3343	8.0612	6.9044	4.0873	4.9674	6.3555	3.7471	4.2642	5.988	3.7879	-0.3901	-7.0768	-12.5431	0.7757	1.7284	10.7195	1.6785	6.7955
2.9804	5.3393	4.5727	3.2481	7.9024	6.7774	3.992	4.7678	6.1786	3.6836	4.1871	5.8383	3.738	-0.3856	-7.231	-12.584	0.7712	1.7238	10.6424	1.6286	6.7456
2.926	5.2305	4.4547	3.1846	7.6892	6.6594	3.924	4.5727	5.979	3.6064	4.0737	5.6886	3.6699	-0.3901	-7.3626	-12.6248	0.7984	1.6875	10.5154	1.556	6.673
2.8988	5.1715	4.3958	3.1619	7.5395	6.5551	3.8605	4.4139	5.8792	3.5565	3.9966	5.548	3.6427	-0.3901	-7.5168	-12.6565	0.7712	1.6694	10.4519	1.4879	6.6367
2.8851	5.0581	4.3368	3.1392	7.3762	6.478	3.8378	4.2551	5.7567	3.5157	3.8968	5.4664	3.6291	-0.3901	-7.671	-12.6792	0.7803	1.6467	10.3702	1.438	6.5732
2.8806	4.9991	4.2824	3.0893	7.231	6.3827	3.7743	4.1145	5.6206	3.4749	3.7879	5.362	3.5974	-0.3992	-7.7708	-12.6838	0.7939	1.615	10.2659	1.3473	6.4825
2.8489	4.9492	4.2188	3.0666	7.1403	6.2466	3.7244	3.9512	5.5253	3.4567	3.7062	5.2713	3.6155	-0.3992	-7.8706	-12.6339	0.8029	1.5968	10.1661	1.3246	6.4371
2.9124	4.9674	4.2143	3.1256	7.0541	6.2375	3.7652	3.8423	5.4346	3.493	3.6246	5.2032	3.6155	-0.4037	-7.8979	-12.4978	0.7893	1.6331	10.1026	1.3156	6.3736
2.926	4.9356	4.2098	3.1573	6.9543	6.1831	3.7607	3.7198	5.4028	3.484	3.5565	5.1352	3.6654	-0.372	-7.975	-12.4207	0.7667	1.683	10.0254	1.3019	6.3101
2.9487	4.8948	4.1644	3.1846	6.859	6.1105	3.7516	3.6019	5.3212	3.4749	3.4341	5.0399	3.6473	-0.3947	-7.9977	-12.2936	0.7757	1.6694	9.9302	1.311	6.2602
2.9895	4.8812	4.1463	3.2345	6.7819	6.0652	3.7607	3.4749	5.2622	3.4885	3.3796	5.0036	3.6518	-0.3947	-8.0249	-12.1848	0.7621	1.6739	9.7759	1.3065	6.1922
3.0258	4.863	4.1281	3.2662	6.6957	6.0107	3.7425	3.4023	5.1987	3.4613	3.2844	4.9038	3.6291	-0.3811	-8.0249	-12.0668	0.7621	1.6649	9.6671	1.3019	6.1241
3.0485	4.8539	4.1281	3.3116	6.6322	5.9608	3.738	3.2707	5.0808	3.4386	3.1936	4.8177	3.6019	-0.3765	-8.0476	-11.9806	0.7667	1.6331	9.5446	1.2974	6.0379
3.1029	4.8222	4.1372	3.3615	6.5732	5.9019	3.7244	3.1982	5.0218	3.4386	3.0984	4.7451	3.5656	-0.3765	-8.0476	-11.8355	0.7712	1.6104	9.4266	1.2566	5.9971
3.1528	4.8267	4.0964	3.4159	6.4961	5.8338	3.7335	3.1074	4.9764	3.4159	3.0076	4.6725	3.5293	-0.3901	-8.0203	-11.7765	0.7984	1.5696	9.3268	1.2384	5.9109
3.2662	4.8676	4.1372	3.484	6.5052	5.8429	3.7244	3.0802	4.9447	3.3887	2.926	4.6135	3.5066	-0.3947	-7.9387	-11.5678	0.8075	1.5106	9.2724	1.1931	5.8701
3.3887	4.9084	4.1826	3.5293	6.5097	5.8247	3.7788	3.0348	4.9492	3.3796	2.8715	4.5908	3.4885	-0.4037	-7.8843	-11.4272	0.8302	1.4698	9.2633	1.1931	5.852
3.4794	4.9311	4.1916	3.6064	6.4961	5.8383	3.797	2.9713	4.9492	3.3887	2.8035	4.5591	3.4068	-0.4264	-7.8071	-11.1686	0.8619	1.4108	9.2542	1.1341	5.8202
3.5974	5.0445	4.2733	3.6836	6.5596	5.8474	3.8151	2.994	4.99	3.3705	2.7944	4.5863	3.3932	-0.431	-7.6892	-10.8964	0.8755	1.3564	9.2815	1.0751	5.8066
3.6926	5.0944	4.3232	3.7289	6.5914	5.8973	3.8605	3.0167	5.0173	3.3751	2.7672	4.5727	3.3796	-0.44	-7.5758	-10.6242	0.9027	1.2929	9.3178	1.0751	5.8066
3.8287	5.1987	4.4185	3.806	6.6322	5.9427	3.9013	3.0348	5.0717	3.3751	2.7445	4.5999	3.3615	-0.4718	-7.4215	-10.2704	0.9436	1.2158	9.3767	1.0388	5.8021
3.9194	5.2985	4.5046	3.8423	6.7139	5.9835	3.9285	3.0938	5.1352	3.4068	2.7354	4.6407	3.3524	-0.4945	-7.2492	-9.912	0.9889	1.184	9.4221	1.0388	5.8157
4.0555	5.3666	4.5545	3.8832	6.8001	6.0516	3.9693	3.1347	5.1806	3.4159	2.7128	4.6725	3.3025	-0.5262	-7.0541	-9.5174	1.0388	1.1114	9.5174	1.0479	5.8021
4.1689	5.489	4.6407	3.9058	6.8817	6.1105	3.9875	3.2163	5.2804	3.4341	2.7082	4.7269	3.2798	-0.5625	-6.9044	-9.0864	1.1023	1.0252	9.5809	1.0479	5.8202
4.296	5.5798	4.7042	3.9467	6.9951	6.1423	4.0283	3.2707	5.3484	3.4159	2.7491	4.7678	3.2481	-0.567	-6.7093	-8.7053	1.1386	0.998	9.6807	1.0706	5.861
4.364	5.6886	4.7723	3.9512	7.0949	6.1876	4.0192	3.3615	5.3983	3.4068	2.7354	4.7859	3.1936	-0.6033	-6.546	-8.3016	1.1931	0.93	9.785	1.0933	5.8565
4.4684	5.8157	4.8449	3.9648	7.1811	6.2194	4.051	3.4613	5.48	3.4023	2.7173	4.795	3.18	-0.6169	-6.3419	-7.9205	1.2158	0.8982	9.912	1.1477	5.9291
4.5409	5.8882	4.8993	3.9603	7.2991	6.2285	4.0465	3.5384	5.5072	3.3842	2.7445	4.795	3.0802	-0.6215	-6.1559	-7.6211	1.243	0.8483	10.0572	1.2339	5.9654
4.5863	5.9608	4.9356	3.9693	7.358	6.2421	4.0374	3.611	5.5117	3.3479	2.7763	4.7768	2.9759	-0.6532	-5.988	-7.358	1.2883	0.7984	10.157	1.2747	6.0062
4.6317	6.0379	4.981	3.9467	7.4533	6.2738	4.0192	3.6836	5.5026	3.2889	2.7354	4.7587	2.8715	-0.6623	-5.8338	-7.104	1.311	0.7576	10.2704	1.3382	6.047
4.6271	6.0788	4.981	3.865	7.5032	6.2421	3.9739	3.7425	5.5072	3.2072	2.7445	4.7224	2.7128	-0.6759	-5.734	-6.9588	1.3564	0.6714	10.3883	1.37	6.0697
4.6226	6.1151	4.9628	3.8196	7.5803	6.1876	3.9149	3.7879	5.4754	3.1347	2.7128	4.6407	2.5812	-0.6895	-5.6297	-6.8454	1.3745	0.6033	10.4382	1.4244	6.0833
4.6226	6.1332	4.9401	3.7697	7.6121	6.1786	3.8559	3.8151	5.4255	3.0212	2.7037	4.5772	2.4088	-0.6941	-5.5707	-6.7411	1.3927	0.567	10.5063	1.4471	6.1377
4.6407	6.1695	4.9265	3.7471	7.6348	6.1287	3.8287	3.8378	5.362	2.9532	2.6901	4.5273	2.2274	-0.7122	-5.4981	-6.6776	1.4108	0.4899	10.5199	1.4471	6.1468
4.5908	6.1468	4.8902	3.6836	7.6302	6.0697	3.7652	3.8423	5.3076	2.808	2.622	4.4729	2.0686	-0.7304	-5.4618	-6.6504	1.4607	0.4083	10.5108	1.4562	6.1604
4.5863	6.1468	4.8766	3.6609	7.6529	6.0425	3.738	3.8832	5.2713	2.7491	2.5948	4.4003	1.9234	-0.7304	-5.4301	-6.6186	1.4562	0.3674	10.529	1.4879	6.1876
4.5591	6.1831	4.8313	3.6019	7.662	6.0062	3.6881	3.8877	5.235	2.681	2.5857	4.4003	1.7919	-0.7258	-5.4028	-6.6095	1.4698	0.2858	10.4972	1.4335	6.1967
4.5319	6.1695	4.8177	3.611	7.6529	5.979	3.6563	3.9421	5.1896	2.5994	2.5313	4.3776	1.6422	-0.7394	-5.4119	-6.5687	1.4834	0.245	10.4655	1.4199	6.2149
4.5319	6.1468	4.7904	3.5974	7.6574	5.9427	3.6019	3.9421	5.1715	2.5358	2.4905	4.3776	1.5106	-0.753	-5.421	-6.5868	1.5015	0.1588	10.402	1.3745	6.2285
4.4774	6.1468	4.7269	3.5611	7.662	5.9109	3.5565	3.9557	5.1261	2.4633	2.495	4.3368	1.4108	-0.753	-5.4437	-6.6005	1.4834	0.1179	10.3521	1.3382	6.2194
4.4411	6.106	4.6997	3.5112	7.6529	5.861	3.5293	3.9512	5.0626	2.3816	2.4315	4.3323	1.2384	-0.744	-5.48	-6.605	1.4879	0.059	10.3022	1.311	6.2058
4.3867	6.0788	4.6226	3.4794	7.5803	5.7703	3.4749	3.9013	4.981	2.3	2.3952	4.2007	1.0661	-0.7485	-5.5389	-6.6277	1.4834	0	10.2296	1.2566	6.1967
4.3323	6.0107	4.5228	3.4386	7.5486	5.6977	3.3705	3.8786	4.8948	2.1729	2.3317	4.1009	0.8937	-0.7304	-5.6387	-6.6821	1.4607	-0.0499	10.1887	1.1522	6.1604
4.2279	5.9336	4.4048	3.3524	7.4896	5.5616	3.2571	3.8106	4.7405	2.0459	2.2364	3.9603	0.7031	-0.7304	-5.7068	-6.7547	1.4471	-0.0953	10.1298	1.1114	6.1423
4.1916	5.8656	4.2824	3.3252	7.3943	5.4527	3.1846	3.7879	4.609	1.9053	2.1729	3.8741	0.5308	-0.6986	-5.7839	-6.7683	1.4154	-0.1633	10.0935	1.0025	6.1196
4.1236	5.8202	4.1417	3.298	7.3354	5.3303	3.1256	3.7198	4.4547	1.81	2.0867	3.7335	0.3493	-0.6805	-5.8293	-6.7683	1.37	-0.1815	10.0708	0.9481	6.1015
4.0283	5.7204	4.0238	3.2254	7.2174	5.1579	2.9986	3.6246	4.2914	1.6331	2.0278	3.5429	0.1179	-0.6669	-5.8429	-6.7411	1.3564	-0.245	10.0527	0.8574	6.0833
3.9603	5.6433	3.8922	3.1709	7.1448	5.0263	2.9033	3.5611	4.1236	1.4925	1.937	3.366	-0.1043	-0.6669	-5.8837	-6.7275	1.3337	-0.2722	10.1071	0.7848	6.0878
3.9149	5.5752	3.7652	3.121	7.0632	4.8766	2.799	3.4794	3.9376	1.3564	1.8554	3.2072	-0.2949	-0.6578	-5.8882	-6.7139	1.3019	-0.3357	10.098	0.7168	6.0425
3.8333	5.4573	3.6382	3.0666	6.9634	4.7088	2.7128	3.3569	3.7516	1.2339	1.7329	3.0348	-0.5081	-0.6442	-5.8746	-6.6413	1.2702	-0.3901	10.1298	0.6169	6.0289
3.7652	5.3575	3.484	3.0212	6.8681	4.55	2.6175	3.2707	3.6019	1.0842	1.6376	2.8761	-0.6669	-0.6215	-5.8837	-6.5868	1.2294	-0.4355	10.098	0.5217	5.9608
3.7198	5.2577	3.3751	2.9804	6.7502	4.3822	2.5449	3.1891	3.4068	0.9345	1.5061	2.7082	-0.8574	-0.5988	-5.852	-6.4689	1.1795	-0.499	10.1026	0.4264	5.92
3.6473	5.1261	3.2208	2.9532	6.6186	4.2461	2.4814	3.053	3.239	0.8483	1.3791	2.5404	-1.0025	-0.5625	-5.7794	-6.3827	1.116	-0.4899	10.0527	0.3357	5.8837
3.5611	5.0445	3.1301	2.9078	6.4961	4.0691	2.3952	2.9441	3.0984	0.7304	1.2566	2.3907	-1.1386	-0.5444	-5.7204	-6.2648	1.0661	-0.567	9.9891	0.2314	5.7658
3.5339	4.9038	3.0167	2.8897	6.351	3.9331	2.3362	2.808	2.9305	0.626	1.1205	2.2228	-1.2611	-0.5171	-5.6569	-6.165	1.0298	-0.567	9.9302	0.1316	5.7068
3.4341	4.7587	2.8489	2.8216	6.2239	3.7834	2.3045	2.6765	2.7717	0.5353	1.0116	2.0913	-1.3881	-0.5126	-5.6161	-6.1105	0.9935	-0.6079	9.8621	0.0272	5.6297
3.3796	4.6453	2.74	2.8126	6.1196	3.6382	2.2138	2.5903	2.6447	0.4672	0.8982	1.9688	-1.4789	-0.4763	-5.5026	-5.988	0.9436	-0.6714	9.7941	-0.0363	5.5616
3.3297	4.5046	2.613	2.7672	5.9518	3.5202	2.1412	2.4224	2.4723	0.3674	0.7712	1.8009	-1.5968	-0.4582	-5.4482	-5.9427	0.9073	-0.6442	9.7442	-0.0771	5.4845
3.2526	4.3912	2.495	2.6992	5.8383	3.3705	2.0595	2.2954	2.3362	0.2858	0.6578	1.6694	-1.6603	-0.4446	-5.3711	-5.852	0.8891	-0.6805	9.6716	-0.0953	5.3983
3.1936	4.2778	2.4179	2.681	5.7249	3.2753	2.0459	2.1911	2.2138	0.2722	0.567	1.5469	-1.6785	-0.4264	-5.2758	-5.7612	0.8528	-0.6442	9.6671	-0.0998	5.3439
3.0984	4.119	2.2909	2.5857	5.5707	3.112	1.9688	2.0731	2.0913	0.1996	0.4763	1.4154	-1.751	-0.4355	-5.2486	-5.7567	0.8528	-0.6396	9.6126	-0.1179	5.3167
3.0212	3.992	2.1911	2.5132	5.4437	2.994	1.9189	1.9643	1.928	0.1225	0.3811	1.2475	-1.8282	-0.44	-5.1942	-5.7068	0.8619	-0.6079	9.5854	-0.0771	5.2894
2.9487	3.8786	2.0822	2.4678	5.3121	2.8625	1.8962	1.8372	1.8327	0.0817	0.3266	1.1477	-1.8236	-0.4582	-5.1307	-5.6796	0.8937	-0.5716	9.5582	-0.0544	5.2441
2.926	3.7652	2.0323	2.4542	5.2395	2.8171	1.8962	1.7737	1.7329	0.0817	0.3085	1.057	-1.8508	-0.4446	-5.0445	-5.6297	0.8665	-0.4899	9.5945	0.0499	5.2713
2.9078	3.6926	1.9915	2.4406	5.176	2.7445	1.928	1.7284	1.6694	0.1043	0.2722	0.9799	-1.8191	-0.4491	-4.9855	-5.6161	0.8801	-0.3992	9.5899	0.1633	5.2894
2.8579	3.6064	1.937	2.4769	5.1034	2.7173	1.9325	1.6785	1.615	0.1452	0.2858	0.9209	-1.7556	-0.4582	-4.9583	-5.6297	0.9164	-0.3312	9.5718	0.2858	5.2985
2.8988	3.5565	1.8962	2.4678	5.0263	2.6719	1.9507	1.6059	1.5605	0.1406	0.254	0.8438	-1.7284	-0.4854	-4.9175	-5.5934	0.9753	-0.2631	9.5763	0.4037	5.294
2.8942	3.5066	1.8826	2.5358	5.0127	2.6583	2.0187	1.5741	1.5333	0.2132	0.2903	0.8075	-1.6467	-0.4945	-4.8585	-5.6387	0.9935	-0.1724	9.6217	0.5489	5.3484
2.8715	3.4703	1.9053	2.5585	4.9537	2.6311	2.0595	1.5832	1.5514	0.2767	0.3221	0.7848	-1.5696	-0.5217	-4.8857	-5.666	1.0298	-0.0544	9.6852	0.6986	5.3892
2.9169	3.4522	1.9008	2.5903	4.8993	2.6674	2.1276	1.5378	1.5197	0.3402	0.3175	0.7803	-1.4925	-0.5444	-4.8721	-5.6524	1.0933	0.0045	9.6852	0.8528	5.4119
2.9305	3.3978	1.9189	2.6447	4.8993	2.6629	2.1684	1.5015	1.5242	0.4083	0.3402	0.7485	-1.3836	-0.5807	-4.863	-5.6614	1.1386	0.1179	9.7306	1.0071	5.4346
2.9532	3.3705	1.9234	2.6765	4.8449	2.6901	2.241	1.4562	1.5061	0.4627	0.3493	0.7122	-1.3019	-0.6079	-4.8766	-5.6705	1.1704	0.1996	9.7895	1.1477	5.4618
2.9804	3.3252	1.9552	2.7128	4.8131	2.6946	2.2637	1.3836	1.497	0.558	0.3493	0.6623	-1.2384	-0.6033	-4.8585	-5.5934	1.1976	0.2495	9.785	1.2657	5.4437
3.0439	3.3252	1.9915	2.8035	4.795	2.7037	2.3226	1.3473	1.497	0.6215	0.372	0.6623	-1.1568	-0.5852	-4.8177	-5.5253	1.1749	0.3357	9.8485	1.3655	5.4664
3.1347	3.2844	2.0278	2.8806	4.7496	2.7173	2.4088	1.2929	1.4834	0.685	0.3765	0.5897	-1.116	-0.5852	-4.7723	-5.4527	1.1659	0.3674	9.8394	1.4471	5.4391
3.1256	3.2345	2.0278	2.9487	4.6952	2.6992	2.4678	1.2067	1.4335	0.7394	0.3266	0.4899	-1.0615	-0.5852	-4.7541	-5.3393	1.1432	0.4355	9.8667	1.5469	5.4391
3.1709	3.2118	2.0595	3.0167	4.6407	2.6992	2.4996	1.1704	1.3791	0.8256	0.3039	0.4173	-1.0434	-0.5444	-4.7179	-5.2123	1.0887	0.4854	9.8576	1.5923	5.4255
3.2163	3.2118	2.0867	3.112	4.6271	2.7082	2.5585	1.0842	1.3382	0.8574	0.2495	0.3266	-1.0388	-0.5444	-4.677	-5.0989	1.0434	0.4854	9.8394	1.5968	5.3983
3.2617	3.2027	2.0777	3.18	4.5908	2.6583	2.622	1.0388	1.2747	0.871	0.2177	0.2132	-1.0162	-0.5035	-4.6407	-4.9084	0.9844	0.5217	9.8122	1.615	5.3711
3.307	3.18	2.1094	3.2299	4.5409	2.6356	2.6266	0.9572	1.2294	0.9209	0.1089	0.0953	-1.057	-0.4582	-4.6498	-4.7678	0.93	0.5035	9.7578	1.5877	5.3121
3.3705	3.1891	2.1185	3.2889	4.5455	2.622	2.6311	0.8846	1.1613	0.93	0.0726	-0.0136	-1.0887	-0.44	-4.5863	-4.5772	0.8755	0.4809	9.7124	1.5424	5.2441
3.4159	3.2435	2.1548	3.3569	4.55	2.5812	2.6356	0.8438	1.1477	0.9572	0.0181	-0.1179	-1.1069	-0.4264	-4.5364	-4.4048	0.8256	0.4854	9.6671	1.5242	5.2214
3.5157	3.298	2.1548	3.4159	4.5545	2.5631	2.6855	0.7848	1.0751	0.9345	-0.0045	-0.2359	-1.116	-0.3992	-4.4411	-4.1553	0.7712	0.4582	9.6126	1.4653	5.1397
3.5838	3.3615	2.1865	3.4522	4.5727	2.5313	2.6538	0.7258	1.0298	0.9526	-0.0544	-0.2903	-1.125	-0.372	-4.3413	-3.9648	0.7122	0.4355	9.6081	1.438	5.0989
3.6836	3.4522	2.2002	3.5339	4.5954	2.4905	2.6583	0.7077	0.9935	0.9708	-0.1361	-0.3493	-1.1522	-0.3493	-4.2052	-3.7607	0.685	0.3947	9.5763	1.3881	5.0309
3.7834	3.5112	2.2364	3.62	4.6044	2.495	2.6901	0.6532	1.0162	0.9889	-0.1406	-0.3901	-1.1432	-0.3221	-4.051	-3.5384	0.626	0.4355	9.5673	1.3881	5.0127
3.8968	3.5838	2.2863	3.7017	4.6407	2.495	2.7445	0.6759	1.0252	1.0434	-0.1769	-0.4083	-1.0978	-0.3039	-3.9467	-3.3433	0.5988	0.3901	9.54	1.37	4.9719
4.0056	3.6609	2.3181	3.8242	4.6906	2.4723	2.7808	0.6442	1.0434	1.0887	-0.1996	-0.4446	-1.0933	-0.2903	-3.7607	-3.1755	0.5716	0.3901	9.5446	1.3473	4.922
4.0691	3.7335	2.3181	3.9013	4.6952	2.4905	2.8307	0.6805	1.0434	1.116	-0.2041	-0.4582	-1.057	-0.2903	-3.6609	-3.0439	0.5625	0.3765	9.5219	1.2793	4.9038
4.1372	3.7697	2.3408	3.9966	4.7179	2.4633	2.8625	0.6986	1.0751	1.1931	-0.2314	-0.4582	-1.0343	-0.2858	-3.611	-2.9804	0.567	0.3765	9.5264	1.2294	4.8812
4.2325	3.8514	2.368	4.1145	4.7814	2.4497	2.9078	0.7122	1.057	1.2611	-0.2132	-0.4718	-0.9572	-0.2858	-3.552	-2.8942	0.567	0.3221	9.5174	1.1296	4.8585
4.2551	3.8877	2.3635	4.1553	4.7632	2.4451	2.9487	0.6941	1.0661	1.2974	-0.2314	-0.5081	-0.9663	-0.2949	-3.4976	-2.8262	0.5897	0.3039	9.5038	1.057	4.8494
4.3186	3.9421	2.3499	4.1916	4.7723	2.3998	2.9849	0.6895	1.0615	1.3065	-0.2676	-0.5398	-0.9345	-0.3039	-3.4703	-2.8126	0.6215	0.2359	9.4493	0.9481	4.7995
4.3323	3.9376	2.3045	4.237	4.736	2.3272	3.0031	0.6805	1.0116	1.3156	-0.2631	-0.5988	-0.939	-0.3357	-3.5339	-2.8216	0.6669	0.2177	9.3994	0.8801	4.7768
4.3459	3.8968	2.2455	4.2461	4.7224	2.2773	2.994	0.6669	0.9889	1.3156	-0.3221	-0.6351	-0.93	-0.3584	-3.5656	-2.8443	0.6986	0.1996	9.3314	0.8302	4.7451
4.3277	3.8695	2.1911	4.2461	4.6543	2.1865	2.9804	0.6169	0.9708	1.3019	-0.3538	-0.6986	-0.9526	-0.372	-3.6337	-2.9124	0.7667	0.1452	9.227	0.7576	4.6997
4.3005	3.797	2.0867	4.178	4.5727	2.114	2.9441	0.558	0.871	1.2566	-0.3629	-0.8211	-1.0252	-0.4219	-3.6836	-3.0076	0.8347	0.0817	9.1544	0.7394	4.6589
4.2733	3.7697	2.0414	4.1871	4.5319	2.0368	2.9214	0.5217	0.7984	1.2203	-0.3947	-0.871	-1.0524	-0.4536	-3.7471	-3.0847	0.9073	0.0363	9.1318	0.7122	4.6181
4.2461	3.7062	1.9552	4.1236	4.4774	1.9461	2.8761	0.4809	0.7304	1.1885	-0.4672	-0.9345	-1.1023	-0.4854	-3.8151	-3.1437	0.9708	0.0045	9.0274	0.7122	4.5818
4.2325	3.7108	1.9325	4.11	4.4593	1.9008	2.8398	0.4627	0.6941	1.1341	-0.4718	-0.9799	-1.1296	-0.5035	-3.8287	-3.1891	1.0071	-0.0408	8.9866	0.7349	4.5545
4.2279	3.679	1.8826	4.0918	4.4185	1.8146	2.8126	0.44	0.6442	1.0933	-0.499	-1.0207	-1.184	-0.5353	-3.8423	-3.239	1.0615	-0.0726	8.9503	0.7712	4.4865
4.2461	3.6972	1.8372	4.0782	4.4048	1.7828	2.7853	0.4446	0.5943	1.0661	-0.5262	-1.0887	-1.2067	-0.5489	-3.8151	-3.2254	1.0978	-0.1361	8.9186	0.8029	4.4547
4.2506	3.6881	1.81	4.0737	4.3912	1.7193	2.7627	0.4037	0.567	1.0162	-0.5489	-1.1386	-1.2339	-0.558	-3.7924	-3.1936	1.116	-0.1633	8.9322	0.8619	4.4275
4.2551	3.6881	1.7828	4.0102	4.3595	1.6921	2.7445	0.3629	0.5171	0.9617	-0.5988	-1.1659	-1.2974	-0.5716	-3.7516	-3.2027	1.1386	-0.1996	8.9186	0.8937	4.3595
4.2642	3.7244	1.7601	4.0102	4.3504	1.6603	2.7082	0.3493	0.5081	0.939	-0.5988	-1.2158	-1.3564	-0.5534	-3.7335	-3.1982	1.1296	-0.2268	8.9367	0.93	4.3368
4.2733	3.7425	1.7238	3.9557	4.3232	1.6558	2.6946	0.3357	0.4536	0.9073	-0.6805	-1.252	-1.3791	-0.558	-3.7244	-3.1891	1.116	-0.2722	8.9412	0.9209	4.2914
4.3096	3.7153	1.7148	3.9149	4.3005	1.6059	2.6175	0.254	0.3992	0.8392	-0.7349	-1.3518	-1.4607	-0.558	-3.7697	-3.2027	1.1205	-0.3448	8.9231	0.8891	4.2279
4.2687	3.7244	1.6694	3.8333	4.2687	1.556	2.5948	0.2041	0.3629	0.7984	-0.812	-1.3836	-1.4834	-0.558	-3.7788	-3.2345	1.1069	-0.4037	8.9231	0.8166	4.1644
4.2461	3.6563	1.5923	3.7516	4.1644	1.497	2.5177	0.127	0.2676	0.7168	-0.871	-1.4743	-1.5741	-0.5489	-3.8605	-3.298	1.0978	-0.4491	8.8823	0.7576	4.11
4.1962	3.6246	1.6013	3.7017	4.1054	1.4471	2.4723	0.0771	0.2041	0.6669	-0.9481	-1.5832	-1.6422	-0.5353	-3.8605	-3.3524	1.0751	-0.5171	8.8596	0.6895	4.0555
4.1644	3.5293	1.5061	3.5656	4.0011	1.3473	2.3861	-0.0499	0.0953	0.5943	-1.0162	-1.6875	-1.7238	-0.5444	-3.9104	-3.4341	1.0797	-0.5625	8.8596	0.6396	3.9693
4.0465	3.4658	1.4426	3.4477	3.9331	1.2747	2.3	-0.1542	-0.0045	0.499	-1.1477	-1.7919	-1.8282	-0.5398	-3.9376	-3.5429	1.0751	-0.6033	8.846	0.5308	3.9013
3.9693	3.3569	1.3292	3.3569	3.8423	1.1976	2.1911	-0.2722	-0.1179	0.4128	-1.243	-1.9053	-1.9234	-0.5353	-3.9693	-3.6337	1.0524	-0.6169	8.8051	0.5171	3.8242
3.8605	3.2208	1.252	3.2072	3.7017	1.1023	2.1094	-0.3493	-0.2132	0.313	-1.3428	-2.0142	-1.9733	-0.5217	-3.9512	-3.7289	1.0298	-0.6669	8.7961	0.4763	3.7697
3.738	3.0938	1.1613	3.0666	3.5883	0.9844	1.9869	-0.4582	-0.3266	0.2087	-1.4562	-2.1049	-2.0459	-0.5171	-3.8968	-3.7561	0.998	-0.6986	8.7371	0.4264	3.6699
3.6337	2.9487	1.0434	2.9396	3.4386	0.8891	1.8645	-0.5988	-0.431	0.1089	-1.5152	-2.182	-2.123	-0.4809	-3.8605	-3.8151	0.9481	-0.685	8.7235	0.4173	3.6064
3.5021	2.7536	0.9345	2.8126	3.3388	0.7939	1.7556	-0.6759	-0.5534	0.0408	-1.615	-2.2591	-2.1775	-0.4446	-3.8333	-3.8786	0.9027	-0.7122	8.6464	0.3992	3.5339
3.3978	2.6084	0.8166	2.7037	3.2027	0.7031	1.683	-0.7939	-0.6578	-0.0408	-1.7374	-2.3408	-2.1911	-0.431	-3.738	-3.8922	0.8392	-0.7077	8.5738	0.3947	3.4658
3.2526	2.4587	0.7304	2.5948	3.053	0.5852	1.5696	-0.9073	-0.753	-0.0907	-1.8146	-2.3816	-2.2364	-0.3901	-3.6427	-3.8786	0.7667	-0.7077	8.5194	0.3992	3.4023
3.1437	2.3045	0.5988	2.4723	2.9623	0.5262	1.4789	-0.9799	-0.8392	-0.1588	-1.9461	-2.436	-2.2455	-0.3629	-3.5248	-3.8559	0.7077	-0.6805	8.4241	0.3901	3.2707
3.053	2.1457	0.5171	2.4043	2.8171	0.4128	1.4154	-1.1114	-0.9164	-0.2223	-2.0232	-2.4905	-2.2818	-0.313	-3.3751	-3.7834	0.6215	-0.6669	8.3515	0.4355	3.1891
2.9668	2.0278	0.431	2.3045	2.7173	0.3538	1.3609	-1.184	-0.9844	-0.2359	-2.1321	-2.5132	-2.2773	-0.2631	-3.1982	-3.7244	0.5308	-0.5943	8.2245	0.5081	3.0938
2.8897	1.8917	0.3266	2.2773	2.6266	0.2586	1.2929	-1.2883	-1.0797	-0.2903	-2.2183	-2.554	-2.2637	-0.2087	-3.0212	-3.6155	0.4264	-0.5398	8.1428	0.567	2.9849
2.8262	1.7692	0.2631	2.2092	2.5177	0.2041	1.2475	-1.3473	-1.1432	-0.3085	-2.3272	-2.5994	-2.2682	-0.186	-2.8534	-3.5248	0.3493	-0.4718	8.0113	0.6487	2.8988
2.7264	1.6013	0.1361	2.1457	2.3952	0.0907	1.2294	-1.4244	-1.2203	-0.3266	-2.427	-2.6629	-2.2501	-0.1452	-2.6629	-3.3932	0.2858	-0.4128	7.916	0.7485	2.8171
