"FZ"	"FC3"	"FCZ"	"FC4"	"C3"	"CZ"	"C4"	"CP3"	"CPZ"	"CP4"	"P3"	"PZ"	"P4"	"OZ"	"FP1"	"FP2"	"A2"	"P8"	"TP7"	"TP8"	"P7"
1.121	0.2698	1.067	0.5275	0.1139	1.0071	0.6294	0.036	0.6774	0.5035	0.1619	0.3597	0.4856	0.7973	1.121	-0.5695	-1.5885	0.4376	-1.1809	0.2218	-1.3368
1.061	0.1139	1.0191	0.5395	-0.012	0.9172	0.5875	-0.036	0.6114	0.4376	0.1918	0.3357	0.4796	0.7793	1.085	-0.5935	-1.5766	0.4376	-1.1749	0.2158	-1.2708
1.061	-0.024	0.9172	0.5155	-0.1259	0.9232	0.5755	-0.0959	0.5995	0.4376	0.1978	0.3357	0.5035	0.7793	1.049	-0.5695	-1.5826	0.4616	-1.133	0.2158	-1.1689
1.049	-0.1619	0.9172	0.5695	-0.2398	0.8872	0.5755	-0.1199	0.5755	0.4076	0.2098	0.3417	0.4676	0.7613	1.0311	-0.5335	-1.5406	0.5155	-1.067	0.2038	-1.061
1.043	-0.2458	0.9172	0.6174	-0.3297	0.8932	0.5695	-0.1439	0.5815	0.4196	0.2278	0.3537	0.5335	0.7313	0.9711	-0.5335	-1.4986	0.4975	-1.0071	0.2398	-0.9292
1.0191	-0.3357	0.9232	0.6954	-0.4136	0.8812	0.6054	-0.1079	0.5935	0.4796	0.2698	0.4016	0.5395	0.6954	0.8692	-0.4975	-1.4147	0.5215	-0.9531	0.2578	-0.8153
1.049	-0.3537	0.9232	0.7133	-0.4496	0.9232	0.6234	-0.0899	0.6114	0.4916	0.3117	0.3956	0.6174	0.6474	0.8452	-0.4136	-1.3548	0.6054	-0.8392	0.2877	-0.6594
1.0191	-0.3537	0.8872	0.7553	-0.5035	0.8752	0.6054	-0.1019	0.6114	0.5455	0.3417	0.4436	0.6414	0.5935	0.7493	-0.4016	-1.2109	0.6414	-0.7913	0.2817	-0.5815
0.9891	-0.3657	0.9172	0.7913	-0.4975	0.8632	0.6594	-0.0839	0.6054	0.5755	0.3717	0.4556	0.6594	0.5395	0.6414	-0.3477	-1.115	0.7074	-0.7313	0.3237	-0.4556
0.9711	-0.3297	0.8992	0.8093	-0.5215	0.8452	0.6174	-0.0659	0.5755	0.5815	0.3956	0.4496	0.6714	0.4975	0.5395	-0.3357	-0.9951	0.7493	-0.6954	0.3237	-0.3297
0.9172	-0.3117	0.8752	0.7793	-0.4916	0.8392	0.5515	-0.0779	0.5455	0.5575	0.4136	0.4376	0.6534	0.4436	0.4736	-0.2638	-0.9052	0.7373	-0.6414	0.3357	-0.2038
0.8572	-0.2817	0.8093	0.7193	-0.5635	0.7673	0.4616	-0.0719	0.4676	0.4736	0.3956	0.3777	0.5635	0.3836	0.3717	-0.1978	-0.7913	0.6954	-0.6114	0.3057	-0.1499
0.8452	-0.2398	0.7613	0.6714	-0.5275	0.7014	0.3896	-0.018	0.4076	0.4496	0.4016	0.3057	0.5155	0.3237	0.2877	-0.1319	-0.6834	0.6474	-0.5215	0.2338	-0.018
0.7613	-0.2398	0.7313	0.5635	-0.5275	0.5935	0.3117	-0.024	0.3297	0.3297	0.3717	0.2398	0.4136	0.2638	0.2278	-0.024	-0.5455	0.5695	-0.4796	0.1858	0.0659
0.7253	-0.1978	0.6774	0.5095	-0.4856	0.5035	0.1978	-0.018	0.2518	0.2578	0.4076	0.1798	0.3237	0.1858	0.1559	0.0599	-0.3836	0.5095	-0.4376	0.0959	0.1798
0.6594	-0.1439	0.5995	0.4076	-0.4796	0.4016	0.0779	0	0.1559	0.1379	0.4016	0.1019	0.2458	0.0959	0.1319	0.1439	-0.2218	0.4196	-0.3297	-0.024	0.3237
0.5875	-0.1259	0.5455	0.3237	-0.4736	0.3117	-0.024	-0.006	0.054	0.0719	0.3956	0.048	0.1439	0.018	0.0839	0.2278	-0.0659	0.3297	-0.2158	-0.0899	0.4676
0.4736	-0.0959	0.4016	0.2038	-0.4916	0.1858	-0.1918	-0.03	-0.054	-0.0719	0.3717	-0.054	0.018	-0.0839	0.0599	0.2937	0.1259	0.2518	-0.1499	-0.1678	0.5935
0.4076	-0.1139	0.3177	0.03	-0.4975	0.0839	-0.2997	-0.024	-0.1499	-0.1678	0.3717	-0.1439	-0.1019	-0.1858	0.054	0.3777	0.3237	0.1439	-0.054	-0.2638	0.7313
0.3297	-0.0959	0.2158	-0.1319	-0.4916	-0.054	-0.4556	-0.024	-0.2338	-0.2937	0.3477	-0.2218	-0.1858	-0.2877	0.0899	0.4796	0.5275	0.048	0.0779	-0.3417	0.8272
0.2038	-0.0899	0.0599	-0.2757	-0.5275	-0.1798	-0.5515	-0.03	-0.3537	-0.3717	0.3297	-0.2817	-0.2997	-0.3717	0.0839	0.5335	0.6954	-0.012	0.1439	-0.3896	0.9591
0.1199	-0.1139	-0.012	-0.3717	-0.4916	-0.2817	-0.6474	-0.048	-0.4256	-0.4796	0.3057	-0.3477	-0.4076	-0.4436	0.1259	0.6114	0.8512	-0.0959	0.2698	-0.4496	1.103
-0.042	-0.1499	-0.1918	-0.5515	-0.5275	-0.4196	-0.8392	-0.1019	-0.5995	-0.6054	0.2458	-0.4556	-0.5095	-0.5215	0.1139	0.5755	1.0011	-0.2038	0.3477	-0.5455	1.2349
-0.1439	-0.1619	-0.2877	-0.6834	-0.5515	-0.5155	-0.9232	-0.1199	-0.6534	-0.6894	0.2638	-0.5155	-0.5935	-0.5815	0.1139	0.6414	1.139	-0.2997	0.4256	-0.6414	1.3368
-0.3237	-0.2338	-0.4736	-0.8332	-0.5815	-0.6654	-1.0371	-0.1499	-0.7673	-0.8033	0.2098	-0.6114	-0.7014	-0.6774	0.0779	0.6054	1.3188	-0.4076	0.4975	-0.7373	1.4507
-0.4736	-0.2877	-0.6294	-0.9351	-0.5875	-0.7793	-1.097	-0.1858	-0.8752	-0.8572	0.1858	-0.6834	-0.7673	-0.7853	0.1259	0.5815	1.4866	-0.4496	0.5575	-0.7973	1.5586
-0.5635	-0.3477	-0.7193	-0.9891	-0.6054	-0.8512	-1.121	-0.1978	-0.9112	-0.8932	0.1918	-0.6834	-0.7673	-0.8452	0.1499	0.6174	1.6485	-0.5035	0.6174	-0.8572	1.6545
-0.6534	-0.4136	-0.8153	-1.0071	-0.6354	-0.9292	-1.145	-0.2218	-0.9292	-0.9172	0.1619	-0.7074	-0.7913	-0.9172	0.1918	0.6054	1.7924	-0.5275	0.6414	-0.8752	1.7264
-0.7433	-0.4856	-0.9351	-1.085	-0.6714	-0.9891	-1.1629	-0.2757	-1.0191	-0.8992	0.1559	-0.7014	-0.8093	-1.0131	0.2098	0.5575	1.9482	-0.5395	0.7373	-0.9052	1.8103
-0.8153	-0.5875	-1.0191	-1.133	-0.6954	-1.0371	-1.1569	-0.2638	-1.0011	-0.8692	0.1918	-0.6954	-0.7913	-1.085	0.2038	0.4616	2.0861	-0.5575	0.8332	-0.9232	1.8643
-0.8752	-0.6774	-1.073	-1.1809	-0.7193	-1.049	-1.139	-0.2937	-1.0251	-0.8572	0.1559	-0.6534	-0.7673	-1.139	0.2098	0.3717	2.224	-0.5695	0.8392	-0.9292	1.9422
-0.9112	-0.7493	-1.121	-1.1689	-0.7553	-1.061	-1.115	-0.2698	-0.9831	-0.8512	0.1858	-0.5935	-0.7433	-1.1809	0.2158	0.2578	2.3139	-0.5755	0.8812	-0.9591	1.9662
-0.9591	-0.7913	-1.1629	-1.2109	-0.7613	-1.091	-1.139	-0.2638	-0.9951	-0.8272	0.2218	-0.5755	-0.6894	-1.2169	0.2278	0.1199	2.4038	-0.5455	0.9351	-1.0311	1.9962
-0.9891	-0.8153	-1.1569	-1.1869	-0.7613	-1.103	-1.121	-0.2698	-0.9052	-0.8153	0.2398	-0.5155	-0.6654	-1.2529	0.1918	-0.0779	2.4637	-0.5875	0.9711	-1.0131	2.0321
-1.0011	-0.8452	-1.1929	-1.2289	-0.7193	-1.115	-1.121	-0.2398	-0.8992	-0.7733	0.2877	-0.4676	-0.6594	-1.2648	0.2218	-0.2218	2.4877	-0.5935	0.9831	-1.049	2.0441
-1.0191	-0.8572	-1.1749	-1.2708	-0.6834	-1.115	-1.091	-0.1978	-0.8153	-0.7973	0.3357	-0.4076	-0.6354	-1.2828	0.2038	-0.3477	2.5057	-0.6234	1.0311	-1.103	2.0561
-1.0191	-0.8752	-1.2169	-1.2648	-0.6474	-1.121	-1.085	-0.1798	-0.7913	-0.7613	0.3657	-0.3777	-0.6234	-1.2828	0.1738	-0.4856	2.4877	-0.6774	1.0071	-1.103	2.0981
-0.9831	-0.8512	-1.133	-1.2589	-0.6294	-1.079	-1.073	-0.1319	-0.7433	-0.7433	0.3777	-0.3477	-0.6234	-1.2648	0.2098	-0.5335	2.4817	-0.7014	0.9711	-1.139	2.0321
-0.9531	-0.8093	-1.133	-1.2169	-0.5875	-1.043	-1.0131	-0.1259	-0.7193	-0.7613	0.3896	-0.2817	-0.6294	-1.2289	0.2158	-0.6234	2.4098	-0.7074	1.0011	-1.1749	2.0082
-0.9232	-0.8212	-1.073	-1.1869	-0.4796	-1.049	-0.9771	-0.1019	-0.6954	-0.7074	0.3836	-0.2757	-0.6654	-1.1869	0.2578	-0.6954	2.3259	-0.7793	0.9531	-1.145	1.9602
-0.8932	-0.7433	-1.049	-1.109	-0.4496	-0.9591	-0.9711	-0.0899	-0.6414	-0.7014	0.4076	-0.2458	-0.6894	-1.1509	0.2638	-0.7493	2.242	-0.8033	0.9232	-1.1509	1.8883
-0.8332	-0.6894	-1.0071	-1.109	-0.4016	-0.9831	-0.9232	-0.1139	-0.6354	-0.7253	0.3537	-0.3057	-0.7433	-1.103	0.2698	-0.7613	2.164	-0.8812	0.7913	-1.1629	1.8223
-0.8212	-0.6174	-0.9711	-1.067	-0.3417	-0.9711	-0.9232	-0.0779	-0.6234	-0.7313	0.3537	-0.2937	-0.8033	-1.061	0.2578	-0.8272	2.0621	-0.9232	0.7493	-1.1989	1.7024
-0.7733	-0.5335	-0.9292	-1.0371	-0.2458	-0.9411	-0.9292	-0.0719	-0.6354	-0.7913	0.3177	-0.3477	-0.8932	-0.9891	0.2338	-0.8332	1.9362	-0.9891	0.6534	-1.2169	1.6065
-0.7433	-0.4616	-0.8812	-1.055	-0.1858	-0.9292	-0.9471	-0.1079	-0.6414	-0.8153	0.2638	-0.3777	-0.9411	-0.9292	0.1918	-0.8452	1.8044	-1.073	0.5815	-1.2409	1.5226
-0.7253	-0.3956	-0.8332	-1.097	-0.1499	-0.9172	-0.9951	-0.1379	-0.6714	-0.9112	0.1918	-0.4556	-1.0311	-0.8572	0.1439	-0.8992	1.6725	-1.1689	0.4736	-1.2768	1.4027
-0.6654	-0.3237	-0.8033	-1.079	-0.0839	-0.8572	-0.9951	-0.1319	-0.7014	-0.9651	0.1858	-0.5035	-1.1569	-0.7913	0.0899	-0.9411	1.5346	-1.2229	0.3956	-1.3248	1.2708
-0.6414	-0.3117	-0.7553	-1.097	-0.036	-0.8692	-1.055	-0.1499	-0.7313	-1.049	0.0959	-0.5635	-1.2169	-0.7133	-0.006	-0.9531	1.3847	-1.3128	0.3057	-1.3488	1.145
-0.6294	-0.2698	-0.7074	-1.133	0.03	-0.8272	-1.073	-0.1619	-0.7793	-1.115	0.054	-0.6174	-1.2948	-0.6474	-0.1319	-0.9591	1.2529	-1.3548	0.2158	-1.3128	1.0311
-0.5695	-0.2278	-0.6654	-1.145	0.1079	-0.8153	-1.133	-0.1619	-0.7853	-1.1629	0.03	-0.6834	-1.3847	-0.5995	-0.2578	-1.0011	1.139	-1.4267	0.1079	-1.3128	0.9172
-0.5635	-0.1918	-0.6294	-1.1629	0.1199	-0.7673	-1.145	-0.1978	-0.8332	-1.2109	-0.03	-0.7253	-1.4687	-0.5395	-0.3717	-1.0131	1.0371	-1.4806	-0.006	-1.3608	0.8692
-0.5035	-0.1379	-0.5515	-1.115	0.2098	-0.7373	-1.127	-0.1798	-0.8512	-1.2708	-0.036	-0.7853	-1.4986	-0.4556	-0.5095	-0.9651	0.9052	-1.5406	-0.0599	-1.3188	0.7553
-0.5035	-0.1379	-0.5155	-1.115	0.2338	-0.7193	-1.145	-0.1738	-0.8272	-1.2349	-0.0719	-0.8212	-1.5346	-0.4376	-0.6354	-1.0011	0.8153	-1.5826	-0.1079	-1.3188	0.6534
-0.4856	-0.1259	-0.4616	-1.0311	0.2937	-0.6954	-1.139	-0.1918	-0.8992	-1.2708	-0.1199	-0.8572	-1.5706	-0.3657	-0.7074	-0.9531	0.6894	-1.5885	-0.1619	-1.2888	0.5335
-0.4376	-0.1259	-0.3717	-0.9411	0.2817	-0.6474	-1.085	-0.1798	-0.8812	-1.2289	-0.1678	-0.8872	-1.5706	-0.3057	-0.7673	-0.8992	0.5875	-1.6005	-0.2218	-1.2289	0.4376
-0.4136	-0.1499	-0.3177	-0.8812	0.3357	-0.6054	-1.0131	-0.1858	-0.8452	-1.2169	-0.2338	-0.8812	-1.5346	-0.2757	-0.8153	-0.8392	0.5035	-1.5706	-0.2338	-1.115	0.2997
-0.3836	-0.1439	-0.2578	-0.7373	0.3477	-0.5575	-0.8992	-0.1619	-0.8332	-1.1569	-0.2338	-0.9052	-1.4747	-0.2158	-0.8812	-0.7613	0.4016	-1.5646	-0.2218	-1.0251	0.1858
-0.3357	-0.1199	-0.1798	-0.5935	0.3477	-0.4916	-0.7913	-0.1738	-0.7793	-1.043	-0.2817	-0.8812	-1.4327	-0.1499	-0.9411	-0.6954	0.2997	-1.4806	-0.2578	-0.8872	0.1019
-0.2937	-0.1499	-0.1858	-0.5035	0.3657	-0.4736	-0.6774	-0.1559	-0.7913	-0.9831	-0.2877	-0.8992	-1.3548	-0.1199	-0.9292	-0.6654	0.2098	-1.4207	-0.2458	-0.7793	0.03
-0.2698	-0.1319	-0.1019	-0.2937	0.4016	-0.3956	-0.5755	-0.1319	-0.7673	-0.9112	-0.3237	-0.8872	-1.2349	-0.0659	-0.9591	-0.5935	0.0779	-1.3248	-0.1978	-0.6474	-0.048
-0.2877	-0.1858	-0.0839	-0.2038	0.3537	-0.3777	-0.4076	-0.1439	-0.7193	-0.7673	-0.3717	-0.8692	-1.1629	0.024	-0.9351	-0.5395	-0.054	-1.1749	-0.1858	-0.4676	-0.1499
-0.2578	-0.1978	-0.036	-0.036	0.3297	-0.3357	-0.2578	-0.1499	-0.6534	-0.6354	-0.3896	-0.8632	-1.0131	0.0779	-0.8872	-0.4556	-0.1858	-1.085	-0.1678	-0.3477	-0.2518
-0.2698	-0.2038	-0.006	0.1139	0.3237	-0.3057	-0.0839	-0.1619	-0.6474	-0.4616	-0.4256	-0.7913	-0.8452	0.1499	-0.8572	-0.3477	-0.3177	-0.9172	-0.1918	-0.1918	-0.3477
-0.2278	-0.1978	0	0.2158	0.2877	-0.2937	0.042	-0.1678	-0.5695	-0.3597	-0.4076	-0.7793	-0.7193	0.2158	-0.7553	-0.2458	-0.4676	-0.7193	-0.1738	-0.03	-0.4376
-0.2038	-0.1738	0.0659	0.3477	0.3177	-0.2458	0.1798	-0.1259	-0.5395	-0.2278	-0.4316	-0.6954	-0.5395	0.2997	-0.6654	-0.1439	-0.6294	-0.5515	-0.1319	0.1439	-0.5095
-0.1678	-0.1499	0.0839	0.4316	0.2997	-0.2278	0.2757	-0.1259	-0.4736	-0.1079	-0.4376	-0.6414	-0.4196	0.3537	-0.5635	-0.036	-0.7373	-0.3896	-0.1379	0.2458	-0.6174
-0.1798	-0.1079	0.1499	0.4856	0.3297	-0.2218	0.3836	-0.0959	-0.4076	0.024	-0.4256	-0.5695	-0.2698	0.4316	-0.4856	0.0839	-0.8752	-0.2338	-0.1678	0.3896	-0.6654
-0.1319	-0.024	0.1319	0.5095	0.3417	-0.1379	0.4616	-0.0719	-0.3537	0.1259	-0.4436	-0.4616	-0.1139	0.4916	-0.3896	0.1798	-0.9591	-0.1079	-0.1619	0.4616	-0.7433
-0.0779	0.054	0.1978	0.6054	0.3896	-0.1139	0.5335	-0.018	-0.2698	0.2398	-0.3777	-0.4076	-0.024	0.5155	-0.2398	0.3597	-1.0371	0.042	-0.1139	0.5035	-0.7793
-0.0779	0.1259	0.2098	0.6474	0.4076	-0.0779	0.6354	0.036	-0.1858	0.3717	-0.3657	-0.2698	0.1439	0.5395	-0.1499	0.4796	-1.073	0.1439	-0.0899	0.5995	-0.8212
-0.024	0.2218	0.2698	0.7133	0.4556	0	0.7373	0.0959	-0.0779	0.5035	-0.2698	-0.1439	0.3117	0.5455	-0.036	0.5935	-1.103	0.2817	-0.054	0.6714	-0.8392
0.0599	0.2877	0.2997	0.7853	0.5095	0.0839	0.8392	0.1918	0.054	0.6294	-0.2158	0.006	0.4736	0.5395	0.0719	0.7433	-1.097	0.3777	-0.012	0.7313	-0.8752
0.1199	0.3956	0.3597	0.8452	0.5935	0.1798	0.9052	0.2757	0.1678	0.7433	-0.1439	0.1918	0.6234	0.5455	0.1678	0.8872	-1.109	0.4736	0.024	0.7973	-0.8872
0.1379	0.4436	0.3597	0.8872	0.6414	0.2338	0.9591	0.3357	0.2997	0.8153	-0.0839	0.3237	0.7853	0.5395	0.2518	1.0371	-1.097	0.5995	0.1019	0.9112	-0.8572
0.2218	0.5035	0.4196	0.9232	0.6954	0.3537	1.049	0.4316	0.4556	0.9052	0.03	0.5215	0.9711	0.5395	0.3717	1.2229	-1.097	0.7913	0.1319	1.0371	-0.8392
0.3057	0.5695	0.4736	0.9591	0.7673	0.4556	1.097	0.5215	0.5935	1.0311	0.0959	0.6954	1.115	0.5335	0.4316	1.3668	-1.073	0.9112	0.1918	1.133	-0.8752
0.3836	0.6474	0.5275	0.9951	0.7913	0.5875	1.1989	0.5935	0.7793	1.115	0.2398	0.8872	1.3008	0.5335	0.5095	1.4567	-1.079	1.091	0.2817	1.2469	-0.8212
0.4436	0.6894	0.5635	1.073	0.8572	0.6894	1.2049	0.7133	0.9891	1.2169	0.3177	1.055	1.4567	0.5455	0.5275	1.5706	-1.079	1.2229	0.3177	1.3548	-0.8332
0.5095	0.7553	0.6354	1.121	0.9172	0.7913	1.2948	0.8033	1.139	1.3008	0.3956	1.2349	1.6365	0.5575	0.5755	1.6365	-1.091	1.3428	0.3657	1.4207	-0.8392
0.5755	0.7793	0.6774	1.1509	0.9471	0.9172	1.3128	0.8512	1.2589	1.3967	0.4736	1.3668	1.6905	0.5635	0.5515	1.6005	-1.097	1.4447	0.3777	1.4866	-0.8632
0.6174	0.8752	0.6834	1.1509	1.0251	1.0191	1.3428	0.9351	1.3907	1.4207	0.5455	1.4986	1.7984	0.5815	0.5635	1.5586	-1.1629	1.5106	0.4016	1.5466	-0.8692
0.6774	0.9891	0.7913	1.2049	1.079	1.1509	1.4027	1.0131	1.5466	1.4806	0.6174	1.6485	1.8823	0.5995	0.5575	1.5286	-1.2049	1.5826	0.4436	1.5586	-0.8932
0.6894	1.049	0.7793	1.1689	1.127	1.2049	1.3967	1.0131	1.6185	1.5046	0.6234	1.7024	1.9242	0.6054	0.5215	1.4327	-1.2349	1.5885	0.4076	1.5286	-0.8932
0.7553	1.1929	0.8452	1.2229	1.2109	1.3128	1.4447	1.085	1.7144	1.5586	0.6294	1.7804	1.9782	0.6534	0.5155	1.3128	-1.2948	1.5766	0.4196	1.5286	-0.9651
0.7793	1.3068	0.8812	1.2469	1.2409	1.3608	1.4806	1.085	1.7984	1.5766	0.6354	1.8103	1.9902	0.6714	0.5275	1.2229	-1.3368	1.5826	0.3537	1.5226	-1.0131
0.7553	1.4147	0.8692	1.2109	1.2708	1.3967	1.4567	1.055	1.8343	1.5646	0.5695	1.8463	1.9602	0.6834	0.4736	1.091	-1.3608	1.5346	0.3057	1.4387	-1.103
0.7733	1.4507	0.8572	1.2289	1.2469	1.4447	1.4507	1.055	1.8703	1.5826	0.5275	1.7864	1.9362	0.7133	0.4556	0.9771	-1.4027	1.5526	0.2218	1.4207	-1.1749
0.8153	1.5346	0.8752	1.2109	1.3008	1.4926	1.4747	0.9891	1.9003	1.5826	0.4376	1.7684	1.8823	0.7253	0.3836	0.8632	-1.4507	1.5166	0.1978	1.4027	-1.2589
0.7493	1.5406	0.8452	1.1689	1.2169	1.4447	1.4447	0.8872	1.8703	1.5346	0.3537	1.6605	1.7924	0.7253	0.3237	0.7074	-1.4687	1.4387	0.1199	1.3967	-1.3248
0.7313	1.4627	0.7913	1.097	1.079	1.3787	1.3668	0.7673	1.7564	1.4687	0.1858	1.5466	1.7264	0.7373	0.2278	0.5575	-1.4866	1.4147	0.012	1.3787	-1.3967
0.6114	1.3787	0.7014	1.0191	0.9651	1.2948	1.2828	0.5875	1.6545	1.3308	-0.018	1.3608	1.5766	0.7493	0.1199	0.4016	-1.4926	1.3308	-0.1019	1.3608	-1.4926
0.5575	1.2828	0.6174	0.8872	0.7853	1.1749	1.1569	0.4076	1.4806	1.2229	-0.1858	1.1809	1.3967	0.7433	0	0.2638	-1.4986	1.2409	-0.2398	1.3248	-1.6125
0.4256	1.115	0.5095	0.7673	0.5875	1.0311	1.0191	0.2278	1.3188	1.067	-0.4016	0.9531	1.1929	0.7373	-0.1559	0.1019	-1.4986	1.145	-0.3297	1.3068	-1.7144
0.3177	0.9651	0.3896	0.6234	0.3597	0.8632	0.9172	-0.006	1.079	0.8932	-0.6474	0.6894	0.9411	0.7433	-0.2698	-0.024	-1.4986	1.0131	-0.4616	1.2648	-1.8283
0.1858	0.7253	0.2638	0.4736	0.1079	0.6894	0.7373	-0.2698	0.8572	0.6714	-0.9351	0.3956	0.6954	0.7193	-0.4436	-0.1798	-1.4747	0.8512	-0.5995	1.145	-1.9003
0.042	0.5035	0.1199	0.2937	-0.1678	0.4796	0.5515	-0.5575	0.5755	0.4796	-1.2229	0.0719	0.4136	0.7433	-0.6294	-0.3237	-1.4627	0.6534	-0.7253	1.085	-2.0202
-0.1379	0.2218	-0.0719	0.1199	-0.4856	0.2817	0.3777	-0.8392	0.3057	0.2518	-1.4747	-0.2218	0.1379	0.7193	-0.8572	-0.5095	-1.4387	0.5095	-0.8332	0.9591	-2.1101
-0.3297	-0.0599	-0.2338	-0.0719	-0.7793	0.018	0.2278	-1.133	-0.012	0.024	-1.7504	-0.5935	-0.1559	0.6834	-1.067	-0.7253	-1.3907	0.3177	-0.9771	0.8452	-2.188
-0.5515	-0.3777	-0.4256	-0.2578	-1.097	-0.2338	0.054	-1.3967	-0.3177	-0.2038	-1.9962	-0.8932	-0.4496	0.6594	-1.3368	-0.9771	-1.3488	0.1439	-1.067	0.7133	-2.2779
-0.7673	-0.6894	-0.5935	-0.4556	-1.4207	-0.4916	-0.0839	-1.6845	-0.6054	-0.4136	-2.2479	-1.2349	-0.7193	0.6534	-1.5766	-1.2529	-1.3188	-0.042	-1.1629	0.6054	-2.3379
-1.0311	-0.9951	-0.8332	-0.6294	-1.7804	-0.8033	-0.2578	-1.9782	-0.9651	-0.6534	-2.5417	-1.5766	-1.0131	0.6234	-1.8523	-1.5046	-1.2589	-0.2278	-1.2648	0.4676	-2.3858
-1.2708	-1.2948	-1.0311	-0.8272	-2.0861	-1.0071	-0.4136	-2.2479	-1.2708	-0.8692	-2.7515	-1.8343	-1.2888	0.6054	-2.0921	-1.7384	-1.2409	-0.3896	-1.3008	0.3417	-2.4278
-1.4986	-1.6365	-1.2349	-0.9951	-2.4158	-1.2768	-0.5755	-2.5417	-1.5526	-1.061	-2.9673	-2.1341	-1.5166	0.5815	-2.3199	-1.9962	-1.1929	-0.5275	-1.3847	0.2218	-2.4518
-1.7384	-1.9482	-1.4627	-1.1509	-2.7275	-1.5166	-0.7074	-2.8054	-1.8283	-1.2409	-3.1291	-2.3978	-1.7264	0.5755	-2.5237	-2.236	-1.1629	-0.6834	-1.4207	0.1019	-2.4458
-1.9362	-2.224	-1.6365	-1.3248	-2.9793	-1.7564	-0.8033	-2.9973	-2.0441	-1.4327	-3.243	-2.5896	-1.9063	0.5575	-2.6975	-2.3978	-1.133	-0.7313	-1.4507	0	-2.4278
-2.1101	-2.4817	-1.7924	-1.4507	-3.2191	-1.9722	-0.9292	-3.1651	-2.2599	-1.5706	-3.3749	-2.7575	-2.0321	0.5455	-2.8894	-2.5417	-1.097	-0.8212	-1.4567	-0.1079	-2.3558
-2.3319	-2.6796	-1.9362	-1.5346	-3.4229	-2.0981	-1.043	-3.333	-2.4458	-1.6965	-3.4768	-2.9373	-2.2	0.5035	-3.0332	-2.6256	-1.049	-0.9292	-1.4627	-0.2398	-2.3319
-2.3978	-2.8234	-2.0142	-1.5945	-3.5428	-2.236	-1.121	-3.4109	-2.5896	-1.7624	-3.4648	-3.0033	-2.2659	0.4975	-3.0632	-2.6915	-1.0311	-0.9711	-1.4806	-0.3357	-2.23
-2.5117	-2.9493	-2.1281	-1.6185	-3.6387	-2.3678	-1.1689	-3.4828	-2.6556	-1.8583	-3.4648	-3.0572	-2.3439	0.4856	-3.1291	-2.7095	-0.9951	-1.0371	-1.4507	-0.4616	-2.158
-2.6256	-3.0093	-2.224	-1.7024	-3.6806	-2.4937	-1.2409	-3.5368	-2.7934	-1.9602	-3.4528	-3.0692	-2.3978	0.4676	-3.2131	-2.7395	-0.9471	-1.097	-1.4447	-0.5695	-2.0321
-2.6736	-3.0093	-2.2539	-1.6845	-3.6567	-2.5357	-1.2828	-3.5068	-2.8294	-1.9362	-3.3749	-3.1231	-2.4038	0.4676	-3.1951	-2.7095	-0.9411	-1.1629	-1.4507	-0.6594	-1.9182
-2.7575	-3.0392	-2.3379	-1.7564	-3.6686	-2.5956	-1.3548	-3.4888	-2.8294	-1.9962	-3.291	-3.0752	-2.3918	0.4376	-3.2071	-2.7035	-0.9112	-1.1509	-1.4327	-0.7313	-1.8283
-2.8414	-3.0692	-2.4218	-1.9063	-3.6746	-2.6736	-1.4926	-3.4588	-2.8534	-2.0381	-3.2011	-3.0932	-2.4278	0.4196	-3.291	-2.7155	-0.8632	-1.1809	-1.3967	-0.8812	-1.6965
-2.8834	-3.0452	-2.4578	-1.9722	-3.5907	-2.7095	-1.5826	-3.3689	-2.8714	-2.0981	-3.0812	-3.0572	-2.4458	0.3836	-3.321	-2.6676	-0.8212	-1.1809	-1.3608	-0.9951	-1.5885
-2.9673	-3.0752	-2.5776	-2.17	-3.5847	-2.7875	-1.7684	-3.3389	-2.9013	-2.1341	-2.9793	-3.0272	-2.4158	0.3537	-3.3509	-2.6676	-0.7553	-1.2109	-1.3248	-1.073	-1.4687
-3.0452	-3.0332	-2.6496	-2.3139	-3.5308	-2.8234	-1.9302	-3.243	-2.8894	-2.2	-2.8414	-2.9553	-2.3618	0.3297	-3.3869	-2.6016	-0.6954	-1.2169	-1.3488	-1.1929	-1.3668
-3.0992	-3.0572	-2.7275	-2.4697	-3.4588	-2.8894	-2.1341	-3.1531	-2.8594	-2.2839	-2.7155	-2.9373	-2.3439	0.2638	-3.4588	-2.5956	-0.5815	-1.2229	-1.2768	-1.2828	-1.2529
-3.1231	-3.0272	-2.7875	-2.6316	-3.3989	-2.8954	-2.218	-3.0392	-2.8414	-2.3079	-2.5717	-2.7934	-2.2899	0.2098	-3.5188	-2.6136	-0.4376	-1.1929	-1.2409	-1.3668	-1.1809
-3.1591	-2.9793	-2.8234	-2.7515	-3.267	-2.9193	-2.3678	-2.9373	-2.7695	-2.3079	-2.3978	-2.6855	-2.2539	0.1019	-3.5727	-2.6136	-0.2757	-1.121	-1.1509	-1.3907	-1.073
-3.1591	-2.9373	-2.8354	-2.8414	-3.1891	-2.9073	-2.4637	-2.7875	-2.6915	-2.2839	-2.212	-2.5537	-2.152	0.036	-3.6387	-2.6676	-0.0899	-1.0311	-1.079	-1.4507	-0.9172
-3.1651	-2.8954	-2.8474	-2.9373	-3.0932	-2.9013	-2.5177	-2.6436	-2.5717	-2.2599	-2.0741	-2.3978	-2.0321	-0.0659	-3.6627	-2.6915	0.1199	-0.9471	-1.0071	-1.4267	-0.8033
-3.1771	-2.8114	-2.8534	-3.0212	-2.9733	-2.8834	-2.5956	-2.5177	-2.4877	-2.206	-1.8463	-2.2479	-1.8943	-0.1798	-3.6986	-2.7755	0.3177	-0.8093	-0.8812	-1.4507	-0.6414
-3.1591	-2.7515	-2.8894	-3.0872	-2.8834	-2.8294	-2.6436	-2.3439	-2.3738	-2.188	-1.6905	-2.0741	-1.7744	-0.2757	-3.7586	-2.9073	0.5215	-0.7553	-0.7793	-1.4866	-0.4916
-3.1411	-2.6736	-2.8894	-3.1831	-2.7575	-2.8054	-2.6796	-2.17	-2.212	-2.1221	-1.5046	-1.9242	-1.6425	-0.3836	-3.8065	-3.0692	0.7014	-0.6534	-0.6534	-1.5106	-0.3537
-3.1711	-2.5717	-2.8594	-3.261	-2.5836	-2.7215	-2.6855	-2.0142	-2.0921	-2.0801	-1.3368	-1.7504	-1.5346	-0.4556	-3.8365	-3.231	0.8812	-0.5995	-0.5395	-1.5466	-0.2038
-3.1651	-2.5297	-2.8414	-3.273	-2.4637	-2.6556	-2.7035	-1.8643	-1.9722	-1.9962	-1.109	-1.5406	-1.3668	-0.5395	-3.8605	-3.4289	1.0311	-0.5575	-0.3956	-1.5826	-0.0719
-3.1711	-2.4757	-2.8534	-3.279	-2.3199	-2.6196	-2.6975	-1.7204	-1.8523	-1.9482	-0.9292	-1.3907	-1.2768	-0.6234	-3.8904	-3.5907	1.2049	-0.4916	-0.2817	-1.5945	0.1259
-3.1231	-2.3798	-2.7994	-3.309	-2.206	-2.4997	-2.6616	-1.5046	-1.6785	-1.8523	-0.6834	-1.1929	-1.109	-0.6774	-3.8665	-3.7406	1.3188	-0.4376	-0.1019	-1.6425	0.2817
-3.0872	-2.3199	-2.7575	-3.267	-2.0082	-2.3978	-2.5956	-1.3068	-1.5286	-1.7684	-0.4736	-1.0131	-0.9531	-0.7433	-3.8665	-3.8845	1.4327	-0.3597	-0.006	-1.6245	0.4676
-3.0512	-2.2899	-2.7035	-3.2251	-1.8763	-2.2599	-2.5117	-1.103	-1.3548	-1.6665	-0.2757	-0.7913	-0.8033	-0.8033	-3.8725	-4.0583	1.5526	-0.2877	0.1379	-1.6245	0.6054
-3.0093	-2.224	-2.6496	-3.2251	-1.7684	-2.176	-2.5057	-0.9411	-1.2169	-1.5945	-0.024	-0.6114	-0.6714	-0.8752	-3.8845	-4.1842	1.6845	-0.2098	0.2638	-1.6185	0.7673
-2.9793	-2.164	-2.5717	-3.1591	-1.6365	-2.0441	-2.4338	-0.7373	-1.0371	-1.4986	0.1559	-0.4256	-0.4975	-0.9112	-3.8485	-4.3101	1.7864	-0.1619	0.3237	-1.5586	0.9351
-2.9313	-2.0981	-2.5177	-3.1231	-1.4327	-1.9123	-2.3379	-0.5575	-0.8452	-1.3727	0.3777	-0.2158	-0.3657	-0.9591	-3.8125	-4.382	1.8523	-0.042	0.4856	-1.5226	1.073
-2.8834	-2.0142	-2.4398	-3.0093	-1.2948	-1.7084	-2.194	-0.3417	-0.6414	-1.2049	0.5995	0.018	-0.1439	-0.9951	-3.7885	-4.4419	1.9242	0.054	0.5935	-1.4387	1.1989
-2.7994	-1.9003	-2.2839	-2.8894	-1.127	-1.5646	-2.0022	-0.1079	-0.4496	-1.061	0.8392	0.2518	0.036	-1.0251	-3.7766	-4.4959	1.9902	0.1678	0.7253	-1.3548	1.3308
-2.7155	-1.8223	-2.206	-2.7515	-0.9531	-1.3967	-1.8703	0.0659	-0.2398	-0.8812	1.061	0.4616	0.2458	-1.049	-3.6627	-4.5079	2.0501	0.2578	0.8392	-1.2768	1.4447
-2.6316	-1.7324	-2.1101	-2.6436	-0.8392	-1.2229	-1.6665	0.2458	-0.042	-0.6714	1.2589	0.7014	0.4016	-1.067	-3.6087	-4.4779	2.0861	0.3537	0.9591	-1.1869	1.5466
-2.5896	-1.6065	-2.0142	-2.4817	-0.6714	-1.085	-1.4806	0.3896	0.1678	-0.5515	1.3907	0.8872	0.6114	-1.085	-3.5068	-4.406	2.1221	0.4136	1.055	-1.079	1.5945
-2.5177	-1.5226	-1.8763	-2.3499	-0.5755	-0.9651	-1.3128	0.5455	0.3357	-0.3777	1.5586	1.055	0.7613	-1.097	-3.4588	-4.376	2.14	0.4856	1.133	-1.0011	1.6065
-2.4697	-1.4567	-1.7804	-2.2479	-0.4496	-0.7973	-1.2229	0.6294	0.4676	-0.2278	1.6425	1.2109	0.8812	-1.091	-3.3689	-4.3041	2.1221	0.4916	1.1929	-0.9411	1.6245
-2.4218	-1.4207	-1.7144	-2.188	-0.3777	-0.7253	-1.097	0.6714	0.5515	-0.1559	1.7024	1.3308	0.9891	-1.073	-3.3629	-4.2861	2.1221	0.4856	1.2589	-0.8992	1.5646
-2.4278	-1.3727	-1.6845	-2.1281	-0.3057	-0.6354	-0.9831	0.7313	0.6474	-0.0779	1.7264	1.4267	1.109	-1.055	-3.3749	-4.1962	2.0321	0.5035	1.3188	-0.8752	1.5646
-2.4637	-1.3668	-1.6425	-2.1101	-0.2877	-0.5995	-0.9591	0.7553	0.6894	-0.024	1.7204	1.4447	1.121	-1.0071	-3.4109	-4.1422	1.9482	0.4256	1.3128	-0.8992	1.4387
-2.4398	-1.3548	-1.5706	-2.0261	-0.3297	-0.5815	-0.8992	0.7313	0.7014	-0.024	1.6005	1.4447	1.115	-0.9292	-3.4768	-4.0703	1.8163	0.3237	1.2828	-0.9531	1.3308
-2.4458	-1.3428	-1.5466	-1.9962	-0.3477	-0.5455	-0.8272	0.6894	0.7253	0.024	1.5646	1.4267	1.139	-0.8572	-3.5548	-4.0523	1.6665	0.2038	1.2529	-0.9891	1.1749
-2.4637	-1.3368	-1.5346	-1.9542	-0.3836	-0.5575	-0.7613	0.6294	0.6834	0	1.4507	1.3727	1.097	-0.7733	-3.6447	-4.0163	1.4926	0.0599	1.2229	-1.079	0.9591
-2.4757	-1.4267	-1.4806	-1.9242	-0.4616	-0.5515	-0.7433	0.5035	0.6354	-0.036	1.3128	1.2828	1.0311	-0.6774	-3.7106	-4.0043	1.3188	-0.0959	1.1689	-1.103	0.7853
-2.5057	-1.4687	-1.5106	-1.9123	-0.5635	-0.5875	-0.7973	0.4256	0.5875	-0.1079	1.103	1.1509	0.9531	-0.5935	-3.8365	-4.0103	1.145	-0.2877	1.103	-1.2469	0.5635
-2.5657	-1.5706	-1.5046	-1.9542	-0.6774	-0.6234	-0.7853	0.3117	0.5035	-0.1379	0.9351	1.043	0.8392	-0.4916	-3.9324	-4.0403	0.9591	-0.4556	1.0071	-1.3368	0.3237
-2.5117	-1.5706	-1.4567	-1.9182	-0.7373	-0.6354	-0.8153	0.2098	0.4496	-0.1918	0.7493	0.9351	0.7553	-0.3956	-4.0223	-4.0523	0.7733	-0.6414	0.9591	-1.4387	0.0959
-2.5357	-1.6185	-1.4327	-1.9242	-0.8452	-0.6354	-0.8033	0.1079	0.4016	-0.2338	0.5155	0.8093	0.6654	-0.2937	-4.1662	-4.1722	0.5875	-0.8212	0.8332	-1.4747	-0.2038
-2.5417	-1.6545	-1.3907	-1.9542	-0.9711	-0.6774	-0.8392	-0.03	0.2937	-0.3537	0.3117	0.6534	0.5395	-0.2218	-4.2921	-4.2741	0.4436	-1.0371	0.7433	-1.5826	-0.4556
-2.5117	-1.6485	-1.3308	-1.9182	-0.9831	-0.6534	-0.8272	-0.1379	0.2278	-0.3417	0.1738	0.5395	0.4556	-0.1439	-4.4	-4.334	0.2698	-1.103	0.6654	-1.6245	-0.6714
-2.4158	-1.5586	-1.2529	-1.8103	-1.0191	-0.6414	-0.7553	-0.1978	0.2218	-0.2817	-0.006	0.4736	0.3896	-0.0659	-4.4599	-4.388	0.1439	-1.2349	0.5755	-1.6185	-0.9112
-2.3319	-1.4866	-1.1509	-1.7204	-1.0071	-0.5815	-0.6714	-0.3057	0.1858	-0.3117	-0.1619	0.3297	0.3117	-0.03	-4.5319	-4.4899	0.018	-1.3308	0.5035	-1.6065	-1.1629
-2.17	-1.3488	-0.9651	-1.5286	-0.9831	-0.5155	-0.5395	-0.3357	0.1918	-0.2518	-0.3357	0.2877	0.2638	0.042	-4.4839	-4.4959	-0.1199	-1.3727	0.4436	-1.5706	-1.3847
-2.0381	-1.2109	-0.8332	-1.4027	-0.9531	-0.4256	-0.4256	-0.3956	0.2038	-0.1978	-0.4796	0.2038	0.2398	0.0779	-4.4659	-4.5139	-0.1858	-1.4027	0.3177	-1.4866	-1.6365
-1.8643	-1.0191	-0.6774	-1.2349	-0.8872	-0.2757	-0.3177	-0.4196	0.2458	-0.1379	-0.6114	0.1439	0.2518	0.1319	-4.382	-4.5079	-0.2817	-1.4087	0.2338	-1.3847	-1.8283
-1.6605	-0.8512	-0.4856	-1.079	-0.8153	-0.1619	-0.1918	-0.4436	0.2638	-0.0659	-0.7673	0.0779	0.2278	0.1738	-4.2501	-4.4419	-0.3417	-1.3967	0.1918	-1.2828	-2.0441
-1.4627	-0.6174	-0.2458	-0.9172	-0.7074	-0.03	-0.0659	-0.4436	0.3117	-0.024	-0.8452	0.03	0.1858	0.1798	-4.0703	-4.37	-0.3896	-1.3787	0.1019	-1.1689	-2.236
-1.2229	-0.3657	-0.0659	-0.7733	-0.5935	0.0719	0.042	-0.4975	0.3357	0.024	-1.0131	-0.048	0.1499	0.1918	-3.8605	-4.2321	-0.3956	-1.3668	0.006	-1.097	-2.4697
-0.9711	-0.1439	0.1559	-0.6174	-0.4436	0.2278	0.1019	-0.4916	0.3896	0.054	-1.085	-0.0659	0.1319	0.1678	-3.6327	-4.0463	-0.3777	-1.3128	-0.0659	-0.9831	-2.6915
-0.7014	0.1619	0.3896	-0.4376	-0.2757	0.3836	0.2038	-0.4496	0.4256	0.1199	-1.2229	-0.0959	0.1139	0.1918	-3.327	-3.8065	-0.4076	-1.2409	-0.0719	-0.8272	-2.8414
-0.4256	0.4136	0.6054	-0.3177	-0.1439	0.5155	0.2698	-0.4736	0.4916	0.1439	-1.3128	-0.1619	0.1019	0.1559	-3.0992	-3.5727	-0.3477	-1.2169	-0.1559	-0.7253	-3.0212
-0.1738	0.6894	0.8452	-0.1918	0.042	0.6954	0.3657	-0.4556	0.5155	0.1439	-1.4387	-0.1978	0.054	0.1379	-2.7994	-3.285	-0.3057	-1.097	-0.1978	-0.6054	-3.2011
0.1199	0.9351	1.079	-0.0659	0.2038	0.7913	0.4256	-0.4556	0.5695	0.1798	-1.5766	-0.2757	0.024	0.1379	-2.5177	-3.0152	-0.2578	-1.079	-0.2218	-0.4736	-3.4109
0.3597	1.2049	1.2648	0.0659	0.3717	0.9052	0.5155	-0.4736	0.5695	0.2098	-1.6665	-0.3237	0.006	0.0779	-2.218	-2.7155	-0.2038	-0.9831	-0.2638	-0.3537	-3.5607
0.5995	1.3967	1.4207	0.1798	0.5095	1.0131	0.5455	-0.4496	0.5875	0.2098	-1.7864	-0.3836	-0.0659	0.054	-1.9902	-2.4757	-0.1499	-0.9771	-0.2937	-0.2578	-3.7046
0.8093	1.5766	1.6065	0.2997	0.6414	1.109	0.5875	-0.4436	0.6114	0.2398	-1.8763	-0.4676	-0.1559	0.036	-1.7204	-2.242	-0.1019	-0.9232	-0.3177	-0.2038	-3.8485
0.9891	1.7504	1.7444	0.3657	0.7433	1.145	0.6234	-0.4376	0.5875	0.1619	-2.0142	-0.5755	-0.2937	0	-1.5106	-2.0022	-0.048	-0.8872	-0.3417	-0.1499	-3.9504
1.121	1.8223	1.8643	0.4436	0.8212	1.1749	0.6294	-0.4796	0.5935	0.1678	-2.1221	-0.6534	-0.3297	-0.012	-1.3068	-1.7984	-0.006	-0.8932	-0.3477	-0.0899	-4.0463
1.1989	1.8763	1.9003	0.4436	0.8572	1.1929	0.6234	-0.4916	0.5095	0.1079	-2.224	-0.7673	-0.4975	-0.042	-1.133	-1.6665	0.048	-0.9232	-0.3777	-0.1079	-4.1302
1.2768	1.9063	1.9542	0.4975	0.8752	1.2049	0.6294	-0.5275	0.4616	0.0659	-2.3079	-0.8632	-0.5995	-0.048	-0.9711	-1.5226	0.0779	-0.9591	-0.4076	-0.036	-4.1662
1.2828	1.8763	1.9422	0.4916	0.8932	1.139	0.5815	-0.5455	0.4196	0.012	-2.3738	-0.9591	-0.7133	-0.0839	-0.8332	-1.4027	0.1199	-0.9531	-0.3657	-0.0719	-4.1542
1.2888	1.8703	1.9482	0.4856	0.8452	1.109	0.5815	-0.4975	0.3777	-0.0599	-2.4398	-1.0311	-0.8093	-0.1019	-0.7253	-1.3068	0.1559	-0.9831	-0.3657	-0.0719	-4.1662
1.2469	1.7744	1.9123	0.5335	0.8093	1.085	0.5635	-0.5575	0.3297	-0.1199	-2.4697	-1.103	-0.9292	-0.1079	-0.6114	-1.1929	0.1738	-1.0251	-0.3117	-0.0839	-4.0943
1.1869	1.6845	1.8463	0.5035	0.7673	1.0311	0.5515	-0.5635	0.2698	-0.1798	-2.4997	-1.2109	-1.067	-0.1259	-0.5935	-1.1749	0.2098	-1.091	-0.3117	-0.054	-4.0523
1.079	1.5226	1.7024	0.4436	0.7074	0.9531	0.4616	-0.6174	0.1738	-0.2817	-2.5657	-1.2948	-1.1989	-0.1259	-0.5935	-1.127	0.2458	-1.133	-0.2997	-0.1139	-4.0163
0.9471	1.4327	1.6545	0.3657	0.6354	0.8992	0.3956	-0.6414	0.1439	-0.3717	-2.5477	-1.3668	-1.3188	-0.1738	-0.5935	-1.079	0.2817	-1.2169	-0.2638	-0.1499	-3.9024
0.7913	1.2648	1.5226	0.2518	0.5395	0.7613	0.2877	-0.6594	0.03	-0.4975	-2.6016	-1.4627	-1.4627	-0.1738	-0.6294	-1.073	0.3117	-1.2768	-0.2638	-0.1678	-3.8005
0.6414	1.091	1.4087	0.1379	0.4196	0.6774	0.1918	-0.7074	-0.048	-0.6234	-2.6136	-1.5526	-1.5885	-0.1918	-0.7074	-0.9891	0.3537	-1.3368	-0.2218	-0.2098	-3.6806
0.4316	0.9112	1.2469	-0.024	0.3057	0.5875	0.054	-0.7253	-0.1019	-0.7433	-2.5836	-1.6305	-1.7264	-0.2218	-0.7973	-1.0311	0.3896	-1.4147	-0.2038	-0.2458	-3.5368
0.2997	0.7493	1.103	-0.1678	0.1978	0.4736	-0.0599	-0.7433	-0.1559	-0.8572	-2.5537	-1.6725	-1.8403	-0.2278	-0.9292	-0.9771	0.4436	-1.4687	-0.1978	-0.2757	-3.3689
0.1199	0.6114	1.0191	-0.2877	0.1199	0.4076	-0.1918	-0.7133	-0.2278	-0.9831	-2.5237	-1.7264	-1.9662	-0.2817	-1.043	-0.9891	0.4975	-1.5286	-0.1199	-0.2997	-3.1651
-0.0599	0.4616	0.8932	-0.4676	0.018	0.3117	-0.3177	-0.7253	-0.2817	-1.073	-2.4518	-1.7924	-2.0741	-0.2997	-1.1749	-1.0011	0.5455	-1.5945	-0.0719	-0.3417	-2.9913
-0.2098	0.3237	0.7553	-0.5995	-0.024	0.2638	-0.4316	-0.6594	-0.3297	-1.1929	-2.4158	-1.7984	-2.158	-0.3357	-1.3787	-1.073	0.6114	-1.7084	-0.0659	-0.3777	-2.7994
-0.4076	0.2338	0.6534	-0.6714	-0.0599	0.2098	-0.5335	-0.6474	-0.3417	-1.2289	-2.3379	-1.8163	-2.23	-0.3477	-1.5586	-1.145	0.6594	-1.7324	-0.024	-0.4136	-2.6256
-0.5455	0.1559	0.5515	-0.7193	-0.1019	0.2158	-0.5275	-0.5815	-0.3357	-1.2409	-2.212	-1.7804	-2.2479	-0.3597	-1.6605	-1.2109	0.7014	-1.7624	0.024	-0.4616	-2.3978
-0.6774	0.054	0.4856	-0.6954	-0.1259	0.2038	-0.5035	-0.5515	-0.3057	-1.2229	-2.0861	-1.7324	-2.23	-0.3956	-1.8044	-1.3068	0.7313	-1.8044	0.0599	-0.5095	-2.164
-0.7913	-0.012	0.4736	-0.6114	-0.1619	0.2338	-0.4196	-0.4616	-0.2638	-1.1509	-1.9662	-1.6605	-2.152	-0.3896	-1.9722	-1.3907	0.7433	-1.7804	0.1019	-0.5395	-1.9362
-0.9172	-0.0959	0.3836	-0.5935	-0.2038	0.2278	-0.3657	-0.4136	-0.2158	-1.073	-1.8223	-1.5646	-2.0861	-0.4076	-2.1101	-1.5286	0.7613	-1.7744	0.1379	-0.5635	-1.7684
-1.0311	-0.2278	0.3417	-0.5035	-0.2578	0.2278	-0.2338	-0.3417	-0.1499	-0.9471	-1.6725	-1.4567	-1.9662	-0.4136	-2.2899	-1.6305	0.7853	-1.6965	0.1619	-0.6054	-1.5586
-1.139	-0.3057	0.2398	-0.4436	-0.2817	0.2698	-0.1319	-0.2698	-0.0659	-0.8452	-1.5106	-1.3548	-1.8523	-0.4256	-2.4098	-1.7204	0.8033	-1.6665	0.2278	-0.6174	-1.3248
-1.2349	-0.4196	0.1978	-0.3657	-0.3357	0.2877	-0.018	-0.1978	0.03	-0.7014	-1.3128	-1.2409	-1.7144	-0.4256	-2.5776	-1.8463	0.8153	-1.5945	0.2757	-0.6294	-1.097
-1.3727	-0.5275	0.1079	-0.3597	-0.4316	0.2817	0.048	-0.1678	0.0599	-0.5935	-1.139	-1.127	-1.5226	-0.4256	-2.7755	-1.9842	0.8392	-1.4747	0.3117	-0.5875	-0.8752
-1.4926	-0.6474	-0.006	-0.3477	-0.5035	0.2698	0.1379	-0.0899	0.1259	-0.4436	-0.9172	-0.9831	-1.3548	-0.4436	-2.9373	-2.1341	0.8572	-1.3308	0.3537	-0.5815	-0.6174
-1.6605	-0.8452	-0.1319	-0.3297	-0.6234	0.2038	0.1918	-0.0719	0.1678	-0.3237	-0.7613	-0.8452	-1.1749	-0.4556	-3.1591	-2.3439	0.8872	-1.2109	0.3777	-0.5575	-0.4196
-1.8463	-1.0071	-0.2698	-0.3357	-0.7613	0.1499	0.2218	-0.0719	0.1798	-0.2218	-0.5755	-0.7613	-1.0011	-0.4676	-3.3509	-2.5237	0.8812	-1.055	0.4136	-0.5035	-0.2038
-2.0082	-1.139	-0.4136	-0.3537	-0.8392	0.1319	0.3177	-0.054	0.2278	-0.0779	-0.4136	-0.6114	-0.8212	-0.4436	-3.5727	-2.7515	0.8572	-0.8872	0.4136	-0.4136	-0.03
-2.194	-1.2828	-0.5635	-0.4436	-0.9711	0.03	0.2937	-0.0779	0.2578	0	-0.2338	-0.4796	-0.6474	-0.4256	-3.8185	-3.0212	0.8272	-0.7373	0.4076	-0.3537	0.1019
-2.3858	-1.4387	-0.7493	-0.5755	-1.145	-0.1319	0.2218	-0.0839	0.2158	0.0899	-0.1379	-0.3836	-0.5155	-0.3956	-4.0703	-3.291	0.7673	-0.5935	0.3956	-0.2877	0.2278
-2.6316	-1.6545	-1.0011	-0.7133	-1.2948	-0.2997	0.0839	-0.1798	0.1738	0.054	-0.054	-0.3297	-0.4016	-0.3597	-4.334	-3.6207	0.7133	-0.4616	0.3177	-0.2338	0.3896
-2.8714	-1.8223	-1.1569	-0.8932	-1.4567	-0.4436	-0.03	-0.2398	0.1379	0.0959	0.036	-0.2638	-0.2817	-0.3417	-4.6038	-3.9264	0.6594	-0.2877	0.2518	-0.1619	0.4496
-3.0752	-2.0082	-1.3847	-1.097	-1.6065	-0.6054	-0.1559	-0.3177	0.0599	0.0899	0.0899	-0.1858	-0.1259	-0.2997	-4.8136	-4.2561	0.5575	-0.1619	0.2038	-0.0599	0.5635
-3.303	-2.182	-1.5646	-1.2708	-1.7564	-0.7613	-0.3057	-0.3956	-0.006	0.0839	0.1678	-0.1559	-0.054	-0.2458	-4.9814	-4.4779	0.4676	-0.006	0.1319	0	0.6354
-3.5128	-2.3259	-1.7864	-1.4687	-1.9182	-0.9232	-0.4436	-0.5215	-0.0779	0.1139	0.1978	-0.0959	0.0959	-0.2038	-5.1793	-4.7896	0.3717	0.1738	0.042	0.0779	0.7074
-3.6746	-2.4937	-1.9242	-1.5826	-2.0441	-1.061	-0.5395	-0.5935	-0.1199	0.1259	0.2518	-0.03	0.2218	-0.1738	-5.2872	-5.0054	0.3057	0.3057	-0.006	0.1259	0.7673
-3.7945	-2.6256	-2.0741	-1.7024	-2.1281	-1.1629	-0.6054	-0.6594	-0.1678	0.1439	0.2937	0.048	0.3836	-0.1499	-5.3531	-5.1853	0.2398	0.4556	-0.048	0.1858	0.8153
-3.8845	-2.6975	-2.188	-1.7684	-2.212	-1.2349	-0.6174	-0.6654	-0.1978	0.2158	0.3777	0.1499	0.5395	-0.1019	-5.431	-5.3231	0.1738	0.6054	-0.0959	0.2398	0.8992
-3.9804	-2.7575	-2.2719	-1.8643	-2.2479	-1.3308	-0.6654	-0.7014	-0.1918	0.3297	0.4496	0.2218	0.7253	-0.0779	-5.4131	-5.437	0.1379	0.8033	-0.1199	0.3057	0.9651
-4.0043	-2.7815	-2.3139	-1.8523	-2.2899	-1.3727	-0.6594	-0.7433	-0.1738	0.4136	0.4916	0.3237	0.8932	-0.054	-5.3951	-5.497	0.0899	0.9531	-0.1199	0.3836	1.0191
-4.0703	-2.8534	-2.4038	-1.9063	-2.2899	-1.3787	-0.6414	-0.7313	-0.1439	0.5095	0.5635	0.4436	1.079	-0.036	-5.3291	-5.5449	0.036	1.121	-0.1319	0.4436	1.085
-4.0463	-2.8834	-2.4038	-1.8943	-2.2719	-1.3967	-0.5635	-0.7373	-0.1139	0.6354	0.6294	0.5275	1.2589	-0.018	-5.2812	-5.5809	-0.03	1.2409	-0.0959	0.4975	1.1569
-4.0163	-2.8954	-2.4038	-1.8763	-2.2959	-1.3967	-0.5155	-0.7193	-0.042	0.7133	0.6654	0.6114	1.4087	-0.006	-5.2512	-5.6408	-0.054	1.3608	-0.0899	0.5815	1.1689
-4.0343	-2.9433	-2.3738	-1.9182	-2.2899	-1.3787	-0.4616	-0.7253	-0.042	0.8033	0.7253	0.6834	1.5466	0.006	-5.2032	-5.7487	-0.1079	1.4747	-0.0659	0.6414	1.1989
-4.0163	-2.9733	-2.4038	-1.9602	-2.2959	-1.3847	-0.4856	-0.7733	-0.024	0.8572	0.7373	0.7733	1.6905	0.042	-5.1493	-5.7607	-0.1439	1.5586	0	0.6654	1.2229
-3.9444	-2.9673	-2.3678	-1.9842	-2.2659	-1.3368	-0.4856	-0.7313	0.054	0.8932	0.7793	0.8272	1.7744	0.054	-5.1133	-5.7607	-0.1678	1.6005	0.024	0.6954	1.2169
-3.9144	-2.9673	-2.3319	-2.0321	-2.224	-1.3248	-0.5095	-0.6594	0.1259	0.9112	0.8332	0.9112	1.8523	0.0719	-5.0414	-5.7188	-0.2038	1.7024	0.1139	0.7313	1.2289
-3.8545	-2.9613	-2.2659	-2.0741	-2.146	-1.2648	-0.5575	-0.6474	0.1798	0.9112	0.8752	0.9771	1.9182	0.0599	-5.0054	-5.6708	-0.1918	1.6965	0.1798	0.7373	1.2289
-3.7526	-2.9013	-2.194	-2.152	-2.0861	-1.1749	-0.6234	-0.6294	0.2338	0.8452	0.8812	0.9891	1.9362	0.0779	-4.9335	-5.5809	-0.1978	1.7204	0.2158	0.7613	1.2289
-3.6567	-2.8114	-2.1101	-2.194	-2.0321	-1.103	-0.6894	-0.5515	0.2877	0.8452	0.9292	1.0311	1.9662	0.0659	-4.8676	-5.461	-0.1918	1.7504	0.3597	0.7373	1.2229
-3.5188	-2.6915	-1.9662	-2.182	-1.8403	-0.9711	-0.7133	-0.4436	0.3896	0.8093	0.9771	1.073	2.0082	0.0779	-4.7417	-5.2452	-0.2038	1.7504	0.4676	0.7133	1.2409
-3.309	-2.5237	-1.8163	-2.1161	-1.6785	-0.8272	-0.6954	-0.3597	0.4676	0.8033	1.0131	1.097	2.0202	0.0719	-4.5978	-5.0114	-0.1978	1.7444	0.5575	0.6774	1.2409
-3.1291	-2.3618	-1.6605	-1.9842	-1.5286	-0.6354	-0.6594	-0.2338	0.5815	0.7793	1.049	1.1569	2.0082	0.0599	-4.43	-4.7237	-0.1678	1.7204	0.6534	0.6834	1.2289
-2.8834	-2.14	-1.4147	-1.8044	-1.3608	-0.4736	-0.5575	-0.1199	0.7074	0.8392	1.061	1.1929	2.0741	0.048	-4.2561	-4.364	-0.1439	1.6905	0.7313	0.6894	1.2469
-2.6316	-1.9063	-1.1749	-1.6065	-1.1689	-0.2698	-0.4436	-0.012	0.7853	0.8572	1.109	1.2109	2.0441	0.006	-4.0223	-3.9384	-0.0839	1.6545	0.8093	0.6894	1.2229
-2.3918	-1.6365	-0.9531	-1.4147	-0.9711	-0.0839	-0.3357	0.1079	0.9112	0.8812	1.1569	1.2289	2.0501	0	-3.7885	-3.5308	-0.018	1.6245	0.9172	0.6894	1.1809
-2.146	-1.3428	-0.7133	-1.2049	-0.7253	0.1019	-0.1978	0.2817	1.0311	0.9172	1.1749	1.2469	2.0261	-0.024	-3.5727	-3.0452	0.018	1.5586	0.9831	0.6954	1.1689
-1.8763	-1.073	-0.4916	-1.0371	-0.5155	0.2817	-0.0659	0.3836	1.145	0.9052	1.1809	1.2289	1.9662	-0.048	-3.3389	-2.6076	0.0599	1.4747	1.079	0.6954	1.109
-1.6365	-0.7493	-0.2578	-0.8692	-0.3117	0.4376	0	0.5035	1.2109	0.8752	1.1749	1.2229	1.8883	-0.054	-3.1651	-2.164	0.0959	1.3548	1.1569	0.6294	1.0371
-1.3907	-0.5095	-0.0659	-0.7193	-0.1259	0.6114	0.0779	0.5815	1.2529	0.8932	1.1509	1.1869	1.8103	-0.0659	-2.9613	-1.7504	0.1379	1.2049	1.1629	0.6114	0.9531
-1.1869	-0.2218	0.1079	-0.6234	0.054	0.7553	0.1379	0.6714	1.3668	0.8572	1.115	1.127	1.7084	-0.0899	-2.7815	-1.3068	0.1559	1.079	1.2349	0.5455	0.8452
-0.9651	-0.018	0.2458	-0.5335	0.1978	0.8572	0.2098	0.7373	1.3847	0.8153	1.067	1.109	1.5885	-0.1139	-2.5896	-0.9831	0.1978	0.8812	1.2768	0.4916	0.7074
-0.8392	0.1678	0.3597	-0.4376	0.3237	0.9831	0.1858	0.7973	1.4087	0.7613	1.0311	1.0251	1.4327	-0.1319	-2.4637	-0.6954	0.2218	0.7373	1.3008	0.4076	0.5695
-0.7133	0.2877	0.4916	-0.3836	0.4076	1.049	0.2098	0.8392	1.4207	0.6834	0.9351	0.9351	1.2708	-0.1259	-2.2959	-0.4556	0.2218	0.5215	1.3308	0.2997	0.4196
-0.6114	0.4256	0.5635	-0.2937	0.4916	1.079	0.2098	0.8512	1.3907	0.5935	0.8452	0.8093	1.115	-0.1499	-2.212	-0.3177	0.2578	0.3177	1.3488	0.1798	0.2338
-0.5515	0.4676	0.5755	-0.2458	0.5935	1.091	0.2218	0.8572	1.3847	0.5635	0.7793	0.7433	0.9711	-0.1619	-2.14	-0.2278	0.2817	0.1079	1.3787	0.03	0.0779
-0.5095	0.5455	0.5575	-0.2518	0.6354	1.127	0.2338	0.8812	1.3668	0.4975	0.6954	0.6834	0.8392	-0.1678	-2.0741	-0.2278	0.2937	-0.0959	1.3907	-0.0899	-0.0659
-0.5455	0.5455	0.5695	-0.2098	0.6534	1.121	0.2398	0.9112	1.3428	0.4376	0.6114	0.5875	0.6834	-0.1738	-2.0561	-0.2458	0.3237	-0.3297	1.3787	-0.2638	-0.2038
-0.5695	0.5875	0.5155	-0.1559	0.6294	1.097	0.2398	0.8632	1.3188	0.3357	0.5215	0.5035	0.5575	-0.1798	-2.0501	-0.3417	0.3537	-0.5275	1.3608	-0.4136	-0.3896
-0.6114	0.5695	0.4796	-0.1139	0.6414	1.091	0.2338	0.8572	1.2768	0.3297	0.4376	0.4136	0.4616	-0.2098	-2.0261	-0.3956	0.3836	-0.7253	1.3668	-0.5515	-0.5515
-0.6474	0.5275	0.4496	-0.0779	0.6234	1.0251	0.2817	0.8392	1.2229	0.2638	0.3417	0.3237	0.3357	-0.2338	-2.0381	-0.4975	0.4196	-0.9232	1.3428	-0.7133	-0.7133
-0.7133	0.4436	0.3597	-0.006	0.5695	1.0131	0.3357	0.8153	1.2049	0.2458	0.2757	0.2817	0.2518	-0.2578	-2.0022	-0.6114	0.4556	-1.109	1.3248	-0.8692	-0.8452
-0.8212	0.4016	0.3117	0.036	0.5275	0.9891	0.4196	0.8332	1.1749	0.2638	0.2458	0.2638	0.2098	-0.2638	-2.0082	-0.6894	0.4856	-1.2648	1.3188	-1.0011	-0.9351
-0.8392	0.3297	0.2578	0.1499	0.5095	0.9471	0.5095	0.8332	1.1569	0.3177	0.1678	0.2518	0.1858	-0.2937	-1.9482	-0.7673	0.5455	-1.3668	1.2828	-1.097	-1.055
-0.8872	0.2997	0.2578	0.2518	0.4736	0.9471	0.6414	0.8932	1.1809	0.3836	0.2038	0.2817	0.1858	-0.3417	-1.9602	-0.8392	0.6054	-1.4747	1.2648	-1.2049	-1.133
-0.9471	0.2698	0.1978	0.3537	0.4616	0.9351	0.7553	0.9172	1.1809	0.4856	0.2098	0.2997	0.2518	-0.3597	-1.9362	-0.9531	0.6594	-1.5406	1.3008	-1.2469	-1.2049
-0.9471	0.2638	0.1678	0.5035	0.4736	0.9531	0.9351	1.0011	1.2469	0.6354	0.2458	0.3657	0.3117	-0.3896	-1.8823	-1.0311	0.7313	-1.5646	1.2948	-1.2469	-1.2289
-1.0071	0.2338	0.1858	0.5635	0.4736	0.9172	1.055	1.073	1.2828	0.7074	0.2997	0.4676	0.3597	-0.4196	-1.8103	-1.121	0.8212	-1.5406	1.2948	-1.2349	-1.3248
-1.0371	0.2757	0.1738	0.6474	0.5095	0.9591	1.1869	1.1509	1.3727	0.8212	0.3597	0.5215	0.4676	-0.4736	-1.7384	-1.1509	0.9112	-1.5286	1.3428	-1.145	-1.3248
-1.049	0.2757	0.1798	0.6774	0.5635	0.9831	1.2589	1.2229	1.4147	0.9351	0.4196	0.6234	0.5395	-0.5455	-1.6665	-1.1869	1.0191	-1.4806	1.3787	-1.043	-1.3488
-1.067	0.3297	0.1738	0.6894	0.6294	0.9711	1.2828	1.2828	1.4747	1.0131	0.5035	0.7014	0.6414	-0.5875	-1.5226	-1.2648	1.115	-1.3727	1.4327	-0.8992	-1.3727
-1.079	0.3657	0.1978	0.6774	0.6894	0.9891	1.3008	1.3847	1.5466	1.103	0.5395	0.8033	0.7373	-0.6114	-1.4267	-1.3068	1.2109	-1.2768	1.4627	-0.7853	-1.3787
-1.091	0.4676	0.2398	0.6414	0.7733	1.0011	1.3128	1.4507	1.5706	1.1629	0.5815	0.8752	0.7913	-0.6654	-1.3308	-1.3008	1.3248	-1.1809	1.4986	-0.6294	-1.4267
-1.067	0.5515	0.2937	0.6294	0.8752	1.073	1.3128	1.5466	1.6725	1.2529	0.6774	0.9531	0.8632	-0.7373	-1.2169	-1.3188	1.4267	-1.061	1.5706	-0.5035	-1.4327
-1.073	0.6474	0.3117	0.5995	0.9292	1.073	1.2648	1.6005	1.6965	1.2648	0.7133	0.9891	0.9112	-0.7973	-1.1629	-1.3488	1.5646	-0.9711	1.5885	-0.3357	-1.4567
-1.0131	0.7853	0.3597	0.6174	1.0371	1.133	1.2888	1.6785	1.7624	1.3188	0.7313	1.049	0.9771	-0.8572	-1.061	-1.3068	1.6725	-0.8752	1.6305	-0.2218	-1.4687
-0.9232	0.8812	0.4616	0.6774	1.1509	1.1509	1.3308	1.7324	1.7984	1.4027	0.7913	1.091	1.043	-0.8992	-1.079	-1.3248	1.7684	-0.7553	1.6665	-0.1019	-1.4447
-0.8452	0.9771	0.5575	0.7433	1.2229	1.2109	1.3847	1.8223	1.8403	1.4986	0.8572	1.1749	1.103	-0.9471	-1.067	-1.2828	1.8343	-0.6474	1.7144	0.024	-1.4207
-0.7793	1.097	0.6294	0.8512	1.3488	1.2708	1.4866	1.8403	1.9003	1.5466	0.8872	1.1749	1.1569	-0.9831	-1.097	-1.2708	1.9182	-0.5335	1.7444	0.1259	-1.3787
-0.6894	1.1929	0.6954	0.9651	1.4207	1.3068	1.5346	1.8763	1.9123	1.6125	0.8812	1.1749	1.1809	-1.0131	-1.145	-1.2469	1.9722	-0.4376	1.7744	0.1798	-1.3787
-0.5635	1.2948	0.7733	1.067	1.5106	1.3428	1.6185	1.8943	1.9422	1.6845	0.9172	1.1749	1.2289	-1.0251	-1.2049	-1.1809	2.0022	-0.3597	1.8103	0.2757	-1.3368
-0.4916	1.4267	0.8272	1.1509	1.5766	1.3368	1.6485	1.9123	1.9422	1.6905	0.8872	1.139	1.2049	-1.043	-1.2529	-1.097	2.0441	-0.3177	1.7744	0.3477	-1.2888
-0.3956	1.4267	0.8932	1.2349	1.6065	1.3548	1.6665	1.9602	1.9722	1.7204	0.9112	1.103	1.2229	-1.055	-1.3608	-1.0131	2.0621	-0.2578	1.8163	0.3836	-1.2169
-0.2578	1.5226	0.9951	1.2888	1.6245	1.3248	1.6725	1.9302	1.9302	1.7264	0.8752	1.049	1.145	-1.079	-1.4087	-0.9172	2.0861	-0.2398	1.8403	0.4256	-1.1809
-0.1858	1.5766	0.9771	1.3128	1.6605	1.3248	1.6245	1.9302	1.8643	1.6845	0.8632	0.9232	1.091	-1.079	-1.4926	-0.8452	2.0981	-0.2038	1.8643	0.4256	-1.079
-0.1199	1.6125	1.0071	1.3128	1.6305	1.2589	1.5885	1.9182	1.8463	1.6245	0.8332	0.8332	0.9831	-1.067	-1.5646	-0.7373	2.1101	-0.2218	1.8523	0.4496	-1.0191
-0.0719	1.6305	1.0011	1.2948	1.6185	1.1989	1.4986	1.8703	1.7564	1.5286	0.7493	0.7193	0.8692	-1.073	-1.6485	-0.6294	2.0921	-0.2817	1.8763	0.4256	-0.9411
-0.012	1.6185	0.9591	1.2648	1.5766	1.133	1.4387	1.8223	1.6365	1.4327	0.7074	0.5935	0.7253	-1.085	-1.7084	-0.5935	2.0981	-0.3237	1.9003	0.3896	-0.8153
0	1.6185	0.9351	1.2648	1.5286	1.079	1.3668	1.8103	1.5706	1.3608	0.6594	0.4556	0.6414	-1.085	-1.7744	-0.5635	2.1041	-0.3717	1.9182	0.3896	-0.7253
0.024	1.5706	0.9112	1.2229	1.4806	0.9891	1.2768	1.7504	1.4747	1.2409	0.6114	0.3297	0.5275	-1.073	-1.9063	-0.5575	2.0981	-0.4076	1.9242	0.3297	-0.6054
-0.036	1.5526	0.8632	1.2049	1.4387	0.9232	1.2169	1.6965	1.3787	1.109	0.5395	0.2278	0.4016	-1.091	-2.0441	-0.6114	2.1161	-0.4856	1.8943	0.2877	-0.4975
-0.0659	1.4747	0.7793	1.1929	1.3668	0.8093	1.073	1.6245	1.3008	0.9771	0.5095	0.1079	0.2817	-1.091	-2.2	-0.6834	2.14	-0.5275	1.9242	0.2158	-0.3597
-0.1319	1.4087	0.7014	1.073	1.2049	0.6714	0.9471	1.5226	1.121	0.8512	0.3956	-0.036	0.1439	-1.121	-2.3618	-0.7913	2.2	-0.6474	1.8643	0.1439	-0.2398
-0.1798	1.3428	0.6234	1.0011	1.121	0.5935	0.8572	1.4327	1.0131	0.7253	0.3537	-0.1379	0.036	-1.133	-2.4757	-0.8932	2.236	-0.6834	1.8223	0.0779	-0.1319
-0.2757	1.2708	0.5635	0.9052	1.0371	0.5155	0.7074	1.3548	0.9351	0.6354	0.3297	-0.2218	-0.0719	-1.1569	-2.6376	-1.0071	2.2659	-0.6894	1.8044	-0.006	0
-0.3717	1.1869	0.4196	0.7793	0.8932	0.4136	0.6234	1.2109	0.7973	0.4676	0.2578	-0.3417	-0.1619	-1.1809	-2.7695	-1.121	2.3079	-0.7433	1.7924	-0.054	0.1379
-0.4736	1.073	0.3057	0.6534	0.7373	0.2937	0.4436	1.109	0.6894	0.3357	0.1678	-0.4616	-0.2518	-1.1749	-2.9613	-1.2648	2.3139	-0.7433	1.7504	-0.1439	0.2098
-0.6054	1.0131	0.2278	0.5335	0.6294	0.2158	0.3417	0.9411	0.5815	0.2398	0.1139	-0.5515	-0.3177	-1.1689	-3.0572	-1.3847	2.3139	-0.7793	1.7024	-0.2158	0.3237
-0.6954	0.9292	0.0899	0.3777	0.4796	0.0659	0.2098	0.8153	0.4676	0.1379	0.0779	-0.6594	-0.3657	-1.1809	-3.1291	-1.4507	2.2959	-0.7553	1.6725	-0.2817	0.4256
-0.7973	0.7733	-0.042	0.2817	0.2698	-0.0839	0.1259	0.6294	0.3717	0.0599	-0.006	-0.7253	-0.4136	-1.1749	-3.2131	-1.5346	2.2839	-0.7313	1.5826	-0.3357	0.4916
-0.9232	0.6534	-0.1619	0.1978	0.1199	-0.1798	0.1019	0.5155	0.2877	-0.006	-0.0779	-0.8212	-0.4376	-1.1629	-3.255	-1.5586	2.236	-0.7193	1.5466	-0.3836	0.5635
-1.067	0.4376	-0.2877	0.0779	-0.0959	-0.3057	0.012	0.3177	0.1499	-0.1019	-0.1259	-0.9112	-0.5155	-1.145	-3.249	-1.5826	2.218	-0.6654	1.4747	-0.4256	0.6534
-1.1509	0.2997	-0.4076	0.048	-0.2757	-0.3956	0.024	0.2158	0.0779	-0.0899	-0.1559	-0.9411	-0.4856	-1.103	-3.249	-1.5466	2.158	-0.5995	1.3967	-0.4136	0.7553
-1.2948	0.054	-0.5635	-0.048	-0.4916	-0.5155	-0.024	0.03	-0.006	-0.1319	-0.2278	-1.0191	-0.4975	-1.091	-3.267	-1.5826	2.1221	-0.5275	1.3428	-0.3956	0.8272
-1.4207	-0.1259	-0.7014	-0.1139	-0.7373	-0.6234	-0.0599	-0.1379	-0.1199	-0.1678	-0.2877	-1.079	-0.4796	-1.043	-3.249	-1.5885	2.0441	-0.4136	1.2529	-0.3657	0.8632
-1.5826	-0.3597	-0.8272	-0.2278	-0.9531	-0.7613	-0.1079	-0.2757	-0.2158	-0.2038	-0.3297	-1.127	-0.4856	-1.0071	-3.267	-1.6305	1.9302	-0.2817	1.1869	-0.3237	0.9591
-1.7444	-0.5395	-1.0131	-0.3657	-1.145	-0.9351	-0.1918	-0.4616	-0.3177	-0.2638	-0.3956	-1.1989	-0.5035	-0.9351	-3.309	-1.6965	1.8103	-0.1918	1.091	-0.2997	0.9651
-1.9242	-0.7853	-1.1689	-0.5515	-1.4027	-1.091	-0.3057	-0.6414	-0.4316	-0.3477	-0.4556	-1.2888	-0.5155	-0.8452	-3.291	-1.7324	1.6425	-0.024	0.9531	-0.2338	0.9771
-2.182	-1.061	-1.3967	-0.7973	-1.6485	-1.2948	-0.4856	-0.8452	-0.6054	-0.4436	-0.5275	-1.3608	-0.5335	-0.7493	-3.3509	-1.8044	1.4567	0.0719	0.8572	-0.1559	1.0011
-2.4338	-1.3548	-1.6605	-1.067	-1.9242	-1.5406	-0.7433	-1.085	-0.8153	-0.6354	-0.6594	-1.4926	-0.6354	-0.6534	-3.3449	-1.8703	1.2469	0.1559	0.7253	-0.1619	0.9831
-2.7155	-1.6485	-1.9003	-1.3847	-2.194	-1.7444	-0.9831	-1.3308	-1.0251	-0.8212	-0.7673	-1.6305	-0.7493	-0.5155	-3.3389	-1.9542	0.9891	0.2578	0.5455	-0.0899	0.9651
-2.9613	-1.9542	-2.176	-1.7624	-2.5057	-2.0022	-1.2948	-1.5766	-1.2648	-1.049	-0.8872	-1.7924	-0.8932	-0.4016	-3.4169	-2.0621	0.7553	0.3057	0.3657	-0.1139	0.8752
-3.231	-2.2719	-2.4218	-2.0501	-2.7815	-2.2719	-1.5826	-1.7864	-1.4627	-1.2648	-1.0311	-1.9362	-1.0371	-0.2757	-3.3869	-2.1341	0.4916	0.3177	0.1978	-0.1199	0.7973
-3.4948	-2.6076	-2.6736	-2.3858	-3.0932	-2.5357	-1.8523	-2.0381	-1.7204	-1.5226	-1.2169	-2.1161	-1.1809	-0.1499	-3.4109	-2.176	0.2518	0.3237	0	-0.1738	0.7253
-3.6746	-2.8534	-2.8954	-2.6556	-3.279	-2.7515	-2.1041	-2.23	-1.9242	-1.6965	-1.2948	-2.2659	-1.3188	-0.012	-3.4289	-2.2	0.006	0.3896	-0.1619	-0.1559	0.6234
-3.9504	-3.1052	-3.1172	-2.9373	-3.5188	-2.9793	-2.3199	-2.4518	-2.1221	-1.9063	-1.4687	-2.4158	-1.4986	0.0719	-3.4768	-2.3079	-0.1858	0.3297	-0.3477	-0.2038	0.4796
-4.1302	-3.3749	-3.315	-3.1531	-3.7046	-3.1351	-2.5237	-2.6016	-2.3379	-2.0681	-1.5826	-2.5357	-1.6065	0.1858	-3.5068	-2.3618	-0.3896	0.3657	-0.4676	-0.2338	0.4676
-4.2681	-3.5368	-3.4648	-3.3689	-3.8485	-3.273	-2.6975	-2.7095	-2.4817	-2.23	-1.6545	-2.6136	-1.6785	0.2638	-3.5188	-2.3798	-0.5455	0.3896	-0.6114	-0.2278	0.3657
-4.382	-3.6806	-3.6447	-3.5368	-3.9564	-3.4528	-2.8534	-2.7934	-2.6316	-2.3558	-1.6845	-2.7095	-1.7624	0.3177	-3.5368	-2.4098	-0.6774	0.4376	-0.7014	-0.2218	0.3057
-4.4839	-3.8065	-3.7286	-3.6686	-4.0283	-3.5188	-2.9613	-2.9013	-2.7095	-2.5057	-1.7324	-2.7455	-1.8403	0.3537	-3.6207	-2.4997	-0.7673	0.4496	-0.8093	-0.2338	0.2518
-4.5978	-3.8845	-3.7945	-3.7226	-4.0403	-3.5847	-3.0152	-2.8954	-2.8114	-2.5717	-1.7624	-2.7515	-1.8343	0.4076	-3.6986	-2.5597	-0.8332	0.5095	-0.8692	-0.1918	0.1678
-4.6518	-3.9324	-3.8904	-3.7766	-4.1062	-3.6567	-3.0752	-2.9253	-2.8354	-2.5896	-1.7924	-2.7695	-1.8823	0.4136	-3.7586	-2.6196	-0.8572	0.5515	-0.8752	-0.1439	0.1559
-4.6817	-3.9804	-3.9084	-3.7945	-4.0403	-3.6686	-3.0812	-2.9133	-2.8774	-2.6376	-1.7624	-2.7395	-1.8823	0.4016	-3.7885	-2.6736	-0.8572	0.5815	-0.9052	-0.0719	0.1139
-4.6637	-3.9983	-3.9024	-3.7586	-4.0043	-3.6387	-3.0632	-2.8654	-2.8594	-2.6196	-1.7264	-2.6975	-1.8823	0.4196	-3.8904	-2.7215	-0.8572	0.6534	-0.9232	-0.006	0.0659
-4.6577	-3.9924	-3.9084	-3.7346	-3.9504	-3.6387	-3.0272	-2.8114	-2.8834	-2.5956	-1.6845	-2.6855	-1.8463	0.3896	-3.9684	-2.8414	-0.8033	0.6714	-0.9052	0.036	0.036
-4.6278	-3.9864	-3.8845	-3.6686	-3.9024	-3.6267	-2.9613	-2.7575	-2.8534	-2.5717	-1.6365	-2.6316	-1.8283	0.3657	-4.0943	-2.9373	-0.7433	0.6894	-0.8932	0.1199	-0.018
-4.6158	-3.9384	-3.8365	-3.5847	-3.8425	-3.5907	-2.8954	-2.6975	-2.8114	-2.5537	-1.6185	-2.6016	-1.7984	0.3357	-4.2261	-2.9853	-0.7133	0.6654	-0.8632	0.1499	-0.042
-4.5498	-3.9144	-3.8125	-3.5368	-3.7226	-3.5008	-2.8174	-2.6076	-2.7515	-2.4877	-1.5945	-2.5477	-1.7864	0.3237	-4.37	-3.0932	-0.6654	0.6414	-0.8632	0.2098	-0.0779
-4.4719	-3.8125	-3.7766	-3.4528	-3.6087	-3.4888	-2.7875	-2.5297	-2.7335	-2.4997	-1.5526	-2.5117	-1.7804	0.3117	-4.4959	-3.1951	-0.6294	0.5695	-0.8332	0.1678	-0.1439
-4.4539	-3.7825	-3.7526	-3.4528	-3.5667	-3.4588	-2.7575	-2.4278	-2.7035	-2.4757	-1.5166	-2.4937	-1.7564	0.2937	-4.6518	-3.315	-0.6114	0.4916	-0.8153	0.1918	-0.2278
-4.352	-3.7466	-3.6986	-3.4169	-3.4648	-3.4349	-2.7575	-2.3379	-2.6796	-2.4578	-1.5106	-2.5057	-1.7624	0.2937	-4.7896	-3.3869	-0.5995	0.3717	-0.8212	0.1199	-0.2817
-4.2561	-3.6746	-3.6267	-3.303	-3.4469	-3.3809	-2.6915	-2.2659	-2.6256	-2.4338	-1.5046	-2.4458	-1.7384	0.2937	-4.8616	-3.5008	-0.6114	0.2638	-0.7973	0.1019	-0.3717
-4.1602	-3.6267	-3.5428	-3.2071	-3.3629	-3.321	-2.6436	-2.194	-2.5896	-2.3798	-1.4866	-2.4518	-1.7924	0.3057	-4.9275	-3.5847	-0.6174	0.1259	-0.7913	0.042	-0.4676
-4.0463	-3.5488	-3.4648	-3.0812	-3.273	-3.2251	-2.5177	-2.1041	-2.5477	-2.3379	-1.5166	-2.4518	-1.7624	0.3117	-4.9695	-3.6267	-0.6534	-0.012	-0.7613	-0.018	-0.5215
-3.9024	-3.5248	-3.3509	-2.9433	-3.2071	-3.1591	-2.3978	-2.0561	-2.4877	-2.3199	-1.5346	-2.4578	-1.7564	0.3237	-4.9515	-3.6926	-0.6714	-0.1678	-0.7373	-0.0899	-0.6114
-3.7825	-3.4588	-3.2251	-2.7875	-3.1531	-3.0992	-2.23	-1.9902	-2.4278	-2.224	-1.5466	-2.4278	-1.7504	0.3417	-4.9575	-3.7166	-0.6894	-0.2757	-0.7133	-0.1319	-0.7313
-3.6267	-3.3449	-3.1172	-2.6016	-3.0572	-2.9613	-2.0981	-1.9063	-2.3079	-2.1041	-1.5226	-2.3678	-1.6245	0.3537	-4.9035	-3.6926	-0.7193	-0.3237	-0.6714	-0.1319	-0.7973
-3.4349	-3.2011	-2.9493	-2.4038	-2.9373	-2.8174	-1.9182	-1.8703	-2.206	-1.9362	-1.5226	-2.3139	-1.5346	0.3597	-4.7896	-3.6447	-0.7433	-0.3896	-0.6414	-0.1439	-0.8872
-3.279	-3.1112	-2.7575	-2.176	-2.8174	-2.6076	-1.6305	-1.7564	-2.0381	-1.8044	-1.4806	-2.242	-1.4207	0.3657	-4.6937	-3.5488	-0.7733	-0.3836	-0.5995	-0.1139	-0.9292
-3.0992	-2.9133	-2.6196	-1.9902	-2.6796	-2.4458	-1.4507	-1.6965	-1.8703	-1.6305	-1.4627	-2.17	-1.3068	0.3417	-4.5558	-3.4648	-0.7553	-0.3717	-0.5575	-0.0719	-1.043
-2.8954	-2.7575	-2.4218	-1.7864	-2.5417	-2.2479	-1.2109	-1.6065	-1.7264	-1.4147	-1.4447	-2.0681	-1.133	0.3537	-4.418	-3.333	-0.7253	-0.3297	-0.5395	0.018	-1.091
-2.7335	-2.5297	-2.2599	-1.6005	-2.3978	-2.0741	-1.0131	-1.5406	-1.5286	-1.2469	-1.4327	-1.9362	-0.9891	0.3417	-4.2261	-3.1531	-0.7313	-0.2338	-0.4736	0.0899	-1.1749
-2.5177	-2.3319	-2.0202	-1.3907	-2.2539	-1.8643	-0.7913	-1.4447	-1.3787	-1.0371	-1.3787	-1.8103	-0.8033	0.3237	-4.0703	-2.9793	-0.6894	-0.1619	-0.4556	0.1978	-1.2409
-2.3139	-2.1221	-1.8463	-1.2049	-2.0981	-1.6485	-0.5935	-1.3847	-1.1689	-0.8272	-1.3248	-1.7084	-0.6534	0.3117	-3.8065	-2.7335	-0.6594	-0.0899	-0.3597	0.2458	-1.3188
-2.1341	-1.9123	-1.5885	-1.043	-1.9123	-1.4507	-0.4136	-1.3128	-1.0191	-0.6774	-1.3068	-1.6125	-0.4736	0.2817	-3.5907	-2.4637	-0.6054	-0.018	-0.3357	0.3237	-1.3668
-1.9003	-1.6965	-1.3488	-0.7853	-1.7204	-1.1929	-0.1978	-1.1989	-0.7973	-0.4316	-1.2648	-1.4507	-0.2937	0.2698	-3.4169	-2.236	-0.5695	0.0599	-0.2638	0.3836	-1.4627
-1.7144	-1.4986	-1.139	-0.6234	-1.5945	-1.0011	-0.018	-1.145	-0.6654	-0.2578	-1.2409	-1.3368	-0.1499	0.2458	-3.1891	-1.9362	-0.5035	0.1499	-0.1858	0.4316	-1.5406
-1.5166	-1.3128	-0.9411	-0.4556	-1.4567	-0.8033	0.1259	-1.061	-0.4796	-0.1079	-1.2049	-1.2169	-0.024	0.2038	-2.9373	-1.6605	-0.4616	0.1858	-0.1259	0.4556	-1.6065
-1.3548	-1.109	-0.7553	-0.2877	-1.3068	-0.6234	0.2578	-1.0371	-0.3477	0.054	-1.1989	-1.115	0.1319	0.1858	-2.7275	-1.3668	-0.3896	0.2098	-0.0719	0.4856	-1.6545
-1.2109	-0.9411	-0.5755	-0.1619	-1.1809	-0.4436	0.3956	-1.0071	-0.2338	0.1439	-1.2109	-1.0311	0.1978	0.1439	-2.5776	-1.085	-0.3357	0.2278	-0.036	0.4796	-1.7144
-1.0251	-0.7673	-0.3717	-0.03	-1.0371	-0.2757	0.4856	-0.9591	-0.1019	0.2757	-1.1929	-0.9232	0.3237	0.1199	-2.3738	-0.7313	-0.2638	0.2278	0.042	0.4616	-1.7504
-0.8452	-0.5995	-0.2038	0.0659	-0.9471	-0.1319	0.5875	-0.8932	0.006	0.3956	-1.1809	-0.8332	0.4136	0.0779	-2.158	-0.3777	-0.2098	0.2638	0.1319	0.4436	-1.7864
-0.6834	-0.4316	0	0.2038	-0.8153	0.018	0.6774	-0.8153	0.1439	0.5215	-1.115	-0.7253	0.5335	0.048	-1.9422	0.054	-0.1499	0.3117	0.1678	0.4316	-1.7924
-0.5095	-0.2398	0.1858	0.3896	-0.6414	0.2338	0.8212	-0.7433	0.2757	0.6714	-1.0311	-0.5755	0.6594	0.018	-1.7024	0.4376	-0.0839	0.3956	0.2877	0.4436	-1.7684
-0.3357	-0.0839	0.3537	0.5275	-0.5515	0.3477	0.9531	-0.6774	0.4556	0.8093	-0.9831	-0.4736	0.8452	-0.024	-1.4687	0.7973	0.012	0.4796	0.3357	0.4916	-1.7324
-0.1439	0.1079	0.5455	0.6894	-0.3836	0.5035	1.067	-0.5815	0.5455	1.0011	-0.8812	-0.3657	0.9891	-0.0719	-1.2229	1.1689	0.1139	0.5995	0.4136	0.5635	-1.6725
0.036	0.2338	0.7133	0.8812	-0.2817	0.6654	1.2768	-0.4736	0.6834	1.1749	-0.7973	-0.1918	1.1509	-0.1259	-1.0191	1.4926	0.1978	0.7433	0.4975	0.6234	-1.5826
0.1798	0.4136	0.8992	1.055	-0.1259	0.7973	1.4327	-0.3777	0.8392	1.3188	-0.6834	-0.048	1.3428	-0.1678	-0.8572	1.7984	0.2997	0.8872	0.6114	0.7373	-1.4926
0.3597	0.5755	1.061	1.2289	-0.006	0.8932	1.5706	-0.2518	0.9591	1.4986	-0.5515	0.0659	1.5106	-0.2218	-0.6474	2.0621	0.4136	1.061	0.7133	0.8153	-1.3488
0.5035	0.7074	1.1989	1.3308	0.1319	1.0071	1.7024	-0.1559	1.073	1.6245	-0.4376	0.2158	1.6845	-0.2997	-0.4676	2.2659	0.5335	1.1509	0.8212	0.8452	-1.2349
0.5995	0.8392	1.3248	1.4387	0.2817	1.079	1.8103	-0.024	1.1869	1.7744	-0.2937	0.2937	1.8103	-0.3357	-0.3417	2.4458	0.6414	1.2948	0.9531	0.9292	-1.067
0.7373	0.9471	1.4387	1.5586	0.3777	1.1569	1.9063	0.0899	1.3068	1.8823	-0.1798	0.4496	1.9242	-0.4196	-0.1798	2.5417	0.7673	1.3608	1.049	0.8752	-0.8992
0.7913	0.9891	1.5046	1.5826	0.4376	1.2049	1.9182	0.1678	1.3608	1.9482	-0.0839	0.5035	2.0261	-0.4676	-0.0899	2.5956	0.8992	1.4087	1.1629	0.8992	-0.7793
0.8272	1.049	1.5526	1.5945	0.5155	1.2229	1.9422	0.2338	1.4027	1.9482	0.0599	0.5995	2.0921	-0.5035	0	2.6076	0.9891	1.4447	1.2469	0.8272	-0.6234
0.8932	1.073	1.5766	1.5586	0.5755	1.2349	1.9123	0.3117	1.4267	1.9782	0.0959	0.6534	2.1101	-0.5755	0.0659	2.4817	1.115	1.4027	1.3428	0.7433	-0.4616
0.8932	1.091	1.5766	1.4866	0.5815	1.2109	1.8763	0.3297	1.4387	1.9782	0.1978	0.6774	2.1101	-0.6414	0.0719	2.3738	1.2109	1.3308	1.4567	0.6834	-0.3177
0.8752	1.055	1.5406	1.4087	0.5515	1.1869	1.7864	0.4136	1.4447	1.9782	0.2398	0.6954	2.1161	-0.7133	0.0839	2.158	1.3248	1.2529	1.5286	0.5515	-0.1738
0.8093	1.0011	1.4747	1.2768	0.5455	1.085	1.6665	0.4076	1.4087	1.8283	0.2578	0.6954	2.0441	-0.7613	0.042	1.8823	1.4267	1.1509	1.5706	0.4136	-0.042
0.7253	0.9232	1.4327	1.1749	0.5575	1.043	1.5586	0.4616	1.3847	1.7924	0.3117	0.6774	2.0142	-0.7853	-0.0599	1.5766	1.5166	1.0131	1.6065	0.2817	0.024
0.6654	0.8992	1.3548	1.0311	0.5395	0.9591	1.4207	0.4736	1.3308	1.7084	0.3537	0.6234	1.8943	-0.8332	-0.1319	1.2589	1.6005	0.8932	1.6725	0.1619	0.1379
0.5215	0.8452	1.2648	0.8692	0.4856	0.8632	1.3128	0.4916	1.2948	1.5706	0.3657	0.5755	1.8583	-0.8632	-0.2398	0.9232	1.6785	0.7793	1.7504	-0.006	0.2698
0.4436	0.7373	1.1929	0.7433	0.4856	0.8153	1.1569	0.5155	1.1989	1.4327	0.3597	0.5335	1.7084	-0.9292	-0.3597	0.5635	1.7564	0.6294	1.7864	-0.1199	0.3417
0.3177	0.7253	1.121	0.6354	0.4916	0.7193	1.055	0.5275	1.1869	1.3608	0.3956	0.4916	1.6665	-0.9531	-0.4376	0.2817	1.8163	0.5095	1.8523	-0.1978	0.4556
0.2218	0.6774	1.049	0.5035	0.4736	0.6714	0.9052	0.5755	1.133	1.2469	0.4556	0.4616	1.5466	-0.9771	-0.5395	-0.03	1.8943	0.3956	1.8763	-0.3057	0.5695
0.1259	0.5995	0.9471	0.3896	0.4496	0.6354	0.8093	0.6174	1.091	1.121	0.4916	0.4196	1.4567	-1.0071	-0.6414	-0.2698	1.9782	0.2877	1.9422	-0.3956	0.6774
0.054	0.5815	0.9052	0.3057	0.5155	0.6114	0.7313	0.6834	1.097	1.061	0.5335	0.3896	1.4207	-1.067	-0.7193	-0.4796	2.0381	0.2038	2.0321	-0.4916	0.8212
-0.0839	0.4975	0.8093	0.1918	0.4796	0.5335	0.6174	0.7014	1.049	0.9651	0.6174	0.3597	1.2948	-1.097	-0.8332	-0.6954	2.1221	0.1379	2.0921	-0.5515	0.9471
-0.1259	0.5215	0.7673	0.0959	0.5395	0.5215	0.5395	0.7853	1.0191	0.8512	0.6534	0.3417	1.2109	-1.139	-0.8632	-0.8452	2.158	0.0659	2.176	-0.6174	1.079
-0.2518	0.4616	0.7014	-0.024	0.5575	0.4975	0.4016	0.8093	0.9831	0.7973	0.6954	0.3357	1.1629	-1.139	-0.9112	-0.9711	2.212	-0.024	2.2479	-0.7014	1.1929
-0.3237	0.4556	0.5995	-0.1858	0.5575	0.4316	0.2937	0.8572	0.9651	0.6594	0.7553	0.2997	1.079	-1.139	-1.0251	-1.073	2.2479	-0.042	2.2719	-0.7793	1.3248
-0.4196	0.4736	0.5395	-0.2698	0.6174	0.4436	0.2398	0.9052	0.9112	0.5815	0.7973	0.2578	1.0251	-1.1509	-1.061	-1.109	2.2659	-0.0899	2.3738	-0.8332	1.4507
-0.4736	0.4856	0.4975	-0.3477	0.6894	0.3657	0.1678	0.9531	0.9052	0.5095	0.8392	0.1978	0.9831	-1.1749	-1.1569	-1.2289	2.2719	-0.1439	2.4697	-0.9232	1.5406
-0.5275	0.4796	0.4676	-0.4076	0.7133	0.3597	0.1379	0.9711	0.8272	0.4196	0.8872	0.1439	0.9112	-1.1689	-1.2648	-1.2708	2.2839	-0.1858	2.4997	-0.9411	1.6425
-0.6114	0.4975	0.3657	-0.4556	0.7373	0.2578	0.0719	0.9951	0.7493	0.3357	0.8392	0.0779	0.8632	-1.1629	-1.3787	-1.2828	2.2599	-0.2757	2.5177	-1.0071	1.7084
-0.6894	0.4616	0.3117	-0.4975	0.7433	0.2218	0.0719	1.0011	0.6954	0.2817	0.8512	-0.024	0.8033	-1.127	-1.5046	-1.3128	2.218	-0.2578	2.5357	-1.0311	1.7804
-0.7553	0.4856	0.2398	-0.5275	0.7853	0.1619	-0.012	1.0071	0.6474	0.1978	0.8272	-0.048	0.7133	-1.091	-1.5706	-1.2948	2.152	-0.2877	2.5597	-1.061	1.8223
-0.8153	0.4616	0.1858	-0.5335	0.8392	0.0599	-0.018	0.9831	0.5155	0.0899	0.7793	-0.1978	0.6354	-1.079	-1.6845	-1.2948	2.1041	-0.3357	2.5597	-1.103	1.8523
-0.8572	0.4916	0.1259	-0.5455	0.8452	-0.036	-0.0599	0.9651	0.4436	-0.006	0.7433	-0.3177	0.5215	-1.067	-1.7504	-1.2409	2.0681	-0.3657	2.5537	-1.121	1.8703
-0.8932	0.5095	0.0659	-0.5215	0.8452	-0.1259	-0.048	0.9351	0.3177	-0.0899	0.6654	-0.4676	0.4556	-1.043	-1.8523	-1.1509	2.0621	-0.3777	2.5117	-1.1509	1.8523
-0.8572	0.6114	0.03	-0.4676	0.9052	-0.2038	-0.012	0.9292	0.2338	-0.1499	0.6474	-0.5515	0.3477	-1.049	-1.9482	-1.115	2.0441	-0.3717	2.5357	-1.121	1.8943
-0.8692	0.6714	0.012	-0.3896	0.9292	-0.2698	-0.042	0.8452	0.1319	-0.2158	0.5695	-0.6894	0.2218	-1.055	-1.9962	-0.9531	2.0441	-0.3777	2.5597	-1.091	1.8463
-0.8752	0.7733	-0.012	-0.3477	1.0251	-0.3717	-0.054	0.8692	0.024	-0.3057	0.5215	-0.8272	0.1199	-1.049	-2.0202	-0.8452	2.0561	-0.3896	2.5597	-1.0191	1.8883
-0.8752	0.8572	-0.042	-0.3357	1.043	-0.4856	-0.054	0.8332	-0.1259	-0.4196	0.4676	-0.9771	0.018	-1.061	-1.9782	-0.6774	2.0801	-0.3896	2.5657	-1.0011	1.8523
-0.8692	0.9651	-0.0659	-0.3477	1.049	-0.5815	-0.1319	0.8332	-0.2278	-0.5035	0.4076	-1.121	-0.1259	-1.073	-1.9482	-0.5095	2.0921	-0.3896	2.5177	-0.9471	1.8343
-0.8932	1.043	-0.1319	-0.4376	1.079	-0.6714	-0.2578	0.7733	-0.4076	-0.6834	0.3177	-1.3008	-0.3177	-1.079	-1.8643	-0.3537	2.0861	-0.4196	2.5357	-0.9172	1.7864
-0.8632	1.127	-0.1619	-0.5095	1.103	-0.7913	-0.3597	0.7253	-0.5515	-0.8093	0.2098	-1.4627	-0.4736	-1.067	-1.7204	-0.1559	2.0801	-0.4916	2.5057	-0.8932	1.7864
-0.8992	1.1749	-0.2698	-0.6294	1.0311	-0.9052	-0.5395	0.6654	-0.7433	-1.043	0.1379	-1.6545	-0.6714	-1.079	-1.6065	-0.03	2.0861	-0.5755	2.4697	-0.9292	1.7324
-0.9232	1.2289	-0.2997	-0.7014	1.0071	-1.0071	-0.7133	0.6174	-0.9052	-1.2229	0.042	-1.8463	-0.8992	-1.061	-1.4507	0.0959	2.0501	-0.6294	2.4338	-0.9471	1.6725
-0.9831	1.2469	-0.4256	-0.8332	0.9531	-1.1629	-0.8932	0.5335	-1.103	-1.4147	-0.042	-2.0321	-1.127	-1.043	-1.2768	0.2278	2.0561	-0.7673	2.3618	-1.0011	1.5945
-1.0371	1.2289	-0.5275	-1.0071	0.8632	-1.3128	-1.127	0.3777	-1.3248	-1.6845	-0.1918	-2.2599	-1.4087	-1.0311	-1.115	0.3117	2.0261	-0.9411	2.2719	-1.067	1.4926
-1.097	1.1809	-0.6234	-1.2049	0.7373	-1.4447	-1.3488	0.2338	-1.5286	-1.9422	-0.2877	-2.4578	-1.6845	-1.0011	-0.9531	0.3477	1.9602	-1.073	2.2	-1.121	1.4447
-1.1989	1.061	-0.7973	-1.4027	0.5515	-1.6545	-1.6185	0.0779	-1.7744	-2.194	-0.4616	-2.6676	-1.9542	-0.9951	-0.7733	0.3357	1.9422	-1.2648	2.0381	-1.2229	1.3368
-1.3008	0.9891	-0.9591	-1.6485	0.4256	-1.8283	-1.8823	-0.1019	-1.9962	-2.4398	-0.5635	-2.9073	-2.218	-0.9531	-0.6174	0.3297	1.8703	-1.4447	1.9602	-1.3188	1.2109
-1.4087	0.8512	-1.115	-1.8403	0.2757	-1.9902	-2.1161	-0.2338	-2.224	-2.6796	-0.7313	-3.1531	-2.5417	-0.9172	-0.5155	0.2038	1.7984	-1.6485	1.8523	-1.4387	1.127
-1.5106	0.7373	-1.2888	-2.0381	0.0779	-2.158	-2.3558	-0.4136	-2.4158	-2.9493	-0.8572	-3.3749	-2.7934	-0.8812	-0.4196	0.0779	1.7384	-1.8103	1.7024	-1.5346	1.049
-1.6245	0.6354	-1.4087	-2.17	-0.054	-2.2839	-2.5537	-0.5695	-2.6136	-3.1172	-1.0311	-3.5428	-3.0093	-0.8452	-0.3477	-0.0899	1.6425	-2.0441	1.6365	-1.6605	0.9471
-1.7264	0.5335	-1.5466	-2.3618	-0.2218	-2.4458	-2.7215	-0.7613	-2.8114	-3.3509	-1.139	-3.7466	-3.267	-0.7913	-0.2817	-0.2937	1.5526	-2.17	1.5286	-1.7744	0.8392
-1.8283	0.4136	-1.6785	-2.4937	-0.3836	-2.5836	-2.9193	-0.9471	-3.0272	-3.5308	-1.2948	-3.9144	-3.4648	-0.7493	-0.2877	-0.5275	1.4387	-2.3499	1.4267	-1.8463	0.7373
-1.9242	0.3477	-1.7984	-2.6076	-0.5455	-2.6975	-3.0572	-1.067	-3.1231	-3.6986	-1.4207	-4.0523	-3.6746	-0.7014	-0.2458	-0.7193	1.3608	-2.4218	1.3068	-1.9123	0.6414
-2.0082	0.2458	-1.9123	-2.7215	-0.6894	-2.7575	-3.1831	-1.2349	-3.297	-3.8245	-1.5466	-4.1842	-3.8425	-0.6714	-0.2278	-0.8752	1.2828	-2.5477	1.1989	-1.9722	0.5335
-2.0981	0.1319	-2.0022	-2.8174	-0.8392	-2.8654	-3.261	-1.4207	-3.4289	-3.9264	-1.6665	-4.2981	-3.9444	-0.6054	-0.3117	-1.055	1.1809	-2.5836	1.091	-2.0142	0.4136
-2.152	0.036	-2.0801	-2.8594	-0.9591	-2.9073	-3.297	-1.5646	-3.5068	-3.9864	-1.7864	-4.37	-4.0343	-0.5395	-0.3657	-1.1989	1.073	-2.6196	0.9951	-1.9902	0.3297
-2.206	-0.0779	-2.1341	-2.9073	-1.115	-2.9613	-3.3809	-1.6845	-3.5967	-4.0583	-1.9003	-4.4539	-4.1122	-0.5275	-0.4376	-1.2648	0.9951	-2.6915	0.8572	-2.0381	0.2098
-2.2659	-0.1619	-2.218	-2.9433	-1.2529	-2.9793	-3.3929	-1.8044	-3.6327	-4.0943	-1.9782	-4.4899	-4.1782	-0.4676	-0.5095	-1.3787	0.9052	-2.6616	0.7193	-2.0681	0.1079
-2.2899	-0.2877	-2.188	-2.9313	-1.3248	-2.9493	-3.3689	-1.9003	-3.6447	-4.0523	-2.0261	-4.4779	-4.1182	-0.4316	-0.5575	-1.3847	0.8272	-2.6316	0.6414	-2.0261	0.048
-2.2779	-0.3657	-2.212	-2.8414	-1.4387	-2.9313	-3.291	-1.9242	-3.5967	-3.9564	-2.0621	-4.424	-4.1122	-0.4076	-0.5695	-1.3608	0.7733	-2.5836	0.5575	-1.9722	0.006
-2.2479	-0.3956	-2.1341	-2.6855	-1.4567	-2.7994	-3.1231	-1.9422	-3.4768	-3.7885	-2.0261	-4.3221	-3.9504	-0.3836	-0.5935	-1.2828	0.7074	-2.4518	0.4975	-1.8463	-0.006
-2.194	-0.4436	-2.0741	-2.5117	-1.4627	-2.6855	-2.8894	-1.9123	-3.3689	-3.6267	-2.0022	-4.1782	-3.7646	-0.3357	-0.5875	-1.2049	0.6714	-2.3319	0.4556	-1.7324	-0.018
-2.1161	-0.4676	-1.9782	-2.2899	-1.4866	-2.5776	-2.6736	-1.8823	-3.243	-3.3809	-1.9602	-4.0043	-3.5667	-0.3357	-0.5575	-0.9891	0.6294	-2.194	0.4556	-1.6185	-0.006
-2.0621	-0.4376	-1.9003	-2.0921	-1.4866	-2.4518	-2.4697	-1.8403	-3.0932	-3.1411	-1.8883	-3.8365	-3.327	-0.3297	-0.5335	-0.8512	0.6174	-2.0142	0.4436	-1.5166	-0.012
-1.9962	-0.4796	-1.7864	-1.9422	-1.4567	-2.2839	-2.2539	-1.7864	-2.9013	-2.9253	-1.8223	-3.6327	-3.1172	-0.3177	-0.5035	-0.6234	0.6054	-1.8643	0.4616	-1.3907	0.048
-1.9302	-0.4856	-1.6905	-1.7744	-1.4747	-2.14	-2.0321	-1.7204	-2.7275	-2.6915	-1.7264	-3.4229	-2.8474	-0.3177	-0.4916	-0.4736	0.5815	-1.6845	0.4676	-1.2589	0.0599
-1.9182	-0.4916	-1.6185	-1.6545	-1.4387	-2.0142	-1.8703	-1.6965	-2.5477	-2.4817	-1.6845	-3.237	-2.6376	-0.2937	-0.4796	-0.2638	0.5575	-1.5106	0.4916	-1.139	0.012
-1.8643	-0.5275	-1.5526	-1.5466	-1.4806	-1.9242	-1.6905	-1.6365	-2.3858	-2.2599	-1.6065	-3.0332	-2.3918	-0.2698	-0.4736	-0.1019	0.5215	-1.3128	0.5155	-1.0191	0.0599
-1.8883	-0.5695	-1.4986	-1.5046	-1.4627	-1.8223	-1.5766	-1.6005	-2.224	-2.0801	-1.5346	-2.8414	-2.1341	-0.2518	-0.4916	0.006	0.5035	-1.1629	0.5635	-0.9112	0.024
-1.8943	-0.5815	-1.4806	-1.4747	-1.5046	-1.7264	-1.4926	-1.5646	-2.0561	-1.8943	-1.4866	-2.6436	-1.9482	-0.2398	-0.5275	0.1439	0.4496	-0.9831	0.5695	-0.7793	0.03
-1.9302	-0.5995	-1.4627	-1.4747	-1.4866	-1.6725	-1.4207	-1.5406	-1.9362	-1.7144	-1.4207	-2.4338	-1.7204	-0.2158	-0.5755	0.2278	0.4076	-0.8392	0.5815	-0.6954	0.0599
-2.0022	-0.6894	-1.5166	-1.5526	-1.5706	-1.6305	-1.3847	-1.5466	-1.8343	-1.5826	-1.4327	-2.3019	-1.5106	-0.1918	-0.6174	0.2578	0.3657	-0.7193	0.6174	-0.6054	0.024
-2.0561	-0.7253	-1.5346	-1.5885	-1.5706	-1.6065	-1.3787	-1.5406	-1.7744	-1.4986	-1.4087	-2.158	-1.3727	-0.1738	-0.6714	0.2398	0.3297	-0.6174	0.6294	-0.5335	-0.042
-2.0921	-0.8033	-1.6005	-1.6545	-1.6485	-1.5945	-1.4087	-1.5766	-1.6845	-1.4267	-1.3668	-2.0321	-1.2229	-0.1559	-0.7193	0.2518	0.2877	-0.5155	0.6594	-0.5275	-0.0779
-2.17	-0.9112	-1.6185	-1.7264	-1.6785	-1.5885	-1.4087	-1.6125	-1.6125	-1.3068	-1.3907	-1.9242	-1.109	-0.1499	-0.8033	0.2278	0.2518	-0.4376	0.6834	-0.4796	-0.1559
-2.17	-0.9232	-1.6545	-1.7384	-1.7384	-1.5945	-1.3727	-1.5826	-1.5346	-1.2229	-1.3488	-1.8343	-0.9411	-0.1199	-0.8992	0.2578	0.2218	-0.3297	0.7553	-0.4256	-0.1738
-2.224	-1.0011	-1.6665	-1.7504	-1.7564	-1.6245	-1.3428	-1.6125	-1.4567	-1.073	-1.3608	-1.7204	-0.7853	-0.1139	-0.9711	0.1918	0.2038	-0.2338	0.7913	-0.3836	-0.2278
-2.212	-1.0191	-1.6665	-1.6965	-1.7444	-1.6005	-1.2828	-1.6005	-1.3608	-0.9711	-1.3308	-1.5885	-0.6654	-0.1319	-1.055	0.2038	0.2098	-0.1439	0.8153	-0.3477	-0.2458
-2.212	-1.0011	-1.6665	-1.6905	-1.7504	-1.5885	-1.2289	-1.6125	-1.3008	-0.8512	-1.3428	-1.4866	-0.5155	-0.1139	-1.139	0.1499	0.2158	-0.0719	0.8572	-0.2997	-0.3057
-2.218	-1.043	-1.7084	-1.6425	-1.7684	-1.6005	-1.2289	-1.6065	-1.2409	-0.7853	-1.3128	-1.3967	-0.4316	-0.1259	-1.2529	0.054	0.2458	-0.006	0.9052	-0.2877	-0.3297
-2.176	-1.0311	-1.6725	-1.6005	-1.7384	-1.6185	-1.1869	-1.5885	-1.1569	-0.7074	-1.2828	-1.3068	-0.2877	-0.1439	-1.3308	-0.0659	0.2698	0.0779	0.9531	-0.2458	-0.3717
-2.152	-1.0071	-1.6365	-1.5646	-1.7204	-1.5646	-1.133	-1.5226	-1.085	-0.5755	-1.2229	-1.1869	-0.1738	-0.1619	-1.4207	-0.2458	0.3057	0.1619	0.9831	-0.1678	-0.3417
-2.17	-0.9591	-1.6605	-1.5286	-1.6965	-1.5826	-1.145	-1.5226	-1.049	-0.5215	-1.2049	-1.121	-0.054	-0.1619	-1.5286	-0.3836	0.3237	0.2218	1.0191	-0.1678	-0.3417
-2.1221	-0.9591	-1.6425	-1.5526	-1.6545	-1.5646	-1.145	-1.4627	-0.9951	-0.4916	-1.1569	-1.0191	0.048	-0.1978	-1.6365	-0.5815	0.3657	0.2937	1.079	-0.1738	-0.3117
-2.146	-0.9232	-1.6725	-1.5526	-1.5766	-1.5526	-1.133	-1.4147	-0.9471	-0.4196	-1.103	-0.9351	0.1559	-0.1918	-1.7324	-0.8332	0.3657	0.3357	1.115	-0.1319	-0.3477
-2.152	-0.8212	-1.6605	-1.5226	-1.5286	-1.5106	-1.115	-1.3248	-0.8932	-0.3717	-1.0251	-0.8512	0.2278	-0.1798	-1.8763	-1.109	0.3537	0.3657	1.1809	-0.1259	-0.2937
-2.158	-0.7793	-1.6305	-1.5046	-1.4267	-1.4866	-1.121	-1.2589	-0.7913	-0.2997	-0.9771	-0.7613	0.3537	-0.1738	-1.9722	-1.2948	0.3117	0.3896	1.2229	-0.1559	-0.2877
-2.182	-0.7193	-1.6845	-1.5646	-1.3668	-1.5046	-1.109	-1.1989	-0.7673	-0.2638	-0.8632	-0.6954	0.4196	-0.1858	-2.0321	-1.5346	0.3117	0.3836	1.2409	-0.2278	-0.2398
-2.17	-0.6174	-1.6665	-1.5466	-1.2648	-1.4747	-1.049	-1.109	-0.7373	-0.2338	-0.7913	-0.5755	0.5095	-0.1499	-2.1041	-1.6965	0.2757	0.4196	1.3068	-0.2757	-0.2158
-2.1221	-0.5395	-1.6305	-1.5166	-1.139	-1.4327	-1.0131	-0.9531	-0.6174	-0.2098	-0.6594	-0.4556	0.6474	-0.1019	-2.0801	-1.7984	0.2098	0.4256	1.3488	-0.2398	-0.1079
-2.1041	-0.4496	-1.5706	-1.4747	-1.0311	-1.4147	-1.0071	-0.8272	-0.5575	-0.1858	-0.5575	-0.3597	0.6954	-0.0779	-2.1161	-1.8703	0.1678	0.4316	1.3967	-0.3117	-0.054
-2.0801	-0.3537	-1.5706	-1.4627	-0.9351	-1.3668	-0.9651	-0.6834	-0.5395	-0.1559	-0.4316	-0.2817	0.7913	-0.0659	-2.1041	-1.8763	0.1259	0.4376	1.4387	-0.3417	0.03
-2.0561	-0.3057	-1.5226	-1.4387	-0.8452	-1.3608	-1.0011	-0.5575	-0.4736	-0.1858	-0.2817	-0.1738	0.8632	-0.0659	-2.0561	-1.8223	0.1019	0.4316	1.4627	-0.3896	0.1499
-1.9722	-0.2038	-1.4866	-1.4447	-0.7313	-1.3488	-1.0251	-0.4556	-0.4076	-0.1798	-0.1379	-0.1019	0.9232	-0.054	-1.9842	-1.7204	0.0899	0.4376	1.5286	-0.4496	0.2278
-1.9362	-0.1139	-1.4447	-1.4806	-0.6114	-1.3128	-1.055	-0.2877	-0.3836	-0.2218	0.012	-0.042	0.9292	-0.0599	-1.9302	-1.5706	0.1019	0.3597	1.5586	-0.5335	0.3537
-1.9003	0	-1.4567	-1.5466	-0.5395	-1.3248	-1.1569	-0.1918	-0.3537	-0.2877	0.1199	0.012	0.9591	-0.0779	-1.8763	-1.4327	0.1499	0.3057	1.5945	-0.6174	0.4016
-1.8703	0.0959	-1.4447	-1.6245	-0.4016	-1.3008	-1.2589	-0.036	-0.3237	-0.3597	0.2398	0.036	0.9591	-0.0959	-1.7984	-1.2409	0.2098	0.2158	1.6665	-0.7074	0.4975
-1.8583	0.2458	-1.4806	-1.7564	-0.3177	-1.2948	-1.3787	0.1259	-0.2937	-0.4916	0.3777	0.0959	0.9591	-0.1798	-1.6785	-1.091	0.3117	0.1559	1.7324	-0.7913	0.6174
-1.7864	0.3956	-1.4267	-1.8223	-0.2218	-1.2708	-1.4926	0.2518	-0.2817	-0.5395	0.5155	0.1499	0.9112	-0.2218	-1.5226	-0.8572	0.4136	0.1259	1.7744	-0.8572	0.6954
-1.7864	0.4736	-1.4387	-1.9362	-0.1019	-1.2888	-1.5945	0.3896	-0.2638	-0.6834	0.6414	0.1798	0.8632	-0.2937	-1.4027	-0.6894	0.5755	0.0719	1.8583	-0.9591	0.7793
-1.7684	0.6174	-1.4447	-2.0681	0	-1.3428	-1.7684	0.4916	-0.2578	-0.8093	0.7313	0.1858	0.7973	-0.3777	-1.2529	-0.4975	0.7253	0.012	1.9302	-1.0011	0.8572
-1.7984	0.7433	-1.4507	-2.206	0.1738	-1.3548	-1.9542	0.6354	-0.2638	-0.9411	0.8812	0.2158	0.7193	-0.4736	-1.085	-0.2997	0.8992	-0.036	2.0082	-1.091	0.9771
-1.7984	0.8632	-1.4747	-2.2599	0.2877	-1.3308	-2.0321	0.7373	-0.2398	-1.049	0.9711	0.2158	0.6594	-0.5575	-0.9292	-0.1079	1.079	-0.1079	2.0861	-1.097	1.091
-1.8044	0.9711	-1.4926	-2.4098	0.3896	-1.3668	-2.164	0.9052	-0.2458	-1.1809	1.061	0.2098	0.5455	-0.6354	-0.7733	0.024	1.2469	-0.1678	2.152	-1.1689	1.1689
-1.8583	1.115	-1.5226	-2.4578	0.4496	-1.3787	-2.242	0.9411	-0.2638	-1.2768	1.1509	0.1858	0.4796	-0.7133	-0.5755	0.2038	1.3907	-0.2578	2.212	-1.2109	1.2828
-1.9242	1.1809	-1.5526	-2.5537	0.5215	-1.4447	-2.3439	1.0191	-0.3057	-1.4087	1.2229	0.1079	0.3417	-0.7973	-0.4856	0.3177	1.5586	-0.3657	2.2899	-1.3068	1.3608
-1.9782	1.2948	-1.5885	-2.6136	0.5815	-1.4747	-2.4218	1.0371	-0.3836	-1.5046	1.1989	0.0719	0.1738	-0.8512	-0.3117	0.4916	1.6905	-0.4556	2.3319	-1.3188	1.4267
-2.0501	1.3368	-1.6305	-2.7215	0.5995	-1.5526	-2.4757	1.055	-0.4316	-1.6485	1.2409	-0.012	0.024	-0.9292	-0.2158	0.6234	1.8163	-0.6054	2.3798	-1.4027	1.4866
-2.1221	1.3068	-1.7144	-2.7815	0.5575	-1.5945	-2.5657	1.055	-0.5455	-1.7564	1.2169	-0.1499	-0.1259	-1.0071	-0.1379	0.7014	1.9482	-0.7433	2.4038	-1.4866	1.5346
-2.194	1.3248	-1.7264	-2.8174	0.5215	-1.6545	-2.5776	1.0011	-0.6294	-1.8883	1.1689	-0.3237	-0.3357	-1.043	-0.0899	0.8632	2.0381	-0.9232	2.4038	-1.5466	1.5766
-2.218	1.1989	-1.8044	-2.8354	0.4616	-1.7504	-2.6136	0.8872	-0.7553	-2.0321	1.109	-0.4556	-0.5215	-1.085	-0.03	0.9771	2.1281	-1.091	2.3918	-1.6545	1.6065
-2.3199	1.121	-1.8643	-2.8594	0.3417	-1.8523	-2.6496	0.7853	-0.9112	-2.152	1.055	-0.6234	-0.7613	-1.121	-0.036	1.079	2.182	-1.2469	2.3858	-1.7504	1.6185
-2.4218	0.9411	-1.9602	-2.8894	0.1619	-1.9482	-2.6855	0.6534	-1.055	-2.2659	0.9292	-0.8212	-0.9531	-1.145	-0.054	1.139	2.236	-1.4387	2.3439	-1.8223	1.6425
-2.4937	0.7793	-2.0561	-2.9133	0.018	-2.0561	-2.6975	0.4916	-1.2469	-2.3439	0.8452	-1.0191	-1.127	-1.1689	-0.1019	1.139	2.2479	-1.6125	2.3499	-1.8823	1.6425
-2.6256	0.5395	-2.152	-2.9613	-0.1858	-2.218	-2.6975	0.3357	-1.4327	-2.5057	0.7074	-1.2409	-1.3787	-1.1689	-0.2278	1.103	2.2539	-1.7744	2.3019	-1.9542	1.6425
-2.7575	0.2817	-2.2959	-3.0212	-0.3777	-2.3618	-2.7815	0.1499	-1.6185	-2.6316	0.5815	-1.4507	-1.5766	-1.139	-0.3597	1.0371	2.236	-1.8823	2.218	-2.0381	1.6005
-2.9133	0.036	-2.4877	-3.0692	-0.6354	-2.5477	-2.8474	-0.0899	-1.8523	-2.7815	0.4496	-1.6665	-1.7744	-1.133	-0.5095	0.9232	2.218	-2.0321	2.1341	-2.1281	1.5885
-3.0572	-0.2877	-2.6436	-3.1711	-0.9172	-2.7215	-2.8954	-0.3057	-2.0621	-2.9373	0.2338	-1.8763	-1.9782	-1.127	-0.6834	0.7793	2.176	-2.146	2.0981	-2.188	1.5766
-3.249	-0.5875	-2.8294	-3.279	-1.1989	-2.9133	-2.9913	-0.5395	-2.2959	-3.0572	0.048	-2.1101	-2.188	-1.103	-0.9052	0.5815	2.14	-2.2599	2.0142	-2.2479	1.5526
-3.4469	-0.8932	-3.0752	-3.4169	-1.4926	-3.1591	-3.0932	-0.7793	-2.5357	-3.2251	-0.1199	-2.3558	-2.4038	-1.085	-1.139	0.3477	2.0981	-2.3558	1.9123	-2.3139	1.4866
-3.6866	-1.2229	-3.303	-3.6027	-1.8044	-3.333	-3.231	-1.0071	-2.8054	-3.3809	-0.3657	-2.6316	-2.6136	-1.043	-1.4087	0.0899	2.0321	-2.4518	1.8163	-2.4038	1.4387
-3.9204	-1.5166	-3.5607	-3.7646	-2.0921	-3.5667	-3.3689	-1.2948	-3.0692	-3.5488	-0.5275	-2.8654	-2.7875	-1.0191	-1.6845	-0.2578	1.9542	-2.5177	1.7444	-2.4637	1.3727
-4.1302	-1.8223	-3.7766	-3.9384	-2.3618	-3.8005	-3.4768	-1.4986	-3.333	-3.7526	-0.7373	-3.1172	-2.9553	-0.9651	-1.9542	-0.6234	1.8643	-2.5477	1.6545	-2.5417	1.3068
-4.382	-2.1041	-4.0223	-4.1302	-2.6496	-3.9924	-3.6507	-1.7804	-3.5607	-3.9204	-0.9591	-3.3509	-3.1651	-0.9292	-2.23	-0.9531	1.7744	-2.6376	1.5706	-2.6256	1.2289
-4.6218	-2.3858	-4.2861	-4.328	-2.9613	-4.2022	-3.8005	-2.0142	-3.7825	-4.0823	-1.1869	-3.6387	-3.333	-0.8692	-2.5417	-1.3668	1.6725	-2.6376	1.4627	-2.7035	1.139
-4.8256	-2.6436	-4.4899	-4.4959	-3.2131	-4.4	-3.9264	-2.2539	-4.0223	-4.2381	-1.4327	-3.8365	-3.4948	-0.8272	-2.7815	-1.7504	1.5826	-2.6556	1.3308	-2.7215	1.055
-5.0654	-2.8894	-4.7237	-4.7117	-3.4708	-4.5978	-4.0403	-2.5117	-4.2381	-4.328	-1.6545	-4.0943	-3.6447	-0.7673	-3.1052	-2.176	1.4747	-2.6496	1.2828	-2.7695	0.9292
-5.2632	-3.0632	-4.9275	-4.8136	-3.7466	-4.7776	-4.1422	-2.7275	-4.4599	-4.4479	-1.9003	-4.2741	-3.7526	-0.7133	-3.3389	-2.5956	1.3608	-2.6256	1.1569	-2.7695	0.8512
-5.479	-3.303	-5.1553	-5.0054	-3.9684	-4.9215	-4.2501	-2.9193	-4.6338	-4.5798	-2.1281	-4.4899	-3.9024	-0.6654	-3.6207	-3.0212	1.2589	-2.6136	1.0371	-2.8294	0.7373
-5.6229	-3.4768	-5.3231	-5.1193	-4.2022	-5.0714	-4.34	-3.1411	-4.8076	-4.6518	-2.3618	-4.6757	-3.9804	-0.5995	-3.8545	-3.4109	1.127	-2.6196	0.9471	-2.8234	0.6054
-5.8087	-3.6507	-5.515	-5.3111	-4.418	-5.2512	-4.5438	-3.3869	-5.0414	-4.8076	-2.6016	-4.9155	-4.1242	-0.5635	-4.1003	-3.7706	1.0371	-2.6316	0.8272	-2.8654	0.4736
-5.9466	-3.7825	-5.6708	-5.479	-4.5978	-5.3771	-4.6637	-3.5787	-5.1913	-4.9155	-2.8234	-5.0953	-4.1842	-0.4975	-4.2741	-4.0943	0.9292	-2.6316	0.6834	-2.9253	0.3657
-6.0665	-3.9384	-5.7967	-5.6289	-4.7656	-5.503	-4.8376	-3.7526	-5.3531	-4.9934	-3.0452	-5.2512	-4.2801	-0.4376	-4.4359	-4.382	0.8392	-2.6676	0.5995	-2.9313	0.2218
-6.1744	-4.0223	-5.8926	-5.7727	-4.8975	-5.5869	-4.9455	-3.8964	-5.491	-5.1193	-3.255	-5.3651	-4.346	-0.3896	-4.4959	-4.5798	0.7373	-2.6436	0.5155	-2.9313	0.1499
-6.2043	-4.0643	-5.9406	-5.8746	-4.9275	-5.6289	-5.0774	-3.9924	-5.5689	-5.1613	-3.3809	-5.461	-4.394	-0.3357	-4.5438	-4.8016	0.6594	-2.6376	0.5095	-2.9673	0.054
-6.1863	-4.1062	-5.9466	-5.8986	-4.9814	-5.6169	-5.1493	-4.0703	-5.6109	-5.1853	-3.5068	-5.5329	-4.388	-0.3177	-4.5438	-4.8855	0.5935	-2.6016	0.4376	-2.9493	0.012
-6.1204	-4.1062	-5.9166	-5.9466	-4.9635	-5.6229	-5.1733	-4.1662	-5.6648	-5.1853	-3.6267	-5.6109	-4.4	-0.2817	-4.5379	-4.9455	0.5275	-2.5537	0.4016	-2.9193	-0.0659
-6.0665	-4.0763	-5.8567	-5.8866	-4.8975	-5.5509	-5.1793	-4.2142	-5.6349	-5.1313	-3.7586	-5.6049	-4.334	-0.2398	-4.4359	-4.9695	0.4676	-2.4458	0.3956	-2.8234	-0.1379
-5.8986	-3.9804	-5.7547	-5.8267	-4.8136	-5.449	-5.1493	-4.1902	-5.5929	-5.0774	-3.8065	-5.5869	-4.2861	-0.2278	-4.358	-4.9095	0.4136	-2.3499	0.4016	-2.7635	-0.1499
-5.7547	-3.8904	-5.5929	-5.6408	-4.6997	-5.3411	-5.0234	-4.1902	-5.491	-4.9814	-3.8605	-5.5749	-4.1662	-0.2218	-4.2261	-4.8076	0.3657	-2.23	0.4196	-2.6196	-0.2098
-5.5629	-3.7286	-5.443	-5.491	-4.5918	-5.2212	-4.9395	-4.1722	-5.461	-4.8496	-3.9024	-5.527	-4.0583	-0.1738	-4.0643	-4.6398	0.3177	-2.0681	0.4016	-2.5057	-0.2757
-5.3531	-3.6387	-5.2692	-5.3171	-4.4539	-5.0294	-4.8016	-4.1362	-5.3351	-4.7297	-3.9264	-5.455	-3.9324	-0.1319	-3.8725	-4.412	0.2518	-1.9362	0.4016	-2.3618	-0.2937
-5.1553	-3.4828	-5.0534	-5.0774	-4.334	-4.8556	-4.6278	-4.0643	-5.1793	-4.5918	-3.8964	-5.3771	-3.8065	-0.1259	-3.6627	-4.1422	0.1978	-1.8044	0.4376	-2.194	-0.3537
-4.8795	-3.291	-4.8256	-4.8436	-4.1242	-4.6637	-4.4779	-3.9744	-4.9994	-4.388	-3.9084	-5.2272	-3.6507	-0.0839	-3.4289	-3.8605	0.1319	-1.6605	0.4975	-2.0261	-0.3777
-4.5798	-3.0452	-4.5379	-4.5798	-3.8785	-4.418	-4.2381	-3.8545	-4.7956	-4.2082	-3.8485	-5.0953	-3.4528	-0.042	-3.1771	-3.5008	0.054	-1.4747	0.5335	-1.8703	-0.4436
-4.3161	-2.8054	-4.2741	-4.3041	-3.6686	-4.1722	-4.0643	-3.7466	-4.6038	-4.0163	-3.7766	-4.9635	-3.303	-0.018	-2.9193	-3.1351	0	-1.3428	0.5575	-1.6965	-0.4316
-4.0403	-2.5537	-3.9924	-4.0223	-3.4049	-3.9384	-3.8245	-3.5847	-4.388	-3.8125	-3.6806	-4.8016	-3.1172	0.006	-2.6196	-2.7275	-0.036	-1.2469	0.5815	-1.5466	-0.4856
-3.6986	-2.2839	-3.6806	-3.7286	-3.1351	-3.6327	-3.5907	-3.4109	-4.1122	-3.5727	-3.5368	-4.5858	-2.9433	0.036	-2.3558	-2.2959	-0.0959	-1.097	0.6294	-1.3428	-0.5275
-3.4528	-1.9662	-3.3389	-3.4528	-2.8174	-3.3689	-3.3809	-3.1831	-3.8605	-3.3629	-3.3929	-4.4	-2.6975	0.0659	-2.0561	-1.8763	-0.1619	-1.0011	0.6894	-1.2109	-0.5515
-3.1771	-1.6725	-3.0572	-3.1831	-2.5177	-3.0872	-3.1351	-3.0033	-3.5847	-3.1471	-3.249	-4.1902	-2.5237	0.0779	-1.7984	-1.4926	-0.1798	-0.9112	0.7433	-1.079	-0.5335
-2.8834	-1.3488	-2.7395	-2.8894	-2.212	-2.7755	-2.9313	-2.8054	-3.3449	-2.9493	-3.0872	-3.9804	-2.3199	0.0719	-1.5346	-1.121	-0.1738	-0.8692	0.7793	-0.9831	-0.5695
-2.6136	-1.0131	-2.4458	-2.6136	-1.8883	-2.4997	-2.6915	-2.5537	-3.0152	-2.7095	-2.8894	-3.7226	-2.0801	0.0659	-1.2229	-0.7433	-0.1738	-0.7973	0.8572	-0.8572	-0.5935
-2.3558	-0.7133	-2.164	-2.4098	-1.5945	-2.194	-2.5057	-2.3678	-2.7815	-2.5117	-2.7335	-3.4768	-1.9242	0.048	-1.0011	-0.4916	-0.1619	-0.7433	0.8752	-0.8212	-0.5875
-2.14	-0.4196	-1.8823	-2.206	-1.3008	-1.9542	-2.3319	-2.14	-2.4937	-2.3379	-2.5057	-3.243	-1.7204	0.048	-0.7793	-0.2638	-0.1559	-0.6534	0.9292	-0.7133	-0.5635
-1.9722	-0.1858	-1.6425	-2.0381	-1.0191	-1.6665	-2.158	-1.8883	-2.2	-2.1281	-2.2539	-3.0093	-1.5346	0.0599	-0.5815	-0.0659	-0.1678	-0.5635	0.9831	-0.6534	-0.5695
-1.8223	0.048	-1.3967	-1.9182	-0.7673	-1.4087	-2.0561	-1.6845	-1.9782	-1.9902	-2.0261	-2.7515	-1.3428	0.054	-0.4556	0	-0.1379	-0.5215	1.0311	-0.6414	-0.5215
-1.6845	0.2218	-1.1869	-1.8044	-0.5635	-1.1989	-1.9662	-1.4806	-1.7144	-1.8223	-1.8523	-2.5357	-1.1629	0.0599	-0.3417	0.018	-0.1559	-0.4676	1.0251	-0.5935	-0.5395
-1.5706	0.3657	-1.0251	-1.7024	-0.3836	-0.9771	-1.8703	-1.3248	-1.5046	-1.6545	-1.6065	-2.2719	-1.0071	0.048	-0.2698	-0.042	-0.1499	-0.4136	1.097	-0.5875	-0.5275
-1.4986	0.4796	-0.8692	-1.6425	-0.2877	-0.8332	-1.7264	-1.145	-1.2708	-1.4986	-1.4147	-1.9962	-0.7913	0.042	-0.2338	-0.1678	-0.1439	-0.3597	1.121	-0.5635	-0.4616
-1.4687	0.4496	-0.7853	-1.5706	-0.1858	-0.6474	-1.6065	-1.0071	-1.085	-1.3068	-1.2169	-1.7864	-0.6114	0.054	-0.2877	-0.3597	-0.1379	-0.2817	1.103	-0.5515	-0.4676
-1.4447	0.4736	-0.6474	-1.4866	-0.1079	-0.4676	-1.4926	-0.8812	-0.8332	-1.109	-1.0071	-1.5166	-0.3537	0.0899	-0.2817	-0.5935	-0.1978	-0.1678	1.121	-0.5215	-0.4076
-1.4267	0.4196	-0.5575	-1.4027	-0.1199	-0.3177	-1.3008	-0.7733	-0.6414	-0.9172	-0.8033	-1.2589	-0.1139	0.0899	-0.3956	-0.8692	-0.2278	-0.048	1.103	-0.5035	-0.4016
-1.4267	0.3237	-0.4916	-1.2948	-0.1439	-0.2038	-1.121	-0.6774	-0.4436	-0.6654	-0.6174	-1.0011	0.1019	0.1379	-0.5395	-1.2589	-0.2817	0.0719	1.055	-0.4376	-0.3537
-1.4507	0.2757	-0.4376	-1.1689	-0.1139	-0.042	-0.9711	-0.5695	-0.2398	-0.4616	-0.4256	-0.7733	0.3297	0.1738	-0.6534	-1.5885	-0.3537	0.2338	1.0131	-0.4196	-0.2997
-1.4627	0.2038	-0.3477	-1.067	-0.1559	0.054	-0.7853	-0.4796	-0.042	-0.2278	-0.2578	-0.4975	0.5695	0.1978	-0.7733	-1.8823	-0.4196	0.3597	0.9891	-0.4016	-0.2997
-1.4687	0.1499	-0.2458	-0.9471	-0.1738	0.2038	-0.6114	-0.4076	0.1678	-0.018	-0.048	-0.2638	0.8332	0.2218	-0.9232	-2.242	-0.4916	0.4975	0.9351	-0.3597	-0.2458
-1.5106	0.0599	-0.1678	-0.8692	-0.2158	0.3057	-0.4256	-0.3237	0.3237	0.2038	0.1379	-0.006	1.097	0.2338	-1.121	-2.5776	-0.5095	0.6474	0.8632	-0.3537	-0.2098
-1.4747	0.0659	-0.0779	-0.7433	-0.1439	0.4556	-0.2398	-0.2278	0.5215	0.4376	0.3297	0.2278	1.3128	0.2757	-1.2529	-2.8174	-0.5575	0.7973	0.8153	-0.2698	-0.1499
-1.4207	0.048	0.03	-0.5755	-0.1678	0.5875	-0.0599	-0.1379	0.7253	0.6834	0.4796	0.4616	1.5586	0.2757	-1.3548	-3.0332	-0.5755	0.9471	0.7793	-0.2218	-0.0719
-1.4027	0.0899	0.1319	-0.4436	-0.1259	0.7014	0.1439	-0.054	0.8932	0.9172	0.6714	0.6714	1.7864	0.2817	-1.4507	-3.1531	-0.5755	1.085	0.7613	-0.1798	0.018
-1.3128	0.1019	0.2458	-0.3297	-0.1139	0.8392	0.3477	0.03	1.0371	1.109	0.8033	0.8872	2.0321	0.2817	-1.5286	-3.249	-0.5695	1.2169	0.7014	-0.1379	0.0779
-1.2349	0.1918	0.3777	-0.1559	-0.054	0.9711	0.5455	0.1259	1.2289	1.3608	0.9591	1.091	2.218	0.2638	-1.5526	-3.297	-0.5455	1.3488	0.7074	-0.1019	0.1798
-1.1689	0.1918	0.4256	-0.006	-0.006	1.061	0.6774	0.1439	1.3727	1.5226	1.0311	1.1989	2.3858	0.2458	-1.5466	-3.261	-0.5155	1.4387	0.6474	-0.0599	0.1978
-1.085	0.2817	0.5815	0.1499	0.054	1.2049	0.8332	0.2278	1.5166	1.6965	1.1569	1.3548	2.5237	0.2398	-1.5286	-3.231	-0.5035	1.5526	0.6234	-0.03	0.2578
-0.9471	0.3717	0.6954	0.2817	0.0959	1.3008	0.9351	0.2877	1.6125	1.7924	1.2169	1.4267	2.5776	0.2158	-1.4627	-3.1231	-0.4736	1.6005	0.6234	0.006	0.3477
-0.8932	0.4436	0.7673	0.4016	0.1199	1.3548	1.0131	0.3417	1.6545	1.8883	1.2888	1.4747	2.6616	0.2098	-1.4207	-3.0332	-0.4556	1.6905	0.5755	0.018	0.4016
-0.7853	0.4916	0.8632	0.4916	0.1858	1.4147	1.061	0.3657	1.7204	1.9542	1.3128	1.5706	2.7215	0.2038	-1.3188	-2.9193	-0.4256	1.7144	0.5335	0.042	0.4496
-0.7793	0.5395	0.8932	0.5035	0.1738	1.4447	1.055	0.3956	1.7144	1.9602	1.3308	1.5226	2.6796	0.1978	-1.2289	-2.7275	-0.4076	1.7264	0.4975	0.036	0.5335
-0.7193	0.5815	0.9052	0.4616	0.1738	1.4327	1.0071	0.3597	1.6785	1.9123	1.3368	1.4806	2.6496	0.1858	-1.115	-2.6376	-0.3717	1.7564	0.4856	0.018	0.5995
-0.6714	0.5875	0.9292	0.3956	0.1559	1.3847	0.9292	0.3717	1.6185	1.8163	1.3128	1.4147	2.5297	0.1619	-1.043	-2.4637	-0.3237	1.6485	0.4376	-0.036	0.6774
-0.6654	0.6234	0.8992	0.3357	0.1439	1.3368	0.7913	0.4256	1.5826	1.7324	1.3368	1.3608	2.4338	0.1439	-0.9411	-2.2839	-0.3297	1.6065	0.4975	-0.054	0.8212
-0.6954	0.6054	0.8332	0.2218	0.1499	1.2529	0.6234	0.4076	1.4866	1.5766	1.3068	1.2589	2.2659	0.1499	-0.8272	-2.1101	-0.2937	1.5226	0.4676	-0.1139	0.8512
-0.7193	0.6234	0.7673	0.0959	0.1678	1.1629	0.4736	0.3896	1.3548	1.4327	1.2948	1.127	2.0981	0.1139	-0.8452	-1.9662	-0.2578	1.4027	0.4916	-0.1559	0.9951
-0.7673	0.5935	0.6774	-0.054	0.0959	1.0311	0.3177	0.3956	1.2708	1.2409	1.2708	1.0131	1.9003	0.1019	-0.8093	-1.7504	-0.2098	1.2589	0.5095	-0.2638	1.091
-0.8452	0.5275	0.5875	-0.2338	0.0779	0.8752	0.1079	0.3777	1.109	1.0131	1.2349	0.8512	1.6725	0.042	-0.8332	-1.6425	-0.1319	1.085	0.5335	-0.3417	1.1749
-0.8812	0.4916	0.4736	-0.3777	0	0.7433	-0.054	0.3657	0.9411	0.8272	1.2109	0.6894	1.4327	0.024	-0.8812	-1.4806	-0.0719	0.9351	0.5755	-0.4256	1.3068
-0.9771	0.4016	0.3297	-0.5395	-0.018	0.5695	-0.2578	0.3537	0.7733	0.5755	1.1809	0.5155	1.2049	-0.006	-0.9351	-1.3128	-0.012	0.7433	0.6234	-0.5095	1.4147
-1.0311	0.3597	0.2278	-0.6954	-0.042	0.4496	-0.4436	0.3896	0.6174	0.4136	1.1629	0.3597	0.9651	-0.048	-0.9951	-1.1749	0.048	0.5395	0.7074	-0.5575	1.5766
-1.103	0.3057	0.1199	-0.7913	-0.0779	0.2877	-0.5815	0.3717	0.4736	0.2158	1.115	0.1918	0.7253	-0.0779	-1.085	-1.0311	0.1259	0.3657	0.7433	-0.6414	1.6785
-1.133	0.2698	-0.03	-0.8392	-0.0719	0.1619	-0.6714	0.3657	0.2817	0.0719	1.085	0.018	0.5035	-0.1319	-1.2169	-0.8932	0.2398	0.2038	0.8272	-0.6294	1.8103
-1.1569	0.2937	-0.0899	-0.8572	-0.048	0.0779	-0.7733	0.4016	0.1738	-0.054	1.115	-0.0779	0.3597	-0.1918	-1.2708	-0.7433	0.3477	0.0599	0.8932	-0.6414	1.9242
-1.1749	0.2997	-0.1559	-0.8812	-0.024	-0.048	-0.7973	0.4676	0.0599	-0.1319	1.109	-0.1978	0.2038	-0.2458	-1.3608	-0.6174	0.4616	-0.0719	1.0371	-0.6354	2.1221
-1.1869	0.2937	-0.2218	-0.9172	0.012	-0.1499	-0.8452	0.4676	-0.0659	-0.2757	1.103	-0.3237	0.036	-0.3117	-1.4687	-0.5155	0.6054	-0.1379	1.145	-0.6054	2.218
-1.1749	0.3417	-0.2757	-0.9351	0.0599	-0.2518	-0.8692	0.5215	-0.1319	-0.2997	1.133	-0.4016	-0.0839	-0.3777	-1.5586	-0.4316	0.7193	-0.2338	1.2888	-0.5695	2.3918
-1.1929	0.3597	-0.3117	-0.8992	0.1559	-0.2997	-0.8632	0.5695	-0.2398	-0.3657	1.1509	-0.5035	-0.2098	-0.4316	-1.5885	-0.3777	0.8452	-0.3117	1.4147	-0.5215	2.5297
-1.2289	0.3777	-0.3717	-0.9292	0.1619	-0.3777	-0.9112	0.5875	-0.3477	-0.4616	1.1749	-0.5755	-0.2997	-0.5035	-1.6425	-0.3597	0.9711	-0.3477	1.5646	-0.5155	2.6496
-1.2708	0.3896	-0.4736	-0.9471	0.2398	-0.4736	-0.9112	0.6114	-0.4316	-0.4916	1.1809	-0.6474	-0.4016	-0.5515	-1.6725	-0.3417	1.091	-0.4316	1.6605	-0.5155	2.7455
-1.3068	0.3657	-0.5515	-0.9292	0.2997	-0.5575	-0.9172	0.6714	-0.5095	-0.5155	1.1689	-0.7313	-0.4616	-0.6354	-1.5945	-0.3357	1.2049	-0.4856	1.8283	-0.5335	2.8774
-1.3428	0.3717	-0.6174	-0.9711	0.3657	-0.6054	-0.8752	0.6654	-0.5935	-0.5395	1.1809	-0.8093	-0.5455	-0.6654	-1.5826	-0.3956	1.2828	-0.5215	1.9422	-0.4856	2.9853
-1.4327	0.3417	-0.6594	-0.9351	0.4196	-0.6774	-0.8752	0.6894	-0.6534	-0.5455	1.1929	-0.9112	-0.6174	-0.6774	-1.5226	-0.4796	1.3428	-0.5455	2.0801	-0.4376	3.0452
-1.4687	0.3417	-0.7853	-1.0191	0.4316	-0.7313	-0.9172	0.7193	-0.7613	-0.6054	1.133	-1.0131	-0.7613	-0.7133	-1.4387	-0.5395	1.3907	-0.5815	2.194	-0.4436	3.1291
-1.5826	0.3117	-0.8872	-1.145	0.4676	-0.8452	-1.0011	0.6594	-0.8632	-0.7193	1.115	-1.109	-0.8452	-0.7253	-1.3608	-0.6054	1.4027	-0.6414	2.2959	-0.4436	3.2131
-1.7324	0.2518	-1.0191	-1.2708	0.4736	-0.9591	-1.121	0.6234	-1.0011	-0.8212	1.055	-1.2409	-0.9831	-0.7373	-1.3128	-0.6894	1.4087	-0.7133	2.3918	-0.4796	3.1771
-1.8044	0.1738	-1.1509	-1.4447	0.4256	-1.073	-1.2349	0.5455	-1.133	-0.9651	0.9411	-1.3727	-1.091	-0.6894	-1.2469	-0.7913	1.3608	-0.7493	2.4218	-0.4856	3.2131
-1.9902	0.0719	-1.2828	-1.6245	0.3657	-1.2109	-1.4087	0.4376	-1.2888	-1.097	0.8153	-1.5646	-1.2349	-0.6894	-1.2229	-0.9112	1.3248	-0.8572	2.4338	-0.5515	3.1711
-2.0981	0.03	-1.4207	-1.7684	0.3117	-1.3608	-1.5526	0.3477	-1.4327	-1.2589	0.6894	-1.6905	-1.3488	-0.6474	-1.1689	-0.9711	1.2529	-0.9232	2.4338	-0.5635	3.1291
-2.2	-0.0959	-1.5706	-1.9063	0.2458	-1.4507	-1.7144	0.2218	-1.5646	-1.3907	0.5875	-1.8763	-1.4567	-0.5935	-1.139	-1.043	1.1509	-0.9711	2.4578	-0.6114	3.0812
-2.3379	-0.1798	-1.6845	-2.0801	0.1019	-1.6065	-1.8583	0.042	-1.7324	-1.5346	0.3777	-2.0202	-1.6185	-0.5455	-1.073	-1.145	1.049	-1.0371	2.4398	-0.6714	2.9253
-2.4158	-0.3477	-1.8463	-2.23	-0.024	-1.6905	-2.0321	-0.1259	-1.8583	-1.6665	0.1798	-2.176	-1.7324	-0.4676	-1.0311	-1.1809	0.9112	-1.103	2.3918	-0.7014	2.7875
-2.5177	-0.4316	-1.9362	-2.3558	-0.1019	-1.7924	-2.1341	-0.3117	-2.0022	-1.7924	0.012	-2.3319	-1.8463	-0.4016	-1.0251	-1.2469	0.7853	-1.1629	2.3678	-0.7553	2.6196
-2.5956	-0.5455	-1.9782	-2.4757	-0.2278	-1.8703	-2.2479	-0.4436	-2.0921	-1.8583	-0.1678	-2.4458	-1.9302	-0.3357	-1.043	-1.2828	0.6414	-1.1929	2.3199	-0.7733	2.4637
-2.6256	-0.6534	-2.0561	-2.6016	-0.3357	-1.9302	-2.3918	-0.6114	-2.188	-1.9542	-0.3836	-2.6196	-2.0261	-0.2817	-1.055	-1.3068	0.5155	-1.2648	2.2839	-0.8153	2.2659
-2.6556	-0.7014	-2.0861	-2.6975	-0.4136	-1.9662	-2.4338	-0.7733	-2.2839	-2.0261	-0.5635	-2.7095	-2.0381	-0.2218	-1.049	-1.2828	0.4016	-1.2409	2.206	-0.8153	2.1341
-2.6855	-0.7493	-2.1101	-2.7934	-0.4916	-2.0202	-2.4997	-0.9351	-2.3738	-2.0681	-0.7433	-2.8174	-2.0801	-0.1678	-1.103	-1.3248	0.2877	-1.2529	2.146	-0.8392	1.9123
-2.6915	-0.7613	-2.1101	-2.8534	-0.5215	-1.9962	-2.5237	-1.043	-2.3798	-2.1101	-0.8992	-2.9133	-2.0741	-0.1019	-1.133	-1.3188	0.1559	-1.2349	2.0741	-0.8153	1.7564
-2.6496	-0.7373	-2.1221	-2.9073	-0.5335	-1.9662	-2.5297	-1.145	-2.4158	-2.0861	-1.0371	-2.9493	-2.0621	-0.036	-1.1629	-1.2948	0.054	-1.2049	2.0501	-0.7673	1.5766
-2.6076	-0.6654	-2.0501	-2.9313	-0.5515	-1.9362	-2.5717	-1.2589	-2.4338	-2.0861	-1.1929	-3.0033	-2.0381	0.018	-1.1809	-1.2409	-0.0719	-1.145	2.0022	-0.7733	1.4627
-2.5297	-0.6234	-2.0082	-2.9013	-0.5755	-1.8763	-2.5477	-1.3248	-2.4098	-2.0681	-1.3308	-3.0452	-2.0022	0.048	-1.2049	-1.2229	-0.1199	-1.139	1.9422	-0.7373	1.2948
-2.4398	-0.5275	-1.9182	-2.8834	-0.5275	-1.7684	-2.4578	-1.4027	-2.3738	-2.0082	-1.4207	-3.0512	-1.9782	0.0719	-1.1749	-1.1509	-0.1798	-1.055	1.8943	-0.6774	1.1629
-2.3199	-0.4256	-1.7804	-2.7875	-0.4796	-1.6965	-2.3499	-1.4327	-2.3139	-1.9422	-1.5046	-3.0332	-1.8703	0.1019	-1.1809	-1.055	-0.2398	-0.9651	1.8643	-0.5995	1.073
-2.182	-0.2638	-1.6605	-2.6736	-0.4316	-1.5586	-2.2779	-1.4806	-2.2659	-1.8403	-1.6065	-2.9973	-1.7864	0.1199	-1.067	-0.9711	-0.2458	-0.8752	1.8223	-0.5035	0.8932
-2.0202	-0.1319	-1.5286	-2.5896	-0.3956	-1.4387	-2.194	-1.5166	-2.242	-1.7924	-1.7144	-3.0093	-1.7744	0.1019	-0.9471	-0.8392	-0.2338	-0.7973	1.7624	-0.4256	0.7913
-1.8703	0.006	-1.3787	-2.4518	-0.3357	-1.3428	-2.1041	-1.5526	-2.152	-1.7324	-1.7984	-2.9913	-1.7144	0.1199	-0.8272	-0.7014	-0.2698	-0.7193	1.7384	-0.3237	0.6954
-1.6905	0.1798	-1.2109	-2.3379	-0.2578	-1.1809	-1.9782	-1.5586	-2.1221	-1.6605	-1.8703	-2.9553	-1.6485	0.1259	-0.6414	-0.5035	-0.2817	-0.6294	1.7144	-0.2817	0.6054
-1.5106	0.2817	-1.055	-2.188	-0.1439	-1.073	-1.8883	-1.5526	-2.0381	-1.6185	-1.9003	-2.9493	-1.5646	0.1319	-0.4136	-0.3297	-0.2817	-0.5575	1.6305	-0.1978	0.4796
-1.3308	0.4616	-0.9292	-2.0381	-0.1199	-0.9711	-1.7864	-1.5406	-1.9482	-1.5406	-1.9602	-2.9073	-1.5586	0.1259	-0.2218	-0.1858	-0.2937	-0.4736	1.5646	-0.1319	0.3657
-1.1689	0.5995	-0.7853	-1.9123	-0.012	-0.8452	-1.6905	-1.5586	-1.9182	-1.4866	-2.0142	-2.8774	-1.4747	0.1079	0	-0.024	-0.2638	-0.4376	1.5466	-0.042	0.2997
-1.0251	0.7373	-0.6594	-1.7264	0.1019	-0.7253	-1.5286	-1.5046	-1.8583	-1.4087	-2.0082	-2.8054	-1.4027	0.1139	0.2458	0.1559	-0.2518	-0.3657	1.4986	0.03	0.2278
-0.8033	0.9172	-0.4676	-1.5286	0.2578	-0.5935	-1.3668	-1.4207	-1.7444	-1.3368	-2.0142	-2.7035	-1.3308	0.0899	0.5035	0.3537	-0.2038	-0.3057	1.5166	0.1019	0.1798
-0.6534	1.067	-0.3417	-1.3428	0.3836	-0.4676	-1.2768	-1.3368	-1.6485	-1.2229	-2.0022	-2.6496	-1.2409	0.054	0.7493	0.5695	-0.1259	-0.2158	1.5046	0.1559	0.1319
-0.5335	1.2169	-0.2278	-1.2049	0.5335	-0.3896	-1.139	-1.2708	-1.5766	-1.1569	-1.9422	-2.5896	-1.1509	0.024	0.9951	0.7253	-0.03	-0.1559	1.5466	0.2578	0.0959
-0.3896	1.3428	-0.1139	-1.067	0.6594	-0.2757	-1.097	-1.1569	-1.4926	-1.115	-1.8943	-2.5537	-1.073	-0.0719	1.1869	0.8992	0.0959	-0.0719	1.5526	0.3057	0.0779
-0.2877	1.4866	-0.024	-0.9471	0.8332	-0.2038	-0.9711	-1.085	-1.4207	-1.0251	-1.8223	-2.4038	-0.9591	-0.1019	1.3727	1.109	0.2038	0.012	1.5406	0.3357	0.03
-0.2218	1.5945	0.054	-0.8692	0.9591	-0.1139	-0.9112	-1.0311	-1.3608	-0.9651	-1.7504	-2.3259	-0.9292	-0.1978	1.5226	1.2409	0.3417	0.0659	1.5586	0.3717	-0.012
-0.1379	1.7744	0.1259	-0.8033	1.121	-0.0719	-0.8812	-0.8872	-1.2888	-0.9112	-1.6605	-2.2479	-0.8212	-0.2518	1.6065	1.3847	0.4376	0.1079	1.5945	0.3896	0.03
-0.1019	1.8823	0.1439	-0.8033	1.2169	-0.006	-0.8332	-0.7973	-1.2049	-0.8692	-1.6005	-2.164	-0.7673	-0.2997	1.6785	1.5166	0.5515	0.1439	1.5646	0.4016	0
-0.0659	1.9962	0.1978	-0.7973	1.3727	0.0599	-0.8752	-0.6834	-1.1509	-0.8752	-1.4806	-2.0741	-0.6654	-0.3117	1.7144	1.6605	0.5815	0.1619	1.6125	0.4376	0.006
-0.0959	2.0861	0.2098	-0.8452	1.4747	0.0659	-0.9052	-0.5815	-1.109	-0.8272	-1.3967	-2.0022	-0.5935	-0.3357	1.7444	1.7084	0.6174	0.1978	1.6065	0.3836	0.018
-0.1139	2.1101	0.1798	-0.8752	1.5646	0.0899	-0.9411	-0.5155	-1.079	-0.8332	-1.2948	-1.9302	-0.5335	-0.3477	1.7684	1.7864	0.6234	0.2038	1.6185	0.3717	0.024
-0.1738	2.1221	0.1439	-0.9591	1.6305	0.0899	-1.0371	-0.4136	-1.0131	-0.8452	-1.2229	-1.8643	-0.4676	-0.3117	1.7024	1.8044	0.5995	0.2278	1.6245	0.3537	0.042
-0.2158	2.0981	0.1019	-1.079	1.6125	0.0719	-1.109	-0.3956	-1.043	-0.8752	-1.1509	-1.8523	-0.4556	-0.2997	1.6665	1.8343	0.5635	0.2158	1.6065	0.3117	0.042
-0.2698	2.0921	0.1079	-1.1509	1.6425	0.024	-1.1509	-0.2997	-0.9831	-0.8932	-1.0131	-1.7864	-0.4316	-0.2698	1.6185	1.8283	0.4856	0.2218	1.5885	0.2218	0.0719
-0.3117	2.0681	0.048	-1.2589	1.6845	0.024	-1.2589	-0.2218	-1.0071	-0.9591	-0.9351	-1.7804	-0.4316	-0.2278	1.5526	1.8403	0.4136	0.1499	1.5466	0.1738	0.054
-0.3597	2.0441	0	-1.3188	1.6965	-0.042	-1.3308	-0.1798	-0.9951	-0.9711	-0.8512	-1.7444	-0.4076	-0.1678	1.4926	1.8103	0.3177	0.1738	1.5526	0.0959	0.0599
-0.4496	2.0261	-0.0659	-1.3907	1.6845	-0.0719	-1.4207	-0.0899	-0.9951	-1.0191	-0.7733	-1.7024	-0.4136	-0.1259	1.3967	1.6845	0.2158	0.0899	1.5106	-0.018	0.048
-0.4916	2.0561	-0.0899	-1.4747	1.7384	-0.1199	-1.4806	-0.036	-1.0131	-1.121	-0.6954	-1.6785	-0.4496	-0.0599	1.3128	1.6305	0.0899	0.0719	1.4567	-0.0599	0.0599
-0.5455	2.0561	-0.1319	-1.5286	1.7684	-0.1619	-1.5286	0.018	-1.0251	-1.109	-0.6234	-1.6485	-0.4376	0.006	1.2169	1.5766	-0.018	0.0599	1.4747	-0.1319	0.0959
-0.5995	2.0381	-0.1678	-1.5706	1.7684	-0.2278	-1.6125	0.0839	-1.043	-1.1569	-0.5395	-1.6305	-0.4496	0.042	1.103	1.4267	-0.1139	0.018	1.4567	-0.2338	0.1139
-0.6354	2.0321	-0.2098	-1.6245	1.7324	-0.2518	-1.6185	0.1559	-1.0251	-1.1749	-0.4256	-1.6185	-0.4676	0.0839	0.9292	1.3008	-0.1978	0.006	1.4387	-0.3057	0.1858
-0.6714	2.0381	-0.2458	-1.6245	1.7444	-0.2578	-1.6005	0.2038	-1.0371	-1.2049	-0.3836	-1.5885	-0.4436	0.1319	0.8093	1.1869	-0.2578	-0.012	1.4806	-0.3717	0.2518
-0.7373	2.0561	-0.2817	-1.5646	1.7744	-0.3117	-1.6185	0.2937	-1.0131	-1.1989	-0.2817	-1.5766	-0.4496	0.1439	0.6714	1.061	-0.2877	-0.03	1.5346	-0.4076	0.3237
-0.7793	2.0741	-0.3177	-1.5166	1.7864	-0.2937	-1.5766	0.3597	-1.0011	-1.1689	-0.1619	-1.5106	-0.4256	0.1439	0.5095	0.8752	-0.3057	-0.018	1.5885	-0.4196	0.4796
-0.7673	2.1101	-0.2997	-1.4087	1.8703	-0.3297	-1.5286	0.4975	-0.9591	-1.1629	-0.024	-1.4567	-0.3657	0.1139	0.4076	0.7553	-0.2698	0.006	1.6905	-0.4436	0.6114
-0.8093	2.0981	-0.3297	-1.3787	1.9123	-0.3117	-1.5106	0.5635	-0.9411	-1.115	0.048	-1.4027	-0.3357	0.1199	0.2098	0.5695	-0.2278	0.03	1.7264	-0.4376	0.7673
-0.7793	2.17	-0.3597	-1.3068	2.0142	-0.3297	-1.4687	0.7074	-0.8692	-1.097	0.2038	-1.3368	-0.2937	0.0839	0.0959	0.4556	-0.1798	0.0839	1.8343	-0.4016	0.9711
-0.8392	2.17	-0.3717	-1.3188	2.0621	-0.2997	-1.4747	0.7853	-0.8392	-1.085	0.3177	-1.3128	-0.2757	0.042	-0.0779	0.2518	-0.0899	0.1199	1.9302	-0.4196	1.1569
-0.8692	2.2	-0.3597	-1.3128	2.1221	-0.3357	-1.4986	0.9172	-0.7973	-1.103	0.4136	-1.2948	-0.2458	0.006	-0.2038	0.1079	-0.042	0.1499	2.0441	-0.4196	1.3548
-0.8812	2.176	-0.4196	-1.3428	2.158	-0.3477	-1.5046	1.0011	-0.7913	-1.085	0.5335	-1.2648	-0.2398	-0.036	-0.2997	-0.054	0.03	0.1499	2.158	-0.3836	1.5406
-0.9351	2.152	-0.4436	-1.3727	2.2	-0.3657	-1.5226	1.073	-0.7973	-1.049	0.6054	-1.2229	-0.1918	-0.0779	-0.4016	-0.1619	0.1319	0.1978	2.242	-0.3896	1.7324
-0.9771	2.1221	-0.4916	-1.3907	2.212	-0.3357	-1.4687	1.1509	-0.7973	-1.0071	0.7373	-1.1869	-0.1379	-0.1199	-0.5035	-0.2937	0.2218	0.2817	2.3319	-0.3717	1.9063
-0.9831	2.0741	-0.4556	-1.3967	2.194	-0.3477	-1.4567	1.2229	-0.7733	-0.9771	0.8093	-1.1809	-0.1079	-0.1858	-0.5515	-0.3477	0.3297	0.3297	2.4637	-0.3357	2.1041
-1.0191	2.0142	-0.5095	-1.3428	2.206	-0.3357	-1.4267	1.2648	-0.7373	-0.9052	0.8992	-1.2049	-0.0719	-0.2218	-0.5995	-0.4196	0.4196	0.4196	2.5896	-0.2578	2.2899
-1.0371	1.9902	-0.5215	-1.3128	2.2	-0.3177	-1.3488	1.2948	-0.7673	-0.8392	0.9292	-1.1869	-0.006	-0.2997	-0.5635	-0.4496	0.5635	0.4496	2.6556	-0.2458	2.4398
-1.0191	1.9722	-0.4916	-1.2409	2.23	-0.2937	-1.2349	1.3548	-0.7553	-0.7373	0.9831	-1.1929	0.03	-0.3537	-0.5155	-0.4256	0.6594	0.5395	2.8054	-0.1559	2.6016
-1.091	1.8763	-0.5335	-1.2169	2.17	-0.3297	-1.2049	1.3248	-0.7913	-0.7253	0.9591	-1.2169	0.018	-0.4016	-0.5035	-0.4736	0.7733	0.6054	2.8834	-0.1199	2.6855
-1.133	1.7864	-0.5635	-1.2289	2.0861	-0.3597	-1.1989	1.2948	-0.8332	-0.7133	0.9232	-1.2888	0.006	-0.4556	-0.4556	-0.4856	0.8872	0.6234	2.9673	-0.1019	2.7755
-1.2349	1.6485	-0.6474	-1.2229	1.9782	-0.4016	-1.1869	1.2049	-0.9531	-0.7313	0.8752	-1.3847	-0.036	-0.5215	-0.3956	-0.5035	1.0071	0.6774	2.9913	-0.1019	2.8474
-1.3368	1.5166	-0.7253	-1.2828	1.8283	-0.4736	-1.1989	1.121	-1.0371	-0.7733	0.7913	-1.5226	-0.1019	-0.5515	-0.3657	-0.5395	1.073	0.7253	3.0392	-0.0839	2.8594
-1.4627	1.3668	-0.8392	-1.3787	1.7084	-0.5635	-1.2768	0.9951	-1.127	-0.8332	0.6834	-1.6665	-0.2038	-0.5875	-0.2757	-0.5755	1.133	0.7433	3.0452	-0.0839	2.9433
-1.6425	1.1809	-1.0011	-1.4866	1.5466	-0.6654	-1.3368	0.8632	-1.2768	-0.9112	0.5215	-1.8343	-0.3477	-0.6294	-0.2638	-0.6174	1.1929	0.6954	3.0212	-0.1019	2.9313
-1.8343	0.9711	-1.139	-1.6185	1.3428	-0.7913	-1.4147	0.7133	-1.4087	-0.9951	0.3836	-2.0022	-0.4676	-0.6474	-0.2158	-0.6714	1.2349	0.7133	2.9733	-0.0899	2.9613
-2.0142	0.7553	-1.2589	-1.7624	1.133	-0.9052	-1.5406	0.5455	-1.5945	-1.121	0.2158	-2.182	-0.6174	-0.6594	-0.2038	-0.7373	1.2768	0.6654	2.9073	-0.1619	2.9433
-2.176	0.5515	-1.4327	-1.9003	0.9531	-0.9951	-1.5766	0.3836	-1.7684	-1.2409	0.006	-2.4158	-0.7433	-0.6654	-0.1978	-0.7433	1.2888	0.5935	2.9073	-0.1918	2.9433
-2.4218	0.2877	-1.6305	-2.0741	0.7193	-1.1749	-1.7684	0.1379	-1.9662	-1.3488	-0.1918	-2.6556	-0.9531	-0.6714	-0.2218	-0.8212	1.3008	0.5035	2.8054	-0.3057	2.9373
-2.6076	0.012	-1.7684	-2.224	0.4975	-1.2648	-1.8703	-0.042	-2.146	-1.4986	-0.3836	-2.8534	-1.1569	-0.6714	-0.2098	-0.8272	1.2948	0.3777	2.8054	-0.3597	2.9253
-2.8054	-0.1918	-1.9182	-2.3798	0.2817	-1.3727	-1.9962	-0.2458	-2.2959	-1.6245	-0.5995	-3.0752	-1.3188	-0.6654	-0.2398	-0.8572	1.2948	0.2278	2.7635	-0.4676	2.8954
-3.0332	-0.3956	-2.0741	-2.5657	0.0959	-1.4627	-2.14	-0.4736	-2.4637	-1.7864	-0.8452	-3.285	-1.5106	-0.6474	-0.2158	-0.8812	1.2828	0.036	2.7395	-0.5395	2.8174
-3.1711	-0.5875	-2.194	-2.7695	-0.0779	-1.5586	-2.2959	-0.6414	-2.6256	-1.9422	-1.061	-3.4888	-1.6845	-0.6414	-0.2817	-0.8272	1.2768	-0.1019	2.6975	-0.5995	2.8054
-3.309	-0.7553	-2.3379	-2.9373	-0.2638	-1.6305	-2.4338	-0.8512	-2.7635	-2.0981	-1.2708	-3.6447	-1.8643	-0.6714	-0.3357	-0.8392	1.2828	-0.2877	2.6975	-0.7133	2.7755
-3.4409	-0.9411	-2.4578	-3.0932	-0.4676	-1.7024	-2.6016	-1.049	-2.9073	-2.224	-1.4806	-3.8425	-2.0261	-0.6714	-0.3657	-0.8332	1.3008	-0.4196	2.6616	-0.7733	2.7155
-3.5667	-1.097	-2.5537	-3.249	-0.6234	-1.8044	-2.6676	-1.2349	-2.9973	-2.3259	-1.6485	-3.9384	-2.1341	-0.6954	-0.4496	-0.8272	1.3308	-0.5275	2.6496	-0.8452	2.7095
-3.6567	-1.2169	-2.6256	-3.333	-0.7673	-1.8223	-2.7455	-1.4147	-3.0872	-2.3798	-1.8103	-4.0763	-2.2	-0.6954	-0.5455	-0.7973	1.3668	-0.5995	2.6616	-0.8153	2.6855
-3.7586	-1.3368	-2.6915	-3.4349	-0.8812	-1.8463	-2.7875	-1.5706	-3.1471	-2.4218	-1.9782	-4.1542	-2.2779	-0.7373	-0.6354	-0.7913	1.4267	-0.6654	2.6736	-0.8272	2.6915
-3.8485	-1.4507	-2.7575	-3.5248	-0.9951	-1.9182	-2.8834	-1.7624	-3.2071	-2.4817	-2.1221	-4.2381	-2.3978	-0.7793	-0.7253	-0.7733	1.5046	-0.7313	2.6616	-0.8332	2.6855
-3.9084	-1.5406	-2.7934	-3.5607	-1.091	-1.9242	-2.8894	-1.8763	-3.237	-2.5057	-2.2599	-4.334	-2.4338	-0.8093	-0.8752	-0.7493	1.5945	-0.7853	2.6196	-0.7973	2.6556
-3.9324	-1.6005	-2.7815	-3.5428	-1.1689	-1.9123	-2.8834	-2.0022	-3.279	-2.4937	-2.3738	-4.334	-2.4338	-0.8632	-1.0131	-0.7074	1.6725	-0.8452	2.6616	-0.8093	2.6196
-3.9564	-1.6605	-2.8234	-3.5008	-1.2648	-1.9302	-2.8294	-2.164	-3.321	-2.4877	-2.5357	-4.424	-2.4817	-0.8992	-1.1569	-0.6534	1.7504	-0.9112	2.6076	-0.7673	2.6076
-3.9264	-1.7144	-2.7875	-3.3869	-1.2888	-1.9063	-2.7635	-2.236	-3.315	-2.4458	-2.6496	-4.4359	-2.4697	-0.9172	-1.2828	-0.5995	1.7864	-1.0011	2.5956	-0.7853	2.5956
-3.9264	-1.7084	-2.7994	-3.279	-1.3428	-1.8823	-2.6796	-2.3618	-3.309	-2.3738	-2.7515	-4.4539	-2.4817	-0.9531	-1.4567	-0.5575	1.8163	-1.0311	2.5537	-0.7973	2.5297
-3.8725	-1.7144	-2.7395	-3.0992	-1.3668	-1.8763	-2.5357	-2.4398	-3.297	-2.3439	-2.8174	-4.43	-2.4458	-0.9411	-1.5706	-0.5035	1.8103	-1.115	2.4697	-0.8033	2.5117
-3.8305	-1.7144	-2.7035	-2.9493	-1.3608	-1.8463	-2.4278	-2.5057	-3.291	-2.236	-2.9073	-4.4359	-2.3918	-0.8992	-1.7324	-0.4856	1.7684	-1.133	2.4038	-0.7733	2.4697
-3.7706	-1.7384	-2.6496	-2.8174	-1.4147	-1.8163	-2.3019	-2.5896	-3.297	-2.23	-2.9793	-4.4359	-2.4038	-0.8752	-1.8463	-0.4796	1.7144	-1.2109	2.3079	-0.8332	2.4038
-3.7526	-1.7744	-2.6496	-2.7455	-1.4747	-1.8223	-2.242	-2.6736	-3.297	-2.182	-3.0392	-4.4659	-2.4338	-0.8392	-2.0022	-0.5155	1.6425	-1.2469	2.182	-0.8093	2.2719
-3.7646	-1.8283	-2.6196	-2.7395	-1.5226	-1.8583	-2.194	-2.8114	-3.333	-2.206	-3.1411	-4.4659	-2.4278	-0.8093	-2.146	-0.5935	1.5586	-1.3428	2.0921	-0.8812	2.176
-3.7646	-1.8943	-2.6676	-2.7095	-1.5706	-1.9003	-2.194	-2.8534	-3.3509	-2.188	-3.2011	-4.4779	-2.4637	-0.7553	-2.2659	-0.6474	1.4567	-1.4507	1.9302	-0.9411	2.0561
-3.7766	-1.9123	-2.6855	-2.7155	-1.6245	-1.9242	-2.212	-2.9253	-3.3509	-2.2599	-3.309	-4.4839	-2.4997	-0.7014	-2.4038	-0.7493	1.3548	-1.5106	1.7924	-0.9891	1.9123
-3.7646	-2.0142	-2.7455	-2.7515	-1.6785	-1.9962	-2.2839	-3.0212	-3.4349	-2.3259	-3.3629	-4.5259	-2.5357	-0.6414	-2.5417	-0.8332	1.2529	-1.5586	1.6365	-1.0251	1.7684
-3.8005	-2.0441	-2.7815	-2.8114	-1.7144	-2.0441	-2.3319	-3.0512	-3.3929	-2.3439	-3.4169	-4.5319	-2.5477	-0.5755	-2.6376	-0.9112	1.109	-1.6065	1.4866	-1.067	1.6125
-3.8365	-2.14	-2.8594	-2.9253	-1.7924	-2.1281	-2.4218	-3.1351	-3.4588	-2.4398	-3.4768	-4.4959	-2.5537	-0.5155	-2.7815	-1.0311	0.9951	-1.6725	1.3128	-1.109	1.4387
-3.8964	-2.164	-2.8954	-3.0093	-1.7744	-2.188	-2.5297	-3.1112	-3.4648	-2.4757	-3.4888	-4.4539	-2.5896	-0.4496	-2.9133	-1.091	0.8452	-1.6965	1.2229	-1.1569	1.3128
-4.0043	-2.2719	-2.9913	-3.1471	-1.7924	-2.2959	-2.6855	-3.1891	-3.5188	-2.5896	-3.5727	-4.4659	-2.6616	-0.4016	-3.0812	-1.2349	0.7433	-1.7444	1.0371	-1.1689	1.139
-4.0823	-2.3738	-3.0572	-3.255	-1.8523	-2.3678	-2.8234	-3.1951	-3.5368	-2.6855	-3.5787	-4.4659	-2.6915	-0.3057	-3.2131	-1.3488	0.6054	-1.7444	0.8992	-1.1929	0.9831
-4.1782	-2.4458	-3.1771	-3.4049	-1.8883	-2.4637	-2.9373	-3.237	-3.5907	-2.7755	-3.6387	-4.4659	-2.7275	-0.2578	-3.321	-1.4747	0.4796	-1.8044	0.7313	-1.2409	0.8093
-4.2981	-2.5057	-3.249	-3.5128	-1.9182	-2.6016	-3.0752	-3.249	-3.6207	-2.8654	-3.6746	-4.43	-2.7635	-0.1858	-3.3929	-1.5706	0.3237	-1.8044	0.6114	-1.2529	0.6954
-4.424	-2.5776	-3.3989	-3.6686	-1.9722	-2.6855	-3.2071	-3.297	-3.6627	-2.9553	-3.7166	-4.43	-2.8054	-0.1079	-3.4469	-1.6965	0.1978	-1.8403	0.4376	-1.3008	0.4676
-4.5259	-2.6915	-3.5128	-3.7406	-2.0321	-2.7934	-3.3689	-3.3749	-3.7166	-3.0752	-3.7706	-4.4479	-2.8954	-0.054	-3.4588	-1.7984	0.0719	-1.8883	0.3177	-1.3668	0.2997
-4.5918	-2.6915	-3.5787	-3.8305	-2.0501	-2.8714	-3.4349	-3.3929	-3.7166	-3.1172	-3.8065	-4.418	-2.8894	0.036	-3.4648	-1.8583	-0.1079	-1.9123	0.2098	-1.3668	0.1499
-4.7477	-2.7934	-3.6986	-3.9564	-2.1101	-2.9973	-3.5428	-3.4469	-3.7646	-3.255	-3.8425	-4.418	-2.9313	0.1199	-3.4409	-1.9842	-0.2338	-1.9063	0.048	-1.4087	-0.042
-4.8016	-2.8354	-3.7526	-4.0403	-2.1101	-3.0272	-3.6447	-3.4648	-3.7825	-3.267	-3.8605	-4.346	-2.9313	0.1918	-3.3389	-2.0261	-0.3717	-1.8943	-0.054	-1.4387	-0.2158
-4.8256	-2.8474	-3.8365	-4.1362	-2.1221	-3.0932	-3.7706	-3.4469	-3.7466	-3.3569	-3.8245	-4.3101	-2.9193	0.2398	-3.237	-2.0621	-0.4916	-1.8523	-0.1499	-1.4327	-0.3537
-4.8376	-2.8234	-3.8485	-4.2201	-2.1161	-3.0812	-3.8605	-3.4349	-3.7106	-3.3809	-3.8245	-4.2381	-2.9433	0.3117	-3.0632	-2.0381	-0.6414	-1.8403	-0.2098	-1.4387	-0.4796
-4.8256	-2.7335	-3.8365	-4.3221	-2.0861	-3.1411	-3.9264	-3.3869	-3.6627	-3.4169	-3.7706	-4.1482	-2.9073	0.3717	-2.8594	-1.9542	-0.7553	-1.7984	-0.2098	-1.4447	-0.5875
-4.7956	-2.7095	-3.8485	-4.394	-2.0981	-3.1291	-4.0403	-3.3569	-3.5847	-3.4768	-3.7046	-4.0703	-2.9373	0.4196	-2.6496	-1.9362	-0.8632	-1.7744	-0.2698	-1.4747	-0.7074
-4.7417	-2.5836	-3.7706	-4.4359	-1.9782	-3.0992	-4.0943	-3.279	-3.5308	-3.5008	-3.6507	-3.9564	-2.9073	0.4796	-2.4098	-1.7864	-0.9651	-1.7264	-0.2398	-1.4806	-0.7853
-4.6757	-2.4578	-3.7166	-4.4899	-1.9182	-3.0152	-4.1722	-3.1951	-3.4588	-3.5188	-3.5727	-3.8245	-2.8594	0.5335	-2.152	-1.6725	-1.049	-1.6545	-0.2278	-1.4687	-0.8812
-4.5918	-2.3319	-3.6267	-4.5199	-1.7864	-2.9373	-4.1782	-3.0932	-3.321	-3.5008	-3.4708	-3.6986	-2.8114	0.5575	-1.9542	-1.5226	-1.1509	-1.6065	-0.2158	-1.4567	-0.9232
-4.4479	-2.158	-3.4828	-4.4779	-1.6725	-2.8114	-4.1602	-2.9613	-3.2011	-3.4469	-3.3929	-3.5607	-2.7035	0.5815	-1.6905	-1.3847	-1.1989	-1.5226	-0.1559	-1.4447	-0.9891
-4.3101	-2.0082	-3.297	-4.388	-1.5586	-2.6616	-4.1182	-2.8234	-3.0152	-3.3629	-3.231	-3.3629	-2.6016	0.6114	-1.4627	-1.2469	-1.2409	-1.4207	-0.0779	-1.4267	-1.0191
-4.0823	-1.8283	-3.0872	-4.2921	-1.3608	-2.4937	-4.0463	-2.6915	-2.8414	-3.261	-3.1231	-3.2131	-2.4697	0.5995	-1.2469	-1.049	-1.2469	-1.3668	0.018	-1.4507	-1.0371
-3.9024	-1.7144	-2.8714	-4.1722	-1.2529	-2.3499	-3.9324	-2.5297	-2.6676	-3.1231	-2.9913	-3.0033	-2.3199	0.5995	-1.0251	-0.8452	-1.2169	-1.2708	0.1079	-1.3608	-1.067
-3.6926	-1.4986	-2.6136	-4.0043	-1.085	-2.1161	-3.7586	-2.3738	-2.4278	-2.9493	-2.8354	-2.8114	-2.182	0.5815	-0.8272	-0.6714	-1.1629	-1.1629	0.2158	-1.3188	-1.043
-3.4409	-1.3128	-2.3439	-3.7945	-0.8752	-1.8403	-3.5787	-2.182	-2.2	-2.7755	-2.6376	-2.5896	-1.9542	0.5395	-0.6834	-0.4975	-1.091	-1.0251	0.3597	-1.2648	-1.0131
-3.1831	-1.109	-2.0681	-3.5667	-0.7074	-1.6245	-3.3809	-2.0142	-1.9782	-2.5717	-2.4757	-2.3978	-1.7144	0.4796	-0.4856	-0.2698	-0.9771	-0.9172	0.4556	-1.1809	-0.9531
-2.9193	-0.9471	-1.7684	-3.327	-0.5455	-1.3488	-3.1351	-1.8223	-1.7384	-2.3079	-2.2479	-2.1041	-1.4806	0.4136	-0.2877	-0.1439	-0.8692	-0.7313	0.5575	-1.103	-0.8872
-2.6855	-0.7913	-1.4986	-3.0392	-0.3657	-1.085	-2.8594	-1.6185	-1.4926	-2.0321	-2.0801	-1.9123	-1.2469	0.3597	-0.2038	0	-0.7493	-0.6114	0.6954	-1.0131	-0.7973
-2.4398	-0.6474	-1.2229	-2.8714	-0.2278	-0.8752	-2.6556	-1.4507	-1.3368	-1.8163	-1.9182	-1.7384	-1.0191	0.2817	-0.0899	0.1379	-0.6114	-0.4796	0.7733	-0.9411	-0.6894
-2.17	-0.5035	-0.9891	-2.5896	-0.0959	-0.6654	-2.3798	-1.3068	-1.127	-1.5586	-1.7504	-1.5286	-0.7793	0.2278	-0.03	0.2698	-0.4856	-0.3657	0.8872	-0.8812	-0.6054
-1.9242	-0.3357	-0.7074	-2.3618	0.0659	-0.4016	-2.146	-1.115	-0.8872	-1.2648	-1.5106	-1.2888	-0.5095	0.1858	0.054	0.3836	-0.3956	-0.2158	0.9951	-0.8033	-0.4436
-1.6965	-0.2038	-0.4796	-2.0981	0.2158	-0.2038	-1.9003	-0.9531	-0.7253	-1.0251	-1.3488	-1.103	-0.2578	0.1259	0.0899	0.4856	-0.2817	-0.1019	1.073	-0.7373	-0.3057
-1.4627	-0.0719	-0.2578	-1.9003	0.3537	-0.018	-1.6785	-0.7733	-0.5275	-0.8212	-1.1809	-0.9172	-0.03	0.0719	0.1439	0.5695	-0.1678	0.03	1.121	-0.6594	-0.1738
-1.2409	0.018	-0.054	-1.6965	0.4916	0.1619	-1.4926	-0.6174	-0.3717	-0.5815	-1.0191	-0.7793	0.1798	0.006	0.1858	0.6234	-0.048	0.1379	1.2109	-0.5875	-0.03
-1.0251	0.1918	0.1499	-1.4507	0.6534	0.3537	-1.2888	-0.4736	-0.2338	-0.3057	-0.8093	-0.5635	0.4376	-0.03	0.2278	0.7493	0.018	0.2757	1.3188	-0.5335	0.1738
-0.8153	0.2817	0.3477	-1.2469	0.7493	0.5035	-1.079	-0.3237	-0.0659	-0.1379	-0.6054	-0.4256	0.6414	-0.0839	0.2638	0.8332	0.0959	0.4556	1.3787	-0.4316	0.3537
-0.6534	0.3956	0.5095	-1.073	0.8752	0.6414	-0.8872	-0.1858	0.0839	0.0899	-0.5095	-0.2757	0.8872	-0.1079	0.2937	0.8872	0.1738	0.5515	1.3967	-0.3537	0.4916
-0.4556	0.4736	0.6594	-0.8632	0.9711	0.7373	-0.7313	-0.0959	0.1858	0.2937	-0.3357	-0.1379	1.097	-0.1379	0.3297	1.0071	0.2278	0.6954	1.4447	-0.2638	0.6414
-0.2997	0.5515	0.8332	-0.6354	1.103	0.9052	-0.5215	0.024	0.2997	0.5215	-0.1978	0	1.3368	-0.1499	0.3357	1.0311	0.2578	0.8632	1.4747	-0.2338	0.8392
-0.1678	0.6354	0.9591	-0.4136	1.1749	1.0071	-0.3357	0.1619	0.4256	0.7193	-0.042	0.1678	1.5286	-0.1738	0.3417	1.097	0.2997	0.9831	1.5286	-0.1738	0.9471
0.006	0.7014	1.079	-0.2218	1.2648	1.097	-0.1079	0.2278	0.5335	0.9112	0.0599	0.2578	1.7504	-0.1918	0.3117	1.133	0.3357	1.1509	1.5526	-0.0659	1.079
0.1559	0.7853	1.2768	0.006	1.4027	1.2169	0.0839	0.3417	0.6234	1.133	0.1978	0.3417	1.9962	-0.1798	0.2997	1.1749	0.3477	1.3008	1.6065	0.006	1.2349
0.3177	0.9112	1.3967	0.2278	1.5166	1.3128	0.2817	0.4436	0.7673	1.3308	0.2937	0.4796	2.182	-0.1738	0.2997	1.2229	0.3297	1.4507	1.6665	0.1019	1.3907
0.4796	1.049	1.5406	0.4136	1.6245	1.4087	0.4856	0.4916	0.8093	1.4986	0.3477	0.5395	2.3558	-0.1678	0.2877	1.2469	0.3177	1.6065	1.6665	0.1798	1.4926
0.6294	1.1689	1.6125	0.6054	1.7084	1.4806	0.5935	0.5395	0.8752	1.6485	0.4256	0.5875	2.5357	-0.1559	0.2578	1.2469	0.3057	1.7324	1.6845	0.2757	1.6065
0.7613	1.3188	1.7504	0.7553	1.8103	1.5466	0.7133	0.5755	0.9232	1.7384	0.4796	0.6714	2.6256	-0.1559	0.1918	1.2229	0.2757	1.8823	1.6965	0.3836	1.6785
0.8632	1.4806	1.8523	0.8692	1.9003	1.6185	0.7973	0.5935	0.9891	1.8283	0.4975	0.6954	2.7215	-0.1199	0.2158	1.2768	0.2098	2.0202	1.6845	0.4616	1.7504
1.0011	1.6185	1.9602	0.9831	1.9842	1.6665	0.8512	0.6114	1.0251	1.9182	0.4916	0.7014	2.8354	-0.1079	0.1858	1.3008	0.1738	2.158	1.6905	0.5935	1.7984
1.115	1.7504	2.0501	1.109	2.0681	1.7204	0.9292	0.5755	1.073	1.9662	0.4556	0.6834	2.9073	-0.0899	0.2518	1.3008	0.1619	2.2599	1.6665	0.7074	1.8343
1.2049	1.8703	2.0861	1.1869	2.0921	1.7264	0.9591	0.5635	1.0371	1.9782	0.4496	0.6714	2.9493	-0.0959	0.2398	1.3068	0.1678	2.3079	1.6365	0.7493	1.8583
1.3068	1.9782	2.164	1.2349	2.152	1.7384	0.9831	0.5035	1.0191	2.0022	0.4016	0.6534	2.9433	-0.1019	0.2757	1.3488	0.1499	2.3618	1.6425	0.7913	1.8523
1.3668	2.0202	2.2	1.2589	2.152	1.7504	0.9471	0.4496	0.9711	1.9722	0.3777	0.5815	2.9313	-0.0839	0.3057	1.3608	0.1379	2.4458	1.6245	0.8452	1.8823
1.3548	2.0861	2.158	1.2229	2.0861	1.6845	0.9172	0.3237	0.8572	1.9123	0.2578	0.4856	2.8834	-0.0839	0.3177	1.3668	0.1439	2.3978	1.5945	0.8212	1.8703
1.3608	2.0921	2.164	1.2469	2.0921	1.6965	0.8812	0.2578	0.7973	1.8523	0.1858	0.4256	2.7875	-0.0839	0.3117	1.3668	0.1439	2.3678	1.5286	0.7733	1.8583
1.3368	2.0861	2.1101	1.1989	2.0441	1.6065	0.8332	0.1858	0.7133	1.7864	0.0659	0.2698	2.6736	-0.0779	0.3417	1.3428	0.1259	2.3319	1.5226	0.7673	1.8643
1.2888	2.1041	2.0441	1.1509	1.9842	1.5586	0.7553	0.0779	0.6054	1.6605	-0.048	0.1439	2.5537	-0.0779	0.3477	1.3188	0.1199	2.23	1.5226	0.6954	1.8703
1.2768	2.1161	2.0441	1.067	1.9722	1.4747	0.6474	-0.012	0.5035	1.5166	-0.1139	0.048	2.4098	-0.0599	0.3657	1.3787	0.1139	2.17	1.4986	0.6174	1.9123
1.2049	2.1341	1.9602	0.9951	1.9302	1.3967	0.5275	-0.0839	0.3777	1.3787	-0.2518	-0.1319	2.218	-0.1019	0.4196	1.3847	0.1559	2.0441	1.4986	0.5215	1.9422
1.1569	2.158	1.9362	0.9172	1.9242	1.3308	0.4496	-0.1678	0.2458	1.2409	-0.3417	-0.2817	2.0801	-0.0899	0.4676	1.4447	0.1559	1.9602	1.4926	0.4856	1.9842
1.145	2.212	1.8643	0.8093	1.8943	1.2648	0.3657	-0.2518	0.1319	1.085	-0.4436	-0.4376	1.9063	-0.1019	0.5635	1.5706	0.1678	1.8283	1.5286	0.4196	2.0441
1.103	2.2659	1.8343	0.7313	1.9242	1.1629	0.2518	-0.3057	0	0.9292	-0.5455	-0.5755	1.6725	-0.1259	0.6654	1.7024	0.1978	1.7504	1.5166	0.3357	2.1041
1.067	2.2659	1.7804	0.6654	1.9242	1.079	0.1499	-0.3537	-0.1199	0.7733	-0.6234	-0.7373	1.4806	-0.1379	0.7853	1.7924	0.2518	1.5885	1.5286	0.2398	2.176
1.043	2.242	1.7264	0.5575	1.8763	0.9771	0.03	-0.3836	-0.2698	0.5575	-0.7193	-0.9292	1.2529	-0.1379	0.9052	1.9182	0.2817	1.4567	1.5466	0.1738	2.218
1.0011	2.212	1.6665	0.4496	1.8343	0.9052	-0.0899	-0.4556	-0.4016	0.4016	-0.7973	-1.073	1.0251	-0.1559	1.0191	2.0501	0.2937	1.2708	1.5945	0.1139	2.3019
0.9531	2.182	1.5885	0.3537	1.7864	0.7913	-0.2278	-0.5095	-0.5575	0.2218	-0.8752	-1.2828	0.7673	-0.1619	1.1809	2.176	0.2997	1.097	1.6125	0.024	2.3858
0.8872	2.1041	1.5286	0.2218	1.6965	0.6774	-0.3657	-0.5815	-0.6954	0.036	-0.9831	-1.4747	0.5215	-0.1619	1.2708	2.236	0.3057	0.9351	1.6185	-0.048	2.3798
0.8272	2.0202	1.4387	0.1019	1.6305	0.5335	-0.5035	-0.6654	-0.8332	-0.1678	-1.103	-1.6545	0.2398	-0.1738	1.4447	2.3558	0.2877	0.7074	1.6065	-0.1199	2.4518
0.7373	1.9123	1.3068	-0.054	1.5346	0.4496	-0.6414	-0.7193	-1.0071	-0.3956	-1.1809	-1.8463	-0.03	-0.1678	1.5226	2.4218	0.2997	0.5515	1.5826	-0.2158	2.4578
0.5695	1.7984	1.1809	-0.2278	1.4327	0.2698	-0.8452	-0.7853	-1.1749	-0.5935	-1.2888	-2.0381	-0.3177	-0.1499	1.5766	2.4458	0.2817	0.3417	1.5945	-0.3177	2.4757
0.4556	1.6785	1.067	-0.3537	1.2948	0.1379	-1.0191	-0.8812	-1.3308	-0.8332	-1.4027	-2.224	-0.5635	-0.1619	1.6665	2.4458	0.2937	0.1139	1.5706	-0.4256	2.5117
0.3717	1.5706	0.9351	-0.4736	1.1869	-0.006	-1.133	-0.9112	-1.4986	-1.0071	-1.5346	-2.3738	-0.8272	-0.1678	1.7804	2.5297	0.2937	-0.0659	1.5346	-0.5215	2.4817
0.2158	1.3787	0.7973	-0.5935	1.055	-0.1319	-1.2708	-1.0011	-1.6665	-1.1929	-1.6005	-2.5836	-1.073	-0.1978	1.7744	2.5057	0.3477	-0.2458	1.4986	-0.5995	2.4697
0.1259	1.2948	0.6894	-0.6654	0.9771	-0.2218	-1.3787	-1.0191	-1.7984	-1.3428	-1.6365	-2.7155	-1.2888	-0.2278	1.7984	2.4817	0.3896	-0.3657	1.4866	-0.6354	2.4997
0	1.121	0.5515	-0.7313	0.8692	-0.3777	-1.4447	-1.085	-1.9602	-1.5106	-1.7264	-2.8714	-1.5226	-0.2518	1.8103	2.4278	0.4616	-0.5455	1.4507	-0.6654	2.4937
-0.054	1.0311	0.4796	-0.7973	0.7793	-0.4496	-1.5466	-1.085	-2.0741	-1.6065	-1.7084	-2.9853	-1.6605	-0.2518	1.8044	2.3678	0.4916	-0.6354	1.4447	-0.6954	2.5417
-0.1738	0.9711	0.3777	-0.8752	0.7373	-0.5275	-1.6365	-1.085	-2.188	-1.7384	-1.7024	-3.0812	-1.8523	-0.2937	1.7864	2.2959	0.5455	-0.7253	1.4627	-0.7433	2.6016
-0.2757	0.8512	0.2578	-0.9831	0.6594	-0.6654	-1.7384	-1.103	-2.2779	-1.8403	-1.7504	-3.2131	-1.9962	-0.3057	1.7024	2.2	0.6114	-0.8153	1.4806	-0.7253	2.5956
-0.3357	0.7493	0.1738	-1.043	0.5995	-0.7313	-1.7864	-1.109	-2.3798	-1.9302	-1.6785	-3.267	-2.14	-0.3357	1.6605	2.1161	0.6474	-0.8572	1.5106	-0.7373	2.6855
-0.4316	0.6654	0.0719	-1.133	0.5455	-0.8692	-1.9123	-1.091	-2.4817	-2.0561	-1.6485	-3.3989	-2.2539	-0.3657	1.5286	1.9902	0.6894	-0.9411	1.5526	-0.7373	2.7395
-0.5155	0.5515	0	-1.2589	0.4916	-0.9052	-1.9722	-1.079	-2.5597	-2.1161	-1.6125	-3.4528	-2.3139	-0.3717	1.3787	1.8763	0.6834	-0.9351	1.6305	-0.6774	2.7575
-0.5875	0.4556	-0.0959	-1.3727	0.4616	-1.0311	-2.0801	-1.079	-2.6616	-2.212	-1.6065	-3.5488	-2.4278	-0.3597	1.1989	1.6845	0.6654	-0.9651	1.6785	-0.6714	2.8054
-0.6834	0.3896	-0.1858	-1.5106	0.4436	-1.091	-2.176	-1.061	-2.7215	-2.2959	-1.5046	-3.5907	-2.4817	-0.3477	1.043	1.5046	0.6414	-0.9651	1.6725	-0.7074	2.8474
-0.8153	0.3297	-0.2877	-1.6425	0.4076	-1.2109	-2.2659	-1.049	-2.8654	-2.4158	-1.5046	-3.6806	-2.5956	-0.3117	0.8153	1.3068	0.5935	-0.9711	1.7024	-0.6894	2.8414
-0.8992	0.2997	-0.3717	-1.7324	0.4016	-1.3128	-2.3499	-1.0131	-2.8954	-2.4338	-1.4627	-3.7286	-2.6736	-0.2937	0.6654	1.109	0.5275	-1.0191	1.7444	-0.7313	2.8174
-0.9891	0.2158	-0.4676	-1.8823	0.3657	-1.4267	-2.4398	-1.0371	-2.9913	-2.5417	-1.4207	-3.7945	-2.7155	-0.2578	0.4376	0.9052	0.4796	-1.0071	1.7324	-0.7493	2.8234
-1.127	0.1918	-0.5455	-1.9242	0.3777	-1.4627	-2.4877	-1.0191	-3.0692	-2.5776	-1.3967	-3.8125	-2.7095	-0.2458	0.2937	0.7133	0.4316	-1.0071	1.7744	-0.7613	2.7695
-1.1869	0.1858	-0.6414	-1.9962	0.3836	-1.5466	-2.4877	-1.0011	-3.1172	-2.5717	-1.3008	-3.8005	-2.7155	-0.2158	0.054	0.4916	0.3836	-0.9651	1.7624	-0.7613	2.7275
-1.2648	0.1678	-0.7014	-2.0202	0.3777	-1.6065	-2.4877	-0.9591	-3.1291	-2.5776	-1.2529	-3.8065	-2.6736	-0.1978	-0.1738	0.3417	0.3537	-0.9292	1.8463	-0.7493	2.7155
-1.3967	0.1499	-0.7493	-2.0381	0.3597	-1.6245	-2.4398	-0.9411	-3.1591	-2.5357	-1.1989	-3.8245	-2.6136	-0.1918	-0.4016	0.1738	0.3357	-0.8512	1.8763	-0.7193	2.6676
-1.4806	0.1918	-0.7913	-2.0202	0.3896	-1.6365	-2.3798	-0.9531	-3.1531	-2.5057	-1.127	-3.7466	-2.5357	-0.1738	-0.5755	0.018	0.3237	-0.7313	1.9662	-0.6834	2.6376
-1.5466	0.1259	-0.8512	-2.0441	0.3836	-1.6665	-2.3738	-0.9232	-3.1411	-2.4578	-1.049	-3.7166	-2.4578	-0.1978	-0.8153	-0.1019	0.3297	-0.6834	1.9602	-0.6834	2.5956
-1.6425	0.2038	-0.8932	-2.0381	0.3717	-1.6665	-2.3379	-0.9172	-3.1531	-2.4518	-1.0191	-3.6746	-2.4098	-0.1738	-1.0011	-0.2218	0.3237	-0.5635	2.0082	-0.6594	2.5117
-1.7024	0.1978	-0.9292	-2.0142	0.3597	-1.6905	-2.3259	-0.9172	-3.1651	-2.4098	-0.9951	-3.6207	-2.3439	-0.1798	-1.1689	-0.2698	0.2997	-0.4496	2.0501	-0.6054	2.4518
-1.7744	0.1978	-0.9771	-2.0621	0.3477	-1.7504	-2.3738	-0.9711	-3.1591	-2.4218	-0.9831	-3.5907	-2.2959	-0.1678	-1.3368	-0.3117	0.2997	-0.4136	2.0981	-0.6114	2.3439
-1.7924	0.2278	-1.0191	-2.0621	0.3297	-1.7564	-2.3798	-0.9891	-3.1711	-2.4637	-1.0071	-3.5847	-2.2779	-0.1379	-1.4327	-0.2338	0.2518	-0.3717	2.0681	-0.6114	2.218
-1.7984	0.2698	-1.0251	-2.0501	0.2877	-1.7504	-2.4038	-1.0071	-3.1831	-2.4578	-1.0071	-3.5428	-2.236	-0.1259	-1.4747	-0.1918	0.2278	-0.2757	2.0981	-0.6174	2.0321
-1.8103	0.2518	-1.043	-2.0681	0.2278	-1.7864	-2.4038	-1.079	-3.1891	-2.4877	-1.085	-3.5368	-2.218	-0.1019	-1.4447	-0.1259	0.1918	-0.2638	2.1041	-0.5995	1.9003
-1.8103	0.2817	-1.073	-2.0621	0.1978	-1.7384	-2.4637	-1.121	-3.2251	-2.5117	-1.1629	-3.5308	-2.152	-0.0899	-1.4387	-0.006	0.1559	-0.2518	2.0561	-0.6234	1.7024
-1.7144	0.2638	-1.0251	-2.0261	0.1678	-1.7504	-2.4518	-1.1929	-3.2011	-2.5057	-1.2289	-3.5248	-2.1221	-0.0599	-1.2948	0.1499	0.0959	-0.2158	2.0381	-0.6114	1.5106
-1.6545	0.3297	-0.9771	-1.9662	0.1259	-1.7084	-2.4398	-1.2529	-3.1591	-2.5057	-1.2888	-3.5008	-2.0741	-0.054	-1.109	0.3537	0.0719	-0.1738	1.9962	-0.6174	1.3068
-1.5826	0.3477	-0.9411	-1.9422	0.0959	-1.6785	-2.4278	-1.2948	-3.1651	-2.4817	-1.3787	-3.4828	-2.0082	-0.018	-0.8992	0.5575	0.012	-0.1319	1.9662	-0.6114	1.115
-1.4687	0.4316	-0.8992	-1.8343	0.0959	-1.5945	-2.3738	-1.3068	-3.1052	-2.4338	-1.4387	-3.4708	-1.9123	-0.018	-0.6834	0.7553	-0.012	-0.1139	1.9362	-0.5635	0.9471
-1.3847	0.4436	-0.8332	-1.7324	0.1019	-1.5466	-2.3139	-1.3668	-3.0692	-2.3678	-1.5046	-3.4409	-1.8343	0.006	-0.4676	0.9531	-0.048	-0.036	1.9362	-0.5095	0.7673
-1.2529	0.5155	-0.7733	-1.6605	0.1559	-1.4747	-2.2479	-1.4027	-3.0033	-2.2839	-1.5646	-3.3689	-1.7084	0.03	-0.1738	1.1749	-0.0839	0.024	1.9482	-0.4736	0.6714
-1.1929	0.5215	-0.7553	-1.5766	0.1139	-1.4447	-2.218	-1.3787	-2.9193	-2.242	-1.6425	-3.3569	-1.6605	0.036	0.0899	1.3548	-0.0839	0.0719	1.8823	-0.4016	0.4975
-1.115	0.6054	-0.6894	-1.5106	0.1678	-1.3668	-2.146	-1.4207	-2.8894	-2.182	-1.6905	-3.285	-1.5526	0.03	0.3657	1.5346	-0.0959	0.1379	1.8523	-0.3896	0.3777
-0.9891	0.6834	-0.5995	-1.4507	0.2038	-1.2948	-2.0741	-1.4027	-2.8294	-2.0621	-1.7264	-3.231	-1.4027	0.036	0.6534	1.7264	-0.1319	0.2098	1.8703	-0.2937	0.2877
-0.9351	0.7313	-0.5815	-1.4147	0.2458	-1.2648	-2.0381	-1.3787	-2.7275	-1.9602	-1.7564	-3.1651	-1.2768	0.036	0.8632	1.8463	-0.1499	0.3297	1.8223	-0.2518	0.1798
-0.8752	0.7733	-0.5395	-1.3967	0.3177	-1.2049	-1.9722	-1.3668	-2.6376	-1.9182	-1.7624	-3.0752	-1.1929	0.0659	1.133	1.9242	-0.1798	0.3896	1.7564	-0.1259	0.048
-0.7733	0.8572	-0.4676	-1.3308	0.3777	-1.127	-1.9242	-1.3308	-2.5417	-1.7684	-1.7984	-3.0332	-1.0371	0.0899	1.3907	2.0501	-0.2338	0.4796	1.7324	-0.0779	-0.036
-0.7253	0.8992	-0.4256	-1.3727	0.3956	-1.061	-1.8943	-1.2888	-2.4458	-1.6545	-1.7624	-2.9133	-0.8812	0.1259	1.6005	2.0861	-0.2757	0.5695	1.6785	0.006	-0.1019
-0.6654	0.9951	-0.3836	-1.3488	0.5215	-1.0071	-1.8883	-1.2289	-2.3499	-1.5706	-1.7444	-2.8354	-0.7853	0.1559	1.7564	2.182	-0.3417	0.6534	1.6485	0.0719	-0.1619
-0.5935	1.079	-0.3777	-1.3847	0.5335	-0.9292	-1.8403	-1.1809	-2.2599	-1.4627	-1.7744	-2.7575	-0.6534	0.1559	1.9242	2.2659	-0.3477	0.7193	1.5885	0.0659	-0.2218
-0.5635	1.127	-0.3417	-1.3847	0.6294	-0.8932	-1.8283	-1.145	-2.176	-1.3668	-1.6905	-2.6676	-0.5635	0.1559	2.0501	2.3319	-0.3717	0.7973	1.5406	0.0719	-0.2278
-0.5095	1.121	-0.3057	-1.4327	0.7014	-0.8272	-1.8044	-1.079	-2.0501	-1.2469	-1.6545	-2.5776	-0.4016	0.1619	2.182	2.3678	-0.3777	0.8812	1.4926	0.0719	-0.2278
-0.5095	1.1989	-0.2997	-1.4627	0.7613	-0.7973	-1.7744	-1.0131	-1.9422	-1.133	-1.5646	-2.4398	-0.2817	0.1499	2.236	2.4038	-0.3477	0.9232	1.4866	0.1199	-0.2218
-0.4856	1.2409	-0.2458	-1.5646	0.8212	-0.7313	-1.7144	-0.9172	-1.7984	-1.0191	-1.4866	-2.3379	-0.1139	0.1259	2.2719	2.4458	-0.2997	1.0131	1.4747	0.1319	-0.1499
-0.4676	1.3068	-0.2458	-1.5586	0.8932	-0.7133	-1.6785	-0.8452	-1.6905	-0.8692	-1.3368	-2.182	0.0779	0.1079	2.3079	2.5117	-0.2578	1.1749	1.5106	0.1918	-0.0599
-0.5035	1.3308	-0.2098	-1.5706	0.9831	-0.6414	-1.6245	-0.7133	-1.5226	-0.7253	-1.1929	-2.0082	0.2398	0.0599	2.3019	2.5057	-0.1619	1.2828	1.5046	0.2218	0.0899
-0.5035	1.3847	-0.2038	-1.5646	1.073	-0.5815	-1.5166	-0.6114	-1.4147	-0.5635	-1.0191	-1.8523	0.3777	0.018	2.2479	2.5237	-0.0719	1.4147	1.5466	0.2817	0.1978
-0.5215	1.4207	-0.1978	-1.5406	1.1869	-0.5335	-1.3967	-0.4975	-1.2828	-0.4196	-0.8572	-1.6785	0.5995	-0.0659	2.218	2.5417	0.0599	1.5346	1.5885	0.3057	0.3896
-0.5515	1.4447	-0.2338	-1.5706	1.2109	-0.5275	-1.3608	-0.4076	-1.2109	-0.3117	-0.7313	-1.5826	0.6834	-0.1259	2.1041	2.5117	0.2098	1.6365	1.6125	0.3237	0.5635
-0.6234	1.4207	-0.2518	-1.5166	1.2768	-0.5275	-1.3008	-0.3117	-1.121	-0.1798	-0.5515	-1.4447	0.8272	-0.1798	2.0082	2.4697	0.3537	1.7384	1.6785	0.3477	0.7733
-0.6954	1.3787	-0.2997	-1.5346	1.3248	-0.5275	-1.2469	-0.2278	-1.049	-0.1199	-0.4316	-1.3248	0.9471	-0.2877	1.8703	2.3978	0.5395	1.8103	1.7504	0.3717	0.9292
-0.7853	1.3668	-0.3477	-1.5106	1.3727	-0.5575	-1.2169	-0.1858	-1.0191	-0.0719	-0.2997	-1.2708	1.0311	-0.3657	1.7144	2.3678	0.6954	1.8703	1.8044	0.3417	1.1929
-0.8572	1.3368	-0.4556	-1.5226	1.3727	-0.6414	-1.2349	-0.1499	-0.9891	-0.024	-0.1738	-1.1809	1.133	-0.4496	1.5406	2.3379	0.8632	1.9842	1.8403	0.3657	1.3668
