"FZ"	"FC3"	"FCZ"	"FC4"	"C3"	"CZ"	"C4"	"CP3"	"CPZ"	"CP4"	"P3"	"PZ"	"P4"	"OZ"	"FP1"	"FP2"	"A2"	"P8"	"TP7"	"TP8"	"P7"	"VEOG"	"HEOG"
0.2269	-0.2797	-0.0622	-1.0444	-0.7056	-0.718	-1.4951	-0.9511	-1.0972	-1.4764	-0.8299	-0.7025	-1.1563	-0.2083	1.607	1.0382	0.4165	-0.9822	-0.8113	-0.7677	-1.0226	-0.5377	-1.2091
0.2642	-0.2051	-0.0466	-0.9853	-0.6154	-0.6807	-1.4422	-0.92	-1.0972	-1.4889	-0.8454	-0.7957	-1.234	-0.2331	1.6225	1.1936	0.4662	-1.0692	-0.7273	-0.8082	-0.976	-0.5875	-1.2184
0.2984	-0.1585	-0.0062	-0.92	-0.5844	-0.6714	-1.377	-0.889	-1.1221	-1.4609	-0.8454	-0.8454	-1.2651	-0.2487	1.6163	1.3055	0.4849	-1.0972	-0.6465	-0.8237	-0.8859	-0.6372	-1.206
0.3575	-0.115	0.028	-0.8703	-0.5129	-0.6434	-1.3397	-0.8299	-1.1128	-1.4267	-0.861	-0.9045	-1.3428	-0.2642	1.6256	1.4298	0.516	-1.1656	-0.5657	-0.8454	-0.8486	-0.6714	-1.1905
0.3761	-0.0995	0.0404	-0.8237	-0.4725	-0.6341	-1.2806	-0.7988	-1.0972	-1.4143	-0.8765	-0.9636	-1.408	-0.2704	1.6008	1.4795	0.5408	-1.234	-0.4569	-0.8392	-0.7895	-0.6807	-1.1532
0.3979	-0.1088	0.0249	-0.8144	-0.4476	-0.6279	-1.2216	-0.7864	-1.1283	-1.4205	-0.8921	-1.0382	-1.4485	-0.2953	1.5541	1.5199	0.5844	-1.2993	-0.3823	-0.8703	-0.7242	-0.7025	-1.1159
0.3792	-0.0653	0.0435	-0.7584	-0.432	-0.6248	-1.2153	-0.774	-1.1563	-1.4018	-0.9387	-1.1283	-1.5355	-0.3046	1.5199	1.5293	0.5999	-1.3272	-0.2984	-0.8983	-0.6838	-0.7242	-1.0692
0.3668	-0.0777	0.0249	-0.7553	-0.3916	-0.6248	-1.1811	-0.7522	-1.1501	-1.408	-0.9449	-1.1874	-1.5697	-0.3046	1.4391	1.551	0.6154	-1.3707	-0.2083	-0.889	-0.6403	-0.7429	-1.0102
0.345	-0.0777	-0.0062	-0.7429	-0.3885	-0.6465	-1.1314	-0.7491	-1.2029	-1.408	-0.9698	-1.2775	-1.6567	-0.3326	1.4049	1.5199	0.6341	-1.436	-0.1057	-0.9263	-0.5812	-0.7615	-0.9667
0.3046	-0.1119	-0.0528	-0.7398	-0.3823	-0.6963	-1.1407	-0.7429	-1.2309	-1.4143	-0.9946	-1.349	-1.7468	-0.3295	1.3272	1.4795	0.6465	-1.4858	-0.0497	-0.9449	-0.5408	-0.8144	-0.9169
0.2611	-0.1461	-0.1119	-0.746	-0.373	-0.7087	-1.1438	-0.746	-1.2744	-1.4453	-1.0382	-1.4391	-1.8246	-0.345	1.234	1.4174	0.6683	-1.5386	0.0155	-0.9853	-0.5439	-0.8486	-0.8641
0.2051	-0.1399	-0.1772	-0.7771	-0.3761	-0.7522	-1.1438	-0.7336	-1.3055	-1.4516	-1.0786	-1.5417	-1.8929	-0.3388	1.1687	1.3707	0.6621	-1.5728	0.0746	-0.9978	-0.5098	-0.9387	-0.8237
0.1523	-0.1927	-0.23	-0.7926	-0.4041	-0.7895	-1.1749	-0.7677	-1.3428	-1.4889	-1.1128	-1.6567	-1.9862	-0.3419	1.091	1.2868	0.6963	-1.666	0.0932	-1.0226	-0.5035	-1.0164	-0.7802
0.0777	-0.2518	-0.3015	-0.8299	-0.4383	-0.8299	-1.1749	-0.7802	-1.4018	-1.5137	-1.1749	-1.7624	-2.0919	-0.345	1.0009	1.2309	0.6963	-1.7127	0.115	-1.0382	-0.4973	-1.1283	-0.7273
0	-0.2953	-0.3916	-0.8299	-0.4538	-0.889	-1.1905	-0.7988	-1.4516	-1.5666	-1.1811	-1.8619	-2.1634	-0.3388	0.9014	1.1314	0.6838	-1.7468	0.1337	-1.0661	-0.5098	-1.2247	-0.7149
-0.0435	-0.3481	-0.4693	-0.8579	-0.4693	-0.9232	-1.1998	-0.7833	-1.4951	-1.5883	-1.2122	-1.952	-2.2131	-0.3419	0.8144	1.0413	0.6776	-1.7841	0.171	-1.1003	-0.5066	-1.321	-0.6496
-0.1305	-0.3792	-0.5346	-0.8486	-0.4725	-0.948	-1.2153	-0.7864	-1.5448	-1.5977	-1.1998	-2.0173	-2.2659	-0.3202	0.6838	0.9138	0.6341	-1.7966	0.1585	-1.1252	-0.4662	-1.4049	-0.6154
-0.171	-0.4196	-0.603	-0.8579	-0.4476	-0.9853	-1.2184	-0.7957	-1.5914	-1.635	-1.2184	-2.0608	-2.3343	-0.3046	0.5844	0.7709	0.6061	-1.8339	0.1772	-1.1501	-0.4849	-1.4826	-0.5906
-0.2331	-0.4569	-0.6527	-0.8361	-0.4756	-1.0102	-1.2184	-0.805	-1.6412	-1.6505	-1.2464	-2.1416	-2.3965	-0.2829	0.4352	0.603	0.5688	-1.8525	0.1523	-1.1625	-0.4569	-1.5666	-0.5315
-0.2984	-0.4756	-0.7087	-0.8548	-0.4662	-1.0444	-1.2278	-0.8019	-1.6785	-1.6909	-1.2184	-2.1882	-2.4182	-0.2642	0.3326	0.4631	0.5315	-1.8681	0.1678	-1.1718	-0.4165	-1.6443	-0.4942
-0.3543	-0.5004	-0.7957	-0.8517	-0.4911	-1.091	-1.2153	-0.7895	-1.6909	-1.7002	-1.1874	-2.2286	-2.468	-0.258	0.1896	0.2891	0.5035	-1.9054	0.1741	-1.2247	-0.401	-1.7033	-0.4631
-0.4476	-0.5439	-0.8548	-0.8454	-0.516	-1.1345	-1.2278	-0.7988	-1.7282	-1.7064	-1.178	-2.2815	-2.4742	-0.2393	0.0528	0.1212	0.4693	-1.9302	0.1741	-1.2371	-0.3885	-1.7593	-0.4289
-0.5222	-0.5875	-0.9232	-0.8361	-0.4942	-1.1501	-1.2433	-0.7833	-1.7655	-1.7313	-1.1811	-2.297	-2.4928	-0.2238	-0.0466	-0.0404	0.4383	-1.9582	0.1678	-1.262	-0.3512	-1.8246	-0.4134
-0.5688	-0.5844	-0.9729	-0.8019	-0.5346	-1.1998	-1.2526	-0.7677	-1.7904	-1.7437	-1.1345	-2.3374	-2.5177	-0.2145	-0.2051	-0.2238	0.4289	-1.9955	0.1585	-1.2868	-0.3077	-1.8743	-0.3792
-0.631	-0.631	-1.0351	-0.7771	-0.5471	-1.2216	-1.2278	-0.7584	-1.8152	-1.7562	-1.0786	-2.3343	-2.5363	-0.2083	-0.2922	-0.3512	0.4041	-1.9582	0.1492	-1.2899	-0.2611	-1.9271	-0.3668
-0.718	-0.631	-1.0879	-0.7833	-0.5502	-1.262	-1.2526	-0.7398	-1.8214	-1.7717	-1.0288	-2.297	-2.5239	-0.2051	-0.3792	-0.4383	0.3979	-2.0048	0.1399	-1.3241	-0.2083	-1.9582	-0.3388
-0.7802	-0.6279	-1.0848	-0.7802	-0.5284	-1.2744	-1.2464	-0.7118	-1.8308	-1.7593	-0.9791	-2.3001	-2.5208	-0.1989	-0.4569	-0.5129	0.3948	-1.9986	0.1337	-1.3272	-0.1492	-1.9893	-0.3264
-0.8486	-0.6434	-1.1563	-0.7988	-0.5035	-1.2868	-1.2806	-0.6838	-1.837	-1.7468	-0.9045	-2.2504	-2.4991	-0.2083	-0.5035	-0.5222	0.401	-1.9986	0.1585	-1.3272	-0.0404	-2.0079	-0.2891
-0.8859	-0.6123	-1.1376	-0.774	-0.4787	-1.2806	-1.2557	-0.6123	-1.7748	-1.7282	-0.7833	-2.2131	-2.4586	-0.2145	-0.5284	-0.5066	0.4134	-1.98	0.1647	-1.3272	0.0155	-2.0111	-0.258
-0.8921	-0.575	-1.1438	-0.7336	-0.4103	-1.2775	-1.2309	-0.5626	-1.781	-1.7002	-0.6714	-2.1198	-2.3809	-0.2176	-0.5315	-0.4631	0.432	-1.9706	0.2207	-1.3397	0.1243	-1.9986	-0.2393
-0.889	-0.5533	-1.147	-0.7304	-0.3823	-1.2744	-1.2309	-0.4818	-1.7282	-1.6691	-0.5595	-2.0421	-2.3281	-0.23	-0.5346	-0.3916	0.4445	-1.9489	0.2611	-1.3179	0.1896	-1.9582	-0.23
-0.8952	-0.4942	-1.1159	-0.6994	-0.3077	-1.2371	-1.1998	-0.4041	-1.6474	-1.5945	-0.4227	-1.9458	-2.2442	-0.23	-0.5408	-0.3233	0.4631	-1.8898	0.2922	-1.2589	0.3202	-1.8774	-0.23
-0.8765	-0.4662	-1.1003	-0.7025	-0.2518	-1.2091	-1.1811	-0.3295	-1.5914	-1.551	-0.2984	-1.8525	-2.1602	-0.2549	-0.5129	-0.2145	0.4787	-1.8619	0.3233	-1.2993	0.3854	-1.7624	-0.2145
-0.8641	-0.3854	-1.0817	-0.6745	-0.1772	-1.1594	-1.1128	-0.2238	-1.4982	-1.4578	-0.1647	-1.7002	-2.0546	-0.2518	-0.5098	-0.1057	0.4973	-1.8246	0.3761	-1.234	0.4818	-1.6101	-0.2083
-0.8423	-0.3233	-1.0164	-0.6279	-0.0932	-1.0972	-1.0506	-0.0995	-1.4049	-1.3739	-0.0062	-1.579	-1.9396	-0.2424	-0.5004	0.0031	0.4849	-1.75	0.46	-1.1687	0.5937	-1.4422	-0.2176
-0.8144	-0.2673	-1.0226	-0.6465	-0.0186	-1.0444	-1.0133	-0.028	-1.3117	-1.2837	0.143	-1.4391	-1.8214	-0.2549	-0.4631	0.1181	0.5035	-1.7158	0.5222	-1.1376	0.6931	-1.2526	-0.2145
-0.7584	-0.1896	-0.9356	-0.6154	0.0901	-0.9636	-0.9356	0.1057	-1.178	-1.147	0.2829	-1.2961	-1.666	-0.2549	-0.4445	0.2269	0.5098	-1.6318	0.5844	-1.0786	0.7802	-1.0661	-0.258
-0.7336	-0.1274	-0.9387	-0.6341	0.1461	-0.92	-0.889	0.1958	-1.0786	-1.0755	0.401	-1.1843	-1.5479	-0.2549	-0.4476	0.3326	0.5129	-1.5635	0.6434	-1.0319	0.8859	-0.8734	-0.258
-0.7242	-0.0746	-0.9138	-0.6434	0.2114	-0.8486	-0.8579	0.2673	-0.9822	-0.9791	0.5377	-1.0382	-1.3863	-0.2611	-0.4538	0.4383	0.5253	-1.4671	0.69	-0.9542	0.9605	-0.7242	-0.2891
-0.6807	-0.0218	-0.8765	-0.6527	0.2922	-0.7864	-0.7926	0.3823	-0.8827	-0.8703	0.631	-0.8952	-1.2464	-0.2611	-0.46	0.4973	0.5129	-1.3739	0.7273	-0.8921	1.0382	-0.5626	-0.2891
-0.6621	0.0249	-0.805	-0.6776	0.3637	-0.7304	-0.7211	0.4538	-0.7864	-0.7615	0.7336	-0.7771	-1.1252	-0.258	-0.4569	0.5781	0.5066	-1.3055	0.7864	-0.8517	1.1128	-0.4569	-0.3233
-0.6621	0.0591	-0.8237	-0.6994	0.3948	-0.6652	-0.6745	0.5129	-0.6807	-0.6527	0.8268	-0.6621	-0.9915	-0.2642	-0.5284	0.5471	0.5315	-1.1998	0.8486	-0.7615	1.1625	-0.3512	-0.3606
-0.659	0.0901	-0.8019	-0.7087	0.4507	-0.6279	-0.5999	0.5719	-0.5906	-0.5595	0.8983	-0.5315	-0.8765	-0.2829	-0.5284	0.5564	0.5408	-1.147	0.8641	-0.7087	1.2153	-0.2704	-0.3668
-0.6061	0.1399	-0.7398	-0.7056	0.4942	-0.5533	-0.5408	0.6434	-0.4725	-0.4538	0.9573	-0.3916	-0.7304	-0.2735	-0.5408	0.5502	0.5471	-1.0226	0.92	-0.6341	1.2682	-0.2424	-0.4103
-0.6123	0.1803	-0.718	-0.7118	0.5626	-0.4911	-0.4569	0.7087	-0.3637	-0.3388	1.0071	-0.2891	-0.5812	-0.2797	-0.5968	0.4725	0.5595	-0.9263	0.9573	-0.5502	1.3148	-0.2238	-0.4383
-0.5719	0.1927	-0.6745	-0.6776	0.5657	-0.4165	-0.3761	0.7553	-0.2797	-0.2176	1.0599	-0.1834	-0.46	-0.2797	-0.5968	0.4227	0.5626	-0.8144	1.0071	-0.4973	1.3459	-0.2331	-0.4787
-0.5191	0.2549	-0.5688	-0.5781	0.631	-0.317	-0.2673	0.7926	-0.1492	-0.0839	1.1097	-0.0715	-0.317	-0.2766	-0.6092	0.3326	0.5533	-0.6776	1.0475	-0.3916	1.3707	-0.286	-0.5284
-0.4818	0.2797	-0.5253	-0.5098	0.6652	-0.2456	-0.143	0.8392	-0.0466	0.0404	1.1221	0.0497	-0.1834	-0.2922	-0.6248	0.2393	0.5657	-0.5968	1.0848	-0.3326	1.377	-0.3606	-0.5906
-0.3916	0.3388	-0.3979	-0.4041	0.7336	-0.1212	-0.0155	0.8672	0.0932	0.1927	1.1625	0.1772	-0.0155	-0.2642	-0.6217	0.1554	0.5502	-0.4631	1.1283	-0.258	1.4049	-0.4756	-0.6465
-0.2984	0.4196	-0.3046	-0.3202	0.7895	-0.0186	0.0901	0.9232	0.2269	0.3326	1.1656	0.2673	0.115	-0.2549	-0.5968	0.0777	0.5222	-0.3264	1.1843	-0.1927	1.4267	-0.603	-0.6931
-0.2362	0.4818	-0.1958	-0.1958	0.8299	0.087	0.23	0.92	0.3077	0.4476	1.1563	0.3792	0.2673	-0.2393	-0.5999	0.0311	0.4942	-0.2393	1.1843	-0.1492	1.408	-0.7273	-0.7429
-0.1461	0.5253	-0.0995	-0.0995	0.8765	0.1927	0.3419	0.948	0.4196	0.5781	1.1438	0.4725	0.3979	-0.23	-0.5719	-0.0124	0.4507	-0.143	1.1967	-0.087	1.4049	-0.861	-0.8019
-0.0497	0.5657	0.0155	0.0124	0.9169	0.2922	0.46	0.9542	0.5129	0.7056	1.119	0.5502	0.5439	-0.202	-0.5564	-0.0559	0.4072	-0.0062	1.1905	-0.0311	1.349	-1.0009	-0.8237
0.0404	0.6372	0.1274	0.143	0.9573	0.3916	0.6217	0.9573	0.631	0.8486	1.1003	0.6372	0.6683	-0.1741	-0.516	-0.1088	0.3481	0.0995	1.1905	0.0218	1.3397	-1.1345	-0.8672
0.0995	0.6558	0.2362	0.2518	0.9791	0.4787	0.7429	0.948	0.7025	0.9294	1.0475	0.6683	0.7709	-0.171	-0.5004	-0.1647	0.3046	0.202	1.1625	0.0435	1.2868	-1.2495	-0.8952
0.1585	0.7087	0.3233	0.3637	0.9636	0.5595	0.833	0.9449	0.7957	1.0537	0.9698	0.7336	0.8765	-0.1305	-0.4693	-0.2114	0.2456	0.3264	1.1314	0.1119	1.206	-1.3366	-0.9232
0.1834	0.6621	0.3979	0.4693	0.92	0.6185	0.9325	0.8641	0.833	1.1159	0.8423	0.7615	0.9387	-0.1057	-0.4631	-0.2891	0.2083	0.3885	1.0475	0.1492	1.1128	-1.4205	-0.9387
0.2331	0.6683	0.4569	0.5719	0.8983	0.6745	1.0133	0.8361	0.8827	1.2091	0.774	0.8144	1.0226	-0.0808	-0.432	-0.3543	0.1678	0.4973	0.9729	0.1834	1.0257	-1.464	-0.9667
0.2549	0.6683	0.5222	0.6341	0.8641	0.7211	1.1221	0.7802	0.9418	1.2557	0.6776	0.8144	1.1376	-0.0653	-0.4258	-0.4352	0.1368	0.5812	0.8921	0.2238	0.9138	-1.4982	-0.9636
0.2704	0.6123	0.5657	0.7056	0.7988	0.7615	1.1905	0.7087	0.9667	1.2993	0.5906	0.861	1.178	-0.0653	-0.4414	-0.5346	0.1181	0.6652	0.7864	0.2487	0.7677	-1.4671	-0.9605
0.2829	0.5999	0.6061	0.7709	0.7553	0.8019	1.2526	0.6496	1.0102	1.3676	0.5035	0.8579	1.2682	-0.0497	-0.4227	-0.5812	0.0746	0.7615	0.6994	0.3015	0.6776	-1.436	-0.9418
0.2642	0.5222	0.6154	0.8206	0.6869	0.8299	1.3179	0.575	1.0506	1.4267	0.4196	0.8796	1.3334	-0.0311	-0.4134	-0.6185	0.0559	0.8454	0.5875	0.3512	0.5439	-1.377	-0.9107
0.2611	0.4911	0.6372	0.861	0.6123	0.8517	1.3987	0.5315	1.0786	1.4578	0.3388	0.92	1.408	-0.0186	-0.432	-0.6994	0.0311	0.9418	0.46	0.4134	0.4383	-1.2899	-0.8827
0.23	0.4289	0.6683	0.9045	0.5315	0.8641	1.4391	0.4631	1.1065	1.4733	0.2362	0.9232	1.464	-0.0124	-0.4538	-0.7336	0.0124	1.0257	0.345	0.4569	0.3108	-1.2029	-0.8548
0.2487	0.3606	0.659	0.9511	0.4507	0.9045	1.4733	0.4072	1.1438	1.5262	0.1741	0.9542	1.5355	0.0031	-0.4258	-0.7584	-0.0093	1.1438	0.23	0.5253	0.2269	-1.0941	-0.8113
0.2797	0.3481	0.7304	1.0382	0.4227	0.9107	1.5572	0.3792	1.2029	1.5852	0.143	1.0133	1.6194	0.0311	-0.4072	-0.7522	-0.0559	1.2682	0.1243	0.6279	0.1181	-0.9791	-0.7802
0.2953	0.3108	0.7491	1.0506	0.3792	0.9698	1.6101	0.3668	1.2526	1.6381	0.1212	1.1034	1.7127	0.0466	-0.4072	-0.7895	-0.0995	1.3956	0.0622	0.7025	0.0839	-0.8486	-0.7646
0.3077	0.2518	0.7646	1.1034	0.3077	0.9978	1.6598	0.3388	1.2993	1.6971	0.1274	1.1376	1.8121	0.0746	-0.3575	-0.7709	-0.1461	1.5106	-0.0062	0.8144	0.0031	-0.69	-0.6994
0.3233	0.2269	0.7988	1.1811	0.2704	1.0288	1.7127	0.3419	1.3583	1.7344	0.1368	1.2433	1.9427	0.0964	-0.3357	-0.7646	-0.1865	1.635	-0.0964	0.9232	-0.0559	-0.5129	-0.6341
0.3388	0.1865	0.8268	1.2526	0.2424	1.0692	1.7748	0.3108	1.4049	1.7904	0.143	1.3272	2.0266	0.1181	-0.2953	-0.7522	-0.2362	1.7437	-0.171	1.0164	-0.0995	-0.3264	-0.5595
0.373	0.1523	0.8486	1.2713	0.1896	1.091	1.7841	0.3015	1.4516	1.8277	0.1305	1.3925	2.1229	0.1461	-0.2611	-0.7491	-0.2829	1.8743	-0.23	1.1065	-0.1554	-0.1119	-0.46
0.4134	0.1585	0.8796	1.3397	0.1865	1.1625	1.8432	0.3419	1.5262	1.9302	0.2145	1.5231	2.269	0.1772	-0.1989	-0.7149	-0.3606	2.0048	-0.2393	1.234	-0.1461	0.1057	-0.3792
0.4134	0.0995	0.8641	1.3739	0.1523	1.1501	1.8743	0.3388	1.5572	1.9458	0.2487	1.5945	2.3561	0.1865	-0.1927	-0.7273	-0.3792	2.1136	-0.2766	1.3272	-0.1958	0.3326	-0.2704
0.4134	0.087	0.8641	1.436	0.115	1.1563	1.8929	0.3264	1.6101	2.0017	0.2673	1.6816	2.4369	0.2114	-0.1554	-0.7087	-0.4289	2.2442	-0.3326	1.4049	-0.2331	0.5471	-0.1585
0.4476	0.0901	0.8796	1.4422	0.1274	1.1967	1.9054	0.3792	1.6847	2.0452	0.345	1.7841	2.5705	0.2393	-0.1057	-0.6838	-0.4569	2.3592	-0.373	1.5137	-0.2362	0.7491	-0.0186
0.4476	0.0901	0.8921	1.4609	0.115	1.1998	1.9054	0.3823	1.6971	2.0359	0.373	1.8619	2.583	0.2487	-0.0746	-0.6465	-0.4942	2.4493	-0.4041	1.5852	-0.2518	0.92	0.1305
0.4507	0.0684	0.8952	1.464	0.0622	1.2309	1.8929	0.3854	1.7375	2.0763	0.4383	1.9489	2.6762	0.2704	-0.0342	-0.5999	-0.5315	2.5332	-0.4352	1.666	-0.2518	1.0724	0.2797
0.4787	0.0746	0.889	1.4547	0.0715	1.2247	1.8836	0.4196	1.7841	2.0825	0.4942	2.0142	2.7291	0.3108	0.0186	-0.5408	-0.5968	2.6203	-0.4414	1.7562	-0.2393	1.2153	0.4569
0.4538	0.0715	0.8672	1.3987	0.0186	1.2029	1.8277	0.3948	1.7748	2.0484	0.516	2.0515	2.7477	0.3233	0.0497	-0.4756	-0.6434	2.6731	-0.5004	1.8121	-0.2797	1.3366	0.6154
0.4756	0.0746	0.8517	1.3366	-0.0124	1.1843	1.7593	0.3948	1.7406	2.0266	0.5408	2.095	2.7539	0.3481	0.0964	-0.3885	-0.7056	2.6949	-0.5595	1.8463	-0.2984	1.4453	0.7709
0.488	0.0497	0.8361	1.262	-0.0124	1.178	1.6629	0.3885	1.75	1.9831	0.5564	2.1509	2.7446	0.401	0.1585	-0.3388	-0.7802	2.7197	-0.5719	1.8898	-0.3139	1.551	0.948
0.5129	0.0839	0.8175	1.1843	-0.0373	1.1625	1.5759	0.3575	1.7313	1.9178	0.5937	2.1727	2.7477	0.432	0.1958	-0.2797	-0.8641	2.7042	-0.5999	1.9178	-0.3512	1.6505	1.1283
0.5066	0.0528	0.774	1.0848	-0.0653	1.119	1.4795	0.3419	1.7158	1.8432	0.575	2.154	2.6762	0.4662	0.2269	-0.2114	-0.9232	2.6638	-0.6496	1.9116	-0.373	1.7748	1.293
0.5253	0.0559	0.7677	1.004	-0.0777	1.0786	1.3645	0.2953	1.6691	1.7406	0.5626	2.1354	2.6109	0.5098	0.2362	-0.1772	-0.9946	2.6047	-0.7025	1.8867	-0.401	1.9023	1.4547
0.5191	0.0839	0.7553	0.9138	-0.0932	1.0413	1.2371	0.2797	1.6287	1.6287	0.5502	2.1167	2.5395	0.5439	0.2735	-0.1337	-1.0692	2.5519	-0.746	1.8712	-0.4352	2.0235	1.607
0.5222	0.087	0.7118	0.8361	-0.1243	1.0257	1.1221	0.2269	1.5852	1.5355	0.5439	2.0888	2.4431	0.5657	0.3046	-0.1243	-1.1314	2.4462	-0.8082	1.8277	-0.4911	2.1416	1.7127
0.5346	0.0684	0.7056	0.7771	-0.1554	0.9418	0.9946	0.202	1.5386	1.3863	0.4911	2.0204	2.3405	0.5999	0.3108	-0.1057	-1.1905	2.3467	-0.861	1.7562	-0.5533	2.3001	1.8308
0.5439	0.0839	0.6994	0.7025	-0.1741	0.9169	0.8952	0.1616	1.4889	1.2744	0.4507	1.9769	2.2224	0.6341	0.2922	-0.1212	-1.2589	2.2566	-0.9263	1.7033	-0.5875	2.4462	1.9333
0.5191	0.0653	0.6558	0.6372	-0.2051	0.8983	0.7429	0.0964	1.4112	1.1376	0.373	1.9054	2.0732	0.6341	0.2642	-0.1554	-1.2868	2.0857	-0.9822	1.6163	-0.6714	2.6172	2.039
0.4973	0.0622	0.6372	0.5719	-0.2549	0.8206	0.6217	0.0342	1.3366	0.9884	0.3077	1.837	1.9333	0.6527	0.1958	-0.1834	-1.3117	1.9458	-1.0724	1.5106	-0.7367	2.7912	2.1136
0.4662	0.0342	0.6154	0.4849	-0.2922	0.8019	0.4849	-0.0404	1.2682	0.8423	0.2238	1.7158	1.7748	0.6465	0.1368	-0.2611	-1.3086	1.8028	-1.1376	1.4049	-0.8175	2.9995	2.2069
0.4352	0.0311	0.5875	0.4445	-0.3295	0.7553	0.3326	-0.0591	1.1843	0.6963	0.1647	1.6505	1.6287	0.6527	0.087	-0.2922	-1.3117	1.635	-1.1936	1.3024	-0.8859	3.2264	2.2908
0.4227	0.0249	0.5781	0.3885	-0.345	0.718	0.2269	-0.1088	1.1097	0.5471	0.0932	1.5324	1.4422	0.659	-0.0249	-0.3885	-1.3024	1.4764	-1.2899	1.1594	-0.9356	3.4782	2.3654
0.3823	0.0093	0.5595	0.3326	-0.3761	0.6558	0.0964	-0.1616	1.0413	0.3948	0.0342	1.4547	1.2837	0.6496	-0.0901	-0.4942	-1.2806	1.2993	-1.3366	1.0475	-1.0133	3.7268	2.4493
0.3388	0.0218	0.5439	0.258	-0.3885	0.6092	-0.0373	-0.1958	0.9511	0.2331	-0.0528	1.349	1.1252	0.6434	-0.1741	-0.5781	-1.2744	1.1532	-1.3832	0.8921	-1.0755	4.0066	2.5332
0.2766	-0.0062	0.5315	0.1772	-0.4165	0.5595	-0.1896	-0.2238	0.8983	0.1057	-0.1119	1.2775	0.948	0.6185	-0.2735	-0.7118	-1.2526	1.0009	-1.4236	0.7646	-1.0879	4.2801	2.6109
0.2673	-0.0124	0.5222	0.1057	-0.4258	0.5191	-0.3139	-0.2735	0.8299	-0.0404	-0.171	1.178	0.8082	0.6217	-0.3575	-0.8113	-1.234	0.8548	-1.4391	0.6279	-1.1376	4.5629	2.6855
0.2456	-0.0249	0.5408	0.0435	-0.4258	0.4818	-0.4289	-0.2487	0.7895	-0.1585	-0.1989	1.1283	0.6714	0.5968	-0.4383	-0.9667	-1.1967	0.7025	-1.4733	0.5066	-1.1407	4.8396	2.7633
0.2238	-0.0031	0.5315	-0.0218	-0.4227	0.4787	-0.5315	-0.2487	0.7491	-0.3046	-0.2207	1.0506	0.516	0.575	-0.5004	-1.1003	-1.1625	0.5564	-1.4733	0.3823	-1.147	5.1069	2.8223
0.258	0.0311	0.5906	-0.0373	-0.3761	0.4725	-0.6217	-0.2207	0.7398	-0.4072	-0.2238	1.0195	0.4383	0.5781	-0.5657	-1.234	-1.1438	0.4445	-1.4826	0.286	-1.1159	5.3711	2.8441
0.2642	0.0808	0.6123	-0.1181	-0.3575	0.4787	-0.7149	-0.1896	0.7242	-0.4911	-0.2269	0.9822	0.3233	0.5471	-0.5812	-1.3179	-1.1034	0.3326	-1.4298	0.1834	-1.1003	5.5949	2.8752
0.3139	0.1057	0.6621	-0.143	-0.3046	0.4942	-0.7864	-0.1523	0.7304	-0.5626	-0.1772	0.9667	0.2269	0.5346	-0.5781	-1.4143	-1.0661	0.2487	-1.4049	0.0964	-1.0506	5.8404	2.8907
0.3699	0.1616	0.718	-0.1368	-0.2331	0.5439	-0.8268	-0.0746	0.746	-0.631	-0.1368	0.9605	0.1678	0.5098	-0.5471	-1.4889	-1.0288	0.1647	-1.3366	0.0311	-0.9605	6.0518	2.9187
0.4414	0.23	0.7988	-0.1585	-0.1399	0.575	-0.8734	0.028	0.7926	-0.6807	-0.0995	0.9636	0.0808	0.4818	-0.4787	-1.5324	-0.976	0.0715	-1.2495	-0.0559	-0.9138	6.2476	2.9156
0.5253	0.3233	0.8859	-0.1554	-0.0497	0.6248	-0.8827	0.0995	0.8423	-0.7336	-0.0031	0.9822	0.0373	0.4631	-0.432	-1.551	-0.9387	0.0186	-1.2122	-0.0901	-0.8299	6.3999	2.9125
0.6248	0.4227	0.9698	-0.1647	0.0746	0.6838	-0.92	0.1803	0.8734	-0.7988	0.0715	1.0071	-0.0124	0.4414	-0.3512	-1.5852	-0.889	-0.1119	-1.1283	-0.1647	-0.7491	6.5336	2.9404
0.7087	0.5004	1.0755	-0.1647	0.1834	0.7273	-0.9449	0.2891	0.9107	-0.8268	0.1554	0.9884	-0.0653	0.4196	-0.23	-1.5137	-0.8423	-0.2176	-1.0537	-0.2456	-0.6652	6.6362	2.9466
0.8019	0.6092	1.147	-0.1647	0.2829	0.7895	-0.9449	0.4041	0.9542	-0.8796	0.2424	1.0164	-0.1243	0.3916	-0.0995	-1.4578	-0.7895	-0.2953	-0.948	-0.3077	-0.575	6.7108	2.9373
0.8672	0.7304	1.2402	-0.1803	0.4414	0.8548	-0.9791	0.5222	1.0009	-0.9325	0.3388	1.0195	-0.1927	0.3481	0.0155	-1.3863	-0.718	-0.3948	-0.8299	-0.3854	-0.4787	6.7481	2.9497
0.9822	0.8517	1.3521	-0.1834	0.5502	0.9294	-1.0009	0.6496	1.0444	-0.9636	0.4476	1.0319	-0.2642	0.3202	0.1927	-1.2682	-0.6558	-0.516	-0.7398	-0.4476	-0.3668	6.7885	2.9808
1.0817	0.9822	1.4453	-0.1989	0.718	0.9853	-0.9822	0.7988	1.0941	-1.0226	0.5719	1.0568	-0.3139	0.2922	0.3108	-1.1594	-0.5812	-0.631	-0.6248	-0.5129	-0.258	6.8102	2.956
1.1811	1.1407	1.5572	-0.1741	0.9107	1.1065	-0.9915	0.9294	1.1594	-1.0537	0.6869	1.091	-0.3979	0.2611	0.4693	-1.0537	-0.516	-0.7491	-0.4849	-0.5999	-0.1274	6.8258	2.9466
1.2682	1.2371	1.6318	-0.2176	1.0226	1.1438	-1.0475	1.0537	1.1905	-1.1252	0.7864	1.0817	-0.46	0.1896	0.5781	-1.004	-0.401	-0.889	-0.373	-0.718	-0.0124	6.8537	2.9373
1.3521	1.3645	1.722	-0.23	1.1625	1.234	-1.0972	1.1532	1.2153	-1.1905	0.9076	1.0972	-0.5439	0.1523	0.69	-0.9138	-0.3202	-1.004	-0.2673	-0.7771	0.0932	6.891	2.9342
1.436	1.4951	1.8059	-0.2424	1.293	1.2775	-1.1407	1.2993	1.2433	-1.2589	1.0226	1.0972	-0.6434	0.1026	0.8144	-0.8703	-0.2145	-1.1625	-0.1523	-0.8859	0.2145	6.9221	2.9218
1.4826	1.5821	1.8805	-0.2549	1.4329	1.3334	-1.1718	1.3956	1.2682	-1.3397	1.1097	1.0724	-0.7491	0.0466	0.8921	-0.8579	-0.1026	-1.3024	-0.0249	-0.9915	0.3015	6.9812	2.8907
1.5324	1.6629	1.9116	-0.2797	1.5044	1.3801	-1.206	1.5106	1.2775	-1.4205	1.1843	1.0319	-0.8361	-0.0124	0.9325	-0.8983	0.0031	-1.4453	0.0435	-1.0972	0.4227	7.0589	2.8689
1.579	1.7468	1.9582	-0.2704	1.6505	1.4329	-1.2402	1.607	1.2775	-1.5137	1.2961	1.0413	-0.9325	-0.0591	0.9511	-0.9294	0.0964	-1.5883	0.143	-1.2091	0.5253	7.1428	2.8223
1.6318	1.8308	2.0079	-0.2704	1.7624	1.4516	-1.2806	1.694	1.3055	-1.5355	1.3863	1.0257	-1.0133	-0.087	0.9605	-0.9822	0.1803	-1.7282	0.258	-1.3024	0.6279	7.2454	2.8006
1.6318	1.8867	2.0484	-0.2984	1.8494	1.4702	-1.3086	1.7966	1.3179	-1.6256	1.464	0.9946	-1.1128	-0.143	0.9449	-1.0319	0.2611	-1.8587	0.3295	-1.4018	0.7118	7.3573	2.785
1.6008	1.9178	2.0359	-0.3139	1.9116	1.4826	-1.3645	1.8587	1.2775	-1.7064	1.5168	0.9294	-1.2091	-0.1678	0.889	-1.1283	0.3264	-1.9551	0.3823	-1.4795	0.7864	7.494	2.7788
1.5821	1.9178	2.0266	-0.3637	1.9613	1.4702	-1.4205	1.9147	1.2713	-1.7779	1.5666	0.8921	-1.2961	-0.2051	0.7988	-1.2464	0.3979	-2.067	0.4538	-1.6008	0.8517	7.6277	2.7757
1.5137	1.9209	1.9706	-0.4445	2.0359	1.4391	-1.4671	1.9333	1.2278	-1.865	1.6008	0.8237	-1.3894	-0.2393	0.6994	-1.408	0.46	-2.1789	0.488	-1.6847	0.9045	7.7924	2.7912
1.4267	1.8992	1.9271	-0.4973	2.0515	1.4236	-1.5199	1.9396	1.1905	-1.9396	1.6287	0.774	-1.4858	-0.2518	0.6123	-1.5883	0.5004	-2.2659	0.5377	-1.7531	0.9573	7.9634	2.8347
1.3397	1.8619	1.8805	-0.5906	2.0794	1.349	-1.5852	1.9396	1.1252	-2.0111	1.6505	0.6994	-1.5852	-0.2797	0.4693	-1.781	0.5377	-2.3499	0.575	-1.8401	0.9978	8.1064	2.8689
1.2122	1.8277	1.7779	-0.6776	2.0608	1.321	-1.6318	1.952	1.0661	-2.0919	1.6536	0.6217	-1.6723	-0.2829	0.345	-1.9551	0.5626	-2.3996	0.5657	-1.8898	1.0226	8.2773	2.9125
1.0879	1.7655	1.694	-0.7802	2.0515	1.2309	-1.7002	1.9427	1.0164	-2.1416	1.6878	0.5533	-1.7251	-0.3015	0.202	-2.1727	0.5812	-2.4493	0.5781	-1.9551	1.0506	8.4172	2.9746
0.976	1.7127	1.6318	-0.8423	2.0421	1.1874	-1.7313	1.9551	0.9511	-2.1882	1.7064	0.5004	-1.7841	-0.317	0.0777	-2.3778	0.5937	-2.4773	0.5968	-2.0173	1.0786	8.5664	3.0461
0.8548	1.6505	1.5479	-0.9045	2.0701	1.1159	-1.7531	1.9675	0.9014	-2.2504	1.7282	0.4414	-1.8525	-0.3202	-0.0839	-2.5519	0.6092	-2.5146	0.6496	-2.0794	1.1221	8.6814	3.1207
0.7491	1.5977	1.4733	-0.9729	2.0639	1.0817	-1.7406	1.9893	0.8952	-2.2442	1.7437	0.4165	-1.8836	-0.3108	-0.1958	-2.6762	0.5968	-2.5208	0.6621	-2.0732	1.1438	8.7871	3.2015
0.631	1.5479	1.4174	-0.9884	2.0639	1.0444	-1.7406	2.0079	0.8921	-2.1975	1.7904	0.4041	-1.8929	-0.2953	-0.3202	-2.8192	0.5875	-2.5146	0.7149	-2.0577	1.1998	8.8679	3.2668
0.516	1.4951	1.3428	-1.0195	2.1012	1.0257	-1.7158	2.0079	0.8796	-2.2007	1.8525	0.4072	-1.8929	-0.2922	-0.4258	-2.928	0.5781	-2.4897	0.7522	-2.0297	1.2464	8.927	3.36
0.4662	1.4858	1.3024	-1.0102	2.1167	1.0133	-1.6629	2.0577	0.8952	-2.1571	1.8898	0.4227	-1.8587	-0.286	-0.5004	-3.0057	0.5533	-2.4555	0.8175	-2.0111	1.2775	8.9674	3.4346
0.4041	1.4609	1.262	-0.9729	2.1696	1.0102	-1.607	2.1292	0.9263	-2.095	1.9924	0.4756	-1.8028	-0.2642	-0.5719	-3.1114	0.5315	-2.4027	0.8579	-1.9551	1.3397	8.9922	3.4999
0.3077	1.4329	1.2247	-0.9667	2.1882	1.0351	-1.5759	2.1727	0.9884	-2.0266	2.0484	0.516	-1.7375	-0.2673	-0.6185	-3.1642	0.5222	-2.3592	0.9232	-1.9023	1.3956	8.9922	3.5559
0.2362	1.4143	1.178	-0.9542	2.1975	1.0413	-1.5199	2.2286	1.0164	-1.9551	2.1261	0.5564	-1.6909	-0.2642	-0.6776	-3.2264	0.5004	-2.3188	0.9822	-1.8556	1.4329	8.9736	3.618
0.1616	1.3645	1.1532	-0.9263	2.238	1.0848	-1.4422	2.2753	1.0879	-1.8525	2.1758	0.6185	-1.5914	-0.2424	-0.7336	-3.2544	0.5004	-2.2255	1.0226	-1.7748	1.4547	8.9238	3.6864
0.115	1.349	1.1438	-0.8859	2.2659	1.1097	-1.3521	2.3499	1.1501	-1.7437	2.2784	0.7118	-1.5106	-0.2456	-0.7677	-3.3259	0.4911	-2.1385	1.0848	-1.7095	1.5044	8.843	3.6957
0.028	1.321	1.0941	-0.8859	2.2597	1.119	-1.3148	2.3903	1.1936	-1.6505	2.3157	0.7709	-1.4267	-0.2456	-0.8144	-3.3321	0.4849	-2.0732	1.1128	-1.6101	1.5262	8.7715	3.7299
-0.0218	1.293	1.0817	-0.805	2.3001	1.1376	-1.1998	2.4431	1.262	-1.5199	2.3747	0.833	-1.3366	-0.2518	-0.8517	-3.36	0.4942	-1.9986	1.1532	-1.5386	1.5231	8.6721	3.7299
-0.1181	1.2309	1.0164	-0.805	2.2846	1.1407	-1.1159	2.4307	1.3024	-1.4236	2.3903	0.9076	-1.2495	-0.2704	-0.9263	-3.3818	0.5222	-1.9271	1.1687	-1.4609	1.5262	8.5975	3.7361
-0.1772	1.2029	0.9698	-0.7211	2.3032	1.178	-1.004	2.4369	1.3521	-1.2806	2.4276	0.9729	-1.1159	-0.258	-0.9636	-3.4098	0.5253	-1.7997	1.1874	-1.3676	1.4982	8.5011	3.7206
-0.258	1.1501	0.92	-0.6838	2.2815	1.1998	-0.9045	2.4649	1.4267	-1.1687	2.4555	1.0444	-1.0257	-0.286	-1.0413	-3.4657	0.5595	-1.7158	1.178	-1.3179	1.4795	8.4545	3.7237
-0.3357	1.0848	0.8827	-0.6154	2.2255	1.1936	-0.8082	2.4369	1.4516	-1.0133	2.4307	1.1097	-0.9045	-0.2984	-1.1128	-3.4999	0.5719	-1.6256	1.1687	-1.2278	1.4516	8.4079	3.6802
-0.3916	1.0599	0.8548	-0.5408	2.2348	1.2309	-0.659	2.4338	1.5044	-0.8703	2.4462	1.1749	-0.774	-0.2891	-1.2184	-3.6025	0.5968	-1.4951	1.1749	-1.1283	1.4205	8.3675	3.6398
-0.46	0.9946	0.7988	-0.4693	2.1882	1.2433	-0.5439	2.4058	1.5666	-0.7118	2.4431	1.2402	-0.6652	-0.2984	-1.2899	-3.6833	0.6154	-1.3863	1.147	-1.0319	1.3552	8.355	3.5807
-0.5035	0.9387	0.7709	-0.3823	2.1447	1.2682	-0.4103	2.3747	1.6039	-0.5688	2.4182	1.3024	-0.5222	-0.3233	-1.3863	-3.7766	0.6496	-1.2868	1.0755	-0.92	1.2993	8.3364	3.5186
-0.5844	0.9014	0.7242	-0.2922	2.1012	1.2837	-0.2642	2.3405	1.6505	-0.3823	2.3934	1.3956	-0.3699	-0.3388	-1.4671	-3.9164	0.6745	-1.1594	1.0351	-0.8175	1.2216	8.3333	3.4782
-0.6185	0.833	0.7056	-0.1772	2.0857	1.3024	-0.1057	2.3219	1.7313	-0.2051	2.3716	1.4702	-0.2083	-0.3575	-1.5572	-4.0749	0.7118	-1.0226	0.9542	-0.7118	1.1749	8.3395	3.416
-0.6154	0.8113	0.6776	-0.0839	2.0608	1.3303	0.0373	2.2721	1.7841	-0.0124	2.3499	1.5417	-0.0373	-0.3668	-1.6225	-4.1682	0.718	-0.861	0.9325	-0.5844	1.1221	8.3426	3.3383
-0.6683	0.718	0.6683	0.0031	2.0204	1.3459	0.1896	2.2255	1.8214	0.1678	2.325	1.5977	0.1088	-0.3916	-1.694	-4.3018	0.7553	-0.718	0.8672	-0.4693	1.0661	8.355	3.2886
-0.6652	0.7118	0.6652	0.143	1.9769	1.3552	0.3264	2.1851	1.8774	0.3388	2.2846	1.7095	0.2735	-0.3761	-1.722	-4.3889	0.7677	-0.5968	0.8361	-0.317	1.0102	8.3613	3.2326
-0.6745	0.6807	0.6465	0.2487	1.952	1.3987	0.4631	2.1509	1.924	0.5098	2.2442	1.7406	0.4103	-0.3885	-1.7375	-4.451	0.7771	-0.4383	0.774	-0.1927	0.9542	8.3675	3.186
-0.6558	0.6403	0.6527	0.3854	1.9209	1.436	0.6527	2.1198	1.9955	0.6963	2.2193	1.8277	0.5812	-0.3885	-1.7935	-4.5163	0.7709	-0.2984	0.7771	-0.0746	0.8983	8.4048	3.1487
-0.6248	0.6341	0.6994	0.4973	1.9054	1.4889	0.7957	2.0825	2.0484	0.8672	2.1634	1.8929	0.7273	-0.3823	-1.8028	-4.5194	0.7677	-0.1181	0.7367	0.0746	0.861	8.439	3.1238
-0.6341	0.5781	0.7056	0.5937	1.8432	1.492	0.9138	2.0111	2.0577	1.0009	2.1074	1.9085	0.8454	-0.4103	-1.809	-4.5194	0.7926	-0.0311	0.69	0.1523	0.774	8.4576	3.0772
-0.5999	0.6061	0.7398	0.69	1.8277	1.5417	1.0755	1.9862	2.1229	1.1905	2.0577	1.98	0.9791	-0.3979	-1.7904	-4.535	0.7988	0.1212	0.6714	0.2704	0.7398	8.47	3.0461
-0.5937	0.5906	0.7398	0.7864	1.781	1.5666	1.1936	1.8929	2.1323	1.2961	2.0048	2.0048	1.1034	-0.4072	-1.8028	-4.5256	0.8019	0.2611	0.6434	0.4041	0.6714	8.5136	3.0275
-0.575	0.5471	0.8113	0.9169	1.7282	1.6163	1.3334	1.8774	2.1634	1.4795	1.9271	2.0452	1.2402	-0.4103	-1.8183	-4.479	0.8019	0.401	0.5844	0.5191	0.6527	8.5291	2.9964
-0.5595	0.5315	0.8299	0.9853	1.6629	1.6318	1.4205	1.8152	2.2007	1.5697	1.8929	2.0608	1.3459	-0.4041	-1.8246	-4.4821	0.8019	0.5004	0.5812	0.6061	0.5937	8.5757	2.9715
-0.5502	0.5191	0.8548	1.0475	1.6256	1.666	1.5355	1.7531	2.2162	1.6691	1.8214	2.0763	1.4329	-0.4041	-1.8308	-4.5039	0.7957	0.6217	0.5564	0.718	0.5595	8.6223	2.9653
-0.5346	0.4973	0.8734	1.1221	1.579	1.6754	1.6194	1.7033	2.2442	1.7935	1.7593	2.0608	1.5355	-0.3948	-1.8214	-4.4697	0.7802	0.7336	0.5439	0.8175	0.5098	8.6721	2.9653
-0.5222	0.4787	0.8983	1.1563	1.5355	1.694	1.7002	1.6287	2.2566	1.8525	1.6971	2.0825	1.6008	-0.3854	-1.8401	-4.479	0.7646	0.8299	0.4942	0.9014	0.4693	8.7467	2.9964
-0.4942	0.488	0.9263	1.1905	1.4826	1.7375	1.7562	1.5883	2.2846	1.9396	1.6412	2.1136	1.6878	-0.3792	-1.8556	-4.4852	0.7491	0.9325	0.5066	1.004	0.46	8.812	2.9684
-0.4818	0.4787	0.9636	1.2371	1.4516	1.7717	1.8339	1.5417	2.3094	2.0173	1.5604	2.095	1.7313	-0.3761	-1.8681	-4.4821	0.7367	1.0288	0.4725	1.0972	0.4507	8.8897	2.9964
-0.4662	0.4942	0.9978	1.2868	1.4329	1.7904	1.9023	1.4889	2.3312	2.095	1.5293	2.1043	1.7997	-0.3699	-1.8619	-4.4883	0.7118	1.0848	0.4476	1.1594	0.4352	8.9891	2.9746
-0.4352	0.5066	1.0382	1.3459	1.4018	1.837	1.9302	1.4578	2.3499	2.1385	1.492	2.1354	1.8525	-0.3637	-1.8525	-4.4759	0.6994	1.1407	0.4538	1.2216	0.4165	9.0824	2.9933
-0.3823	0.5284	1.0879	1.377	1.3428	1.8525	1.9644	1.3956	2.3685	2.1913	1.4329	2.1292	1.8898	-0.3481	-1.8743	-4.4759	0.7025	1.2029	0.401	1.3024	0.4258	9.1632	2.987
-0.3326	0.5906	1.119	1.4391	1.3459	1.9147	1.9924	1.3645	2.4245	2.2597	1.4143	2.1602	1.9458	-0.3326	-1.8556	-4.4479	0.6683	1.2495	0.4165	1.3801	0.4476	9.2347	2.9808
-0.2953	0.6217	1.1874	1.492	1.3334	1.924	2.039	1.3024	2.4182	2.2721	1.3583	2.1665	1.98	-0.3264	-1.8246	-4.42	0.6403	1.2744	0.401	1.3925	0.4383	9.2875	2.9777
-0.2424	0.6465	1.2122	1.5293	1.2899	1.9396	2.0732	1.2744	2.4307	2.3032	1.349	2.1478	2.0079	-0.3202	-1.8059	-4.4231	0.6061	1.3086	0.3948	1.436	0.4507	9.3404	2.9591
-0.2083	0.6807	1.234	1.5666	1.2682	1.9396	2.0794	1.234	2.4307	2.3157	1.3117	2.154	2.0017	-0.2984	-1.7655	-4.4075	0.5688	1.321	0.3637	1.4578	0.4258	9.3777	2.9435
-0.1585	0.7149	1.2589	1.6381	1.234	1.9302	2.0794	1.1501	2.3996	2.3094	1.2651	2.154	1.9924	-0.2766	-1.7593	-4.4075	0.5502	1.3179	0.3885	1.4764	0.4476	9.3745	2.9373
-0.143	0.7522	1.2713	1.6443	1.1936	1.9147	2.0794	1.0692	2.3716	2.2753	1.2029	2.1012	1.9924	-0.2766	-1.7779	-4.451	0.5439	1.2837	0.3543	1.436	0.4414	9.3745	2.9062
-0.1212	0.7646	1.2682	1.6691	1.1314	1.8929	2.0484	0.9884	2.3281	2.2473	1.1407	2.0484	1.9738	-0.2704	-1.781	-4.479	0.5253	1.2495	0.317	1.408	0.4072	9.359	2.9
-0.0839	0.7771	1.2837	1.6723	1.091	1.8774	2.0204	0.9356	2.269	2.2069	1.0475	1.9924	1.896	-0.2891	-1.7562	-4.5225	0.5377	1.1563	0.3108	1.3272	0.3948	9.3155	2.8907
-0.0528	0.8548	1.2837	1.7095	1.0568	1.8587	2.039	0.8827	2.2535	2.1851	1.0257	1.9489	1.8929	-0.2673	-1.7655	-4.5723	0.5253	1.1065	0.3295	1.3241	0.401	9.2906	2.8379
0.0155	0.889	1.3272	1.7406	1.0319	1.8463	2.0515	0.8641	2.2224	2.1634	0.9853	1.9178	1.8556	-0.2549	-1.7251	-4.5816	0.516	1.0568	0.345	1.2589	0.4289	9.2533	2.8099
0.0311	0.9263	1.3521	1.7779	1.0009	1.8401	2.0142	0.7802	2.1665	2.1292	0.9636	1.9178	1.8246	-0.2766	-1.6878	-4.6127	0.5439	0.9605	0.3575	1.206	0.4476	9.2067	2.7664
0.115	1.004	1.3987	1.8246	1.0257	1.8401	2.0452	0.7771	2.1509	2.0825	0.9263	1.9023	1.7997	-0.2829	-1.6567	-4.6375	0.5502	0.8827	0.3854	1.1407	0.4352	9.1974	2.726
0.1958	1.0817	1.4329	1.8992	1.0506	1.8681	2.0421	0.7584	2.1385	2.0577	0.9449	1.9054	1.781	-0.2984	-1.6163	-4.6655	0.5688	0.833	0.4445	1.0506	0.4756	9.1756	2.6855
0.3015	1.1811	1.5137	1.9396	1.1034	1.8774	2.0608	0.8019	2.1602	2.0701	0.9698	1.9644	1.7779	-0.2984	-1.5759	-4.6438	0.5812	0.774	0.5129	1.0133	0.5284	9.157	2.6451
0.4227	1.3055	1.6194	2.0142	1.1843	1.9427	2.0825	0.8796	2.2069	2.0639	1.0351	2.0266	1.8121	-0.3077	-1.4982	-4.6002	0.5968	0.7273	0.5781	0.976	0.5937	9.1445	2.6265
0.5471	1.4298	1.7064	2.0546	1.2806	2.0017	2.1012	0.9449	2.2411	2.0421	1.1221	2.095	1.865	-0.3077	-1.4236	-4.5319	0.5906	0.6931	0.6496	0.8765	0.6807	9.1321	2.5923
0.6807	1.5728	1.8214	2.1043	1.3987	2.0888	2.1074	1.063	2.325	2.0639	1.2309	2.2317	1.924	-0.3015	-1.3366	-4.4479	0.5937	0.6154	0.746	0.8486	0.7771	9.1228	2.5954
0.833	1.7033	1.952	2.1447	1.5386	2.1851	2.1105	1.1811	2.4151	2.0857	1.3645	2.3747	1.9862	-0.2984	-1.2247	-4.3454	0.5937	0.6092	0.8703	0.7677	0.8734	9.0855	2.5674
0.9605	1.8277	2.0452	2.1913	1.6785	2.3032	2.1105	1.2868	2.5146	2.1043	1.4889	2.5301	2.0608	-0.2922	-1.1252	-4.2179	0.5875	0.5688	0.9418	0.6931	0.9884	9.0637	2.555
1.1128	1.9675	2.1665	2.2348	1.8059	2.4058	2.1229	1.4391	2.6451	2.1167	1.6691	2.7291	2.1571	-0.3015	-1.0226	-4.0749	0.5875	0.5439	1.0475	0.6434	1.091	9.042	2.5457
1.2402	2.0546	2.3063	2.2753	1.9489	2.5115	2.1167	1.6163	2.7695	2.1385	1.8712	2.9	2.2473	-0.2891	-0.9169	-3.9537	0.5875	0.5191	1.1283	0.5719	1.2216	9.0233	2.5177
1.3428	2.1727	2.4338	2.2659	2.0763	2.6172	2.1043	1.7468	2.8783	2.1634	2.0577	3.0896	2.3592	-0.2922	-0.8392	-3.8605	0.5781	0.4973	1.2402	0.5129	1.3614	9.014	2.5053
1.4267	2.2628	2.5115	2.2721	2.21	2.7135	2.0732	1.9209	3.0057	2.1571	2.2628	3.3041	2.4866	-0.2984	-0.7522	-3.7703	0.5781	0.4849	1.3552	0.4787	1.5137	9.0047	2.4928
1.5044	2.3312	2.583	2.2286	2.3281	2.813	2.0328	2.0825	3.1207	2.1634	2.4586	3.4937	2.5799	-0.286	-0.69	-3.7206	0.5812	0.4631	1.4205	0.432	1.6536	9.0078	2.5115
1.5572	2.4213	2.6638	2.1789	2.4431	2.8689	1.9831	2.2317	3.2575	2.1509	2.6762	3.6864	2.67	-0.2891	-0.6341	-3.6647	0.5812	0.4693	1.5293	0.3792	1.809	9.0233	2.5115
1.5728	2.468	2.6887	2.0888	2.5674	2.9125	1.8898	2.3685	3.3663	2.1198	2.8596	3.8636	2.7726	-0.3046	-0.6185	-3.6802	0.5999	0.4662	1.6163	0.3512	1.9365	9.0575	2.4959
1.6008	2.4711	2.7228	2.0142	2.6545	2.9435	1.809	2.5022	3.444	2.1198	3.0461	4.0345	2.8379	-0.2984	-0.5875	-3.7455	0.6154	0.4414	1.7033	0.3077	2.0732	9.1103	2.5115
1.5759	2.4991	2.7197	1.9365	2.7135	2.9964	1.722	2.6203	3.5217	2.0888	3.2233	4.1931	2.928	-0.3139	-0.5968	-3.7859	0.6248	0.4507	1.781	0.286	2.21	9.1787	2.5115
1.5386	2.468	2.7166	1.8277	2.7881	2.9995	1.5945	2.7073	3.5994	2.0515	3.3538	4.3236	2.9902	-0.3233	-0.6279	-3.904	0.6341	0.46	1.8432	0.2487	2.3312	9.2595	2.5208
1.4671	2.44	2.6638	1.7033	2.8316	2.9746	1.4889	2.7974	3.6211	2.0017	3.5061	4.4262	3.0492	-0.3481	-0.6652	-4.0439	0.6869	0.4725	1.9023	0.202	2.44	9.3124	2.5177
1.464	2.4027	2.6358	1.6132	2.8814	2.9591	1.377	2.872	3.674	1.9644	3.646	4.5474	3.1362	-0.3419	-0.6807	-4.134	0.6869	0.5035	1.9489	0.202	2.5426	9.3652	2.5022
1.3583	2.3001	2.5488	1.4795	2.8596	2.9093	1.2153	2.9249	3.6895	1.8992	3.7175	4.6189	3.1487	-0.3699	-0.7802	-4.3018	0.7336	0.4973	1.9893	0.1585	2.6327	9.4212	2.4866
1.2744	2.238	2.4742	1.349	2.8907	2.8907	1.1003	2.9466	3.6957	1.8308	3.8014	4.6873	3.1984	-0.3792	-0.8486	-4.4075	0.7584	0.5408	2.0048	0.171	2.7104	9.4491	2.4742
1.178	2.1447	2.3685	1.2402	2.8441	2.8068	0.9791	2.9622	3.6988	1.7655	3.8916	4.7308	3.2481	-0.3916	-0.9232	-4.5225	0.7802	0.5564	2.0142	0.1616	2.7601	9.4771	2.44
1.0661	2.0328	2.2597	1.1097	2.7943	2.7322	0.833	2.9497	3.6398	1.6691	3.9289	4.7557	3.2637	-0.4134	-1.0071	-4.6531	0.8237	0.5844	1.9986	0.143	2.7881	9.4585	2.4027
0.9138	1.9147	2.1136	0.9356	2.726	2.6141	0.6714	2.9342	3.618	1.5945	3.963	4.7588	3.2637	-0.4383	-1.1221	-4.8054	0.8641	0.5812	1.952	0.1181	2.8316	9.4585	2.4027
0.7864	1.7841	1.9458	0.7615	2.6203	2.4928	0.4849	2.8969	3.5372	1.4826	3.9755	4.7494	3.2513	-0.4476	-1.234	-4.9235	0.889	0.5875	1.9365	0.0839	2.813	9.415	2.3778
0.5564	1.6256	1.75	0.5626	2.5146	2.3499	0.2953	2.8099	3.4377	1.3459	3.9382	4.6873	3.1891	-0.4662	-1.3739	-5.11	0.9356	0.5657	1.8712	0.0155	2.7881	9.387	2.3716
0.401	1.4951	1.5697	0.3668	2.4027	2.21	0.0901	2.7322	3.3414	1.2278	3.9351	4.6842	3.1735	-0.4725	-1.4951	-5.2716	0.9636	0.5688	1.7904	-0.0559	2.7633	9.2999	2.3499
0.2051	1.2899	1.3583	0.1181	2.2286	2.0452	-0.143	2.5985	3.1829	1.0537	3.8791	4.5847	3.1021	-0.5098	-1.6567	-5.4581	1.0071	0.5284	1.6754	-0.115	2.698	9.2595	2.3312
-0.0249	1.1128	1.1376	-0.0964	2.0608	1.837	-0.3792	2.4959	3.0399	0.8952	3.8636	4.5039	3.0212	-0.5377	-1.781	-5.6322	1.0475	0.5035	1.5386	-0.2051	2.642	9.1632	2.3126
-0.2518	0.9263	0.9138	-0.3419	1.9054	1.6412	-0.6123	2.3592	2.9031	0.6745	3.7828	4.3889	2.9156	-0.5626	-1.9365	-5.7876	1.091	0.4725	1.3925	-0.2797	2.5768	9.073	2.2939
-0.4693	0.7584	0.6963	-0.5595	1.7127	1.4267	-0.8299	2.238	2.7322	0.5129	3.7299	4.2832	2.8161	-0.5657	-2.1105	-5.9865	1.1128	0.4725	1.2837	-0.3419	2.5115	8.9922	2.2908
-0.7025	0.5564	0.4693	-0.7864	1.5199	1.2184	-1.0755	2.0794	2.5395	0.2984	3.6274	4.1589	2.6949	-0.5875	-2.2442	-6.1109	1.1532	0.4289	1.1034	-0.4476	2.4245	8.8803	2.2659
-0.889	0.3823	0.2362	-1.0351	1.3148	1.0102	-1.3179	1.9458	2.3467	0.087	3.5403	4.0221	2.5923	-0.5968	-2.3716	-6.201	1.1718	0.4134	0.9605	-0.5004	2.3343	8.7653	2.2317
-1.1252	0.1958	0.0062	-1.2589	1.1003	0.7864	-1.5697	1.7717	2.1323	-0.1181	3.4688	3.8791	2.4369	-0.6154	-2.527	-6.3502	1.2122	0.3948	0.8237	-0.603	2.2442	8.6286	2.238
-1.3179	-0.0186	-0.2176	-1.4951	0.8921	0.5471	-1.7935	1.6163	1.9054	-0.3637	3.36	3.6895	2.2721	-0.6154	-2.6389	-6.4248	1.2153	0.3854	0.6683	-0.6776	2.1851	8.4856	2.2131
-1.5168	-0.1616	-0.432	-1.6847	0.6838	0.3264	-2.0515	1.464	1.7002	-0.5564	3.2388	3.503	2.0825	-0.6248	-2.7664	-6.4745	1.2247	0.3637	0.516	-0.746	2.1136	8.3084	2.1696
-1.7064	-0.3357	-0.603	-1.8992	0.5098	0.1305	-2.2535	1.3055	1.4982	-0.7833	3.1145	3.3134	1.9054	-0.6185	-2.9	-6.5212	1.2309	0.3761	0.4072	-0.8175	2.0266	8.1437	2.1447
-1.8867	-0.5222	-0.8237	-2.067	0.2829	-0.0808	-2.4959	1.1252	1.2153	-1.0133	2.9902	3.0958	1.7158	-0.6185	-3.0275	-6.5585	1.2371	0.3388	0.2549	-0.8827	1.9365	7.9541	2.1136
-2.039	-0.6776	-0.9884	-2.2628	0.0901	-0.2953	-2.7042	0.9573	0.9791	-1.2433	2.8658	2.8752	1.5137	-0.6185	-3.1238	-6.5616	1.2278	0.3264	0.1212	-0.9573	1.8712	7.7396	2.0763
-2.1727	-0.8268	-1.1345	-2.4431	-0.0901	-0.4818	-2.9	0.7802	0.7242	-1.4764	2.7291	2.6389	1.2868	-0.5999	-3.2046	-6.5771	1.1936	0.3295	0.0186	-1.0164	1.7997	7.5593	2.0235
-2.3188	-0.976	-1.2899	-2.5705	-0.2704	-0.6652	-3.0896	0.6341	0.5066	-1.6878	2.5954	2.3965	1.0755	-0.575	-3.2699	-6.574	1.1532	0.3108	-0.1057	-1.0848	1.7375	7.3542	1.9738
-2.4213	-1.1283	-1.4516	-2.726	-0.4507	-0.861	-3.245	0.4507	0.2704	-1.9178	2.4276	2.1416	0.8486	-0.5626	-3.3725	-6.5802	1.1252	0.2953	-0.202	-1.1376	1.6132	7.1615	1.9333
-2.5768	-1.2495	-1.579	-2.8347	-0.6185	-1.0568	-3.4067	0.2922	0.0155	-2.1261	2.2908	1.9023	0.6185	-0.5408	-3.4129	-6.5864	1.0692	0.2953	-0.3264	-1.2091	1.5386	6.9781	1.9147
-2.6762	-1.3801	-1.7127	-2.9497	-0.7988	-1.1998	-3.5869	0.1026	-0.2114	-2.3063	2.1012	1.6256	0.4196	-0.5035	-3.4782	-6.5709	1.0071	0.3295	-0.4569	-1.2216	1.4205	6.8195	1.8867
-2.8068	-1.4951	-1.8339	-3.0927	-0.9449	-1.3645	-3.6957	-0.0559	-0.4196	-2.4959	1.9551	1.3676	0.1989	-0.4756	-3.5683	-6.602	0.9449	0.3264	-0.5564	-1.2495	1.2899	6.6735	1.8619
-2.9156	-1.6287	-1.952	-3.1611	-1.1128	-1.5355	-3.8107	-0.2269	-0.6558	-2.6358	1.7655	1.1532	0.0124	-0.4289	-3.618	-6.6455	0.8548	0.3077	-0.7056	-1.2744	1.1563	6.5616	1.8556
-3.0026	-1.7158	-2.039	-3.2481	-1.2433	-1.6598	-3.9164	-0.373	-0.8579	-2.7726	1.6008	0.9045	-0.1616	-0.3792	-3.6833	-6.7232	0.7398	0.3264	-0.7988	-1.2806	1.0195	6.4963	1.8681
-3.1114	-1.8432	-2.1292	-3.3352	-1.377	-1.7966	-3.9941	-0.5315	-1.0257	-2.9093	1.4112	0.6683	-0.3419	-0.3264	-3.7486	-6.8227	0.6527	0.3512	-0.9356	-1.3086	0.8827	6.4372	1.8867
-3.186	-1.9769	-2.2193	-3.4036	-1.5199	-1.8929	-4.0656	-0.6931	-1.2091	-2.9995	1.2682	0.46	-0.488	-0.2766	-3.8201	-6.9035	0.5315	0.3699	-1.0724	-1.2993	0.7304	6.3968	1.8867
-3.2886	-2.095	-2.3001	-3.4875	-1.6567	-2.0452	-4.1495	-0.833	-1.3863	-3.1207	1.0537	0.2362	-0.6403	-0.2083	-3.8884	-7.0247	0.4103	0.4134	-1.2216	-1.293	0.5875	6.372	1.924
-3.3165	-2.2007	-2.3778	-3.5092	-1.7779	-2.1229	-4.1651	-0.9667	-1.5231	-3.1549	0.8952	0.0466	-0.746	-0.143	-3.9071	-7.1242	0.2704	0.4631	-1.3334	-1.2464	0.4414	6.3502	1.9458
-3.4098	-2.2721	-2.4493	-3.6025	-1.9023	-2.2069	-4.2179	-1.0879	-1.6474	-3.2388	0.7056	-0.1523	-0.889	-0.0808	-3.9662	-7.2671	0.143	0.5129	-1.4547	-1.2682	0.2829	6.3595	2.0204
-3.4688	-2.3903	-2.4928	-3.6274	-1.9955	-2.2939	-4.2304	-1.1998	-1.7686	-3.273	0.5595	-0.2984	-0.9542	-0.0124	-4.0159	-7.3635	0.0031	0.575	-1.5386	-1.2309	0.1741	6.3533	2.067
-3.5061	-2.4742	-2.5674	-3.674	-2.0919	-2.3405	-4.2521	-1.2961	-1.8619	-3.2699	0.4289	-0.4538	-1.0009	0.0653	-4.047	-7.5034	-0.1492	0.6714	-1.6101	-1.1811	0.0497	6.3813	2.1323
-3.531	-2.555	-2.5892	-3.7113	-2.2038	-2.3716	-4.2677	-1.3956	-1.9209	-3.2823	0.2953	-0.575	-1.0444	0.1492	-4.0594	-7.6184	-0.2984	0.7802	-1.7158	-1.1345	-0.0591	6.4217	2.1882
-3.5372	-2.6141	-2.6265	-3.7393	-2.2348	-2.4027	-4.2739	-1.4671	-1.98	-3.2823	0.171	-0.6869	-1.0724	0.2083	-4.106	-7.78	-0.4289	0.8859	-1.7748	-1.0413	-0.1865	6.4745	2.2535
-3.5496	-2.6514	-2.6389	-3.7641	-2.3001	-2.4089	-4.2583	-1.5013	-2.0111	-3.2171	0.1026	-0.774	-1.063	0.286	-4.162	-7.9137	-0.5657	1.0102	-1.8277	-0.976	-0.2456	6.5491	2.3157
-3.5434	-2.6887	-2.6358	-3.7797	-2.3405	-2.4027	-4.2304	-1.5697	-2.0235	-3.2046	0.0062	-0.861	-1.0444	0.3326	-4.162	-8.0131	-0.6745	1.119	-1.865	-0.8796	-0.3357	6.6237	2.3872
-3.5372	-2.726	-2.6607	-3.7859	-2.3996	-2.4058	-4.2179	-1.6287	-2.039	-3.1642	-0.1026	-0.9449	-1.0319	0.3668	-4.2179	-8.1312	-0.7398	1.2433	-1.9365	-0.7833	-0.4507	6.6797	2.4493
-3.5186	-2.7788	-2.6451	-3.8045	-2.412	-2.4027	-4.1868	-1.6878	-2.0732	-3.0896	-0.1989	-1.0319	-1.0133	0.401	-4.2459	-8.2276	-0.805	1.377	-1.9675	-0.7087	-0.5346	6.7387	2.5177
-3.4875	-2.7664	-2.6203	-3.8263	-2.4213	-2.3716	-4.1402	-1.7064	-2.067	-3.0648	-0.3077	-1.0879	-0.9978	0.4383	-4.2521	-8.2804	-0.8672	1.4795	-2.0266	-0.5937	-0.631	6.7947	2.5799
-3.4844	-2.813	-2.6358	-3.8294	-2.4493	-2.3747	-4.1216	-1.7624	-2.1043	-3.0057	-0.4041	-1.147	-0.9698	0.4569	-4.2645	-8.3364	-0.8921	1.5666	-2.0825	-0.4942	-0.7242	6.8351	2.6451
-3.4564	-2.8223	-2.6296	-3.8636	-2.4866	-2.3685	-4.1247	-1.8308	-2.1136	-2.9622	-0.5284	-1.2526	-0.9946	0.4445	-4.2583	-8.3644	-0.9045	1.6505	-2.1602	-0.4258	-0.8237	6.86	2.698
-3.4409	-2.8658	-2.6451	-3.8853	-2.5208	-2.3747	-4.1185	-1.8805	-2.1354	-2.928	-0.659	-1.3086	-1.0009	0.4507	-4.2428	-8.355	-0.9045	1.6816	-2.2193	-0.3606	-0.9418	6.8786	2.7539
-3.3911	-2.8472	-2.5954	-3.8978	-2.5301	-2.3281	-4.0874	-1.9333	-2.1229	-2.872	-0.7615	-1.3739	-0.9853	0.4507	-4.2272	-8.3737	-0.9076	1.7344	-2.2815	-0.286	-1.063	6.9128	2.8037
-3.388	-2.872	-2.583	-3.9133	-2.5519	-2.3032	-4.0687	-1.9831	-2.1292	-2.8689	-0.9169	-1.4547	-1.0257	0.4538	-4.1962	-8.3581	-0.9014	1.7468	-2.3467	-0.2456	-1.1967	6.9252	2.8534
-3.3383	-2.8347	-2.555	-3.9506	-2.5457	-2.3126	-4.0656	-2.0608	-2.1634	-2.8441	-1.0444	-1.5355	-1.0661	0.4445	-4.1589	-8.2991	-0.8921	1.7313	-2.4276	-0.1927	-1.3334	6.9252	2.9062
-3.2979	-2.8658	-2.5363	-3.9693	-2.5768	-2.2753	-4.0563	-2.1478	-2.1665	-2.8254	-1.1811	-1.6101	-1.0848	0.4538	-4.1122	-8.2121	-0.8859	1.7158	-2.5426	-0.1523	-1.5168	6.9283	2.9808
-3.245	-2.8565	-2.5115	-3.963	-2.583	-2.2411	-4.019	-2.2007	-2.1665	-2.7633	-1.3397	-1.6723	-1.0817	0.4383	-4.0345	-8.1064	-0.8796	1.694	-2.6141	-0.087	-1.6443	6.9004	3.0554
-3.1767	-2.8379	-2.4711	-3.9693	-2.5923	-2.2224	-3.9972	-2.2597	-2.1851	-2.7415	-1.464	-1.7064	-1.1376	0.4352	-3.9693	-7.9883	-0.8796	1.6225	-2.6824	-0.0746	-1.7997	6.891	3.1083
-3.1021	-2.8596	-2.4245	-3.9444	-2.6016	-2.1509	-3.963	-2.3157	-2.1229	-2.7011	-1.5945	-1.7468	-1.1283	0.4445	-3.8605	-7.8235	-0.889	1.5572	-2.7943	-0.0311	-1.9769	6.8413	3.186
-3.0275	-2.8379	-2.3903	-3.9226	-2.5892	-2.1074	-3.9289	-2.3623	-2.1012	-2.6824	-1.7313	-1.7748	-1.1283	0.4414	-3.761	-7.6681	-0.9107	1.4951	-2.8876	-0.0311	-2.1167	6.7916	3.2544
-2.9715	-2.8503	-2.3374	-3.8791	-2.5923	-2.0515	-3.876	-2.4276	-2.0484	-2.6141	-1.8308	-1.7841	-1.1314	0.4507	-3.6211	-7.4909	-0.9356	1.4516	-2.9777	0.0124	-2.2908	6.7232	3.3134
-2.8907	-2.8565	-2.2877	-3.8387	-2.6078	-1.9644	-3.8138	-2.4928	-2.0266	-2.5674	-1.9582	-1.7717	-1.1128	0.4818	-3.5155	-7.3511	-0.9542	1.3707	-3.0616	0.0622	-2.4618	6.6548	3.3383
-2.8161	-2.8534	-2.2411	-3.7983	-2.6172	-1.8929	-3.7144	-2.5146	-1.9302	-2.4555	-2.0328	-1.7127	-1.063	0.5098	-3.3725	-7.2019	-1.0071	1.321	-3.1456	0.0995	-2.5674	6.5926	3.3569
-2.7539	-2.8503	-2.1758	-3.6802	-2.6234	-1.8028	-3.6211	-2.5519	-1.8556	-2.4089	-2.1198	-1.6754	-1.0164	0.5191	-3.2357	-7.0869	-1.0288	1.2713	-3.2388	0.1492	-2.726	6.5336	3.3787
-2.6949	-2.8596	-2.1385	-3.6087	-2.6576	-1.7282	-3.5279	-2.5985	-1.7686	-2.297	-2.1665	-1.6101	-0.9542	0.5377	-3.1207	-6.9719	-1.0692	1.2247	-3.3134	0.1896	-2.8503	6.4932	3.3787
-2.6327	-2.8907	-2.1198	-3.5559	-2.7104	-1.6536	-3.4533	-2.6327	-1.7064	-2.2131	-2.2411	-1.5604	-0.9045	0.5377	-2.9902	-6.9066	-1.0972	1.178	-3.4191	0.2424	-2.987	6.4652	3.4067
-2.5985	-2.9125	-2.039	-3.4346	-2.7291	-1.5883	-3.3383	-2.6607	-1.6163	-2.1074	-2.2908	-1.4982	-0.8299	0.5657	-2.8938	-6.804	-1.1438	1.1532	-3.4937	0.3015	-3.1083	6.4434	3.4253
-2.5674	-2.9404	-2.039	-3.36	-2.757	-1.5137	-3.2544	-2.7228	-1.5293	-2.0608	-2.3872	-1.4267	-0.7926	0.5875	-2.7695	-6.7512	-1.1718	1.1407	-3.6398	0.3388	-3.2575	6.4434	3.4409
-2.527	-2.9622	-2.0079	-3.2886	-2.7974	-1.4391	-3.1549	-2.7726	-1.4547	-1.9644	-2.4182	-1.3521	-0.7304	0.6154	-2.6762	-6.6579	-1.2247	1.1065	-3.7237	0.4103	-3.3694	6.4279	3.4471
-2.5053	-2.9622	-1.9706	-3.214	-2.8099	-1.3863	-3.0523	-2.7664	-1.3397	-1.8743	-2.4338	-1.262	-0.6807	0.6496	-2.5705	-6.5958	-1.2806	1.0724	-3.8418	0.4196	-3.4813	6.4372	3.444
-2.5022	-3.0026	-1.9613	-3.1767	-2.8752	-1.3148	-2.9808	-2.8596	-1.2806	-1.7997	-2.5053	-1.206	-0.6185	0.6807	-2.4897	-6.5585	-1.3303	1.0351	-3.963	0.4538	-3.6305	6.4652	3.4346
-2.4773	-3.0119	-1.9769	-3.1052	-2.9218	-1.2806	-2.9093	-2.9187	-1.2216	-1.7375	-2.5363	-1.1376	-0.5812	0.6807	-2.44	-6.4932	-1.3832	0.9915	-4.0749	0.4942	-3.7548	6.5025	3.444
-2.468	-3.0306	-1.9582	-3.0616	-2.9404	-1.2278	-2.8254	-2.9529	-1.1376	-1.6691	-2.5705	-1.0537	-0.5439	0.7242	-2.4213	-6.5025	-1.436	0.9542	-4.1962	0.5284	-3.8698	6.5771	3.4502
-2.4555	-3.0181	-1.9271	-3.0337	-2.9777	-1.1749	-2.7664	-2.9964	-1.0848	-1.6225	-2.6203	-0.9946	-0.5253	0.7429	-2.3716	-6.459	-1.4826	0.8921	-4.3205	0.5315	-4.019	6.6455	3.4564
-2.4555	-3.0306	-1.9302	-3.0119	-2.9933	-1.1128	-2.7322	-3.0212	-0.9915	-1.5821	-2.6451	-0.9263	-0.4849	0.7584	-2.3716	-6.4901	-1.5168	0.8641	-4.4417	0.5377	-4.1682	6.7574	3.4626
-2.4089	-3.0181	-1.9147	-2.9435	-3.0026	-1.0444	-2.6669	-3.0337	-0.9045	-1.5044	-2.6514	-0.8113	-0.4134	0.7771	-2.3436	-6.4901	-1.5666	0.8392	-4.5288	0.5688	-4.2645	6.86	3.4471
-2.3685	-2.9746	-1.8494	-2.8783	-3.0057	-0.948	-2.583	-2.9933	-0.7646	-1.4453	-2.6451	-0.7118	-0.3699	0.805	-2.325	-6.5305	-1.6163	0.8144	-4.6313	0.5937	-4.3391	6.9905	3.4533
-2.3312	-2.9373	-1.8183	-2.8534	-2.987	-0.889	-2.5301	-3.0088	-0.6963	-1.3707	-2.642	-0.6185	-0.3108	0.8237	-2.3343	-6.5833	-1.6505	0.7802	-4.7121	0.603	-4.4542	7.1304	3.4315
-2.2939	-2.9093	-1.7779	-2.7881	-2.9746	-0.8144	-2.4493	-2.987	-0.5937	-1.3241	-2.6234	-0.5346	-0.2518	0.8517	-2.3126	-6.6144	-1.6878	0.7833	-4.793	0.6061	-4.5194	7.2454	3.388
-2.2255	-2.8379	-1.7064	-2.7197	-2.9466	-0.6994	-2.3467	-2.956	-0.4631	-1.2216	-2.5923	-0.3948	-0.171	0.8672	-2.2939	-6.6766	-1.7189	0.7864	-4.8365	0.6341	-4.6158	7.3635	3.3507
-2.1944	-2.7757	-1.6443	-2.6731	-2.9156	-0.6123	-2.2659	-2.8969	-0.3699	-1.1625	-2.5643	-0.3015	-0.115	0.861	-2.3126	-6.7449	-1.7127	0.7709	-4.8986	0.631	-4.6655	7.4785	3.3072
-2.095	-2.698	-1.5572	-2.5923	-2.8627	-0.5222	-2.1602	-2.8783	-0.2487	-1.0755	-2.5457	-0.1958	-0.0093	0.8796	-2.2815	-6.7636	-1.7375	0.7771	-4.9297	0.6714	-4.7059	7.5469	3.2513
-2.0577	-2.6296	-1.4889	-2.5643	-2.8192	-0.4258	-2.1136	-2.8503	-0.1461	-1.0164	-2.5084	-0.1088	0.0653	0.8734	-2.269	-6.8444	-1.7375	0.774	-4.9546	0.6527	-4.7619	7.6308	3.2108
-2.0142	-2.5395	-1.4453	-2.5395	-2.785	-0.3699	-2.0484	-2.8099	-0.0932	-0.9667	-2.4928	-0.0466	0.1057	0.8517	-2.297	-6.919	-1.694	0.7677	-4.9888	0.6652	-4.8023	7.7085	3.13
-1.9738	-2.4618	-1.3614	-2.4991	-2.7322	-0.2829	-1.9613	-2.7664	0.0093	-0.9232	-2.468	0.0218	0.1616	0.8423	-2.2473	-6.9532	-1.6909	0.7802	-4.9701	0.6341	-4.8178	7.7676	3.043
-1.8898	-2.3778	-1.2961	-2.4835	-2.6887	-0.2393	-1.9365	-2.7539	0.0435	-0.8765	-2.4804	0.0591	0.1523	0.8144	-2.2411	-7.006	-1.635	0.7584	-4.9857	0.6185	-4.8334	7.808	2.9684
-1.8401	-2.3063	-1.2278	-2.4835	-2.6607	-0.1647	-1.8681	-2.7228	0.1057	-0.8454	-2.4711	0.0932	0.1772	0.7926	-2.238	-7.0651	-1.5821	0.7677	-5.0043	0.5968	-4.8893	7.8639	2.8596
-1.8152	-2.2504	-1.1843	-2.4649	-2.6016	-0.1337	-1.8463	-2.7104	0.0995	-0.8454	-2.4835	0.0995	0.1772	0.7646	-2.2286	-7.1459	-1.5355	0.7584	-4.995	0.5688	-4.88	7.9137	2.7695
-1.7624	-2.1851	-1.1128	-2.4586	-2.5705	-0.0995	-1.8059	-2.7073	0.1337	-0.8299	-2.5177	0.1026	0.171	0.746	-2.21	-7.2174	-1.4982	0.7429	-4.9888	0.5004	-4.8986	7.951	2.6327
-1.7251	-2.1509	-1.1065	-2.4649	-2.5519	-0.0932	-1.7779	-2.7291	0.0995	-0.8392	-2.5892	0.0435	0.1461	0.718	-2.1851	-7.2982	-1.4267	0.7118	-4.9919	0.4352	-4.9111	7.9603	2.5177
-1.7033	-2.1292	-1.0786	-2.4649	-2.5519	-0.1243	-1.7717	-2.7757	0.0746	-0.8765	-2.6451	-0.0093	0.0901	0.6807	-2.1416	-7.3511	-1.3583	0.6403	-4.9857	0.3481	-4.9359	7.9634	2.3965
-1.694	-2.0732	-1.0599	-2.4649	-2.5426	-0.1368	-1.7935	-2.7974	0.0186	-0.9263	-2.7166	-0.0559	0.0466	0.6465	-2.1136	-7.4039	-1.2961	0.5906	-4.9701	0.2456	-4.9608	7.9385	2.2535
-1.6598	-2.0515	-1.0319	-2.4524	-2.5084	-0.143	-1.7468	-2.813	-0.0373	-0.9636	-2.7633	-0.1212	0.0062	0.6217	-2.0732	-7.4536	-1.2371	0.5346	-4.9453	0.1585	-4.9328	7.9012	2.1323
-1.6412	-2.0266	-1.0164	-2.4276	-2.4928	-0.1803	-1.7437	-2.8658	-0.087	-0.9884	-2.8379	-0.1958	-0.0591	0.5875	-2.0048	-7.4692	-1.1718	0.4911	-4.8986	0.0808	-4.9173	7.8484	1.9769
-1.6163	-1.9955	-1.0009	-2.4338	-2.4897	-0.1989	-1.7344	-2.8876	-0.1368	-1.0195	-2.9125	-0.2611	-0.115	0.5595	-1.952	-7.5313	-1.1065	0.4289	-4.8831	0	-4.9204	7.8111	1.8556
-1.6008	-1.9613	-0.9915	-2.4089	-2.4711	-0.2362	-1.722	-2.9187	-0.2083	-1.0506	-2.9933	-0.3326	-0.1554	0.5222	-1.9178	-7.55	-1.0382	0.3854	-4.8023	-0.0932	-4.88	7.7427	1.7127
-1.5914	-1.9147	-0.9853	-2.4058	-2.4649	-0.2611	-1.7251	-2.928	-0.2642	-1.0941	-3.015	-0.3916	-0.1896	0.4818	-1.865	-7.5531	-0.9667	0.3543	-4.7308	-0.1585	-4.8178	7.6495	1.5666
-1.6225	-1.8992	-1.0133	-2.4213	-2.44	-0.3326	-1.7158	-2.9466	-0.3326	-1.1097	-3.0772	-0.4662	-0.2611	0.4383	-1.8277	-7.5189	-0.8827	0.2829	-4.6593	-0.2766	-4.7743	7.5531	1.4298
-1.6412	-1.8836	-1.0288	-2.4213	-2.4493	-0.3699	-1.7313	-2.956	-0.4041	-1.1532	-3.1083	-0.5315	-0.3046	0.401	-1.7935	-7.578	-0.7957	0.23	-4.5878	-0.3575	-4.7152	7.4599	1.3148
-1.6318	-1.837	-1.0288	-2.4213	-2.4338	-0.4196	-1.7189	-2.9715	-0.4693	-1.1749	-3.1145	-0.6061	-0.3264	0.3606	-1.7779	-7.5655	-0.7087	0.1958	-4.4759	-0.4289	-4.6034	7.348	1.178
-1.6785	-1.837	-1.0444	-2.4431	-2.4027	-0.4476	-1.7562	-2.9653	-0.5191	-1.2184	-3.1549	-0.6621	-0.3668	0.3233	-1.7251	-7.5655	-0.6341	0.1337	-4.3796	-0.5408	-4.5256	7.2236	1.0444
-1.722	-1.7935	-1.0692	-2.4649	-2.384	-0.4973	-1.75	-2.9373	-0.5719	-1.2682	-3.1456	-0.7118	-0.3979	0.2704	-1.6971	-7.5749	-0.5315	0.1057	-4.2863	-0.6092	-4.4106	7.0931	0.9263
-1.7624	-1.7624	-1.0817	-2.5115	-2.3374	-0.5222	-1.8246	-2.9093	-0.631	-1.2993	-3.1238	-0.7646	-0.4383	0.2207	-1.7095	-7.5655	-0.46	0.0591	-4.1962	-0.7087	-4.2956	6.9843	0.7833
-1.8152	-1.7531	-1.1283	-2.5643	-2.2939	-0.5875	-1.8619	-2.9031	-0.7087	-1.3583	-3.0741	-0.8113	-0.4911	0.1803	-1.7002	-7.5749	-0.373	0.0031	-4.047	-0.8268	-4.1527	6.8631	0.6341
-1.8183	-1.6971	-1.1407	-2.5954	-2.2162	-0.5999	-1.8805	-2.8285	-0.7367	-1.3707	-3.0275	-0.8237	-0.46	0.1461	-1.7095	-7.5718	-0.2953	-0.028	-3.9071	-0.9169	-4.0128	6.7512	0.5284
-1.8681	-1.6785	-1.1283	-2.642	-2.1665	-0.603	-1.9178	-2.7539	-0.7522	-1.3987	-2.9404	-0.8268	-0.4538	0.0995	-1.7313	-7.6028	-0.2176	-0.0684	-3.7952	-0.9915	-3.8511	6.6517	0.3761
-1.896	-1.6163	-1.1345	-2.6918	-2.0825	-0.6092	-1.9489	-2.6669	-0.7429	-1.4018	-2.8223	-0.7864	-0.4725	0.0777	-1.7344	-7.6495	-0.1647	-0.087	-3.5963	-1.1003	-3.6678	6.5616	0.2238
-1.896	-1.5448	-1.1252	-2.6762	-1.9582	-0.6185	-1.9613	-2.5332	-0.7242	-1.3894	-2.6918	-0.7491	-0.4227	0.0466	-1.7189	-7.6681	-0.1026	-0.1274	-3.4191	-1.2091	-3.444	6.4714	0.0559
-1.9209	-1.5044	-1.1345	-2.7166	-1.8556	-0.6061	-1.9924	-2.4338	-0.7149	-1.408	-2.5799	-0.7242	-0.4134	0.0249	-1.75	-7.7303	-0.0373	-0.143	-3.2513	-1.262	-3.2264	6.3906	-0.0715
-1.9489	-1.4267	-1.1097	-2.7415	-1.7748	-0.5906	-1.9955	-2.2908	-0.6558	-1.3894	-2.4058	-0.6465	-0.3077	0	-1.7282	-7.7769	0	-0.1461	-3.0616	-1.3179	-2.9964	6.2974	-0.2456
-1.9613	-1.3272	-1.1003	-2.7446	-1.6474	-0.5844	-2.0173	-2.1509	-0.6434	-1.3894	-2.2255	-0.5844	-0.2642	-0.0249	-1.7686	-7.836	0.0342	-0.1305	-2.8938	-1.4236	-2.8068	6.1979	-0.401
-1.98	-1.2868	-1.1003	-2.7695	-1.5417	-0.5626	-2.0421	-2.0048	-0.5968	-1.3552	-2.0484	-0.488	-0.1772	-0.0342	-1.7841	-7.9479	0.0653	-0.115	-2.7073	-1.4982	-2.555	6.1109	-0.5253
-2.0173	-1.234	-1.1003	-2.7788	-1.4236	-0.5719	-2.0484	-1.8898	-0.5564	-1.3583	-1.8587	-0.3948	-0.0932	-0.0466	-1.7873	-8.0535	0.0932	-0.0715	-2.4897	-1.5635	-2.325	6.0021	-0.6807
-2.0515	-1.1967	-1.1656	-2.8441	-1.3645	-0.5906	-2.1012	-1.7748	-0.5564	-1.3583	-1.7251	-0.3543	-0.0404	-0.0653	-1.8059	-8.1685	0.1274	-0.0497	-2.3312	-1.6505	-2.1229	5.9057	-0.8423
-2.1602	-1.1656	-1.2278	-2.8845	-1.3148	-0.6465	-2.1696	-1.7002	-0.5439	-1.3801	-1.5572	-0.2642	0.0218	-0.0777	-1.8152	-8.2867	0.1678	-0.0155	-2.1913	-1.722	-1.9427	5.7752	-0.9978
-2.2348	-1.1625	-1.2899	-2.9497	-1.2589	-0.7242	-2.2131	-1.6008	-0.5377	-1.3925	-1.408	-0.2238	0.0777	-0.0932	-1.7935	-8.3768	0.1989	0.0031	-2.039	-1.7779	-1.7593	5.6291	-1.1252
-2.3312	-1.1438	-1.3645	-3.0088	-1.2216	-0.7677	-2.3032	-1.5293	-0.5626	-1.4298	-1.2775	-0.202	0.115	-0.1368	-1.7904	-8.4794	0.2424	0.0466	-1.9147	-1.8743	-1.579	5.4581	-1.2744
-2.4276	-1.1687	-1.4858	-3.0896	-1.2122	-0.8641	-2.3903	-1.4795	-0.6341	-1.5044	-1.1625	-0.1678	0.1492	-0.1399	-1.7437	-8.5602	0.2766	0.0839	-1.8277	-1.9333	-1.4174	5.2468	-1.4112
-2.5363	-1.1811	-1.5977	-3.1891	-1.2029	-0.9791	-2.4897	-1.408	-0.6683	-1.5728	-1.0817	-0.202	0.1088	-0.171	-1.7375	-8.6192	0.3388	0.1057	-1.7002	-2.0017	-1.293	4.995	-1.5417
-2.6482	-1.1998	-1.7158	-3.2668	-1.2153	-1.1065	-2.6109	-1.3801	-0.746	-1.6505	-0.9946	-0.2083	0.0995	-0.1958	-1.7095	-8.6783	0.3761	0.1212	-1.6412	-2.0639	-1.1594	4.7401	-1.7127
-2.757	-1.2589	-1.8463	-3.3259	-1.2278	-1.234	-2.7135	-1.3645	-0.8175	-1.7375	-0.9076	-0.2362	0.0901	-0.2176	-1.6412	-8.7094	0.4165	0.1523	-1.551	-2.1292	-1.0413	4.4231	-1.8432
-2.8596	-1.2806	-1.9955	-3.4129	-1.2433	-1.3241	-2.8161	-1.3459	-0.9076	-1.8432	-0.8206	-0.2518	0.0684	-0.2331	-1.6008	-8.7715	0.4631	0.1772	-1.4889	-2.1975	-0.9387	4.1185	-1.9675
-2.9218	-1.2868	-2.0763	-3.4688	-1.2464	-1.4547	-2.9373	-1.3428	-0.9822	-1.9209	-0.7522	-0.2984	0.0404	-0.2424	-1.5293	-8.7995	0.4818	0.1989	-1.436	-2.2566	-0.8423	3.7703	-2.1261
-3.0275	-1.3055	-2.1975	-3.5155	-1.262	-1.5728	-3.0368	-1.2744	-1.0568	-1.9986	-0.6558	-0.2984	0.0155	-0.2704	-1.464	-8.8275	0.516	0.23	-1.3645	-2.2815	-0.718	3.416	-2.2908
-3.0803	-1.2961	-2.2939	-3.559	-1.2402	-1.6443	-3.1487	-1.262	-1.1159	-2.1012	-0.5999	-0.3233	-0.0218	-0.2766	-1.4018	-8.8586	0.5439	0.2673	-1.3055	-2.3219	-0.631	3.0243	-2.4151
-3.1207	-1.321	-2.3654	-3.5901	-1.2526	-1.7375	-3.2419	-1.2433	-1.1936	-2.1727	-0.5098	-0.3606	-0.0466	-0.2953	-1.3366	-8.9083	0.5781	0.3233	-1.2557	-2.3654	-0.5191	2.6482	-2.5643
-3.158	-1.3117	-2.4276	-3.6025	-1.2247	-1.8339	-3.2979	-1.1905	-1.2278	-2.238	-0.4103	-0.3512	-0.0404	-0.3108	-1.3148	-8.9549	0.603	0.3885	-1.2371	-2.3903	-0.432	2.2628	-2.7073
-3.1891	-1.3055	-2.5053	-3.6087	-1.2216	-1.8992	-3.3756	-1.1656	-1.2589	-2.2815	-0.3077	-0.3481	-0.0373	-0.3077	-1.2526	-8.9891	0.6123	0.4725	-1.1843	-2.4027	-0.3015	1.865	-2.8503
-3.2046	-1.2993	-2.5332	-3.5994	-1.2278	-1.9582	-3.4036	-1.1034	-1.2806	-2.3032	-0.1896	-0.3139	-0.0031	-0.3202	-1.2091	-9.0202	0.6279	0.5315	-1.1221	-2.4307	-0.1927	1.4795	-2.9466
-3.1984	-1.2961	-2.5674	-3.531	-1.1749	-1.9955	-3.4284	-1.0537	-1.2993	-2.325	-0.0746	-0.3015	0.0528	-0.3388	-1.1811	-9.0482	0.659	0.6279	-1.0444	-2.4058	-0.0777	1.1003	-3.0492
-3.1984	-1.2682	-2.5736	-3.4875	-1.1407	-2.0111	-3.4315	-0.9791	-1.2993	-2.3312	0.0528	-0.2331	0.0901	-0.345	-1.1532	-9.0357	0.6558	0.7304	-1.0009	-2.3934	0.0528	0.7429	-3.1269
-3.1984	-1.2371	-2.5612	-3.4222	-1.1159	-2.0297	-3.4191	-0.9169	-1.293	-2.3063	0.1989	-0.1678	0.1678	-0.345	-1.1407	-9.0326	0.6745	0.8392	-0.948	-2.353	0.2114	0.4072	-3.2108
-3.1735	-1.2153	-2.5643	-3.3196	-1.0475	-2.0452	-3.3973	-0.8548	-1.2589	-2.269	0.3295	-0.0995	0.2424	-0.3388	-1.1283	-9.0295	0.6838	0.9822	-0.8486	-2.2939	0.3543	0.0715	-3.2668
-3.1673	-1.1625	-2.5674	-3.245	-1.0195	-2.067	-3.36	-0.7615	-1.2247	-2.2069	0.4818	-0.0093	0.3575	-0.3481	-1.1501	-9.0016	0.6963	1.147	-0.7646	-2.238	0.4911	-0.2456	-3.3134
-3.1518	-1.147	-2.5457	-3.1362	-0.9884	-2.0421	-3.2792	-0.6621	-1.1905	-2.1447	0.6372	0.0901	0.488	-0.3481	-1.1718	-8.9332	0.6869	1.2868	-0.6652	-2.1447	0.6838	-0.5377	-3.3352
-3.1487	-1.0972	-2.5426	-3.0368	-0.9356	-2.0452	-3.2326	-0.5999	-1.1501	-2.0701	0.7677	0.1616	0.575	-0.3512	-1.1749	-8.8959	0.69	1.436	-0.5781	-2.067	0.7926	-0.7988	-3.3725
-3.1052	-1.0941	-2.5022	-2.872	-0.8952	-2.039	-3.13	-0.5253	-1.1314	-1.9706	0.9418	0.2642	0.7429	-0.3419	-1.1874	-8.8617	0.6683	1.6256	-0.5098	-1.9489	0.9636	-1.0319	-3.3632
-3.1052	-1.0661	-2.4959	-2.7446	-0.9014	-2.0515	-3.0523	-0.4631	-1.1065	-1.9054	1.0817	0.3233	0.8361	-0.3295	-1.2278	-8.843	0.6372	1.7997	-0.4041	-1.8183	1.1314	-1.2464	-3.3414
-3.0554	-1.0537	-2.4742	-2.6141	-0.8548	-2.067	-2.9622	-0.401	-1.063	-1.8059	1.1998	0.4289	0.9636	-0.3077	-1.262	-8.8275	0.5999	1.9893	-0.3139	-1.7095	1.3055	-1.4267	-3.3227
-3.071	-1.0319	-2.4649	-2.4866	-0.8361	-2.0421	-2.8503	-0.3699	-1.0475	-1.7282	1.3086	0.4911	1.0755	-0.2829	-1.2899	-8.7653	0.5688	2.1447	-0.2269	-1.6101	1.4485	-1.5883	-3.2854
-3.0275	-1.0351	-2.4649	-2.3685	-0.8361	-2.0577	-2.7726	-0.3202	-1.0444	-1.6629	1.4267	0.5533	1.1905	-0.2611	-1.3117	-8.7747	0.5191	2.325	-0.1243	-1.4733	1.5852	-1.7064	-3.2388
-3.0275	-1.0879	-2.4649	-2.2659	-0.8454	-2.0888	-2.6918	-0.3264	-1.0568	-1.5945	1.4795	0.5875	1.2837	-0.2456	-1.349	-8.7529	0.4787	2.4711	-0.0932	-1.377	1.6878	-1.8277	-3.2015
-3.0119	-1.0972	-2.4711	-2.1416	-0.8827	-2.1136	-2.6296	-0.2953	-1.0599	-1.5199	1.5821	0.6372	1.3583	-0.2176	-1.3956	-8.7405	0.432	2.6482	-0.0155	-1.2682	1.8214	-1.9333	-3.1456
-3.0275	-1.1594	-2.4835	-2.0608	-0.9169	-2.154	-2.5705	-0.3295	-1.0692	-1.4702	1.6163	0.6652	1.4422	-0.1834	-1.4018	-8.7405	0.3637	2.785	0.0249	-1.1501	1.9489	-2.0048	-3.0648
-3.0399	-1.2216	-2.5208	-1.9924	-0.9636	-2.2038	-2.527	-0.3606	-1.0941	-1.4267	1.6598	0.6931	1.5168	-0.1492	-1.4236	-8.7125	0.2984	2.9062	0.0591	-1.0537	2.0235	-2.0732	-3.0088
-3.0275	-1.2744	-2.5146	-1.8743	-1.0319	-2.2224	-2.4773	-0.3761	-1.1097	-1.3894	1.7064	0.7336	1.6008	-0.1119	-1.4516	-8.6938	0.2145	3.0616	0.1057	-0.9294	2.1385	-2.1136	-2.9529
-3.0461	-1.349	-2.5736	-1.8246	-1.0972	-2.3001	-2.4462	-0.4227	-1.1345	-1.3801	1.7375	0.7646	1.666	-0.0777	-1.5075	-8.7374	0.1585	3.1922	0.1212	-0.8237	2.2224	-2.1509	-2.8845
-3.0803	-1.4764	-2.6047	-1.7904	-1.1874	-2.3405	-2.4182	-0.4631	-1.1843	-1.3428	1.7437	0.7771	1.722	-0.0528	-1.5635	-8.7187	0.1088	3.2917	0.1492	-0.7304	2.2815	-2.1602	-2.7819
-3.0865	-1.5044	-2.6389	-1.7468	-1.2371	-2.384	-2.3934	-0.516	-1.2216	-1.3272	1.7593	0.7957	1.7717	-0.0155	-1.5977	-8.6596	0.0404	3.444	0.1772	-0.6248	2.3872	-2.1851	-2.698
-3.1798	-1.6474	-2.7446	-1.7655	-1.3739	-2.4804	-2.4182	-0.5968	-1.2744	-1.349	1.7344	0.7895	1.8152	-0.0031	-1.6505	-8.6783	0.0031	3.5372	0.1585	-0.5657	2.3778	-2.182	-2.5705
-3.2513	-1.7562	-2.7788	-1.7779	-1.4733	-2.5519	-2.4493	-0.6558	-1.321	-1.3428	1.7313	0.7709	1.8556	0.0311	-1.7127	-8.6845	-0.0404	3.6118	0.1399	-0.4756	2.4524	-2.1913	-2.4493
-3.2979	-1.8494	-2.8441	-1.7841	-1.5759	-2.6389	-2.4804	-0.7429	-1.3801	-1.4018	1.6878	0.7491	1.8587	0.0342	-1.7748	-8.6534	-0.087	3.6833	0.1212	-0.4072	2.468	-2.21	-2.3499
-3.3756	-1.9862	-2.9373	-1.8494	-1.6909	-2.7197	-2.5363	-0.8175	-1.4391	-1.4485	1.6381	0.7367	1.8619	0.0622	-1.8339	-8.6814	-0.1181	3.733	0.0964	-0.3543	2.4649	-2.2255	-2.2473
-3.4409	-2.095	-3.0181	-1.8867	-1.8183	-2.8285	-2.6109	-0.9076	-1.5293	-1.4982	1.5977	0.6807	1.8401	0.0839	-1.9054	-8.7001	-0.1461	3.8076	0.0218	-0.2797	2.44	-2.2628	-2.1478
-3.5248	-2.2131	-3.0989	-1.9365	-1.9551	-2.9187	-2.6731	-1.0195	-1.5914	-1.5697	1.5355	0.6372	1.7873	0.0932	-1.9396	-8.7342	-0.1678	3.8294	-0.0342	-0.2549	2.3996	-2.3157	-2.0577
-3.5745	-2.3561	-3.1735	-1.9924	-2.1043	-3.015	-2.7788	-1.1314	-1.6785	-1.6629	1.4298	0.5502	1.7406	0.0932	-2.0266	-8.784	-0.1803	3.8138	-0.1305	-0.2424	2.3405	-2.3747	-1.9551
-3.6553	-2.4711	-3.2606	-2.0266	-2.2348	-3.1394	-2.8472	-1.262	-1.7562	-1.7624	1.3334	0.4693	1.666	0.0901	-2.0825	-8.8275	-0.202	3.8232	-0.2331	-0.2145	2.2411	-2.4338	-1.8774
-3.6957	-2.583	-3.3227	-2.0732	-2.3374	-3.2326	-2.9404	-1.3583	-1.8463	-1.8401	1.2153	0.4041	1.5914	0.1088	-2.1292	-8.8555	-0.2362	3.7952	-0.3264	-0.1958	2.1882	-2.5301	-1.8121
-3.7237	-2.67	-3.3663	-2.0919	-2.4307	-3.301	-3.0119	-1.4391	-1.9209	-1.9333	1.1625	0.3326	1.5262	0.1243	-2.1665	-8.871	-0.2611	3.8076	-0.4072	-0.1803	2.0888	-2.6358	-1.7593
-3.7455	-2.7508	-3.4253	-2.1136	-2.5395	-3.3942	-3.0648	-1.5231	-1.9706	-2.0079	1.0817	0.2673	1.4485	0.1461	-2.1509	-8.899	-0.2797	3.7548	-0.4787	-0.171	1.9924	-2.7726	-1.7344
-3.7766	-2.8254	-3.4533	-2.1323	-2.6047	-3.4471	-3.1456	-1.5666	-2.0359	-2.0857	1.004	0.2362	1.3987	0.1399	-2.1758	-8.8959	-0.2922	3.7579	-0.5595	-0.1523	1.8619	-2.9156	-1.6754
-3.7579	-2.8689	-3.4657	-2.1416	-2.642	-3.4937	-3.2108	-1.6287	-2.067	-2.1665	0.9449	0.1989	1.3521	0.1492	-2.1571	-8.8461	-0.3139	3.7144	-0.6123	-0.1492	1.8277	-3.0772	-1.6816
-3.7517	-2.8969	-3.4813	-2.1229	-2.6824	-3.4844	-3.2481	-1.6567	-2.0732	-2.2007	0.9045	0.1927	1.3024	0.1616	-2.1478	-8.8275	-0.3077	3.6802	-0.6683	-0.1368	1.7095	-3.2326	-1.6723
-3.7361	-2.9218	-3.4595	-2.1292	-2.698	-3.5186	-3.2886	-1.6598	-2.0888	-2.2442	0.8641	0.1492	1.2775	0.1461	-2.1198	-8.7747	-0.3015	3.6367	-0.7242	-0.115	1.6318	-3.4036	-1.6318
-3.7206	-2.9529	-3.4595	-2.0919	-2.7415	-3.5341	-3.3259	-1.6598	-2.0857	-2.2846	0.8299	0.1865	1.2247	0.1305	-2.1198	-8.7436	-0.2673	3.5994	-0.7957	-0.1181	1.5417	-3.5652	-1.5977
-3.6864	-2.9466	-3.4595	-2.1229	-2.7011	-3.5217	-3.3383	-1.6443	-2.0639	-2.3188	0.8113	0.202	1.2247	0.1057	-2.1043	-8.7156	-0.2518	3.618	-0.8144	-0.0932	1.4671	-3.7113	-1.5852
-3.6709	-2.9529	-3.444	-2.1074	-2.6887	-3.4875	-3.3259	-1.5977	-2.0142	-2.2815	0.8548	0.258	1.2775	0.1057	-2.0919	-8.6472	-0.2269	3.6367	-0.8299	-0.0591	1.4112	-3.8511	-1.5448
-3.5932	-2.928	-3.3942	-2.0732	-2.6576	-3.4657	-3.3041	-1.5417	-1.9955	-2.2877	0.8672	0.286	1.2868	0.087	-2.0701	-8.6068	-0.1896	3.6242	-0.8486	-0.0155	1.3614	-3.9817	-1.5168
-3.559	-2.9125	-3.3569	-2.0452	-2.6327	-3.4377	-3.2948	-1.5013	-1.9085	-2.238	0.8796	0.345	1.3148	0.0777	-2.0825	-8.5695	-0.1523	3.6491	-0.8517	0.0031	1.3117	-4.0905	-1.4702
-3.5061	-2.872	-3.3196	-1.9986	-2.5892	-3.36	-3.2575	-1.4112	-1.7997	-2.1634	0.9387	0.4352	1.3801	0.0777	-2.0763	-8.5104	-0.1461	3.6647	-0.8579	0.0746	1.2651	-4.1744	-1.4049
-3.4377	-2.8472	-3.273	-1.9178	-2.5177	-3.2886	-3.1829	-1.349	-1.7437	-2.1043	0.9667	0.516	1.4391	0.0746	-2.0328	-8.4731	-0.1461	3.7299	-0.8361	0.1243	1.2495	-4.2428	-1.3645
-3.36	-2.785	-3.1984	-1.865	-2.4711	-3.214	-3.0927	-1.2713	-1.6629	-2.039	1.0475	0.6123	1.5013	0.0715	-2.0048	-8.4327	-0.1492	3.7797	-0.833	0.1896	1.206	-4.2863	-1.3366
-3.2886	-2.7601	-3.1331	-1.7997	-2.3965	-3.1487	-3.0181	-1.1905	-1.5541	-1.9551	1.1003	0.6776	1.551	0.0746	-1.9738	-8.4141	-0.1616	3.7921	-0.8299	0.2269	1.178	-4.2987	-1.293
-3.2233	-2.7508	-3.0772	-1.7189	-2.3592	-3.0523	-2.9125	-1.1407	-1.4702	-1.8774	1.1532	0.7367	1.607	0.087	-1.9924	-8.3892	-0.1865	3.8201	-0.8113	0.2704	1.1718	-4.2956	-1.2557
-3.1145	-2.6824	-2.9964	-1.6163	-2.2597	-2.9373	-2.8192	-1.0444	-1.3583	-1.7873	1.206	0.8734	1.6816	0.1026	-1.9706	-8.4017	-0.2176	3.8543	-0.7615	0.317	1.1501	-4.2614	-1.2153
-3.0088	-2.6234	-2.9031	-1.492	-2.1696	-2.8254	-2.6762	-0.9573	-1.2247	-1.6629	1.3024	0.9667	1.7748	0.1274	-1.9458	-8.3923	-0.2704	3.8884	-0.7304	0.4258	1.1594	-4.1962	-1.1687
-2.9125	-2.5705	-2.7912	-1.3707	-2.0701	-2.7197	-2.5208	-0.833	-1.0817	-1.5293	1.3894	1.0661	1.8681	0.1492	-1.9333	-8.4296	-0.317	3.9133	-0.6963	0.4569	1.1252	-4.1247	-1.1407
-2.7943	-2.5301	-2.7104	-1.2216	-1.9893	-2.5923	-2.3996	-0.7584	-0.9605	-1.4049	1.4795	1.1905	1.9644	0.1678	-1.9209	-8.4359	-0.3575	3.9537	-0.6527	0.5502	1.1314	-4.0097	-1.1097
-2.698	-2.4493	-2.6109	-1.0879	-1.865	-2.4586	-2.2504	-0.6527	-0.7957	-1.2495	1.5293	1.3241	2.0608	0.1989	-1.9023	-8.47	-0.401	3.9693	-0.6123	0.631	1.1314	-3.8822	-1.0972
-2.5768	-2.4431	-2.4897	-0.976	-1.7997	-2.3312	-2.067	-0.5595	-0.6994	-1.1034	1.6132	1.4422	2.1665	0.2176	-1.9023	-8.5198	-0.4414	4.0066	-0.5688	0.7118	1.1283	-3.7641	-1.0817
-2.4742	-2.3685	-2.384	-0.805	-1.7375	-2.1944	-1.9116	-0.4756	-0.5253	-0.9356	1.7033	1.5697	2.3032	0.2176	-1.8836	-8.5757	-0.4538	4.0408	-0.5035	0.7864	1.1283	-3.6398	-1.0848
-2.3872	-2.3343	-2.2939	-0.659	-1.6536	-2.0794	-1.7562	-0.3885	-0.3916	-0.7864	1.7655	1.7002	2.412	0.2238	-1.8587	-8.6379	-0.4507	4.0749	-0.4756	0.8983	1.1097	-3.5061	-1.1003
-2.2939	-2.2815	-2.1634	-0.5284	-1.5728	-1.9178	-1.5914	-0.2984	-0.23	-0.5812	1.8556	1.8339	2.5581	0.2207	-1.8277	-8.6721	-0.4569	4.1309	-0.4476	0.976	1.119	-3.3973	-1.119
-2.1758	-2.2442	-2.039	-0.3854	-1.4951	-1.7717	-1.4143	-0.1896	-0.0435	-0.3979	1.9427	1.9955	2.6918	0.2176	-1.7624	-8.669	-0.4569	4.1806	-0.3885	1.0661	1.119	-3.2917	-1.1563
-2.0732	-2.1882	-1.9116	-0.2549	-1.4422	-1.6474	-1.234	-0.1088	0.1026	-0.1989	2.0235	2.1416	2.8347	0.2176	-1.7282	-8.6845	-0.432	4.2086	-0.3388	1.1563	1.1407	-3.2046	-1.1967
-1.9675	-2.1385	-1.7779	-0.0808	-1.3645	-1.4982	-1.0475	0.0093	0.3046	0.0093	2.1198	2.2815	3.0026	0.2145	-1.666	-8.6969	-0.4103	4.2614	-0.286	1.2961	1.1687	-3.1145	-1.234
-1.896	-2.1012	-1.6443	0.0684	-1.3117	-1.3707	-0.9076	0.0591	0.46	0.1927	2.1944	2.4493	3.1362	0.1896	-1.6225	-8.641	-0.3668	4.3236	-0.2549	1.3925	1.1594	-3.0554	-1.2961
-1.7904	-2.0359	-1.5324	0.2051	-1.2526	-1.2371	-0.7025	0.1492	0.6061	0.3916	2.2939	2.5861	3.3196	0.1647	-1.5479	-8.585	-0.3357	4.3609	-0.202	1.4764	1.1874	-3.0337	-1.3707
-1.6816	-1.9862	-1.3707	0.3792	-1.1811	-1.0817	-0.5533	0.2238	0.8019	0.5937	2.3872	2.757	3.4875	0.1492	-1.4422	-8.526	-0.3015	4.4293	-0.1585	1.5728	1.2091	-3.0399	-1.436
-1.5945	-1.9396	-1.2402	0.5129	-1.0972	-0.92	-0.3606	0.3015	0.9325	0.7771	2.4618	2.872	3.6211	0.1399	-1.3676	-8.4731	-0.2735	4.4728	-0.115	1.6381	1.2402	-3.0399	-1.5168
-1.464	-1.8587	-1.1128	0.6527	-1.0288	-0.7677	-0.1803	0.4072	1.1314	0.976	2.5488	3.0585	3.7921	0.1243	-1.2433	-8.4048	-0.2518	4.507	-0.0622	1.7313	1.2837	-3.0772	-1.5945
-1.3925	-1.8059	-0.9791	0.774	-0.9573	-0.6496	-0.0373	0.4973	1.2775	1.178	2.6482	3.2046	3.9289	0.1181	-1.206	-8.355	-0.2331	4.5785	0.0062	1.8028	1.3148	-3.0896	-1.6754
-1.3148	-1.722	-0.8268	0.8548	-0.8734	-0.5035	0.1212	0.575	1.4298	1.3614	2.7508	3.3352	4.1091	0.1026	-1.1407	-8.3115	-0.2145	4.6375	0.0684	1.8929	1.3832	-3.1269	-1.7375
-1.2371	-1.6785	-0.7553	0.948	-0.805	-0.3885	0.2393	0.6527	1.5945	1.5324	2.8379	3.4875	4.249	0.0901	-1.063	-8.2494	-0.1989	4.6562	0.1337	1.9333	1.4298	-3.1549	-1.8059
-1.1687	-1.635	-0.6372	0.9884	-0.7553	-0.2518	0.3916	0.7118	1.7158	1.7002	2.9156	3.618	4.4013	0.0901	-1.0319	-8.24	-0.171	4.6997	0.1678	1.9831	1.492	-3.158	-1.8836
-1.1003	-1.5666	-0.5315	1.063	-0.6341	-0.1274	0.5066	0.805	1.8929	1.865	3.0088	3.7734	4.5474	0.0715	-0.9978	-8.1748	-0.1461	4.765	0.2424	2.067	1.5604	-3.1735	-1.9458
-1.0102	-1.4858	-0.4383	1.0879	-0.5657	0.0218	0.6496	0.8859	2.039	2.0359	3.1052	3.9413	4.6997	0.0559	-0.9698	-8.1468	-0.115	4.8147	0.3264	2.1074	1.6412	-3.1611	-2.0266
-0.9605	-1.4453	-0.3543	1.1656	-0.5471	0.1088	0.7677	0.948	2.2038	2.21	3.2046	4.0936	4.8924	0.0373	-0.9356	-8.0908	-0.0746	4.8831	0.3419	2.1851	1.694	-3.13	-2.067
-0.9232	-1.3552	-0.2362	1.1905	-0.4476	0.2424	0.8952	1.0724	2.3467	2.3716	3.3165	4.2583	5.0603	0.0062	-0.8983	-8.0224	-0.0093	4.9453	0.4041	2.21	1.7748	-3.1021	-2.0825
-0.8454	-1.3086	-0.1647	1.2433	-0.4041	0.3699	0.9978	1.1345	2.5053	2.5674	3.4129	4.4137	5.2188	-0.0155	-0.9076	-7.9914	0.0342	5.0168	0.4445	2.2659	1.865	-3.0368	-2.1354
-0.8019	-1.2153	-0.0591	1.2993	-0.3077	0.4911	1.1407	1.2278	2.6545	2.7384	3.5403	4.5723	5.4053	-0.0528	-0.8672	-7.9043	0.1026	5.0882	0.5004	2.3405	1.9427	-2.9777	-2.1851
-0.746	-1.119	0.0684	1.3521	-0.1958	0.6217	1.2713	1.3148	2.8068	2.9373	3.702	4.7867	5.6291	-0.0622	-0.8454	-7.8422	0.1274	5.1442	0.5781	2.412	2.0732	-2.9062	-2.2411
-0.6558	-1.0195	0.1616	1.4018	-0.0777	0.7771	1.4143	1.4298	2.987	3.1518	3.8543	4.9577	5.8498	-0.0839	-0.8082	-7.7614	0.171	5.2374	0.6496	2.4524	2.182	-2.8254	-2.2753
-0.5595	-0.9107	0.2829	1.4733	0.0186	0.9138	1.5604	1.5666	3.1611	3.3538	4.0003	5.1939	6.0549	-0.1026	-0.7584	-7.6992	0.202	5.312	0.7336	2.5457	2.3126	-2.726	-2.2846
-0.4787	-0.8019	0.4041	1.5635	0.1305	1.0692	1.7158	1.6816	3.3383	3.5403	4.1527	5.3897	6.2632	-0.1088	-0.7118	-7.6246	0.2331	5.4022	0.8268	2.6203	2.4493	-2.6451	-2.297
-0.3885	-0.6807	0.5315	1.6194	0.2393	1.2309	1.8432	1.8028	3.5123	3.7797	4.3267	5.6042	6.4807	-0.1243	-0.6434	-7.5562	0.2487	5.5079	0.9014	2.7415	2.5768	-2.5426	-2.3001
-0.2549	-0.5408	0.6652	1.694	0.4072	1.3801	1.9893	1.9738	3.7082	3.9848	4.5256	5.8187	6.7108	-0.1181	-0.5968	-7.4536	0.2331	5.6322	1.0164	2.8254	2.7477	-2.4182	-2.3063
-0.1274	-0.4134	0.8299	1.7935	0.5222	1.5572	2.154	2.1229	3.8884	4.2148	4.6842	6.0363	6.9532	-0.115	-0.5253	-7.3604	0.23	5.7317	1.119	2.9435	2.9031	-2.3094	-2.3063
0.0062	-0.3108	0.9449	1.8867	0.69	1.722	2.3094	2.2535	4.0998	4.4293	4.8831	6.2694	7.1894	-0.0932	-0.4445	-7.2702	0.1772	5.8809	1.234	3.0803	3.0368	-2.182	-2.2535
0.1399	-0.1492	1.1003	1.9955	0.805	1.9116	2.4804	2.4089	4.2894	4.6655	5.0789	6.518	7.4226	-0.0746	-0.373	-7.2143	0.1337	6.03	1.3459	3.2171	3.2108	-2.0515	-2.2224
0.2829	-0.0155	1.2464	2.0452	0.9605	2.0794	2.6047	2.5612	4.4883	4.8707	5.2747	6.7263	7.6463	-0.0528	-0.286	-7.1832	0.0684	6.1264	1.4298	3.3445	3.3227	-1.9116	-2.1665
0.401	0.087	1.3956	2.1354	1.0817	2.2411	2.7601	2.7384	4.6811	5.1038	5.4519	6.9501	7.8826	-0.0093	-0.2393	-7.1739	0.0031	6.2725	1.5417	3.4875	3.4657	-1.7655	-2.1354
0.5439	0.2176	1.5199	2.2411	1.2247	2.4151	2.9311	2.8814	4.8644	5.3245	5.6446	7.1677	8.1126	0.0186	-0.1461	-7.1894	-0.0684	6.4341	1.6194	3.6553	3.5838	-1.6287	-2.0763
0.6527	0.3264	1.6536	2.3157	1.3707	2.5519	3.0772	3.0399	5.0572	5.5265	5.8156	7.4101	8.355	0.0684	-0.0932	-7.2485	-0.1368	6.5647	1.7282	3.817	3.7082	-1.4733	-2.0359
0.7709	0.46	1.7655	2.4307	1.4889	2.726	3.2202	3.1704	5.2623	5.7285	6.0176	7.6495	8.6099	0.1088	-0.0155	-7.32	-0.2331	6.717	1.8246	4.0035	3.8325	-1.3117	-1.9675
0.8454	0.5222	1.8712	2.4835	1.5852	2.872	3.3569	3.3072	5.4302	5.9213	6.1824	7.8577	8.8275	0.1399	-0.0031	-7.4505	-0.286	6.8475	1.8774	4.1122	3.9382	-1.1501	-1.9271
0.9573	0.6217	1.9738	2.5736	1.6878	3.0088	3.4937	3.4564	5.6104	6.1326	6.344	8.0784	9.0389	0.1834	0.0093	-7.5686	-0.3543	7.006	1.9396	4.2894	4.0812	-1.004	-1.8743
1.0071	0.69	2.0515	2.6793	1.7873	3.1114	3.6242	3.5652	5.7783	6.3191	6.5118	8.2929	9.2627	0.2051	0.0404	-7.7209	-0.4258	7.1615	2.0173	4.4635	4.2148	-0.833	-1.8339
1.063	0.7522	2.1043	2.7384	1.8494	3.2077	3.7424	3.6771	5.9244	6.4807	6.6517	8.47	9.4647	0.2269	0.0373	-7.8826	-0.4725	7.2796	2.0919	4.6375	4.3081	-0.6683	-1.7997
1.1065	0.8082	2.1975	2.8192	1.952	3.329	3.8729	3.7828	6.0673	6.6455	6.8009	8.6565	9.6543	0.2642	0.0311	-8.066	-0.5377	7.435	2.1478	4.7681	4.3889	-0.5284	-1.7468
1.147	0.8175	2.2255	2.8814	1.9986	3.4036	3.9817	3.848	6.2103	6.7854	6.9035	8.8151	9.8221	0.286	0.028	-8.2369	-0.5812	7.5718	2.2038	4.9266	4.507	-0.3948	-1.7158
1.1874	0.833	2.2939	2.9529	2.0328	3.4999	4.0812	3.9475	6.3347	6.9408	7.034	8.9611	9.99	0.3233	0.0435	-8.3954	-0.6496	7.7147	2.2846	5.0882	4.6096	-0.2766	-1.6785
1.2184	0.8703	2.3188	2.9933	2.0857	3.5714	4.162	4.0097	6.4466	7.0651	7.1521	9.0855	10.1423	0.3419	0.0186	-8.5664	-0.69	7.8266	2.3188	5.2188	4.709	-0.2083	-1.6163
1.2309	0.8827	2.3219	3.0492	2.1043	3.6553	4.2272	4.0656	6.5553	7.1646	7.2361	9.216	10.2822	0.3637	0.0249	-8.6628	-0.7522	7.923	2.3809	5.3524	4.7836	-0.1492	-1.5883
1.2868	0.9107	2.3561	3.0927	2.1665	3.702	4.2894	4.134	6.6548	7.2827	7.32	9.3031	10.391	0.401	0.0777	-8.7498	-0.8206	8.0535	2.4182	5.5047	4.88	-0.1212	-1.5293
1.2837	0.92	2.3934	3.1394	2.2224	3.7828	4.3764	4.1713	6.7387	7.3728	7.3821	9.3994	10.5153	0.4289	0.0777	-8.784	-0.8672	8.1343	2.468	5.6508	4.9546	-0.1181	-1.4951
1.3334	0.9325	2.3934	3.1704	2.2504	3.8294	4.4324	4.2086	6.8071	7.4536	7.4505	9.5113	10.6085	0.4756	0.1274	-8.8026	-0.9325	8.2214	2.5146	5.7658	5.0043	-0.1274	-1.4702
1.2993	0.8952	2.3903	3.214	2.2348	3.8574	4.4759	4.2304	6.8506	7.5065	7.4847	9.5548	10.6925	0.4756	0.1274	-8.8586	-0.9542	8.3115	2.5239	5.8684	5.0758	-0.1492	-1.4298
1.3334	0.9045	2.3934	3.2606	2.2659	3.8853	4.5225	4.2397	6.9097	7.5842	7.5096	9.6077	10.7795	0.5004	0.1337	-8.8399	-0.9978	8.3737	2.555	5.9586	5.1162	-0.1616	-1.4267
1.3366	0.889	2.3872	3.2917	2.2566	3.9289	4.5692	4.2677	6.9625	7.6401	7.5811	9.6761	10.8634	0.5408	0.1647	-8.8648	-1.0444	8.4731	2.5457	6.0673	5.1504	-0.1741	-1.4391
1.2868	0.861	2.3592	3.329	2.2597	3.9382	4.5971	4.2801	6.9998	7.6961	7.5935	9.7009	10.9442	0.5471	0.171	-8.8524	-1.0786	8.5446	2.5488	6.1419	5.1784	-0.1834	-1.4329
1.2589	0.8579	2.3157	3.3134	2.2162	3.9164	4.6313	4.2397	6.9874	7.7147	7.5811	9.7196	10.9722	0.5408	0.1678	-8.8648	-1.091	8.5757	2.5705	6.2072	5.1784	-0.1647	-1.3987
1.1967	0.8082	2.2721	3.3041	2.2193	3.8884	4.6189	4.2086	6.975	7.7209	7.5655	9.7133	11.0157	0.5502	0.1337	-8.9052	-1.1034	8.6068	2.555	6.2632	5.1628	-0.1399	-1.4018
1.1314	0.7802	2.2317	3.301	2.2007	3.8822	4.622	4.1775	6.9625	7.7365	7.5624	9.7258	11.0437	0.5688	0.1088	-8.9052	-1.1407	8.6814	2.555	6.316	5.1753	-0.1181	-1.3832
1.0599	0.7211	2.1696	3.2948	2.1509	3.8449	4.6313	4.162	6.9656	7.7365	7.5407	9.6947	11.081	0.575	0.0932	-8.9518	-1.1438	8.7249	2.5301	6.3688	5.1535	-0.0839	-1.3583
0.9915	0.6838	2.0763	3.214	2.1292	3.7828	4.5909	4.0998	6.9128	7.7147	7.5003	9.6636	11.0903	0.5688	0.028	-8.9674	-1.1501	8.7436	2.4711	6.3999	5.1193	-0.0311	-1.3459
0.9138	0.6434	2.0173	3.1829	2.1292	3.7486	4.5598	4.0563	6.8662	7.693	7.4909	9.6201	11.0654	0.5781	0.0155	-8.9953	-1.1656	8.7995	2.4773	6.4186	5.1349	0.0124	-1.3179
0.8672	0.6185	1.9458	3.158	2.095	3.6864	4.5256	4.0252	6.832	7.6899	7.4599	9.5952	11.081	0.5937	-0.0124	-9.042	-1.1843	8.8244	2.4555	6.459	5.0945	0.0684	-1.3024
0.774	0.5657	1.8836	3.1207	2.0608	3.6367	4.4852	3.9537	6.7512	7.6339	7.407	9.5237	11.0219	0.5875	-0.0373	-9.0762	-1.1843	8.8275	2.4338	6.4652	5.0665	0.0995	-1.2682
0.7211	0.5439	1.837	3.0648	2.0328	3.5776	4.4573	3.9351	6.7045	7.5966	7.3666	9.4896	11.0064	0.6123	-0.0808	-9.1259	-1.2091	8.8679	2.4058	6.4901	5.0385	0.1616	-1.2495
0.6372	0.5066	1.7655	3.0399	2.0079	3.5217	4.4355	3.8667	6.6299	7.5593	7.3169	9.4367	10.9908	0.6061	-0.1337	-9.1694	-1.2247	8.8772	2.3685	6.5118	5.0074	0.23	-1.2153
0.5812	0.4787	1.7095	3.0275	1.9986	3.503	4.4479	3.8201	6.5802	7.5655	7.3075	9.4181	10.9691	0.631	-0.1772	-9.2222	-1.2682	8.9021	2.3499	6.5398	4.9608	0.2984	-1.1438
0.5253	0.4538	1.6723	3.0243	1.9862	3.4688	4.3951	3.7703	6.5212	7.5438	7.264	9.3683	10.9287	0.6527	-0.2331	-9.2844	-1.3024	8.9021	2.325	6.546	4.939	0.3699	-1.1128
0.4693	0.4134	1.6101	2.987	1.9831	3.4377	4.3982	3.733	6.4932	7.5034	7.2236	9.3466	10.9287	0.6776	-0.2673	-9.2968	-1.3521	8.899	2.2815	6.5833	4.8862	0.4352	-1.0475
0.4258	0.4165	1.5883	2.9684	1.9458	3.4129	4.3889	3.6988	6.4434	7.4847	7.1894	9.2751	10.9038	0.6838	-0.3357	-9.3435	-1.3987	8.9176	2.2317	6.5709	4.852	0.5191	-0.9791
0.3606	0.3668	1.5541	2.9591	1.9178	3.3818	4.3609	3.6305	6.3937	7.4692	7.1211	9.2378	10.8883	0.7056	-0.4103	-9.3745	-1.4267	8.927	2.1789	6.5895	4.7712	0.603	-0.9107
0.3233	0.3419	1.5199	2.956	1.9147	3.3569	4.3733	3.5807	6.3595	7.4723	7.09	9.2471	10.8634	0.7211	-0.4352	-9.415	-1.4547	8.9611	2.1323	6.5895	4.7432	0.6714	-0.861
0.2518	0.3264	1.5106	2.9497	1.8929	3.3538	4.3827	3.5621	6.3129	7.4567	7.0433	9.2036	10.8385	0.7367	-0.4973	-9.4616	-1.4671	8.9394	2.0763	6.5895	4.7028	0.7304	-0.8082
0.1865	0.286	1.4702	2.9653	1.8525	3.3321	4.3671	3.4844	6.2632	7.4101	6.9874	9.1725	10.7888	0.7242	-0.5595	-9.4896	-1.4578	8.9083	1.98	6.5895	4.6251	0.774	-0.7709
0.1337	0.2922	1.4516	2.9404	1.8401	3.3321	4.3796	3.4502	6.2165	7.3977	6.9346	9.1383	10.7671	0.7242	-0.6341	-9.5144	-1.4547	8.9176	1.9365	6.5771	4.5754	0.8299	-0.7429
0.0964	0.2549	1.4391	2.9435	1.8214	3.3259	4.3423	3.4036	6.1792	7.3386	6.8537	9.0824	10.7266	0.7118	-0.6838	-9.5393	-1.4329	8.8834	1.8463	6.5678	4.4915	0.8579	-0.7087
0.0404	0.2393	1.4298	2.9218	1.7966	3.2792	4.3267	3.3507	6.1015	7.2702	6.7978	9.0202	10.6552	0.6931	-0.7242	-9.6108	-1.4049	8.8492	1.7531	6.5243	4.4075	0.8765	-0.6776
0.0218	0.1927	1.408	2.9062	1.7655	3.2637	4.2801	3.2792	6.0363	7.2174	6.7418	8.9549	10.5619	0.6776	-0.7584	-9.6761	-1.377	8.8151	1.6785	6.4776	4.3236	0.8796	-0.6869
-0.0062	0.1927	1.4018	2.8845	1.7375	3.2388	4.2521	3.2295	5.9772	7.1646	6.6548	8.8803	10.4966	0.6838	-0.8113	-9.7413	-1.3676	8.7809	1.5945	6.4528	4.2583	0.8703	-0.6776
-0.0435	0.1865	1.3801	2.8534	1.7033	3.2077	4.1744	3.1549	5.8902	7.0682	6.5553	8.7902	10.3941	0.6558	-0.8796	-9.8408	-1.3241	8.7032	1.5106	6.3999	4.162	0.8548	-0.6807
-0.0653	0.1741	1.3832	2.8192	1.6785	3.1829	4.1122	3.1052	5.8156	6.9563	6.459	8.6969	10.2573	0.659	-0.9014	-9.9434	-1.3117	8.6534	1.3987	6.344	4.0905	0.8175	-0.6807
-0.0995	0.143	1.3707	2.7912	1.6163	3.1735	4.0781	3.0368	5.7596	6.8786	6.3751	8.6068	10.1734	0.6434	-0.9636	-10.0397	-1.2806	8.5726	1.3148	6.2849	3.991	0.7864	-0.6745
-0.1119	0.1274	1.3739	2.7477	1.6132	3.1394	3.9972	2.9808	5.6664	6.7729	6.2974	8.5229	10.0708	0.6403	-0.9915	-10.1392	-1.2806	8.4949	1.2122	6.2197	3.8947	0.7491	-0.6776
-0.1088	0.1026	1.377	2.7197	1.5945	3.1269	3.9195	2.9093	5.6104	6.6486	6.1886	8.4296	9.9403	0.631	-1.0133	-10.248	-1.2837	8.411	1.1625	6.1326	3.7983	0.7149	-0.6776
-0.0901	0.1119	1.377	2.6949	1.5697	3.1083	3.8511	2.8845	5.5576	6.5709	6.1046	8.3208	9.8284	0.6372	-1.0288	-10.3443	-1.293	8.3457	1.1097	6.0736	3.7299	0.6683	-0.6714
-0.0964	0.1057	1.3863	2.6451	1.5821	3.0989	3.7859	2.8596	5.5079	6.4652	6.0425	8.2587	9.7227	0.6465	-1.0661	-10.4935	-1.2961	8.2711	1.0413	6.0052	3.6833	0.6465	-0.6745
-0.1119	0.1057	1.3676	2.5985	1.5883	3.0772	3.6957	2.8223	5.4488	6.3782	6.0083	8.1312	9.6077	0.6496	-1.0724	-10.5774	-1.3117	8.2183	1.0009	5.9244	3.6367	0.5999	-0.6527
-0.1119	0.0995	1.349	2.5426	1.5324	3.0554	3.5901	2.7601	5.3804	6.2352	5.915	8.0566	9.53	0.6496	-1.0972	-10.7142	-1.3179	8.153	0.9511	5.8684	3.5807	0.5626	-0.6683
-0.1492	0.0964	1.3583	2.4835	1.5324	3.0337	3.4844	2.7353	5.3151	6.1202	5.8498	7.9634	9.3994	0.6558	-1.1532	-10.8634	-1.321	8.1064	0.9014	5.7876	3.5434	0.516	-0.6807
-0.1772	0.0839	1.3583	2.4245	1.5324	3.0181	3.4129	2.7197	5.2623	6.0394	5.7752	7.8888	9.3124	0.6652	-1.2433	-11.0033	-1.3334	8.0597	0.8423	5.7223	3.503	0.4725	-0.6931
-0.1865	0.0653	1.3148	2.353	1.4826	2.987	3.3041	2.6514	5.2064	5.9275	5.7006	7.7614	9.2098	0.6807	-1.2713	-11.1183	-1.3521	8.01	0.7895	5.6477	3.4657	0.4196	-0.7149
-0.2269	0.0466	1.2806	2.2628	1.4329	2.9156	3.1642	2.5985	5.1038	5.8031	5.598	7.6495	9.073	0.6621	-1.3397	-11.2271	-1.349	7.9261	0.7056	5.5545	3.4222	0.345	-0.7522
-0.2735	0.0062	1.234	2.1665	1.3739	2.8689	3.043	2.5332	5.0354	5.6819	5.5327	7.5345	8.986	0.6714	-1.4205	-11.3576	-1.3459	7.8701	0.5875	5.4892	3.3663	0.2984	-0.7677
-0.3233	-0.0559	1.2029	2.0794	1.3241	2.8254	2.9404	2.4835	4.9608	5.5452	5.4364	7.4132	8.8555	0.6683	-1.4982	-11.4851	-1.3521	7.7987	0.5066	5.3804	3.329	0.2487	-0.8113
-0.3761	-0.0715	1.1656	2.0266	1.2961	2.7881	2.8472	2.4089	4.8862	5.4395	5.3556	7.3044	8.7436	0.6745	-1.6225	-11.5845	-1.3552	7.7241	0.4134	5.2996	3.2699	0.2238	-0.8268
-0.3979	-0.0901	1.1656	1.9675	1.2371	2.7601	2.7322	2.3716	4.8396	5.3338	5.2561	7.1925	8.6379	0.6931	-1.7127	-11.6529	-1.3801	7.6557	0.3264	5.2499	3.214	0.1958	-0.8548
-0.4445	-0.1461	1.1221	1.9054	1.2091	2.7228	2.6576	2.3126	4.7619	5.2405	5.1877	7.1117	8.5353	0.6931	-1.8246	-11.7213	-1.3801	7.5873	0.2176	5.1691	3.1394	0.1803	-0.8952
-0.4725	-0.1461	1.119	1.8898	1.1749	2.7166	2.5799	2.2628	4.7152	5.1442	5.0882	7.0154	8.4327	0.7056	-1.9116	-11.7648	-1.3987	7.5034	0.1461	5.0603	3.1176	0.1958	-0.9294
-0.4725	-0.1492	1.1314	1.8525	1.1811	2.7322	2.4991	2.2566	4.6966	5.0882	5.0447	6.9377	8.3457	0.6994	-1.9769	-11.7462	-1.4112	7.4319	0.0995	5.0199	3.0648	0.2051	-0.9418
-0.4507	-0.1616	1.1656	1.8556	1.1749	2.7664	2.4773	2.238	4.6873	5.0199	4.9795	6.8724	8.268	0.7118	-2.067	-11.7555	-1.4205	7.3573	0.0715	4.9515	3.0306	0.2424	-0.976
-0.4538	-0.1461	1.1905	1.8339	1.1843	2.7757	2.4431	2.2628	4.6873	4.9732	4.9328	6.8227	8.1685	0.7118	-2.1447	-11.6933	-1.4267	7.264	0.0218	4.8924	2.9746	0.3077	-1.0009
-0.4258	-0.1212	1.2433	1.8743	1.2278	2.8254	2.4213	2.2597	4.6935	4.9328	4.8738	6.7667	8.097	0.6994	-2.1913	-11.6529	-1.4174	7.1894	0.0218	4.8023	2.9435	0.3792	-0.9915
-0.3948	-0.0715	1.3148	1.9209	1.2775	2.928	2.4773	2.2877	4.7339	4.9422	4.8582	6.7512	8.0939	0.7056	-2.2721	-11.6063	-1.4174	7.1397	-0.0031	4.7774	2.9187	0.4725	-1.0195
-0.3512	-0.0311	1.3583	1.9427	1.3117	2.9684	2.4524	2.3001	4.7557	4.9484	4.8551	6.7418	8.0629	0.6776	-2.3126	-11.5659	-1.3863	7.0806	-0.0186	4.6966	2.8876	0.575	-1.0475
-0.2984	0.0186	1.4671	1.9986	1.377	3.0679	2.5146	2.3872	4.8271	4.9981	4.8831	6.7636	8.0597	0.6745	-2.3623	-11.5783	-1.349	7.034	0.0031	4.6717	2.9093	0.6963	-1.0568
-0.2735	0.0746	1.5448	2.0639	1.4453	3.1456	2.555	2.4338	4.9049	5.0168	4.8893	6.7822	8.0784	0.6434	-2.4058	-11.597	-1.3055	6.9998	0.0311	4.6034	2.9	0.805	-1.0661
-0.2207	0.1337	1.6412	2.1229	1.5355	3.2326	2.6265	2.5084	4.9701	5.0851	4.9235	6.8227	8.0908	0.6248	-2.4493	-11.6467	-1.2557	6.9843	0.0746	4.5629	2.9497	0.9138	-1.1003
-0.1834	0.1927	1.6971	2.1727	1.6287	3.3259	2.7042	2.5985	5.0696	5.1411	5.0043	6.8817	8.1219	0.603	-2.4835	-11.6747	-1.206	6.9967	0.115	4.5194	3.0088	1.004	-1.1252
-0.1554	0.2518	1.7841	2.2411	1.7033	3.4222	2.7384	2.6607	5.1318	5.2001	5.0603	6.9346	8.1685	0.5719	-2.5084	-11.7399	-1.147	6.9998	0.1678	4.4883	3.0741	1.0879	-1.1438
-0.1212	0.3419	1.8743	2.2877	1.8121	3.5123	2.8192	2.785	5.253	5.2685	5.1722	7.0029	8.2369	0.5439	-2.5643	-11.8767	-1.0941	7.0185	0.2456	4.479	3.1549	1.1749	-1.147
-0.0653	0.4383	1.9769	2.3405	1.9458	3.6242	2.9062	2.9156	5.34	5.368	5.2841	7.0869	8.2867	0.5377	-2.555	-11.942	-1.0599	7.0744	0.3481	4.4915	3.2544	1.2402	-1.147
-0.0186	0.5408	2.0857	2.3996	2.0701	3.7175	2.9746	3.0275	5.4519	5.4239	5.3991	7.1583	8.3581	0.5098	-2.5923	-12.0477	-1.0226	7.0744	0.4383	4.4946	3.3942	1.321	-1.1438
0.0155	0.6434	2.1882	2.4773	2.1913	3.8232	3.0554	3.1673	5.5452	5.5172	5.5514	7.2361	8.4172	0.5066	-2.5799	-12.1658	-1.0071	7.1055	0.5346	4.5039	3.5403	1.3832	-1.119
0.0932	0.7677	2.2877	2.5643	2.3716	3.9413	3.1331	3.3227	5.6633	5.5887	5.7037	7.3231	8.47	0.4973	-2.6234	-12.2715	-0.9791	7.1428	0.6838	4.5505	3.6957	1.4547	-1.091
0.1616	0.9232	2.3996	2.6514	2.5301	4.0656	3.2264	3.475	5.7658	5.6353	5.8591	7.407	8.5104	0.4911	-2.6203	-12.3927	-0.9822	7.1646	0.8579	4.5723	3.8543	1.5541	-1.0692
0.2549	1.0972	2.5363	2.785	2.7477	4.1993	3.3476	3.6647	5.9368	5.7285	6.0425	7.4847	8.5664	0.4942	-2.6141	-12.5046	-0.976	7.1956	1.004	4.5971	4.0656	1.6194	-1.0257
0.3481	1.2744	2.7011	2.9031	2.9435	4.3547	3.4595	3.848	6.0456	5.8218	6.2538	7.6028	8.6255	0.5066	-2.5985	-12.6134	-0.9946	7.1894	1.1967	4.6624	4.2801	1.7313	-0.9791
0.4725	1.4826	2.872	3.0275	3.1549	4.4915	3.5496	4.0283	6.1824	5.9057	6.4714	7.7209	8.6938	0.5066	-2.5457	-12.6973	-1.0226	7.2143	1.3707	4.7152	4.4977	1.8277	-0.9573
0.6123	1.6723	3.0337	3.1984	3.3787	4.6655	3.6833	4.2366	6.3657	5.9959	6.689	7.8422	8.7467	0.516	-2.5426	-12.775	-1.0413	7.2578	1.5728	4.7712	4.7339	1.9271	-0.9138
0.7553	1.896	3.2575	3.3445	3.6522	4.8489	3.8263	4.4883	6.5616	6.1171	6.9346	8.0069	8.8492	0.5502	-2.4866	-12.7812	-1.0817	7.2889	1.7841	4.8707	5.0043	2.0079	-0.8641
0.9294	2.1602	3.4502	3.4999	3.876	5.0665	3.963	4.6997	6.717	6.229	7.177	8.1592	8.9425	0.5471	-2.4182	-12.7626	-1.1034	7.292	1.9862	4.9204	5.2219	2.0794	-0.8454
1.0724	2.353	3.6678	3.6398	4.0905	5.2499	4.0936	4.9049	6.9004	6.344	7.4101	8.3333	9.0295	0.5595	-2.3716	-12.7532	-1.1252	7.292	2.1571	4.995	5.4488	2.1323	-0.7926
1.2309	2.6109	3.8916	3.8045	4.3454	5.483	4.2583	5.1473	7.1211	6.4807	7.6805	8.5229	9.1352	0.575	-2.325	-12.7004	-1.1438	7.32	2.3685	5.0634	5.7068	2.1634	-0.7429
1.3894	2.8285	4.0843	3.9257	4.5536	5.6944	4.392	5.368	7.3075	6.6144	7.9323	8.7094	9.2533	0.5781	-2.297	-12.6258	-1.1656	7.3448	2.5488	5.1286	5.9306	2.1913	-0.6994
1.5293	3.0461	4.2894	4.0905	4.7805	5.9057	4.5598	5.5731	7.5096	6.7356	8.1654	8.8959	9.3528	0.5875	-2.2224	-12.5108	-1.178	7.3355	2.7508	5.2032	6.1544	2.2131	-0.6558
1.6816	3.273	4.4666	4.2552	4.9857	6.1202	4.7215	5.7907	7.7209	6.891	8.4079	9.0824	9.502	0.603	-2.1696	-12.402	-1.1936	7.3604	2.9373	5.2841	6.3813	2.2193	-0.6279
1.809	3.4564	4.65	4.3827	5.1628	6.3005	4.8707	5.999	7.8764	7.0216	8.6192	9.2533	9.5859	0.5999	-2.2007	-12.315	-1.206	7.348	3.0741	5.3183	6.5864	2.2442	-0.6061
1.9365	3.618	4.8023	4.507	5.3431	6.487	5.0168	6.1637	8.0597	7.1459	8.8492	9.4398	9.6792	0.6154	-2.1758	-12.2124	-1.2216	7.3573	3.2326	5.3493	6.7543	2.269	-0.5657
2.0577	3.7766	4.9608	4.6002	5.4892	6.6641	5.1597	6.3626	8.2618	7.2858	9.0233	9.5983	9.7911	0.6185	-2.1789	-12.085	-1.2464	7.3448	3.3818	5.3742	6.9408	2.3063	-0.5222
2.1696	3.9475	5.1007	4.7028	5.6477	6.8351	5.2778	6.5025	8.4203	7.4194	9.2191	9.8035	9.8998	0.6465	-2.1944	-12.001	-1.2837	7.3324	3.5061	5.3991	7.1117	2.3499	-0.4818
2.269	4.0687	5.2312	4.7805	5.7658	6.9936	5.4146	6.661	8.5726	7.55	9.4243	9.9682	10.0024	0.6558	-2.2348	-11.9233	-1.3148	7.3417	3.6087	5.4115	7.2485	2.4213	-0.4414
2.3499	4.1837	5.3369	4.8738	5.9088	7.1366	5.4861	6.8071	8.7218	7.6681	9.5859	10.1423	10.0988	0.6931	-2.2939	-11.9171	-1.3832	7.3511	3.7175	5.4426	7.3977	2.4959	-0.3948
2.4555	4.2832	5.4768	4.9204	6.0363	7.2827	5.6229	6.9563	8.8679	7.7769	9.7382	10.2791	10.2231	0.7211	-2.325	-11.8705	-1.4422	7.3915	3.8263	5.455	7.5376	2.5705	-0.3512
2.555	4.3858	5.5762	4.9732	6.1357	7.4132	5.7099	7.0806	9.0389	7.9261	9.8781	10.4531	10.3319	0.7677	-2.3685	-11.886	-1.5199	7.4194	3.8511	5.4985	7.6308	2.6451	-0.3108
2.6234	4.4883	5.6477	5.0416	6.2507	7.5438	5.8031	7.205	9.1849	8.038	10.0273	10.6489	10.4687	0.7957	-2.4369	-11.9451	-1.5914	7.4443	3.9164	5.5358	7.7303	2.7291	-0.2487
2.7073	4.5536	5.7285	5.1069	6.3657	7.665	5.8746	7.3448	9.3528	8.1592	10.1516	10.8075	10.5992	0.8361	-2.4555	-12.0135	-1.6723	7.4878	3.9599	5.5483	7.7924	2.7757	-0.2083
2.7601	4.6406	5.8094	5.1442	6.4714	7.7769	5.9586	7.4661	9.502	8.3146	10.2791	10.9722	10.7391	0.861	-2.5177	-12.1067	-1.7344	7.55	3.9817	5.6073	7.8701	2.8316	-0.1461
2.813	4.7028	5.8902	5.1877	6.5585	7.9074	6.0207	7.5935	9.6512	8.4296	10.4158	11.1432	10.8821	0.8983	-2.5519	-12.2186	-1.7997	7.5655	4.019	5.6166	7.9385	2.8845	-0.0777
2.8534	4.7681	5.9368	5.2064	6.6735	8.0038	6.0984	7.6992	9.7693	8.554	10.5153	11.3328	11.025	0.9294	-2.6109	-12.3492	-1.8463	7.6184	4.0283	5.6446	7.9852	2.9249	-0.0186
2.8938	4.8116	5.9741	5.2405	6.7698	8.0877	6.1761	7.8018	9.8967	8.6534	10.5868	11.4664	11.1245	0.9325	-2.6358	-12.4859	-1.8774	7.6774	4.0128	5.6664	8.0349	2.9529	0.028
2.9	4.8489	6.0052	5.2219	6.8133	8.1312	6.201	7.8795	10.0242	8.756	10.6707	11.6032	11.2551	0.9511	-2.67	-12.5916	-1.9054	7.7178	4.0097	5.6944	8.0535	2.9653	0.087
2.8814	4.8831	6.0207	5.2157	6.8973	8.181	6.2259	7.9572	10.1423	8.8275	10.7484	11.7555	11.3483	0.9605	-2.7166	-12.7128	-1.9271	7.7241	3.9941	5.7037	8.0691	2.9902	0.1492
2.8596	4.8427	5.9927	5.1691	6.9004	8.181	6.2103	7.9945	10.1951	8.8586	10.8075	11.8549	11.4384	0.9636	-2.7508	-12.8496	-1.9365	7.7458	3.9475	5.6975	8.0473	3.0088	0.2051
2.8379	4.8334	5.9679	5.1255	6.9159	8.1841	6.2072	8.0131	10.2138	8.8959	10.8075	11.9358	11.4851	0.9698	-2.8068	-12.9708	-1.9427	7.7272	3.9351	5.685	8.0193	3.0275	0.2424
2.7601	4.7681	5.9119	5.0634	6.9004	8.1561	6.1699	8.0473	10.2542	8.9238	10.8417	11.9824	11.5255	0.9667	-2.872	-13.0796	-1.9365	7.7023	3.8325	5.6726	7.9603	3.0492	0.3015
2.7104	4.709	5.8404	4.9701	6.8568	8.1002	6.1202	8.0287	10.2791	8.9021	10.8106	12.0104	11.5286	0.9698	-2.9373	-13.2039	-1.9178	7.6899	3.7921	5.6353	7.923	3.0803	0.3077
2.6203	4.622	5.7441	4.8893	6.7947	8.0193	6.0456	7.9541	10.1827	8.8586	10.7453	11.9886	11.4633	0.9418	-3.0057	-13.3407	-1.896	7.6122	3.7113	5.5576	7.8266	3.1083	0.3326
2.5612	4.5256	5.6508	4.7992	6.717	7.9416	6.0052	7.8919	10.1547	8.7871	10.6987	11.9917	11.4198	0.9449	-3.071	-13.4744	-1.8774	7.5531	3.6211	5.5203	7.7334	3.1394	0.3668
2.44	4.3889	5.5234	4.6966	6.6082	7.8111	5.9119	7.7893	10.0553	8.7094	10.6116	11.9047	11.3297	0.92	-3.13	-13.5987	-1.8556	7.4754	3.5155	5.4115	7.6059	3.1891	0.3761
2.3934	4.2863	5.427	4.6127	6.5149	7.7147	5.8436	7.7085	9.9527	8.6223	10.4997	11.8425	11.2333	0.9232	-3.2202	-13.723	-1.8432	7.3759	3.4036	5.3462	7.4661	3.2233	0.373
2.3188	4.1402	5.3214	4.5008	6.3813	7.578	5.741	7.6122	9.8594	8.5198	10.3878	11.7524	11.1121	0.92	-3.2854	-13.8474	-1.8463	7.292	3.2948	5.2778	7.3355	3.273	0.3854
2.2038	3.9972	5.1722	4.3609	6.2445	7.4288	5.6073	7.4505	9.7227	8.3737	10.2262	11.6187	10.9598	0.9169	-3.3632	-13.9126	-1.8401	7.1552	3.1642	5.1691	7.1646	3.3383	0.3979
2.1198	3.8418	5.054	4.2459	6.1264	7.3075	5.5047	7.32	9.5828	8.2462	10.105	11.5161	10.8199	0.9325	-3.4315	-14.0245	-1.8587	7.0216	3.0461	5.0758	6.9905	3.4253	0.4134
2.0235	3.6771	4.9235	4.0998	5.9679	7.1304	5.3338	7.1646	9.4274	8.0846	9.9403	11.3576	10.6334	0.9356	-3.4937	-14.1333	-1.8556	6.8755	2.9125	4.9857	6.7978	3.5248	0.4103
1.9365	3.5652	4.8116	3.9475	5.8622	6.9874	5.2001	7.0527	9.2844	7.9447	9.7942	11.2364	10.4811	0.9169	-3.5528	-14.1644	-1.8587	6.7449	2.7974	4.908	6.661	3.6429	0.4072
1.8152	3.4284	4.6686	3.7983	5.7192	6.8351	5.0447	6.9159	9.1414	7.78	9.6543	11.0965	10.3195	0.9169	-3.6118	-14.2141	-1.8401	6.574	2.6887	4.8116	6.4621	3.733	0.3885
1.7593	3.3196	4.5754	3.6553	5.5918	6.7139	4.9017	6.7822	8.9829	7.637	9.502	10.9567	10.1703	0.9138	-3.6957	-14.2017	-1.8246	6.431	2.5768	4.7184	6.2663	3.8418	0.3916
1.6287	3.186	4.4479	3.5434	5.5079	6.5709	4.7898	6.6455	8.8461	7.4909	9.3279	10.7919	9.9713	0.8921	-3.7424	-14.1955	-1.7873	6.2601	2.4711	4.6251	6.0798	3.9102	0.3575
1.5635	3.0958	4.3236	3.4004	5.3711	6.4434	4.6469	6.5243	8.6845	7.3448	9.1508	10.6458	9.7879	0.8827	-3.7766	-14.1271	-1.7562	6.1078	2.3778	4.5443	5.8902	3.991	0.3295
1.4609	2.9995	4.2055	3.2917	5.2592	6.3098	4.5256	6.372	8.5384	7.2019	8.9643	10.4718	9.6263	0.8517	-3.7952	-14.0214	-1.7127	5.9586	2.2535	4.4728	5.685	4.0408	0.3015
1.3583	2.9404	4.0998	3.1829	5.1318	6.1699	4.4106	6.2134	8.3799	7.034	8.7871	10.3132	9.4336	0.8237	-3.8449	-13.9344	-1.6536	5.7845	2.1292	4.3671	5.4612	4.0936	0.286
1.2713	2.813	4.0097	3.0958	5.054	6.0642	4.3174	6.0829	8.2058	6.9097	8.5633	10.1143	9.2285	0.7802	-3.8853	-13.8318	-1.5821	5.6198	1.9769	4.2956	5.2468	4.1029	0.2331
1.1998	2.7415	3.9195	3.0368	4.9546	5.9586	4.221	5.915	8.038	6.7791	8.3271	9.9092	9.0451	0.7553	-3.9133	-13.7199	-1.5168	5.4612	1.8463	4.1868	5.0509	4.0936	0.1772
1.1159	2.6638	3.8294	2.9715	4.8147	5.8342	4.162	5.7596	7.8764	6.6486	8.1281	9.7258	8.8524	0.7149	-3.9289	-13.6049	-1.4422	5.3245	1.7002	4.0812	4.7898	4.0905	0.1461
1.0475	2.6078	3.7393	2.9497	4.7308	5.7379	4.0936	5.5949	7.7054	6.5087	7.895	9.5362	8.6596	0.6745	-3.9444	-13.5241	-1.3645	5.1535	1.5697	4.019	4.5692	4.0439	0.0964
0.9698	2.5115	3.6647	2.9	4.6034	5.6446	4.0159	5.3897	7.5469	6.3688	7.6308	9.3031	8.4421	0.6341	-3.9506	-13.4277	-1.2899	4.995	1.3956	3.9009	4.3267	4.0159	0.0559
0.92	2.4493	3.5869	2.8752	4.5008	5.5296	3.9568	5.2064	7.3635	6.2725	7.3977	9.0917	8.2587	0.6123	-3.9537	-13.3749	-1.2402	4.8458	1.2775	3.8325	4.1185	3.9724	0.0093
0.8548	2.353	3.4813	2.8347	4.3609	5.4208	3.8947	5.023	7.1708	6.1171	7.1335	8.8679	8.0753	0.5781	-3.9941	-13.3718	-1.1625	4.7059	1.0972	3.7175	3.8667	3.9475	-0.0466
0.7677	2.269	3.4067	2.7943	4.2428	5.3183	3.8076	4.8458	7.0029	5.9865	6.8568	8.6379	7.8515	0.5502	-4.0003	-13.378	-1.119	4.5443	0.9449	3.6274	3.6305	3.9009	-0.0746
0.6745	2.1789	3.3134	2.7384	4.1185	5.2126	3.7486	4.6251	6.8413	5.8653	6.5989	8.4359	7.6774	0.5408	-4.0345	-13.4464	-1.0941	4.42	0.805	3.5279	3.4004	3.8822	-0.1119
0.5968	2.0608	3.2108	2.6638	3.9755	5.0913	3.674	4.4448	6.661	5.7285	6.3471	8.2121	7.4909	0.5284	-4.0594	-13.549	-1.0537	4.2801	0.6248	3.4346	3.158	3.8449	-0.143
0.4476	1.9302	3.071	2.6109	3.8201	4.9639	3.5745	4.249	6.4652	5.6073	6.0984	8.01	7.3324	0.5004	-4.134	-13.7355	-1.0133	4.1558	0.4787	3.3414	2.9684	3.8138	-0.1741
0.3388	1.8246	2.9187	2.5177	3.6584	4.8458	3.4875	4.0439	6.3253	5.4892	5.8684	7.8204	7.1552	0.4818	-4.2055	-13.9219	-0.9791	4.0283	0.3326	3.2637	2.7601	3.8138	-0.2207
0.1958	1.7033	2.8006	2.4431	3.5403	4.6966	3.3942	3.8729	6.1824	5.3369	5.6571	7.665	7.0154	0.4787	-4.2645	-14.1178	-0.9542	3.904	0.2083	3.1673	2.6234	3.789	-0.2518
0.0311	1.5697	2.6327	2.3499	3.3942	4.5785	3.2792	3.7113	6.0394	5.2374	5.455	7.522	6.8693	0.4507	-4.364	-14.3882	-0.9045	3.7921	0.1026	3.0927	2.4866	3.8107	-0.2984
-0.1274	1.4795	2.5084	2.2442	3.2886	4.4635	3.186	3.5901	5.915	5.1193	5.3245	7.3853	6.7667	0.4414	-4.4759	-14.6275	-0.8827	3.7051	-0.0031	3.0243	2.3499	3.8263	-0.3139
-0.3015	1.349	2.3219	2.1447	3.1394	4.3236	3.1083	3.4315	5.769	4.9888	5.1504	7.2454	6.6331	0.4103	-4.5505	-14.8544	-0.8423	3.5932	-0.0746	2.9435	2.2473	3.8729	-0.3357
-0.4476	1.2247	2.1571	2.0484	3.0306	4.162	2.9902	3.301	5.6664	4.8862	5.0136	7.1179	6.5212	0.4041	-4.6562	-15.1031	-0.8144	3.4968	-0.1368	2.8565	2.1634	3.9351	-0.3575
-0.6217	1.0755	1.9738	1.9147	2.8969	4.019	2.8845	3.1891	5.5296	4.7525	4.9049	7.0092	6.4061	0.3761	-4.737	-15.3238	-0.7677	3.4036	-0.2331	2.7943	2.1012	4.0035	-0.3916
-0.805	0.9232	1.7904	1.7873	2.7384	3.8387	2.7446	3.0368	5.396	4.6251	4.7774	6.9097	6.2694	0.3668	-4.8489	-15.5134	-0.7398	3.3383	-0.2797	2.7384	2.0142	4.0843	-0.4134
-1.0009	0.774	1.5914	1.607	2.6172	3.6895	2.6078	2.9435	5.2623	4.479	4.6562	6.7698	6.1419	0.345	-4.9297	-15.6843	-0.6963	3.2699	-0.3388	2.67	1.9396	4.1775	-0.4693
-1.1625	0.6092	1.4018	1.436	2.4804	3.5155	2.4369	2.8254	5.11	4.305	4.5412	6.6548	5.999	0.3264	-4.9981	-15.8398	-0.6714	3.158	-0.3979	2.5768	1.896	4.2925	-0.5004
-1.3645	0.4383	1.1874	1.2402	2.3405	3.3569	2.2815	2.7104	4.9857	4.1309	4.4417	6.5056	5.8529	0.3108	-5.0913	-15.9827	-0.6248	3.0523	-0.4538	2.5022	1.8308	4.4013	-0.5502
-1.551	0.2735	0.9636	0.9978	2.1882	3.1456	2.067	2.5768	4.8334	3.9662	4.305	6.372	5.6881	0.2891	-5.1815	-16.0573	-0.5875	2.9249	-0.516	2.3747	1.7748	4.5256	-0.6092
-1.7344	0.115	0.7367	0.7833	2.067	2.9902	1.8743	2.4866	4.6717	3.8076	4.2335	6.2632	5.5607	0.2642	-5.2157	-16.1257	-0.5533	2.8192	-0.5284	2.3126	1.7406	4.6655	-0.6745
-1.9147	-0.0435	0.5533	0.5906	1.9489	2.785	1.7002	2.3934	4.5567	3.6118	4.1402	6.1295	5.3991	0.2487	-5.2778	-16.2065	-0.5129	2.726	-0.5688	2.2442	1.7344	4.8054	-0.7522
-2.0794	-0.1803	0.3699	0.3885	1.8246	2.6172	1.5075	2.2877	4.4231	3.444	4.0532	6.0083	5.2747	0.23	-5.3245	-16.2314	-0.4756	2.6172	-0.5781	2.1354	1.6878	4.9515	-0.8113
-2.2317	-0.3015	0.171	0.1803	1.7344	2.4804	1.3366	2.2286	4.305	3.273	3.9879	5.8964	5.1473	0.2051	-5.3649	-16.2967	-0.4196	2.5457	-0.5968	2.0794	1.6443	5.0913	-0.8672
-2.3809	-0.4538	0.0062	-0.0155	1.6163	2.3281	1.1532	2.1665	4.1962	3.1549	3.9102	5.7938	5.0105	0.1678	-5.3897	-16.3744	-0.3575	2.4369	-0.6341	2.0017	1.6101	5.2592	-0.9511
-2.4866	-0.5626	-0.1274	-0.1647	1.5697	2.2255	1.0257	2.0919	4.1122	3.0275	3.8636	5.7099	4.9235	0.143	-5.4146	-16.393	-0.3015	2.3903	-0.631	1.9458	1.6132	5.4084	-1.0195
-2.6047	-0.6527	-0.2673	-0.345	1.4795	2.1105	0.8672	2.0577	4.0408	2.9125	3.8014	5.6353	4.8116	0.1088	-5.4208	-16.4676	-0.2362	2.3188	-0.6527	1.8836	1.5386	5.5638	-1.0786
-2.6731	-0.7273	-0.3761	-0.4383	1.4298	2.0297	0.7926	2.0017	3.963	2.8534	3.7734	5.5887	4.7743	0.0715	-5.4146	-16.4925	-0.1678	2.2442	-0.6931	1.8619	1.5106	5.6975	-1.1625
-2.7633	-0.7895	-0.4662	-0.5346	1.4112	1.9893	0.6931	1.9644	3.9289	2.757	3.7517	5.5483	4.7184	0.0466	-5.4053	-16.564	-0.115	2.2224	-0.7149	1.8246	1.4764	5.856	-1.2526
-2.785	-0.8206	-0.4942	-0.5937	1.3801	1.9489	0.6496	1.9582	3.9226	2.7228	3.7175	5.5172	4.6779	0.0249	-5.3929	-16.5702	-0.0435	2.154	-0.7118	1.7562	1.4112	5.9927	-1.3366
-2.785	-0.833	-0.5564	-0.6465	1.3894	1.9365	0.6154	1.9427	3.9102	2.6887	3.6864	5.4861	4.6189	-0.0155	-5.3245	-16.5205	0.0062	2.1198	-0.7304	1.7531	1.3552	6.1264	-1.4112
-2.7757	-0.8082	-0.5502	-0.6496	1.4205	1.952	0.5875	1.9706	3.8947	2.6638	3.6491	5.4488	4.594	-0.028	-5.2312	-16.4769	0.0404	2.067	-0.746	1.7158	1.2961	6.2601	-1.4889
-2.7166	-0.746	-0.4973	-0.6279	1.4795	2.0111	0.6061	2.0111	3.9537	2.7042	3.6553	5.427	4.5629	-0.0311	-5.1473	-16.3806	0.0497	2.0421	-0.7615	1.722	1.2464	6.3813	-1.579
-2.6669	-0.6776	-0.4414	-0.5844	1.5541	2.0701	0.6279	2.0546	3.9599	2.7042	3.6647	5.4488	4.5598	-0.0342	-5.0789	-16.3029	0.0591	2.0079	-0.746	1.7033	1.206	6.5149	-1.6536
-2.5768	-0.5844	-0.3637	-0.5284	1.6412	2.1385	0.7087	2.1012	4.0128	2.7353	3.6647	5.4208	4.5536	-0.0311	-4.9857	-16.2065	0.0528	1.9893	-0.7584	1.7002	1.178	6.6362	-1.75
-2.4711	-0.4538	-0.2673	-0.4352	1.7562	2.2411	0.7709	2.1571	4.0718	2.7819	3.6522	5.4302	4.5194	-0.028	-4.8644	-16.1288	0.0311	1.9551	-0.7491	1.6878	1.1283	6.7636	-1.7997
-2.3747	-0.317	-0.1678	-0.3637	1.8619	2.3281	0.8454	2.2442	4.1309	2.8441	3.6553	5.4177	4.5256	-0.0124	-4.765	-16.0294	0.0093	1.9271	-0.7491	1.6723	1.0972	6.8817	-1.8525
-2.2286	-0.2083	-0.0373	-0.2456	2.0111	2.4276	0.9511	2.3219	4.2024	2.9249	3.6678	5.4177	4.5256	0.0186	-4.6562	-15.9454	-0.0373	1.8774	-0.6994	1.6785	1.0568	7.0029	-1.896
-2.0794	-0.0249	0.1057	-0.1368	2.1758	2.5488	1.0475	2.4089	4.2645	2.9995	3.702	5.4302	4.5443	0.0373	-4.535	-15.8304	-0.0995	1.8619	-0.6838	1.7033	1.0226	7.1211	-1.9302
-1.9551	0.1337	0.2518	-0.0062	2.3126	2.6824	1.1749	2.4835	4.3143	3.1021	3.7268	5.4364	4.5847	0.0622	-4.4355	-15.79	-0.1461	1.8339	-0.659	1.7251	0.9884	7.2361	-1.9489
-1.7624	0.3357	0.4196	0.1119	2.4711	2.8223	1.2961	2.5892	4.4262	3.1891	3.7859	5.4519	4.622	0.0964	-4.3205	-15.7185	-0.1896	1.8339	-0.6185	1.7593	0.9667	7.3386	-1.9582
-1.5883	0.5315	0.5719	0.23	2.6389	2.9342	1.4112	2.7042	4.5008	3.3041	3.8232	5.4892	4.65	0.1181	-4.2335	-15.6719	-0.23	1.7935	-0.5937	1.7873	0.9387	7.463	-1.9551
-1.4205	0.7646	0.7336	0.3575	2.841	3.0989	1.5635	2.813	4.594	3.4253	3.8884	5.5452	4.7277	0.1368	-4.0843	-15.5818	-0.2829	1.7966	-0.5471	1.8432	0.9294	7.5562	-1.9365
-1.2682	0.976	0.9387	0.5253	3.0181	3.2388	1.7002	2.9373	4.7152	3.5559	3.9537	5.6011	4.7867	0.1492	-3.9817	-15.5569	-0.3046	1.7935	-0.4787	1.9054	0.9325	7.6743	-1.9085
-1.1065	1.1936	1.0972	0.659	3.2513	3.3818	1.8712	3.0772	4.8178	3.7144	4.0314	5.6539	4.88	0.1585	-3.8418	-15.4481	-0.3264	1.7935	-0.4134	1.9675	0.9169	7.7645	-1.9054
-0.9107	1.4547	1.2993	0.8486	3.4595	3.5559	2.0079	3.2264	4.9359	3.8574	4.106	5.7317	4.9453	0.1647	-3.6802	-15.358	-0.345	1.7935	-0.3295	2.0297	0.92	7.8422	-1.8774
-0.6869	1.722	1.5137	1.0226	3.6771	3.7299	2.1789	3.3942	5.0696	4.0128	4.2024	5.8	5.0261	0.1772	-3.559	-15.2616	-0.3481	1.809	-0.23	2.0888	0.9573	7.923	-1.8339
-0.5191	1.9582	1.6909	1.1874	3.9226	3.9102	2.3747	3.5714	5.2095	4.1868	4.3391	5.9119	5.1504	0.1834	-3.4315	-15.1932	-0.3606	1.7841	-0.1368	2.1478	0.9698	8.0162	-1.7935
-0.3264	2.1789	1.8898	1.3739	4.1433	4.0656	2.527	3.7082	5.3493	4.3329	4.4075	5.9679	5.2001	0.1772	-3.2886	-15.1031	-0.3543	1.7562	-0.0435	2.2224	0.9884	8.0877	-1.7841
-0.1678	2.4027	2.0546	1.5293	4.3143	4.1962	2.6669	3.8418	5.4333	4.4728	4.5132	6.0176	5.2592	0.1772	-3.1611	-15.0347	-0.345	1.7406	0.0466	2.2566	0.9853	8.1499	-1.7437
0.0186	2.6234	2.2193	1.6971	4.5319	4.3516	2.841	3.9848	5.5887	4.5971	4.594	6.0891	5.3089	0.171	-3.015	-14.957	-0.3481	1.6847	0.1305	2.297	1.0102	8.2089	-1.722
0.1461	2.813	2.3592	1.7935	4.6842	4.4573	2.9435	4.0998	5.6477	4.7152	4.6655	6.1264	5.3493	0.1741	-2.9031	-14.9384	-0.3419	1.6443	0.1989	2.3374	1.0009	8.2804	-1.7033
0.3015	2.9964	2.4991	1.9302	4.852	4.6065	3.0803	4.2397	5.769	4.8458	4.7557	6.1761	5.4084	0.1678	-2.8037	-14.9011	-0.3419	1.5821	0.2704	2.3747	1.0102	8.3519	-1.6971
0.4289	3.1642	2.6078	2.0359	4.995	4.7184	3.1829	4.3329	5.8311	4.9484	4.7992	6.2103	5.4053	0.1678	-2.698	-14.9042	-0.3388	1.5293	0.3606	2.4182	1.0133	8.4327	-1.6505
0.5408	3.3165	2.7384	2.1198	5.1349	4.8023	3.2823	4.4448	5.9337	5.082	4.8644	6.257	5.4581	0.171	-2.6296	-14.9228	-0.3575	1.4733	0.4227	2.4276	1.0351	8.5353	-1.6132
0.6776	3.4719	2.841	2.238	5.2872	4.9266	3.4036	4.5567	5.999	5.1753	4.9639	6.316	5.5172	0.171	-2.555	-14.9757	-0.3699	1.4485	0.5315	2.4773	1.0413	8.6472	-1.5697
0.7522	3.5838	2.9062	2.297	5.3897	4.9857	3.4937	4.6593	6.0798	5.2654	5.0043	6.3284	5.5638	0.1678	-2.4711	-15.0254	-0.3699	1.4112	0.6092	2.5022	1.0413	8.7591	-1.5324
0.8796	3.6926	3.0275	2.4089	5.5234	5.1069	3.6149	4.7805	6.1855	5.4146	5.1162	6.4372	5.6508	0.1803	-2.4027	-15.0907	-0.3885	1.408	0.7304	2.5612	1.1034	8.8865	-1.4889
0.948	3.8449	3.1176	2.5022	5.6384	5.2188	3.7455	4.9204	6.2911	5.5514	5.1908	6.518	5.7379	0.1865	-2.3561	-15.1155	-0.3854	1.4049	0.805	2.6141	1.147	8.9922	-1.4578
1.0475	3.9257	3.2233	2.6296	5.7721	5.3369	3.8605	5.0634	6.4093	5.6912	5.3338	6.6486	5.8871	0.202	-2.3219	-15.1839	-0.4041	1.464	0.9169	2.6731	1.1843	9.1259	-1.4174
1.1128	4.0345	3.2948	2.7539	5.9026	5.4302	4.0003	5.1908	6.5398	5.8404	5.4519	6.7636	6.0487	0.1896	-2.2721	-15.2492	-0.3948	1.5137	1.0382	2.7353	1.2557	9.2502	-1.3956
1.2153	4.1495	3.416	2.872	6.0176	5.57	4.19	5.3587	6.7014	6.0611	5.6073	6.9532	6.2383	0.202	-2.2504	-15.2803	-0.4227	1.6008	1.1438	2.8472	1.3676	9.3839	-1.3645
1.2868	4.2366	3.4999	3.0057	6.1419	5.6912	4.3516	5.511	6.8413	6.2259	5.7441	7.1055	6.4372	0.2083	-2.2597	-15.3766	-0.4227	1.7158	1.2278	2.928	1.4422	9.5237	-1.3241
1.3801	4.305	3.5932	3.1611	6.2321	5.8125	4.5132	5.6353	6.9905	6.4497	5.9088	7.2609	6.6517	0.2207	-2.2535	-15.4512	-0.4445	1.8339	1.3397	3.0616	1.551	9.645	-1.3024
1.4516	4.4044	3.6957	3.2948	6.3347	5.9368	4.6935	5.8031	7.1552	6.6299	6.0642	7.435	6.8631	0.23	-2.2473	-15.5258	-0.4631	1.9427	1.4329	3.13	1.6443	9.7413	-1.3055
1.5044	4.4169	3.7455	3.4129	6.4061	6.0363	4.852	5.8964	7.2609	6.804	6.2103	7.5997	7.0527	0.2456	-2.2659	-15.6004	-0.5035	2.0328	1.4858	3.2202	1.7251	9.8346	-1.2651
1.5821	4.479	3.8449	3.5217	6.487	6.1575	4.9981	6.0394	7.407	6.9843	6.3626	7.7924	7.2734	0.2766	-2.2815	-15.6657	-0.5657	2.1789	1.5697	3.3165	1.837	9.8936	-1.2371
1.5977	4.4821	3.8667	3.6149	6.5212	6.2259	5.1069	6.1233	7.5313	7.1552	6.4776	7.9572	7.4723	0.2922	-2.3374	-15.7403	-0.5999	2.3032	1.607	3.4253	1.9147	9.9371	-1.2029
1.6723	4.507	3.9599	3.7268	6.6051	6.3284	5.2685	6.2725	7.693	7.3386	6.6362	8.1312	7.7023	0.3326	-2.3623	-15.7869	-0.6652	2.4493	1.635	3.5372	1.9986	9.9371	-1.1749
1.6816	4.5256	3.9879	3.8045	6.6486	6.4186	5.3897	6.3409	7.7831	7.4723	6.7667	8.2898	7.9012	0.3668	-2.3965	-15.8429	-0.7273	2.5768	1.7002	3.6367	2.0825	9.9527	-1.1376
1.7282	4.5319	4.0159	3.8791	6.7077	6.4839	5.511	6.4217	7.9137	7.6339	6.9283	8.4794	8.1312	0.3792	-2.4555	-15.9081	-0.774	2.7042	1.722	3.7641	2.1696	9.9558	-1.1003
1.7468	4.5723	4.0501	3.9506	6.7698	6.5491	5.626	6.5149	8.0131	7.7831	7.062	8.641	8.3395	0.4196	-2.5084	-15.9703	-0.8454	2.8876	1.7686	3.8605	2.2908	9.9713	-1.0692
1.6878	4.5692	4.0501	3.9506	6.7916	6.5989	5.6912	6.5647	8.1095	7.8639	7.1583	8.7653	8.5384	0.4383	-2.6016	-16.076	-0.8827	2.9933	1.7997	3.9475	2.3716	9.99	-1.0195
1.7033	4.5692	4.0594	3.9413	6.8289	6.6548	5.7441	6.6424	8.1934	8.0131	7.3107	8.9332	8.7405	0.4662	-2.6949	-16.1568	-0.9356	3.1145	1.8183	4.0283	2.4586	10.0117	-1.0009
1.6505	4.5598	4.0221	3.9102	6.8351	6.6579	5.7503	6.6766	8.2835	8.1064	7.4319	9.0575	8.9114	0.4818	-2.8068	-16.25	-0.9605	3.2357	1.8619	4.106	2.5643	10.0304	-0.9573
1.6008	4.5536	4.0003	3.8947	6.8786	6.6952	5.7876	6.7325	8.3302	8.1996	7.5531	9.2191	9.1135	0.4818	-2.9093	-16.334	-0.9822	3.329	1.8619	4.1713	2.6638	10.0553	-0.9138
1.5355	4.5692	3.9879	3.8263	6.9066	6.6952	5.7938	6.7885	8.439	8.3022	7.6712	9.3714	9.2937	0.5066	-3.0585	-16.4645	-1.0071	3.4626	1.8867	4.2801	2.757	10.1019	-0.8827
1.4795	4.5754	3.9693	3.7797	6.9314	6.7045	5.7783	6.8537	8.498	8.383	7.7924	9.5113	9.4896	0.5129	-3.186	-16.5826	-1.0164	3.5745	1.9085	4.3454	2.8658	10.0988	-0.8486
1.377	4.5536	3.9195	3.7051	6.9532	6.7014	5.7565	6.9128	8.5664	8.4514	7.9416	9.6636	9.6232	0.5035	-3.3383	-16.7194	-1.0102	3.6864	1.9427	4.3858	2.9808	10.1299	-0.805
1.3055	4.5909	3.8978	3.6367	6.9812	6.7108	5.741	6.9439	8.6099	8.5291	8.0597	9.7879	9.7942	0.5066	-3.5123	-16.8375	-0.9915	3.7797	1.9893	4.4666	3.1052	10.1454	-0.7615
1.2651	4.594	3.8916	3.5714	6.9998	6.7201	5.7285	7.0216	8.7063	8.5788	8.2058	9.9123	9.9371	0.5004	-3.6647	-16.9743	-0.9915	3.8884	2.0173	4.5163	3.2108	10.1485	-0.7522
1.1656	4.5723	3.8263	3.4844	7.0123	6.6859	5.6633	7.0465	8.7405	8.6161	8.3302	10.0366	10.0366	0.4725	-3.8387	-17.1266	-0.948	3.9599	2.0546	4.5474	3.3165	10.1547	-0.7273
1.1252	4.5754	3.8263	3.416	7.0465	6.7014	5.6539	7.1024	8.8026	8.6876	8.439	10.1578	10.133	0.4631	-3.9786	-17.2416	-0.9169	4.0221	2.0919	4.5567	3.4315	10.1174	-0.718
1.0537	4.5661	3.7828	3.3352	7.0558	6.7077	5.5949	7.1242	8.8524	8.6876	8.5322	10.2697	10.2324	0.4289	-4.0998	-17.3659	-0.8703	4.0718	2.1105	4.622	3.5061	10.0863	-0.7304
1.0195	4.5661	3.7703	3.2699	7.0806	6.7077	5.5762	7.1894	8.899	8.7342	8.6348	10.3443	10.3039	0.432	-4.221	-17.4902	-0.8486	4.0998	2.1478	4.6158	3.5994	10.0646	-0.7615
0.9978	4.5319	3.7579	3.2046	7.0744	6.6983	5.5358	7.2236	8.958	8.7218	8.7218	10.4127	10.3692	0.4196	-4.3423	-17.6146	-0.8299	4.1154	2.1478	4.622	3.6615	10.0086	-0.7957
0.9573	4.5256	3.7455	3.1798	7.0682	6.7139	5.511	7.2267	8.9736	8.728	8.7591	10.4904	10.391	0.401	-4.4044	-17.7296	-0.8082	4.1278	2.1509	4.6127	3.7113	9.9744	-0.8237
0.9542	4.5256	3.7703	3.1362	7.0838	6.7014	5.4892	7.2485	8.9922	8.7405	8.8368	10.5619	10.422	0.4072	-4.4635	-17.857	-0.8175	4.1402	2.1727	4.6002	3.7734	9.9651	-0.8517
0.9542	4.4883	3.7828	3.1394	7.1055	6.7481	5.4706	7.3169	9.073	8.7778	8.9114	10.6272	10.4718	0.4103	-4.5381	-17.9969	-0.8206	4.1433	2.1758	4.5816	3.8201	9.962	-0.8983
0.9791	4.4666	3.7921	3.0989	7.09	6.7449	5.4457	7.3107	9.1103	8.7622	8.9674	10.6614	10.4935	0.4134	-4.5816	-18.1678	-0.833	4.1371	2.2162	4.5505	3.8325	9.9776	-0.9294
1.0133	4.4604	3.8325	3.1207	7.1242	6.7916	5.4643	7.3821	9.1912	8.7995	9.0326	10.7391	10.5091	0.4165	-4.6531	-18.3046	-0.8423	4.1185	2.2224	4.5194	3.848	9.9993	-0.9915
1.0288	4.4448	3.876	3.1425	7.1366	6.8351	5.4892	7.4163	9.2285	8.8213	9.0824	10.7888	10.537	0.432	-4.6531	-18.4476	-0.8517	4.1091	2.2659	4.507	3.8574	10.0149	-1.0319
1.0848	4.4106	3.9257	3.1922	7.0993	6.8693	5.4892	7.4412	9.2564	8.8151	9.1166	10.8323	10.5464	0.4196	-4.6779	-18.5937	-0.8548	4.0905	2.2908	4.4821	3.8387	10.0304	-1.0848
1.1003	4.3733	3.9755	3.2295	7.0838	6.8941	5.4923	7.4692	9.2844	8.8151	9.1103	10.8323	10.5526	0.4227	-4.6717	-18.7056	-0.8641	4.0749	2.2846	4.4293	3.8138	10.049	-1.1407
1.1936	4.3671	4.0283	3.2668	7.1024	6.9439	5.5483	7.4661	9.3217	8.7902	9.1228	10.8634	10.5339	0.4383	-4.6593	-18.7522	-0.8734	4.0532	2.297	4.4106	3.7766	10.0708	-1.2278
1.234	4.3205	4.0563	3.3041	7.0433	6.9812	5.5514	7.4661	9.3435	8.7715	9.1041	10.8696	10.4811	0.4352	-4.6811	-18.8392	-0.8672	3.9941	2.3063	4.3609	3.7424	10.0739	-1.3086
1.2775	4.277	4.0998	3.3383	7.0029	7.0029	5.5452	7.4661	9.3559	8.756	9.0637	10.8168	10.4314	0.432	-4.6438	-18.8921	-0.8703	3.9413	2.3188	4.2863	3.6771	10.105	-1.377
1.3272	4.19	4.162	3.3725	6.9439	6.9998	5.5452	7.4226	9.3155	8.7063	9.0078	10.7422	10.3257	0.4196	-4.6344	-18.9667	-0.8517	3.8574	2.3032	4.2086	3.6025	10.1454	-1.4795
1.3614	4.1371	4.2148	3.3818	6.8941	6.9812	5.5234	7.3884	9.2844	8.6596	8.9394	10.6489	10.22	0.4227	-4.6065	-19.0257	-0.8486	3.7734	2.2939	4.1527	3.5683	10.192	-1.6008
1.4267	4.0843	4.249	3.4191	6.8133	6.9905	5.5327	7.3138	9.2409	8.6006	8.8524	10.593	10.0926	0.401	-4.5909	-19.0413	-0.8175	3.6833	2.3001	4.0687	3.503	10.248	-1.7158
1.436	4.0003	4.2552	3.4098	6.7201	6.9967	5.4861	7.2329	9.1756	8.4918	8.7591	10.4438	9.9434	0.3948	-4.5474	-19.0692	-0.7988	3.5683	2.3063	3.9848	3.4253	10.3164	-1.8463
1.4795	3.9164	4.277	3.4222	6.6672	6.9563	5.4706	7.1739	9.0762	8.3954	8.6317	10.3257	9.7693	0.3823	-4.535	-19.0724	-0.7709	3.416	2.3032	3.876	3.3725	10.4003	-1.9893
1.5199	3.8294	4.3174	3.4346	6.5647	6.9346	5.4395	7.0713	8.9953	8.3022	8.5042	10.1796	9.5952	0.3699	-4.4759	-19.0568	-0.746	3.3476	2.3219	3.7921	3.2854	10.4904	-2.1323
1.5572	3.7641	4.3112	3.4502	6.4776	6.8973	5.4115	6.9905	8.9114	8.1934	8.3675	10.0428	9.415	0.3575	-4.42	-19.0164	-0.7211	3.2046	2.325	3.6926	3.2513	10.5743	-2.2939
1.6194	3.6895	4.3578	3.4409	6.3906	6.8631	5.3649	6.8941	8.8244	8.0908	8.2369	9.8594	9.2098	0.3357	-4.364	-18.9636	-0.6714	3.0679	2.3561	3.5838	3.1891	10.6738	-2.4307
1.6287	3.618	4.336	3.4284	6.3315	6.8009	5.3493	6.7885	8.7156	7.9572	8.0753	9.6823	9.0047	0.3046	-4.3112	-18.8983	-0.6372	2.9062	2.3716	3.4906	3.1145	10.7546	-2.5861
1.6287	3.5528	4.3267	3.4129	6.229	6.7636	5.2747	6.689	8.5571	7.8235	7.9479	9.5175	8.784	0.2953	-4.2677	-18.8144	-0.5937	2.7819	2.4276	3.3849	3.0865	10.8385	-2.7228
1.6381	3.4782	4.3236	3.388	6.1357	6.7294	5.2188	6.5771	8.4731	7.6992	7.7955	9.3466	8.5944	0.2673	-4.2179	-18.7211	-0.5564	2.6576	2.4524	3.2948	3.0368	10.9069	-2.8814
1.6225	3.4098	4.305	3.3507	6.058	6.6362	5.1566	6.4559	8.3395	7.5593	7.6339	9.1725	8.3737	0.2362	-4.1216	-18.5812	-0.4911	2.5146	2.4649	3.1891	2.9653	10.9318	-3.0585
1.6318	3.3414	4.249	3.2761	5.971	6.5616	5.0603	6.3347	8.1841	7.4101	7.4723	8.9798	8.153	0.1989	-4.0749	-18.4631	-0.4165	2.3747	2.4928	3.0803	2.9062	10.9411	-3.2108
1.6163	3.2637	4.249	3.2202	5.8995	6.4963	4.9763	6.2165	8.0629	7.2702	7.2982	8.8026	7.9572	0.171	-4.0066	-18.2891	-0.3419	2.2535	2.5053	2.9435	2.841	10.938	-3.4129
1.5883	3.214	4.1993	3.1362	5.8031	6.431	4.8893	6.1078	7.9261	7.0993	7.1428	8.6006	7.7427	0.1119	-3.9382	-18.1337	-0.2362	2.1074	2.527	2.8316	2.813	10.9163	-3.5869
1.5852	3.1953	4.1868	3.1052	5.7565	6.3688	4.7961	5.9896	7.7831	6.975	6.9874	8.4296	7.5407	0.0653	-3.8138	-17.9378	-0.1492	1.98	2.5395	2.7446	2.7135	10.879	-3.7797
1.5697	3.1518	4.1558	3.0119	5.6912	6.2818	4.7277	5.8715	7.6495	6.8289	6.8133	8.2307	7.3138	0.0031	-3.7175	-17.7576	-0.0311	1.8432	2.555	2.6296	2.6887	10.8479	-3.9941
1.5759	3.1114	4.1589	2.9684	5.6291	6.2165	4.6375	5.7627	7.5096	6.6704	6.6237	8.038	7.1055	-0.0528	-3.6584	-17.6146	0.0808	1.7064	2.555	2.5146	2.5799	10.8168	-4.2148
1.5914	3.0989	4.1029	2.9125	5.57	6.1357	4.5505	5.6726	7.3604	6.5087	6.4403	7.8453	6.8879	-0.1119	-3.5341	-17.4374	0.1927	1.5635	2.5892	2.4369	2.4959	10.7671	-4.4106
1.607	3.0989	4.1216	2.8627	5.57	6.1046	4.4728	5.5793	7.2547	6.3626	6.2694	7.6495	6.6766	-0.1523	-3.4191	-17.2975	0.2984	1.4391	2.6296	2.3374	2.4182	10.7298	-4.5847
1.6163	3.1176	4.1091	2.8316	5.542	6.0394	4.3982	5.4643	7.1148	6.2165	6.086	7.4599	6.4466	-0.2083	-3.3227	-17.2043	0.4041	1.3117	2.5892	2.238	2.3094	10.708	-4.7992
1.6412	3.1083	4.1091	2.7881	5.5203	5.9959	4.3205	5.3649	6.9998	6.0922	5.8902	7.2578	6.2538	-0.2673	-3.1798	-17.1608	0.5098	1.1967	2.6172	2.1478	2.21	10.7018	-4.9826
1.6754	3.1394	4.1402	2.7757	5.5234	5.9648	4.277	5.3089	6.9097	5.9741	5.7099	7.1055	6.0736	-0.3077	-3.0679	-17.0955	0.6061	1.0661	2.6109	2.0794	2.0888	10.6769	-5.1597
1.7095	3.2015	4.1713	2.7726	5.5607	5.9461	4.2397	5.2499	6.7978	5.8498	5.5389	6.9159	5.8529	-0.3481	-2.9404	-17.0706	0.6838	0.9418	2.6234	1.9955	2.0048	10.6925	-5.3462
1.7686	3.245	4.1744	2.7446	5.5545	5.9057	4.1402	5.1691	6.6766	5.7161	5.368	6.7512	5.6819	-0.3916	-2.8161	-17.0613	0.7646	0.8175	2.6109	1.9054	1.9054	10.7111	-5.5203
1.7873	3.2886	4.2024	2.7477	5.5793	5.884	4.1091	5.11	6.5864	5.5793	5.2126	6.5802	5.511	-0.4227	-2.6887	-17.0768	0.8175	0.69	2.5954	1.8681	1.7779	10.7639	-5.6664
1.8183	3.3663	4.2272	2.726	5.6042	5.8436	4.0687	5.0665	6.4901	5.5047	5.0354	6.4155	5.3369	-0.4631	-2.5923	-17.1141	0.9014	0.5906	2.6078	1.8277	1.6785	10.8012	-5.828
1.8556	3.4253	4.249	2.7042	5.6322	5.8218	4.0066	4.9857	6.3999	5.3897	4.9142	6.257	5.1691	-0.5004	-2.5053	-17.111	0.9636	0.4756	2.5923	1.7966	1.5572	10.8665	-5.9741
1.8836	3.4813	4.2335	2.6855	5.6695	5.8125	3.9879	4.967	6.3347	5.3151	4.7836	6.1513	5.0696	-0.516	-2.412	-17.1577	0.9946	0.3637	2.6078	1.781	1.4889	10.9349	-6.0984
1.8681	3.5465	4.2521	2.6296	5.6757	5.7876	3.9506	4.9235	6.2601	5.2281	4.6593	6.0363	4.9297	-0.5346	-2.3561	-17.2105	1.0351	0.286	2.5643	1.7282	1.3676	11.0219	-6.2538
1.8774	3.618	4.2521	2.6203	5.6881	5.7348	3.8947	4.8738	6.1948	5.1255	4.5505	5.9119	4.793	-0.5533	-2.3126	-17.2758	1.0661	0.1927	2.5488	1.7127	1.2775	11.1059	-6.3626
1.8805	3.6553	4.2428	2.5861	5.7099	5.7379	3.8698	4.8489	6.1388	5.0572	4.451	5.8	4.6935	-0.5346	-2.3063	-17.3597	1.0724	0.1368	2.5022	1.6909	1.1874	11.196	-6.4776
1.865	3.7113	4.2304	2.5332	5.7006	5.6975	3.789	4.7992	6.0673	4.9732	4.364	5.713	4.5692	-0.5564	-2.3063	-17.4716	1.091	0.0528	2.4555	1.6785	1.0692	11.2924	-6.5771
1.837	3.7486	4.2148	2.5177	5.713	5.6788	3.7579	4.7712	6.0021	4.908	4.2739	5.5949	4.4604	-0.5533	-2.3094	-17.5462	1.0755	-0.0186	2.3996	1.6629	1.0009	11.3794	-6.7045
1.8525	3.817	4.2521	2.5022	5.7254	5.6633	3.7268	4.7867	5.971	4.852	4.2086	5.5389	4.3827	-0.5346	-2.3126	-17.655	1.0599	-0.0622	2.384	1.6629	0.9294	11.4602	-6.804
1.837	3.848	4.2335	2.4959	5.713	5.6446	3.6771	4.737	5.9181	4.7557	4.1433	5.4457	4.2863	-0.5191	-2.3654	-17.7544	1.0413	-0.1088	2.353	1.6412	0.8392	11.5379	-6.8817
1.8525	3.8574	4.2304	2.4991	5.7317	5.6198	3.6149	4.6997	5.8591	4.6842	4.0532	5.3338	4.162	-0.5222	-2.3623	-17.8197	1.0226	-0.1523	2.2939	1.6256	0.774	11.5907	-6.9905
1.837	3.8605	4.2272	2.5084	5.685	5.5918	3.559	4.6593	5.7969	4.6065	3.9941	5.2654	4.0563	-0.5035	-2.4058	-17.9005	0.9978	-0.2207	2.2535	1.579	0.7429	11.6343	-7.0806
1.8277	3.8605	4.2272	2.5146	5.6695	5.5638	3.4999	4.6469	5.7752	4.5132	3.9164	5.1691	3.9257	-0.5004	-2.4307	-17.9409	0.9605	-0.2953	2.2038	1.579	0.6527	11.6498	-7.1646
1.8121	3.8636	4.2086	2.5146	5.6602	5.542	3.4626	4.622	5.7348	4.4448	3.8884	5.0976	3.8325	-0.4725	-2.4773	-18.0031	0.9138	-0.3326	2.1727	1.5417	0.6185	11.6591	-7.2702
1.8152	3.8574	4.2117	2.5115	5.6229	5.5141	3.3632	4.5754	5.6602	4.364	3.8076	5.0074	3.674	-0.4538	-2.4991	-18.0528	0.8703	-0.4041	2.1043	1.5448	0.5439	11.6436	-7.348
1.7873	3.8325	4.1682	2.5022	5.5856	5.4892	3.3041	4.5101	5.5856	4.2397	3.7766	4.9173	3.559	-0.4352	-2.555	-18.1243	0.8392	-0.4693	2.0763	1.4795	0.5004	11.6125	-7.435
1.7935	3.8201	4.1495	2.5239	5.5825	5.4364	3.2699	4.4977	5.5545	4.1651	3.733	4.8427	3.4409	-0.4103	-2.5581	-18.1212	0.7957	-0.5284	2.0484	1.4578	0.488	11.5379	-7.5282
1.7686	3.7921	4.1464	2.5581	5.5358	5.4146	3.2264	4.4946	5.5234	4.0874	3.7237	4.7961	3.3321	-0.3979	-2.5861	-18.115	0.7802	-0.6092	2.0111	1.4174	0.4538	11.4384	-7.5873
1.7406	3.7734	4.1309	2.555	5.5047	5.3773	3.1549	4.4759	5.483	4.0035	3.6553	4.7215	3.1922	-0.401	-2.6203	-18.0808	0.7677	-0.6807	1.9769	1.3863	0.4103	11.3234	-7.6774
1.7251	3.7486	4.0936	2.5736	5.4861	5.3369	3.1145	4.4448	5.4177	3.9537	3.6895	4.6935	3.13	-0.3948	-2.6078	-17.9814	0.7646	-0.7273	1.9582	1.3676	0.3885	11.1494	-7.7458
1.7002	3.7299	4.0656	2.5954	5.4426	5.2934	3.0741	4.451	5.4084	3.9102	3.6709	4.6562	3.0648	-0.401	-2.583	-17.8881	0.7802	-0.7895	1.9396	1.3428	0.3823	10.966	-7.836
1.6723	3.7361	4.0376	2.6078	5.4302	5.2716	3.0554	4.4417	5.3835	3.8543	3.7237	4.6469	3.0337	-0.4196	-2.5768	-17.7016	0.7957	-0.8361	1.8929	1.3055	0.3606	10.7546	-7.8888
1.6474	3.7051	4.0314	2.6265	5.4177	5.2374	3.0461	4.451	5.3711	3.8387	3.7393	4.65	2.987	-0.4258	-2.5115	-17.5586	0.8206	-0.9014	1.8992	1.262	0.3543	10.5184	-7.9727
1.6816	3.7144	4.019	2.6949	5.427	5.2374	3.0741	4.479	5.4053	3.8325	3.7828	4.6842	2.9497	-0.4072	-2.4338	-17.3379	0.8237	-0.9076	1.8805	1.3024	0.3761	10.2355	-8.0629
1.6474	3.6678	3.9972	2.7042	5.4146	5.2157	3.0648	4.4915	5.3804	3.8045	3.789	4.6779	2.9125	-0.4445	-2.3467	-17.1577	0.8703	-0.9853	1.837	1.2464	0.3606	9.962	-8.1437
1.6318	3.6584	3.9506	2.7166	5.3991	5.1628	3.0554	4.4852	5.3897	3.7486	3.8294	4.6748	2.8938	-0.4631	-2.2721	-16.9214	0.8952	-1.0226	1.8432	1.2091	0.3357	9.6543	-8.2369
1.6474	3.6771	3.9662	2.7695	5.4302	5.1722	3.1083	4.5319	5.4115	3.8107	3.9133	4.7308	2.9093	-0.46	-2.1727	-16.7412	0.9107	-1.0568	1.837	1.2029	0.3419	9.3372	-8.3271
1.6474	3.6864	3.9724	2.8534	5.4333	5.1535	3.1145	4.6034	5.4302	3.8045	3.963	4.7619	2.8938	-0.4693	-2.0608	-16.5422	0.9263	-1.0972	1.8463	1.1874	0.3543	9.0171	-8.4172
1.6132	3.6771	3.9537	2.8596	5.4395	5.1069	3.13	4.5971	5.4239	3.7797	4.0003	4.7743	2.8814	-0.4911	-2.0017	-16.3775	0.9636	-1.1749	1.8432	1.1407	0.3699	8.7187	-8.5167
1.6101	3.6926	3.9226	2.8907	5.4706	5.0976	3.1642	4.6531	5.4581	3.7828	4.0687	4.793	2.8907	-0.4973	-1.8992	-16.25	0.9729	-1.2495	1.9054	1.1065	0.3854	8.4327	-8.6006
1.6008	3.702	3.9133	2.9249	5.5203	5.0851	3.1798	4.7246	5.4457	3.8014	4.1527	4.8365	2.8876	-0.5066	-1.8121	-16.1475	0.9884	-1.2993	1.9209	1.0506	0.4103	8.153	-8.6752
1.6132	3.7175	3.876	2.9497	5.5793	5.0665	3.214	4.7743	5.4768	3.7672	4.2241	4.8644	2.8876	-0.5253	-1.7437	-16.0822	1.0133	-1.3832	1.9582	0.9915	0.432	7.8888	-8.7529
1.5977	3.7299	3.8511	2.9684	5.6135	5.0354	3.2171	4.852	5.4675	3.8014	4.2645	4.8893	2.8969	-0.5222	-1.694	-16.048	1.0257	-1.4516	2.0048	0.948	0.4538	7.6836	-8.8524
1.6008	3.7828	3.8418	3.0057	5.6664	5.0416	3.2544	4.9017	5.5016	3.7952	4.3702	4.9297	2.9187	-0.5191	-1.6381	-16.0169	1.0288	-1.5075	2.0639	0.9014	0.488	7.4692	-8.9207
1.5759	3.7983	3.7983	3.0119	5.7317	5.0012	3.2513	4.9857	5.5203	3.8325	4.4573	5.0105	2.9715	-0.5253	-1.5883	-16.0884	1.0351	-1.5572	2.1727	0.8672	0.575	7.3138	-9.0016
1.5324	3.7952	3.7268	3.0212	5.7472	4.9732	3.2948	5.0447	5.5638	3.8511	4.5505	5.0634	3.0275	-0.5315	-1.607	-16.1848	1.0537	-1.5759	2.2348	0.8268	0.631	7.1894	-9.0917
1.4858	3.8014	3.6584	2.9995	5.7876	4.9328	3.2948	5.0913	5.57	3.8884	4.6189	5.1162	3.0803	-0.5471	-1.635	-16.2936	1.0848	-1.6101	2.2939	0.7864	0.6776	7.0993	-9.1508
1.4329	3.7952	3.6087	2.9808	5.8125	4.8955	3.3072	5.1411	5.5856	3.9351	4.6935	5.197	3.1487	-0.5626	-1.6412	-16.4241	1.0972	-1.6536	2.3592	0.7709	0.7336	7.0402	-9.2316
1.377	3.8107	3.5434	2.987	5.8591	4.8582	3.3414	5.2188	5.6011	3.991	4.793	5.2778	3.2544	-0.5564	-1.694	-16.6199	1.1097	-1.6318	2.4245	0.7615	0.8268	7.0371	-9.3062
1.3086	3.8076	3.444	2.928	5.8715	4.8054	3.3476	5.2499	5.626	4.0501	4.8551	5.34	3.3414	-0.575	-1.7593	-16.8344	1.1376	-1.607	2.4649	0.7304	0.8796	7.0309	-9.387
1.2247	3.8201	3.36	2.8689	5.8964	4.7743	3.3414	5.3058	5.6415	4.1029	4.9266	5.4177	3.4315	-0.5844	-1.837	-17.0706	1.147	-1.6163	2.5115	0.7149	0.976	7.0682	-9.4678
1.1843	3.7703	3.2792	2.7912	5.8902	4.709	3.2854	5.2965	5.6415	4.1402	4.9639	5.4643	3.5279	-0.5937	-1.952	-17.3473	1.178	-1.5914	2.5395	0.6807	1.0009	7.1304	-9.5642
1.0755	3.7641	3.1549	2.6824	5.8529	4.5971	3.2699	5.3058	5.6229	4.1527	4.9826	5.4954	3.5776	-0.6217	-2.0235	-17.599	1.2029	-1.6039	2.5426	0.659	1.0319	7.2081	-9.6636
1.0288	3.7486	3.0741	2.5643	5.8622	4.5474	3.2233	5.2903	5.6135	4.1993	4.9981	5.542	3.6615	-0.6123	-2.1385	-17.9068	1.2091	-1.5883	2.555	0.6403	1.0599	7.3231	-9.7631
0.948	3.7268	2.9466	2.4338	5.8249	4.4666	3.1735	5.2592	5.5793	4.2117	4.9795	5.5327	3.7113	-0.6248	-2.2721	-18.2145	1.2402	-1.579	2.527	0.6185	1.0568	7.4226	-9.847
0.861	3.7268	2.8938	2.3343	5.8	4.4106	3.13	5.225	5.5576	4.2335	4.9546	5.5638	3.7579	-0.6279	-2.3903	-18.5067	1.2247	-1.5759	2.5332	0.5968	1.0724	7.5251	-9.9403
0.805	3.6802	2.7664	2.2131	5.7441	4.3112	3.0896	5.1691	5.5047	4.2521	4.9422	5.5327	3.817	-0.6372	-2.5208	-18.8082	1.2464	-1.5604	2.5363	0.5844	1.0724	7.6308	-10.0024
0.7615	3.6833	2.698	2.095	5.7161	4.2241	3.043	5.1411	5.455	4.2428	4.9111	5.5452	3.8636	-0.6465	-2.5892	-19.0972	1.262	-1.5604	2.5115	0.5781	1.0599	7.6743	-10.0957
0.7211	3.6833	2.5954	1.9831	5.6819	4.1744	2.9746	5.0882	5.4084	4.2614	4.8676	5.5296	3.9102	-0.6621	-2.6793	-19.3272	1.293	-1.5355	2.4991	0.5875	1.0599	7.6899	-10.1889
0.7242	3.6957	2.5643	1.896	5.6477	4.1154	2.987	5.0261	5.3804	4.2801	4.8427	5.5265	3.9662	-0.6714	-2.7104	-19.5106	1.3086	-1.4826	2.4928	0.5906	1.0413	7.6246	-10.2449
0.7211	3.6895	2.5177	1.8401	5.6104	4.0532	2.9529	4.967	5.3245	4.3081	4.793	5.5016	3.9817	-0.6807	-2.7601	-19.6381	1.349	-1.4982	2.4991	0.6123	1.0537	7.4785	-10.3599
0.718	3.7113	2.4991	1.7841	5.5638	3.9972	2.9404	4.8924	5.2841	4.3174	4.7339	5.4861	4.0221	-0.6994	-2.757	-19.694	1.3832	-1.4578	2.4804	0.6061	1.0257	7.2702	-10.4531
0.746	3.7206	2.4649	1.7624	5.5389	3.9413	2.9	4.852	5.2499	4.3329	4.7028	5.4457	4.0687	-0.7242	-2.7228	-19.666	1.4049	-1.4516	2.4773	0.659	1.0009	6.9998	-10.5557
0.7522	3.7424	2.4462	1.7344	5.5079	3.9195	2.9342	4.7712	5.225	4.3889	4.6406	5.4643	4.1371	-0.7398	-2.698	-19.5883	1.4609	-1.4049	2.4431	0.6838	0.9729	6.6486	-10.6427
0.7771	3.7393	2.44	1.7562	5.455	3.8916	2.956	4.7463	5.2032	4.42	4.6344	5.4519	4.2086	-0.7553	-2.6296	-19.4609	1.492	-1.3552	2.4089	0.7304	0.9449	6.2663	-10.7608
0.8206	3.7548	2.4462	1.7873	5.4395	3.876	2.987	4.6935	5.2126	4.4573	4.5723	5.455	4.2677	-0.7833	-2.5457	-19.206	1.5355	-1.3241	2.3685	0.7833	0.9169	5.8249	-10.8603
0.8859	3.7734	2.4524	1.8401	5.4239	3.8822	3.0648	4.6469	5.1908	4.5288	4.5505	5.4612	4.3329	-0.7926	-2.4431	-18.9605	1.5604	-1.2402	2.353	0.8268	0.9107	5.368	-10.9504
0.9356	3.8201	2.4991	1.9178	5.4022	3.8916	3.1331	4.6034	5.2126	4.6158	4.5225	5.4892	4.3982	-0.8019	-2.3592	-18.6652	1.579	-1.1718	2.2877	0.8859	0.889	4.9142	-11.0561
