"FZ"	"FC3"	"FCZ"	"FC4"	"C3"	"CZ"	"C4"	"CP3"	"CPZ"	"CP4"	"P3"	"PZ"	"P4"	"OZ"	"FP1"	"FP2"	"A2"	"P8"	"TP7"	"TP8"	"P7"
-1.0071	-0.1231	-0.9875	0.0252	0.0783	-0.3525	0.0028	0.1958	0.1678	0.193	0.3581	0.3749	0.1762	-0.484	-0.7245	-0.0224	0.9595	-0.4924	0.4112	-0.2098	0.0448
-1.0574	-0.1287	-1.0686	-0.0168	0.0224	-0.3749	-0.0084	0.1427	0.193	0.193	0.3245	0.3721	0.1623	-0.4896	-0.7889	-0.014	0.9735	-0.4979	0.3721	-0.235	0.0028
-1.1246	-0.1986	-1.0938	-0.0308	-0.042	-0.3805	-0.0364	0.0839	0.2014	0.2042	0.2741	0.3805	0.1483	-0.5007	-0.8504	-0.0084	0.9987	-0.5231	0.3245	-0.263	-0.0392
-1.1777	-0.2602	-1.1358	-0.0671	-0.1063	-0.4196	-0.0476	0.0336	0.1706	0.1902	0.2154	0.3637	0.1287	-0.5203	-0.9371	-0.0559	1.0183	-0.5623	0.2741	-0.2965	-0.0755
-1.2197	-0.2797	-1.1777	-0.0476	-0.1595	-0.4308	-0.0364	-0.0028	0.193	0.2014	0.1567	0.3721	0.1343	-0.5091	-0.9735	-0.0839	1.0211	-0.5707	0.2154	-0.3217	-0.0923
-1.2449	-0.3609	-1.1973	-0.0755	-0.2042	-0.4224	-0.014	-0.0587	0.2042	0.2322	0.1287	0.4084	0.1539	-0.4924	-0.9623	-0.1175	1.0015	-0.5595	0.1958	-0.3021	-0.1315
-1.2644	-0.386	-1.2505	-0.0643	-0.2881	-0.4308	-0.0336	-0.0923	0.2378	0.235	0.0895	0.3777	0.1511	-0.4728	-0.9623	-0.1623	0.9707	-0.5707	0.1287	-0.3385	-0.1678
-1.3092	-0.4196	-1.2561	-0.042	-0.3133	-0.4224	0.014	-0.1287	0.2406	0.2965	0.0448	0.414	0.179	-0.4616	-0.9511	-0.2014	0.9315	-0.5371	0.1007	-0.3161	-0.1706
-1.2812	-0.4308	-1.2533	-0.0196	-0.3469	-0.4224	0.0196	-0.1483	0.2658	0.2937	0.028	0.4448	0.2014	-0.428	-0.9036	-0.2266	0.8756	-0.5175	0.0671	-0.2769	-0.1958
-1.2477	-0.456	-1.2309	0.0028	-0.3693	-0.3916	0.0559	-0.1902	0.3021	0.3441	0.0336	0.4756	0.2462	-0.3916	-0.8644	-0.221	0.8141	-0.4448	0.0224	-0.263	-0.235
-1.2337	-0.5175	-1.2477	-0.0028	-0.442	-0.3693	0.0867	-0.1986	0.3021	0.3721	0.0112	0.4896	0.2853	-0.3665	-0.8252	-0.2406	0.7749	-0.4364	-0.0168	-0.2266	-0.2658
-1.2225	-0.5371	-1.2477	0.0196	-0.456	-0.3972	0.0951	-0.2126	0.3357	0.3944	0.0112	0.5035	0.3133	-0.3469	-0.7833	-0.2574	0.7161	-0.3832	-0.0364	-0.2238	-0.2965
-1.1973	-0.5567	-1.2253	0.0056	-0.4979	-0.3749	0.1007	-0.2294	0.3581	0.414	0	0.5511	0.3497	-0.3273	-0.7413	-0.2769	0.6714	-0.3609	-0.0699	-0.1986	-0.3021
-1.1693	-0.5819	-1.1833	0.0112	-0.4979	-0.3888	0.1007	-0.2518	0.3665	0.4308	-0.0056	0.5623	0.3916	-0.3273	-0.7022	-0.2797	0.649	-0.3189	-0.0839	-0.179	-0.3413
-1.1022	-0.5651	-1.1861	0.0224	-0.5119	-0.3413	0.1483	-0.2294	0.414	0.4448	0.042	0.6154	0.428	-0.2993	-0.6518	-0.2378	0.5931	-0.249	-0.0923	-0.1567	-0.3553
-1.049	-0.5735	-1.1386	0.0084	-0.5035	-0.3245	0.1595	-0.2014	0.4336	0.484	0.0643	0.6602	0.4784	-0.2686	-0.607	-0.2266	0.5595	-0.1846	-0.0895	-0.1091	-0.3637
-0.9819	-0.5763	-1.0938	0.014	-0.4979	-0.3161	0.1762	-0.2126	0.4588	0.5119	0.0643	0.6826	0.5091	-0.2462	-0.5539	-0.2014	0.5231	-0.1203	-0.1007	-0.0699	-0.3916
-0.9008	-0.5371	-1.0155	0.0252	-0.4672	-0.2434	0.2266	-0.1874	0.5119	0.5399	0.0783	0.7385	0.5707	-0.235	-0.4504	-0.179	0.484	-0.0699	-0.1091	-0.0224	-0.4056
-0.8224	-0.5343	-0.9679	0.0308	-0.4308	-0.221	0.249	-0.1455	0.5119	0.5623	0.1147	0.7749	0.6126	-0.2154	-0.4	-0.1539	0.456	0.0252	-0.1063	0.0168	-0.4168
-0.7357	-0.4924	-0.87	0.0504	-0.3888	-0.1706	0.2881	-0.1147	0.5623	0.6182	0.1455	0.8252	0.6714	-0.1958	-0.2993	-0.1287	0.4056	0.1063	-0.1175	0.0811	-0.4
-0.6322	-0.442	-0.7973	0.0532	-0.3217	-0.1063	0.3273	-0.0839	0.5707	0.635	0.1874	0.8784	0.7189	-0.1846	-0.2322	-0.1287	0.3637	0.1958	-0.1091	0.1427	-0.4
-0.5707	-0.386	-0.7245	0.0671	-0.3049	-0.0923	0.3273	-0.042	0.5847	0.663	0.1762	0.9176	0.7665	-0.1427	-0.1259	-0.1287	0.3189	0.2658	-0.1147	0.1986	-0.4084
-0.4896	-0.3665	-0.649	0.0615	-0.2462	-0.0364	0.3329	-0.0028	0.5959	0.6826	0.1818	0.9399	0.8029	-0.1259	0.0224	-0.1315	0.2546	0.3609	-0.1091	0.2406	-0.428
-0.4028	-0.3385	-0.5707	0.0615	-0.1846	0.0084	0.3637	0.0056	0.6378	0.6798	0.193	0.9539	0.8532	-0.0951	0.1119	-0.1483	0.2042	0.4476	-0.1035	0.2937	-0.3888
-0.3469	-0.2965	-0.4979	0.0643	-0.1343	0.0476	0.3553	0.028	0.6294	0.6658	0.1986	0.9483	0.8812	-0.0699	0.2266	-0.1399	0.1539	0.5343	-0.1035	0.3357	-0.4084
-0.2853	-0.2574	-0.4448	0.0615	-0.1203	0.0923	0.3693	0.0308	0.6294	0.6742	0.207	0.9567	0.9008	-0.028	0.3721	-0.1343	0.0867	0.5931	-0.0839	0.3665	-0.3721
-0.2294	-0.2462	-0.3832	0.0727	-0.0867	0.1203	0.3525	0.028	0.6182	0.6518	0.1958	0.9315	0.9371	0.0112	0.5035	-0.0979	0.0112	0.677	-0.1063	0.4168	-0.3721
-0.2042	-0.2378	-0.3329	0.0532	-0.0587	0.1287	0.3161	0.042	0.6098	0.6378	0.1706	0.8896	0.926	0.0392	0.5959	-0.1371	-0.042	0.7441	-0.1091	0.456	-0.3693
-0.1343	-0.2126	-0.2741	0.0224	-0.0392	0.1511	0.3301	0.0448	0.5819	0.6015	0.1678	0.8728	0.9176	0.0811	0.7022	-0.1035	-0.1231	0.8141	-0.1035	0.4728	-0.3693
-0.0979	-0.207	-0.2406	-0.0084	-0.0056	0.179	0.2797	0.0364	0.5623	0.5595	0.1511	0.8532	0.9288	0.1007	0.7665	-0.1175	-0.1874	0.8644	-0.0951	0.5091	-0.3497
-0.0643	-0.1902	-0.2126	-0.0168	-0.028	0.1539	0.2574	0.0112	0.5371	0.5091	0.1287	0.8001	0.9036	0.1371	0.8448	-0.1231	-0.2686	0.9064	-0.0895	0.5203	-0.3273
-0.0615	-0.2042	-0.2126	-0.0615	-0.0252	0.1399	0.193	-0.0084	0.4392	0.4504	0.0895	0.7133	0.8532	0.1706	0.8868	-0.1371	-0.3245	0.9343	-0.1287	0.5259	-0.3077
-0.0839	-0.2434	-0.2098	-0.1119	-0.0615	0.1035	0.1371	-0.0615	0.3916	0.3749	0.0252	0.6154	0.7917	0.179	0.8672	-0.1762	-0.3693	0.9511	-0.1567	0.5343	-0.3161
-0.0923	-0.2825	-0.2154	-0.179	-0.1091	0.0532	0.0476	-0.1147	0.3133	0.2853	-0.0308	0.5035	0.7469	0.221	0.8392	-0.1986	-0.4308	0.9427	-0.193	0.5063	-0.2993
-0.1091	-0.3133	-0.2406	-0.2406	-0.1623	0.0084	-0.0364	-0.1678	0.2182	0.1986	-0.0923	0.386	0.6658	0.2462	0.8029	-0.2546	-0.4644	0.9343	-0.2378	0.4979	-0.2993
-0.1483	-0.3665	-0.2825	-0.3133	-0.2238	-0.0476	-0.1035	-0.2294	0.1063	0.1147	-0.1762	0.2434	0.5539	0.2574	0.7637	-0.2658	-0.4896	0.9036	-0.2853	0.4448	-0.2909
-0.1902	-0.4084	-0.3077	-0.3721	-0.2853	-0.1287	-0.1986	-0.3077	-0.0028	-0.0028	-0.2574	0.1203	0.4308	0.263	0.6714	-0.2965	-0.4979	0.87	-0.3525	0.4224	-0.3133
-0.2294	-0.4616	-0.3693	-0.4448	-0.3469	-0.193	-0.2797	-0.3665	-0.0951	-0.1231	-0.3357	-0.028	0.3329	0.2769	0.6098	-0.2741	-0.5147	0.8336	-0.3693	0.3972	-0.3133
-0.249	-0.4924	-0.4	-0.4924	-0.4112	-0.2909	-0.3749	-0.4392	-0.221	-0.2462	-0.414	-0.1846	0.2014	0.2602	0.5371	-0.2881	-0.5091	0.7497	-0.4168	0.3329	-0.3133
-0.3105	-0.5623	-0.4336	-0.5707	-0.484	-0.3385	-0.428	-0.4868	-0.3525	-0.3637	-0.4812	-0.3525	0.0699	0.263	0.4532	-0.2909	-0.5007	0.6938	-0.4672	0.2714	-0.3161
-0.3525	-0.5791	-0.4728	-0.6015	-0.5483	-0.4112	-0.5287	-0.5959	-0.4476	-0.4756	-0.5959	-0.4924	-0.0532	0.2686	0.3944	-0.235	-0.4979	0.6098	-0.5147	0.2238	-0.3161
-0.3665	-0.5903	-0.4896	-0.649	-0.5791	-0.4756	-0.5987	-0.6434	-0.5511	-0.5931	-0.6518	-0.6294	-0.1567	0.2602	0.3329	-0.2014	-0.4924	0.5259	-0.5371	0.1874	-0.3189
-0.3777	-0.5931	-0.5035	-0.6742	-0.6294	-0.5287	-0.6686	-0.7106	-0.6462	-0.6826	-0.7189	-0.7665	-0.2881	0.2518	0.2294	-0.1567	-0.4896	0.4504	-0.5735	0.1175	-0.3049
-0.3916	-0.5959	-0.5175	-0.7078	-0.6518	-0.5539	-0.7161	-0.7497	-0.7441	-0.7749	-0.8001	-0.898	-0.428	0.2518	0.1427	-0.0951	-0.4756	0.3441	-0.5931	0.0587	-0.2881
-0.3832	-0.5791	-0.5147	-0.7106	-0.6854	-0.607	-0.7581	-0.8001	-0.8336	-0.884	-0.8504	-1.0211	-0.5511	0.2546	0.0727	-0.028	-0.4644	0.249	-0.6126	0.0252	-0.2741
-0.3721	-0.5623	-0.4868	-0.7133	-0.6882	-0.5987	-0.7973	-0.8364	-0.9008	-0.9567	-0.8868	-1.133	-0.6294	0.2322	0	0.0755	-0.4476	0.1818	-0.6126	-0.0112	-0.2714
-0.3497	-0.5203	-0.456	-0.7217	-0.6994	-0.6238	-0.8113	-0.8616	-0.9651	-1.0295	-0.9623	-1.2505	-0.7805	0.2266	-0.1007	0.1483	-0.4028	0.0839	-0.6238	-0.0532	-0.2686
-0.3385	-0.4672	-0.4112	-0.7133	-0.7078	-0.6322	-0.8364	-0.884	-1.0267	-1.1022	-0.9847	-1.3568	-0.8812	0.2098	-0.1762	0.2266	-0.3749	0	-0.6462	-0.1147	-0.2238
-0.2825	-0.442	-0.3497	-0.677	-0.6826	-0.6098	-0.8364	-0.8924	-1.0658	-1.133	-1.0127	-1.4155	-0.9707	0.1874	-0.263	0.3133	-0.3441	-0.0755	-0.6294	-0.1399	-0.2182
-0.2602	-0.428	-0.3161	-0.6798	-0.6742	-0.5931	-0.8504	-0.9204	-1.0854	-1.1889	-1.049	-1.4854	-1.0686	0.1734	-0.3217	0.3805	-0.3189	-0.1762	-0.5931	-0.1874	-0.2014
-0.2294	-0.3609	-0.2686	-0.6406	-0.6462	-0.5819	-0.8504	-0.9288	-1.105	-1.2197	-1.0966	-1.561	-1.1414	0.1455	-0.3888	0.4728	-0.2909	-0.249	-0.5931	-0.2266	-0.1539
-0.1818	-0.3217	-0.2098	-0.6238	-0.6126	-0.5511	-0.828	-0.898	-1.1274	-1.2365	-1.0938	-1.6085	-1.2169	0.1595	-0.4756	0.5567	-0.2909	-0.3217	-0.5455	-0.263	-0.1315
-0.1511	-0.263	-0.1678	-0.5903	-0.6015	-0.5287	-0.8141	-0.9176	-1.1358	-1.2784	-1.105	-1.6477	-1.2952	0.1539	-0.5091	0.6266	-0.2741	-0.3777	-0.5007	-0.3105	-0.1119
-0.1147	-0.2126	-0.1035	-0.5707	-0.5539	-0.4812	-0.8308	-0.912	-1.1609	-1.2924	-1.1246	-1.7092	-1.3428	0.1287	-0.5399	0.7106	-0.2518	-0.4448	-0.47	-0.3553	-0.0867
-0.0979	-0.1874	-0.0196	-0.5259	-0.5035	-0.4364	-0.7889	-0.8616	-1.1442	-1.3008	-1.1022	-1.712	-1.3819	0.1287	-0.5651	0.7581	-0.2546	-0.4951	-0.4112	-0.3888	-0.0559
-0.0559	-0.1399	0.0028	-0.5119	-0.4784	-0.4112	-0.8001	-0.8644	-1.1246	-1.3008	-1.0826	-1.7624	-1.4211	0.1259	-0.5707	0.7581	-0.235	-0.5399	-0.3553	-0.4336	-0.0336
-0.0252	-0.0895	0.0895	-0.4756	-0.4112	-0.3553	-0.7441	-0.8169	-1.0938	-1.2672	-1.0686	-1.74	-1.4379	0.1203	-0.5819	0.7805	-0.2294	-0.5763	-0.2993	-0.442	-0.0056
0.0252	-0.0168	0.165	-0.4476	-0.3525	-0.2769	-0.7273	-0.7693	-1.063	-1.2365	-1.0462	-1.7204	-1.4603	0.1231	-0.5399	0.7833	-0.2294	-0.6238	-0.2266	-0.4812	0.0364
0.0923	0.0028	0.221	-0.4112	-0.3133	-0.2406	-0.7022	-0.7329	-1.049	-1.2197	-1.0043	-1.6813	-1.5022	0.1119	-0.4644	0.7749	-0.2182	-0.649	-0.1595	-0.4951	0.0504
0.1623	0.0671	0.2993	-0.3832	-0.2406	-0.1623	-0.6826	-0.6714	-0.9763	-1.1917	-0.9455	-1.6393	-1.4603	0.1147	-0.428	0.7469	-0.207	-0.6406	-0.0979	-0.4728	0.1091
0.2042	0.1119	0.3581	-0.3329	-0.1706	-0.1091	-0.6378	-0.6126	-0.8952	-1.1414	-0.8924	-1.5973	-1.4519	0.1203	-0.3301	0.6686	-0.207	-0.6518	-0.0252	-0.4979	0.1203
0.2769	0.1567	0.4168	-0.2853	-0.1315	-0.0755	-0.5959	-0.5595	-0.856	-1.0966	-0.8532	-1.533	-1.4239	0.1063	-0.2322	0.635	-0.1874	-0.6574	0.0392	-0.5231	0.1483
0.3329	0.1762	0.4644	-0.2462	-0.0951	-0.0112	-0.5595	-0.5063	-0.8141	-1.0518	-0.7777	-1.4994	-1.3959	0.0867	-0.1818	0.5735	-0.1483	-0.6742	0.0587	-0.5287	0.165
0.3497	0.2154	0.5203	-0.2434	-0.0867	0.0056	-0.5399	-0.4756	-0.7665	-1.0239	-0.7385	-1.4407	-1.3791	0.0559	-0.1119	0.4979	-0.1231	-0.6686	0.1343	-0.5259	0.179
0.3916	0.2182	0.5371	-0.2266	-0.0476	0.0364	-0.5287	-0.4168	-0.7329	-0.9819	-0.6686	-1.3763	-1.3456	0.0448	-0.0671	0.4392	-0.0839	-0.6742	0.1623	-0.5315	0.1986
0.4532	0.2266	0.5875	-0.207	-0.042	0.0615	-0.5147	-0.3749	-0.6882	-0.9315	-0.6042	-1.3008	-1.3064	0.0168	0.0028	0.3832	-0.042	-0.6602	0.1874	-0.5287	0.1902
0.47	0.2014	0.5931	-0.1678	-0.0699	0.0643	-0.4728	-0.3553	-0.6686	-0.8812	-0.5819	-1.2644	-1.2589	0.0084	0.0476	0.3329	0.0028	-0.6658	0.1986	-0.5259	0.2014
0.5035	0.2154	0.6322	-0.1287	-0.0336	0.0811	-0.442	-0.3133	-0.6182	-0.8448	-0.5287	-1.1777	-1.2169	-0.0028	0.0839	0.2658	0.0336	-0.635	0.207	-0.5231	0.1818
0.5287	0.2266	0.6686	-0.0643	-0.0224	0.1091	-0.3832	-0.2797	-0.5679	-0.7553	-0.4644	-1.0994	-1.147	-0.0196	0.1427	0.235	0.0532	-0.6126	0.221	-0.5063	0.1762
0.5595	0.235	0.6798	-0.0392	-0.0252	0.1287	-0.3469	-0.2266	-0.5231	-0.6994	-0.4	-0.9959	-1.0714	-0.042	0.1595	0.1567	0.0867	-0.5847	0.2378	-0.4588	0.1818
0.5875	0.1958	0.6938	0.0056	-0.0168	0.1147	-0.3133	-0.2126	-0.5147	-0.6546	-0.3777	-0.9539	-1.0211	-0.0504	0.165	0.1091	0.1147	-0.5651	0.2182	-0.4364	0.165
0.6406	0.2322	0.7245	0.0615	-0.0084	0.1595	-0.2546	-0.1455	-0.4252	-0.5595	-0.2993	-0.8588	-0.9176	-0.0615	0.2182	0.0755	0.1175	-0.5259	0.2322	-0.3777	0.1511
0.6742	0.2434	0.7665	0.1119	0.0224	0.1678	-0.1902	-0.1147	-0.3749	-0.4812	-0.2322	-0.7413	-0.8448	-0.0671	0.2518	0.0252	0.1343	-0.4784	0.2294	-0.3525	0.1595
0.677	0.1958	0.7469	0.1203	0.0168	0.1539	-0.1734	-0.1007	-0.3525	-0.4196	-0.1846	-0.677	-0.7497	-0.0727	0.2769	-0.0336	0.1595	-0.4532	0.2266	-0.3217	0.1623
0.7273	0.2014	0.7693	0.1762	0.0532	0.1706	-0.0923	-0.0392	-0.3021	-0.3553	-0.1259	-0.5763	-0.6546	-0.0811	0.3301	-0.0643	0.179	-0.4028	0.2182	-0.2965	0.1678
0.7497	0.207	0.7917	0.2378	0.0615	0.2182	-0.0476	-0.0056	-0.2378	-0.2797	-0.0643	-0.4644	-0.5259	-0.0923	0.3665	-0.0979	0.1958	-0.3525	0.2154	-0.249	0.1902
0.7805	0.2154	0.7805	0.2714	0.1007	0.2154	0.0028	0.0476	-0.2014	-0.2126	0.0112	-0.3665	-0.4392	-0.1007	0.4504	-0.1063	0.207	-0.3077	0.2182	-0.1958	0.1818
0.8197	0.2378	0.8308	0.3021	0.1371	0.2406	0.0671	0.1119	-0.1147	-0.1091	0.0783	-0.2462	-0.3329	-0.0979	0.5091	-0.1259	0.207	-0.2518	0.2322	-0.1623	0.2154
0.8588	0.249	0.8448	0.3245	0.1706	0.2574	0.1147	0.1678	-0.042	-0.0504	0.1567	-0.1259	-0.2294	-0.0923	0.5959	-0.1203	0.1958	-0.2266	0.2322	-0.1371	0.2238
0.8364	0.2797	0.8504	0.3888	0.2238	0.2574	0.2042	0.2294	0.0252	0.0252	0.2518	-0.0112	-0.1231	-0.0727	0.6406	-0.1455	0.1706	-0.1567	0.2238	-0.1203	0.2238
0.8784	0.3245	0.8672	0.3805	0.249	0.2881	0.2378	0.3105	0.0755	0.1343	0.3189	0.1259	-0.0112	-0.0532	0.7078	-0.1734	0.1399	-0.1063	0.235	-0.0951	0.2714
0.8812	0.3665	0.8784	0.4112	0.3189	0.3385	0.3105	0.3916	0.179	0.2266	0.4084	0.2462	0.1147	-0.042	0.7693	-0.1762	0.0979	-0.0587	0.2658	-0.0532	0.3049
0.9008	0.414	0.9036	0.414	0.3777	0.3832	0.3832	0.4896	0.2546	0.3049	0.5091	0.3777	0.221	-0.0112	0.8001	-0.2042	0.042	-0.0028	0.2797	-0.0028	0.3329
0.8644	0.4476	0.8924	0.428	0.4336	0.3944	0.4168	0.5651	0.3105	0.3888	0.5903	0.484	0.3273	0.0112	0.8224	-0.2378	0.0084	0.0364	0.2769	0.0224	0.3469
0.8644	0.4896	0.8924	0.4196	0.5035	0.4392	0.4672	0.663	0.3944	0.4672	0.677	0.6266	0.4252	0.014	0.8029	-0.2546	-0.0336	0.0895	0.3021	0.0504	0.3749
0.8728	0.5651	0.926	0.4616	0.5875	0.4951	0.5371	0.7581	0.5007	0.5679	0.7805	0.7637	0.5315	0.0504	0.7777	-0.2741	-0.0951	0.1539	0.3329	0.1035	0.4168
0.87	0.607	0.9511	0.4672	0.663	0.5231	0.6098	0.8476	0.5567	0.6518	0.8756	0.8756	0.635	0.0727	0.7329	-0.2937	-0.1287	0.1986	0.3273	0.1315	0.4168
0.8756	0.6826	0.9707	0.4951	0.7553	0.5791	0.677	0.9595	0.649	0.7525	0.9707	0.9847	0.7301	0.1091	0.6574	-0.3105	-0.193	0.249	0.3832	0.1706	0.4616
0.87	0.7553	0.9791	0.5091	0.856	0.621	0.7329	1.0351	0.7133	0.8001	1.0406	1.077	0.8085	0.1315	0.5763	-0.3637	-0.235	0.2881	0.3888	0.221	0.4868
0.8812	0.8504	1.0239	0.5147	0.9148	0.6854	0.7917	1.147	0.8001	0.9092	1.1218	1.1777	0.8868	0.1539	0.47	-0.3721	-0.2825	0.3273	0.4196	0.263	0.5147
0.9064	0.9176	1.0518	0.5791	1.0183	0.7497	0.8644	1.2393	0.8392	0.9539	1.2085	1.2868	0.9791	0.1734	0.3805	-0.4	-0.3357	0.3749	0.4504	0.3105	0.5511
0.912	0.9679	1.0826	0.607	1.091	0.7721	0.926	1.298	0.9092	1.0379	1.3008	1.354	1.0323	0.207	0.2658	-0.4308	-0.3749	0.4224	0.4728	0.3497	0.5679
0.912	1.0379	1.1106	0.6574	1.1945	0.8169	0.9791	1.368	0.9483	1.1022	1.3568	1.4295	1.091	0.1986	0.1567	-0.4504	-0.4	0.442	0.4896	0.3888	0.5875
0.9511	1.1022	1.1358	0.6938	1.2784	0.8644	1.063	1.4295	0.9959	1.1525	1.4043	1.4743	1.1525	0.2294	0.0671	-0.3944	-0.4336	0.4532	0.4868	0.4364	0.5707
0.9371	1.1665	1.1693	0.7497	1.3204	0.926	1.1078	1.4966	1.0546	1.2337	1.4435	1.5526	1.1889	0.2434	-0.0084	-0.4168	-0.4588	0.47	0.5119	0.4979	0.5819
0.9707	1.1861	1.2113	0.8057	1.3596	0.9791	1.1973	1.575	1.0854	1.298	1.4994	1.6113	1.2533	0.2518	-0.0783	-0.3609	-0.47	0.5091	0.5259	0.5595	0.6015
1.0015	1.2365	1.2365	0.8588	1.4491	1.0155	1.2281	1.6057	1.133	1.3596	1.5722	1.6421	1.2784	0.2574	-0.1063	-0.2881	-0.4868	0.5147	0.5483	0.6098	0.5875
1.0155	1.3148	1.2812	0.9232	1.5022	1.0518	1.3232	1.6505	1.1637	1.4183	1.6001	1.6701	1.3148	0.2546	-0.1343	-0.2182	-0.4979	0.5203	0.5595	0.6714	0.6015
1.049	1.3344	1.3008	0.9763	1.5358	1.0714	1.3456	1.6841	1.1917	1.4631	1.6169	1.6869	1.3372	0.263	-0.1483	-0.1483	-0.4784	0.5315	0.5427	0.7106	0.5847
1.0686	1.3204	1.3428	1.0462	1.5498	1.0994	1.3931	1.7176	1.2085	1.5162	1.6421	1.6953	1.3735	0.2462	-0.1259	-0.0923	-0.4644	0.5455	0.5539	0.7749	0.5763
1.1134	1.3568	1.3763	1.105	1.5834	1.1442	1.4463	1.6953	1.2309	1.5722	1.6673	1.7092	1.3596	0.2462	-0.0923	-0.0196	-0.456	0.5651	0.5539	0.8476	0.5483
1.1022	1.3568	1.4015	1.1581	1.5526	1.1358	1.5162	1.698	1.2253	1.6309	1.6589	1.6953	1.3931	0.2266	-0.0476	0.0532	-0.4168	0.5595	0.5427	0.8812	0.5287
1.1302	1.3847	1.4267	1.1889	1.5862	1.1358	1.533	1.6925	1.2197	1.6253	1.6421	1.6869	1.3707	0.2126	0.0112	0.165	-0.3916	0.5623	0.5231	0.9399	0.5007
1.1442	1.3652	1.4575	1.2561	1.5694	1.1581	1.5386	1.6533	1.2169	1.6449	1.6253	1.6757	1.3484	0.2014	0.0979	0.221	-0.3609	0.5567	0.5063	0.9651	0.4784
1.1917	1.4015	1.491	1.3036	1.575	1.1637	1.5889	1.6449	1.1917	1.6337	1.5945	1.6197	1.3428	0.165	0.193	0.2993	-0.3273	0.5315	0.4924	1.0043	0.442
1.2505	1.4071	1.5274	1.326	1.5526	1.1777	1.6085	1.6085	1.1917	1.6561	1.5778	1.5889	1.326	0.1567	0.2909	0.3832	-0.2937	0.5231	0.4868	1.0434	0.3944
1.2644	1.4127	1.5638	1.3763	1.5358	1.1637	1.6029	1.5778	1.1497	1.6253	1.5358	1.5414	1.3092	0.1455	0.3972	0.4728	-0.2574	0.5231	0.4672	1.0658	0.3329
1.2728	1.4127	1.575	1.3903	1.4938	1.1386	1.6029	1.5218	1.0966	1.5917	1.4715	1.4687	1.2505	0.1035	0.4812	0.5091	-0.1958	0.4756	0.428	1.063	0.2937
1.3176	1.4043	1.5862	1.3931	1.4519	1.0994	1.5834	1.4603	1.0826	1.5666	1.4155	1.3903	1.1973	0.0811	0.5483	0.5427	-0.1511	0.4336	0.4168	1.0826	0.235
1.3288	1.4043	1.5889	1.4015	1.4267	1.077	1.5274	1.3847	0.9847	1.4966	1.3372	1.2924	1.1358	0.0559	0.5987	0.5539	-0.1007	0.3832	0.3693	1.0658	0.1846
1.3512	1.3903	1.5945	1.4071	1.3735	1.0574	1.5022	1.3176	0.9427	1.4435	1.2393	1.2141	1.0686	0.0168	0.677	0.5679	-0.0364	0.3329	0.3245	1.0323	0.0895
1.368	1.3875	1.5666	1.3931	1.3316	1.0406	1.4519	1.27	0.898	1.3428	1.1973	1.1553	0.9987	0.0056	0.7133	0.5231	0.0028	0.2853	0.3217	1.0211	0.0448
1.3791	1.3903	1.5722	1.3735	1.2812	0.9707	1.4155	1.2001	0.856	1.2756	1.119	1.0574	0.9427	-0.0168	0.7469	0.456	0.042	0.2266	0.2853	0.9819	-0.0224
1.4239	1.3875	1.5889	1.3819	1.2449	0.9819	1.3568	1.1525	0.8001	1.2057	1.0406	0.9931	0.8784	-0.0224	0.7777	0.4	0.0727	0.1846	0.2518	0.9455	-0.0755
1.4323	1.3931	1.5666	1.3624	1.2169	0.9427	1.312	1.0714	0.7385	1.0994	0.9623	0.926	0.7973	-0.0448	0.7861	0.2714	0.0951	0.1119	0.2266	0.9008	-0.1567
1.4351	1.3652	1.5386	1.354	1.1749	0.9176	1.2561	1.0323	0.7022	1.0351	0.8924	0.8644	0.7273	-0.042	0.7777	0.1483	0.0923	0.0783	0.207	0.8448	-0.2126
1.4407	1.3707	1.5246	1.326	1.1553	0.9036	1.2029	0.9847	0.6658	0.9483	0.8336	0.7945	0.6798	-0.0308	0.7665	0.0448	0.0923	0.0364	0.1706	0.7945	-0.2825
1.4379	1.368	1.5218	1.3456	1.1302	0.8896	1.1553	0.9455	0.649	0.8896	0.7917	0.7777	0.6406	-0.0364	0.7693	-0.1315	0.0867	0.0028	0.1623	0.7497	-0.3441
1.4575	1.3596	1.491	1.3036	1.0938	0.856	1.0854	0.912	0.5903	0.8169	0.7106	0.7106	0.5735	-0.0336	0.7805	-0.2098	0.0923	-0.0448	0.1287	0.7106	-0.4112
1.4575	1.3316	1.4771	1.3092	1.0742	0.842	1.0406	0.8896	0.5679	0.7693	0.6966	0.6882	0.5371	-0.014	0.7469	-0.3161	0.0587	-0.0615	0.1175	0.6518	-0.456
1.4743	1.3596	1.4463	1.2868	1.0546	0.8364	0.9959	0.8448	0.5399	0.7329	0.635	0.6462	0.5007	-0.0112	0.7777	-0.386	0.0364	-0.1035	0.0811	0.607	-0.5091
1.4771	1.3624	1.4435	1.2589	1.0658	0.8448	0.9595	0.842	0.5483	0.705	0.6154	0.6322	0.4868	0.0028	0.7665	-0.4168	0.0168	-0.1259	0.0559	0.5679	-0.5595
1.4659	1.368	1.4211	1.2225	1.063	0.8392	0.9511	0.8336	0.5455	0.677	0.6015	0.6378	0.4672	0.0168	0.7749	-0.4504	-0.0084	-0.1259	0.0587	0.5427	-0.6098
1.4379	1.3316	1.3959	1.2113	1.0546	0.8448	0.9176	0.8336	0.5231	0.649	0.5623	0.6126	0.4504	0.0308	0.7777	-0.4728	-0.014	-0.1483	0.028	0.5035	-0.649
1.4547	1.3428	1.3987	1.1973	1.0658	0.8476	0.8924	0.7945	0.5287	0.6378	0.5315	0.6015	0.4756	0.0364	0.7805	-0.4588	-0.0364	-0.1511	0.028	0.4951	-0.6854
1.4015	1.3232	1.3707	1.1889	1.0574	0.8476	0.8672	0.8029	0.5287	0.6434	0.5231	0.5875	0.4728	0.0336	0.7609	-0.4168	-0.0336	-0.1762	0.014	0.4951	-0.7273
1.4015	1.326	1.3652	1.1777	1.0518	0.8924	0.87	0.8113	0.5371	0.6462	0.5147	0.6126	0.4812	0.0364	0.7609	-0.3888	-0.0476	-0.193	-0.0224	0.4979	-0.7553
1.3763	1.3316	1.3344	1.1805	1.0574	0.9008	0.8756	0.8252	0.5623	0.677	0.5147	0.6182	0.4979	0.0308	0.7553	-0.3777	-0.0615	-0.1986	-0.0168	0.4784	-0.7637
1.3596	1.3288	1.3372	1.1777	1.091	0.9455	0.9008	0.8364	0.6126	0.7189	0.5259	0.635	0.5315	0.0587	0.7889	-0.2937	-0.0895	-0.179	-0.0559	0.4979	-0.7945
1.3707	1.3484	1.3456	1.1945	1.0938	0.9875	0.9623	0.8868	0.6686	0.7721	0.5287	0.691	0.5959	0.0643	0.8141	-0.2322	-0.1119	-0.1706	-0.042	0.5623	-0.8224
1.3707	1.3484	1.3344	1.2169	1.1414	1.0379	0.9735	0.9204	0.7329	0.8504	0.5567	0.7301	0.6238	0.0867	0.8532	-0.1455	-0.1483	-0.1678	-0.0699	0.5931	-0.8504
1.3344	1.354	1.3176	1.2533	1.1721	1.1106	1.0462	0.9343	0.7833	0.9148	0.5847	0.7805	0.6882	0.1007	0.8616	-0.0532	-0.1818	-0.1287	-0.0559	0.6434	-0.8504
1.3652	1.4043	1.3624	1.3092	1.2393	1.1945	1.1162	1.0043	0.8784	1.0099	0.635	0.8364	0.7385	0.1119	0.9288	0.0559	-0.2238	-0.1119	-0.0336	0.6826	-0.8672
1.4211	1.4435	1.4127	1.3735	1.2896	1.2924	1.2197	1.1022	0.9651	1.1106	0.6966	0.9036	0.8224	0.1483	0.9791	0.179	-0.2965	-0.042	-0.014	0.7637	-0.842
1.4211	1.4603	1.4631	1.4127	1.3344	1.3596	1.2896	1.1497	1.0574	1.2029	0.7329	0.9763	0.912	0.1678	1.0043	0.3189	-0.3357	-0.0252	-0.0028	0.8532	-0.8476
1.4351	1.505	1.4826	1.4826	1.3596	1.4407	1.3875	1.2253	1.1581	1.312	0.7889	1.0826	1.0071	0.2098	1.0127	0.4476	-0.4084	0.0504	0.0224	0.9455	-0.8252
1.4715	1.5442	1.5414	1.5498	1.4239	1.5218	1.4798	1.2952	1.2533	1.4239	0.8644	1.1497	1.077	0.235	1.0127	0.5679	-0.47	0.1063	0.0336	1.0379	-0.7833
1.4882	1.5862	1.5498	1.6085	1.4743	1.6085	1.5834	1.3707	1.3568	1.5134	0.9204	1.2029	1.1693	0.2825	1.0183	0.6938	-0.5483	0.1595	0.0615	1.0966	-0.7777
1.4798	1.5889	1.5722	1.6449	1.4854	1.6897	1.6617	1.3959	1.4519	1.5806	0.9567	1.2533	1.2225	0.2993	0.9903	0.7637	-0.5875	0.2014	0.0615	1.1665	-0.7833
1.5022	1.6113	1.6225	1.6785	1.5274	1.7344	1.7204	1.4547	1.547	1.6365	0.9987	1.3204	1.3036	0.3329	0.9623	0.8252	-0.6574	0.2294	0.0783	1.2001	-0.7553
1.4938	1.6449	1.6309	1.7456	1.5498	1.8183	1.7932	1.505	1.6085	1.74	1.0574	1.3819	1.3372	0.3469	0.9148	0.884	-0.6882	0.263	0.0867	1.2728	-0.7441
1.5162	1.6533	1.6477	1.8239	1.5694	1.8771	1.8631	1.5498	1.6897	1.8183	1.1134	1.4155	1.4043	0.3749	0.8812	0.9483	-0.7301	0.3245	0.0923	1.312	-0.7217
1.5274	1.6589	1.6841	1.8659	1.5945	1.9107	1.9274	1.5917	1.7456	1.8407	1.147	1.4435	1.4379	0.4028	0.87	0.9651	-0.7637	0.3301	0.1035	1.3624	-0.7301
1.5666	1.6505	1.6925	1.8967	1.6113	1.9526	1.9834	1.6421	1.8071	1.8855	1.2057	1.4966	1.4659	0.3916	0.8085	0.9735	-0.7581	0.3637	0.1007	1.3763	-0.6966
1.5442	1.6785	1.7092	1.947	1.6477	1.989	2.0365	1.6729	1.8687	1.919	1.2225	1.5078	1.4743	0.3916	0.7917	1.0043	-0.7553	0.3497	0.1091	1.3847	-0.6854
1.5973	1.7064	1.7568	2.003	1.6897	2.0281	2.0869	1.7484	1.9274	1.9498	1.2896	1.575	1.4966	0.386	0.8113	1.0239	-0.7413	0.3749	0.1455	1.4267	-0.663
1.6281	1.7624	1.7736	2.0477	1.726	2.0813	2.1289	1.7932	1.9834	1.9526	1.3428	1.6029	1.5274	0.386	0.8113	1.0406	-0.7273	0.3888	0.1762	1.4099	-0.6126
1.6673	1.7736	1.8155	2.0953	1.7652	2.1121	2.1456	1.8491	2.0253	1.9666	1.3875	1.6253	1.533	0.3637	0.8252	1.0239	-0.6714	0.3637	0.207	1.3959	-0.5819
1.6841	1.8211	1.8463	2.1261	1.8016	2.1428	2.1904	1.8911	2.0897	1.9526	1.4407	1.6365	1.519	0.3133	0.898	1.0462	-0.5931	0.3553	0.2434	1.3652	-0.5567
1.712	1.8407	1.9135	2.182	1.8491	2.1624	2.2016	1.9302	2.1261	1.9498	1.4715	1.6617	1.5218	0.2769	0.9511	1.0295	-0.5231	0.3469	0.2909	1.3652	-0.4951
1.7596	1.9107	1.9414	2.2156	1.8827	2.2016	2.2128	1.9974	2.1764	1.9582	1.5134	1.6645	1.4882	0.2294	1.0462	1.0462	-0.4532	0.3273	0.3245	1.3148	-0.456
1.8044	1.9274	1.9778	2.238	1.9414	2.224	2.2016	2.0449	2.2072	1.933	1.547	1.6813	1.4854	0.207	1.1274	1.049	-0.3777	0.3301	0.3777	1.2784	-0.3888
1.8239	1.9526	2.0449	2.2743	1.9946	2.2436	2.2044	2.0813	2.2128	1.9135	1.5917	1.6813	1.4798	0.1595	1.2505	1.0239	-0.2937	0.3245	0.4308	1.2756	-0.3693
1.8743	1.989	2.0981	2.2995	2.0477	2.2436	2.1876	2.1121	2.2268	1.8631	1.6169	1.6449	1.4099	0.1035	1.3512	1.0211	-0.1958	0.2658	0.456	1.2113	-0.3245
1.9162	2.0198	2.1261	2.2967	2.0869	2.224	2.154	2.1372	2.2268	1.8183	1.6197	1.6141	1.3875	0.0643	1.4295	0.9567	-0.1035	0.2294	0.4784	1.1442	-0.2825
1.933	2.0449	2.1708	2.2883	2.1121	2.2016	2.1177	2.154	2.1848	1.7708	1.6365	1.5917	1.3316	0.0028	1.5638	0.9288	0	0.193	0.5287	1.0938	-0.2238
1.9666	2.0421	2.1848	2.2575	2.1093	2.1932	2.0589	2.1736	2.1484	1.7008	1.6337	1.519	1.2812	-0.0364	1.6141	0.842	0.0839	0.1678	0.5847	1.0071	-0.193
1.9778	2.0561	2.1708	2.2659	2.1345	2.1484	2.0058	2.1261	2.0953	1.6365	1.6001	1.4547	1.2197	-0.0783	1.6421	0.7973	0.179	0.1091	0.5875	0.9232	-0.1734
1.9582	2.0561	2.154	2.182	2.1289	2.0729	1.9162	2.1149	2.0058	1.5582	1.5834	1.3763	1.1525	-0.1427	1.7148	0.6966	0.2881	0.0392	0.6126	0.8085	-0.1315
1.9358	2.0533	2.1177	2.1205	2.1009	1.9834	1.8267	2.0785	1.9246	1.4547	1.5386	1.2868	1.0742	-0.1846	1.7148	0.5987	0.386	0.014	0.6266	0.7022	-0.1035
1.9498	2.0421	2.0841	2.0365	2.0645	1.8771	1.7344	2.0449	1.8127	1.368	1.4966	1.2029	0.9819	-0.235	1.7008	0.4979	0.4868	-0.0392	0.621	0.5987	-0.0839
1.9302	2.0337	2.0533	1.975	2.0365	1.768	1.6169	1.9722	1.698	1.2561	1.4239	1.0714	0.926	-0.2909	1.7288	0.4056	0.5987	-0.0979	0.6266	0.456	-0.0811
1.9218	2.0114	1.9834	1.8715	1.975	1.6673	1.5022	1.8939	1.547	1.147	1.3875	0.9819	0.856	-0.3245	1.698	0.2769	0.6714	-0.1119	0.6182	0.3385	-0.042
1.8883	1.989	1.9135	1.7764	1.9246	1.5526	1.4351	1.8519	1.4295	1.049	1.3568	0.8644	0.7973	-0.3721	1.6589	0.1762	0.7525	-0.1063	0.6126	0.263	-0.0364
1.8659	1.9722	1.8575	1.6953	1.8771	1.4211	1.298	1.7736	1.3008	0.9399	1.2868	0.7609	0.7581	-0.3916	1.6169	0.0811	0.8029	-0.0867	0.607	0.1567	-0.0168
1.8435	1.9358	1.782	1.6057	1.8071	1.2868	1.2281	1.7008	1.1777	0.9176	1.2477	0.6546	0.7301	-0.4196	1.5582	-0.014	0.8588	-0.0559	0.5931	0.0783	0.028
1.8099	1.9023	1.7008	1.4994	1.7232	1.1693	1.147	1.6253	1.049	0.828	1.1861	0.5735	0.7245	-0.4364	1.4798	-0.1035	0.9148	-0.0196	0.5959	0.0028	0.0559
1.7764	1.8575	1.6197	1.4015	1.6589	1.0239	1.0714	1.5442	0.9176	0.7833	1.1553	0.4951	0.7581	-0.4476	1.368	-0.1902	0.9371	0.0532	0.5791	-0.0699	0.1007
1.6701	1.8044	1.5218	1.312	1.575	0.9064	0.9819	1.4854	0.7973	0.7609	1.1274	0.4392	0.7861	-0.4812	1.2477	-0.2937	0.9735	0.1399	0.5847	-0.0951	0.1762
1.5945	1.7148	1.4099	1.1917	1.491	0.7749	0.884	1.4239	0.691	0.7133	1.105	0.3916	0.8476	-0.5007	1.0966	-0.3944	0.9987	0.235	0.5847	-0.1511	0.2322
1.5134	1.6673	1.298	1.077	1.4323	0.6434	0.8057	1.3484	0.6098	0.705	1.0994	0.3805	0.9343	-0.5063	0.9511	-0.4924	1.0211	0.3693	0.5903	-0.1818	0.3161
1.3819	1.575	1.1637	0.9567	1.3344	0.5091	0.7217	1.2896	0.5259	0.7133	1.1134	0.3777	1.0379	-0.5175	0.8029	-0.607	1.0602	0.4924	0.6154	-0.1706	0.3972
1.2672	1.4882	1.049	0.8448	1.2225	0.3944	0.6742	1.2533	0.442	0.7525	1.1358	0.4056	1.1917	-0.5343	0.6266	-0.6854	1.0658	0.6322	0.6462	-0.207	0.4868
1.1302	1.3959	0.9176	0.7161	1.1833	0.2546	0.6238	1.2141	0.386	0.7665	1.1553	0.4308	1.3456	-0.5343	0.4672	-0.7861	1.0742	0.7973	0.6686	-0.2042	0.5819
0.9959	1.3204	0.8001	0.5903	1.1162	0.1595	0.5791	1.1861	0.3441	0.8392	1.2001	0.4868	1.5022	-0.5427	0.3189	-0.8896	1.105	0.9511	0.6826	-0.2126	0.6826
0.8364	1.2225	0.6574	0.4728	1.0323	0.0643	0.5119	1.1442	0.2965	0.8672	1.2533	0.5791	1.6729	-0.5539	0.179	-0.9791	1.1246	1.1134	0.705	-0.2154	0.8057
0.7106	1.1749	0.5343	0.3609	0.9791	-0.0504	0.47	1.1553	0.2881	0.926	1.3148	0.663	1.8603	-0.5679	0.0056	-1.0798	1.1525	1.27	0.7525	-0.2266	0.9232
0.5567	1.105	0.4112	0.2238	0.9064	-0.1287	0.428	1.1162	0.2658	0.9987	1.3931	0.7525	2.0142	-0.5875	-0.1427	-1.147	1.1973	1.3875	0.7861	-0.2294	1.0379
0.4224	1.0295	0.2741	0.0979	0.8616	-0.235	0.3916	1.119	0.2825	1.0434	1.4547	0.8448	2.1876	-0.6238	-0.3133	-1.27	1.2505	1.5106	0.8085	-0.235	1.1414
0.2825	0.9343	0.1567	-0.0252	0.8141	-0.3105	0.3385	1.1106	0.2769	1.105	1.561	0.9707	2.3666	-0.6518	-0.47	-1.3512	1.3008	1.6113	0.8672	-0.2322	1.2728
0.1427	0.8728	0.0084	-0.165	0.7665	-0.4112	0.2909	1.1246	0.3049	1.1917	1.6421	1.077	2.5177	-0.6658	-0.6602	-1.4743	1.3512	1.726	0.9176	-0.2406	1.4043
0.0056	0.8308	-0.1007	-0.2965	0.7329	-0.4728	0.2546	1.1218	0.3245	1.2309	1.7232	1.2029	2.6352	-0.6938	-0.8336	-1.5806	1.4071	1.7708	0.9847	-0.2602	1.5554
-0.1846	0.7217	-0.263	-0.4532	0.6574	-0.6042	0.1902	1.1106	0.3301	1.2644	1.7988	1.3036	2.7611	-0.7357	-1.0379	-1.7484	1.491	1.8099	1.0323	-0.2965	1.6729
-0.3301	0.6742	-0.4	-0.5735	0.6238	-0.6686	0.1539	1.1134	0.3609	1.3008	1.8995	1.4547	2.901	-0.7637	-1.2113	-1.8939	1.5386	1.8491	1.1134	-0.2881	1.8351
-0.5203	0.5539	-0.5511	-0.7525	0.5707	-0.7861	0.0755	1.1218	0.3609	1.2952	1.9834	1.5666	2.9737	-0.8085	-1.3735	-2.0505	1.6309	1.8295	1.1553	-0.3357	1.9666
-0.7078	0.4756	-0.6966	-0.8924	0.5203	-0.8756	-0.0196	1.1386	0.3637	1.2924	2.0701	1.6785	3.024	-0.8476	-1.5526	-2.2491	1.6925	1.7876	1.2337	-0.3665	2.1345
-0.898	0.3777	-0.8784	-1.063	0.4728	-0.9931	-0.0923	1.1246	0.4	1.2756	2.2156	1.8155	3.0772	-0.8756	-1.7092	-2.3946	1.7624	1.7736	1.2952	-0.386	2.2631
-1.1246	0.2686	-1.0798	-1.2505	0.4224	-1.105	-0.2238	1.1302	0.3972	1.2253	2.3135	1.947	3.0772	-0.9232	-1.8575	-2.5569	1.8435	1.6757	1.3652	-0.4644	2.3834
-1.326	0.1147	-1.2756	-1.4127	0.3245	-1.2057	-0.3161	1.1218	0.4	1.1637	2.4282	2.0869	3.08	-0.9455	-1.989	-2.7303	1.9079	1.6001	1.4015	-0.5259	2.5317
-1.5554	-0.014	-1.4603	-1.5778	0.2769	-1.3344	-0.4448	1.1302	0.4056	1.1022	2.5289	2.2128	3.0772	-0.9791	-2.0701	-2.8898	1.961	1.5078	1.4659	-0.6098	2.6744
-1.7372	-0.1315	-1.6365	-1.782	0.2126	-1.4351	-0.5735	1.1274	0.414	1.049	2.6716	2.3834	3.094	-0.9987	-2.1596	-3.038	2.0002	1.3819	1.5106	-0.649	2.8086
-1.9442	-0.2937	-1.8323	-1.947	0.1035	-1.5498	-0.7161	1.1358	0.428	0.9623	2.7863	2.5177	3.0604	-1.0155	-2.1876	-3.1499	2.0198	1.27	1.5358	-0.7161	2.9429
-2.1792	-0.4644	-2.0533	-2.1149	0.0168	-1.6617	-0.842	1.1442	0.4196	0.8784	2.9261	2.652	3.024	-1.0267	-2.2128	-3.273	2.0449	1.1525	1.5778	-0.7917	3.0604
-2.3527	-0.5847	-2.2184	-2.2715	-0.0504	-1.7624	-0.9847	1.1749	0.4392	0.7861	3.0856	2.8282	3.0324	-1.0155	-2.2128	-3.3569	2.0198	1.0406	1.5973	-0.8476	3.2199
-2.5736	-0.7637	-2.4366	-2.459	-0.165	-1.9107	-1.1302	1.1442	0.4308	0.6602	3.2171	2.9429	2.9317	-1.0127	-2.2575	-3.5108	2.0226	0.926	1.6505	-0.9288	3.3318
-2.7527	-0.9483	-2.6352	-2.6156	-0.2406	-2.0309	-1.27	1.1525	0.4252	0.5567	3.3681	3.0856	2.873	-1.0015	-2.2463	-3.5947	2.0086	0.8392	1.6813	-0.9679	3.4632
-2.9065	-1.1106	-2.7974	-2.7695	-0.3189	-2.1456	-1.4267	1.1721	0.428	0.4168	3.5332	3.2422	2.8226	-0.9959	-2.2463	-3.7066	1.9722	0.7581	1.712	-1.0295	3.6339
-3.0604	-1.2533	-2.9765	-2.9093	-0.4336	-2.2715	-1.5666	1.1525	0.4112	0.3049	3.6786	3.3821	2.7499	-0.9847	-2.2827	-3.7933	1.9526	0.6854	1.7456	-1.0882	3.7374
-3.2283	-1.4603	-3.1807	-3.0772	-0.5427	-2.3946	-1.768	1.1386	0.3609	0.1483	3.8269	3.452	2.6576	-0.9735	-2.3722	-3.9416	1.9526	0.621	1.768	-1.1609	3.8493
-3.3653	-1.6169	-3.3821	-3.2506	-0.6658	-2.5289	-1.9107	1.1358	0.3329	0.0587	3.9668	3.5332	2.596	-0.9735	-2.4394	-4.0255	1.933	0.5819	1.7652	-1.2169	3.9864
-3.5388	-1.8323	-3.5807	-3.4045	-0.7749	-2.6883	-2.0897	1.0994	0.2714	-0.1119	4.0815	3.6031	2.4869	-0.9819	-2.5205	-4.1514	1.9386	0.5371	1.7792	-1.27	4.1122
-3.6702	-1.9694	-3.7374	-3.5472	-0.8672	-2.8282	-2.2352	1.1134	0.2238	-0.2406	4.213	3.6702	2.4226	-0.9847	-2.5932	-4.2717	1.933	0.5175	1.8351	-1.312	4.2605
-3.8101	-2.1372	-3.9556	-3.7122	-0.9959	-2.9625	-2.4002	1.0742	0.1483	-0.3805	4.2829	3.701	2.3163	-0.9763	-2.7051	-4.3752	1.961	0.4924	1.796	-1.3763	4.3556
-3.9388	-2.3247	-4.1234	-3.8661	-1.0854	-3.0912	-2.5848	1.063	0.0755	-0.5371	4.3892	3.7262	2.2491	-0.9847	-2.8198	-4.4927	1.9666	0.4951	1.8127	-1.4379	4.4983
-4.0647	-2.459	-4.2969	-4.0031	-1.1917	-3.2115	-2.7359	1.0323	0.0084	-0.663	4.4843	3.7486	2.1652	-0.9931	-2.9149	-4.5962	1.9722	0.5259	1.8547	-1.4771	4.6046
-4.2046	-2.6128	-4.4843	-4.143	-1.2672	-3.3625	-2.8926	1.0155	-0.0587	-0.7833	4.571	3.743	2.0925	-1.0015	-3.0604	-4.7277	1.9806	0.5819	1.8715	-1.5358	4.7333
-4.3248	-2.7303	-4.6522	-4.2941	-1.3652	-3.4828	-3.0632	0.9931	-0.1483	-0.9399	4.6438	3.7374	2.0198	-0.9931	-3.1583	-4.834	1.9778	0.6434	1.8883	-1.5945	4.848
-4.4731	-2.845	-4.8312	-4.4451	-1.4435	-3.6423	-3.2031	0.9847	-0.235	-1.0602	4.6997	3.6786	1.9414	-1.0043	-3.3206	-4.9431	1.9946	0.7329	1.8827	-1.6533	4.9403
-4.6018	-2.9625	-4.9767	-4.5738	-1.5358	-3.7458	-3.3374	0.9483	-0.3189	-1.1749	4.778	3.6423	1.8715	-1.0071	-3.4437	-5.0941	1.9918	0.8197	1.8995	-1.6925	5.055
-4.764	-3.0688	-5.1501	-4.7389	-1.6393	-3.8884	-3.4828	0.9343	-0.4112	-1.3008	4.8172	3.5891	1.8239	-1.0183	-3.6115	-5.1893	2.0226	0.9427	1.919	-1.7596	5.1389
-4.9039	-3.1779	-5.304	-4.8787	-1.7176	-4.0283	-3.6199	0.8952	-0.5007	-1.4099	4.862	3.5164	1.7484	-1.0406	-3.7849	-5.2592	2.0533	1.063	1.9246	-1.8183	5.2368
-5.055	-3.2814	-5.4578	-5.0186	-1.7848	-4.1682	-3.7626	0.8644	-0.5875	-1.5274	4.9011	3.4576	1.7036	-1.063	-3.936	-5.3263	2.0785	1.2057	1.9414	-1.9023	5.3263
-5.1809	-3.3681	-5.6033	-5.1585	-1.8715	-4.2857	-3.8633	0.8644	-0.6462	-1.6477	4.9515	3.4073	1.6617	-1.0658	-4.1178	-5.3683	2.1121	1.368	1.9582	-1.9162	5.4131
-5.3375	-3.4353	-5.7236	-5.2928	-1.9162	-4.3948	-3.9752	0.8448	-0.7133	-1.7428	5.0018	3.3066	1.6281	-1.0854	-4.2381	-5.3403	2.1512	1.5246	1.9946	-1.9806	5.4802
-5.497	-3.508	-5.8774	-5.3963	-1.975	-4.5039	-4.0759	0.8644	-0.7581	-1.8183	5.0634	3.2534	1.6001	-1.1134	-4.4116	-5.3655	2.1904	1.6813	2.0086	-2.0114	5.5837
-5.6257	-3.5863	-5.9893	-5.5166	-1.9974	-4.5794	-4.171	0.8616	-0.8113	-1.8911	5.1249	3.2087	1.575	-1.1358	-4.5431	-5.3403	2.2212	1.8519	2.0253	-2.0505	5.6564
-5.7571	-3.6367	-6.1068	-5.6201	-2.0198	-4.6354	-4.2269	0.884	-0.8252	-1.9694	5.1921	3.1723	1.5666	-1.1442	-4.6689	-5.3291	2.2631	2.017	2.0421	-2.0897	5.746
-5.8662	-3.6535	-6.174	-5.6788	-2.017	-4.6913	-4.2801	0.9427	-0.8001	-1.9918	5.2704	3.1275	1.5862	-1.1525	-4.7668	-5.304	2.2883	2.1876	2.0617	-2.0785	5.8467
-5.9781	-3.673	-6.2327	-5.7432	-2.003	-4.7221	-4.2969	1.0127	-0.7917	-2.0226	5.3767	3.0996	1.5973	-1.1637	-4.8676	-5.2872	2.3051	2.3387	2.1093	-2.1009	5.9446
-6.0341	-3.6591	-6.2635	-5.7879	-1.9582	-4.7165	-4.3221	1.0798	-0.7413	-2.0561	5.5026	3.1108	1.6169	-1.1805	-4.985	-5.2704	2.3387	2.4869	2.1428	-2.0981	6.0229
-6.1012	-3.6395	-6.2803	-5.8327	-1.8883	-4.6885	-4.3109	1.1553	-0.677	-2.0645	5.5949	3.108	1.6253	-1.1917	-5.0941	-5.2872	2.3638	2.5904	2.1708	-2.1261	6.1236
-6.1488	-3.5975	-6.2859	-5.8299	-1.8071	-4.6326	-4.2857	1.2616	-0.6015	-2.0701	5.7208	3.1331	1.6421	-1.2113	-5.1669	-5.304	2.3862	2.6744	2.2296	-2.1456	6.2215
-6.1488	-3.5444	-6.2327	-5.8215	-1.6925	-4.5654	-4.2661	1.3931	-0.4951	-2.0561	5.8355	3.1443	1.6477	-1.2309	-5.2396	-5.304	2.4254	2.7163	2.2883	-2.154	6.2943
-6.132	-3.4632	-6.2019	-5.7683	-1.6029	-4.5011	-4.2157	1.5134	-0.3944	-2.0673	5.9697	3.1723	1.6309	-1.2561	-5.3235	-5.3207	2.4701	2.7527	2.3554	-2.182	6.3698
-6.0872	-3.3541	-6.0816	-5.746	-1.4519	-4.3472	-4.143	1.6337	-0.2602	-2.0505	6.1068	3.2366	1.6253	-1.2728	-5.3487	-5.3403	2.5261	2.7303	2.4058	-2.2072	6.4145
-5.9753	-3.2031	-5.9418	-5.6257	-1.284	-4.1654	-4.0255	1.8407	-0.0755	-2.0086	6.2579	3.2786	1.6309	-1.3008	-5.3179	-5.3151	2.5709	2.6716	2.5121	-2.224	6.4929
-5.8131	-3.0128	-5.7515	-5.5026	-1.0882	-3.9808	-3.9276	1.9974	0.0895	-1.9526	6.3922	3.3485	1.6309	-1.3204	-5.2844	-5.2592	2.638	2.5569	2.5736	-2.2324	6.5208
-5.6536	-2.8562	-5.5305	-5.3263	-0.898	-3.7206	-3.757	2.1988	0.3021	-1.8771	6.5292	3.4213	1.6365	-1.368	-5.1977	-5.1837	2.7023	2.403	2.652	-2.2296	6.5264
-5.4466	-2.6156	-5.2452	-5.1389	-0.6546	-3.4576	-3.6003	2.4142	0.5399	-1.8016	6.6607	3.5164	1.6225	-1.3903	-5.0746	-5.0578	2.7695	2.21	2.7275	-2.2463	6.5404
-5.1501	-2.361	-4.9487	-4.8955	-0.414	-3.1471	-3.3933	2.6408	0.7861	-1.712	6.7866	3.6311	1.6113	-1.4127	-4.8843	-4.9235	2.8282	1.9694	2.8226	-2.2519	6.5041
-4.8368	-2.0813	-4.6074	-4.6298	-0.1091	-2.7974	-3.1751	2.8646	1.077	-1.6001	6.8957	3.7234	1.575	-1.4547	-4.6689	-4.7529	2.8926	1.7008	2.8982	-2.2631	6.4593
-4.4843	-1.7624	-4.1654	-4.3332	0.1902	-2.4198	-2.8954	3.1136	1.3596	-1.4575	7.0272	3.8633	1.5722	-1.4687	-4.3976	-4.5375	2.9457	1.3763	2.9961	-2.2352	6.3922
-4.0759	-1.4435	-3.7514	-3.9472	0.5231	-1.9946	-2.6044	3.3457	1.6785	-1.312	7.1279	3.978	1.575	-1.5022	-4.1011	-4.3081	3.0156	1.0239	3.0576	-2.2128	6.2663
-3.6507	-1.063	-3.2786	-3.5444	0.8672	-1.5722	-2.2799	3.6199	1.9918	-1.1302	7.2342	4.129	1.561	-1.533	-3.7849	-4.0199	3.0688	0.6434	3.1331	-2.1372	6.1348
-3.1471	-0.6658	-2.7415	-3.1192	1.2113	-1.0826	-1.961	3.8745	2.3638	-0.926	7.3349	4.2717	1.5582	-1.561	-3.4492	-3.743	3.1219	0.2714	3.1975	-2.1065	5.9753
-2.6464	-0.1874	-2.1876	-2.638	1.6029	-0.5819	-1.5638	4.1542	2.7331	-0.7217	7.4356	4.4647	1.5889	-1.5834	-3.0576	-3.3933	3.1639	-0.1595	3.2758	-2.017	5.7683
-2.0813	0.2797	-1.6029	-2.1345	2.0086	-0.0308	-1.1609	4.4312	3.1415	-0.4532	7.5223	4.6298	1.5973	-1.6169	-2.6883	-3.0101	3.2059	-0.607	3.3374	-1.8995	5.5725
-1.4743	0.7945	-0.9511	-1.5889	2.4478	0.5483	-0.6966	4.7361	3.5556	-0.1706	7.6007	4.8564	1.6589	-1.6337	-2.2631	-2.5904	3.2478	-1.0462	3.3933	-1.7876	5.3012
-0.8448	1.3288	-0.2769	-1.0099	2.8898	1.133	-0.2462	5.0382	4.0003	0.1175	7.6762	5.0774	1.6953	-1.6561	-1.7932	-2.1428	3.2814	-1.4826	3.4381	-1.6561	5.055
-0.2042	1.9162	0.4112	-0.4252	3.3625	1.7736	0.2797	5.3375	4.4591	0.4532	7.7881	5.3207	1.7932	-1.6673	-1.3176	-1.7092	3.315	-1.9358	3.4772	-1.4826	4.7836
0.5203	2.5009	1.1637	0.2182	3.8521	2.4254	0.7861	5.6788	4.9795	0.7861	7.8972	5.6061	1.8827	-1.6841	-0.8252	-1.2141	3.3401	-2.3582	3.5556	-1.3064	4.4871
1.2253	3.1052	1.9051	0.8504	4.3472	3.1024	1.3316	6.0061	5.4606	1.1945	7.9839	5.8774	1.9722	-1.6813	-0.3217	-0.7805	3.3653	-2.7863	3.5807	-1.091	4.1738
1.961	3.7598	2.6744	1.5022	4.8592	3.7682	1.9051	6.3698	5.9725	1.5778	8.079	6.174	2.1065	-1.7064	0.207	-0.3049	3.3905	-3.1975	3.6367	-0.9064	3.8801
2.6995	4.42	3.4548	2.1848	5.3711	4.4815	2.4534	6.7307	6.4817	1.9666	8.1881	6.4705	2.2436	-1.7204	0.7273	0.1762	3.4045	-3.6087	3.6814	-0.7106	3.5807
3.4492	5.0606	4.2353	2.817	5.8886	5.1753	3.0212	7.0635	7.0048	2.3666	8.2804	6.781	2.3722	-1.726	1.2672	0.6658	3.4437	-4.0087	3.7094	-0.5175	3.2506
4.213	5.7096	5.0214	3.452	6.4145	5.8523	3.6003	7.4076	7.5167	2.7863	8.3979	7.0887	2.5149	-1.754	1.7596	1.0994	3.4828	-4.3696	3.7486	-0.3329	2.9037
4.9431	6.3558	5.8103	4.0871	6.9125	6.5348	4.1206	7.7405	8.0259	3.1639	8.4846	7.4048	2.6576	-1.7708	2.2995	1.5862	3.522	-4.7361	3.7654	-0.1762	2.582
5.6592	6.9684	6.5544	4.6745	7.4356	7.2118	4.6605	8.065	8.5294	3.55	8.5574	7.693	2.7863	-1.796	2.7807	2.003	3.5611	-5.0969	3.7654	0.0252	2.2715
6.3586	7.5951	7.2929	5.2648	7.914	7.8636	5.1697	8.3616	9.0162	3.9304	8.6329	7.9783	2.9037	-1.8155	3.2702	2.445	3.6059	-5.4075	3.8213	0.2126	1.9638
7.0496	8.1965	8.0091	5.8355	8.3923	8.4874	5.6956	8.6637	9.4833	4.2885	8.6917	8.2329	3.0184	-1.8351	3.7654	2.859	3.6535	-5.7068	3.8465	0.3777	1.6533
7.6986	8.7644	8.714	6.367	8.8427	9.0973	6.1656	8.9546	9.9309	4.6158	8.7756	8.5042	3.1192	-1.8715	4.2269	3.2898	3.7122	-5.9893	3.8773	0.5231	1.3707
8.3252	9.3239	9.3938	6.8649	9.3211	9.6931	6.6439	9.2567	10.3925	4.9627	8.8427	8.7532	3.2366	-1.8967	4.7081	3.7094	3.7738	-6.2579	3.8912	0.6882	1.119
8.9015	9.8638	9.9897	7.3405	9.7267	10.2414	7.0608	9.5141	10.7925	5.2592	8.8875	8.9854	3.3457	-1.9246	5.1193	4.0983	3.8269	-6.4929	3.8968	0.828	0.8784
9.447	10.3645	10.5883	7.7909	10.1156	10.7534	7.4804	9.7575	11.145	5.5641	8.9434	9.1812	3.4632	-1.9442	5.525	4.5179	3.8829	-6.6747	3.9332	0.9623	0.6518
9.9589	10.8317	11.1198	8.1937	10.5044	11.2317	7.8636	9.9841	11.5479	5.7935	8.9882	9.3994	3.5472	-1.9862	5.8942	4.9095	3.95	-6.8677	3.9556	1.0686	0.4532
10.4093	11.2373	11.6262	8.591	10.8177	11.6458	8.2021	10.1855	11.85	6.0481	9.0441	9.5589	3.6255	-2.0086	6.2579	5.2956	4.0115	-7.016	3.9724	1.1861	0.2574
10.8261	11.6206	12.1017	8.9155	11.1226	12.0654	8.521	10.3533	12.1689	6.2579	9.0525	9.7547	3.7066	-2.0449	6.5824	5.6536	4.0675	-7.1391	3.9808	1.2728	0.0783
11.187	11.9843	12.5186	9.2288	11.4024	12.4458	8.8231	10.5324	12.4374	6.4509	9.0777	9.875	3.7989	-2.0645	6.8565	6.0285	4.0983	-7.2118	3.9892	1.3428	-0.0755
11.5171	12.2892	12.8627	9.5001	11.6625	12.7675	9.0861	10.6583	12.7088	6.6467	9.1001	10.04	3.8884	-2.0813	7.1335	6.3782	4.1402	-7.2762	3.9864	1.4407	-0.207
11.7884	12.527	13.1732	9.7127	11.8668	13.0529	9.3183	10.7925	12.885	6.7922	9.0833	10.1407	3.95	-2.1065	7.3573	6.7251	4.1738	-7.3181	3.9444	1.5106	-0.3553
11.9982	12.7368	13.4361	9.9113	12.0514	13.2851	9.5113	10.8709	13.0781	6.9265	9.0917	10.2303	4.0115	-2.1009	7.5531	7.03	4.1766	-7.3069	3.9472	1.5973	-0.4588
12.1969	12.9158	13.6375	10.1016	12.1941	13.4753	9.668	10.9212	13.2179	7.0635	9.0945	10.3366	4.0843	-2.0925	7.7517	7.3209	4.171	-7.279	3.9164	1.6589	-0.5595
12.3088	13.0221	13.7802	10.1939	12.2668	13.5928	9.7715	10.9716	13.3102	7.1307	9.0637	10.3841	4.1346	-2.1037	7.9	7.5447	4.171	-7.2398	3.8857	1.7092	-0.663
12.3983	13.0836	13.8753	10.2862	12.3227	13.6683	9.8442	10.9772	13.3606	7.2034	9.0413	10.4093	4.1906	-2.0813	8.0538	7.7741	4.1542	-7.1503	3.8353	1.7596	-0.7273
12.4346	13.106	13.9341	10.3477	12.3507	13.6935	9.8974	10.952	13.3886	7.2594	9.0078	10.4205	4.2102	-2.0869	8.1322	7.9308	4.1374	-7.0663	3.7877	1.7512	-0.7805
12.4374	13.0836	13.9537	10.3617	12.3563	13.7019	9.9141	10.9184	13.3802	7.2929	8.9518	10.4093	4.2633	-2.0673	8.2385	8.0482	4.1011	-6.9656	3.743	1.7904	-0.8001
12.4067	13.0193	13.9145	10.3533	12.3255	13.6375	9.9197	10.8877	13.3382	7.3097	8.9127	10.4065	4.2885	-2.0421	8.2972	8.1462	4.0619	-6.8314	3.6674	1.8155	-0.8364
12.3367	12.9242	13.8362	10.3058	12.2808	13.5508	9.875	10.8317	13.2711	7.2706	8.8623	10.3505	4.3081	-2.0281	8.3364	8.1657	4.0311	-6.6803	3.6255	1.796	-0.856
12.2276	12.8319	13.7215	10.2526	12.1661	13.4361	9.8106	10.731	13.1648	7.2817	8.8064	10.303	4.35	-2.0058	8.328	8.1518	3.9892	-6.5069	3.5723	1.796	-0.8476
12.1101	12.678	13.5984	10.1575	12.0878	13.2963	9.7323	10.6499	13.0669	7.2258	8.7588	10.2638	4.3724	-1.9834	8.2692	8.079	3.95	-6.3278	3.5276	1.7848	-0.8224
11.9703	12.5214	13.4333	10.0372	11.9619	13.1116	9.6148	10.5352	12.941	7.1754	8.6861	10.1799	4.3948	-1.989	8.2189	7.9895	3.9332	-6.1768	3.4828	1.7344	-0.7861
11.8332	12.3619	13.2739	9.9141	11.8276	12.9298	9.5029	10.4596	12.7843	7.1279	8.6273	10.1351	4.4339	-1.9582	8.1462	7.8608	3.8801	-5.9977	3.4604	1.7036	-0.7469
11.629	12.1605	13.0669	9.7631	11.6961	12.72	9.3547	10.3505	12.6277	7.0663	8.5882	10.068	4.4451	-1.9498	8.0147	7.6874	3.8549	-5.8103	3.4297	1.6757	-0.6798
11.4499	11.9787	12.8459	9.6316	11.5618	12.5018	9.2232	10.2554	12.4458	6.9964	8.5686	9.9925	4.5039	-1.9135	7.8552	7.4916	3.8101	-5.5949	3.4017	1.6253	-0.607
11.2485	11.794	12.6333	9.447	11.4443	12.264	9.0497	10.1603	12.278	6.9069	8.5714	9.9393	4.5263	-1.9135	7.6986	7.2762	3.7821	-5.4103	3.3989	1.5722	-0.5259
11.0583	11.5898	12.4207	9.2539	11.2905	12.043	8.8819	10.0624	12.1213	6.8062	8.549	9.889	4.5626	-1.8827	7.5699	7.0244	3.7374	-5.1977	3.4129	1.5106	-0.4364
10.8429	11.3968	12.1661	9.0693	11.1226	11.78	8.7029	9.9757	11.9535	6.7251	8.549	9.819	4.6102	-1.8687	7.416	6.795	3.701	-4.9962	3.4045	1.4575	-0.3469
10.5911	11.1758	11.9227	8.8427	10.9828	11.5395	8.5014	9.8582	11.7549	6.6271	8.5238	9.7855	4.6158	-1.8491	7.2538	6.5041	3.6674	-4.8004	3.4129	1.3596	-0.235
10.3897	10.9996	11.7017	8.6301	10.8149	11.2989	8.3196	9.7687	11.5926	6.5069	8.5434	9.7491	4.6549	-1.8295	7.1139	6.2215	3.6283	-4.6102	3.4045	1.3092	-0.1231
10.1743	10.8009	11.4443	8.4035	10.6778	11.0611	8.121	9.7043	11.3884	6.4117	8.5686	9.6903	4.7109	-1.8071	6.9572	5.911	3.5863	-4.4144	3.4269	1.2505	-0.0056
9.9197	10.6191	11.1926	8.1937	10.5268	10.7953	7.9224	9.6316	11.2233	6.3054	8.591	9.6288	4.7417	-1.7932	6.7614	5.5753	3.5583	-4.2241	3.4325	1.1749	0.1063
9.6876	10.4317	10.9352	7.9531	10.3505	10.5576	7.7042	9.5281	11.0163	6.1516	8.5854	9.5896	4.7417	-1.7764	6.602	5.2396	3.5304	-4.0339	3.4381	1.0854	0.2434
9.4414	10.2191	10.689	7.7154	10.2107	10.3002	7.4888	9.4749	10.8233	6.0369	8.6329	9.5281	4.7585	-1.7652	6.4117	4.8787	3.4968	-3.8717	3.48	1.0071	0.3637
9.1896	10.0372	10.4485	7.4832	10.0428	10.0484	7.2706	9.3798	10.6499	5.9306	8.6245	9.4693	4.7529	-1.7652	6.1963	4.5207	3.4912	-3.7234	3.4828	0.898	0.4756
8.9602	9.8526	10.1911	7.2342	9.8806	9.819	7.0831	9.3043	10.4736	5.7851	8.6357	9.405	4.7752	-1.74	5.9669	4.1542	3.4716	-3.55	3.508	0.8113	0.621
8.728	9.7043	9.9533	7.0048	9.7295	9.5812	6.8565	9.2344	10.3114	5.69	8.6693	9.3826	4.7948	-1.7428	5.7487	3.8241	3.4548	-3.3989	3.5248	0.7217	0.7665
8.4958	9.5309	9.7519	6.7782	9.5812	9.3547	6.6495	9.1588	10.1575	5.5501	8.7029	9.3435	4.7976	-1.7372	5.5222	3.4996	3.4353	-3.231	3.55	0.621	0.9092
8.2637	9.3798	9.5169	6.5656	9.4386	9.184	6.4789	9.1057	10.0344	5.455	8.7336	9.3463	4.848	-1.7232	5.29	3.2366	3.3989	-3.0576	3.5583	0.5287	1.0574
8.0622	9.2204	9.3099	6.3418	9.2791	8.9742	6.2831	9.0525	9.889	5.3683	8.784	9.3183	4.8815	-1.7064	5.0634	2.9877	3.3877	-2.8758	3.5891	0.4756	1.1945
7.8021	9.0665	9.0721	6.118	9.1365	8.7756	6.104	8.9602	9.7883	5.2508	8.812	9.3127	4.9347	-1.6953	4.82	2.7779	3.3681	-2.6688	3.5807	0.386	1.3176
7.623	8.9462	8.9043	5.939	9.0274	8.6301	5.9697	8.9462	9.6903	5.1977	8.8623	9.3491	5.0214	-1.6757	4.5906	2.5988	3.3206	-2.4701	3.6171	0.3385	1.4631
7.3936	8.8287	8.6917	5.7515	8.8875	8.4511	5.8439	8.8959	9.6092	5.1361	8.9043	9.3854	5.0913	-1.6673	4.3696	2.4534	3.3038	-2.2575	3.6423	0.2909	1.6001
7.1894	8.6889	8.5126	5.5837	8.7812	8.3112	5.7068	8.8483	9.5449	5.0941	8.9546	9.4218	5.2032	-1.6561	4.171	2.3387	3.2646	-2.0086	3.6507	0.2518	1.7512
7.0104	8.5574	8.3588	5.4522	8.6413	8.1741	5.6117	8.8008	9.4861	5.0746	8.9938	9.4777	5.304	-1.6365	3.9892	2.2687	3.2534	-1.7792	3.6339	0.2294	1.8939
6.8593	8.4707	8.1825	5.3068	8.5602	8.0566	5.5082	8.7644	9.461	5.0466	9.0693	9.5673	5.427	-1.6169	3.8381	2.2463	3.2227	-1.5078	3.6674	0.2126	2.017
6.6887	8.3588	8.0427	5.1949	8.4623	7.9643	5.441	8.7616	9.4554	5.0214	9.1225	9.6428	5.5417	-1.6085	3.6674	2.2463	3.1919	-1.2561	3.6898	0.2238	2.1484
6.5348	8.2413	7.9056	5.0997	8.3532	7.8384	5.3683	8.728	9.433	5.0354	9.1644	9.7435	5.6788	-1.5973	3.5276	2.2408	3.1723	-0.9959	3.687	0.235	2.2799
6.3866	8.1322	7.7713	5.0046	8.2972	7.7881	5.3403	8.7224	9.4358	5.0382	9.2288	9.805	5.8019	-1.5806	3.4045	2.2799	3.1443	-0.7357	3.7094	0.2406	2.4226
6.2383	8.0231	7.6118	4.8983	8.1881	7.679	5.2816	8.6721	9.461	5.0494	9.2931	9.8806	5.9418	-1.561	3.273	2.2967	3.0968	-0.47	3.729	0.2546	2.5345
6.1096	7.9196	7.486	4.8424	8.0986	7.6258	5.2676	8.6469	9.4526	5.1025	9.3211	9.9869	6.1124	-1.5442	3.1583	2.3387	3.052	-0.193	3.7402	0.2797	2.6744
5.9725	7.7769	7.3685	4.7696	7.9979	7.5671	5.2312	8.6077	9.4749	5.1333	9.3463	10.0484	6.2075	-1.5134	3.0436	2.3946	3.0073	0.0532	3.7262	0.3133	2.7695
5.8327	7.679	7.251	4.7249	7.9503	7.5111	5.2144	8.563	9.5001	5.1725	9.3882	10.1128	6.339	-1.491	2.9345	2.4254	2.9653	0.3245	3.7458	0.3413	2.8562
5.7068	7.5783	7.0943	4.6466	7.8412	7.4356	5.1893	8.5154	9.4945	5.234	9.4022	10.1771	6.4593	-1.4603	2.8506	2.4841	2.9149	0.5595	3.7598	0.3777	2.9709
5.5977	7.5167	7.0104	4.6298	7.7881	7.3825	5.1921	8.4846	9.5113	5.2788	9.4274	10.247	6.588	-1.4295	2.7499	2.5457	2.8562	0.7889	3.7598	0.4056	3.0548
5.4914	7.3685	6.8789	4.5822	7.7042	7.3293	5.1753	8.4231	9.4945	5.2844	9.4078	10.2778	6.6859	-1.4211	2.6632	2.5764	2.8226	1.0155	3.7346	0.4448	3.1219
5.4187	7.3069	6.7922	4.5458	7.6594	7.2957	5.1809	8.4315	9.5533	5.3599	9.4526	10.3841	6.8118	-1.3903	2.6044	2.6436	2.7611	1.2281	3.7905	0.4924	3.231
5.3347	7.2118	6.6859	4.5151	7.5867	7.251	5.1753	8.3728	9.5617	5.4047	9.4554	10.4205	6.8789	-1.3735	2.5485	2.6883	2.7247	1.4071	3.7738	0.5399	3.2814
5.2592	7.1559	6.6327	4.5319	7.5727	7.2398	5.2032	8.3867	9.6176	5.4718	9.5169	10.4876	7.0216	-1.3484	2.459	2.7079	2.6716	1.6253	3.8101	0.5847	3.3905
5.2116	7.0999	6.5404	4.5263	7.5531	7.2258	5.2256	8.3364	9.6344	5.5222	9.5421	10.5743	7.1083	-1.3344	2.3806	2.7303	2.6464	1.7876	3.7989	0.621	3.4632
5.1641	7.0468	6.4621	4.4843	7.5363	7.1726	5.2424	8.3308	9.6764	5.5725	9.5533	10.6051	7.195	-1.3148	2.3275	2.7023	2.6156	1.961	3.7989	0.6266	3.5528
5.1193	6.9908	6.4089	4.4927	7.5111	7.1894	5.2396	8.328	9.7043	5.6145	9.6036	10.6723	7.3041	-1.2924	2.2519	2.6716	2.5736	2.1065	3.8381	0.6714	3.6255
5.0997	6.9824	6.3558	4.4843	7.5335	7.1671	5.2816	8.3224	9.7631	5.69	9.64	10.7422	7.3825	-1.2812	2.196	2.6156	2.5373	2.2659	3.8577	0.6938	3.7066
5.0606	6.9097	6.2635	4.4703	7.5195	7.1475	5.2676	8.3084	9.7967	5.7012	9.6708	10.7786	7.444	-1.2672	2.1289	2.5233	2.5177	2.3778	3.8493	0.6966	3.7877
5.027	6.8677	6.2243	4.4312	7.5139	7.1447	5.2872	8.3252	9.8526	5.7627	9.7183	10.8681	7.5223	-1.2449	2.0869	2.4226	2.4869	2.5093	3.8745	0.7245	3.8745
5.0074	6.7838	6.1488	4.4367	7.5083	7.1559	5.2956	8.3084	9.8694	5.7963	9.7575	10.8877	7.5839	-1.2561	2.0477	2.2939	2.4701	2.6072	3.8996	0.7357	3.9696
4.9627	6.7362	6.0705	4.4088	7.4804	7.1307	5.29	8.3224	9.9169	5.8215	9.7911	10.9212	7.623	-1.2672	2.0198	2.1233	2.4841	2.7107	3.9164	0.7078	4.0367
4.9403	6.6747	6.0005	4.3752	7.4832	7.1307	5.2704	8.3056	9.9337	5.8523	9.833	10.9324	7.6566	-1.2477	2.0142	1.9806	2.4673	2.8114	3.9136	0.705	4.1122
4.8899	6.616	5.9474	4.3444	7.4776	7.1139	5.262	8.3028	9.9673	5.8718	9.861	10.9688	7.7126	-1.2589	2.0337	1.7904	2.4869	2.9065	3.9248	0.7133	4.2074
4.8032	6.5097	5.8467	4.2605	7.4188	7.0747	5.2004	8.2832	9.9449	5.8606	9.861	10.9576	7.7209	-1.2728	2.0253	1.5806	2.5205	2.9625	3.9248	0.663	4.2829
4.7417	6.4257	5.732	4.1822	7.4076	7.0412	5.1781	8.2748	9.9505	5.8578	9.8946	10.9408	7.7433	-1.298	2.0561	1.3624	2.5541	3.0436	3.95	0.6406	4.3752
4.6522	6.325	5.6564	4.1011	7.3489	7.0188	5.1389	8.2385	9.9393	5.8467	9.9225	10.9212	7.7573	-1.3148	2.1009	1.1721	2.6016	3.0884	3.9696	0.5875	4.4423
4.5906	6.2243	5.5473	4.0479	7.3181	6.9572	5.0913	8.2217	9.9365	5.8551	9.9421	10.9212	7.8021	-1.3456	2.1372	0.9847	2.6492	3.1919	3.964	0.5735	4.5123
4.4675	6.1292	5.4326	3.936	7.2594	6.9069	5.0298	8.1965	9.9058	5.8355	9.9505	10.9212	7.7909	-1.3763	2.2016	0.7945	2.7079	3.2478	3.9752	0.5231	4.599
4.3892	6.0257	5.3515	3.8745	7.2202	6.8677	5.0074	8.1937	9.8918	5.8523	9.9897	10.8932	7.8245	-1.3987	2.2324	0.6574	2.7583	3.3346	4.0283	0.5091	4.6745
4.2549	5.925	5.2424	3.7821	7.1223	6.8006	4.9263	8.1462	9.875	5.8327	9.9981	10.8932	7.8328	-1.4239	2.2659	0.4868	2.817	3.4157	4.0339	0.4504	4.7333
4.1234	5.7879	5.1025	3.6563	7.0552	6.7251	4.8704	8.107	9.8246	5.7935	10.0065	10.8681	7.8636	-1.4575	2.2547	0.3441	2.8842	3.4828	4.0479	0.428	4.8228
4.0367	5.6788	5.0074	3.5751	6.9852	6.7251	4.8032	8.1098	9.7967	5.8159	10.0344	10.8793	7.9252	-1.4854	2.2715	0.2574	2.9317	3.5891	4.0647	0.4336	4.8759
3.9024	5.5641	4.8843	3.4912	6.9013	6.6439	4.7557	8.0566	9.7575	5.8355	10.0456	10.8541	7.9419	-1.505	2.3051	0.2266	2.9737	3.6702	4.0871	0.4224	4.9487
3.7905	5.4326	4.7724	3.3905	6.8062	6.56	4.7109	8.0035	9.7099	5.8215	10.0484	10.8261	7.9587	-1.5274	2.3303	0.2154	3.0296	3.7458	4.0787	0.3944	5.027
3.6842	5.3207	4.6633	3.2954	6.7446	6.532	4.6605	7.9643	9.654	5.8075	10.0484	10.7925	7.9923	-1.5582	2.3331	0.2098	3.0744	3.8465	4.0759	0.3944	5.0802
3.5528	5.2172	4.5319	3.1891	6.6132	6.4565	4.5934	7.9224	9.6176	5.8215	10.0149	10.7646	8.0063	-1.5666	2.3079	0.249	3.1219	3.894	4.0731	0.4112	5.1501
3.452	5.1081	4.4451	3.1192	6.5041	6.3866	4.5738	7.872	9.5337	5.8243	9.9981	10.7506	8.0287	-1.5917	2.2911	0.2825	3.1499	3.9584	4.0311	0.3944	5.2256
3.329	4.9962	4.336	3.0212	6.4006	6.325	4.5123	7.8021	9.4749	5.7907	9.9533	10.6974	8.0175	-1.5945	2.2575	0.3581	3.1695	4.0227	4.0143	0.414	5.262
3.2562	4.8899	4.2689	2.9653	6.3222	6.2859	4.4955	7.7545	9.4134	5.8103	9.9337	10.6639	8.0399	-1.6001	2.2296	0.4196	3.1611	4.0927	4.0283	0.4224	5.3151
3.1359	4.7808	4.1682	2.873	6.1935	6.2019	4.4619	7.6622	9.3267	5.7935	9.8778	10.5799	8.0343	-1.6001	2.1932	0.484	3.1751	4.1234	3.992	0.4224	5.3571
3.0352	4.6549	4.0871	2.8086	6.1096	6.16	4.4228	7.6202	9.2456	5.7963	9.8414	10.5576	8.0287	-1.5945	2.1568	0.5007	3.1471	4.1654	3.9752	0.4672	5.4242
2.9513	4.585	4.0171	2.7779	6.0033	6.1236	4.3976	7.5391	9.1868	5.7571	9.7771	10.482	8.0175	-1.5638	2.1372	0.5399	3.1108	4.1654	3.9304	0.4756	5.4494
2.873	4.5151	3.9444	2.7387	5.911	6.0872	4.392	7.4496	9.1197	5.7599	9.7323	10.4205	8.0482	-1.5442	2.1261	0.5847	3.0688	4.2241	3.9136	0.5231	5.4662
2.8226	4.4339	3.9248	2.6883	5.8411	6.0705	4.3724	7.3825	9.0525	5.7236	9.654	10.3505	8.0035	-1.5162	2.1205	0.5903	3.0184	4.2297	3.8829	0.5315	5.4998
2.7863	4.364	3.8996	2.6716	5.7767	6.0481	4.4004	7.3237	8.991	5.7124	9.5952	10.317	8.0063	-1.4854	2.1121	0.6154	2.9569	4.2577	3.8605	0.5959	5.5138
2.7639	4.3276	3.9164	2.666	5.718	6.0593	4.4004	7.2706	8.9658	5.7068	9.5449	10.2918	8.0063	-1.4547	2.14	0.6378	2.8842	4.2773	3.8633	0.6238	5.5166
2.7918	4.3304	3.9276	2.6939	5.6816	6.104	4.4563	7.2034	8.9378	5.718	9.4861	10.2303	7.9979	-1.4239	2.1736	0.6826	2.8198	4.2885	3.8073	0.6714	5.5138
2.817	4.3109	3.9668	2.7275	5.6564	6.132	4.4871	7.1615	8.935	5.7432	9.4218	10.2135	8.0203	-1.3875	2.2044	0.7413	2.7471	4.2969	3.7821	0.7273	5.5278
2.859	4.3444	4.0311	2.7723	5.6564	6.1572	4.5319	7.1391	8.9546	5.7236	9.4078	10.2107	8.0231	-1.3428	2.2827	0.7945	2.6632	4.3165	3.7682	0.7917	5.5082
2.9261	4.3892	4.1122	2.8422	5.676	6.2467	4.6102	7.1531	8.991	5.7432	9.3714	10.2247	8.0455	-1.3064	2.3471	0.8532	2.5904	4.3248	3.7486	0.8588	5.497
3.0296	4.4619	4.213	2.9093	5.704	6.3334	4.6829	7.1391	9.0218	5.7767	9.3183	10.2219	8.0902	-1.2561	2.4254	0.9539	2.5009	4.3444	3.7346	0.9399	5.4662
3.1359	4.5263	4.3025	2.9905	5.7432	6.4257	4.7585	7.1223	9.0721	5.8131	9.2763	10.247	8.0874	-1.2113	2.5233	1.049	2.4198	4.3472	3.7122	1.0043	5.4187
3.2338	4.6354	4.42	3.0716	5.7767	6.4985	4.8256	7.1419	9.1365	5.8383	9.2735	10.2722	8.1378	-1.1693	2.6016	1.1414	2.3359	4.3444	3.715	1.0434	5.3767
3.3569	4.7305	4.5347	3.1723	5.8355	6.5852	4.8899	7.1754	9.1924	5.8495	9.2288	10.2806	8.1434	-1.1525	2.68	1.2561	2.2771	4.3696	3.6926	1.119	5.3068
3.4632	4.8312	4.6717	3.2646	5.911	6.6831	4.9739	7.1866	9.2707	5.9082	9.2344	10.345	8.1993	-1.1022	2.7946	1.3652	2.1876	4.364	3.6954	1.1777	5.2648
3.6115	4.9487	4.7864	3.3653	5.9809	6.8006	5.0606	7.2286	9.363	5.9781	9.2092	10.3729	8.2357	-1.0742	2.8814	1.5078	2.1233	4.3612	3.6842	1.2589	5.1865
3.7318	5.055	4.9151	3.48	6.0621	6.9069	5.1333	7.2622	9.4638	6.0257	9.2036	10.4149	8.2804	-1.0351	3.0045	1.6197	2.0589	4.3248	3.6647	1.326	5.1249
3.8605	5.1893	5.0438	3.5863	6.146	7.0272	5.234	7.3321	9.584	6.0928	9.2428	10.5072	8.3028	-1.0099	3.0716	1.74	2.0086	4.3248	3.6926	1.3652	5.083
4.0003	5.3068	5.1781	3.6814	6.2495	7.1447	5.3235	7.416	9.7295	6.1656	9.2651	10.5995	8.3644	-0.9791	3.1695	1.8715	1.9554	4.3109	3.7094	1.4519	5.0354
4.1598	5.4774	5.3235	3.8241	6.3362	7.2734	5.4494	7.5083	9.8778	6.2747	9.3099	10.6974	8.4483	-0.9511	3.2422	2.017	1.8995	4.2969	3.7094	1.5218	4.9599
4.3276	5.6257	5.4942	3.964	6.4649	7.4384	5.5753	7.623	10.0484	6.3978	9.3966	10.8429	8.5322	-0.9288	3.3318	2.14	1.8295	4.2969	3.7598	1.6225	4.9179
4.4759	5.7991	5.6285	4.0843	6.5852	7.6035	5.7068	7.7517	10.2386	6.5292	9.5085	11.0163	8.6637	-0.898	3.3681	2.2771	1.7736	4.2969	3.7877	1.7036	4.8676
4.6605	5.9558	5.7683	4.2465	6.7586	7.7797	5.8439	7.886	10.4541	6.6859	9.6008	11.1982	8.8008	-0.8616	3.4129	2.3834	1.712	4.3025	3.8409	1.8351	4.8088
4.778	6.146	5.9306	4.3836	6.8985	7.9559	5.9865	8.0399	10.6834	6.8565	9.7071	11.408	8.9434	-0.8392	3.4437	2.5065	1.6673	4.2997	3.8605	1.9079	4.7613
4.9795	6.3138	6.0984	4.5542	7.0635	8.1294	6.1712	8.2133	10.9268	7.0524	9.8526	11.6262	9.1169	-0.8085	3.4884	2.6492	1.5973	4.3081	3.908	2.0281	4.7389
5.1585	6.5125	6.2523	4.6969	7.2426	8.3364	6.3418	8.4007	11.1842	7.2398	9.9953	11.8752	9.2679	-0.7749	3.5192	2.7639	1.5386	4.3332	3.9696	2.1428	4.6997
5.3012	6.7083	6.4201	4.8592	7.3936	8.535	6.4873	8.5714	11.4248	7.4328	10.1463	12.1073	9.461	-0.7693	3.5444	2.9373	1.5162	4.336	4.0199	2.2408	4.6717
5.4578	6.8873	6.5516	5.0298	7.5839	8.7224	6.6411	8.742	11.6961	7.651	10.2918	12.3451	9.6512	-0.7469	3.5975	3.0828	1.4938	4.35	4.0619	2.3415	4.6494
5.6229	7.0552	6.6691	5.1389	7.7377	8.9043	6.8286	8.9043	11.9535	7.8468	10.468	12.5773	9.8022	-0.7441	3.6311	3.2227	1.4798	4.3332	4.1234	2.4002	4.6074
5.7683	7.2314	6.809	5.3095	7.9112	9.1001	6.9908	9.0777	12.2388	8.0482	10.6107	12.8207	9.9925	-0.7413	3.7094	3.4045	1.4854	4.3528	4.1598	2.4981	4.5906
5.8802	7.3853	6.9209	5.4382	8.0902	9.3043	7.1503	9.2484	12.499	8.272	10.7814	13.0725	10.1631	-0.7441	3.7458	3.5472	1.4715	4.3444	4.2325	2.596	4.5962
6.0089	7.5335	7.0803	5.5669	8.2581	9.4861	7.3377	9.4106	12.7508	8.4679	10.9436	13.3102	10.3002	-0.7497	3.8325	3.6619	1.4854	4.3556	4.2885	2.6688	4.585
6.1152	7.6734	7.1922	5.704	8.4119	9.6652	7.5167	9.5673	13.0025	8.6721	11.0919	13.5424	10.4764	-0.7553	3.9388	3.7905	1.5078	4.3612	4.3276	2.7387	4.571
6.1907	7.7937	7.3013	5.8271	8.5854	9.8414	7.6762	9.7435	13.2431	8.8707	11.2653	13.7858	10.6191	-0.7721	4.0591	3.8801	1.5386	4.336	4.3724	2.8002	4.5878
6.2691	7.8888	7.4104	5.939	8.7308	10.026	7.8524	9.9002	13.4949	9.0553	11.408	14.0348	10.773	-0.7889	4.2241	3.936	1.5834	4.3332	4.4228	2.8786	4.5906
6.3418	8.0203	7.5167	6.0565	8.9015	10.2079	8.0091	10.096	13.7466	9.2539	11.5786	14.253	10.9044	-0.8364	4.3584	3.9836	1.6449	4.3053	4.4927	2.9513	4.6214
6.3894	8.121	7.6118	6.1544	9.0581	10.3533	8.1657	10.2526	13.9816	9.4442	11.7157	14.4796	11.0527	-0.8616	4.4927	3.9836	1.7148	4.2773	4.5319	2.9989	4.6549
6.4565	8.2245	7.7349	6.2495	9.184	10.538	8.314	10.4149	14.2306	9.6092	11.8807	14.7006	11.1702	-0.8952	4.6549	3.9612	1.7904	4.2605	4.613	3.0296	4.6997
6.4901	8.286	7.83	6.3362	9.3155	10.6723	8.4902	10.5799	14.446	9.7939	12.0374	14.93	11.3101	-0.9399	4.7249	3.8605	1.8827	4.2605	4.6829	3.0604	4.7557
6.5041	8.3588	7.9028	6.4257	9.4442	10.8093	8.6105	10.7058	14.6586	9.9393	12.1801	15.1566	11.4332	-1.0015	4.8256	3.7458	1.9862	4.2297	4.7277	3.0604	4.8144
6.5544	8.4231	7.9951	6.4789	9.5617	10.9604	8.7532	10.8765	14.8628	10.0708	12.3283	15.3636	11.5395	-1.0434	4.8704	3.6423	2.0869	4.2157	4.7752	3.0996	4.8676
6.5516	8.493	8.1014	6.5712	9.6903	11.0947	8.8875	11.0331	15.0531	10.2666	12.4598	15.5818	11.6486	-1.1218	4.9291	3.4996	2.2296	4.1906	4.848	3.1192	4.9319
6.5992	8.5406	8.1853	6.6439	9.7631	11.2206	9.019	11.1506	15.2377	10.3785	12.6025	15.7804	11.7661	-1.1861	4.9655	3.3849	2.3638	4.171	4.8871	3.1024	4.9711
6.6132	8.6021	8.2664	6.7139	9.8946	11.3436	9.1365	11.2989	15.4139	10.5436	12.7396	15.9734	11.8612	-1.2561	4.9795	3.2506	2.5065	4.1738	4.9291	3.1415	5.0606
6.6551	8.6329	8.3392	6.7922	9.9757	11.4443	9.2567	11.4415	15.5594	10.6527	12.8682	16.1552	11.9591	-1.3344	5.0046	3.1219	2.652	4.157	4.9906	3.1499	5.1389
6.6691	8.6637	8.4231	6.8314	10.0736	11.5143	9.3463	11.5479	15.6937	10.7702	12.9634	16.2979	12.0206	-1.3987	4.9767	3.0184	2.7918	4.1346	5.0382	3.1192	5.2004
6.7027	8.7001	8.4623	6.8761	10.1575	11.6122	9.4442	11.6458	15.8279	10.8849	13.0473	16.4546	12.1213	-1.4771	4.9375	2.9233	2.9261	4.115	5.0858	3.1359	5.2396
6.7307	8.7308	8.5294	6.9237	10.2247	11.6625	9.5589	11.7325	15.9398	10.994	13.1284	16.6084	12.1885	-1.5302	4.8899	2.8646	3.038	4.1094	5.1277	3.1247	5.3095
6.7251	8.7476	8.5686	6.9517	10.275	11.7213	9.6036	11.8136	16.021	11.0471	13.1704	16.6979	12.2248	-1.5806	4.8508	2.7891	3.1415	4.0787	5.1417	3.1247	5.3235
6.7418	8.742	8.5965	6.9656	10.3142	11.7521	9.6568	11.8612	16.0993	11.1198	13.2459	16.807	12.2668	-1.6197	4.7808	2.7835	3.2171	4.0507	5.1473	3.1471	5.3319
6.7614	8.7448	8.6077	7.002	10.3561	11.7772	9.7183	11.9199	16.1441	11.1702	13.2599	16.8826	12.3199	-1.6477	4.7417	2.7695	3.273	4.0367	5.1641	3.1527	5.3487
6.7726	8.7616	8.6161	7.0104	10.3925	11.8164	9.7771	11.9759	16.2196	11.2345	13.3102	16.9805	12.3507	-1.6561	4.7165	2.7611	3.3038	4.0311	5.1613	3.1695	5.3375
6.7922	8.7644	8.6693	7.044	10.4457	11.8556	9.8246	12.029	16.2727	11.2793	13.3438	17.07	12.4151	-1.6505	4.7081	2.8058	3.2898	4.0535	5.1669	3.1947	5.3515
6.8146	8.7952	8.7084	7.0719	10.4624	11.9171	9.9141	12.1017	16.3483	11.3856	13.4082	17.1511	12.457	-1.6365	4.6997	2.8114	3.2422	4.0983	5.1893	3.2366	5.3487
6.8425	8.8203	8.728	7.1083	10.5044	11.9479	9.9673	12.1297	16.4014	11.4164	13.4613	17.2379	12.5298	-1.5945	4.6801	2.8758	3.1779	4.143	5.2116	3.301	5.3515
6.8789	8.8343	8.77	7.1754	10.5604	12.0066	10.0484	12.1717	16.4742	11.5227	13.5256	17.3442	12.6165	-1.5526	4.6745	2.9037	3.08	4.2018	5.2032	3.3653	5.3487
6.9013	8.8847	8.8092	7.2146	10.6303	12.0906	10.124	12.2444	16.5609	11.5954	13.5732	17.4533	12.7284	-1.4882	4.6549	2.9233	2.9709	4.2857	5.2256	3.4437	5.3375
6.9572	8.9071	8.8651	7.251	10.6415	12.1549	10.1911	12.2864	16.6504	11.7017	13.6264	17.5735	12.8207	-1.4155	4.613	2.9625	2.8254	4.3836	5.2424	3.5388	5.3263
6.974	8.9574	8.9294	7.3293	10.7058	12.2388	10.2778	12.3479	16.7371	11.794	13.6823	17.6771	12.9326	-1.3456	4.5514	3.0017	2.6883	4.4759	5.2564	3.6423	5.3263
7.0412	8.9994	8.9994	7.402	10.7925	12.3507	10.3645	12.4235	16.849	11.9423	13.7718	17.8309	13.0613	-1.2728	4.5011	3.0212	2.5289	4.6074	5.3012	3.7905	5.3431
7.0831	9.0441	9.0721	7.458	10.8317	12.4262	10.4345	12.4542	16.9721	12.0486	13.8306	17.954	13.2067	-1.1973	4.4312	3.0548	2.3694	4.7389	5.3319	3.9192	5.3599
7.1559	9.0973	9.1337	7.5503	10.8905	12.5242	10.538	12.4962	17.0924	12.1661	13.9117	18.0631	13.3494	-1.1106	4.3836	3.0744	2.2072	4.8787	5.3571	4.0255	5.3599
7.1671	9.1169	9.1588	7.6063	10.924	12.6165	10.6135	12.5493	17.1931	12.264	13.9704	18.175	13.4809	-1.0434	4.2689	3.0744	2.0589	5.0214	5.3823	4.1654	5.3459
7.1782	9.1365	9.2064	7.6706	10.938	12.6976	10.689	12.5773	17.2966	12.3675	13.99	18.2701	13.6096	-0.9679	4.2102	3.0996	1.919	5.1529	5.3907	4.2829	5.3347
7.1922	9.1728	9.2707	7.7573	10.9604	12.7647	10.7394	12.6137	17.3637	12.4626	14.0544	18.354	13.6963	-0.8924	4.1178	3.0828	1.7736	5.2928	5.4131	4.4088	5.3487
7.1922	9.2036	9.3071	7.8077	10.9856	12.8906	10.8317	12.6417	17.4784	12.5661	14.1047	18.4547	13.8082	-0.8197	4.0339	3.0492	1.6365	5.4242	5.441	4.5375	5.3599
7.1866	9.2064	9.3351	7.8944	10.9996	12.969	10.8988	12.65	17.5624	12.6696	14.1187	18.5275	13.8949	-0.7721	3.9584	3.0296	1.5246	5.5333	5.4746	4.6605	5.3627
7.1503	9.1924	9.3491	7.9224	11.0219	13.0305	10.938	12.6584	17.6351	12.7228	14.1411	18.5666	13.9648	-0.7133	3.8745	2.9513	1.4323	5.6201	5.4634	4.7109	5.3767
7.1307	9.1952	9.391	7.9643	11.0079	13.1032	11.0163	12.664	17.719	12.8011	14.1691	18.6478	14.0656	-0.6742	3.7989	2.9037	1.3344	5.746	5.4858	4.8144	5.3907
7.1083	9.1896	9.4246	8.0231	11.0191	13.2095	11.0723	12.678	17.8057	12.8599	14.1942	18.7205	14.1159	-0.635	3.7486	2.8422	1.2533	5.8243	5.497	4.9067	5.4103
7.0747	9.1756	9.4498	8.0706	11.0387	13.2879	11.1142	12.6724	17.8841	12.9242	14.2222	18.7625	14.1802	-0.6042	3.7094	2.7863	1.2057	5.9054	5.5222	4.9934	5.427
7.0328	9.1588	9.4582	8.0846	11.0163	13.355	11.1506	12.692	17.9708	12.9857	14.2194	18.8184	14.2278	-0.5903	3.6982	2.7331	1.1665	5.9362	5.5166	5.0382	5.4466
6.9824	9.1393	9.5113	8.1126	11.0303	13.4333	11.1954	12.7116	18.0491	13.0277	14.2362	18.8744	14.2726	-0.5763	3.6535	2.6632	1.1525	5.9921	5.5166	5.0774	5.4578
6.9489	9.1588	9.5281	8.1434	11.0387	13.5145	11.2485	12.7312	18.147	13.0781	14.281	18.9415	14.3201	-0.5735	3.6507	2.6268	1.1386	6.0481	5.5473	5.1361	5.5194
6.9209	9.1309	9.5757	8.1657	11.0555	13.5928	11.3045	12.7424	18.2337	13.1256	14.2893	18.9779	14.3509	-0.5819	3.6367	2.5457	1.1637	6.076	5.5445	5.1501	5.5389
6.8985	9.1253	9.6064	8.1965	11.0471	13.6795	11.3157	12.748	18.3065	13.148	14.3285	19.031	14.3649	-0.6182	3.5891	2.4673	1.2057	6.09	5.5473	5.1641	5.5585
6.8649	9.1225	9.6596	8.2413	11.0919	13.8138	11.3716	12.8011	18.3988	13.2067	14.3397	19.073	14.4012	-0.6015	3.5639	2.417	1.2253	6.1292	5.5501	5.1949	5.6201
6.8509	9.1281	9.7211	8.2664	11.1115	13.9089	11.436	12.8291	18.5079	13.2039	14.3845	19.1261	14.404	-0.635	3.5108	2.2855	1.2952	6.132	5.5641	5.1837	5.6536
6.8314	9.1448	9.7883	8.2776	11.1422	14.0152	11.4947	12.8627	18.6366	13.2655	14.4292	19.1821	14.4516	-0.6854	3.4688	2.2044	1.3456	6.1572	5.5949	5.2004	5.7012
6.8481	9.1672	9.8582	8.314	11.1366	14.0935	11.5283	12.885	18.6841	13.2907	14.4208	19.2268	14.4572	-0.7189	3.4241	2.0841	1.4351	6.132	5.5725	5.1921	5.7236
6.8537	9.1868	9.9477	8.3476	11.1898	14.2082	11.6206	12.9186	18.782	13.313	14.446	19.2352	14.4684	-0.7665	3.3374	1.9498	1.5218	6.1292	5.6061	5.1865	5.7711
6.8817	9.212	10.0344	8.4035	11.2122	14.3425	11.7045	12.9718	18.8911	13.3858	14.4852	19.294	14.5215	-0.8001	3.2954	1.8044	1.6113	6.1628	5.6341	5.1949	5.8355
6.8705	9.2316	10.1156	8.4679	11.2317	14.4292	11.7661	12.9801	18.9723	13.4165	14.5103	19.3275	14.5355	-0.8728	3.2115	1.6309	1.7288	6.1656	5.6676	5.1949	5.8774
6.9433	9.2819	10.261	8.5434	11.2765	14.5831	11.8668	13.0389	19.0842	13.4753	14.5467	19.3863	14.5635	-0.9204	3.1639	1.5078	1.8183	6.1796	5.6788	5.2116	5.9166
6.9852	9.3351	10.4093	8.6413	11.3297	14.7369	12.0038	13.0725	19.1989	13.562	14.6027	19.445	14.6055	-0.9539	3.1136	1.354	1.8995	6.1935	5.7096	5.2284	5.9809
7.0635	9.4134	10.5576	8.728	11.3912	14.8796	12.0794	13.148	19.3024	13.6375	14.653	19.487	14.6586	-0.9931	3.0856	1.2616	1.9918	6.2047	5.7571	5.2648	6.0341
7.1838	9.4973	10.717	8.8735	11.4555	15.0335	12.2053	13.2123	19.4338	13.6991	14.6866	19.5374	14.7034	-1.0351	3.0772	1.1749	2.0673	6.2159	5.8159	5.3235	6.0956
7.2957	9.6092	10.9044	8.9826	11.5339	15.2209	12.3787	13.3102	19.5625	13.797	14.7845	19.6241	14.7845	-1.077	3.0548	1.1162	2.1345	6.2859	5.8718	5.3711	6.1432
7.4104	9.7127	11.1226	9.1057	11.6318	15.3915	12.5102	13.3634	19.68	13.9005	14.8209	19.666	14.8376	-1.1106	3.0296	1.0854	2.2072	6.2915	5.8886	5.4214	6.1991
7.5615	9.819	11.3241	9.2484	11.7129	15.5538	12.6584	13.4557	19.8059	13.99	14.8964	19.7556	14.9216	-1.147	3.024	1.0742	2.2687	6.3278	5.9502	5.4578	6.2719
7.7293	9.9309	11.5758	9.4218	11.836	15.7524	12.8459	13.5648	19.9821	14.1355	14.9803	19.873	14.9999	-1.1749	3.0212	1.0714	2.3163	6.3922	6.0145	5.5333	6.3278
7.8832	10.0792	11.8052	9.5757	11.9535	15.9482	12.9829	13.6543	20.1024	14.253	15.0614	19.9374	15.109	-1.1889	3.0156	1.0938	2.3666	6.4397	6.0816	5.5837	6.395
8.0566	10.2051	12.0598	9.7043	12.0794	16.1329	13.1592	13.755	20.2339	14.3509	15.1566	20.0269	15.1929	-1.2225	2.9849	1.1078	2.4198	6.5152	6.1432	5.6201	6.4565
8.2357	10.3617	12.3088	9.8526	12.1997	16.3427	13.3074	13.8725	20.4046	14.502	15.2545	20.1192	15.2964	-1.2421	2.9877	1.1274	2.4562	6.5712	6.2019	5.69	6.5628
8.4595	10.5296	12.5745	10.0121	12.3144	16.5525	13.4557	13.9816	20.5388	14.6334	15.3468	20.2087	15.3971	-1.2561	2.9877	1.1525	2.4701	6.6691	6.2635	5.7543	6.6439
8.6245	10.6806	12.8039	10.1519	12.4402	16.7175	13.6292	14.0879	20.6479	14.7509	15.4111	20.2983	15.4783	-1.2589	2.9429	1.1553	2.5009	6.7307	6.3138	5.7935	6.739
8.7952	10.7786	13.0473	10.2806	12.5689	16.8854	13.769	14.1886	20.7654	14.8572	15.5342	20.399	15.565	-1.2728	2.8926	1.1693	2.5205	6.8062	6.4061	5.8634	6.837
8.9714	10.938	13.2655	10.4429	12.678	17.0896	13.9229	14.2782	20.8997	14.9467	15.6069	20.4661	15.6517	-1.2896	2.8618	1.1749	2.5457	6.8789	6.4453	5.925	6.9097
9.142	11.0779	13.4921	10.5604	12.7927	17.2434	14.0572	14.3677	20.9976	15.0223	15.6685	20.5137	15.7104	-1.3008	2.8366	1.1833	2.5569	6.9153	6.5348	5.9697	6.9936
9.2791	11.1814	13.6795	10.6974	12.8906	17.4001	14.1886	14.4404	21.1039	15.1006	15.7412	20.564	15.7552	-1.312	2.7835	1.1777	2.5932	6.9684	6.5908	6.0341	7.0971
9.419	11.2849	13.8753	10.759	12.969	17.5288	14.2838	14.5131	21.1795	15.1566	15.7972	20.5892	15.8056	-1.3456	2.7471	1.1525	2.6408	7.016	6.6439	6.0369	7.2034
9.5785	11.3968	14.0683	10.9184	13.0781	17.6743	14.4012	14.5691	21.241	15.1929	15.8559	20.6256	15.8335	-1.3484	2.6995	1.1525	2.6716	7.0775	6.7195	6.104	7.3069
9.6792	11.4807	14.2306	11.0107	13.1536	17.7694	14.5048	14.625	21.3165	15.2237	15.9091	20.6479	15.8307	-1.354	2.6352	1.1022	2.7023	7.1195	6.7754	6.1404	7.3881
9.7994	11.5926	14.3929	11.0751	13.2515	17.9064	14.5943	14.695	21.3669	15.2852	15.951	20.6899	15.8559	-1.3735	2.5569	1.0379	2.7359	7.1559	6.8537	6.1879	7.4972
9.903	11.6877	14.5467	11.1842	13.327	18.0155	14.681	14.7481	21.4312	15.274	16.021	20.7011	15.8951	-1.3903	2.5065	0.9707	2.7723	7.1726	6.9405	6.2103	7.6118
9.9813	11.7521	14.6558	11.2625	13.4137	18.1023	14.7313	14.8125	21.4732	15.2796	16.0937	20.7179	15.8671	-1.4071	2.4198	0.8868	2.8058	7.223	7.0076	6.2355	7.7265
10.0484	11.8248	14.7845	11.3213	13.4529	18.1694	14.8041	14.8153	21.4788	15.2657	16.0937	20.7291	15.8531	-1.4519	2.3359	0.7861	2.8702	7.209	7.0552	6.2187	7.7993
10.1435	11.8807	14.888	11.3828	13.562	18.2701	14.8516	14.8964	21.5151	15.2657	16.1636	20.7319	15.8783	-1.4603	2.2603	0.6994	2.901	7.2538	7.1195	6.2467	7.9056
10.2135	11.9535	15.0139	11.4751	13.6264	18.3512	14.9104	14.9579	21.5487	15.2629	16.2252	20.7375	15.8951	-1.4715	2.1792	0.6182	2.9233	7.2762	7.1978	6.2523	8.0063
10.2946	12.0262	15.1426	11.5423	13.6991	18.4184	14.9915	15.0083	21.5655	15.2713	16.2951	20.757	15.8811	-1.4938	2.0953	0.5035	2.9457	7.3209	7.2622	6.2579	8.0958
10.3561	12.0878	15.2181	11.6122	13.7606	18.5023	15.0475	15.0586	21.5879	15.2405	16.3035	20.7542	15.8755	-1.4938	2.003	0.4364	2.9681	7.3489	7.2901	6.2663	8.1685
10.4345	12.1101	15.3356	11.6458	13.8166	18.5359	15.067	15.0726	21.5851	15.2293	16.3259	20.7514	15.8615	-1.4994	1.9358	0.3413	2.9877	7.3545	7.3181	6.2635	8.2357
10.4904	12.1941	15.4223	11.7129	13.8557	18.6058	15.1118	15.109	21.5823	15.2321	16.3567	20.7431	15.8671	-1.5078	1.8491	0.2462	3.0017	7.3936	7.3685	6.2551	8.3056
10.5184	12.2248	15.5062	11.7828	13.9257	18.645	15.1398	15.151	21.5543	15.1929	16.3734	20.7151	15.8643	-1.5302	1.7568	0.1091	3.0296	7.3992	7.3881	6.2467	8.37
10.5604	12.2612	15.5818	11.8388	13.9704	18.6841	15.1705	15.1873	21.5431	15.1733	16.4014	20.7095	15.8699	-1.5246	1.7176	0.0587	3.0324	7.444	7.4104	6.2439	8.4287
10.5911	12.3144	15.6293	11.8891	14.0068	18.7065	15.2209	15.1957	21.5179	15.1761	16.4098	20.6899	15.8587	-1.547	1.6477	-0.0504	3.052	7.4776	7.4468	6.2551	8.4623
10.6247	12.3731	15.6993	11.9423	14.0572	18.7485	15.2601	15.2713	21.5207	15.1985	16.449	20.7067	15.9035	-1.5246	1.5694	-0.1623	3.0296	7.5559	7.486	6.2691	8.5406
10.6247	12.4067	15.7412	11.9507	14.0628	18.7429	15.2629	15.2601	21.4452	15.1566	16.4434	20.6899	15.8923	-1.5358	1.5106	-0.2797	3.0464	7.6063	7.5055	6.2607	8.5574
10.5883	12.3983	15.7524	12.0094	14.0935	18.7177	15.2629	15.2573	21.4116	15.151	16.4294	20.6507	15.9147	-1.5246	1.4099	-0.4448	3.0324	7.6454	7.4972	6.2747	8.5854
10.5743	12.429	15.7776	12.0038	14.1103	18.6925	15.2908	15.2796	21.3697	15.1566	16.4518	20.634	15.9398	-1.519	1.3008	-0.6042	3.0128	7.7126	7.5111	6.2579	8.5993
10.5352	12.4514	15.7832	12.0458	14.1243	18.6841	15.3048	15.274	21.3137	15.1538	16.4378	20.5976	15.9874	-1.4938	1.2309	-0.7553	2.9821	7.7685	7.4999	6.297	8.5854
10.4988	12.4794	15.786	12.0654	14.1495	18.6506	15.3132	15.2517	21.2578	15.1594	16.4126	20.5948	16.021	-1.4798	1.1414	-0.9036	2.9373	7.8328	7.486	6.3138	8.5965
10.4988	12.5186	15.8056	12.0934	14.1635	18.6422	15.3328	15.2824	21.2354	15.2041	16.3986	20.592	16.0881	-1.4603	1.0686	-1.0882	2.8898	7.9056	7.4888	6.325	8.5882
10.4764	12.5521	15.8168	12.1269	14.2054	18.6366	15.3636	15.2713	21.1962	15.2517	16.4098	20.5864	16.172	-1.4295	0.9735	-1.2616	2.8338	7.9923	7.4692	6.3558	8.577
10.4848	12.5941	15.8363	12.1857	14.2418	18.5946	15.4167	15.2796	21.1599	15.2992	16.3846	20.578	16.2336	-1.3959	0.9008	-1.3987	2.7667	8.0594	7.4552	6.4006	8.5686
10.5044	12.65	15.8867	12.2388	14.2614	18.5946	15.4475	15.288	21.1235	15.3552	16.3623	20.5836	16.2951	-1.3707	0.8308	-1.5134	2.7219	8.1322	7.4384	6.4229	8.5266
10.5268	12.7256	15.9007	12.2892	14.3229	18.6198	15.5034	15.2964	21.1039	15.4447	16.3511	20.5752	16.3818	-1.3428	0.7777	-1.6169	2.6548	8.2105	7.4244	6.4537	8.4846
10.6051	12.8011	15.9566	12.3675	14.3733	18.6142	15.5678	15.2964	21.0871	15.5174	16.3147	20.578	16.4686	-1.3204	0.7106	-1.6589	2.61	8.2748	7.4272	6.4817	8.4399
10.675	12.871	16.0266	12.4542	14.4124	18.6282	15.6181	15.3104	21.0759	15.6181	16.2671	20.5752	16.5441	-1.3008	0.649	-1.7232	2.5792	8.3056	7.4216	6.5404	8.3923
10.7562	12.9745	16.0881	12.5409	14.474	18.6646	15.6741	15.3188	21.048	15.6937	16.2224	20.564	16.5805	-1.284	0.6154	-1.6925	2.5485	8.3252	7.4356	6.5712	8.3336
10.8737	13.0613	16.2056	12.6528	14.5327	18.7177	15.7608	15.3244	21.0508	15.7888	16.1832	20.5304	16.6588	-1.2589	0.5735	-1.6533	2.5149	8.3364	7.416	6.6216	8.2748
10.9996	13.176	16.2895	12.7619	14.5943	18.7401	15.8223	15.3328	21.034	15.8447	16.1301	20.5109	16.7119	-1.2616	0.5175	-1.6197	2.4869	8.3392	7.4524	6.6523	8.2385
11.1366	13.2711	16.3678	12.8766	14.6362	18.7429	15.8951	15.3272	21.0256	15.9398	16.0685	20.4297	16.7231	-1.2393	0.4951	-1.5274	2.4701	8.3336	7.4636	6.6971	8.1797
11.2597	13.3746	16.463	12.969	14.6838	18.7904	15.9454	15.33	20.9948	15.9734	16.0154	20.3906	16.7315	-1.2365	0.4756	-1.4575	2.445	8.2804	7.4692	6.7083	8.1266
11.3996	13.4557	16.5581	13.0641	14.7257	18.7876	16.0238	15.3048	20.9389	16.0126	15.937	20.3402	16.6952	-1.2225	0.4224	-1.3484	2.4366	8.2357	7.4776	6.7446	8.0566
11.5143	13.5201	16.6224	13.12	14.7593	18.782	16.035	15.2824	20.8801	16.021	15.8727	20.2451	16.6476	-1.2225	0.3805	-1.2589	2.4338	8.1546	7.4692	6.739	7.9783
11.657	13.6012	16.7175	13.2039	14.8013	18.8128	16.0881	15.2992	20.8661	16.0601	15.8447	20.1975	16.6476	-1.2141	0.3245	-1.1945	2.4086	8.093	7.5055	6.7754	7.9559
11.7325	13.6739	16.7735	13.2543	14.8125	18.8072	16.0965	15.2824	20.7822	16.0433	15.8028	20.094	16.5777	-1.2085	0.263	-1.133	2.403	8.0203	7.5167	6.7726	7.9
11.8388	13.7299	16.8322	13.2851	14.8432	18.8072	16.1077	15.2657	20.7207	16.0294	15.7832	20.0297	16.5497	-1.2113	0.1427	-1.1302	2.3946	7.9196	7.5251	6.7894	7.8832
11.9031	13.7718	16.8518	13.2907	14.8544	18.782	16.1049	15.2713	20.6563	16.007	15.7636	19.943	16.4769	-1.2029	0.0839	-1.1106	2.4058	7.844	7.5447	6.7726	7.8692
11.9619	13.8054	16.8854	13.2907	14.8432	18.7681	16.0685	15.2796	20.5836	15.9594	15.8112	19.8702	16.4126	-1.2113	-0.0196	-1.1497	2.417	7.7321	7.5783	6.7474	7.886
11.9815	13.811	16.8882	13.2683	14.8544	18.7121	16.0461	15.3076	20.5388	15.9007	15.8531	19.7919	16.3539	-1.2281	-0.1427	-1.2169	2.4478	7.6314	7.6286	6.739	7.9196
11.9898	13.811	16.8602	13.2375	14.8404	18.6813	15.9902	15.3412	20.4605	15.8279	15.9342	19.7611	16.2699	-1.2561	-0.2406	-1.27	2.4813	7.5251	7.6762	6.6719	7.9951
12.0178	13.8082	16.8686	13.1983	14.8712	18.645	15.9286	15.3776	20.4074	15.7804	16.0126	19.7136	16.2084	-1.2728	-0.3413	-1.3484	2.5345	7.4524	7.7489	6.6439	8.0902
11.9843	13.741	16.8238	13.106	14.8684	18.5555	15.8503	15.4027	20.3234	15.6629	16.1161	19.6437	16.1133	-1.3036	-0.4644	-1.4295	2.5988	7.3293	7.7965	6.5544	8.1825
11.9507	13.7159	16.7539	13.0361	14.8237	18.4799	15.7608	15.4503	20.2311	15.5762	16.2364	19.5905	16.0182	-1.354	-0.5623	-1.5022	2.7023	7.2118	7.8608	6.4901	8.3196
11.9115	13.6655	16.6896	12.9494	14.8293	18.4016	15.6573	15.4895	20.1668	15.4867	16.407	19.529	15.9538	-1.4099	-0.6882	-1.5694	2.803	7.1111	7.9587	6.4061	8.4791
11.8528	13.6292	16.6308	12.8599	14.8125	18.3512	15.551	15.5706	20.0884	15.3776	16.5805	19.4786	15.8811	-1.4687	-0.8085	-1.6589	2.9149	6.9908	8.0762	6.3138	8.6497
11.808	13.5648	16.5357	12.7647	14.8097	18.2869	15.4587	15.6321	20.0381	15.2908	16.7511	19.4478	15.8195	-1.5302	-0.9092	-1.7456	3.052	6.9237	8.1797	6.2271	8.8623
11.7409	13.5033	16.4602	12.65	14.7873	18.1526	15.3272	15.7104	19.9458	15.1705	16.9301	19.4255	15.73	-1.6197	-1.0434	-1.8351	3.2115	6.7782	8.3	6.118	9.0721
11.6597	13.4781	16.379	12.5521	14.8069	18.0911	15.2209	15.7888	19.9206	15.0866	17.1288	19.4087	15.6853	-1.6869	-1.1525	-1.9218	3.3653	6.7055	8.4483	6.0201	9.3155
11.587	13.4137	16.3147	12.4626	14.8237	18.0435	15.1202	15.8783	19.8675	14.9887	17.3581	19.4115	15.6517	-1.7568	-1.2533	-1.9974	3.4968	6.6299	8.5686	5.9306	9.5449
11.5115	13.3662	16.2364	12.3731	14.8321	17.9736	15.0139	15.9594	19.8367	14.9104	17.5624	19.4283	15.6041	-1.8379	-1.3791	-2.0869	3.6451	6.5432	8.6861	5.8187	9.7799
11.4639	13.3634	16.1804	12.2948	14.902	17.9624	14.9412	16.0993	19.8619	14.8656	17.8113	19.4898	15.6265	-1.9023	-1.4407	-2.1988	3.7514	6.4873	8.8595	5.7432	10.0204
11.4052	13.3298	16.1441	12.2164	14.916	17.9288	14.8992	16.214	19.873	14.8404	18.0407	19.5569	15.6517	-1.947	-1.5638	-2.2911	3.8717	6.4369	8.9826	5.6816	10.2359
11.3548	13.355	16.1217	12.1773	14.9831	17.9456	14.8712	16.3539	19.9234	14.8432	18.2953	19.6716	15.7104	-1.9946	-1.6141	-2.3974	3.964	6.4173	9.1337	5.6033	10.4792
11.3324	13.3466	16.1077	12.1297	15.0447	17.9624	14.8293	16.4993	19.9877	14.8432	18.5303	19.7807	15.758	-2.0477	-1.6365	-2.4813	4.0535	6.3866	9.2763	5.5613	10.6723
11.3185	13.3774	16.1217	12.1241	15.151	17.9932	14.8209	16.642	20.0829	14.8796	18.7988	19.9374	15.8811	-2.0757	-1.6421	-2.5317	4.129	6.4089	9.4162	5.5585	10.8932
11.3213	13.4277	16.1469	12.1297	15.2545	18.0547	14.8516	16.7959	20.2115	14.9412	19.0562	20.1108	16.0126	-2.1093	-1.6029	-2.5904	4.185	6.4397	9.5701	5.5389	11.0751
11.3157	13.4641	16.1692	12.1241	15.3748	18.1386	14.8936	16.9665	20.3318	15.0335	19.294	20.2731	16.1441	-2.1456	-1.6141	-2.6324	4.2493	6.4817	9.6987	5.5529	11.2569
11.3045	13.5396	16.2168	12.1241	15.4895	18.2254	14.9272	17.1288	20.4801	15.109	19.5234	20.4717	16.3119	-2.1764	-1.5554	-2.652	4.2997	6.5348	9.8162	5.5473	11.4024
11.3352	13.6124	16.2671	12.1493	15.6181	18.3149	14.9551	17.2742	20.6284	15.2041	19.75	20.6703	16.4602	-2.2156	-1.5078	-2.6548	4.35	6.6076	9.9533	5.5753	11.5339
11.3408	13.6823	16.2923	12.1829	15.7188	18.4128	15.0363	17.4421	20.7794	15.3188	19.9486	20.8605	16.6448	-2.2184	-1.4351	-2.6268	4.3864	6.6971	10.0288	5.6229	11.6374
11.3632	13.755	16.3455	12.2136	15.8223	18.5387	15.1174	17.5847	20.9389	15.4503	20.1332	21.0732	16.8154	-2.2212	-1.354	-2.5876	4.42	6.767	10.1044	5.6928	11.7465
11.3688	13.8306	16.393	12.2528	15.951	18.659	15.1845	17.719	21.0983	15.6125	20.2899	21.2606	17.0085	-2.2436	-1.284	-2.5681	4.4423	6.8593	10.1827	5.7348	11.7884
11.394	13.9117	16.4546	12.3004	16.0629	18.7653	15.2545	17.8449	21.2466	15.7272	20.4018	21.4256	17.1875	-2.2547	-1.2169	-2.5457	4.4703	6.9349	10.2107	5.7991	11.8164
11.408	13.9928	16.4965	12.3451	16.1692	18.8939	15.358	17.9316	21.4368	15.8951	20.5137	21.6298	17.3777	-2.2547	-1.1386	-2.5093	4.4675	7.03	10.2554	5.8802	11.8724
11.4555	14.0907	16.5665	12.4207	16.2671	19.0506	15.4587	18.0631	21.6298	16.0517	20.6144	21.8229	17.5959	-2.2575	-1.0155	-2.4394	4.4451	7.1475	10.2778	5.9697	11.8779
11.4751	14.1467	16.6224	12.4934	16.3623	19.1821	15.551	18.161	21.7809	16.1972	20.6731	21.9795	17.7694	-2.2436	-0.9288	-2.4086	4.4284	7.2342	10.289	6.0341	11.864
11.5367	14.239	16.6868	12.5689	16.4742	19.3387	15.6741	18.2645	21.9655	16.3762	20.7375	22.1642	17.9652	-2.2212	-0.8364	-2.3806	4.3864	7.3629	10.3282	6.1376	11.8444
11.5786	14.3145	16.7791	12.6528	16.5665	19.4618	15.7748	18.3484	22.1418	16.5525	20.7794	22.3376	18.1834	-2.1932	-0.7245	-2.3527	4.3444	7.472	10.3282	6.2467	11.794
11.6374	14.4124	16.8546	12.7452	16.6812	19.6548	15.9175	18.4436	22.3432	16.7427	20.8354	22.5054	18.3792	-2.1624	-0.6154	-2.2995	4.2773	7.5923	10.3338	6.3642	11.7688
11.7297	14.5075	16.9385	12.8375	16.8015	19.8171	16.0294	18.5331	22.5418	16.8994	20.8577	22.6621	18.5638	-2.1233	-0.5091	-2.2687	4.2185	7.7042	10.3477	6.4761	11.7073
11.8192	14.6166	17.056	12.9718	16.9078	19.9738	16.172	18.6142	22.7264	17.0672	20.8857	22.8048	18.7457	-2.1009	-0.3832	-2.2436	4.1542	7.8133	10.3422	6.6104	11.6346
11.9031	14.7202	17.1623	13.0753	17.0113	20.1248	16.2867	18.6897	22.8999	17.2351	20.8522	22.9502	18.9107	-2.0589	-0.2741	-2.2156	4.0927	7.8636	10.3477	6.6831	11.559
12.0206	14.8125	17.2714	13.1704	17.1204	20.2983	16.435	18.7792	23.0789	17.3861	20.8549	23.0817	19.0814	-2.0337	-0.1734	-2.2044	4.0283	7.9336	10.3422	6.8342	11.4975
12.1381	14.9439	17.3721	13.2739	17.2295	20.4689	16.5357	18.838	23.2468	17.5064	20.8186	23.2188	19.224	-1.9974	-0.0811	-2.1512	3.9612	7.9867	10.3394	6.9125	11.422
12.2724	15.0419	17.5036	13.3802	17.3358	20.6423	16.6616	18.9219	23.409	17.6519	20.8046	23.3083	19.3303	-1.9694	0.0448	-2.1233	3.9164	8.0203	10.3366	6.9964	11.3213
12.4235	15.1901	17.6323	13.5089	17.47	20.8382	16.7791	18.9835	23.5769	17.7582	20.7654	23.409	19.4087	-1.9414	0.179	-2.0701	3.8549	8.0455	10.3198	7.0859	11.2317
12.5605	15.302	17.7554	13.6208	17.568	20.9836	16.8882	19.0198	23.7139	17.8701	20.7095	23.4706	19.4758	-1.9107	0.2825	-1.9946	3.7989	8.0343	10.3142	7.1391	11.1282
12.678	15.4139	17.8785	13.6991	17.6771	21.1459	16.9861	19.073	23.8202	17.9288	20.6367	23.5013	19.5038	-1.9162	0.3944	-1.9442	3.7849	7.9895	10.3002	7.1866	11.0107
12.8123	15.5342	18.0239	13.7914	17.7862	21.3053	17.07	19.1541	23.9433	17.9848	20.5836	23.5293	19.5094	-1.8799	0.5119	-1.8715	3.7346	7.9587	10.2862	7.2174	10.9072
12.9634	15.6517	18.1414	13.8949	17.8841	21.4284	17.1623	19.1625	24.0412	18.0407	20.4745	23.5153	19.487	-1.8631	0.621	-1.7876	3.6982	7.8692	10.2554	7.2258	10.7758
13.0864	15.7496	18.2561	13.9648	17.9988	21.5739	17.2434	19.2045	24.1224	18.0575	20.371	23.5181	19.4422	-1.8463	0.7553	-1.6925	3.6702	7.7825	10.2023	7.2202	10.6639
13.2151	15.8699	18.3792	14.0404	18.0883	21.7222	17.305	19.2101	24.2315	18.0631	20.2563	23.4818	19.3639	-1.8379	0.9148	-1.5889	3.6507	7.6454	10.1743	7.2006	10.5212
13.3438	15.9622	18.5079	14.1243	18.1806	21.8508	17.3498	19.238	24.2986	18.0911	20.1304	23.4426	19.2884	-1.8407	1.0127	-1.4854	3.6423	7.5111	10.1603	7.195	10.3953
13.4613	16.0517	18.6114	14.1635	18.2449	21.9711	17.4197	19.2352	24.3378	18.0603	19.9989	23.3782	19.1765	-1.8183	1.1274	-1.3484	3.6283	7.3461	10.1156	7.1559	10.2275
13.5732	16.1636	18.7485	14.225	18.3512	22.139	17.4644	19.2464	24.4413	18.0743	19.873	23.3447	19.0394	-1.8155	1.2561	-1.2281	3.6031	7.2006	10.082	7.1195	10.0764
13.7215	16.2643	18.8828	14.3173	18.4268	22.2481	17.5568	19.2688	24.4944	18.0519	19.7304	23.2663	18.9275	-1.8155	1.3707	-1.1134	3.5947	6.9852	10.0456	7.0887	9.8974
13.8054	16.3147	18.9891	14.3509	18.4827	22.3656	17.5875	19.2632	24.5504	18.0211	19.5961	23.202	18.7653	-1.8099	1.4547	-0.9735	3.5835	6.7922	10.0065	7.0496	9.7043
13.9285	16.4406	19.1233	14.4348	18.5918	22.5138	17.6519	19.2548	24.6119	17.9932	19.4786	23.1544	18.6142	-1.796	1.5582	-0.8364	3.5611	6.588	9.9449	7.002	9.5449
14.0404	16.5021	19.224	14.4852	18.6478	22.6061	17.705	19.2744	24.6735	17.9596	19.3415	23.0761	18.4464	-1.7708	1.6505	-0.6994	3.5304	6.3838	9.9058	6.9768	9.3602
14.1243	16.5972	19.308	14.5579	18.7205	22.718	17.7694	19.2716	24.721	17.9232	19.1877	23.0034	18.2729	-1.782	1.7064	-0.6015	3.5248	6.1544	9.8666	6.9237	9.184
14.2082	16.6392	19.4143	14.5831	18.7625	22.8299	17.8085	19.2576	24.7546	17.8757	19.0478	22.9362	18.0827	-1.7708	1.7792	-0.4812	3.4996	5.9306	9.833	6.8901	8.9882
14.2921	16.6952	19.4786	14.6418	18.8044	22.9111	17.8449	19.2492	24.7518	17.8113	18.8995	22.8355	17.8953	-1.7624	1.8407	-0.3944	3.4856	5.6984	9.7631	6.8537	8.812
14.3425	16.7371	19.5374	14.6978	18.8296	22.9754	17.8645	19.2184	24.777	17.7442	18.7597	22.7404	17.691	-1.7372	1.8547	-0.2909	3.4548	5.4746	9.7239	6.8034	8.6161
14.4152	16.7763	19.6073	14.7425	18.88	23.0565	17.9064	19.2017	24.8077	17.6938	18.6338	22.6621	17.5092	-1.7316	1.8799	-0.2014	3.4353	5.2424	9.6903	6.7754	8.4623
14.4544	16.7987	19.6465	14.7733	18.8716	23.0985	17.8981	19.1429	24.7882	17.6127	18.4883	22.5558	17.3022	-1.7316	1.8883	-0.1343	3.4269	4.999	9.654	6.7251	8.3
14.4572	16.8294	19.666	14.7929	18.8492	23.1405	17.9176	19.1038	24.7322	17.5288	18.3177	22.4383	17.0756	-1.7288	1.9051	-0.0448	3.4269	4.7752	9.5952	6.7055	8.1014
14.4852	16.849	19.6688	14.8069	18.8436	23.1768	17.9232	19.0478	24.721	17.4281	18.1862	22.3264	16.8938	-1.74	1.8911	0.0364	3.4381	4.5542	9.5757	6.6271	7.9475
14.488	16.8602	19.6856	14.8013	18.8296	23.1796	17.9092	18.9779	24.6567	17.3246	18.0239	22.1809	16.656	-1.7344	1.8743	0.1035	3.4576	4.3137	9.5197	6.5936	7.8049
14.4656	16.863	19.6632	14.8041	18.8044	23.188	17.8869	18.9275	24.6147	17.2574	17.8645	22.0914	16.4853	-1.7624	1.8379	0.1986	3.4772	4.1178	9.4917	6.5712	7.6762
14.46	16.8798	19.6465	14.7733	18.7681	23.174	17.8561	18.866	24.542	17.1343	17.7162	21.9488	16.2867	-1.7736	1.7988	0.2546	3.5192	3.8857	9.4582	6.4957	7.5419
14.4292	16.863	19.6045	14.7509	18.7093	23.1433	17.8085	18.782	24.4581	17.028	17.5707	21.8313	16.0685	-1.7904	1.7204	0.3441	3.5528	3.6954	9.4134	6.4313	7.416
14.3956	16.8742	19.5821	14.7174	18.6701	23.1377	17.7889	18.7317	24.3797	16.9273	17.4393	21.7194	15.9063	-1.7988	1.6785	0.4392	3.5863	3.5052	9.3602	6.3754	7.2985
14.4012	16.905	19.5625	14.7006	18.6282	23.1237	17.7554	18.6618	24.3126	16.8294	17.3358	21.6242	15.7244	-1.8211	1.6253	0.5679	3.6171	3.3178	9.3826	6.325	7.2062
14.3845	16.9273	19.529	14.639	18.6002	23.1097	17.733	18.6226	24.2371	16.7595	17.1931	21.4844	15.5818	-1.8407	1.5722	0.649	3.6479	3.1331	9.3407	6.2775	7.1335
14.3565	16.9413	19.5234	14.6194	18.5778	23.0761	17.691	18.5778	24.1727	16.6616	17.1036	21.3977	15.4251	-1.8603	1.5302	0.7637	3.6842	2.9653	9.3239	6.2103	7.058
14.3705	16.9889	19.501	14.5971	18.5527	23.0733	17.6379	18.5387	24.0832	16.5693	17.0169	21.2969	15.2992	-1.8995	1.4659	0.8001	3.7402	2.803	9.3099	6.16	6.9852
14.3089	17.0085	19.4898	14.5355	18.5303	23.0509	17.6183	18.4995	23.9965	16.4825	16.905	21.2018	15.1761	-1.9162	1.4015	0.8644	3.7905	2.6268	9.2903	6.0816	6.9321
14.3201	17.0616	19.4562	14.4936	18.5051	23.037	17.5763	18.4603	23.9182	16.4462	16.8294	21.0704	15.0531	-1.9442	1.3763	0.9455	3.8437	2.4701	9.2931	6.0285	6.8789
14.3089	17.0784	19.4534	14.474	18.4939	23.0314	17.5428	18.4184	23.8398	16.3678	16.7623	20.978	14.9412	-1.9722	1.3428	0.9315	3.8996	2.3499	9.2875	5.9949	6.8342
14.2558	17.0896	19.4003	14.4012	18.4659	22.9698	17.484	18.3708	23.7307	16.2811	16.6672	20.8689	14.8265	-1.9918	1.326	0.9371	3.9556	2.1932	9.2763	5.9306	6.7782
14.2614	17.1176	19.3835	14.3761	18.4296	22.953	17.4561	18.3261	23.6272	16.2056	16.614	20.771	14.7509	-2.0281	1.3204	0.898	4.0199	2.0785	9.2819	5.883	6.7502
14.211	17.1539	19.3583	14.3369	18.4352	22.953	17.4253	18.3205	23.5629	16.1469	16.5777	20.6731	14.6726	-2.0589	1.3148	0.8588	4.0731	1.9358	9.2763	5.8299	6.7139
14.1607	17.1679	19.3331	14.2921	18.4324	22.9111	17.3861	18.2869	23.4818	16.0769	16.5077	20.5668	14.5747	-2.0869	1.3512	0.7861	4.1374	1.8239	9.2595	5.7991	6.7195
14.1215	17.1707	19.3024	14.2698	18.4464	22.8971	17.3805	18.2365	23.4034	16.0322	16.4658	20.4633	14.4964	-2.1205	1.4043	0.705	4.1878	1.6953	9.2484	5.7543	6.6803
14.0739	17.1847	19.294	14.2166	18.438	22.8747	17.3274	18.2309	23.3307	15.9958	16.4378	20.399	14.4152	-2.1317	1.4854	0.635	4.2241	1.5973	9.2484	5.732	6.6691
14.0264	17.1819	19.2352	14.1607	18.4212	22.8467	17.291	18.1918	23.2552	15.9175	16.4014	20.2759	14.3313	-2.1596	1.5666	0.5903	4.2885	1.5246	9.2344	5.6648	6.6551
13.9872	17.1959	19.2268	14.1299	18.4519	22.8355	17.2854	18.1862	23.1712	15.9147	16.407	20.1975	14.3033	-2.1792	1.6925	0.5315	4.3137	1.4491	9.2539	5.6676	6.6607
13.9592	17.2099	19.2017	14.0907	18.4631	22.8271	17.2546	18.1918	23.1125	15.8503	16.3958	20.122	14.225	-2.1932	1.8491	0.5119	4.3472	1.3931	9.2595	5.6536	6.6523
13.9285	17.2015	19.1849	14.0628	18.4883	22.802	17.2267	18.2058	23.0929	15.8279	16.4014	20.0381	14.1774	-2.2156	1.9862	0.4896	4.3948	1.3176	9.2707	5.6452	6.6579
13.8753	17.2183	19.1597	14.0292	18.5079	22.8076	17.2043	18.2337	23.0314	15.7804	16.4294	19.9738	14.1327	-2.2463	2.1205	0.5147	4.4423	1.2393	9.2987	5.6201	6.6831
13.8613	17.2127	19.1513	13.9844	18.5443	22.8104	17.1791	18.2254	22.9866	15.758	16.4686	19.9318	14.1075	-2.2827	2.2352	0.5287	4.4843	1.1861	9.3099	5.6117	6.7027
13.8446	17.2379	19.1597	13.9704	18.5862	22.816	17.1707	18.2785	22.9782	15.758	16.4965	19.873	14.0656	-2.2771	2.3778	0.5987	4.4983	1.1442	9.3211	5.6061	6.6999
13.8669	17.2267	19.1653	13.962	18.631	22.8355	17.1819	18.3205	22.9754	15.7328	16.5637	19.8339	14.0264	-2.2855	2.5065	0.6742	4.5207	1.1078	9.3379	5.5865	6.7279
13.8809	17.2854	19.1905	13.9592	18.6729	22.8691	17.1679	18.3568	22.9726	15.7132	16.6336	19.8087	14.004	-2.2911	2.6156	0.7385	4.5235	1.0854	9.3686	5.5753	6.7754
13.9537	17.3134	19.224	13.9369	18.7429	22.9139	17.1567	18.4268	22.9782	15.7356	16.6868	19.7891	13.9928	-2.2827	2.7639	0.856	4.5235	1.0574	9.391	5.5809	6.8118
13.9956	17.3525	19.2576	13.9481	18.796	22.9502	17.1623	18.4715	22.9558	15.7244	16.7735	19.7695	13.962	-2.2687	2.8562	0.9511	4.4955	1.0686	9.419	5.5837	6.8453
14.0292	17.3693	19.3247	13.9704	18.8464	23.0062	17.1903	18.5303	22.9782	15.716	16.8518	19.7528	13.9676	-2.2799	2.9261	1.0462	4.4955	1.0602	9.4442	5.6005	6.8929
14.0739	17.4113	19.3471	13.9732	18.9107	23.037	17.1819	18.6142	23.0006	15.7132	16.9273	19.7304	13.9341	-2.2575	3.0073	1.1553	4.4647	1.063	9.4721	5.5921	6.9153
14.1411	17.4477	19.4031	13.9872	18.9779	23.0901	17.2043	18.659	23.0174	15.7328	17.0085	19.7388	13.9257	-2.2491	3.0716	1.2477	4.4367	1.0742	9.5281	5.5949	6.9908
14.1747	17.484	19.4562	14.0068	19.0142	23.1265	17.2407	18.7093	23.023	15.7188	17.0644	19.7052	13.9005	-2.2352	3.1024	1.3204	4.4256	1.0742	9.5337	5.6033	7.0244
14.2418	17.5204	19.5038	14.0292	19.1149	23.2048	17.2239	18.7792	23.0677	15.716	17.1343	19.7024	13.8977	-2.2212	3.1611	1.4295	4.392	1.0798	9.6064	5.6145	7.0943
14.2642	17.5624	19.5318	14.0432	19.1541	23.23	17.249	18.838	23.0873	15.7216	17.2211	19.6912	13.8837	-2.2184	3.1835	1.4519	4.3724	1.091	9.6428	5.6285	7.1419
14.2754	17.5847	19.5681	14.0544	19.2129	23.2831	17.2546	18.8995	23.1069	15.716	17.2882	19.6716	13.8613	-2.2044	3.2283	1.5302	4.3556	1.105	9.6848	5.6117	7.223
14.3061	17.6015	19.6101	14.06	19.2492	23.3055	17.263	18.9387	23.1181	15.716	17.3442	19.6856	13.8446	-2.1904	3.2646	1.5666	4.3388	1.1358	9.7015	5.6229	7.2706
14.3649	17.6407	19.6548	14.0767	19.322	23.3615	17.291	19.017	23.1517	15.7188	17.4337	19.7136	13.839	-2.1904	3.2954	1.5973	4.3221	1.1497	9.7631	5.6257	7.3377
14.3453	17.6631	19.6381	14.0544	19.3527	23.4118	17.3246	19.0674	23.1656	15.7188	17.4812	19.6828	13.8306	-2.1876	3.287	1.6029	4.3276	1.1637	9.8106	5.6173	7.3936
14.3565	17.6687	19.68	14.0628	19.4031	23.4202	17.333	19.1177	23.1908	15.7077	17.554	19.722	13.839	-2.1932	3.3401	1.5973	4.3388	1.1721	9.8442	5.6145	7.4496
14.3453	17.6826	19.6716	14.0404	19.4478	23.465	17.347	19.1709	23.2132	15.6965	17.5987	19.7248	13.839	-2.2128	3.315	1.5694	4.364	1.1917	9.8918	5.5865	7.4944
14.3201	17.6882	19.6688	14.0264	19.4926	23.4678	17.3442	19.2017	23.2412	15.6937	17.6519	19.7472	13.8166	-2.2352	3.2926	1.5106	4.4172	1.1861	9.9393	5.5361	7.5279
14.281	17.6743	19.6632	14.0096	19.5262	23.4929	17.3609	19.2464	23.258	15.6741	17.7078	19.7807	13.8278	-2.2575	3.2562	1.4743	4.4703	1.2225	9.9645	5.5305	7.5755
14.2502	17.6854	19.6632	13.9928	19.5457	23.5125	17.3805	19.2828	23.3027	15.6713	17.7302	19.7835	13.8222	-2.2939	3.259	1.4267	4.5347	1.2281	10.0009	5.4802	7.5979
14.2194	17.6882	19.6604	13.9844	19.5737	23.5321	17.3973	19.3164	23.3279	15.6853	17.7834	19.8283	13.825	-2.3107	3.2255	1.4015	4.5794	1.2253	10.0428	5.469	7.651
14.183	17.6994	19.6576	13.9956	19.5961	23.5573	17.4309	19.3499	23.3754	15.6937	17.8085	19.8451	13.839	-2.3582	3.1947	1.354	4.6494	1.2365	10.0736	5.4214	7.6706
14.1383	17.6966	19.6493	13.9788	19.6073	23.5629	17.4533	19.3723	23.3894	15.6797	17.8533	19.8591	13.8697	-2.3722	3.1695	1.3176	4.6941	1.2477	10.082	5.4047	7.6874
14.0963	17.6994	19.6297	14.0068	19.6157	23.5741	17.4616	19.3863	23.4062	15.7132	17.8561	19.8507	13.8613	-2.3834	3.1275	1.2784	4.7333	1.2616	10.1044	5.3991	7.7126
14.0656	17.691	19.6213	13.9648	19.6101	23.5685	17.5204	19.4199	23.4314	15.7104	17.8869	19.887	13.8725	-2.4058	3.0688	1.2449	4.7696	1.2756	10.1267	5.3599	7.707
13.99	17.6882	19.6073	13.9956	19.5877	23.5797	17.5176	19.4171	23.4538	15.716	17.8953	19.8926	13.8837	-2.4226	2.9849	1.2085	4.7976	1.2924	10.1016	5.3375	7.7042
13.9676	17.7106	19.5905	13.9956	19.5933	23.5797	17.5763	19.4311	23.4929	15.744	17.926	19.9206	13.8865	-2.4282	2.9373	1.1414	4.8144	1.2924	10.11	5.3207	7.7321
13.8977	17.719	19.5849	13.9928	19.5961	23.6244	17.6099	19.445	23.5405	15.7776	17.9484	19.9458	13.9425	-2.4534	2.845	1.0742	4.8368	1.3036	10.1212	5.3291	7.7601
13.8837	17.705	19.5933	13.9872	19.5793	23.6216	17.6463	19.4478	23.5433	15.8	17.9568	19.9766	13.9816	-2.4506	2.7807	1.0099	4.8424	1.3176	10.1072	5.3375	7.7713
13.8474	17.7386	19.6073	13.9984	19.5709	23.644	17.6715	19.4394	23.5797	15.8391	17.982	20.0101	14.0264	-2.4534	2.7023	0.912	4.862	1.3568	10.082	5.3319	7.7769
13.8585	17.7694	19.6353	14.0516	19.5961	23.6748	17.7302	19.473	23.6384	15.9063	18.0239	20.0857	14.0656	-2.4534	2.6352	0.8588	4.8648	1.3847	10.0652	5.3655	7.8133
13.8641	17.7889	19.6493	14.0544	19.5849	23.7279	17.7806	19.4674	23.6608	15.9314	18.0603	20.136	14.1047	-2.4645	2.5485	0.7609	4.8759	1.4127	10.068	5.3767	7.8217
13.8446	17.8057	19.666	14.0935	19.5709	23.7587	17.8085	19.473	23.7139	15.9846	18.1079	20.1808	14.1411	-2.4673	2.459	0.663	4.8731	1.4435	10.0652	5.3935	7.8356
13.8585	17.8309	19.6912	14.0907	19.5737	23.7895	17.8505	19.4646	23.7727	16.0629	18.1302	20.2395	14.183	-2.4618	2.3471	0.5175	4.862	1.4547	10.0428	5.4103	7.8468
13.8585	17.8281	19.7024	14.1131	19.5597	23.823	17.8757	19.4534	23.7951	16.0713	18.1218	20.2675	14.2166	-2.4506	2.2659	0.3609	4.8508	1.4603	9.9953	5.4214	7.8328
13.8474	17.8337	19.7108	14.1075	19.5374	23.8202	17.8897	19.4171	23.8174	16.0993	18.119	20.2983	14.2474	-2.4562	2.1708	0.1623	4.8536	1.4854	9.9365	5.4131	7.8217
13.8306	17.8029	19.7024	14.1075	19.4814	23.837	17.9064	19.3723	23.8258	16.1217	18.119	20.3039	14.2446	-2.4282	2.0673	0.0084	4.8228	1.491	9.8778	5.3795	7.7797
13.825	17.7862	19.708	14.0767	19.4506	23.851	17.8673	19.308	23.8286	16.1245	18.0967	20.3178	14.239	-2.4254	1.9526	-0.221	4.82	1.4882	9.819	5.3879	7.7573
13.8194	17.7582	19.6968	14.0711	19.3919	23.8342	17.8869	19.2548	23.8035	16.1357	18.0687	20.3318	14.2306	-2.4282	1.8519	-0.4168	4.8088	1.4631	9.7435	5.3347	7.7098
13.7942	17.7218	19.6912	14.06	19.3667	23.8174	17.8617	19.1905	23.8035	16.158	18.0211	20.3234	14.2362	-2.4254	1.7232	-0.5959	4.7976	1.4491	9.6736	5.3319	7.6902
13.741	17.6854	19.6688	14.0348	19.2996	23.8091	17.8421	19.1289	23.7923	16.1496	17.9736	20.3094	14.2194	-2.403	1.6197	-0.7245	4.7836	1.4463	9.612	5.304	7.651
13.7075	17.6575	19.6604	13.9928	19.2324	23.8091	17.8225	19.0478	23.7587	16.1301	17.8841	20.2955	14.1942	-2.4282	1.5106	-0.8616	4.8032	1.368	9.5365	5.2396	7.6146
13.6627	17.5819	19.6017	13.9648	19.1401	23.7587	17.7806	18.9443	23.7167	16.0965	17.8001	20.2367	14.1327	-2.4142	1.4127	-0.9371	4.7976	1.3344	9.4498	5.1977	7.5447
13.6264	17.5148	19.5849	13.9173	19.059	23.7335	17.7386	18.8492	23.6608	16.0741	17.7106	20.178	14.1131	-2.403	1.3568	-0.9707	4.7836	1.3092	9.3575	5.1473	7.4916
13.6012	17.4756	19.6073	13.9061	19.003	23.7223	17.705	18.7429	23.6216	16.0461	17.5959	20.1276	14.0656	-2.4142	1.3064	-0.9539	4.7808	1.2533	9.2959	5.0969	7.43
13.5564	17.4281	19.5681	13.8753	18.9275	23.6944	17.6882	18.645	23.5685	16.0154	17.4896	20.0717	14.0264	-2.4058	1.2589	-0.9036	4.7585	1.2141	9.2232	5.041	7.3517
13.5452	17.3498	19.5597	13.8529	18.838	23.6552	17.6519	18.5387	23.5041	15.9678	17.3609	19.9989	13.9732	-2.3806	1.2141	-0.8308	4.7305	1.1693	9.1476	4.999	7.2734
13.5284	17.2994	19.5597	13.8334	18.7653	23.6132	17.6239	18.4352	23.4398	15.9286	17.2267	19.915	13.8977	-2.3666	1.1805	-0.7413	4.6997	1.1274	9.0693	4.9459	7.2006
13.4613	17.2462	19.5178	13.8278	18.6701	23.5573	17.568	18.3093	23.3223	15.8643	17.0672	19.7919	13.8222	-2.3582	1.1637	-0.6434	4.6885	1.0714	8.9798	4.9151	7.0859
13.4781	17.1819	19.5206	13.8138	18.617	23.5265	17.54	18.1974	23.2524	15.8112	16.8994	19.6968	13.7634	-2.3387	1.133	-0.5427	4.6466	1.0295	8.9099	4.8452	7.0104
13.4753	17.1511	19.515	13.811	18.5415	23.4985	17.5008	18.0715	23.1768	15.7944	16.7231	19.5793	13.6991	-2.3219	1.1665	-0.4504	4.6102	0.9791	8.8371	4.8172	6.9097
13.4781	17.0756	19.5094	13.797	18.438	23.4398	17.47	17.94	23.0453	15.73	16.5553	19.4478	13.604	-2.3163	1.1497	-0.3637	4.599	0.9399	8.7588	4.778	6.8146
13.4753	17.0392	19.501	13.7606	18.3568	23.381	17.4337	17.7917	22.9139	15.6461	16.3511	19.2856	13.5033	-2.3191	1.1693	-0.3273	4.5934	0.884	8.7029	4.7137	6.6859
13.5145	16.9973	19.515	13.7886	18.2841	23.3307	17.3889	17.6519	22.7964	15.5622	16.1469	19.1261	13.4054	-2.3023	1.2309	-0.2154	4.5682	0.8169	8.6077	4.6801	6.574
13.5368	16.9245	19.5094	13.7774	18.1722	23.2552	17.305	17.5008	22.6397	15.4811	15.9119	18.9471	13.2627	-2.2911	1.2561	-0.1511	4.5514	0.7889	8.5462	4.6214	6.4285
13.562	16.8742	19.5122	13.7942	18.0911	23.1768	17.3022	17.3302	22.4803	15.4027	15.6881	18.7429	13.1116	-2.3051	1.3148	-0.1203	4.5486	0.7301	8.4819	4.5766	6.3194
13.6096	16.821	19.5178	13.7886	17.9708	23.0985	17.2267	17.1539	22.3096	15.3132	15.4419	18.5303	12.9634	-2.2967	1.4015	-0.0392	4.5375	0.6854	8.3979	4.5458	6.1879
13.6459	16.7623	19.5038	13.783	17.8701	22.981	17.1819	16.9805	22.1054	15.1985	15.1649	18.2925	12.8095	-2.3107	1.4743	0.0112	4.557	0.6322	8.3196	4.5123	6.0481
13.6795	16.7091	19.501	13.783	17.7386	22.9139	17.1036	16.7875	21.8676	15.0754	14.8908	17.9988	12.6165	-2.3219	1.5806	0.0615	4.5878	0.5623	8.2385	4.4787	5.911
13.6851	16.6336	19.4618	13.7438	17.6099	22.7684	17.0001	16.5721	21.6466	14.9244	14.5523	17.7218	12.4095	-2.3219	1.7232	0.1343	4.6102	0.5035	8.1518	4.4004	5.7432
13.7243	16.5888	19.4562	13.7327	17.4896	22.6201	16.9245	16.3902	21.406	14.7789	14.2586	17.4337	12.2053	-2.3471	1.8827	0.1706	4.641	0.428	8.0762	4.3668	5.6089
13.755	16.5189	19.4143	13.7075	17.3609	22.4831	16.8238	16.1804	21.1515	14.6083	13.9648	17.1371	11.9926	-2.361	2.0226	0.263	4.6801	0.3497	7.9951	4.3193	5.4774
13.7522	16.4462	19.3779	13.6879	17.2351	22.3432	16.7175	15.965	20.8885	14.4488	13.6292	16.8015	11.7437	-2.361	2.196	0.2853	4.6969	0.2881	7.9028	4.2689	5.3179
13.7466	16.3762	19.3275	13.6292	17.0812	22.1781	16.6028	15.7524	20.6172	14.2726	13.2963	16.4714	11.5003	-2.3778	2.3666	0.3609	4.7249	0.1818	7.8245	4.2185	5.1865
13.741	16.3315	19.2548	13.5676	16.9777	22.0131	16.4909	15.5538	20.3542	14.1159	12.9941	16.158	11.2541	-2.3974	2.4981	0.3609	4.7501	0.0811	7.7405	4.1682	5.0606
13.7522	16.2839	19.2129	13.5228	16.8854	21.8508	16.4042	15.3636	20.0857	13.9481	12.72	15.8643	11.0387	-2.389	2.6352	0.414	4.7305	0.0392	7.6594	4.143	4.9431
13.7578	16.2532	19.1653	13.5005	16.7567	21.7138	16.2979	15.1845	19.8311	13.783	12.4374	15.5566	10.8205	-2.3806	2.7303	0.4168	4.7277	-0.0336	7.5951	4.1039	4.8172
13.7355	16.1944	19.1121	13.4417	16.6728	21.5711	16.1916	14.9943	19.5625	13.6347	12.1801	15.2461	10.6219	-2.3918	2.7918	0.4028	4.7361	-0.1091	7.5055	4.0171	4.7109
13.7494	16.1664	19.0562	13.4054	16.5721	21.4256	16.1105	14.8321	19.3471	13.4865	11.9479	14.9635	10.3897	-2.3722	2.845	0.3972	4.7109	-0.165	7.4468	3.9948	4.6354
13.783	16.158	19.0366	13.3942	16.4937	21.3221	16.0433	14.7146	19.1457	13.3662	11.7437	14.7062	10.1939	-2.3666	2.901	0.428	4.6857	-0.1902	7.3853	3.9696	4.5598
13.7746	16.1357	19.003	13.3438	16.4238	21.2102	15.9594	14.5775	18.9275	13.2207	11.5339	14.4236	10.0149	-2.3694	2.8982	0.4084	4.6913	-0.2434	7.3321	3.9276	4.4759
13.8166	16.1357	19.003	13.327	16.3818	21.1067	15.8923	14.4516	18.7457	13.1004	11.3632	14.1942	9.8162	-2.3638	2.9205	0.4056	4.6745	-0.2909	7.2845	3.9024	4.4172
13.8585	16.1469	19.0086	13.327	16.3231	21.0508	15.8447	14.3817	18.5862	13.0053	11.2122	13.9788	9.668	-2.361	2.9345	0.4028	4.6605	-0.2993	7.251	3.8745	4.3864
13.8809	16.1413	18.9863	13.3242	16.2895	20.9696	15.7916	14.2698	18.3792	12.885	11.0751	13.7606	9.4945	-2.361	2.8814	0.3693	4.6633	-0.3217	7.2174	3.8493	4.3276
13.9341	16.1692	19.003	13.3354	16.2392	20.8969	15.7496	14.2082	18.2421	12.7815	10.9772	13.5536	9.3351	-2.3554	2.8702	0.3497	4.6633	-0.3217	7.1922	3.8325	4.3081
13.9285	16.1441	18.9695	13.313	16.1944	20.827	15.6993	14.1159	18.0659	12.6752	10.8401	13.3354	9.1672	-2.3471	2.8786	0.3301	4.6605	-0.3413	7.1195	3.7989	4.2577
13.9928	16.158	18.9555	13.341	16.1748	20.7626	15.6853	14.0683	17.94	12.5913	10.773	13.162	9.0302	-2.361	2.8534	0.3077	4.6522	-0.3525	7.1279	3.7905	4.2521
13.9788	16.1496	18.9499	13.3326	16.1189	20.7067	15.6209	14.0096	17.8113	12.4906	10.6667	12.9438	8.8959	-2.3443	2.8562	0.2518	4.6522	-0.3553	7.0859	3.7626	4.2074
14.004	16.1245	18.9415	13.3186	16.0937	20.6759	15.6237	13.9537	17.7218	12.4346	10.5967	12.7787	8.7672	-2.3415	2.8478	0.2322	4.6326	-0.3665	7.0747	3.7486	4.1906
14.0208	16.1329	18.9583	13.3494	16.0769	20.6284	15.6013	13.9285	17.6239	12.3843	10.538	12.6193	8.6665	-2.3331	2.8254	0.2042	4.613	-0.3581	7.0412	3.743	4.1626
14.0068	16.0965	18.9611	13.3718	16.0517	20.564	15.5734	13.9033	17.5344	12.3339	10.51	12.5046	8.591	-2.3079	2.803	0.1734	4.5794	-0.3217	7.0272	3.7626	4.1374
14.0236	16.1273	18.9639	13.4054	16.0741	20.5724	15.5986	13.9117	17.5008	12.3255	10.5212	12.429	8.5798	-2.2771	2.8058	0.2042	4.5263	-0.2797	7.016	3.7905	4.1542
14.0292	16.1329	19.0002	13.4473	16.0937	20.6032	15.6265	13.9341	17.4616	12.3675	10.5352	12.3311	8.5406	-2.2436	2.803	0.2014	4.4619	-0.1874	7.0216	3.8269	4.1626
14.0432	16.1552	19.0282	13.5089	16.1133	20.634	15.6573	13.9565	17.4672	12.3955	10.5659	12.3199	8.5462	-2.2044	2.803	0.2014	4.3864	-0.1371	7.0412	3.8773	4.1794
14.0963	16.1944	19.0842	13.5872	16.158	20.6675	15.7216	14.032	17.4924	12.457	10.6247	12.3032	8.5965	-2.1624	2.803	0.2378	4.2997	-0.0559	7.0496	3.9528	4.213
14.1047	16.2196	19.1177	13.6347	16.2028	20.7067	15.7916	14.0823	17.526	12.513	10.7142	12.2892	8.6665	-2.1093	2.803	0.2462	4.185	0.0532	7.0719	4.0115	4.2493
14.1523	16.2532	19.1653	13.7215	16.2615	20.7458	15.8419	14.1551	17.5707	12.6109	10.7925	12.3032	8.756	-2.0561	2.8002	0.249	4.0787	0.1567	7.0859	4.115	4.2745
14.1691	16.2979	19.2017	13.8054	16.3091	20.7906	15.9091	14.2222	17.6267	12.7032	10.8905	12.3311	8.8511	-1.989	2.8226	0.2714	3.9612	0.2574	7.1055	4.1878	4.3193
14.2418	16.3371	19.2436	13.8613	16.3678	20.8354	15.9622	14.281	17.6603	12.7815	10.966	12.3759	8.9462	-1.9386	2.7863	0.2154	3.8549	0.3553	7.1251	4.2913	4.3556
14.2558	16.3651	19.2492	13.9313	16.4098	20.8466	16.0405	14.3453	17.7106	12.8878	11.0835	12.3927	9.0469	-1.8827	2.7891	0.2126	3.7514	0.4812	7.1475	4.3892	4.392
14.3061	16.3986	19.2912	13.9928	16.4602	20.8801	16.0909	14.4264	17.761	12.9745	11.1786	12.4598	9.17	-1.8323	2.7667	0.1539	3.6395	0.6015	7.1503	4.5011	4.4423
14.3145	16.4042	19.3108	14.0124	16.4658	20.9137	16.1133	14.4516	17.7834	13.0445	11.2709	12.4878	9.2651	-1.7764	2.7527	0.1371	3.536	0.7301	7.1671	4.5626	4.4759
14.3593	16.4462	19.3164	14.0767	16.5077	20.9081	16.1832	14.5075	17.8393	13.1312	11.3772	12.5353	9.3966	-1.7232	2.7191	0.1706	3.4101	0.8476	7.1782	4.6689	4.5458
14.3565	16.4378	19.3024	14.0879	16.5105	20.9025	16.1944	14.5243	17.8281	13.2179	11.436	12.5605	9.4889	-1.6645	2.6967	0.1511	3.3262	0.9595	7.1643	4.7361	4.5654
14.3705	16.4378	19.2856	14.0935	16.4965	20.8717	16.214	14.5663	17.8281	13.2767	11.5367	12.5941	9.6288	-1.6337	2.6604	0.1734	3.2394	1.0798	7.1475	4.82	4.6018
14.3649	16.4238	19.2772	14.1103	16.4909	20.8354	16.214	14.5607	17.8477	13.341	11.615	12.6221	9.7351	-1.5834	2.6016	0.207	3.1331	1.1861	7.1531	4.8871	4.6466
14.3425	16.4042	19.2296	14.0711	16.4797	20.8186	16.2112	14.5551	17.8281	13.3914	11.6821	12.6668	9.8666	-1.5246	2.5485	0.2546	3.024	1.298	7.1307	4.9515	4.6717
14.3033	16.3762	19.1709	14.06	16.4322	20.7682	16.1916	14.5579	17.8197	13.4137	11.7688	12.7032	9.9841	-1.4826	2.5261	0.3301	2.9261	1.4127	7.1363	5.0186	4.7305
14.2893	16.3371	19.1205	14.0124	16.4014	20.6955	16.172	14.5663	17.8225	13.4669	11.8668	12.7508	10.096	-1.4211	2.5037	0.4168	2.8142	1.5274	7.1167	5.069	4.7976
14.2502	16.3203	19.0702	13.99	16.3623	20.6759	16.1636	14.5775	17.8197	13.5089	11.9535	12.8123	10.2331	-1.3791	2.4897	0.5679	2.7163	1.6253	7.1055	5.1221	4.8284
14.1858	16.2504	18.9835	13.9201	16.3007	20.5892	16.0909	14.5607	17.7862	13.5228	12.015	12.8543	10.3282	-1.3064	2.5149	0.7133	2.6072	1.7064	7.0663	5.1753	4.8452
14.0907	16.1608	18.8772	13.8278	16.242	20.5109	16.035	14.5383	17.733	13.5089	12.0486	12.8822	10.4037	-1.2784	2.5289	0.842	2.5289	1.7876	7.0468	5.1809	4.8676
14.0739	16.1189	18.8072	13.7522	16.158	20.4437	15.993	14.5187	17.719	13.5061	12.1241	12.927	10.4932	-1.2421	2.5681	1.0127	2.4562	1.8463	6.9964	5.1809	4.8731
13.9844	16.0266	18.7009	13.6767	16.0825	20.3598	15.8951	14.4684	17.6659	13.4837	12.1465	12.9773	10.5632	-1.2057	2.6492	1.1497	2.3918	1.9302	6.9489	5.1921	4.8955
13.9061	15.9454	18.5946	13.5844	15.9734	20.2535	15.8195	14.4124	17.5875	13.4501	12.1885	12.9773	10.6051	-1.1777	2.7107	1.3064	2.3443	1.9666	6.9013	5.1837	4.9039
13.8362	15.8335	18.4771	13.4585	15.8587	20.1332	15.7021	14.3257	17.5092	13.3746	12.1801	12.9773	10.6247	-1.1693	2.7471	1.4351	2.3191	1.9778	6.8565	5.1669	4.8843
13.7858	15.7468	18.3792	13.3774	15.744	20.0269	15.6041	14.2586	17.4309	13.327	12.2053	12.9913	10.6695	-1.1665	2.845	1.5917	2.2939	2.0002	6.8174	5.1333	4.9039
13.7019	15.6349	18.2449	13.2543	15.6013	19.8982	15.4867	14.1663	17.319	13.2375	12.1941	12.9494	10.6471	-1.1525	2.9625	1.7036	2.2939	2.0142	6.7586	5.1081	4.8676
13.6208	15.5174	18.1246	13.1508	15.4475	19.7584	15.3971	14.0739	17.2043	13.1508	12.1661	12.9214	10.6303	-1.1497	3.0548	1.8603	2.2883	1.9974	6.7083	5.0522	4.8592
13.5648	15.4083	18.0072	13.0361	15.3132	19.6297	15.2657	13.9565	17.098	13.0417	12.1213	12.8934	10.5967	-1.1553	3.1415	1.9694	2.3023	1.9498	6.6579	5.0158	4.8508
13.4837	15.2824	17.8757	12.9298	15.1482	19.4842	15.1454	13.8474	16.9553	12.9662	12.071	12.8067	10.5743	-1.1777	3.2562	2.0869	2.3275	1.9274	6.588	4.9627	4.8256
13.3914	15.1342	17.7498	12.8235	14.9999	19.3275	15.0307	13.7271	16.835	12.8487	11.9982	12.7116	10.5184	-1.2029	3.3401	2.2016	2.3694	1.9051	6.532	4.9123	4.8116
13.3242	15.0139	17.5931	12.7172	14.8265	19.1737	14.8964	13.5872	16.6784	12.7536	11.9199	12.6333	10.468	-1.2085	3.4492	2.3247	2.4002	1.8435	6.4537	4.8592	4.7864
13.2375	14.8628	17.4756	12.6221	14.6418	19.003	14.7873	13.4473	16.5413	12.6417	11.8332	12.5605	10.3953	-1.2337	3.5248	2.4142	2.431	1.7848	6.381	4.806	4.7529
13.1424	14.709	17.3498	12.499	14.4628	18.838	14.6782	13.3018	16.3902	12.5018	11.7549	12.4514	10.3338	-1.2533	3.6115	2.4729	2.4785	1.7372	6.3222	4.7473	4.7137
13.0585	14.5635	17.1959	12.4011	14.2726	18.6729	14.5523	13.162	16.2224	12.3955	11.6402	12.3423	10.2526	-1.2672	3.6619	2.5373	2.5233	1.6953	6.2579	4.6913	4.6745
12.9829	14.4432	17.0784	12.3116	14.1103	18.5219	14.46	13.0081	16.0909	12.3171	11.5506	12.2696	10.2023	-1.2952	3.7038	2.5848	2.5681	1.6365	6.1684	4.641	4.6549
12.8906	14.281	16.9329	12.222	13.9313	18.3428	14.3593	12.871	15.9259	12.1829	11.4583	12.1717	10.124	-1.3092	3.729	2.6016	2.6044	1.5778	6.1096	4.5822	4.6074
12.8123	14.1327	16.8098	12.1269	13.7746	18.1778	14.2614	12.7228	15.8	12.0934	11.3548	12.0794	10.0288	-1.326	3.7486	2.5932	2.6436	1.547	6.0369	4.5598	4.5542
12.734	13.9928	16.6812	12.0346	13.6012	18.0211	14.1691	12.6025	15.6573	12.0066	11.2597	11.9898	9.9561	-1.3344	3.7458	2.5681	2.6744	1.4994	5.9586	4.5039	4.5207
12.6696	13.8362	16.5469	11.9647	13.4305	17.8505	14.06	12.4318	15.5118	11.9003	11.1562	11.8668	9.8722	-1.3484	3.7178	2.5037	2.6967	1.4603	5.9054	4.4647	4.4815
12.5857	13.6907	16.4462	11.8752	13.2879	17.6938	13.962	12.3171	15.3664	11.794	11.0527	11.7744	9.7911	-1.354	3.6954	2.431	2.7051	1.4155	5.8495	4.3836	4.4563
12.4738	13.5284	16.2951	11.8108	13.1228	17.512	13.8474	12.1773	15.2153	11.7017	10.924	11.6402	9.6736	-1.3735	3.6367	2.3219	2.7191	1.3596	5.7711	4.3416	4.4116
12.4179	13.4109	16.1692	11.7241	12.9773	17.3581	13.7383	12.0234	15.0558	11.5926	10.7897	11.5283	9.5757	-1.3819	3.5528	2.238	2.7247	1.2924	5.6984	4.3304	4.378
12.292	13.2683	16.0405	11.6234	12.8179	17.1735	13.6403	11.8696	14.8768	11.4527	10.6415	11.3744	9.4498	-1.368	3.4828	2.1233	2.7275	1.2309	5.6285	4.2633	4.3193
12.2108	13.1424	15.8839	11.5451	12.6752	16.9917	13.5312	11.7325	14.7006	11.3185	10.5156	11.2094	9.3127	-1.3763	3.4073	2.0058	2.7163	1.1693	5.5725	4.2102	4.2745
12.1129	13.0165	15.7468	11.4835	12.5326	16.8322	13.4305	11.6038	14.5439	11.2178	10.3813	11.0191	9.1644	-1.368	3.3541	1.8799	2.7023	1.1162	5.5166	4.1822	4.2213
12.0402	12.913	15.6237	11.3856	12.4039	16.6588	13.327	11.4527	14.3425	11.0639	10.2107	10.8317	9.0078	-1.3596	3.3318	1.7708	2.6911	1.0239	5.4326	4.1486	4.1822
11.9535	12.8095	15.5006	11.3241	12.278	16.4909	13.2123	11.3073	14.1467	10.9156	10.0652	10.6778	8.8539	-1.3484	3.329	1.6309	2.6716	0.9567	5.3991	4.0927	4.1318
11.9087	12.7144	15.3943	11.2737	12.1745	16.3343	13.12	11.1954	13.9565	10.773	9.9169	10.5044	8.6833	-1.326	3.3569	1.547	2.638	0.8868	5.3543	4.0815	4.0787
11.8332	12.65	15.302	11.2233	12.085	16.2112	13.0333	11.0835	13.797	10.6527	9.7799	10.3477	8.5434	-1.3204	3.3877	1.4127	2.61	0.7861	5.3207	4.0647	4.0367
11.8052	12.6137	15.1929	11.1674	11.9843	16.0378	12.9242	10.952	13.6152	10.51	9.6316	10.1603	8.3616	-1.3064	3.4744	1.3064	2.5792	0.6742	5.2648	4.0255	3.9948
11.7577	12.5773	15.095	11.1478	11.9283	15.9454	12.8431	10.8457	13.4473	10.3645	9.4889	9.9757	8.1993	-1.2784	3.5472	1.2001	2.5289	0.5931	5.2396	4.0283	3.9584
11.7157	12.5437	15.0419	11.0751	11.8444	15.7972	12.7144	10.7506	13.2739	10.2247	9.3435	9.8022	8.0259	-1.27	3.6283	1.1358	2.5093	0.5063	5.2032	3.9892	3.8912
11.6765	12.5298	14.9635	11.0359	11.7772	15.6993	12.6221	10.6527	13.1116	10.0932	9.2008	9.6316	7.858	-1.2561	3.6926	1.0379	2.4729	0.3972	5.1669	3.9752	3.8213
11.6681	12.5186	14.8964	10.966	11.7213	15.5734	12.5242	10.5632	12.955	9.9365	9.0329	9.4442	7.6622	-1.2421	3.7821	0.9735	2.445	0.2769	5.1585	3.9332	3.743
11.643	12.4906	14.846	10.9268	11.6793	15.4755	12.4262	10.4513	12.7843	9.7883	8.8707	9.2595	7.4944	-1.2057	3.8073	0.8868	2.417	0.1567	5.1193	3.908	3.6647
11.6066	12.4766	14.7649	10.8597	11.5926	15.3664	12.306	10.345	12.5885	9.626	8.6917	9.0721	7.265	-1.2057	3.8633	0.8085	2.389	0.0308	5.0578	3.8689	3.5891
11.5674	12.443	14.709	10.7758	11.5395	15.2433	12.1829	10.2219	12.4179	9.4526	8.4874	8.8595	7.058	-1.1973	3.8829	0.7469	2.3834	-0.1315	5.0242	3.8017	3.4688
11.5311	12.4067	14.6306	10.6918	11.4527	15.1398	12.0458	10.082	12.1885	9.2567	8.2888	8.6385	6.8202	-1.2029	3.8773	0.7106	2.3554	-0.2909	4.9878	3.7206	3.3709
11.5059	12.3675	14.5607	10.5995	11.3688	15.0111	11.8891	9.9617	12.001	9.0609	8.0538	8.3979	6.5796	-1.1833	3.8521	0.677	2.3554	-0.4476	4.9179	3.6395	3.2199
11.4555	12.3479	14.488	10.5268	11.2877	14.8824	11.7493	9.8302	11.7996	8.8791	7.8273	8.1294	6.3278	-1.1665	3.8493	0.677	2.3331	-0.6378	4.8508	3.5695	3.0464
11.3856	12.306	14.404	10.3925	11.1982	14.7565	11.6122	9.6596	11.5786	8.6581	7.5531	7.8832	6.0537	-1.1749	3.8689	0.691	2.3415	-0.8224	4.7585	3.4688	2.8926
11.3688	12.2472	14.3313	10.3058	11.0723	14.6194	11.4471	9.4721	11.3464	8.4651	7.2706	7.6063	5.7963	-1.1581	3.8661	0.7385	2.3219	-0.9903	4.6745	3.3737	2.7107
11.3101	12.1605	14.2502	10.1911	11.0023	14.4964	11.2681	9.3071	11.1254	8.2329	6.96	7.2901	5.4998	-1.1693	3.8353	0.7581	2.3191	-1.2113	4.585	3.2562	2.5121
11.2289	12.1297	14.1383	10.11	10.8541	14.3509	11.1059	9.1141	10.8905	8.0427	6.6691	6.9908	5.2228	-1.1637	3.8297	0.8756	2.3135	-1.4071	4.4787	3.1331	2.3275
11.187	12.0458	14.0516	9.9869	10.759	14.197	10.9436	8.9294	10.6471	7.8077	6.3278	6.6635	4.9123	-1.1581	3.7905	0.9511	2.2967	-1.6169	4.3696	3.0184	2.1093
11.131	11.9815	13.9509	9.9113	10.6303	14.06	10.8009	8.7112	10.4317	7.5895	6.0285	6.3614	4.6522	-1.1609	3.7821	1.1022	2.2855	-1.8071	4.2437	2.9205	1.8939
11.0471	11.9255	13.8501	9.8022	10.5072	13.9257	10.6555	8.5098	10.1687	7.3741	5.6928	6.0649	4.3584	-1.1525	3.7654	1.2393	2.2743	-1.9778	4.1458	2.8226	1.6673
10.9772	11.8444	13.7718	9.682	10.3813	13.7886	10.4596	8.2916	9.9477	7.1726	5.3711	5.7627	4.0675	-1.1358	3.729	1.3819	2.2603	-2.1568	4.0311	2.7359	1.4407
10.91	11.7521	13.6543	9.5785	10.2359	13.6208	10.3086	8.0762	9.7071	6.9572	5.027	5.4522	3.8045	-1.1302	3.7094	1.561	2.2659	-2.3387	3.8996	2.6352	1.1973
10.8373	11.7157	13.5564	9.5057	10.1295	13.5061	10.1827	7.872	9.5309	6.7754	4.7361	5.1865	3.5472	-1.133	3.7458	1.7484	2.2547	-2.4841	3.8129	2.5569	0.9959
10.7562	11.615	13.4529	9.3798	9.9589	13.3466	10.0428	7.6818	9.2819	6.5544	4.4032	4.8787	3.3122	-1.1358	3.6982	1.947	2.2631	-2.6352	3.687	2.4618	0.7805
10.6918	11.559	13.3578	9.2735	9.8414	13.2123	9.903	7.4608	9.0833	6.4089	4.0759	4.613	3.0408	-1.1358	3.7234	2.1261	2.2575	-2.7667	3.5863	2.4142	0.5623
10.5883	11.4611	13.2179	9.1812	9.6959	13.0697	9.7827	7.2706	8.8483	6.1963	3.7654	4.3388	2.817	-1.1302	3.7514	2.3163	2.2463	-2.8982	3.4716	2.3415	0.3385
10.4876	11.3576	13.092	9.0693	9.5309	12.9074	9.6344	7.016	8.6357	6.0313	3.4632	4.0479	2.5653	-1.1414	3.7626	2.4757	2.2519	-3.0156	3.3457	2.2827	0.1371
10.3981	11.2709	12.9578	8.9238	9.3686	12.7144	9.4889	6.7894	8.4091	5.8159	3.108	3.7346	2.3023	-1.1358	3.757	2.6604	2.2715	-3.1415	3.2171	2.1792	-0.0979
10.2694	11.145	12.8039	8.7728	9.198	12.5437	9.3071	6.5544	8.1797	5.6396	2.7667	3.4381	2.0617	-1.1665	3.7542	2.7555	2.3079	-3.2954	3.1024	2.1121	-0.3217
10.1603	10.9912	12.6445	8.6161	8.9994	12.3591	9.1728	6.3306	7.9419	5.4578	2.4394	3.1331	1.8323	-1.1581	3.7626	2.8198	2.3079	-3.3961	2.9597	2.017	-0.5091
10.0149	10.8765	12.4738	8.4707	8.8064	12.1857	9.0329	6.0956	7.6958	5.2508	2.1065	2.8058	1.5778	-1.1749	3.7514	2.9205	2.3275	-3.4996	2.8422	1.9302	-0.7217
9.861	10.7198	12.2976	8.3	8.5965	11.9647	8.8791	5.8634	7.4468	5.0662	1.7904	2.5149	1.3512	-1.1749	3.7234	2.9233	2.3499	-3.6143	2.6939	1.8631	-0.9315
9.7211	10.5799	12.1101	8.1406	8.3895	11.7661	8.7308	5.5977	7.2118	4.8648	1.4295	2.2184	1.0994	-1.1973	3.6674	2.9121	2.3638	-3.729	2.5681	1.7624	-1.1497
9.598	10.4177	11.9395	7.9979	8.2049	11.5534	8.6021	5.3739	6.9852	4.6997	1.1581	1.9442	0.8952	-1.1749	3.6115	2.873	2.3387	-3.771	2.4562	1.6953	-1.3176
9.4442	10.2386	11.7521	7.8133	7.9867	11.3408	8.4427	5.0969	6.7446	4.5179	0.8308	1.6533	0.6714	-1.1889	3.5835	2.8142	2.361	-3.8829	2.2967	1.6085	-1.5274
9.3015	10.0876	11.573	7.651	7.7937	11.1674	8.2972	4.8648	6.546	4.3556	0.5371	1.3903	0.4728	-1.1917	3.5276	2.6939	2.3554	-3.9696	2.1792	1.5162	-1.6701
9.156	9.9197	11.3996	7.5251	7.6146	10.9772	8.2021	4.6745	6.339	4.2297	0.2853	1.1693	0.3497	-1.1749	3.5024	2.5597	2.3471	-3.978	2.0617	1.4882	-1.8267
8.9938	9.7491	11.2038	7.3657	7.3825	10.7702	8.0538	4.42	6.1208	4.0647	0.0336	0.9399	0.1706	-1.1973	3.4688	2.3862	2.3499	-4.0143	1.9162	1.4127	-1.989
8.8427	9.5673	11.0443	7.2566	7.2258	10.5995	7.9671	4.2605	5.9642	3.978	-0.1734	0.7805	0.0979	-1.1665	3.4465	2.224	2.3163	-4.0059	1.782	1.3875	-2.1121
8.7112	9.405	10.8849	7.1531	7.0608	10.4429	7.8916	4.0731	5.8159	3.8996	-0.3301	0.6322	0.0168	-1.1581	3.4688	2.0617	2.2855	-3.9948	1.6925	1.3652	-2.224
8.591	9.2567	10.7618	7.0608	6.9265	10.2946	7.8328	3.9416	5.7012	3.8437	-0.4756	0.5175	0.0084	-1.1414	3.48	1.8379	2.2519	-3.9668	1.5834	1.3484	-2.3191
8.4567	9.1113	10.6163	6.9572	6.7782	10.1743	7.7713	3.7821	5.5725	3.7766	-0.6126	0.4336	-0.028	-1.1302	3.5304	1.6645	2.2212	-3.9164	1.4826	1.3428	-2.3918
8.3504	8.9602	10.4708	6.8761	6.6719	10.0512	7.7126	3.6814	5.5138	3.771	-0.7133	0.3693	-0.0112	-1.0966	3.5863	1.4687	2.1792	-3.8493	1.4071	1.3316	-2.4673
8.2357	8.8315	10.3617	6.837	6.5656	9.9589	7.6734	3.6087	5.4382	3.7793	-0.7413	0.3525	0.0308	-1.077	3.6674	1.2868	2.1289	-3.7458	1.3288	1.3707	-2.4897
8.1126	8.6833	10.2526	6.781	6.4649	9.8442	7.6566	3.5248	5.3879	3.7933	-0.7861	0.3469	0.0867	-1.0574	3.7318	1.1218	2.0841	-3.6535	1.2616	1.3987	-2.5037
7.9951	8.5546	10.1631	6.7307	6.395	9.7855	7.6538	3.4576	5.3459	3.8241	-0.7721	0.3609	0.179	-1.0295	3.8409	0.9763	2.0309	-3.5304	1.2169	1.4127	-2.4757
7.9168	8.4399	10.0428	6.7027	6.3222	9.7015	7.6286	3.4465	5.3207	3.8717	-0.7553	0.3888	0.2797	-1.0071	3.9164	0.828	1.9694	-3.3933	1.2001	1.4659	-2.4366
7.8133	8.3196	9.9337	6.6747	6.2523	9.6092	7.609	3.4185	5.3012	3.922	-0.6966	0.4336	0.3832	-0.9735	4.0283	0.6938	1.9274	-3.2562	1.1777	1.5162	-2.389
7.7349	8.2385	9.8414	6.6691	6.2383	9.5589	7.6007	3.4269	5.2984	3.978	-0.6098	0.5035	0.5175	-0.9343	4.115	0.5763	1.8631	-3.1024	1.1721	1.5694	-2.2687
7.651	8.135	9.7631	6.6243	6.2271	9.4973	7.5923	3.466	5.3123	4.0675	-0.5063	0.5679	0.6714	-0.9092	4.1878	0.4588	1.8211	-2.9569	1.2113	1.6309	-2.1596
7.5811	8.1014	9.682	6.6467	6.2075	9.4749	7.5951	3.494	5.3291	4.115	-0.3777	0.6658	0.7973	-0.898	4.2941	0.3832	1.7652	-2.7779	1.2057	1.6729	-2.0253
7.5531	8.0427	9.6344	6.6495	6.2411	9.461	7.6258	3.6031	5.3879	4.2185	-0.1818	0.7805	0.9875	-0.8672	4.3668	0.3497	1.7148	-2.596	1.298	1.7428	-1.8631
7.5083	8.0063	9.5952	6.6803	6.3054	9.447	7.6594	3.6982	5.4718	4.3137	0.028	0.9315	1.1945	-0.8476	4.4144	0.3189	1.6729	-2.4198	1.3624	1.8155	-1.6729
7.4776	7.9895	9.5421	6.6971	6.3474	9.4274	7.665	3.8213	5.5389	4.4423	0.2462	1.077	1.3791	-0.828	4.4619	0.3245	1.6477	-2.2156	1.4519	1.9079	-1.4938
7.4496	7.9895	9.4805	6.7111	6.4313	9.4498	7.7042	3.9304	5.6229	4.5403	0.4784	1.2365	1.5889	-0.8113	4.4423	0.3357	1.6309	-2.0365	1.5554	1.9666	-1.2896
7.4384	8.0203	9.4693	6.7418	6.4901	9.4526	7.7461	4.0955	5.7432	4.6689	0.7665	1.4351	1.8295	-0.8252	4.4843	0.4084	1.6225	-1.8435	1.6645	2.0561	-1.0798
7.4384	8.0427	9.433	6.7782	6.6104	9.4833	7.7713	4.2577	5.8355	4.7529	1.0658	1.6197	2.0393	-0.8169	4.4535	0.5175	1.6309	-1.6701	1.7764	2.1149	-0.8448
7.4608	8.0958	9.4134	6.8146	6.6915	9.5225	7.8077	4.4339	5.9586	4.8787	1.3428	1.7764	2.2324	-0.8169	4.4172	0.6126	1.6505	-1.5106	1.8995	2.1904	-0.6322
7.4664	8.0958	9.3938	6.8286	6.781	9.5393	7.7993	4.6046	6.0425	4.9683	1.6197	1.9778	2.417	-0.8588	4.3976	0.7022	1.7092	-1.3624	2.0281	2.2352	-0.4112
7.472	8.1266	9.3547	6.8453	6.8705	9.5617	7.83	4.7585	6.1432	5.0578	1.8939	2.1289	2.6016	-0.8784	4.3165	0.8197	1.7624	-1.2085	2.1289	2.2883	-0.2014
7.4776	8.1629	9.3323	6.837	6.9656	9.5785	7.8412	4.9375	6.2271	5.1417	2.182	2.3023	2.7974	-0.9232	4.2157	0.9064	1.8379	-1.0798	2.238	2.3079	0.0504
7.4972	8.2049	9.3071	6.8425	7.0524	9.5785	7.8468	5.1221	6.3166	5.2256	2.4618	2.4562	2.9597	-0.9539	4.0927	1.0015	1.9274	-0.9539	2.3918	2.3275	0.263
7.4692	8.2525	9.2456	6.8314	7.1167	9.5924	7.8189	5.2676	6.3726	5.2592	2.7107	2.5848	3.1024	-0.9959	3.9416	1.0462	2.003	-0.8644	2.5233	2.3499	0.4672
7.486	8.272	9.226	6.7978	7.1894	9.5729	7.8189	5.3739	6.4313	5.3123	2.9625	2.7023	3.2227	-1.0546	3.7654	1.0602	2.1065	-0.7581	2.6324	2.3582	0.677
7.4496	8.2944	9.1365	6.7894	7.2426	9.5645	7.7741	5.5222	6.4789	5.3347	3.1807	2.7918	3.3318	-1.0938	3.5556	1.0826	2.2044	-0.6938	2.7499	2.375	0.8532
7.416	8.314	9.1029	6.7279	7.279	9.5337	7.7461	5.6341	6.5013	5.3627	3.3765	2.873	3.4241	-1.1553	3.3346	1.0798	2.3079	-0.6434	2.8674	2.361	1.0351
7.3657	8.3084	9.0385	6.7055	7.3321	9.4917	7.7042	5.7292	6.5097	5.3767	3.5751	2.9485	3.508	-1.2085	3.1024	1.0686	2.4002	-0.6015	2.9681	2.389	1.2085
7.3265	8.314	8.9742	6.6607	7.3489	9.4693	7.637	5.8215	6.5041	5.3823	3.729	3.0017	3.5751	-1.2533	2.8982	1.0602	2.5009	-0.5371	3.0464	2.3918	1.3568
7.279	8.2692	8.8819	6.588	7.3629	9.4022	7.5951	5.8886	6.4985	5.3655	3.8661	3.0296	3.6311	-1.2952	2.6995	1.0602	2.5904	-0.5147	3.1499	2.375	1.4966
7.2062	8.2637	8.8008	6.5376	7.3741	9.3686	7.5111	5.9306	6.4705	5.3291	3.9948	3.066	3.6535	-1.354	2.5261	1.0826	2.68	-0.5063	3.2394	2.3247	1.6225
7.1083	8.2301	8.7308	6.4621	7.3517	9.3043	7.4608	5.9809	6.4649	5.3095	4.1122	3.108	3.701	-1.3735	2.3918	1.077	2.7527	-0.4588	3.3178	2.3079	1.7316
7.0384	8.1993	8.6245	6.3754	7.3433	9.2232	7.3657	6.0481	6.4397	5.2788	4.199	3.1443	3.7346	-1.4127	2.3191	1.105	2.8198	-0.4448	3.3989	2.2659	1.8407
6.96	8.1601	8.5378	6.3138	7.3349	9.184	7.2957	6.0705	6.4006	5.2396	4.2969	3.1667	3.7402	-1.4435	2.2631	1.1134	2.8758	-0.4532	3.4548	2.2324	1.9274
6.823	8.1182	8.4147	6.1991	7.2762	9.0833	7.2062	6.0705	6.3642	5.1669	4.3528	3.1443	3.7402	-1.4854	2.2408	1.077	2.9429	-0.4616	3.5164	2.1764	2.0142
6.7083	8.0259	8.2832	6.0621	7.2342	8.991	7.0691	6.076	6.2915	5.0997	4.4004	3.1443	3.7262	-1.5218	2.2072	1.0546	3.0017	-0.4812	3.5611	2.0813	2.0897
6.5628	7.9308	8.1601	5.953	7.1699	8.9015	6.9768	6.0537	6.2383	5.0298	4.4088	3.108	3.6898	-1.547	2.2324	1.0127	3.0604	-0.5231	3.5835	1.9918	2.1177
6.4173	7.83	8.0035	5.8047	7.0803	8.7756	6.8202	6.0089	6.1236	4.9263	4.392	3.052	3.6171	-1.5862	2.2659	0.9567	3.1387	-0.5987	3.6115	1.8855	2.1456
6.2383	7.707	7.8105	5.6369	6.9936	8.6357	6.6551	5.9642	6.0089	4.7892	4.364	2.9821	3.5583	-1.6225	2.2827	0.8588	3.2059	-0.6742	3.6619	1.8016	2.1764
6.1012	7.609	7.6566	5.4942	6.8789	8.5126	6.4929	5.8998	5.8998	4.6577	4.3248	2.9149	3.452	-1.6449	2.3079	0.7833	3.2618	-0.7329	3.6479	1.6841	2.1932
5.9166	7.4636	7.4972	5.3207	6.7614	8.3504	6.3446	5.8355	5.7655	4.5319	4.2661	2.8002	3.3457	-1.7008	2.3471	0.7245	3.3457	-0.8169	3.6702	1.5834	2.2072
5.7404	7.3181	7.3069	5.1585	6.6299	8.1881	6.1684	5.7348	5.6145	4.3724	4.171	2.68	3.2283	-1.7148	2.3638	0.6126	3.3961	-0.9343	3.6647	1.4687	2.2044
5.6117	7.209	7.1391	5.0074	6.5069	8.0594	6.0229	5.6536	5.4718	4.2689	4.0983	2.5541	3.0912	-1.74	2.4114	0.5455	3.4465	-1.0071	3.673	1.3707	2.2128
5.469	7.0691	6.974	4.8676	6.395	7.8776	5.869	5.5529	5.304	4.0927	4.0059	2.417	2.9541	-1.7652	2.4534	0.4504	3.4772	-1.1106	3.6591	1.2644	2.196
5.3235	6.9461	6.8146	4.7417	6.2523	7.7349	5.7068	5.4382	5.1333	3.9584	3.8717	2.2659	2.7946	-1.7736	2.4701	0.3693	3.5108	-1.2057	3.6339	1.1973	2.1876
5.2004	6.8286	6.6551	4.5962	6.1068	7.5559	5.5361	5.3375	4.9711	3.8101	3.7542	2.1289	2.6464	-1.7848	2.5205	0.2993	3.522	-1.312	3.6199	1.1274	2.1736
5.0522	6.6803	6.4845	4.4731	5.9474	7.3964	5.4047	5.1977	4.792	3.6954	3.6255	1.9722	2.5205	-1.7708	2.5904	0.2322	3.5388	-1.3847	3.5863	1.049	2.1652
4.9459	6.56	6.3362	4.3332	5.8103	7.223	5.2592	5.0969	4.6354	3.5332	3.5052	1.8267	2.3443	-1.8183	2.6576	0.179	3.5723	-1.4994	3.5556	0.9987	2.1456
4.8256	6.4313	6.1935	4.2493	5.6648	7.0608	5.1165	4.985	4.4563	3.4157	3.3569	1.6617	2.2072	-1.8155	2.7387	0.1734	3.5891	-1.5806	3.5024	0.9176	2.1121
4.7081	6.3138	6.0509	4.1458	5.525	6.9181	5.0186	4.834	4.2913	3.2842	3.2171	1.519	2.0897	-1.8183	2.8422	0.1678	3.6003	-1.6701	3.4492	0.884	2.0925
