"FZ"	"FC3"	"FCZ"	"FC4"	"C3"	"CZ"	"C4"	"CP3"	"CPZ"	"CP4"	"P3"	"PZ"	"P4"	"OZ"	"FP1"	"FP2"	"A2"	"P8"	"TP7"	"TP8"	"P7"
-1.2427	-1.5342	-1.6048	-1.1043	-1.5754	-1.6961	-0.9246	-1.3339	-1.9288	-0.745	-1.1219	-1.5901	-0.907	0.1325	-1.1455	-0.3916	-0.2709	0.1737	-1.1013	-0.3386	-0.3092
-1.0925	-1.4252	-1.4753	-1.0218	-1.5136	-1.6461	-0.8746	-1.2485	-1.8758	-0.7008	-1.0719	-1.5342	-0.8805	0.1472	-1.0954	-0.3946	-0.2768	0.1266	-1.0571	-0.3916	-0.2562
-0.9717	-1.3222	-1.3604	-0.9129	-1.4458	-1.5842	-0.8333	-1.1897	-1.8316	-0.6891	-1.0159	-1.4723	-0.8657	0.159	-1.0395	-0.3799	-0.3004	0.0825	-0.9747	-0.427	-0.2061
-0.8775	-1.2574	-1.2721	-0.8304	-1.4017	-1.5371	-0.8157	-1.1278	-1.758	-0.6626	-0.9717	-1.4311	-0.8716	0.1502	-1.0189	-0.4152	-0.3004	0.0353	-0.8952	-0.4623	-0.1355
-0.7273	-1.1867	-1.1749	-0.7538	-1.3457	-1.4988	-0.7921	-1.0807	-1.7167	-0.6567	-0.9276	-1.3987	-0.8481	0.1649	-0.957	-0.4388	-0.318	-0.0147	-0.8186	-0.4977	-0.0648
-0.6331	-1.1131	-1.0807	-0.6567	-1.2986	-1.4223	-0.7391	-1.0189	-1.6549	-0.6154	-0.8716	-1.3074	-0.8098	0.1914	-0.8716	-0.4446	-0.371	-0.0412	-0.7362	-0.5035	0.0118
-0.5507	-1.0542	-0.9865	-0.5772	-1.222	-1.3663	-0.6743	-0.9541	-1.5901	-0.5742	-0.7803	-1.2397	-0.7686	0.212	-0.8333	-0.4682	-0.4123	-0.0442	-0.639	-0.4741	0.1031
-0.4535	-1.0159	-0.8981	-0.48	-1.1955	-1.3251	-0.6478	-0.9011	-1.5136	-0.5507	-0.7479	-1.1808	-0.7421	0.2415	-0.8068	-0.5094	-0.4535	-0.0913	-0.5477	-0.4711	0.1355
-0.3651	-0.9688	-0.8127	-0.4034	-1.1484	-1.2662	-0.5978	-0.8245	-1.4488	-0.5183	-0.6743	-1.116	-0.7067	0.265	-0.7332	-0.533	-0.5124	-0.0972	-0.4388	-0.4358	0.1914
-0.2856	-0.9011	-0.7362	-0.2827	-1.0778	-1.1838	-0.5448	-0.7715	-1.3546	-0.4564	-0.6066	-1.0365	-0.6567	0.2974	-0.6949	-0.5153	-0.5742	-0.0825	-0.3357	-0.3858	0.2532
-0.265	-0.8952	-0.7008	-0.2444	-1.0395	-1.1514	-0.4918	-0.7362	-1.2692	-0.4535	-0.5683	-0.9806	-0.6361	0.321	-0.6655	-0.5683	-0.6184	-0.1031	-0.2562	-0.3298	0.2591
-0.2267	-0.8451	-0.6419	-0.1796	-0.9659	-1.0778	-0.4329	-0.6626	-1.1808	-0.4299	-0.5094	-0.9129	-0.586	0.3386	-0.6419	-0.6066	-0.6714	-0.1001	-0.1649	-0.2945	0.2856
-0.2061	-0.7951	-0.5919	-0.1237	-0.9158	-1.0071	-0.3858	-0.6184	-1.0807	-0.3916	-0.4417	-0.851	-0.5448	0.371	-0.6302	-0.6449	-0.7362	-0.0383	-0.0707	-0.2326	0.3004
-0.1973	-0.7745	-0.5772	-0.0736	-0.8422	-0.9335	-0.3269	-0.5536	-0.96	-0.318	-0.3946	-0.7509	-0.4682	0.4005	-0.6154	-0.639	-0.7892	-0.0294	0.0029	-0.1472	0.2886
-0.1855	-0.7303	-0.4888	-0.0294	-0.7892	-0.907	-0.2797	-0.4947	-0.854	-0.2886	-0.3445	-0.6567	-0.4093	0.4211	-0.5713	-0.6331	-0.8363	-0.0177	0.0294	-0.1001	0.268
-0.1678	-0.6743	-0.4977	0.0147	-0.7332	-0.8098	-0.2326	-0.4476	-0.7332	-0.2562	-0.2856	-0.583	-0.3534	0.4358	-0.5654	-0.6243	-0.8628	0.0029	0.053	-0.053	0.2326
-0.1737	-0.6655	-0.4829	0.0353	-0.6478	-0.7479	-0.162	-0.4064	-0.6331	-0.1943	-0.2356	-0.477	-0.2886	0.4476	-0.5359	-0.5801	-0.8716	0.0383	0.0736	0.0177	0.1943
-0.1796	-0.5978	-0.4505	0.0677	-0.5919	-0.639	-0.1296	-0.371	-0.5035	-0.1384	-0.2032	-0.3946	-0.2238	0.4623	-0.4829	-0.53	-0.8893	0.053	0.0736	0.0736	0.1708
-0.1708	-0.5507	-0.4505	0.0883	-0.5448	-0.5742	-0.0618	-0.3092	-0.3858	-0.0795	-0.1413	-0.2797	-0.1296	0.4594	-0.4211	-0.4476	-0.8922	0.0854	0.0766	0.1384	0.1237
-0.1943	-0.5065	-0.424	0.106	-0.4623	-0.4623	-0.0059	-0.268	-0.2621	0	-0.0736	-0.1943	-0.0795	0.4417	-0.3887	-0.371	-0.8775	0.1325	0.0559	0.1767	0.0825
-0.1737	-0.4564	-0.3946	0.1355	-0.4005	-0.3828	0.053	-0.2091	-0.1531	0.0501	-0.0265	-0.1031	0.0029	0.4299	-0.3121	-0.2091	-0.8363	0.1325	0.0206	0.2297	0.0265
-0.1855	-0.4034	-0.3887	0.1502	-0.3651	-0.3092	0.0883	-0.1826	-0.0501	0.1207	0	-0.0029	0.0707	0.3946	-0.2827	-0.1031	-0.7921	0.1502	-0.0118	0.2532	-0.0294
-0.1885	-0.3416	-0.3534	0.1561	-0.2709	-0.2091	0.1767	-0.1266	0.0677	0.1737	0.0648	0.109	0.1472	0.3858	-0.2002	0.0883	-0.7479	0.1973	-0.0854	0.3121	-0.0854
-0.2032	-0.3004	-0.3504	0.1649	-0.212	-0.1443	0.2297	-0.0854	0.1649	0.2326	0.0942	0.1678	0.2032	0.3445	-0.2002	0.2267	-0.6949	0.2032	-0.1561	0.3327	-0.1384
-0.1796	-0.2591	-0.3151	0.1855	-0.1708	-0.0766	0.2739	-0.0442	0.2591	0.3062	0.1266	0.2562	0.268	0.3269	-0.1796	0.3681	-0.639	0.2238	-0.2415	0.371	-0.2002
-0.2238	-0.2385	-0.321	0.1767	-0.1561	-0.0236	0.3092	-0.0442	0.321	0.3239	0.1325	0.2827	0.2945	0.2827	-0.1973	0.4417	-0.5772	0.2032	-0.3504	0.3858	-0.2915
-0.2385	-0.2091	-0.2945	0.2091	-0.1119	0.0501	0.3445	-0.0206	0.3681	0.3946	0.1708	0.3593	0.3593	0.268	-0.2297	0.5801	-0.5183	0.2209	-0.4417	0.4181	-0.3416
-0.265	-0.1885	-0.3239	0.1973	-0.0854	0.0383	0.371	-0.0265	0.4329	0.4211	0.1796	0.4152	0.3799	0.2415	-0.2945	0.6537	-0.4417	0.2002	-0.5772	0.4211	-0.4064
-0.2827	-0.1472	-0.2945	0.1855	-0.0825	0.106	0.4064	-0.0059	0.4505	0.477	0.1737	0.4623	0.4211	0.1973	-0.3033	0.7332	-0.3946	0.2091	-0.6773	0.4299	-0.4682
-0.2827	-0.1325	-0.3239	0.2002	-0.0471	0.1296	0.4181	0.0177	0.4918	0.4888	0.1649	0.4918	0.4564	0.1796	-0.371	0.7686	-0.3563	0.1855	-0.7833	0.4505	-0.5271
-0.2886	-0.1148	-0.3033	0.2002	-0.0206	0.162	0.4505	0.0206	0.5183	0.5565	0.1796	0.533	0.5124	0.1737	-0.424	0.798	-0.321	0.1943	-0.8451	0.4476	-0.5595
-0.2915	-0.0825	-0.268	0.215	-0.0029	0.1885	0.4682	0.0383	0.5536	0.5889	0.1855	0.5772	0.5418	0.1384	-0.4623	0.8275	-0.2856	0.1973	-0.8981	0.4888	-0.5978
-0.2474	-0.0265	-0.2326	0.2532	0.0442	0.2385	0.5242	0.0618	0.5978	0.6331	0.2091	0.6449	0.6154	0.1443	-0.4711	0.8304	-0.2797	0.215	-0.9364	0.53	-0.5772
-0.2002	0.0088	-0.1914	0.2945	0.0913	0.3239	0.5742	0.1001	0.6567	0.6949	0.2474	0.6684	0.6478	0.1413	-0.4918	0.8716	-0.2739	0.2385	-0.9335	0.53	-0.5654
-0.1443	0.1031	-0.1384	0.3593	0.1355	0.3769	0.6302	0.1384	0.6832	0.7479	0.2886	0.7273	0.7067	0.1531	-0.5065	0.8981	-0.2915	0.2709	-0.8863	0.5978	-0.5477
-0.1119	0.1384	-0.0589	0.3946	0.1708	0.4358	0.6655	0.159	0.7421	0.7892	0.2974	0.7892	0.7656	0.1472	-0.4653	0.9011	-0.2886	0.3004	-0.8805	0.5889	-0.5507
-0.0206	0.2209	0.0206	0.4594	0.2091	0.5124	0.7185	0.1885	0.8039	0.8687	0.3445	0.8216	0.8275	0.1678	-0.427	0.9335	-0.3269	0.3534	-0.8245	0.6419	-0.5065
0.0471	0.3092	0.1237	0.5683	0.2797	0.5919	0.798	0.2474	0.8746	0.9394	0.3858	0.8952	0.9158	0.1826	-0.3946	0.9364	-0.3475	0.4064	-0.7803	0.6714	-0.4711
0.1325	0.3445	0.1708	0.6272	0.3121	0.6567	0.8628	0.2415	0.907	0.9747	0.3828	0.9246	0.9305	0.1943	-0.3269	0.9423	-0.374	0.4329	-0.7479	0.6773	-0.477
0.1973	0.4034	0.2356	0.7126	0.3475	0.7332	0.9129	0.2856	0.9541	1.0483	0.4123	0.9541	0.9924	0.1973	-0.2856	0.8981	-0.3769	0.4888	-0.6832	0.7156	-0.4034
0.2356	0.4476	0.3239	0.7303	0.3681	0.7774	0.9747	0.318	1.0012	1.0895	0.4211	1.0071	1.0571	0.2002	-0.2297	0.8569	-0.3916	0.5212	-0.6361	0.7185	-0.3534
0.3062	0.4918	0.3975	0.8039	0.3858	0.8333	1.01	0.3357	1.0424	1.1278	0.4535	1.0513	1.1101	0.1973	-0.1767	0.7745	-0.4005	0.5772	-0.6037	0.745	-0.3416
0.3622	0.5448	0.4623	0.854	0.4329	0.8922	1.0601	0.3475	1.0836	1.169	0.4594	1.0778	1.1425	0.2032	-0.1325	0.6655	-0.3916	0.6213	-0.5624	0.7479	-0.2915
0.3975	0.5801	0.5212	0.8893	0.4299	0.9276	1.0836	0.3357	1.1249	1.2073	0.48	1.1101	1.2044	0.1973	-0.0913	0.533	-0.3887	0.6684	-0.5418	0.7538	-0.2532
0.4388	0.6508	0.5713	0.9305	0.4594	0.9629	1.0954	0.3681	1.1661	1.2368	0.5065	1.1631	1.225	0.1796	-0.0206	0.4093	-0.3681	0.6802	-0.5006	0.7597	-0.159
0.4299	0.6743	0.6154	0.9217	0.4417	0.9747	1.1013	0.3504	1.169	1.2397	0.4977	1.1779	1.2603	0.1737	0.0059	0.2356	-0.3416	0.7067	-0.4505	0.7538	-0.1178
0.4476	0.7185	0.6655	0.9335	0.4741	1.0159	1.1013	0.374	1.1985	1.2427	0.5153	1.1897	1.278	0.1531	0.053	0.0942	-0.3062	0.7244	-0.3769	0.7391	-0.0442
0.4623	0.7303	0.6891	0.9335	0.4741	0.9982	1.0719	0.3593	1.2191	1.2014	0.5389	1.2073	1.278	0.1178	0.0353	-0.0883	-0.2444	0.7126	-0.2974	0.7303	0.0059
0.4535	0.7303	0.7244	0.907	0.4682	0.9953	1.0247	0.3651	1.2191	1.1808	0.5212	1.2132	1.2603	0.0883	0.0736	-0.2356	-0.1943	0.7156	-0.2415	0.7008	0.053
0.4417	0.7126	0.745	0.8981	0.477	1.0012	0.9894	0.3681	1.2338	1.1602	0.5212	1.1985	1.225	0.053	0.0648	-0.427	-0.1325	0.6684	-0.1678	0.6596	0.1207
0.4358	0.6949	0.7862	0.8657	0.4535	1.0012	0.9364	0.3593	1.2014	1.116	0.533	1.1838	1.2073	0.0236	0.0795	-0.5507	-0.0589	0.6537	-0.0825	0.6331	0.1737
0.4535	0.7008	0.801	0.8392	0.4446	0.9982	0.904	0.3622	1.2014	1.066	0.5212	1.1661	1.1867	0	0.1119	-0.6743	-0.0029	0.6213	0.0118	0.5919	0.2444
0.4829	0.692	0.851	0.8068	0.477	1.01	0.8569	0.3769	1.222	1.01	0.5271	1.1455	1.1366	-0.0324	0.0972	-0.7892	0.0559	0.5595	0.0972	0.5536	0.3062
0.4859	0.6891	0.904	0.7921	0.5065	1.0189	0.8245	0.4211	1.2014	0.9747	0.5242	1.1602	1.1013	-0.0707	0.1266	-0.8422	0.1178	0.5006	0.1943	0.5035	0.3563
0.5153	0.7008	0.9452	0.745	0.5124	1.0218	0.7745	0.4388	1.2191	0.8952	0.5654	1.1131	1.0424	-0.0854	0.1502	-0.8775	0.1767	0.4564	0.2444	0.4358	0.4211
0.5271	0.7126	0.9924	0.7303	0.5448	1.0306	0.7097	0.4594	1.2044	0.8363	0.5742	1.0984	0.9865	-0.109	0.1708	-0.8893	0.215	0.3858	0.3445	0.3828	0.4594
0.5448	0.7126	1.0247	0.7008	0.5654	1.0513	0.6508	0.5006	1.1779	0.7745	0.5683	1.0807	0.9335	-0.1355	0.1737	-0.8893	0.265	0.3092	0.4211	0.318	0.48
0.5507	0.7332	1.0571	0.6684	0.6184	1.0542	0.6331	0.5242	1.1808	0.7156	0.5772	1.0395	0.851	-0.1502	0.2209	-0.8275	0.3092	0.2591	0.5035	0.265	0.5153
0.5919	0.745	1.1013	0.6419	0.6567	1.0689	0.5624	0.5742	1.1602	0.6154	0.5919	1.0041	0.7568	-0.1885	0.2562	-0.7597	0.371	0.1708	0.5742	0.1649	0.5271
0.6007	0.7509	1.1219	0.6066	0.7097	1.0719	0.5242	0.6095	1.1455	0.5595	0.6007	0.9688	0.6714	-0.2032	0.2768	-0.692	0.4152	0.0854	0.6361	0.1031	0.5271
0.6125	0.8068	1.1631	0.5654	0.7715	1.0895	0.4594	0.6684	1.1396	0.4947	0.6302	0.9482	0.5978	-0.2356	0.318	-0.6419	0.4564	0.0206	0.7008	0.053	0.5624
0.6302	0.8216	1.1455	0.5183	0.8275	1.0836	0.4299	0.7097	1.119	0.4064	0.6449	0.907	0.5271	-0.2621	0.3534	-0.5389	0.5035	-0.0589	0.7627	-0.0147	0.5654
0.6066	0.8275	1.1131	0.4741	0.8598	1.063	0.3534	0.7597	1.0895	0.3239	0.6478	0.8628	0.4476	-0.2856	0.3946	-0.4623	0.5624	-0.1296	0.801	-0.0707	0.583
0.6478	0.8687	1.1278	0.427	0.9217	1.0689	0.3298	0.8039	1.0689	0.2444	0.6684	0.8157	0.3622	-0.3239	0.4446	-0.3946	0.6213	-0.2179	0.8598	-0.106	0.6007
0.6302	0.8775	1.1278	0.4123	0.9806	1.0247	0.2827	0.851	1.0395	0.1767	0.6949	0.7921	0.2886	-0.3475	0.5006	-0.3622	0.6802	-0.2827	0.9099	-0.1531	0.6567
0.6272	0.8805	1.1366	0.371	0.9835	1.0277	0.2238	0.8834	1.0247	0.1178	0.6979	0.745	0.2267	-0.3769	0.5565	-0.3033	0.7421	-0.3445	0.9747	-0.1649	0.6655
0.6361	0.8746	1.1043	0.3475	1.0336	0.9953	0.1973	0.9246	0.9924	0.0648	0.6949	0.6979	0.1561	-0.4064	0.586	-0.265	0.801	-0.3858	1.0071	-0.1885	0.7008
0.6419	0.8834	1.0866	0.318	1.0748	1.013	0.1708	0.9688	0.96	0.0324	0.7067	0.6508	0.1031	-0.4152	0.6419	-0.212	0.8451	-0.4211	1.0542	-0.1737	0.7214
0.6302	0.8863	1.0719	0.3151	1.0954	0.9806	0.162	0.9894	0.9335	0	0.7038	0.639	0.0825	-0.4358	0.6979	-0.2238	0.8746	-0.4653	1.0748	-0.1325	0.7332
0.6508	0.8687	1.0513	0.2768	1.0954	0.96	0.1207	1.0012	0.8893	-0.0324	0.7332	0.5919	0.0412	-0.4564	0.7244	-0.2002	0.907	-0.477	1.0954	-0.1531	0.7362
0.6478	0.8392	0.9953	0.2385	1.0984	0.9099	0.0942	0.9865	0.8392	-0.0766	0.7067	0.5153	-0.0118	-0.4505	0.7597	-0.1531	0.9129	-0.5153	1.066	-0.1384	0.7273
0.6184	0.7951	0.9511	0.2091	1.0807	0.8805	0.0825	0.9865	0.7951	-0.1031	0.692	0.4947	-0.0383	-0.4623	0.7509	-0.1207	0.9305	-0.5094	1.0542	-0.1355	0.692
0.6154	0.7597	0.9187	0.1384	1.0571	0.798	0.0265	0.9717	0.7362	-0.1561	0.639	0.4181	-0.1031	-0.477	0.7391	-0.0648	0.9246	-0.5242	1.01	-0.1384	0.6567
0.5772	0.6861	0.8569	0.106	0.9953	0.7421	-0.0029	0.9423	0.6361	-0.1767	0.583	0.321	-0.1531	-0.4682	0.7332	0.0029	0.9187	-0.5006	0.9541	-0.1472	0.583
0.5124	0.6361	0.7774	0.0412	0.9452	0.6655	-0.0442	0.8746	0.5389	-0.2179	0.5418	0.2179	-0.2061	-0.4564	0.7038	0.0795	0.9305	-0.5035	0.8716	-0.1737	0.5124
0.4564	0.5507	0.6714	-0.053	0.8687	0.5624	-0.1001	0.8186	0.4476	-0.2503	0.4711	0.162	-0.2385	-0.4711	0.6537	0.159	0.9305	-0.5065	0.7833	-0.1885	0.4594
0.4034	0.4859	0.586	-0.1207	0.8157	0.48	-0.1384	0.7391	0.3475	-0.2974	0.4123	0.0648	-0.2945	-0.4564	0.6331	0.2591	0.9011	-0.4947	0.7126	-0.215	0.3916
0.3416	0.4181	0.48	-0.1678	0.7332	0.3828	-0.2002	0.6419	0.2326	-0.3593	0.321	-0.0677	-0.3651	-0.4623	0.586	0.318	0.8922	-0.4918	0.6626	-0.2562	0.3475
0.2356	0.3269	0.3534	-0.3004	0.6449	0.2709	-0.268	0.5359	0.0795	-0.3946	0.2297	-0.1502	-0.4123	-0.4388	0.5359	0.374	0.8716	-0.4829	0.6095	-0.3092	0.2591
0.159	0.2474	0.2238	-0.3504	0.5624	0.1531	-0.3092	0.4888	-0.0383	-0.4476	0.1443	-0.265	-0.4564	-0.4329	0.5035	0.4505	0.851	-0.4711	0.5507	-0.3445	0.215
0.0795	0.1943	0.1119	-0.4564	0.4535	0.0471	-0.3799	0.3681	-0.1678	-0.4918	0.0677	-0.3327	-0.4977	-0.4093	0.4682	0.5124	0.8127	-0.477	0.5094	-0.3975	0.162
0.0265	0.1178	0.0442	-0.5212	0.3828	-0.0854	-0.4329	0.2886	-0.2945	-0.5418	-0.0118	-0.4446	-0.5654	-0.3858	0.4682	0.5713	0.7686	-0.4653	0.4535	-0.4476	0.1266
-0.053	0.0766	-0.0825	-0.586	0.3004	-0.1855	-0.4564	0.2267	-0.4064	-0.5978	-0.0854	-0.5153	-0.5919	-0.3799	0.4417	0.6125	0.7244	-0.4535	0.4476	-0.4947	0.0972
-0.0913	0.0442	-0.1796	-0.6095	0.2326	-0.2974	-0.5065	0.1531	-0.5006	-0.6361	-0.1531	-0.6272	-0.6154	-0.3386	0.4358	0.6419	0.6773	-0.4152	0.4417	-0.5183	0.053
-0.1384	-0.0088	-0.2709	-0.6508	0.1885	-0.3504	-0.5359	0.0795	-0.5919	-0.6596	-0.2179	-0.7008	-0.6537	-0.3062	0.4594	0.6743	0.6125	-0.3916	0.4064	-0.5565	0.0029
-0.1914	-0.0206	-0.3445	-0.6773	0.1031	-0.4505	-0.5889	0.0029	-0.7008	-0.6891	-0.2856	-0.7627	-0.692	-0.2709	0.4653	0.6567	0.5565	-0.371	0.4064	-0.5683	-0.0471
-0.2562	-0.0942	-0.4476	-0.7597	0.0147	-0.5565	-0.6537	-0.0795	-0.8186	-0.7656	-0.3563	-0.8422	-0.7214	-0.2415	0.4446	0.6066	0.4888	-0.3681	0.3799	-0.5742	-0.1178
-0.2945	-0.1384	-0.5242	-0.7774	-0.053	-0.6331	-0.7067	-0.1561	-0.904	-0.7951	-0.424	-0.904	-0.7568	-0.2061	0.4888	0.5507	0.4123	-0.3475	0.3563	-0.583	-0.1531
-0.3269	-0.1885	-0.5948	-0.8216	-0.1413	-0.6949	-0.7597	-0.2415	-0.9924	-0.8598	-0.5183	-0.9835	-0.8127	-0.1531	0.4829	0.5035	0.3298	-0.3298	0.318	-0.5948	-0.212
-0.3416	-0.2297	-0.6478	-0.8481	-0.2209	-0.7538	-0.7892	-0.318	-1.0483	-0.8805	-0.5889	-1.013	-0.8481	-0.1237	0.5094	0.4005	0.2415	-0.3033	0.2974	-0.583	-0.2503
-0.3946	-0.265	-0.7067	-0.8863	-0.2856	-0.8304	-0.8598	-0.3887	-1.1425	-0.9688	-0.6508	-1.0807	-0.8834	-0.0854	0.5212	0.3475	0.1502	-0.2915	0.2503	-0.5654	-0.3357
-0.4388	-0.3121	-0.7538	-0.9217	-0.3445	-0.8657	-0.8922	-0.4947	-1.2044	-1.0012	-0.7332	-1.1514	-0.9335	-0.0383	0.5271	0.2385	0.0589	-0.2945	0.1973	-0.5595	-0.371
-0.5242	-0.3916	-0.8451	-0.9688	-0.4653	-0.9865	-0.9629	-0.5801	-1.3074	-1.0895	-0.8275	-1.225	-0.9924	-0.0088	0.4711	0.1708	0.0177	-0.2886	0.1148	-0.6007	-0.4653
-0.5624	-0.4505	-0.8863	-1.0159	-0.5418	-1.0365	-1.0395	-0.6714	-1.3722	-1.1425	-0.9305	-1.2927	-1.063	0.0118	0.4211	0.0766	-0.0265	-0.2945	0.0294	-0.586	-0.5507
-0.5978	-0.5565	-0.9511	-1.0513	-0.6331	-1.0954	-1.116	-0.7715	-1.4399	-1.2485	-1.0012	-1.331	-1.0925	0.0147	0.3975	-0.0206	-0.0501	-0.321	-0.0236	-0.5978	-0.6243
-0.6832	-0.6419	-1.0189	-1.1337	-0.7362	-1.1955	-1.1867	-0.8687	-1.5106	-1.331	-1.1249	-1.4046	-1.1867	0.0294	0.3298	-0.1325	-0.053	-0.321	-0.1001	-0.6419	-0.7509
-0.7067	-0.7332	-1.063	-1.169	-0.8392	-1.2456	-1.275	-0.96	-1.5813	-1.4311	-1.2044	-1.4782	-1.2338	0.0383	0.2886	-0.1826	-0.0559	-0.3534	-0.162	-0.6302	-0.801
-0.7686	-0.851	-1.1337	-1.225	-0.9776	-1.3398	-1.384	-1.0807	-1.652	-1.5165	-1.2898	-1.546	-1.2986	0	0.2415	-0.2209	-0.0088	-0.4034	-0.2532	-0.6949	-0.9187
-0.7921	-0.9423	-1.1337	-1.2603	-1.063	-1.3663	-1.4488	-1.1543	-1.6726	-1.5666	-1.3575	-1.5783	-1.3634	-0.0177	0.2503	-0.265	0.0206	-0.4358	-0.2945	-0.6832	-0.9688
-0.798	-1.0247	-1.1602	-1.3015	-1.1661	-1.4223	-1.5106	-1.2603	-1.7432	-1.6637	-1.4282	-1.649	-1.4341	-0.0353	0.2444	-0.2474	0.0766	-0.4682	-0.3357	-0.6861	-1.0454
-0.7951	-1.1101	-1.169	-1.3251	-1.2515	-1.4606	-1.5754	-1.3575	-1.758	-1.7256	-1.5077	-1.6961	-1.4753	-0.0559	0.265	-0.2474	0.1472	-0.5035	-0.3534	-0.6861	-1.0778
-0.7951	-1.1808	-1.1808	-1.3398	-1.3222	-1.49	-1.6137	-1.4223	-1.7727	-1.7904	-1.5489	-1.702	-1.5018	-0.1031	0.3269	-0.2356	0.215	-0.5448	-0.3593	-0.7097	-1.1278
-0.7538	-1.2544	-1.1602	-1.3428	-1.3575	-1.5106	-1.6431	-1.4606	-1.7815	-1.8169	-1.5754	-1.7285	-1.5312	-0.1413	0.4093	-0.2061	0.2886	-0.5713	-0.3534	-0.7126	-1.1249
-0.7391	-1.3133	-1.1278	-1.3369	-1.4164	-1.5165	-1.6667	-1.4812	-1.7727	-1.861	-1.6019	-1.7226	-1.5548	-0.1737	0.477	-0.1914	0.371	-0.6272	-0.3651	-0.7391	-1.1455
-0.6596	-1.3104	-1.0807	-1.3251	-1.4252	-1.5018	-1.6637	-1.5106	-1.7639	-1.8787	-1.5842	-1.7138	-1.5636	-0.2179	0.5742	-0.1826	0.4417	-0.6478	-0.3327	-0.7391	-1.1337
-0.5978	-1.3222	-1.0424	-1.278	-1.4252	-1.4635	-1.6579	-1.5018	-1.7197	-1.8787	-1.5666	-1.7138	-1.5695	-0.265	0.692	-0.1119	0.5094	-0.6596	-0.2945	-0.7715	-1.1278
-0.5418	-1.3192	-0.9835	-1.2544	-1.4076	-1.4399	-1.6637	-1.4959	-1.7138	-1.8816	-1.5577	-1.6991	-1.5931	-0.2945	0.7686	-0.0913	0.586	-0.692	-0.2974	-0.8157	-1.1072
-0.4918	-1.3428	-0.9659	-1.2162	-1.4105	-1.4252	-1.6726	-1.5018	-1.6608	-1.8787	-1.5489	-1.6755	-1.5813	-0.3445	0.8657	-0.0707	0.6773	-0.7391	-0.2827	-0.8275	-1.0984
-0.4388	-1.3222	-0.9187	-1.2132	-1.3752	-1.4017	-1.6549	-1.4606	-1.6166	-1.8846	-1.5371	-1.6372	-1.5636	-0.374	0.9482	-0.0059	0.7303	-0.7568	-0.2474	-0.8981	-1.0807
-0.4034	-1.3251	-0.8922	-1.1838	-1.3487	-1.3604	-1.652	-1.4399	-1.6019	-1.8934	-1.4959	-1.6402	-1.5931	-0.4064	1.01	0.0029	0.8098	-0.7656	-0.2385	-0.9835	-1.0689
-0.374	-1.3133	-0.8569	-1.1749	-1.3281	-1.3575	-1.649	-1.4076	-1.5695	-1.8846	-1.4488	-1.6019	-1.5754	-0.4329	1.0601	0.0589	0.8716	-0.8068	-0.215	-1.0365	-1.0159
-0.3681	-1.2986	-0.8481	-1.1779	-1.2927	-1.3487	-1.6785	-1.3899	-1.5342	-1.9023	-1.4282	-1.5666	-1.5695	-0.4594	1.116	0.1502	0.9187	-0.851	-0.215	-1.1072	-1.0071
-0.3622	-1.3045	-0.854	-1.1779	-1.2515	-1.331	-1.6696	-1.3634	-1.5195	-1.8905	-1.3663	-1.5371	-1.5666	-0.4829	1.1543	0.2709	0.9776	-0.9011	-0.1737	-1.1661	-0.9835
-0.3622	-1.2927	-0.8775	-1.2103	-1.2103	-1.3015	-1.6461	-1.2986	-1.493	-1.8816	-1.2957	-1.4841	-1.5518	-0.5065	1.1602	0.3681	0.9982	-0.907	-0.1413	-1.2309	-0.9276
-0.4064	-1.3192	-0.9158	-1.2456	-1.1779	-1.3251	-1.6844	-1.2721	-1.4635	-1.8846	-1.2515	-1.4694	-1.5754	-0.5271	1.1543	0.5124	1.0424	-0.9394	-0.1119	-1.2927	-0.8893
-0.4034	-1.3133	-0.9246	-1.2515	-1.1131	-1.2957	-1.6637	-1.1808	-1.4311	-1.8463	-1.1425	-1.3811	-1.5253	-0.5212	1.1867	0.6773	1.0159	-0.9158	-0.0559	-1.3251	-0.8127
-0.4476	-1.3074	-0.9717	-1.2662	-1.0925	-1.3074	-1.6696	-1.1278	-1.4193	-1.8169	-1.0513	-1.3398	-1.5165	-0.5065	1.172	0.8216	1.013	-0.9511	0.0118	-1.3781	-0.7391
-0.4711	-1.2986	-1.013	-1.2927	-1.0336	-1.2839	-1.6549	-1.0571	-1.3516	-1.7786	-0.9452	-1.2485	-1.4723	-0.5006	1.172	0.957	0.9835	-0.9452	0.0559	-1.3899	-0.6361
-0.4888	-1.2633	-1.0424	-1.2809	-0.9776	-1.2603	-1.6166	-0.9629	-1.3045	-1.7167	-0.854	-1.172	-1.4223	-0.48	1.1779	1.0748	0.9541	-0.9305	0.1296	-1.3516	-0.5271
-0.5683	-1.2809	-1.0954	-1.3045	-0.9129	-1.2692	-1.599	-0.8834	-1.2603	-1.6549	-0.7362	-1.0925	-1.3546	-0.4505	1.1425	1.1308	0.907	-0.907	0.1914	-1.3339	-0.4299
-0.6125	-1.2603	-1.1308	-1.3398	-0.8451	-1.2427	-1.546	-0.7892	-1.1897	-1.599	-0.6243	-0.9865	-1.2986	-0.4446	1.1101	1.1838	0.8716	-0.8805	0.2444	-1.3104	-0.3269
-0.6419	-1.2368	-1.1897	-1.331	-0.7951	-1.2338	-1.5195	-0.7008	-1.1514	-1.5253	-0.5035	-0.9099	-1.2368	-0.4123	1.0601	1.1897	0.8068	-0.8481	0.318	-1.2574	-0.215
-0.6567	-1.1985	-1.2103	-1.3398	-0.7273	-1.2191	-1.4429	-0.639	-1.066	-1.4399	-0.4181	-0.8098	-1.1779	-0.3769	1.013	1.1749	0.7421	-0.8186	0.3622	-1.1897	-0.1266
-0.7067	-1.169	-1.2485	-1.3428	-0.6714	-1.1838	-1.4076	-0.533	-1.0189	-1.3928	-0.3062	-0.7303	-1.1101	-0.3622	0.9423	1.1043	0.6802	-0.7774	0.4034	-1.1455	-0.0294
-0.7568	-1.172	-1.2662	-1.3604	-0.6331	-1.1661	-1.3575	-0.477	-0.9394	-1.2898	-0.2179	-0.6508	-1.0277	-0.318	0.851	0.9835	0.6302	-0.7391	0.4152	-1.0954	0.0324
-0.7627	-1.0954	-1.2485	-1.3074	-0.53	-1.0984	-1.2544	-0.3799	-0.8245	-1.1926	-0.1001	-0.53	-0.9423	-0.2856	0.8157	0.9158	0.5654	-0.7067	0.4388	-1.0041	0.1325
-0.7774	-1.0542	-1.2544	-1.3133	-0.4829	-1.0748	-1.1838	-0.3004	-0.7568	-1.1101	-0.0118	-0.4358	-0.854	-0.2621	0.7126	0.7568	0.5212	-0.6596	0.4711	-0.9423	0.2179
-0.7803	-0.9865	-1.2309	-1.2692	-0.4064	-1.0336	-1.1072	-0.2356	-0.6949	-1.0336	0.0618	-0.3563	-0.7951	-0.2532	0.6243	0.6213	0.4829	-0.6508	0.4859	-0.8893	0.268
-0.7803	-0.9187	-1.1985	-1.225	-0.3651	-0.9659	-1.0277	-0.1678	-0.5772	-0.9511	0.1413	-0.2621	-0.6949	-0.2209	0.533	0.4947	0.4388	-0.6066	0.5006	-0.7833	0.3445
-0.7479	-0.8657	-1.1484	-1.1779	-0.3092	-0.9158	-0.9629	-0.1178	-0.48	-0.8716	0.2238	-0.1885	-0.6184	-0.2238	0.427	0.3386	0.4064	-0.586	0.5153	-0.6861	0.4093
-0.7008	-0.7921	-1.0836	-1.1249	-0.268	-0.8657	-0.8775	-0.0648	-0.4064	-0.7921	0.2974	-0.1001	-0.5359	-0.1914	0.3386	0.2238	0.3681	-0.5742	0.4977	-0.6213	0.4594
-0.6537	-0.7273	-1.0277	-1.0748	-0.2091	-0.7745	-0.7892	-0.0412	-0.3563	-0.7214	0.3121	-0.0648	-0.4711	-0.1826	0.2532	0.0883	0.3593	-0.5683	0.4329	-0.5624	0.4505
-0.5713	-0.6508	-0.9482	-1.0189	-0.162	-0.7185	-0.7038	-0.0088	-0.2621	-0.6626	0.3386	-0.0088	-0.424	-0.1649	0.1708	-0.0118	0.318	-0.5448	0.4093	-0.4888	0.4505
-0.5094	-0.5536	-0.8775	-0.96	-0.1443	-0.6537	-0.6596	-0.0029	-0.2179	-0.6066	0.3445	0.0383	-0.374	-0.159	0.1148	-0.1237	0.3033	-0.53	0.3475	-0.427	0.424
-0.4093	-0.4888	-0.7833	-0.8981	-0.1237	-0.5889	-0.6272	0.0029	-0.162	-0.5683	0.3475	0.0559	-0.3269	-0.1325	0.053	-0.2209	0.2768	-0.5124	0.2797	-0.371	0.3916
-0.321	-0.4329	-0.7067	-0.854	-0.0972	-0.5389	-0.5683	-0.0088	-0.1443	-0.5477	0.321	0.0736	-0.3004	-0.1413	0.0559	-0.3092	0.2562	-0.5094	0.2267	-0.3475	0.3298
-0.2267	-0.371	-0.6302	-0.8068	-0.0913	-0.5094	-0.5153	-0.0353	-0.1031	-0.53	0.2827	0.0559	-0.2945	-0.1296	0.0294	-0.371	0.2415	-0.4947	0.159	-0.3386	0.2532
-0.1472	-0.3416	-0.5654	-0.7715	-0.0972	-0.4682	-0.4918	-0.0471	-0.106	-0.5065	0.2297	0.0383	-0.2827	-0.1119	0.0648	-0.4005	0.2238	-0.4711	0.0854	-0.2739	0.1943
-0.0383	-0.2886	-0.4594	-0.7126	-0.1237	-0.4417	-0.4623	-0.0942	-0.0913	-0.4947	0.1885	0.0412	-0.2709	-0.0942	0.1325	-0.4211	0.2061	-0.4505	0.053	-0.2356	0.1266
0.053	-0.2532	-0.4005	-0.6596	-0.1443	-0.4211	-0.427	-0.1325	-0.0854	-0.5035	0.1502	0.0236	-0.2444	-0.0795	0.2209	-0.3593	0.159	-0.4329	0.0236	-0.2061	0.0707
0.1296	-0.2415	-0.3357	-0.6007	-0.1708	-0.3946	-0.4093	-0.1914	-0.1178	-0.5065	0.0883	-0.0383	-0.2562	-0.0825	0.3327	-0.321	0.1531	-0.4417	-0.0206	-0.1767	0.0324
0.1767	-0.2326	-0.2974	-0.583	-0.2061	-0.4123	-0.4446	-0.2385	-0.1678	-0.5536	0.0324	-0.0766	-0.2945	-0.0707	0.4388	-0.2444	0.1355	-0.4388	-0.0559	-0.1767	-0.0177
0.2444	-0.2238	-0.2621	-0.5565	-0.2591	-0.4034	-0.4476	-0.3151	-0.2209	-0.5683	-0.0324	-0.1384	-0.318	-0.0648	0.5654	-0.1502	0.1355	-0.4211	-0.0677	-0.1943	-0.0677
0.2915	-0.2267	-0.2297	-0.5124	-0.3004	-0.3975	-0.4711	-0.3622	-0.2621	-0.5919	-0.109	-0.2326	-0.3828	-0.0707	0.692	-0.0442	0.1384	-0.4417	-0.0766	-0.2002	-0.1119
0.3239	-0.2474	-0.2267	-0.5183	-0.374	-0.427	-0.5153	-0.4417	-0.3386	-0.6478	-0.1826	-0.2974	-0.4152	-0.0795	0.8333	0.0677	0.1678	-0.4505	-0.1119	-0.2238	-0.1384
0.3357	-0.2591	-0.2444	-0.4888	-0.4064	-0.4623	-0.5536	-0.5035	-0.3946	-0.7008	-0.2297	-0.3622	-0.4388	-0.0795	0.9364	0.2474	0.1796	-0.4594	-0.0677	-0.2356	-0.109
0.3298	-0.3092	-0.2503	-0.4977	-0.4535	-0.4977	-0.6037	-0.5536	-0.4653	-0.7597	-0.3092	-0.4476	-0.5124	-0.0913	1.0925	0.3916	0.2091	-0.48	-0.0471	-0.2768	-0.1355
0.3121	-0.3357	-0.2709	-0.5212	-0.4977	-0.5271	-0.6567	-0.6213	-0.53	-0.8245	-0.3681	-0.5183	-0.5448	-0.1178	1.222	0.5742	0.2415	-0.5242	-0.0177	-0.3445	-0.1355
0.318	-0.3416	-0.2739	-0.5035	-0.5153	-0.5595	-0.692	-0.6272	-0.5772	-0.8687	-0.3946	-0.5683	-0.5772	-0.1384	1.3516	0.7538	0.2709	-0.5183	0.0088	-0.3622	-0.1237
0.3121	-0.3828	-0.3004	-0.5271	-0.5271	-0.5948	-0.7479	-0.6802	-0.6037	-0.9011	-0.4152	-0.6037	-0.6007	-0.1443	1.493	0.9158	0.2886	-0.5359	0.0736	-0.4181	-0.0825
0.3092	-0.3681	-0.3269	-0.5359	-0.5477	-0.6125	-0.7951	-0.6714	-0.6626	-0.9129	-0.4093	-0.6537	-0.6154	-0.159	1.596	1.0719	0.3092	-0.5094	0.1531	-0.4152	-0.0383
0.2945	-0.3916	-0.3121	-0.5389	-0.5507	-0.6007	-0.8186	-0.6567	-0.6567	-0.9276	-0.427	-0.6361	-0.6037	-0.1502	1.7109	1.2132	0.3092	-0.5124	0.2267	-0.4299	0.0029
0.2768	-0.3828	-0.3239	-0.5889	-0.5212	-0.6213	-0.8598	-0.6596	-0.6979	-0.9629	-0.4181	-0.6596	-0.6184	-0.1767	1.811	1.2927	0.3327	-0.5094	0.3062	-0.4476	0.053
0.265	-0.3828	-0.3151	-0.5948	-0.4888	-0.5978	-0.8863	-0.6095	-0.6949	-0.9717	-0.3769	-0.6861	-0.6272	-0.1737	1.8816	1.3928	0.3534	-0.4977	0.4535	-0.4417	0.1148
0.265	-0.374	-0.3534	-0.639	-0.4623	-0.6184	-0.9305	-0.5919	-0.6832	-0.9747	-0.3593	-0.6861	-0.6213	-0.1826	1.9347	1.3928	0.3769	-0.5183	0.5242	-0.4535	0.1649
0.212	-0.3828	-0.3563	-0.6832	-0.4211	-0.586	-0.9629	-0.5359	-0.6949	-1.0012	-0.3151	-0.7038	-0.6596	-0.2179	1.9199	1.3634	0.4152	-0.533	0.6361	-0.4682	0.2621
0.2326	-0.3622	-0.3534	-0.7097	-0.371	-0.5978	-0.9865	-0.4888	-0.6684	-1.013	-0.2709	-0.7067	-0.6567	-0.2267	1.9288	1.2927	0.4417	-0.5183	0.7421	-0.4505	0.3445
0.1855	-0.3445	-0.371	-0.745	-0.3327	-0.5978	-1.0159	-0.4388	-0.6802	-1.0189	-0.2238	-0.6979	-0.6478	-0.2297	1.8875	1.1779	0.4623	-0.5183	0.8392	-0.4329	0.3946
0.1855	-0.3239	-0.3416	-0.7715	-0.2591	-0.5595	-1.01	-0.3828	-0.6478	-1.0189	-0.1678	-0.6891	-0.6684	-0.2385	1.8434	1.0454	0.4682	-0.5359	0.9629	-0.4358	0.5006
0.1914	-0.2532	-0.3121	-0.7568	-0.1767	-0.5183	-1.013	-0.2974	-0.6154	-1.0247	-0.106	-0.6802	-0.6567	-0.2385	1.808	0.9276	0.4623	-0.53	1.0778	-0.4211	0.6066
0.1767	-0.2091	-0.3121	-0.7597	-0.1237	-0.4594	-1.0277	-0.2297	-0.6154	-1.0336	-0.0795	-0.6891	-0.7126	-0.2444	1.7138	0.801	0.4711	-0.5742	1.1808	-0.4594	0.7097
0.1973	-0.1443	-0.2326	-0.7244	-0.0471	-0.4123	-1.0277	-0.1531	-0.5507	-1.0395	-0.0059	-0.6743	-0.7097	-0.2356	1.6549	0.6626	0.4682	-0.583	1.2927	-0.427	0.7774
0.2297	-0.053	-0.1708	-0.7008	0.0559	-0.3386	-0.9747	-0.0942	-0.5389	-1.0365	0.0147	-0.6714	-0.7303	-0.2415	1.5548	0.5212	0.4741	-0.5801	1.4046	-0.4594	0.8127
0.2621	0.0324	-0.0972	-0.639	0.1472	-0.2768	-0.9099	-0.0265	-0.477	-1.0424	0.0736	-0.6714	-0.7627	-0.2503	1.5018	0.4299	0.48	-0.5948	1.4959	-0.4535	0.8981
0.3416	0.1737	0.0236	-0.5565	0.2326	-0.1796	-0.8628	0.0177	-0.4358	-1.0365	0.1031	-0.6802	-0.7951	-0.2444	1.4635	0.3799	0.4888	-0.6154	1.5401	-0.4446	0.8981
0.4388	0.2768	0.1472	-0.4682	0.321	-0.0648	-0.8127	0.0825	-0.3887	-1.0247	0.106	-0.6684	-0.8275	-0.2474	1.4164	0.3357	0.477	-0.6478	1.6402	-0.4594	0.9335
0.5359	0.4152	0.2709	-0.3887	0.3946	0.0383	-0.7627	0.1266	-0.3534	-1.0454	0.1148	-0.6773	-0.8598	-0.2385	1.4193	0.3593	0.4623	-0.6567	1.702	-0.424	0.9394
0.6213	0.5595	0.4181	-0.2886	0.4711	0.1384	-0.6979	0.162	-0.3269	-1.0542	0.1148	-0.6773	-0.8922	-0.2415	1.4164	0.3651	0.4653	-0.6861	1.7344	-0.4329	0.9335
0.7627	0.6802	0.5713	-0.1649	0.583	0.2474	-0.6037	0.1796	-0.2827	-1.066	0.106	-0.7008	-0.9629	-0.2415	1.4488	0.4535	0.4564	-0.7214	1.7374	-0.4211	0.9452
0.8893	0.7892	0.7391	-0.0589	0.6243	0.3475	-0.5624	0.1914	-0.2385	-1.0542	0.0883	-0.7097	-0.9924	-0.2326	1.4871	0.5094	0.4623	-0.7067	1.7079	-0.4299	0.9158
1.0277	0.9305	0.8863	0.0353	0.6714	0.4535	-0.5065	0.1914	-0.2091	-1.0836	0.0442	-0.7362	-1.0748	-0.2444	1.5577	0.6272	0.48	-0.7391	1.6755	-0.4123	0.8952
1.1897	1.0424	1.0277	0.1384	0.7303	0.533	-0.4594	0.1678	-0.2385	-1.0954	0.0294	-0.7479	-1.0925	-0.2591	1.649	0.7391	0.5035	-0.7362	1.6048	-0.3975	0.851
1.3045	1.1366	1.1455	0.2209	0.7214	0.586	-0.4417	0.1237	-0.2621	-1.1308	-0.0294	-0.8039	-1.1985	-0.2797	1.7639	0.8805	0.5507	-0.7479	1.493	-0.4123	0.798
1.4723	1.2103	1.2898	0.2827	0.7273	0.6331	-0.4299	0.0942	-0.2974	-1.172	-0.0883	-0.8922	-1.2692	-0.3033	1.8463	1.0454	0.6125	-0.7362	1.3575	-0.4329	0.7332
1.5872	1.2839	1.3604	0.3092	0.6832	0.6537	-0.4653	0.0206	-0.374	-1.2485	-0.1561	-0.9423	-1.3487	-0.3504	1.9641	1.169	0.6743	-0.7362	1.2073	-0.4299	0.6596
1.6755	1.3133	1.4429	0.3092	0.6478	0.6331	-0.48	-0.0854	-0.4505	-1.3104	-0.2061	-1.0277	-1.4134	-0.3769	2.0701	1.3104	0.7362	-0.7214	1.0424	-0.424	0.5772
1.7344	1.3104	1.4782	0.2739	0.5742	0.5654	-0.5595	-0.1649	-0.5624	-1.4193	-0.2768	-1.1101	-1.5165	-0.4093	2.0878	1.3899	0.8127	-0.7097	0.854	-0.4299	0.5271
1.7668	1.2898	1.4753	0.212	0.4888	0.5153	-0.6302	-0.2915	-0.6743	-1.5018	-0.3622	-1.2103	-1.5813	-0.4299	2.0966	1.493	0.8746	-0.6949	0.6331	-0.4535	0.4211
1.7403	1.1985	1.4488	0.1472	0.374	0.4034	-0.7597	-0.424	-0.8363	-1.6225	-0.4476	-1.3398	-1.7256	-0.4741	2.0436	1.5607	0.9629	-0.692	0.4329	-0.5153	0.3504
1.702	1.1072	1.3928	0.0324	0.2297	0.2739	-0.8863	-0.5713	-0.9982	-1.7639	-0.53	-1.4458	-1.8051	-0.5153	1.9847	1.6402	1.0306	-0.692	0.212	-0.5595	0.2797
1.6166	0.957	1.3045	-0.0883	0.0913	0.1325	-1.0159	-0.6773	-1.1514	-1.861	-0.5919	-1.5518	-1.8905	-0.5507	1.8551	1.6608	1.0895	-0.6626	0.0118	-0.6243	0.2297
1.493	0.7892	1.1926	-0.2326	-0.0618	0.0059	-1.1631	-0.8039	-1.2898	-1.9818	-0.6419	-1.6137	-1.9523	-0.583	1.6608	1.6814	1.1543	-0.6537	-0.1796	-0.6802	0.1973
1.3516	0.6243	1.0601	-0.3769	-0.1796	-0.1296	-1.2868	-0.8746	-1.4193	-2.0789	-0.6743	-1.6755	-1.9935	-0.6095	1.4694	1.7698	1.1985	-0.6037	-0.371	-0.7303	0.1826
1.1897	0.4505	0.957	-0.5153	-0.2945	-0.2621	-1.4164	-0.9335	-1.5342	-2.1555	-0.6626	-1.6902	-1.9906	-0.6184	1.2574	1.8551	1.2309	-0.5359	-0.5212	-0.7597	0.2091
1.0041	0.2856	0.8127	-0.6478	-0.3975	-0.374	-1.5224	-0.9953	-1.6078	-2.2144	-0.6567	-1.7344	-1.9788	-0.6478	0.957	1.9258	1.2692	-0.4594	-0.6419	-0.8245	0.2444
0.851	0.1325	0.7008	-0.7479	-0.4505	-0.4594	-1.5636	-1.0041	-1.6579	-2.2144	-0.5565	-1.6814	-1.8816	-0.6508	0.6832	2.0554	1.2692	-0.3593	-0.7185	-0.8275	0.321
0.6184	-0.0442	0.5565	-0.8628	-0.5035	-0.5595	-1.6225	-0.9865	-1.6814	-2.2115	-0.477	-1.6196	-1.7933	-0.6419	0.3386	2.1791	1.2721	-0.2385	-0.7921	-0.8569	0.4093
0.4564	-0.1914	0.4505	-0.904	-0.5153	-0.5772	-1.6255	-0.9364	-1.6814	-2.1526	-0.3327	-1.543	-1.6431	-0.6243	0.0677	2.3116	1.2279	-0.1178	-0.7774	-0.854	0.5742
0.2503	-0.3416	0.3151	-0.9982	-0.5242	-0.639	-1.6255	-0.8834	-1.6637	-2.1113	-0.1678	-1.4429	-1.4782	-0.5948	-0.2326	2.4294	1.1661	0.0501	-0.7892	-0.8275	0.7185
0.0353	-0.48	0.2032	-1.0247	-0.5271	-0.6449	-1.6166	-0.7686	-1.5901	-1.9935	0.0088	-1.2868	-1.2662	-0.5565	-0.5153	2.5236	1.0984	0.2238	-0.7332	-0.798	0.8952
-0.1502	-0.6243	0.1178	-1.0601	-0.5006	-0.6243	-1.5607	-0.6567	-1.4988	-1.8787	0.2091	-1.1308	-1.0336	-0.5212	-0.7951	2.5736	1.0159	0.4152	-0.6714	-0.7214	1.1043
-0.3386	-0.7273	0.0236	-1.0395	-0.4594	-0.6213	-1.4723	-0.5124	-1.4193	-1.705	0.4476	-0.9364	-0.7597	-0.4594	-1.0306	2.6031	0.904	0.6537	-0.5359	-0.6302	1.3163
-0.5389	-0.8451	-0.0648	-1.063	-0.427	-0.583	-1.3899	-0.3445	-1.3133	-1.5401	0.6861	-0.7362	-0.477	-0.4211	-1.2721	2.5442	0.801	0.8451	-0.4535	-0.533	1.5253
-0.7067	-0.9776	-0.1178	-1.0424	-0.3563	-0.5389	-1.2603	-0.215	-1.2073	-1.331	0.9335	-0.5035	-0.1737	-0.3416	-1.493	2.45	0.6773	1.0895	-0.3062	-0.3916	1.7256
-0.8687	-1.0513	-0.1826	-0.9894	-0.3092	-0.4829	-1.1543	-0.0589	-1.066	-1.116	1.1926	-0.3004	0.1384	-0.268	-1.6814	2.291	0.533	1.3428	-0.1767	-0.2562	1.9553
-0.9953	-1.1101	-0.2267	-0.9217	-0.2179	-0.4181	-0.9953	0.1001	-0.9187	-0.8716	1.4635	-0.0559	0.4859	-0.2002	-1.8375	2.0112	0.3828	1.6048	0.0088	-0.0501	2.1967
-1.119	-1.1514	-0.2562	-0.8451	-0.1737	-0.3593	-0.8363	0.2621	-0.798	-0.639	1.7167	0.159	0.8127	-0.1266	-1.9818	1.6873	0.2415	1.8699	0.162	0.1325	2.3999
-1.2162	-1.172	-0.265	-0.7509	-0.0648	-0.2739	-0.6684	0.4505	-0.6626	-0.371	1.9759	0.3799	1.1219	-0.0383	-2.1084	1.3192	0.0766	2.1408	0.3563	0.3269	2.6237
-1.2662	-1.1808	-0.2709	-0.6773	0.0088	-0.2091	-0.5153	0.583	-0.5595	-0.1355	2.2262	0.5889	1.4399	0.0501	-2.1879	0.8569	-0.0825	2.4117	0.5565	0.5654	2.8504
-1.3104	-1.1867	-0.2562	-0.5919	0.0618	-0.1708	-0.3651	0.7421	-0.4564	0.0883	2.4529	0.7774	1.7256	0.1031	-2.2792	0.3004	-0.2209	2.6384	0.7391	0.7715	3.033
-1.3192	-1.1661	-0.2562	-0.5035	0.1325	-0.1296	-0.2356	0.854	-0.3828	0.2974	2.6355	0.9452	1.9994	0.1826	-2.3764	-0.3269	-0.3563	2.8475	0.9305	0.9629	3.195
-1.3251	-1.1514	-0.2562	-0.4299	0.1796	-0.1237	-0.1207	0.9776	-0.3416	0.4977	2.8593	1.0836	2.2232	0.2503	-2.4087	-0.9982	-0.4947	3.0654	1.1249	1.1543	3.3363
-1.275	-1.0984	-0.2474	-0.3475	0.2267	-0.109	-0.0088	1.0689	-0.2797	0.7008	3.0154	1.1926	2.4205	0.2974	-2.45	-1.7285	-0.6007	3.245	1.2898	1.3015	3.46
-1.2427	-1.0925	-0.2503	-0.3033	0.2326	-0.162	0.0442	1.1455	-0.2915	0.8451	3.142	1.2544	2.5648	0.3386	-2.4676	-2.4941	-0.6891	3.3952	1.4635	1.4399	3.566
-1.172	-1.0542	-0.2562	-0.2562	0.2415	-0.2002	0.1207	1.1808	-0.3121	0.9717	3.2804	1.3015	2.7062	0.4034	-2.4824	-3.2686	-0.7686	3.5395	1.6431	1.5754	3.6867
-1.1043	-0.9894	-0.2945	-0.2415	0.2444	-0.3033	0.1443	1.2338	-0.3504	1.0807	3.3775	1.3428	2.8033	0.4093	-2.4794	-4.0725	-0.8127	3.6278	1.8257	1.6932	3.7515
-1.0336	-0.9217	-0.3151	-0.2061	0.2267	-0.4093	0.1649	1.2515	-0.4358	1.1366	3.4364	1.3339	2.8475	0.4181	-2.4853	-4.9206	-0.8392	3.6779	1.9729	1.7727	3.8399
-0.9246	-0.8922	-0.3298	-0.2061	0.2091	-0.5094	0.1649	1.2456	-0.5065	1.2132	3.4983	1.3045	2.8799	0.4388	-2.4794	-5.7274	-0.8716	3.725	2.1614	1.8286	3.884
-0.8304	-0.8451	-0.3828	-0.2267	0.1943	-0.6537	0.1384	1.2515	-0.6272	1.2162	3.5189	1.2574	2.8504	0.4446	-2.447	-6.4871	-0.8775	3.7456	2.2674	1.864	3.94
-0.7273	-0.7803	-0.4358	-0.1973	0.1296	-0.8068	0.1001	1.1955	-0.7479	1.2073	3.513	1.1631	2.7827	0.4446	-2.4117	-7.2174	-0.8716	3.6926	2.3734	1.864	3.9341
-0.6537	-0.7273	-0.5006	-0.2739	0.0383	-1.0159	-0.0383	1.1425	-0.9364	1.1219	3.4806	1.0454	2.662	0.4211	-2.4323	-7.9035	-0.8304	3.6308	2.4647	1.811	3.9017
-0.5565	-0.7008	-0.586	-0.2974	-0.0442	-1.1631	-0.1148	1.1043	-1.0866	1.0748	3.4217	0.9099	2.5177	0.4211	-2.4323	-8.5219	-0.8186	3.5424	2.5324	1.7521	3.8811
-0.5006	-0.692	-0.7008	-0.4034	-0.1472	-1.384	-0.2709	0.9924	-1.2868	0.907	3.3098	0.7273	2.341	0.3858	-2.4352	-9.049	-0.7479	3.4335	2.553	1.6608	3.7927
-0.4564	-0.6743	-0.8157	-0.4564	-0.2532	-1.6078	-0.4299	0.8922	-1.5047	0.7568	3.1685	0.5448	2.0848	0.3593	-2.4411	-9.4907	-0.6832	3.2745	2.5501	1.5106	3.6602
-0.3946	-0.6508	-0.904	-0.5477	-0.3534	-1.8021	-0.5948	0.7627	-1.7285	0.5448	3.0183	0.3151	1.7933	0.3092	-2.45	-9.8205	-0.6037	3.0772	2.5148	1.3281	3.5101
-0.3239	-0.6095	-0.9806	-0.639	-0.4476	-2.0083	-0.7774	0.6626	-1.8993	0.3416	2.8504	0.106	1.5165	0.265	-2.4294	-10.0237	-0.5536	2.874	2.4794	1.169	3.3422
-0.2385	-0.5919	-1.0689	-0.7391	-0.5359	-2.182	-0.96	0.5035	-2.1143	0.0942	2.659	-0.1355	1.1573	0.2267	-2.4176	-10.1267	-0.4653	2.6237	2.4087	0.9806	3.1302
-0.1796	-0.5477	-1.1219	-0.8275	-0.5948	-2.3204	-1.1484	0.4181	-2.2792	-0.1472	2.4794	-0.3386	0.8657	0.1973	-2.4294	-10.1267	-0.3946	2.3557	2.3116	0.798	2.9123
-0.0942	-0.4594	-1.1514	-0.8893	-0.6037	-2.397	-1.3104	0.3327	-2.4087	-0.4005	2.288	-0.5536	0.5183	0.1531	-2.3587	-9.9913	-0.321	2.0819	2.235	0.5919	2.7003
0.0088	-0.371	-1.169	-0.9335	-0.6361	-2.4883	-1.4664	0.2356	-2.5148	-0.6478	2.0996	-0.745	0.2032	0.1266	-2.2939	-9.7381	-0.2532	1.8169	2.1172	0.4064	2.4529
0.1148	-0.2621	-1.1013	-0.9659	-0.6007	-2.4735	-1.6019	0.1826	-2.5678	-0.8687	1.9199	-0.907	-0.1443	0.0883	-2.1908	-9.367	-0.1767	1.5224	2.0348	0.1796	2.2085
0.2503	-0.1355	-1.0277	-0.9364	-0.5507	-2.4294	-1.6961	0.1531	-2.5619	-1.0689	1.7609	-1.0513	-0.4388	0.0648	-2.0672	-8.8399	-0.106	1.2044	1.9199	-0.0177	1.9494
0.4181	0.0471	-0.854	-0.8746	-0.4358	-2.291	-1.7344	0.1708	-2.4971	-1.2456	1.6284	-1.1366	-0.692	0.0206	-1.8905	-8.2863	-0.0353	0.8893	1.7963	-0.1826	1.6991
0.639	0.2444	-0.6802	-0.7745	-0.2591	-2.1172	-1.7197	0.2297	-2.3734	-1.4017	1.5224	-1.1955	-0.957	-0.0088	-1.6873	-7.5502	0.0265	0.5713	1.702	-0.3799	1.4664
0.8333	0.4859	-0.4329	-0.6361	-0.0471	-1.861	-1.6726	0.3298	-2.1938	-1.4988	1.4841	-1.1838	-1.1455	-0.0353	-1.4223	-6.7374	0.0707	0.3092	1.6284	-0.5536	1.2574
1.116	0.7862	-0.0972	-0.4299	0.2061	-1.5165	-1.5783	0.4711	-1.9347	-1.5754	1.4341	-1.1101	-1.3045	-0.0618	-1.116	-5.8305	0.1237	-0.0029	1.5842	-0.7038	1.0571
1.3987	1.1013	0.2709	-0.2032	0.5418	-1.0925	-1.437	0.6537	-1.6078	-1.5872	1.4576	-0.9924	-1.4252	-0.0883	-0.7656	-4.8676	0.1708	-0.2739	1.5283	-0.8333	0.8893
1.7521	1.4694	0.7038	0.0766	0.9305	-0.586	-1.225	0.8952	-1.1955	-1.5165	1.5577	-0.8186	-1.4723	-0.1031	-0.3475	-3.8163	0.2002	-0.5094	1.5106	-0.9394	0.7568
2.0848	1.861	1.2103	0.424	1.3663	-0.0559	-0.9894	1.2073	-0.7214	-1.4311	1.6549	-0.5948	-1.4988	-0.1148	0.0383	-2.715	0.2209	-0.7597	1.5106	-1.0306	0.6508
2.4735	2.3086	1.7344	0.7921	1.8375	0.5448	-0.6891	1.543	-0.2179	-1.3163	1.8169	-0.3416	-1.4782	-0.1325	0.4977	-1.6048	0.2444	-0.9747	1.5283	-1.1219	0.5889
2.877	2.7592	2.3322	1.1779	2.3263	1.2044	-0.3828	1.8787	0.3327	-1.1543	1.9847	-0.0471	-1.4046	-0.1384	0.9747	-0.4594	0.2503	-1.172	1.6107	-1.1631	0.5507
3.354	3.2745	2.9682	1.6549	2.9064	1.9464	0.0442	2.2939	0.9659	-0.9364	2.1938	0.3121	-1.2986	-0.1237	1.4635	0.7038	0.2238	-1.3457	1.7109	-1.1661	0.5624
3.8546	3.7957	3.6514	2.1349	3.4924	2.6885	0.4682	2.7238	1.6048	-0.6949	2.4294	0.6949	-1.1661	-0.1207	1.967	1.7963	0.2267	-1.4871	1.8316	-1.2014	0.6302
4.3434	4.3493	4.367	2.6502	4.1167	3.4806	0.9335	3.195	2.291	-0.4093	2.7209	1.1072	-0.9865	-0.1178	2.4735	2.8917	0.212	-1.6019	1.9965	-1.1926	0.6773
4.8823	4.9058	5.0737	3.1567	4.7321	4.2845	1.4164	3.6543	2.9977	-0.1001	2.9888	1.5283	-0.8068	-0.1178	2.9771	3.9164	0.2209	-1.705	2.1437	-1.169	0.7803
5.4182	5.4771	5.8128	3.7074	5.3947	5.0619	1.9347	4.1343	3.7103	0.2267	3.2863	1.9818	-0.5654	-0.1207	3.4482	4.8617	0.2238	-1.7992	2.344	-1.1337	0.8834
6.0013	6.0984	6.5666	4.2757	6.0278	5.907	2.4441	4.5996	4.4259	0.6007	3.5984	2.45	-0.3062	-0.1031	3.9694	5.7657	0.2209	-1.8728	2.5707	-1.0454	1.01
6.5666	6.708	7.3381	4.8293	6.6815	6.7463	2.9977	5.1267	5.165	0.9629	3.9164	2.9182	-0.0412	-0.1355	4.4582	6.599	0.2503	-1.9111	2.7945	-0.9717	1.1396
7.1615	7.2586	8.1038	5.3858	7.3116	7.5384	3.5159	5.5861	5.8629	1.3546	4.2256	3.3746	0.2444	-0.1472	4.9647	7.3116	0.2915	-1.9523	3.0448	-0.8746	1.2692
7.7239	7.8682	8.8635	5.96	7.9447	8.3217	4.0519	6.0631	6.5666	1.6902	4.523	3.8723	0.5094	-0.1708	5.4359	7.9389	0.3386	-1.9906	3.3128	-0.7597	1.4311
8.2981	8.4424	9.5614	6.4871	8.5396	9.0961	4.5436	6.5284	7.2233	2.0642	4.8646	4.3346	0.7803	-0.2238	5.9011	8.4718	0.424	-2.0112	3.5601	-0.6331	1.5754
8.8664	9.0078	10.2828	7.0024	9.1226	9.8087	5.0354	6.9288	7.8652	2.397	5.1532	4.7851	1.0424	-0.2591	6.3311	8.8723	0.5035	-2.0583	3.8104	-0.4977	1.7197
9.3994	9.5113	10.9306	7.4854	9.6556	10.4831	5.483	7.344	8.466	2.7327	5.4005	5.1767	1.3104	-0.3033	6.7433	9.1491	0.6125	-2.0937	4.0548	-0.3828	1.8257
9.9147	10.0266	11.5431	7.9477	10.1474	11.1162	5.9188	7.7092	9.0254	3.0124	5.6508	5.5831	1.5283	-0.374	7.1026	9.2964	0.7391	-2.1467	4.2845	-0.2709	1.9288
10.3859	10.5007	12.0967	8.3688	10.5979	11.6845	6.2987	8.0213	9.5378	3.3216	5.8452	5.9689	1.7609	-0.4446	7.4677	9.3405	0.8746	-2.182	4.5083	-0.1384	2.0171
10.8129	10.9277	12.6091	8.7221	11.0249	12.2234	6.6403	8.3069	10.0384	3.5748	6.0601	6.3369	1.97	-0.533	7.774	9.2934	1.0336	-2.2468	4.7056	-0.0324	2.0583
11.2251	11.3252	13.1009	9.0843	11.4077	12.6857	6.9848	8.5926	10.4889	3.8281	6.2368	6.652	2.1643	-0.5919	8.0802	9.1609	1.1867	-2.2645	4.9088	0.053	2.1025
11.6109	11.708	13.519	9.3817	11.7287	13.1244	7.2881	8.8193	10.8835	4.0519	6.39	6.9701	2.3793	-0.6773	8.3276	8.9371	1.3546	-2.3116	5.0413	0.1384	2.129
11.9201	12.0143	13.8812	9.6379	12.0055	13.4955	7.4972	8.9842	11.2575	4.2403	6.5048	7.2527	2.5442	-0.7686	8.5337	8.5985	1.5195	-2.3616	5.1915	0.2179	2.1143
12.2116	12.297	14.1786	9.8617	12.2175	13.8164	7.7327	9.1403	11.5608	4.4023	6.5784	7.5001	2.7062	-0.8363	8.6839	8.2628	1.6637	-2.4146	5.3151	0.2739	2.0819
12.4383	12.5119	14.426	10.062	12.4118	14.0667	7.9094	9.2316	11.8317	4.5584	6.6255	7.7357	2.8504	-0.9217	8.8134	7.8328	1.811	-2.4824	5.4064	0.3033	2.0672
12.6356	12.6621	14.6086	10.1945	12.5296	14.267	8.0272	9.2993	12.0555	4.6644	6.6285	7.9271	2.9594	-0.9865	8.9165	7.3735	1.9523	-2.5206	5.4447	0.3033	1.9288
12.7976	12.827	14.7499	10.2887	12.6121	14.4142	8.1244	9.3405	12.2322	4.7822	6.6108	8.089	3.0536	-1.0601	8.9342	6.864	2.0789	-2.5471	5.4418	0.2974	1.7904
12.9271	12.9507	14.8618	10.3829	12.6739	14.5555	8.2127	9.3435	12.403	4.8676	6.5902	8.248	3.1832	-1.0925	8.9665	6.3517	2.1584	-2.5825	5.4329	0.3327	1.6637
12.9743	12.9919	14.8883	10.3977	12.6445	14.5938	8.2392	9.3111	12.4943	4.9176	6.5048	8.357	3.2539	-1.1337	8.9224	5.7981	2.2468	-2.5795	5.3858	0.3239	1.4664
13.0184	13.0155	14.9148	10.4212	12.6356	14.6115	8.2775	9.2669	12.5738	4.9677	6.4165	8.4542	3.3069	-1.1749	8.9047	5.2828	2.3057	-2.6002	5.3299	0.2915	1.3015
13.0184	13.0125	14.8706	10.4212	12.5973	14.5879	8.2569	9.1992	12.615	5.0089	6.2839	8.5101	3.3687	-1.1985	8.8429	4.7615	2.3557	-2.609	5.218	0.3121	1.1131
13.0096	12.9919	14.7911	10.3947	12.5031	14.5438	8.2392	9.1256	12.6297	5.0089	6.1779	8.5455	3.4099	-1.2132	8.7221	4.2816	2.3793	-2.6119	5.1061	0.2709	0.9276
12.9684	12.9095	14.7057	10.3653	12.3971	14.4495	8.2157	8.993	12.6327	5.0266	6.0454	8.5425	3.4394	-1.2309	8.6014	3.8399	2.4146	-2.6149	4.9559	0.2444	0.7568
12.8889	12.8329	14.5968	10.2946	12.2675	14.3465	8.1479	8.8605	12.5679	5.006	5.8746	8.5278	3.4571	-1.225	8.4836	3.4335	2.4029	-2.6031	4.8057	0.2591	0.5948
12.774	12.7151	14.4495	10.2269	12.1174	14.2228	8.0861	8.7339	12.509	4.9883	5.7245	8.4983	3.4453	-1.1955	8.3541	3.1567	2.3675	-2.5766	4.6526	0.2297	0.4299
12.6621	12.6003	14.2729	10.1326	11.9554	14.0608	8.0095	8.5602	12.3912	4.9412	5.5419	8.4365	3.4188	-1.1808	8.195	2.8946	2.3322	-2.5766	4.4288	0.2356	0.2356
12.5149	12.4295	14.1197	10.059	11.7493	13.8989	7.9035	8.4188	12.244	4.897	5.3475	8.3364	3.3746	-1.1455	8.0714	2.7503	2.2645	-2.5295	4.2403	0.2267	0.0648
12.3618	12.2705	13.9195	9.9795	11.5785	13.7045	7.8417	8.2569	12.0879	4.8234	5.1444	8.2068	3.3039	-1.1131	7.9241	2.6767	2.1879	-2.5118	4.0224	0.2326	-0.1119
12.1821	12.0997	13.6928	9.8823	11.3782	13.5161	7.7298	8.0537	11.9142	4.7822	4.95	8.0655	3.245	-1.063	7.7681	2.7062	2.1025	-2.4647	3.8134	0.2091	-0.2886
12.0172	11.9289	13.4866	9.7852	11.1751	13.2923	7.6356	7.8947	11.7228	4.7056	4.7498	7.9065	3.1714	-1.01	7.6267	2.8004	1.9906	-2.4264	3.5807	0.2444	-0.4476
11.7787	11.7493	13.2363	9.6703	10.9778	13.0773	7.5295	7.718	11.5166	4.6408	4.5525	7.7151	3.0978	-0.9511	7.4883	2.9771	1.8964	-2.3734	3.3275	0.2238	-0.6302
11.5696	11.5314	12.9949	9.582	10.7569	12.8565	7.4294	7.5119	11.3046	4.5672	4.3611	7.5237	3.0183	-0.9187	7.3411	3.2274	1.8198	-2.3263	3.1037	0.2267	-0.7862
11.3488	11.337	12.7711	9.4995	10.5478	12.6297	7.3646	7.3322	11.0808	4.5142	4.1726	7.3381	2.9565	-0.8746	7.2086	3.5277	1.7403	-2.2615	2.877	0.265	-0.9541
11.1456	11.1073	12.5178	9.3994	10.3388	12.4236	7.2704	7.188	10.857	4.4288	4.0077	7.1232	2.8946	-0.8481	7.0908	3.8958	1.6726	-2.185	2.6561	0.2385	-1.1072
10.9071	10.8953	12.2823	9.3081	10.1739	12.2234	7.1968	7.0319	10.6215	4.3993	3.8075	6.9553	2.8504	-0.8127	6.9789	4.3022	1.6048	-2.0878	2.4559	0.2945	-1.2162
10.6509	10.6538	12.0143	9.2021	9.956	11.9996	7.1291	6.8935	10.377	4.3463	3.6926	6.758	2.8092	-0.7862	6.917	4.735	1.543	-2.0112	2.2703	0.3151	-1.3074
10.4124	10.4536	11.7817	9.1226	9.7763	11.7669	7.0378	6.7463	10.1326	4.2816	3.5748	6.5401	2.7562	-0.7509	6.8552	5.1885	1.4841	-1.8993	2.0848	0.3298	-1.384
10.1915	10.2033	11.5373	9.049	9.579	11.549	6.9789	6.6079	9.8765	4.2521	3.4453	6.3369	2.7327	-0.7244	6.7904	5.5978	1.4311	-1.811	1.9317	0.3298	-1.4429
9.9501	9.9618	11.2811	8.9342	9.4112	11.3193	6.9053	6.4606	9.6055	4.1844	3.3422	6.1043	2.662	-0.6979	6.708	6.0395	1.3781	-1.7226	1.7786	0.3651	-1.4959
9.7292	9.7174	11.0455	8.8429	9.2433	11.1014	6.8405	6.3752	9.367	4.1608	3.2598	5.9159	2.6443	-0.6743	6.6933	6.4341	1.3281	-1.6196	1.6461	0.3975	-1.4753
9.5172	9.4907	10.8217	8.7516	9.0755	10.8659	6.7433	6.2486	9.1108	4.0813	3.195	5.695	2.5795	-0.6626	6.6344	6.7963	1.2927	-1.5165	1.5489	0.4034	-1.4988
9.2787	9.2492	10.5626	8.6309	8.9165	10.6568	6.6697	6.1956	8.8723	4.0548	3.1479	5.5065	2.5589	-0.6331	6.6196	7.1085	1.2368	-1.4076	1.4871	0.4623	-1.4429
9.0902	9.0519	10.3447	8.5896	8.7987	10.4448	6.6108	6.1367	8.6191	4.0136	3.1272	5.3299	2.5471	-0.6037	6.5755	7.3735	1.2014	-1.3251	1.4429	0.5124	-1.384
8.8988	8.8546	10.1209	8.4925	8.6721	10.2298	6.5519	6.066	8.3982	3.9812	3.0978	5.1591	2.5206	-0.5919	6.5195	7.609	1.172	-1.2309	1.3869	0.5565	-1.2957
8.7162	8.6456	9.9265	8.4483	8.569	10.0266	6.5077	6.0336	8.1892	3.9871	3.0742	4.9765	2.5	-0.5654	6.4842	7.7651	1.116	-1.1396	1.384	0.6066	-1.1808
8.5396	8.4571	9.6968	8.3747	8.4394	9.8264	6.443	5.9836	7.9624	3.9547	3.0625	4.8293	2.5177	-0.5595	6.4341	7.8652	1.0954	-1.0424	1.384	0.6714	-1.0836
8.3894	8.2716	9.4907	8.3217	8.3629	9.6232	6.3988	5.9217	7.771	3.9253	3.0536	4.6467	2.4647	-0.5418	6.3487	7.9065	1.0571	-0.9659	1.3899	0.7273	-0.9659
8.248	8.1067	9.2993	8.304	8.2804	9.476	6.3635	5.9306	7.6179	3.94	3.0831	4.5525	2.5177	-0.5242	6.281	7.9035	1.0365	-0.8422	1.4252	0.7951	-0.8186
8.1038	7.9241	9.1314	8.2569	8.1892	9.2757	6.3104	5.8923	7.4206	3.9341	3.0772	4.4141	2.5059	-0.533	6.1985	7.8034	1.0247	-0.798	1.4341	0.8422	-0.7097
7.9654	7.8005	8.9548	8.2304	8.1185	9.1226	6.3134	5.8629	7.2675	3.9311	3.0919	4.2904	2.5206	-0.5183	6.0749	7.6473	1.0041	-0.6891	1.4694	0.9276	-0.6007
7.8328	7.6621	8.784	8.2245	8.0566	8.9636	6.2957	5.8481	7.132	3.9547	3.1125	4.1991	2.556	-0.5124	5.9306	7.4471	0.9894	-0.5919	1.5195	0.9924	-0.4711
7.7209	7.5502	8.6574	8.251	8.0478	8.8105	6.3046	5.8658	7.0054	3.9959	3.1361	4.1196	2.6031	-0.4977	5.8481	7.2262	0.9659	-0.4918	1.5931	1.1013	-0.3298
7.6503	7.4618	8.516	8.2863	7.9919	8.7133	6.3428	5.8687	6.8994	4.0342	3.1714	4.0195	2.6384	-0.4859	5.7657	6.973	0.9452	-0.3916	1.6431	1.1867	-0.1943
7.5708	7.3941	8.3923	8.3334	7.9801	8.6102	6.3782	5.8717	6.8287	4.1019	3.1891	3.9518	2.6973	-0.4594	5.6449	6.7139	0.8981	-0.2856	1.7374	1.3133	-0.0736
7.5325	7.3411	8.301	8.3953	7.9624	8.4895	6.4194	5.8923	6.7315	4.1667	3.2068	3.8723	2.7533	-0.4299	5.5389	6.4341	0.8569	-0.1531	1.8228	1.4252	0.0825
7.4942	7.3087	8.2215	8.5101	7.9801	8.4247	6.496	5.9424	6.7109	4.2492	3.2539	3.8251	2.821	-0.4064	5.4594	6.175	0.798	-0.0029	1.9553	1.5577	0.2474
7.4736	7.2969	8.1568	8.5749	8.0213	8.3658	6.5725	5.9718	6.6579	4.3434	3.301	3.7898	2.8976	-0.3681	5.3623	5.8687	0.7244	0.1237	2.0878	1.7109	0.4034
7.4618	7.3057	8.1244	8.7133	8.0625	8.3393	6.708	6.0336	6.6403	4.42	3.3628	3.7662	2.9771	-0.321	5.3122	5.6361	0.6243	0.2797	2.2291	1.8463	0.5507
7.4559	7.3322	8.0655	8.8046	8.1185	8.3128	6.7845	6.0631	6.6432	4.5112	3.404	3.7339	3.0625	-0.2739	5.2091	5.3593	0.5389	0.4623	2.3616	1.9877	0.7273
7.4706	7.3588	8.0478	8.9253	8.2068	8.3158	6.9141	6.1426	6.655	4.6231	3.4688	3.728	3.1567	-0.2326	5.1473	5.1296	0.4299	0.6302	2.4912	2.1143	0.8628
7.4677	7.397	8.0478	9.0137	8.2245	8.2981	7.0319	6.1956	6.6785	4.7439	3.5101	3.7191	3.248	-0.1678	5.0737	4.8999	0.3416	0.8039	2.6237	2.2438	0.9894
7.4765	7.4176	8.0036	9.1108	8.2716	8.3128	7.1232	6.2663	6.6844	4.8499	3.5601	3.7044	3.3216	-0.1384	5.003	4.7085	0.2739	0.9982	2.715	2.3528	1.1101
7.4589	7.4383	7.983	9.2168	8.3511	8.3305	7.2675	6.3222	6.7168	4.9588	3.6249	3.7044	3.4099	-0.0854	4.95	4.5319	0.1855	1.1897	2.7945	2.4352	1.2427
7.4765	7.4235	7.9683	9.2934	8.3658	8.3393	7.3617	6.3517	6.7404	5.0354	3.6779	3.6956	3.4953	-0.0618	4.897	4.4052	0.1148	1.3752	2.8799	2.5059	1.3457
7.4824	7.4235	7.9565	9.37	8.3864	8.3658	7.4589	6.4076	6.7639	5.1296	3.7132	3.6808	3.5866	-0.0118	4.8911	4.3051	0.0294	1.5931	2.9682	2.5825	1.437
7.4883	7.3911	7.93	9.4171	8.3982	8.3776	7.5502	6.4253	6.7845	5.2297	3.7515	3.6897	3.672	0.0236	4.8499	4.2727	-0.0412	1.7815	2.9888	2.6532	1.546
7.4618	7.3352	7.8858	9.4524	8.3776	8.4012	7.609	6.4223	6.8258	5.2916	3.7869	3.7015	3.7574	0.0736	4.8145	4.2433	-0.109	1.9906	3.0301	2.7179	1.6196
7.4441	7.3116	7.8976	9.5113	8.3688	8.4306	7.6944	6.4724	6.8346	5.4094	3.8458	3.7162	3.8605	0.106	4.8204	4.2374	-0.1826	2.2409	3.0772	2.7709	1.7226
7.4265	7.238	7.8682	9.5113	8.3187	8.4306	7.7151	6.4665	6.8464	5.4683	3.8516	3.6926	3.9223	0.1178	4.8028	4.2315	-0.2444	2.4235	3.0772	2.8151	1.7874
7.3941	7.185	7.8005	9.4995	8.2804	8.4247	7.7592	6.4577	6.8317	5.5331	3.8516	3.6691	3.9871	0.1561	4.7822	4.2727	-0.3004	2.6414	3.0595	2.8711	1.8551
7.3882	7.1026	7.7887	9.5231	8.2333	8.4247	7.771	6.4341	6.8169	5.5596	3.887	3.6367	4.0548	0.1767	4.7851	4.2845	-0.3445	2.8622	3.0477	2.9123	1.9317
7.3234	7.0496	7.7209	9.4348	8.1833	8.3923	7.774	6.387	6.7757	5.5919	3.8958	3.6013	4.1049	0.1885	4.7498	4.3228	-0.371	3.036	2.9977	2.9476	1.9965
7.2792	6.9406	7.6562	9.3906	8.1096	8.3541	7.7357	6.3487	6.7315	5.5919	3.8752	3.5454	4.1373	0.212	4.735	4.3405	-0.4005	3.2391	2.9682	2.9888	2.0377
7.2056	6.8729	7.5884	9.3523	8.0272	8.2981	7.6797	6.3252	6.6933	5.5831	3.8664	3.4688	4.1638	0.2385	4.7321	4.3552	-0.4358	3.4188	2.9329	3.0242	2.0907
7.1114	6.7227	7.4942	9.2257	7.9447	8.2274	7.5884	6.2368	6.5725	5.536	3.8163	3.3717	4.1196	0.2238	4.6938	4.3346	-0.4535	3.5807	2.8416	3.0154	2.1437
7.0378	6.6167	7.3764	9.0902	7.8446	8.1479	7.5089	6.1779	6.4518	5.4859	3.7869	3.2833	4.1343	0.2532	4.6614	4.3022	-0.477	3.7456	2.7709	3.0389	2.1732
6.92	6.4989	7.2645	8.9724	7.718	8.0714	7.3911	6.0808	6.3664	5.427	3.7604	3.195	4.1167	0.2621	4.6496	4.2668	-0.5006	3.9194	2.6797	3.0713	2.2409
6.8228	6.3782	7.135	8.8193	7.6149	7.9477	7.291	6.013	6.2221	5.3623	3.7397	3.086	4.096	0.2768	4.6408	4.2433	-0.53	4.0578	2.5766	3.1155	2.3263
6.6638	6.2398	6.9907	8.6632	7.4677	7.8328	7.1467	5.9276	6.0896	5.271	3.7103	2.983	4.0813	0.2915	4.6025	4.1932	-0.5536	4.2227	2.4824	3.1449	2.4117
6.5372	6.0984	6.8317	8.4777	7.3558	7.6797	7.0407	5.8128	5.9394	5.1826	3.675	2.8946	4.0519	0.2945	4.5937	4.1373	-0.583	4.3581	2.397	3.1861	2.4765
6.3576	5.9394	6.6461	8.2657	7.1821	7.5178	6.8699	5.6832	5.7745	5.0884	3.6426	2.7974	4.0107	0.3033	4.579	4.1078	-0.5801	4.4965	2.2968	3.2215	2.5501
6.1779	5.7804	6.4518	8.0566	7.0378	7.3558	6.7021	5.5861	5.6243	5.0236	3.6131	2.7297	4.0401	0.3062	4.5701	4.1049	-0.5978	4.6173	2.2115	3.2922	2.6325
5.9571	5.5625	6.2162	7.8005	6.8493	7.1467	6.496	5.4535	5.3888	4.9058	3.5601	2.6267	4.046	0.3121	4.5319	4.1019	-0.5948	4.7645	2.0966	3.3481	2.715
5.7539	5.3799	5.9865	7.5325	6.655	6.9141	6.3252	5.3416	5.2268	4.844	3.513	2.5442	4.0372	0.3062	4.4936	4.1108	-0.586	4.897	2.0083	3.4247	2.7562
5.5154	5.1385	5.6921	7.2822	6.4253	6.6991	6.1102	5.1738	4.9971	4.7203	3.4512	2.4529	4.046	0.3004	4.4465	4.1255	-0.586	5.0177	1.9347	3.4924	2.8328
5.268	4.9147	5.427	6.9848	6.228	6.4371	5.907	5.0472	4.8116	4.6349	3.4217	2.3881	4.0519	0.2974	4.42	4.1638	-0.5713	5.1679	1.8993	3.566	2.8917
4.9795	4.6761	5.1237	6.6962	6.0013	6.1809	5.6832	4.9088	4.5849	4.5495	3.3628	2.3086	4.0931	0.2768	4.3405	4.1726	-0.5418	5.2769	1.811	3.6426	2.9211
4.7027	4.4259	4.8087	6.3988	5.7568	5.8982	5.4594	4.7527	4.3581	4.4347	3.3128	2.2085	4.0754	0.268	4.2462	4.1932	-0.5183	5.3681	1.7639	3.6985	3.0006
4.3993	4.1697	4.4789	6.0984	5.5566	5.6273	5.2592	4.6055	4.152	4.3758	3.2715	2.1526	4.1167	0.2474	4.152	4.1461	-0.4859	5.5065	1.7491	3.7574	3.0625
4.0931	3.9253	4.1608	5.804	5.3328	5.3387	5.0501	4.4877	3.94	4.2551	3.2391	2.0848	4.1196	0.2326	4.0224	4.1049	-0.4505	5.6273	1.7167	3.7721	3.1243
3.7927	3.6632	3.8369	5.4889	5.1208	5.0383	4.8263	4.3611	3.7309	4.1756	3.2097	2.0112	4.152	0.215	3.8811	4.0048	-0.4123	5.7156	1.7138	3.8222	3.2126
3.4659	3.3834	3.4571	5.1532	4.8882	4.7527	4.6114	4.2079	3.5424	4.0578	3.1773	1.9582	4.1579	0.1708	3.728	3.8664	-0.3475	5.7863	1.7315	3.8104	3.2686
3.1744	3.1155	3.1331	4.8381	4.6732	4.4936	4.4023	4.0872	3.3658	4.0077	3.1861	1.9258	4.1667	0.1443	3.569	3.781	-0.2915	5.8746	1.7815	3.8045	3.3393
2.8976	2.8681	2.8122	4.5643	4.4494	4.2021	4.1844	3.9665	3.1744	3.884	3.1538	1.8493	4.1549	0.109	3.4335	3.6308	-0.2179	5.9365	1.7756	3.778	3.4276
2.609	2.6178	2.4794	4.2845	4.2639	3.9488	3.9812	3.8428	3.0124	3.8192	3.1626	1.8345	4.1785	0.0766	3.301	3.4953	-0.1678	5.9983	1.7786	3.7368	3.5042
2.3646	2.397	2.1997	4.046	4.096	3.7162	3.8222	3.7515	2.8681	3.7191	3.1744	1.8257	4.2256	0.0471	3.1302	3.3834	-0.1119	6.0513	1.7815	3.7132	3.5955
2.1231	2.1643	1.8993	3.8251	3.9135	3.4806	3.6426	3.6396	2.7444	3.6808	3.2009	1.8404	4.2227	0.0324	3.0095	3.248	-0.0766	6.0984	1.8169	3.6485	3.6455
1.9082	1.9612	1.6667	3.5955	3.7604	3.301	3.5012	3.566	2.659	3.619	3.2215	1.8493	4.2698	0.0206	2.8681	3.1272	-0.0383	6.1514	1.8257	3.6249	3.725
1.7403	1.7374	1.4311	3.404	3.6102	3.139	3.3452	3.4777	2.5913	3.566	3.2598	1.8816	4.3051	0.0088	2.7238	2.9977	-0.0265	6.2044	1.8228	3.5778	3.7751
1.5371	1.5548	1.2162	3.2185	3.4453	2.9741	3.2126	3.404	2.5442	3.5424	3.2745	1.917	4.3375	0	2.5913	2.8475	0.0029	6.2251	1.8021	3.5513	3.8222
1.3781	1.3663	1.0071	3.0742	3.3275	2.8711	3.1243	3.3304	2.4941	3.4806	3.3422	1.97	4.3787	-0.0147	2.4559	2.712	0.0118	6.2663	1.8286	3.5189	3.8723
1.2427	1.1808	0.8834	2.9594	3.2126	2.7621	3.033	3.2804	2.5089	3.4953	3.3982	2.0524	4.4465	0.0059	2.3027	2.5678	0.0118	6.3487	1.8404	3.5042	3.9665
1.1366	1.013	0.7303	2.8504	3.0978	2.6855	2.9565	3.2244	2.4735	3.4894	3.4129	2.1113	4.5054	-0.0059	2.1732	2.4205	0.0177	6.3958	1.8257	3.4983	4.0401
1.0247	0.8922	0.6154	2.7768	3.0036	2.6443	2.9329	3.2038	2.5118	3.4983	3.5042	2.2026	4.579	0.0088	2.0318	2.2586	-0.0118	6.4695	1.8758	3.4806	4.1549
0.96	0.7627	0.5713	2.7268	2.9476	2.6384	2.9123	3.195	2.553	3.5454	3.5984	2.3027	4.682	0.0265	1.9023	2.1025	-0.0412	6.546	1.9052	3.5012	4.2727
0.8952	0.6478	0.5094	2.7062	2.8563	2.6325	2.8563	3.1685	2.6002	3.5807	3.675	2.4087	4.7586	0.0442	1.8228	1.9612	-0.0766	6.6137	1.914	3.5307	4.3876
0.8598	0.5772	0.48	2.6855	2.8298	2.662	2.8946	3.1596	2.6384	3.6131	3.7721	2.4971	4.8469	0.0589	1.6785	1.811	-0.1237	6.6933	1.9494	3.5395	4.5083
0.8805	0.5212	0.5006	2.715	2.821	2.7179	2.93	3.1861	2.7356	3.6897	3.8811	2.6532	4.9736	0.1178	1.6225	1.705	-0.215	6.8317	1.9759	3.5955	4.6467
0.851	0.4711	0.4888	2.7179	2.7886	2.768	2.9417	3.192	2.8033	3.7456	3.9989	2.7857	5.0796	0.1384	1.5607	1.5548	-0.268	6.9406	2.0377	3.6278	4.7822
0.8863	0.4623	0.5359	2.7415	2.8033	2.8504	2.9888	3.2627	2.9211	3.8104	4.0931	2.9064	5.1797	0.1943	1.4871	1.4576	-0.3651	7.0289	2.0789	3.6573	4.8852
0.9129	0.4329	0.5772	2.7503	2.8328	2.9358	3.0242	3.2774	2.9888	3.8723	4.2403	3.0448	5.2828	0.2267	1.4429	1.3604	-0.4181	7.1143	2.1202	3.6779	5.0325
0.9246	0.4446	0.6537	2.8063	2.8416	3.0183	3.0566	3.3363	3.0919	3.9341	4.3728	3.1596	5.3681	0.2591	1.3781	1.2721	-0.48	7.2292	2.1791	3.7074	5.2062
0.9747	0.4505	0.7244	2.8004	2.8504	3.139	3.0801	3.3834	3.1861	3.993	4.4965	3.3039	5.4742	0.2739	1.3487	1.2427	-0.53	7.3175	2.2497	3.7486	5.3593
1.0247	0.4653	0.8186	2.8593	2.8946	3.2185	3.1302	3.4423	3.2863	4.0254	4.6055	3.4158	5.5831	0.2856	1.3163	1.2191	-0.5595	7.4118	2.3027	3.7751	5.4948
1.0306	0.4682	0.9011	2.8681	2.9093	3.301	3.1361	3.4924	3.3628	4.0813	4.7557	3.5366	5.6656	0.2886	1.275	1.2191	-0.5565	7.4795	2.3469	3.8045	5.6744
1.1013	0.4682	0.9423	2.8799	2.9358	3.3805	3.1803	3.5424	3.4423	4.1314	4.8764	3.675	5.7598	0.2739	1.2368	1.2103	-0.5359	7.5619	2.3911	3.8664	5.8305
1.0984	0.4947	1.0247	2.8681	2.9682	3.4688	3.1773	3.6072	3.5248	4.1697	5.0089	3.781	5.8393	0.2591	1.1543	1.2279	-0.5124	7.6179	2.4294	3.8664	5.9865
1.1455	0.5065	1.0807	2.8887	3.0036	3.5483	3.1861	3.6661	3.619	4.2168	5.112	3.9046	5.9394	0.2474	1.1013	1.2456	-0.477	7.6886	2.4883	3.8988	6.1279
1.1926	0.5153	1.1602	2.8298	3.0065	3.5984	3.195	3.725	3.6867	4.2521	5.2297	4.0136	6.0425	0.2238	1.0336	1.225	-0.4388	7.7533	2.5206	3.9223	6.2457
1.1897	0.5006	1.2044	2.8387	3.0183	3.6573	3.1773	3.7839	3.7545	4.2845	5.3564	4.1255	6.1338	0.2091	0.9717	1.2368	-0.3975	7.8181	2.5442	3.9311	6.3487
1.1926	0.5065	1.2191	2.7533	3.0065	3.6779	3.1508	3.8045	3.8075	4.2963	5.4212	4.2197	6.2221	0.1855	0.8805	1.1838	-0.3651	7.877	2.5707	3.9606	6.4547
1.2044	0.4888	1.2456	2.715	3.0212	3.7339	3.1479	3.8575	3.8458	4.3081	5.536	4.3081	6.3134	0.1649	0.798	1.1278	-0.3357	7.9418	2.5884	3.9635	6.5607
1.1602	0.4388	1.2603	2.6325	2.9771	3.7486	3.1125	3.887	3.9135	4.3228	5.6037	4.3993	6.3723	0.162	0.7067	1.1043	-0.321	8.0007	2.5825	3.9518	6.6137
1.1396	0.4064	1.2515	2.5471	2.93	3.728	3.0536	3.8958	3.9547	4.3198	5.6744	4.4671	6.44	0.1472	0.5889	1.0277	-0.3004	8.0449	2.553	3.9223	6.6491
1.0836	0.3327	1.1985	2.4146	2.9005	3.6926	3.0065	3.9046	3.9576	4.314	5.7333	4.5495	6.5254	0.1472	0.5065	0.9511	-0.2886	8.0743	2.556	3.9164	6.6874
1.0365	0.2974	1.1514	2.2968	2.8799	3.6867	2.9594	3.8958	3.9783	4.3257	5.7686	4.6173	6.5637	0.1237	0.4358	0.8422	-0.2709	8.1214	2.5324	3.8988	6.705
0.96	0.2238	1.0895	2.1319	2.8063	3.6249	2.8534	3.9046	3.993	4.3169	5.8246	4.6614	6.6137	0.1502	0.3062	0.7479	-0.2827	8.1509	2.4971	3.8487	6.7109
0.8716	0.1266	1.01	1.9818	2.7503	3.5748	2.7592	3.8634	3.9812	4.2727	5.8422	4.6938	6.6609	0.1384	0.2209	0.583	-0.2797	8.1509	2.4824	3.8192	6.7109
0.7715	0.0412	0.9099	1.7933	2.6885	3.4747	2.6502	3.8399	3.9842	4.2403	5.857	4.7056	6.6638	0.1502	0.1443	0.4947	-0.3004	8.1803	2.447	3.7662	6.6815
0.6743	-0.0795	0.798	1.6461	2.6384	3.4188	2.5707	3.8281	3.9783	4.2344	5.8982	4.7586	6.7198	0.1943	0.0677	0.3593	-0.371	8.2157	2.4323	3.7486	6.6668
0.5654	-0.1796	0.6891	1.4311	2.5678	3.3481	2.4883	3.7986	3.9871	4.2109	5.91	4.7998	6.7374	0.2002	0.0059	0.2238	-0.4064	8.2245	2.3881	3.7044	6.6167
0.4682	-0.2827	0.583	1.2662	2.4853	3.2745	2.3881	3.778	3.9724	4.1844	5.9188	4.8646	6.7934	0.2267	-0.0471	0.0825	-0.48	8.2422	2.3822	3.6956	6.546
0.3386	-0.3975	0.4741	1.0954	2.4205	3.1744	2.2968	3.7427	3.9753	4.1785	5.9335	4.8823	6.814	0.2797	-0.0677	-0.0147	-0.5536	8.2834	2.3381	3.6691	6.4724
0.2503	-0.4711	0.3769	0.9394	2.3852	3.1184	2.2586	3.7368	3.9783	4.1932	5.9453	4.9529	6.8964	0.321	-0.0383	-0.0795	-0.6478	8.3187	2.3116	3.6808	6.3988
0.1443	-0.5654	0.2591	0.8216	2.341	3.0742	2.2085	3.6838	4.0165	4.1991	5.9659	5.0325	6.9671	0.3593	-0.0442	-0.162	-0.7303	8.3688	2.2674	3.7132	6.2869
0.0412	-0.6361	0.1855	0.6891	2.2968	3.0095	2.1761	3.6808	4.0283	4.2374	6.0042	5.1326	7.0672	0.4093	0.0088	-0.2061	-0.8216	8.4247	2.2085	3.7633	6.1809
-0.0324	-0.7126	0.0825	0.5565	2.2645	2.9417	2.1025	3.6985	4.0725	4.2816	6.0189	5.2209	7.1438	0.4446	0.0559	-0.2032	-0.8746	8.4836	2.1643	3.8104	6.1043
-0.1443	-0.7892	-0.0118	0.4446	2.2203	2.927	2.0848	3.6867	4.1019	4.3257	6.0395	5.321	7.2645	0.4564	0.0766	-0.2209	-0.9394	8.5278	2.1025	3.8605	5.9954
-0.2385	-0.8333	-0.1178	0.371	2.2409	2.8858	2.1025	3.6985	4.1697	4.4082	6.0808	5.4565	7.397	0.5006	0.0942	-0.2415	-0.9953	8.5808	2.0554	3.9547	5.8982
-0.3357	-0.8687	-0.1914	0.3062	2.238	2.874	2.0966	3.7191	4.2079	4.4906	6.1455	5.5831	7.5354	0.533	0.1443	-0.2091	-1.0306	8.6691	2.0024	4.0224	5.8216
-0.4123	-0.8952	-0.268	0.2326	2.2468	2.8681	2.1084	3.7545	4.2933	4.5672	6.1868	5.7156	7.6532	0.5507	0.1384	-0.2385	-1.066	8.7104	1.9523	4.0843	5.7156
-0.5006	-0.9276	-0.3593	0.1914	2.2586	2.8357	2.1378	3.7633	4.3228	4.6526	6.2516	5.8511	7.7769	0.5477	0.1296	-0.2444	-1.0895	8.7604	1.9023	4.1844	5.6214
-0.6272	-0.957	-0.4623	0.1207	2.2527	2.8092	2.1467	3.7839	4.3905	4.7704	6.3163	6.0013	7.9241	0.5742	0.0942	-0.268	-1.116	8.8223	1.8581	4.2403	5.5478
-0.7126	-0.9865	-0.5595	0.1001	2.2468	2.7798	2.1938	3.8163	4.4288	4.8676	6.3517	6.1249	8.0331	0.583	0.0294	-0.3151	-1.1308	8.8399	1.7815	4.2757	5.4712
-0.8245	-1.0159	-0.6478	0.0648	2.2556	2.7857	2.2291	3.8605	4.5171	4.9588	6.4076	6.2781	8.1774	0.5772	0.0059	-0.371	-1.1455	8.8841	1.7374	4.3405	5.3917
-0.9187	-1.0542	-0.745	0.0383	2.2409	2.7798	2.2468	3.8723	4.5525	5.0442	6.4636	6.4371	8.3246	0.583	-0.0854	-0.4535	-1.1455	8.9018	1.6873	4.3817	5.3181
-1.0012	-1.0984	-0.8481	0.0029	2.2733	2.768	2.3086	3.9194	4.6614	5.1709	6.5578	6.599	8.4542	0.5801	-0.1296	-0.5359	-1.1455	8.9224	1.6637	4.3964	5.2739
-1.1072	-1.1337	-0.9305	0.0177	2.2497	2.7886	2.3499	3.9871	4.7292	5.2621	6.6314	6.7404	8.5985	0.5801	-0.2326	-0.6361	-1.1396	8.9077	1.6137	4.3935	5.2032
-1.1985	-1.169	-1.0395	-0.0177	2.2468	2.7974	2.4176	3.9783	4.7851	5.3829	6.6991	6.9112	8.7221	0.5624	-0.3004	-0.7479	-1.1101	8.9283	1.5636	4.42	5.1915
-1.275	-1.2014	-1.116	-0.0206	2.2527	2.8387	2.4794	4.0254	4.9058	5.5065	6.8052	7.1085	8.8753	0.5595	-0.3593	-0.8068	-1.1101	8.9253	1.5636	4.4317	5.1944
-1.3781	-1.2309	-1.2073	-0.0177	2.2497	2.8475	2.5354	4.0725	4.9912	5.6332	6.8964	7.2999	9.0519	0.5507	-0.4181	-0.907	-1.0925	8.9518	1.5518	4.4435	5.1856
-1.4193	-1.2692	-1.2603	0.0412	2.2645	2.8976	2.6355	4.1549	5.1355	5.7745	7.0437	7.5207	9.2404	0.5713	-0.4711	-0.9305	-1.1131	8.9665	1.5872	4.4494	5.2504
-1.4664	-1.2721	-1.2957	0.0854	2.3057	2.9741	2.7327	4.2639	5.2945	5.9276	7.1909	7.7651	9.4171	0.586	-0.4623	-0.9246	-1.1308	9.0019	1.6166	4.4789	5.3034
-1.493	-1.2603	-1.3457	0.1325	2.3528	3.0684	2.8387	4.3493	5.4565	6.0719	7.344	8.0095	9.5967	0.5889	-0.5006	-0.9452	-1.1484	8.996	1.6461	4.4612	5.3858
-1.5106	-1.222	-1.3634	0.2002	2.4529	3.1567	2.9417	4.4671	5.6067	6.228	7.5001	8.248	9.7646	0.583	-0.5153	-0.904	-1.1543	8.9783	1.6961	4.47	5.48
-1.5518	-1.1749	-1.3575	0.2562	2.5206	3.2627	3.0625	4.6202	5.8364	6.3752	7.7121	8.5219	9.9618	0.5919	-0.48	-0.8687	-1.172	9.0019	1.7963	4.473	5.6096
-1.543	-1.172	-1.3899	0.3004	2.606	3.3775	3.1361	4.7645	6.0278	6.493	7.8976	8.7751	10.1326	0.586	-0.5359	-0.801	-1.1573	8.9842	1.8551	4.4582	5.7156
-1.5518	-1.0807	-1.3693	0.3681	2.7032	3.5101	3.248	4.9029	6.2604	6.6373	8.1008	9.0431	10.2946	0.583	-0.5418	-0.7008	-1.1366	8.9901	1.9435	4.4524	5.8835
-1.5783	-1.0395	-1.3752	0.4005	2.8151	3.6337	3.3098	5.0354	6.4636	6.7669	8.3187	9.317	10.4654	0.5477	-0.583	-0.6361	-1.0836	8.9724	2.0112	4.4229	6.0395
-1.5548	-0.9394	-1.3281	0.4446	2.9358	3.778	3.3746	5.218	6.6756	6.8699	8.4983	9.582	10.592	0.5359	-0.6154	-0.4918	-1.0424	8.94	2.1025	4.3935	6.1603
-1.5489	-0.8805	-1.3133	0.4859	3.0536	3.9017	3.4453	5.374	6.8905	6.9583	8.6927	9.8117	10.698	0.4947	-0.6213	-0.3593	-0.9747	8.8929	2.1673	4.3552	6.3046
-1.5401	-0.801	-1.2839	0.5271	3.1861	4.043	3.4983	5.5478	7.1173	7.0319	8.9018	10.0796	10.807	0.4711	-0.6891	-0.1943	-0.9187	8.8605	2.2262	4.3228	6.4312
-1.4988	-0.6714	-1.1897	0.5978	3.3628	4.2138	3.569	5.7215	7.3411	7.1173	9.1049	10.3123	10.8983	0.4329	-0.7156	-0.0236	-0.8687	8.7928	2.2968	4.2963	6.5666
-1.4547	-0.5772	-1.1308	0.6125	3.4894	4.3581	3.5984	5.9041	7.5619	7.1938	9.314	10.5478	10.9895	0.4034	-0.7803	0.1148	-0.801	8.7486	2.3616	4.2551	6.6874
-1.384	-0.4417	-1.0454	0.7097	3.6396	4.5201	3.6573	6.0601	7.7622	7.238	9.5084	10.7628	11.0573	0.3858	-0.7833	0.2945	-0.7479	8.6927	2.4264	4.2021	6.7816
-1.3251	-0.3062	-0.9335	0.7479	3.8134	4.7027	3.7309	6.2339	7.9948	7.294	9.6497	10.9925	11.1279	0.3534	-0.8363	0.4388	-0.692	8.6279	2.4647	4.1461	6.867
-1.2544	-0.159	-0.8216	0.8304	3.9753	4.8705	3.7898	6.387	8.1744	7.347	9.8117	11.1839	11.1986	0.3151	-0.8657	0.5801	-0.6331	8.5867	2.4971	4.1226	6.9288
-1.1897	-0.0029	-0.7097	0.8922	4.1608	5.0383	3.8251	6.5637	8.3923	7.4147	9.9442	11.4018	11.2546	0.2974	-0.904	0.6979	-0.5742	8.5425	2.5295	4.0902	6.973
-1.0984	0.1148	-0.5919	0.957	4.3022	5.1885	3.884	6.6962	8.5896	7.4324	10.0561	11.5785	11.2928	0.2591	-0.9452	0.7833	-0.5065	8.4424	2.5295	4.0637	6.9995
-1.0159	0.2768	-0.4564	1.0483	4.4612	5.3416	3.937	6.8375	8.7958	7.4824	10.1798	11.764	11.3488	0.2267	-0.9452	0.8186	-0.4358	8.3894	2.5471	4.0254	7.0142
-0.9423	0.4181	-0.3269	1.1101	4.6173	5.5154	3.9871	6.9612	8.9548	7.5119	10.2917	11.9318	11.3841	0.1885	-1.0041	0.8157	-0.374	8.3246	2.5648	3.9959	7.0613
-0.8481	0.53	-0.2238	1.2014	4.7615	5.6715	4.0519	7.0967	9.1491	7.5443	10.3947	12.0908	11.4283	0.159	-1.0336	0.7833	-0.3092	8.2834	2.5795	3.9665	7.082
-0.745	0.6773	-0.0677	1.2986	4.9235	5.8422	4.1255	7.2527	9.3376	7.5855	10.4978	12.2616	11.4725	0.1296	-1.0542	0.7715	-0.2415	8.2392	2.609	3.9753	7.079
-0.6626	0.7803	0.0442	1.3987	5.0796	5.9806	4.1932	7.3352	9.5025	7.6208	10.5891	12.3971	11.4901	0.0913	-1.0719	0.6832	-0.1678	8.1744	2.6355	3.9606	7.0937
-0.586	0.8981	0.1737	1.5018	5.215	6.1367	4.2668	7.4559	9.6615	7.6915	10.6862	12.5296	11.5314	0.0589	-1.0719	0.583	-0.1178	8.1303	2.6649	3.9488	7.0996
-0.4859	1.0159	0.3269	1.6255	5.3711	6.3222	4.3935	7.6032	9.8264	7.7357	10.7746	12.6651	11.5314	0.0236	-1.0807	0.4653	-0.0471	8.0684	2.715	3.9518	7.135
-0.3975	1.1573	0.4594	1.7256	5.5095	6.4547	4.4435	7.718	9.9736	7.771	10.8629	12.7976	11.5755	-0.0059	-1.063	0.3092	0.0206	8.0095	2.7533	3.9753	7.1526
-0.3033	1.2809	0.5948	1.8434	5.6567	6.6196	4.5495	7.8564	10.1415	7.827	10.9571	12.9301	11.605	-0.0471	-1.0454	0.1649	0.0854	7.9624	2.821	3.9871	7.1821
-0.2091	1.4076	0.7656	2.02	5.8393	6.7845	4.6909	7.9977	10.327	7.8917	11.0514	13.0685	11.6374	-0.0618	-1.0336	0.053	0.1266	7.9447	2.9093	4.0224	7.2262
-0.1207	1.5047	0.904	2.1526	5.9836	6.9553	4.788	8.1185	10.4889	7.9683	11.1338	13.1922	11.6433	-0.0913	-1.0218	-0.1148	0.1796	7.8976	2.9977	4.0372	7.2704
-0.0147	1.652	1.0542	2.3116	6.1514	7.1585	4.9147	8.2539	10.6745	8.0449	11.2634	13.3364	11.7022	-0.0942	-0.9717	-0.2562	0.2002	7.8888	3.0978	4.0666	7.3234
0.0707	1.7933	1.2073	2.4559	6.3193	7.3705	5.0472	8.4041	10.86	8.1391	11.3606	13.4748	11.7257	-0.109	-0.9511	-0.4064	0.2238	7.8564	3.1832	4.0843	7.3588
0.162	1.917	1.3693	2.6031	6.5019	7.5531	5.2091	8.5572	11.0632	8.2068	11.4725	13.5956	11.7934	-0.1148	-0.9276	-0.5595	0.2326	7.8328	3.3098	4.1284	7.4029
0.2474	2.0819	1.5725	2.8063	6.7198	7.7946	5.374	8.7369	11.2928	8.3246	11.6079	13.7958	11.8612	-0.1031	-0.8863	-0.7303	0.2002	7.8387	3.4629	4.1549	7.4795
0.3563	2.2321	1.7521	2.9506	6.9082	8.0272	5.5154	8.8959	11.5225	8.4453	11.7257	13.9489	11.9495	-0.0883	-0.907	-0.8363	0.1737	7.8476	3.622	4.2227	7.5502
0.48	2.3911	1.9258	3.142	7.1173	8.2893	5.7097	9.0726	11.7758	8.5749	11.817	14.108	11.9878	-0.0618	-0.8922	-1.01	0.1266	7.8417	3.7898	4.2344	7.6032
0.6066	2.5383	2.1526	3.3393	7.3116	8.5396	5.8658	9.2816	12.0467	8.6956	11.9966	14.3406	12.1262	-0.0294	-0.9099	-1.1484	0.0648	7.88	3.9959	4.3552	7.7209
0.7332	2.7238	2.3734	3.5424	7.5354	8.8164	6.0395	9.473	12.3029	8.8458	12.1468	14.529	12.2145	0.0029	-0.9217	-1.2338	0.0088	7.9065	4.2079	4.4141	7.8417
0.8628	2.9005	2.6237	3.7309	7.7651	9.1167	6.2251	9.6585	12.5826	8.9636	12.2852	14.7146	12.2823	0.0206	-0.9482	-1.3369	-0.0383	7.9153	4.4082	4.4877	7.9359
1.0012	3.0654	2.8534	3.9017	7.9712	9.3965	6.3929	9.8588	12.8741	9.0784	12.4442	14.9148	12.3618	0.0501	-0.957	-1.4252	-0.0883	7.9536	4.6173	4.5613	8.0684
1.1514	3.2804	3.1096	4.1226	8.2245	9.7086	6.5401	10.1032	13.1774	9.2375	12.6209	15.115	12.4354	0.0559	-0.9717	-1.4517	-0.1355	7.9801	4.8469	4.6173	8.2245
1.3546	3.5218	3.354	4.314	8.4807	10.0237	6.7198	10.2946	13.4542	9.3435	12.7917	15.3123	12.5355	0.0883	-1.0071	-1.4488	-0.1708	8.0213	5.0442	4.7233	8.3482
1.5136	3.7545	3.5984	4.4847	8.7015	10.2828	6.8493	10.4831	13.7369	9.473	12.9389	15.4831	12.5856	0.1031	-0.9776	-1.4076	-0.2061	8.0125	5.2297	4.788	8.4542
1.6844	3.9724	3.8634	4.6526	8.9253	10.5832	6.9818	10.6951	14.0108	9.5525	13.0773	15.6745	12.6415	0.1148	-0.9482	-1.3663	-0.2297	8.0213	5.4212	4.8558	8.569
1.8375	4.1785	4.1049	4.8469	9.1697	10.8747	7.1173	10.8747	14.2846	9.6468	13.2187	15.8159	12.6592	0.1443	-0.9452	-1.2603	-0.2621	8.0478	5.589	4.9176	8.7015
2.0289	4.3964	4.3346	5.0236	9.37	11.1544	7.241	11.0543	14.5349	9.7351	13.3541	15.9808	12.7063	0.1502	-0.904	-1.1219	-0.2856	8.0272	5.7215	4.9971	8.8252
2.2321	4.6408	4.6114	5.2003	9.5849	11.4165	7.3499	11.231	14.7735	9.8234	13.4513	16.1103	12.721	0.1561	-0.8451	-0.9423	-0.3004	7.9977	5.8776	5.006	8.9106
2.3793	4.8352	4.8352	5.3475	9.7911	11.6757	7.4677	11.3812	14.9884	9.8882	13.5661	16.2458	12.7475	0.162	-0.7803	-0.7686	-0.3121	7.9889	5.96	5.0707	8.9813
2.5707	5.0266	5.0855	5.5095	9.9648	11.9289	7.559	11.5019	15.2063	9.953	13.6398	16.3665	12.7475	0.159	-0.7244	-0.5713	-0.3092	7.933	6.0248	5.0648	9.0667
2.7503	5.1915	5.3151	5.6744	10.1444	12.1527	7.6856	11.6491	15.4301	10.0178	13.7458	16.5108	12.7887	0.1531	-0.6626	-0.3887	-0.2945	7.877	6.0778	5.0884	9.1373
2.9358	5.3829	5.5654	5.8157	10.2975	12.3912	7.7975	11.7669	15.6039	10.0737	13.84	16.608	12.7799	0.1443	-0.5978	-0.1796	-0.2709	7.8122	6.1102	5.0855	9.1815
3.1302	5.589	5.7981	6.0189	10.4713	12.6297	7.933	11.9142	15.8041	10.1621	13.9166	16.7258	12.7858	0.1296	-0.53	-0.0383	-0.268	7.7681	6.1397	5.056	9.2492
3.301	5.7451	6.0425	6.2044	10.6097	12.8506	8.0596	12.0113	15.9749	10.2357	14.0019	16.8259	12.8064	0.1178	-0.4653	0.0942	-0.2474	7.6974	6.1338	5.0177	9.3052
3.5071	5.9247	6.2839	6.3693	10.7687	13.0685	8.198	12.1409	16.1427	10.3034	14.0785	16.9113	12.7917	0.0972	-0.4064	0.2002	-0.215	7.6385	6.122	4.9706	9.3376
3.7103	6.0955	6.5431	6.5843	10.9277	13.3041	8.3511	12.2646	16.34	10.3947	14.1816	17.0173	12.827	0.0883	-0.3563	0.2267	-0.1767	7.5855	6.1367	4.9736	9.3935
3.9164	6.2898	6.7934	6.7963	11.0897	13.5279	8.5042	12.3735	16.5226	10.4831	14.2257	17.0939	12.8329	0.0618	-0.3416	0.1855	-0.1296	7.5089	6.1338	4.9176	9.423
4.0401	6.4312	7.0437	6.9642	11.2074	13.731	8.6426	12.4737	16.661	10.5331	14.2581	17.1439	12.8094	0.0383	-0.3445	0.1148	-0.0736	7.4441	6.1102	4.8322	9.4377
4.261	6.5961	7.2881	7.1585	11.3429	13.9401	8.7663	12.5767	16.7552	10.5596	14.3494	17.1969	12.774	0.0206	-0.3416	0.0265	-0.0471	7.3735	6.1073	4.7792	9.4465
4.4435	6.7551	7.5354	7.3116	11.4813	14.158	8.8988	12.6592	16.9025	10.592	14.3671	17.2381	12.724	-0.0147	-0.374	-0.1325	0.0177	7.2469	6.0955	4.6909	9.4613
4.6143	6.8964	7.8034	7.4824	11.5932	14.3583	9.0166	12.7505	17.0467	10.6421	14.4083	17.2764	12.6886	-0.0206	-0.4093	-0.2739	0.053	7.1791	6.0984	4.6202	9.4907
4.8234	7.0289	8.0537	7.6444	11.6698	14.5526	9.1079	12.8388	17.1528	10.6273	14.423	17.2823	12.6179	-0.0324	-0.4947	-0.4594	0.0883	7.0761	6.1102	4.5289	9.4878
4.9912	7.1497	8.2952	7.8122	11.7846	14.7234	9.2051	12.9065	17.2647	10.6362	14.4584	17.3	12.562	-0.0677	-0.5595	-0.6243	0.1296	6.9789	6.1073	4.4435	9.4995
5.1797	7.2822	8.5455	7.9565	11.8877	14.9148	9.2993	12.9831	17.3589	10.6597	14.5173	17.3147	12.5208	-0.0736	-0.6478	-0.7774	0.1649	6.8964	6.1043	4.367	9.5231
5.3652	7.4029	8.8193	8.1096	11.9848	15.1327	9.4318	13.0655	17.4708	10.6892	14.529	17.3235	12.4619	-0.0942	-0.7362	-0.8893	0.2032	6.8052	6.119	4.2757	9.5349
5.5419	7.5178	9.0726	8.2598	12.0879	15.2976	9.5201	13.1392	17.568	10.6892	14.5703	17.3412	12.4295	-0.106	-0.8481	-0.9865	0.2267	6.7551	6.1485	4.2315	9.579
5.7568	7.6267	9.3376	8.3923	12.1645	15.4949	9.6055	13.2157	17.6533	10.698	14.5791	17.3353	12.3824	-0.1178	-0.9423	-1.0513	0.2739	6.6726	6.1485	4.1579	9.6085
5.9483	7.7533	9.5849	8.5543	12.2823	15.6804	9.7086	13.2776	17.727	10.7069	14.6056	17.3265	12.347	-0.1531	-1.0277	-1.0513	0.3004	6.6049	6.1514	4.1226	9.632
6.1544	7.8593	9.8765	8.6868	12.3588	15.8748	9.7969	13.3423	17.8006	10.7186	14.6115	17.297	12.2823	-0.1708	-1.1043	-1.0247	0.3445	6.546	6.1662	4.0813	9.6585
6.3664	7.986	10.1415	8.8164	12.453	16.0367	9.8853	13.3895	17.8624	10.6921	14.6174	17.2735	12.244	-0.1943	-1.1631	-0.9835	0.3916	6.4636	6.2074	4.0342	9.685
6.5666	8.0949	10.4271	8.9636	12.5502	16.2046	9.9736	13.4483	17.9213	10.7363	14.6292	17.2588	12.2234	-0.2326	-1.1955	-0.9099	0.4476	6.3988	6.228	4.0165	9.7587
6.7875	8.2098	10.7069	9.0961	12.6415	16.4019	10.059	13.4984	17.9743	10.751	14.6733	17.244	12.2057	-0.2444	-1.222	-0.8068	0.4918	6.3517	6.2781	4.0254	9.8117
7.0024	8.3423	10.9895	9.2286	12.7387	16.5874	10.1326	13.5838	18.0332	10.7775	14.6881	17.2028	12.1733	-0.2856	-1.2309	-0.6684	0.5418	6.2928	6.3458	3.9989	9.8823
7.2469	8.4983	11.2722	9.3582	12.8624	16.7641	10.2386	13.6869	18.098	10.8129	14.7234	17.2175	12.191	-0.3062	-1.1897	-0.5065	0.6125	6.2722	6.4106	3.9989	9.9825
7.4677	8.6426	11.5549	9.5025	12.9743	16.9378	10.324	13.7251	18.1569	10.8394	14.7528	17.1822	12.1674	-0.3534	-1.1897	-0.3239	0.6802	6.2251	6.4783	3.9812	10.0826
7.6915	8.7751	11.8288	9.6232	13.1068	17.1174	10.4271	13.8223	18.2217	10.9041	14.8382	17.1793	12.2116	-0.3769	-1.1514	-0.162	0.745	6.2103	6.5843	3.993	10.2151
7.9359	8.9253	12.0997	9.7881	13.2157	17.2794	10.5243	13.9018	18.2482	10.9513	14.8824	17.1851	12.2381	-0.3916	-1.0748	0.0766	0.7892	6.2015	6.6609	4.0048	10.3182
8.1303	9.0461	12.3264	9.903	13.3335	17.4296	10.6097	13.9754	18.2953	11.0043	14.9354	17.1704	12.2528	-0.4358	-1.0601	0.2238	0.8569	6.1985	6.7639	3.9547	10.4477
8.3393	9.1638	12.5708	10.0031	13.4483	17.5827	10.6833	14.0756	18.3512	11.069	14.9914	17.1616	12.2911	-0.4446	-1.0395	0.4093	0.9011	6.1897	6.8582	3.9576	10.5832
8.5248	9.3022	12.8211	10.1238	13.5485	17.7211	10.7834	14.1345	18.3807	11.1221	15.0473	17.1704	12.3411	-0.477	-0.9776	0.5477	0.9335	6.2044	6.9818	3.9724	10.6892
8.6927	9.3788	13.0066	10.2033	13.6515	17.8389	10.8394	14.1904	18.4101	11.1898	15.0826	17.1469	12.3735	-0.4947	-0.9835	0.6626	0.9776	6.2133	7.0525	3.9105	10.754
8.8605	9.4907	13.1892	10.3064	13.7752	17.9655	10.9071	14.2994	18.4219	11.2663	15.171	17.138	12.4265	-0.5153	-0.9865	0.745	0.9953	6.2339	7.1497	3.9223	10.8394
8.9783	9.5761	13.3364	10.3888	13.8282	18.0509	10.9866	14.3376	18.4396	11.3017	15.2004	17.1263	12.4766	-0.5183	-0.9894	0.8157	1.013	6.2604	7.1968	3.9223	10.9365
9.1226	9.688	13.5279	10.5066	13.946	18.1834	11.0897	14.426	18.4926	11.3989	15.2652	17.1645	12.562	-0.5124	-0.9835	0.8775	0.9982	6.3428	7.3175	3.9547	10.9837
9.2257	9.7852	13.7075	10.6097	14.0226	18.2923	11.178	14.4849	18.5515	11.5107	15.3182	17.1586	12.6268	-0.5124	-0.9482	0.9335	0.9894	6.3635	7.3823	3.9694	11.0484
9.2728	9.8264	13.8076	10.6803	14.0873	18.3689	11.2693	14.5261	18.5809	11.5667	15.3359	17.1675	12.6975	-0.5065	-0.9747	0.9276	0.9865	6.3988	7.4118	3.9871	11.0484
9.3611	9.8735	13.9578	10.7569	14.158	18.4514	11.3841	14.5732	18.6457	11.6845	15.3742	17.191	12.774	-0.5006	-0.9982	0.9276	0.9776	6.4783	7.4441	4.0342	11.0632
9.4495	9.9471	14.0962	10.86	14.2375	18.5868	11.5137	14.6557	18.7046	11.8111	15.4301	17.247	12.8977	-0.4859	-0.9894	0.9129	0.9659	6.5755	7.4795	4.0872	11.0838
9.473	10.006	14.1992	10.966	14.3023	18.6958	11.6138	14.6939	18.7782	11.9583	15.4743	17.3206	13.039	-0.48	-1.0218	0.8657	0.9246	6.6697	7.4913	4.2021	11.0779
9.5084	10.0502	14.32	11.0484	14.3406	18.8283	11.7463	14.7558	18.8695	12.0702	15.5126	17.3677	13.145	-0.4711	-1.0807	0.8157	0.9129	6.7551	7.4677	4.2727	11.0632
9.5408	10.059	14.4201	11.1456	14.4024	18.9225	11.8877	14.7793	18.9549	12.1998	15.5391	17.4296	13.2687	-0.4535	-1.1219	0.7627	0.8863	6.8964	7.4559	4.3728	11.0249
9.5525	10.1032	14.4849	11.2163	14.4201	19.0285	11.9819	14.8	19.0315	12.297	15.5567	17.4914	13.4071	-0.4181	-1.172	0.6773	0.8392	7.0319	7.4088	4.5083	10.9895
9.5525	10.1326	14.5497	11.3046	14.4613	19.1463	12.1144	14.8117	19.108	12.4265	15.5715	17.5415	13.5161	-0.4064	-1.222	0.6272	0.7862	7.1556	7.3617	4.6467	10.9365
9.529	10.1444	14.6056	11.34	14.4702	19.1905	12.2086	14.8147	19.1375	12.5149	15.5597	17.5503	13.625	-0.371	-1.3163	0.48	0.7391	7.3057	7.3087	4.791	10.8747
9.4819	10.1326	14.6086	11.3547	14.4672	19.2435	12.2911	14.8029	19.214	12.6474	15.542	17.5856	13.7251	-0.3534	-1.4635	0.321	0.7038	7.4618	7.2145	4.9353	10.7952
9.42	10.112	14.6027	11.3782	14.4142	19.2494	12.3411	14.747	19.2022	12.671	15.5096	17.6033	13.8312	-0.3298	-1.5695	0.1443	0.6419	7.5825	7.1114	5.0796	10.7186
9.367	10.059	14.5732	11.3753	14.3524	19.2788	12.3912	14.6998	19.2229	12.774	15.4831	17.6003	13.9107	-0.3092	-1.7344	-0.0972	0.6007	7.7592	7.0319	5.2003	10.6421
9.2669	10.0119	14.5526	11.3753	14.317	19.2994	12.4265	14.6763	19.2494	12.8476	15.4596	17.6268	14.0226	-0.2945	-1.9258	-0.3887	0.5595	7.9389	6.9671	5.3505	10.6038
9.2051	9.9766	14.5173	11.3135	14.2729	19.3024	12.4795	14.5997	19.2229	12.9242	15.4301	17.6357	14.1786	-0.268	-2.1143	-0.6626	0.5153	8.1332	6.8729	5.5183	10.539
9.0961	9.9236	14.4495	11.287	14.1934	19.2906	12.509	14.5644	19.2582	12.9684	15.4331	17.6622	14.2994	-0.2562	-2.3234	-0.9452	0.4888	8.3452	6.7904	5.6479	10.5154
9.0196	9.8794	14.4083	11.2457	14.1698	19.3024	12.5031	14.529	19.2876	13.0714	15.4066	17.671	14.4378	-0.2326	-2.5236	-1.2633	0.4505	8.5572	6.6962	5.8069	10.4948
8.9665	9.8676	14.3583	11.1927	14.1521	19.3171	12.5561	14.4878	19.3024	13.1804	15.4154	17.727	14.6056	-0.2032	-2.7238	-1.5489	0.4034	8.8105	6.6079	5.9689	10.4978
8.9106	9.8382	14.3524	11.1486	14.1227	19.3083	12.5856	14.476	19.3318	13.2776	15.4301	17.7623	14.7882	-0.1855	-2.9417	-1.808	0.3563	9.0461	6.5019	6.1338	10.4683
8.8664	9.8411	14.3259	11.1544	14.0932	19.3348	12.6327	14.4613	19.3789	13.3953	15.4802	17.8506	15.009	-0.1413	-3.089	-1.9641	0.2797	9.3258	6.4223	6.3104	10.4801
8.8488	9.8647	14.3141	11.1221	14.1138	19.3495	12.7063	14.4849	19.4437	13.5544	15.5214	17.9449	15.2299	-0.1001	-3.248	-2.1202	0.1943	9.5997	6.3635	6.4871	10.4919
8.8546	9.8941	14.3435	11.1279	14.1345	19.4054	12.7828	14.5055	19.5085	13.7016	15.6068	18.0715	15.4978	-0.053	-3.3746	-2.182	0.0942	9.8882	6.3428	6.708	10.5331
8.8576	9.8882	14.3376	11.1544	14.1492	19.4673	12.8506	14.5232	19.5968	13.8635	15.6451	18.1716	15.7216	-0.0147	-3.4806	-2.288	0.0206	10.1768	6.2898	6.8699	10.5626
8.8694	9.9206	14.373	11.1544	14.1668	19.4938	12.933	14.585	19.6881	14.0255	15.7423	18.2806	15.9602	0.0088	-3.5483	-2.3587	-0.0442	10.4271	6.2692	7.0289	10.592
8.9047	9.953	14.4024	11.1898	14.214	19.5468	13.0361	14.6321	19.7558	14.1934	15.8247	18.4013	16.1987	0.0589	-3.5631	-2.3999	-0.1266	10.6803	6.2781	7.1762	10.6303
8.9459	9.9589	14.4142	11.1868	14.2169	19.5703	13.0979	14.6733	19.8265	14.3406	15.9219	18.4926	16.4136	0.0766	-3.6013	-2.4441	-0.1531	10.913	6.2604	7.3175	10.6656
9.0196	9.9854	14.4672	11.2722	14.2817	19.6292	13.2128	14.7381	19.9178	14.4996	15.9896	18.6369	16.6551	0.1001	-3.569	-2.503	-0.1855	11.1397	6.2839	7.4353	10.7157
9.0343	9.9766	14.4967	11.2693	14.32	19.6646	13.2952	14.7941	19.9826	14.6468	16.0662	18.7252	16.8406	0.0913	-3.5837	-2.5825	-0.1826	11.3164	6.3163	7.5443	10.7716
9.1108	9.9942	14.532	11.3164	14.3465	19.7058	13.3747	14.853	20.0503	14.7793	16.1751	18.843	17.0202	0.1001	-3.5189	-2.6149	-0.2002	11.4931	6.3517	7.6002	10.8423
9.1756	10.0325	14.5909	11.3429	14.3995	19.7588	13.4719	14.9295	20.1593	14.9354	16.2811	18.9814	17.2293	0.0883	-3.4453	-2.6797	-0.1914	11.655	6.44	7.6709	10.9159
9.2522	10.0296	14.638	11.393	14.4584	19.8118	13.5691	15.0267	20.2299	15.1003	16.3783	19.1227	17.4148	0.0972	-3.3982	-2.7415	-0.1767	11.817	6.5431	7.7121	11.016
9.3376	10.0679	14.6939	11.4607	14.5025	19.8677	13.6574	15.1062	20.3242	15.2358	16.4873	19.2523	17.5915	0.0883	-3.3245	-2.8475	-0.159	11.9348	6.6461	7.7062	11.1132
9.4318	10.1415	14.747	11.5255	14.5703	19.9208	13.7575	15.2181	20.4478	15.3859	16.6345	19.429	17.777	0.0559	-3.248	-2.927	-0.1443	12.0496	6.7639	7.7239	11.2369
9.529	10.168	14.7882	11.602	14.6498	19.9826	13.8429	15.3094	20.545	15.5155	16.7552	19.5733	17.9154	0.0648	-3.1479	-3.0477	-0.1148	12.1439	6.8964	7.7121	11.3282
9.579	10.2004	14.8147	11.6491	14.7175	20.015	13.9136	15.4213	20.6275	15.6362	16.8966	19.7352	18.0803	0.0353	-3.142	-3.2509	-0.0677	12.1939	7.0437	7.6886	11.4371
9.6497	10.2828	14.8677	11.7228	14.8206	20.0768	13.999	15.545	20.76	15.7776	17.0497	19.906	18.2128	0.0147	-3.0684	-3.4423	-0.0383	12.2558	7.2145	7.6503	11.5785
9.741	10.327	14.9325	11.7846	14.9207	20.1063	14.0756	15.7069	20.8601	15.8807	17.2058	20.0945	18.3365	-0.0029	-3.036	-3.672	0.0177	12.294	7.3911	7.609	11.7022
9.8205	10.3653	14.9943	11.8376	14.9855	20.1387	14.1345	15.8159	20.9661	15.9925	17.3353	20.2417	18.4249	-0.053	-2.9977	-3.9429	0.0883	12.3205	7.5502	7.5472	11.8141
9.8352	10.4212	14.9943	11.8759	15.0768	20.1769	14.1963	15.9307	21.078	16.0662	17.5061	20.3919	18.5073	-0.0942	-3.0212	-4.2521	0.1708	12.3176	7.7239	7.4824	11.9377
9.8941	10.4566	15.0296	11.9142	15.1474	20.1858	14.2199	16.0485	21.1663	16.1192	17.6357	20.5185	18.5397	-0.1413	-2.9771	-4.5407	0.2739	12.2675	7.8476	7.3853	12.0467
9.9059	10.4978	15.0208	11.9259	15.2152	20.1975	14.2375	16.1545	21.237	16.1575	17.7859	20.6363	18.5574	-0.2032	-2.9771	-4.8528	0.3916	12.2292	8.0036	7.3028	12.1645
9.8823	10.4713	14.9707	11.9112	15.221	20.1769	14.1992	16.2193	21.3077	16.128	17.8771	20.7188	18.5191	-0.2709	-2.9947	-5.109	0.533	12.1409	8.1244	7.1791	12.2204
9.8558	10.4683	14.9384	11.9053	15.2652	20.1563	14.1727	16.3135	21.3371	16.1044	17.9949	20.8189	18.4926	-0.3534	-3.0065	-5.374	0.6802	12.0467	8.2333	7.0761	12.3058
9.7911	10.4271	14.8618	11.8435	15.2534	20.068	14.0815	16.3489	21.3725	16.0191	18.0479	20.863	18.4072	-0.4446	-3.0448	-5.6155	0.8598	11.9112	8.301	6.9141	12.3618
9.7439	10.377	14.7764	11.7875	15.2387	20.0268	14.0049	16.3901	21.3784	15.9248	18.1304	20.8984	18.3041	-0.5212	-3.1007	-5.8187	1.0306	11.761	8.3776	6.7875	12.4059
9.6556	10.2799	14.6616	11.6992	15.2122	19.9355	13.8753	16.4048	21.3695	15.7776	18.1392	20.9013	18.1451	-0.6213	-3.1714	-5.9541	1.225	11.5844	8.4041	6.599	12.4177
9.5673	10.2445	14.585	11.6226	15.1887	19.8913	13.7458	16.4372	21.3695	15.6627	18.2099	20.919	17.992	-0.6802	-3.192	-6.0366	1.3752	11.4312	8.4777	6.4547	12.4265
9.4495	10.1798	14.4348	11.5049	15.1651	19.8	13.6132	16.4608	21.3401	15.4978	18.2629	20.9102	17.8477	-0.7656	-3.245	-6.0837	1.5136	11.2369	8.519	6.3193	12.4413
9.3376	10.0826	14.3288	11.4106	15.1474	19.7087	13.4896	16.4725	21.3313	15.3477	18.2482	20.8984	17.6798	-0.8304	-3.2833	-6.0336	1.6343	11.0308	8.5455	6.1338	12.4383
9.2257	9.9913	14.1875	11.2899	15.1062	19.6292	13.3423	16.4313	21.2871	15.1887	18.2688	20.8689	17.4943	-0.8657	-3.3069	-5.9453	1.7079	10.8394	8.5837	5.9748	12.4295
9.1197	9.9353	14.0756	11.1809	15.0355	19.5379	13.1922	16.4284	21.2606	15.0179	18.26	20.8513	17.3265	-0.8893	-3.3304	-5.804	1.7815	10.645	8.5896	5.8216	12.3912
8.9577	9.8617	13.9578	11.0749	15.0031	19.482	13.0508	16.4136	21.2282	14.8382	18.2511	20.8248	17.1616	-0.9158	-3.3658	-5.6273	1.8198	10.4831	8.625	5.6803	12.3529
8.8635	9.7969	13.8341	10.9571	14.9825	19.4143	12.9448	16.4048	21.1987	14.7116	18.2364	20.8159	17.0026	-0.9187	-3.3599	-5.4064	1.8169	10.3182	8.6868	5.536	12.3088
8.728	9.7086	13.6928	10.8335	14.9354	19.32	12.8005	16.3871	21.1575	14.5143	18.204	20.757	16.8082	-0.9099	-3.3746	-5.1414	1.7992	10.1533	8.7339	5.3475	12.2587
8.572	9.6262	13.5573	10.6862	14.8942	19.2317	12.6415	16.3459	21.0927	14.3435	18.1274	20.6952	16.6404	-0.8981	-3.3864	-4.8705	1.7874	9.9677	8.7663	5.1767	12.1586
8.4247	9.5967	13.4189	10.5184	14.8235	19.1404	12.4678	16.2929	21.0427	14.1462	18.0951	20.6628	16.4784	-0.8922	-3.4247	-4.6084	1.7432	9.8205	8.8075	5.0177	12.1085
8.251	9.4789	13.2481	10.3064	14.7499	19.0079	12.2764	16.2075	20.9602	13.9077	17.9802	20.5509	16.2399	-0.8746	-3.3923	-4.3346	1.7344	9.5849	8.8164	4.8145	11.9937
8.0743	9.3847	13.0685	10.1091	14.6616	18.8666	12.0467	16.1339	20.8395	13.6486	17.8654	20.4567	16.022	-0.8657	-3.4306	-4.0637	1.7109	9.3788	8.8134	4.6084	11.8494
7.9094	9.2993	12.9006	9.9	14.5673	18.7488	11.8258	16.0632	20.7364	13.3953	17.7859	20.3242	15.7864	-0.8363	-3.4247	-3.778	1.6608	9.1756	8.8281	4.4082	11.7463
7.718	9.2168	12.7122	9.6615	14.5143	18.6074	11.6403	15.969	20.6216	13.1568	17.674	20.2034	15.5302	-0.8304	-3.4306	-3.5366	1.6372	8.943	8.8281	4.2109	11.605
7.5502	9.102	12.5178	9.42	14.3789	18.4219	11.3723	15.8541	20.4861	12.8624	17.5267	20.0562	15.2623	-0.8068	-3.4217	-3.2715	1.6137	8.7104	8.784	4.0136	11.4548
7.3823	9.0284	12.3353	9.2021	14.267	18.2894	11.1427	15.7275	20.3507	12.6121	17.3942	19.9355	15.0149	-0.8157	-3.4011	-3.036	1.5901	8.4866	8.7457	3.8428	11.337
7.1938	8.8988	12.1056	8.9194	14.1492	18.1098	10.8924	15.6127	20.1917	12.3353	17.2352	19.7676	14.7411	-0.8127	-3.3658	-2.8122	1.599	8.2274	8.7045	3.6632	11.1751
7.0378	8.7958	11.9318	8.6603	14.0167	17.9596	10.6597	15.4713	20.0503	12.0555	17.0939	19.6174	14.4878	-0.801	-3.3334	-2.5736	1.5842	7.9977	8.6485	3.5307	11.0514
6.8729	8.6839	11.7198	8.4365	13.9136	17.78	10.4389	15.3565	19.9001	11.7993	16.9643	19.4761	14.2199	-0.8127	-3.3128	-2.3499	1.6048	7.771	8.5572	3.3658	10.9071
6.7227	8.5896	11.5373	8.1833	13.7723	17.6003	10.2151	15.2004	19.7264	11.5107	16.7876	19.2994	13.9431	-0.8422	-3.3098	-2.1967	1.6372	7.5089	8.4483	3.2009	10.7451
6.5755	8.519	11.3723	7.9742	13.6869	17.4619	10.0414	15.0738	19.6233	11.2958	16.6492	19.1522	13.7281	-0.8569	-3.2656	-2.0348	1.6637	7.3234	8.3452	3.0742	10.6303
6.4282	8.4394	11.2398	7.7857	13.5897	17.3353	9.8676	14.9442	19.4967	11.0897	16.499	19.0462	13.5131	-0.851	-3.2215	-1.864	1.6902	7.1438	8.2274	2.9947	10.486
6.3399	8.3688	11.1014	7.6032	13.5131	17.2087	9.7115	14.85	19.4113	10.9159	16.3812	18.9461	13.3217	-0.8775	-3.1449	-1.7403	1.7344	6.9642	8.1126	2.9182	10.3623
6.2545	8.3423	11.0131	7.4736	13.4189	17.1557	9.5673	14.7764	19.3406	10.7687	16.2811	18.8636	13.1745	-0.8981	-3.0566	-1.6402	1.7698	6.7904	8.0242	2.8563	10.2593
6.1838	8.2952	10.9277	7.3411	13.4012	17.088	9.4907	14.6763	19.3083	10.6362	16.1987	18.8165	13.0538	-0.9246	-2.9594	-1.5518	1.8169	6.6285	7.93	2.821	10.1739
6.1308	8.2716	10.8806	7.2675	13.3747	17.0615	9.4171	14.6498	19.32	10.5832	16.184	18.7841	12.9536	-0.9364	-2.874	-1.4871	1.8434	6.4842	7.8328	2.7945	10.0973
6.1249	8.3246	10.9071	7.2351	13.416	17.088	9.4112	14.6881	19.3554	10.5508	16.1722	18.8224	12.9006	-0.9482	-2.768	-1.437	1.8728	6.4017	7.827	2.7857	10.0855
6.122	8.3599	10.9336	7.1997	13.4542	17.1351	9.4082	14.7116	19.3937	10.5302	16.1869	18.8724	12.8889	-0.96	-2.659	-1.3781	1.914	6.2957	7.771	2.8004	10.0826
6.0955	8.3982	10.9542	7.2027	13.5337	17.2175	9.4289	14.7764	19.4938	10.5331	16.2487	18.9372	12.8594	-0.9894	-2.5471	-1.3781	1.97	6.2044	7.7622	2.7916	10.1091
6.1485	8.4866	11.019	7.2321	13.628	17.3383	9.5025	14.8706	19.6263	10.5626	16.3371	19.0373	12.8653	-1.0041	-2.4294	-1.3869	2.0142	6.119	7.771	2.8004	10.1709
6.1632	8.5602	11.0985	7.2557	13.7428	17.4472	9.5584	14.959	19.7382	10.5891	16.4077	19.1345	12.8682	-1.0483	-2.3027	-1.4164	2.0789	6.0307	7.8005	2.7709	10.2475
6.2398	8.6603	11.2045	7.3322	13.837	17.5827	9.6173	15.0473	19.8766	10.6332	16.5138	19.2405	12.8918	-1.0866	-2.2026	-1.49	2.1555	5.9394	7.8063	2.7503	10.2975
6.2957	8.7339	11.3076	7.4118	13.9637	17.7476	9.7057	15.1798	20.0621	10.7069	16.6286	19.3465	12.9065	-1.1308	-2.1143	-1.5636	2.2203	5.8658	7.8564	2.7091	10.38
6.3929	8.8223	11.4607	7.5354	14.1021	17.9213	9.8205	15.3359	20.2299	10.807	16.7346	19.4908	12.9242	-1.1455	-2.0318	-1.6461	2.2733	5.8069	7.9477	2.6679	10.4654
6.4636	8.9194	11.5932	7.6414	14.2493	18.0921	9.9324	15.4448	20.3978	10.8688	16.8583	19.6263	12.9772	-1.1985	-1.9641	-1.8228	2.3587	5.7421	7.986	2.6325	10.5272
6.5814	9.0225	11.7581	7.8122	14.3936	18.2806	10.0796	15.6068	20.5804	10.9837	16.9937	19.7676	13.0096	-1.2132	-1.9023	-1.97	2.4205	5.695	8.0596	2.5972	10.5832
6.6815	9.0961	11.8994	7.9683	14.5349	18.4661	10.221	15.7481	20.7835	11.0867	17.1027	19.906	13.092	-1.2633	-1.8816	-2.1555	2.5	5.6391	8.142	2.5795	10.6421
6.8052	9.2051	12.0673	8.1244	14.6969	18.6663	10.3947	15.9248	20.9779	11.2281	17.2647	20.0739	13.1715	-1.3074	-1.8522	-2.397	2.5884	5.6273	8.2392	2.5766	10.7039
6.92	9.3081	12.2793	8.3364	14.8471	18.8872	10.5537	16.1044	21.1663	11.393	17.3854	20.2594	13.2628	-1.3516	-1.8434	-2.6149	2.6738	5.6008	8.3217	2.5795	10.807
7.0672	9.4112	12.4472	8.5484	15.0473	19.0904	10.7746	16.2752	21.3784	11.5402	17.5503	20.4184	13.3718	-1.3928	-1.8463	-2.8563	2.7562	5.5919	8.4188	2.5854	10.8865
7.2498	9.5054	12.6857	8.7693	15.2004	19.2965	10.9719	16.446	21.5992	11.7287	17.6887	20.5833	13.4778	-1.4341	-1.8316	-3.1214	2.8534	5.589	8.5219	2.6002	10.9601
7.4235	9.6527	12.8771	9.0137	15.4007	19.5409	11.1839	16.6463	21.823	11.9348	17.8683	20.7924	13.6398	-1.4841	-1.811	-3.3422	2.9358	5.589	8.6574	2.6414	11.0955
7.612	9.7734	13.1038	9.2846	15.595	19.7264	11.4312	16.8288	22.0233	12.1262	18.042	20.9749	13.7988	-1.5342	-1.8316	-3.5542	3.0301	5.6037	8.7869	2.7238	11.2222
7.824	9.9295	13.36	9.5908	15.8159	19.9944	11.6963	17.0791	22.2971	12.3853	18.2423	21.1781	13.9519	-1.5607	-1.7933	-3.7397	3.0713	5.6508	8.9283	2.8181	11.3547
8.0537	10.1032	13.6074	9.8794	16.0279	20.2241	11.9289	17.3059	22.4915	12.6062	18.419	21.3843	14.1168	-1.5783	-1.7698	-3.8781	3.1361	5.7127	9.0814	2.9211	11.4607
8.2952	10.2828	13.8694	10.1827	16.2428	20.439	12.2116	17.5297	22.7153	12.827	18.6192	21.5698	14.2729	-1.6107	-1.7109	-3.9459	3.192	5.7598	9.2433	3.0477	11.5961
8.5366	10.4271	14.1168	10.4889	16.4401	20.6628	12.4648	17.724	22.9361	13.0538	18.7959	21.7229	14.4083	-1.6372	-1.652	-3.9753	3.2391	5.7863	9.3729	3.1714	11.6874
8.7899	10.648	14.3583	10.7952	16.6639	20.866	12.7181	17.9272	23.1393	13.2746	18.949	21.8878	14.5408	-1.6461	-1.5401	-3.937	3.2627	5.8364	9.5349	3.3128	11.8082
9.0254	10.8011	14.585	11.1014	16.8671	21.0633	12.9536	18.1392	23.3042	13.469	19.1139	21.9938	14.6527	-1.6608	-1.4694	-3.8664	3.3039	5.854	9.6733	3.4541	11.8847
9.2433	10.9807	14.8265	11.4136	17.0497	21.2694	13.1922	18.3218	23.4838	13.6456	19.2346	22.1116	14.7263	-1.6873	-1.3604	-3.728	3.3187	5.8805	9.7999	3.5778	11.9672
9.4819	11.1456	15.0385	11.7022	17.2264	21.4196	13.4218	18.469	23.6222	13.8135	19.3642	22.1999	14.8058	-1.6902	-1.2456	-3.5307	3.3422	5.9217	9.9	3.7309	12.032
9.6998	11.2987	15.2417	11.9642	17.4119	21.5904	13.6663	18.6545	23.7636	13.9902	19.4879	22.2735	14.8824	-1.6667	-1.1337	-3.301	3.3187	5.9541	9.9942	3.8781	12.082
9.9147	11.443	15.4448	12.2469	17.565	21.7465	13.8694	18.8165	23.8902	14.1992	19.5939	22.3501	14.9855	-1.6667	-0.9894	-3.033	3.298	6.0042	10.1002	4.0342	12.1409
10.1533	11.6197	15.6539	12.5237	17.7329	21.8996	14.0844	18.9726	24.0433	14.3406	19.7028	22.4326	15.0974	-1.6431	-0.8451	-2.7209	3.2539	6.0749	10.1739	4.1962	12.1645
10.3623	11.7434	15.8335	12.7711	17.8742	22.0645	14.2729	19.108	24.167	14.5261	19.7794	22.5032	15.1857	-1.6078	-0.6714	-2.3764	3.1861	6.1485	10.2475	4.3552	12.1645
10.5979	11.9201	16.0632	13.0331	18.0538	22.2412	14.5055	19.2906	24.323	14.7381	19.9001	22.6092	15.3094	-1.5754	-0.4741	-2.0053	3.1066	6.2457	10.327	4.5348	12.2116
10.7922	12.029	16.2281	13.2658	18.1657	22.3707	14.7057	19.4054	24.4467	14.8971	19.9561	22.6829	15.4095	-1.546	-0.2827	-1.6461	3.0448	6.3399	10.3918	4.6997	12.1851
10.9984	12.188	16.4343	13.5161	18.3306	22.5386	14.9266	19.5615	24.6087	15.1121	20.065	22.7771	15.5479	-1.5077	-0.0736	-1.222	2.9712	6.4488	10.4595	4.8764	12.2116
11.2045	12.3235	16.5874	13.7134	18.4514	22.6858	15.1033	19.6852	24.7324	15.3094	20.1328	22.8478	15.6863	-1.4723	0.1325	-0.8098	2.9211	6.5607	10.5096	5.0442	12.191
11.3871	12.4854	16.7729	13.9401	18.6398	22.8271	15.3329	19.8589	24.9031	15.5126	20.2358	22.9744	15.8512	-1.4458	0.3327	-0.3916	2.8652	6.6697	10.5802	5.2003	12.1969
11.5638	12.6238	16.9054	14.0991	18.7429	22.9332	15.4802	19.9443	25.0268	15.651	20.2829	23.0303	15.9572	-1.4193	0.5271	-0.0059	2.8239	6.7787	10.6008	5.3328	12.188
11.7228	12.7622	17.0732	14.2729	18.8783	23.0716	15.6539	20.068	25.1652	15.8512	20.3625	23.1039	16.1133	-1.4076	0.7156	0.4181	2.7886	6.9141	10.7069	5.4683	12.191
11.8553	12.9183	17.1851	14.3936	19.0285	23.2011	15.8188	20.1681	25.2683	15.9837	20.4037	23.1864	16.2487	-1.3987	0.8598	0.7715	2.7621	6.9995	10.7245	5.6008	12.1792
11.9907	13.0331	17.2912	14.5379	19.1227	23.2806	15.9337	20.2476	25.3743	16.1162	20.4478	23.2129	16.3547	-1.3811	0.9806	1.1131	2.7327	7.0554	10.7599	5.6921	12.1762
12.085	13.1539	17.3765	14.6086	19.214	23.369	16.0367	20.3242	25.445	16.2105	20.4891	23.2512	16.4372	-1.3752	1.1131	1.3958	2.7179	7.1173	10.8099	5.7657	12.1439
12.1821	13.2834	17.4619	14.7087	19.323	23.4485	16.1516	20.3801	25.5156	16.3282	20.5067	23.2394	16.499	-1.3604	1.2191	1.6726	2.6885	7.1791	10.8364	5.8187	12.135
12.2852	13.3718	17.5503	14.7617	19.3966	23.525	16.237	20.4155	25.5745	16.4343	20.5067	23.263	16.5727	-1.3457	1.3163	1.8816	2.6532	7.2115	10.8688	5.8658	12.1056
12.3411	13.4542	17.6062	14.8029	19.4732	23.5633	16.2959	20.439	25.601	16.4637	20.495	23.2365	16.6315	-1.3339	1.384	2.0053	2.6384	7.2645	10.8806	5.91	12.082
12.3883	13.5131	17.6268	14.8147	19.5203	23.6193	16.3135	20.4537	25.6275	16.5079	20.4537	23.1893	16.658	-1.3192	1.4547	2.0996	2.6149	7.2763	10.8983	5.9129	12.029
12.4324	13.5897	17.6622	14.8206	19.5556	23.6958	16.3695	20.4861	25.6423	16.5491	20.4361	23.1952	16.7199	-1.331	1.5283	2.1614	2.609	7.294	10.8953	5.9365	11.9966
12.4648	13.6221	17.6828	14.8353	19.5909	23.7135	16.3812	20.4832	25.657	16.5785	20.4272	23.1363	16.7523	-1.3222	1.6019	2.1467	2.5972	7.3057	10.8953	5.9512	11.976
12.4825	13.6427	17.7064	14.8088	19.6057	23.74	16.4136	20.4567	25.6393	16.6257	20.4007	23.0981	16.7611	-1.3222	1.6372	2.1143	2.5943	7.3381	10.8776	5.9512	11.9377
12.5002	13.6398	17.7034	14.8029	19.6263	23.7812	16.4284	20.439	25.6275	16.658	20.3831	23.0539	16.8141	-1.331	1.7197	2.076	2.5825	7.3529	10.8629	5.9188	11.9318
12.4678	13.6339	17.6975	14.7823	19.5821	23.7753	16.4372	20.3801	25.5893	16.6639	20.3124	23.0097	16.8465	-1.3222	1.7403	1.9788	2.6178	7.3735	10.8364	5.9159	11.9053
12.4943	13.6162	17.7034	14.7528	19.5674	23.7871	16.4431	20.3418	25.5716	16.7169	20.3065	22.9891	16.9142	-1.3428	1.7815	1.8699	2.6267	7.3853	10.807	5.9011	11.9289
12.4737	13.6015	17.7358	14.7204	19.5644	23.8283	16.4755	20.3006	25.5686	16.7788	20.3006	22.9862	16.9761	-1.3339	1.8463	1.7786	2.6267	7.4147	10.7893	5.8746	11.9318
12.4148	13.5485	17.6975	14.7116	19.4997	23.8225	16.4814	20.2535	25.5304	16.7935	20.2653	22.9538	17.035	-1.3604	1.8787	1.6284	2.662	7.4176	10.7157	5.804	11.9171
12.3942	13.466	17.6798	14.6292	19.4525	23.8048	16.4666	20.1799	25.4509	16.7935	20.1887	22.9008	17.0438	-1.3663	1.8993	1.4664	2.6885	7.397	10.6597	5.7274	11.9377
12.3647	13.4425	17.6445	14.6056	19.4054	23.7959	16.446	20.121	25.4008	16.7788	20.1769	22.8625	17.0644	-1.3781	1.917	1.3133	2.7091	7.3764	10.5891	5.6302	11.9525
12.2999	13.3953	17.6003	14.5614	19.3642	23.7901	16.4372	20.068	25.3242	16.7582	20.1357	22.7889	17.0674	-1.3899	1.9317	1.1337	2.7327	7.3175	10.5243	5.5036	11.9672
12.2057	13.3306	17.565	14.479	19.2818	23.7341	16.3724	19.962	25.2241	16.714	20.0621	22.6946	17.0291	-1.4105	1.9317	0.9276	2.7651	7.2498	10.4448	5.3652	11.9731
12.1556	13.2746	17.5002	14.4171	19.2052	23.6782	16.3076	19.8766	25.1152	16.6433	19.9796	22.6004	16.9643	-1.437	1.8993	0.7421	2.8122	7.1644	10.3623	5.1974	11.9525
12.0702	13.198	17.4207	14.3376	19.1463	23.6163	16.2193	19.7706	24.9797	16.5432	19.8677	22.465	16.8524	-1.4488	1.8905	0.5507	2.8416	7.0554	10.271	5.0325	11.9259
11.9583	13.1185	17.3589	14.2699	19.0462	23.5368	16.1103	19.6587	24.8266	16.3901	19.7235	22.2971	16.7228	-1.4664	1.861	0.3622	2.9005	6.9583	10.1739	4.8793	11.8671
11.8523	13.042	17.2735	14.1757	18.9991	23.4396	16.0338	19.5468	24.6852	16.2546	19.5792	22.144	16.5756	-1.5136	1.8051	0.162	2.9682	6.7993	10.0649	4.685	11.8111
11.7404	12.933	17.1616	14.0608	18.9019	23.3395	15.9101	19.4113	24.5056	16.1074	19.4025	21.9555	16.3901	-1.5371	1.7197	-0.0618	3.0242	6.6785	9.9766	4.526	11.7493
11.6344	12.8476	17.0968	13.9813	18.8018	23.2188	15.7746	19.2847	24.3319	15.9219	19.2523	21.7347	16.1987	-1.5754	1.6402	-0.2385	3.0919	6.5578	9.8676	4.3728	11.6815
11.4872	12.7357	16.9731	13.8694	18.6781	23.0863	15.6333	19.1257	24.1287	15.7393	19.0403	21.5227	15.9896	-1.596	1.5489	-0.4299	3.1596	6.4282	9.7616	4.2433	11.5903
11.4312	12.6356	16.8877	13.8135	18.5927	22.9832	15.5273	18.9873	23.9579	15.5773	18.8724	21.3254	15.807	-1.6343	1.4812	-0.6213	3.2038	6.2928	9.7027	4.1579	11.5225
11.3135	12.5267	16.8171	13.734	18.4749	22.8684	15.4272	18.8401	23.7871	15.4095	18.681	21.134	15.6186	-1.6637	1.4223	-0.7951	3.2715	6.1897	9.6232	4.096	11.4283
11.2516	12.4118	16.7582	13.6928	18.3718	22.7624	15.3418	18.7046	23.6369	15.2799	18.4896	20.9219	15.4448	-1.6902	1.3781	-0.9541	3.3216	6.0808	9.582	4.0401	11.3723
11.1898	12.3146	16.7022	13.6515	18.2776	22.7064	15.2623	18.6015	23.5044	15.1415	18.3218	20.7394	15.2623	-1.7079	1.3487	-1.0836	3.3717	6.0042	9.5879	4.0224	11.3252
11.1279	12.2145	16.6963	13.628	18.1922	22.6475	15.221	18.4808	23.3866	15.0267	18.1716	20.5715	15.115	-1.7491	1.2986	-1.1985	3.4453	5.9453	9.6085	4.0224	11.284
11.072	12.0761	16.6345	13.5956	18.0656	22.5769	15.1356	18.3601	23.2659	14.8912	17.992	20.3801	14.9325	-1.7845	1.2338	-1.2986	3.5189	5.8687	9.6232	4.0313	11.2163
11.0543	12.0025	16.6227	13.6074	17.9684	22.5445	15.1062	18.26	23.1687	14.8029	17.8595	20.2682	14.8206	-1.8198	1.1955	-1.3663	3.5955	5.8364	9.6585	4.0813	11.2074
11.0278	11.8788	16.5962	13.6015	17.9036	22.5062	15.0738	18.1539	23.0922	14.7263	17.7122	20.1122	14.6733	-1.861	1.1749	-1.4635	3.6485	5.7745	9.7174	4.1284	11.1898
10.9807	11.7993	16.5609	13.575	17.7741	22.4708	15.0326	18.0273	23.0038	14.6292	17.565	19.959	14.5526	-1.8846	1.1337	-1.493	3.7191	5.7392	9.7852	4.1903	11.1721
10.9395	11.7022	16.5403	13.5867	17.6946	22.4326	15.0061	17.9184	22.9243	14.5762	17.4354	19.8089	14.3995	-1.917	1.0954	-1.5401	3.7692	5.7156	9.8234	4.2256	11.1368
10.913	11.5844	16.4784	13.5544	17.5915	22.3943	14.9825	17.8212	22.8448	14.4878	17.2764	19.6469	14.2375	-1.9494	1.0807	-1.5489	3.8192	5.7127	9.8588	4.2904	11.0838
10.8659	11.4931	16.446	13.5455	17.4884	22.3295	14.9501	17.6887	22.7624	14.3818	17.1351	19.4702	14.0697	-1.9553	1.066	-1.5283	3.8458	5.6508	9.8588	4.3522	11.0337
10.8364	11.3723	16.4166	13.519	17.4178	22.2912	14.9119	17.5709	22.6799	14.2964	16.9672	19.2994	13.9283	-1.9523	1.0071	-1.5401	3.8487	5.6184	9.8499	4.4052	10.9424
10.7834	11.284	16.3312	13.4719	17.297	22.2824	14.8618	17.4708	22.5886	14.2081	16.7964	19.1404	13.7487	-1.9494	0.9835	-1.4841	3.8222	5.5978	9.847	4.4524	10.8688
10.7098	11.1721	16.2723	13.4101	17.194	22.1646	14.7823	17.2823	22.4502	14.0756	16.5697	18.9254	13.5691	-1.9288	0.9776	-1.4458	3.8163	5.5389	9.7557	4.4847	10.7304
10.6627	11.0926	16.2016	13.3423	17.0644	22.0939	14.7234	17.1704	22.3707	14.0226	16.3842	18.7576	13.4248	-1.917	0.9452	-1.3222	3.7721	5.5154	9.6998	4.5142	10.6273
10.6038	10.9895	16.1368	13.2982	16.9849	22.0439	14.6733	17.0261	22.2794	13.9166	16.1869	18.5515	13.2452	-1.8993	0.9276	-1.1926	3.7368	5.5154	9.632	4.5407	10.486
10.5449	10.9395	16.0367	13.254	16.8818	21.9379	14.6292	16.8789	22.1587	13.84	15.9749	18.3424	13.0891	-1.8522	0.9187	-1.0483	3.6691	5.4948	9.5319	4.576	10.3623
10.4978	10.8276	15.9837	13.1774	16.767	21.8436	14.5879	16.7376	22.0527	13.7811	15.7805	18.1775	12.9595	-1.8404	0.9364	-0.851	3.6131	5.4771	9.4348	4.6349	10.2121
10.4536	10.7716	15.9013	13.1215	16.6639	21.7818	14.5555	16.5962	21.9644	13.7281	15.6009	17.9979	12.8476	-1.7698	0.9629	-0.6243	3.5307	5.5124	9.3229	4.6879	10.059
10.4713	10.7039	15.8483	13.0773	16.5815	21.717	14.5232	16.4549	21.876	13.681	15.4124	17.8536	12.7505	-1.7462	1.0012	-0.3916	3.4482	5.5389	9.2375	4.7527	9.9147
10.4595	10.6421	15.7923	13.0567	16.5049	21.6758	14.5261	16.3518	21.8053	13.6898	15.2593	17.724	12.6916	-1.6814	1.066	-0.1237	3.3452	5.6037	9.1491	4.8499	9.8117
10.4772	10.6273	15.7776	13.0567	16.4431	21.6316	14.5202	16.2311	21.7494	13.6869	15.0915	17.621	12.6592	-1.6431	1.1573	0.1502	3.2333	5.6597	9.0608	4.9618	9.6909
10.4889	10.5773	15.7334	13.0685	16.3695	21.6169	14.5379	16.1192	21.6934	13.6604	14.9472	17.4943	12.5914	-1.5666	1.2515	0.371	3.1096	5.7097	8.9342	5.0648	9.5614
10.5331	10.592	15.7393	13.0773	16.3371	21.5815	14.5762	16.0603	21.6669	13.7193	14.8235	17.4031	12.5797	-1.5106	1.3398	0.5978	2.9712	5.7981	8.8488	5.215	9.4789
10.5773	10.5596	15.7157	13.095	16.2782	21.5521	14.5497	15.9484	21.6051	13.6986	14.6557	17.2735	12.5296	-1.4341	1.4547	0.8186	2.8387	5.8717	8.728	5.3299	9.3464
10.6008	10.5419	15.7364	13.1303	16.2458	21.5492	14.5938	15.8983	21.5315	13.7163	14.5379	17.1734	12.4825	-1.3663	1.5224	0.9659	2.7003	5.9483	8.6161	5.4742	9.2227
10.6391	10.5655	15.7275	13.1627	16.184	21.5138	14.5968	15.8218	21.4549	13.7104	14.3818	17.0556	12.4265	-1.3045	1.5901	1.0895	2.5736	5.9924	8.5013	5.5978	9.1079
10.6597	10.5508	15.6951	13.1774	16.1457	21.5109	14.6144	15.7364	21.4078	13.734	14.2905	16.9348	12.3618	-1.2338	1.6579	1.1249	2.4323	6.1073	8.3688	5.7451	9.0048
10.6538	10.5243	15.6775	13.2128	16.0897	21.4608	14.638	15.648	21.3371	13.731	14.1403	16.7876	12.2646	-1.1514	1.705	1.1219	2.2703	6.1544	8.2569	5.8776	8.8723
10.6892	10.5302	15.6598	13.2393	16.022	21.4314	14.6498	15.5479	21.2311	13.6869	13.9902	16.6227	12.191	-1.0778	1.7079	1.0571	2.1231	6.2044	8.1008	5.9924	8.7428
10.698	10.4772	15.6569	13.2599	15.9454	21.3872	14.6292	15.4478	21.1575	13.6633	13.84	16.4755	12.0732	-0.9835	1.7256	0.9423	1.9612	6.2751	7.9506	6.1161	8.6132
10.698	10.5037	15.6421	13.2952	15.8836	21.3519	14.6439	15.3418	21.0574	13.6456	13.7016	16.3076	11.9848	-0.904	1.7374	0.8068	1.7933	6.334	7.8122	6.2192	8.4689
10.6951	10.4742	15.6009	13.3364	15.8159	21.3136	14.6645	15.2534	20.9749	13.6339	13.5602	16.1633	11.9142	-0.8333	1.7285	0.6213	1.6402	6.39	7.6591	6.3281	8.3364
10.7216	10.433	15.6039	13.3747	15.7423	21.2782	14.6645	15.1386	20.8984	13.6044	13.4071	15.9925	11.8141	-0.7538	1.6902	0.4123	1.4871	6.443	7.506	6.3811	8.195
10.7334	10.4065	15.5862	13.4071	15.651	21.2252	14.6704	15.0473	20.8248	13.5867	13.2511	15.8365	11.7228	-0.6861	1.6932	0.2326	1.3546	6.4901	7.3293	6.4577	8.0802
10.7216	10.4183	15.5656	13.4542	15.5744	21.1929	14.6939	14.9531	20.7364	13.5691	13.1274	15.7069	11.6609	-0.6184	1.7226	0.0471	1.2103	6.5519	7.1997	6.496	7.9654
10.7157	10.3594	15.5538	13.4984	15.5214	21.1722	14.7146	14.8883	20.6687	13.5779	13.0361	15.5715	11.6138	-0.5565	1.7403	-0.1413	1.1072	6.602	7.0613	6.5342	7.8741
10.7186	10.3653	15.5508	13.5485	15.492	21.1546	14.7705	14.8	20.6569	13.6044	12.9242	15.5067	11.6197	-0.4977	1.7462	-0.3062	1.0012	6.655	6.9377	6.6196	7.7975
10.7157	10.3476	15.545	13.5956	15.4331	21.1251	14.7941	14.7617	20.5951	13.625	12.8211	15.4242	11.605	-0.4594	1.7698	-0.4535	0.9011	6.7286	6.8169	6.655	7.7092
10.6803	10.324	15.5214	13.6692	15.4036	21.0986	14.8412	14.7175	20.5656	13.6574	12.7711	15.3477	11.602	-0.4152	1.7727	-0.6302	0.801	6.814	6.7433	6.6609	7.665
10.648	10.2769	15.492	13.7075	15.33	21.0839	14.8353	14.6586	20.5126	13.6515	12.6768	15.2475	11.5932	-0.3858	1.758	-0.7745	0.7421	6.8523	6.6373	6.6726	7.5855
10.5655	10.1915	15.4301	13.6986	15.2799	21.0162	14.8588	14.5968	20.4537	13.6545	12.6062	15.1592	11.5696	-0.3593	1.7109	-0.907	0.6743	6.8847	6.5725	6.6844	7.5237
10.4683	10.1356	15.3653	13.6986	15.2063	20.9749	14.85	14.532	20.3713	13.6398	12.509	15.0561	11.5431	-0.321	1.6932	-1.0719	0.6331	6.9229	6.5313	6.6874	7.4795
10.324	10.0237	15.2623	13.6486	15.115	20.8601	14.8058	14.4613	20.2829	13.5779	12.4177	14.9207	11.4784	-0.3327	1.5754	-1.2574	0.6478	6.9053	6.4724	6.6403	7.4441
10.2328	9.9088	15.1445	13.575	15.009	20.76	14.744	14.3376	20.1887	13.5337	12.2999	14.7793	11.4136	-0.3298	1.5106	-1.3663	0.639	6.9082	6.4194	6.5961	7.4
10.062	9.7734	15.0002	13.4601	14.8824	20.6069	14.6527	14.2375	20.0268	13.4336	12.1939	14.6174	11.3164	-0.3534	1.4399	-1.4988	0.6861	6.8699	6.3605	6.5107	7.3588
9.9442	9.6114	14.8647	13.3541	14.744	20.4508	14.532	14.1168	19.9001	13.3158	12.0526	14.4319	11.2104	-0.3769	1.3251	-1.5931	0.7479	6.8052	6.3252	6.4312	7.3146
9.7675	9.473	14.7146	13.2393	14.5938	20.3124	14.4142	14.0019	19.7264	13.2363	11.9436	14.267	11.1044	-0.4211	1.2103	-1.6402	0.8363	6.7404	6.2751	6.3487	7.2792
9.6144	9.3346	14.5408	13.0979	14.4584	20.1445	14.3141	13.8842	19.5586	13.1097	11.8023	14.0962	11.0102	-0.4888	1.1308	-1.6637	0.9364	6.6638	6.2516	6.2398	7.2351
9.4583	9.1786	14.3759	12.933	14.2846	19.9738	14.1492	13.7251	19.4025	13.0037	11.658	13.9048	10.9041	-0.5389	1.0277	-1.6902	1.0395	6.599	6.2251	6.1073	7.188
9.3052	9.0225	14.2405	12.7946	14.1521	19.8147	14.052	13.6162	19.2494	12.8859	11.5343	13.7723	10.8158	-0.5919	0.9364	-1.6608	1.1602	6.5284	6.175	6.013	7.1055
9.1756	8.9135	14.0903	12.6651	14.0284	19.6616	13.9548	13.5161	19.0992	12.8123	11.4254	13.6456	10.7481	-0.6361	0.8687	-1.652	1.2515	6.4459	6.1279	5.8982	7.0554
9.0313	8.8016	13.9843	12.5473	13.9107	19.5527	13.837	13.4042	18.9991	12.7387	11.3252	13.5367	10.7186	-0.6861	0.801	-1.6314	1.3339	6.39	6.1073	5.8069	7.0231
8.9106	8.6839	13.8459	12.4089	13.8076	19.4378	13.7605	13.2982	18.8489	12.6621	11.2369	13.4071	10.6803	-0.7185	0.7244	-1.5607	1.4105	6.3222	6.0543	5.6832	6.9553
8.7899	8.569	13.7605	12.2705	13.6721	19.2994	13.6309	13.1863	18.7399	12.5885	11.1338	13.3335	10.6509	-0.7479	0.6537	-1.5577	1.4664	6.2516	6.016	5.5861	6.8905
8.6691	8.4836	13.6574	12.1468	13.5867	19.2229	13.5426	13.1038	18.6604	12.5502	11.0838	13.2687	10.6362	-0.7951	0.5772	-1.5754	1.5401	6.1809	5.9865	5.5007	6.8405
8.5778	8.4129	13.5632	12.0496	13.5043	19.1286	13.4513	13.0214	18.5633	12.4943	11.0396	13.2128	10.6244	-0.798	0.5418	-1.543	1.5783	6.1014	5.963	5.4153	6.8169
8.4601	8.3747	13.4807	11.9348	13.4601	19.0521	13.3718	12.9448	18.4749	12.4413	10.9837	13.145	10.6126	-0.8275	0.4682	-1.5754	1.6255	6.0189	5.9512	5.3505	6.7728
8.3658	8.3364	13.413	11.7964	13.3836	18.9578	13.2481	12.88	18.3954	12.3942	10.9513	13.0832	10.5714	-0.8481	0.4299	-1.596	1.6608	5.9306	5.9483	5.2739	6.7227
8.2775	8.2863	13.307	11.6786	13.3217	18.8931	13.1598	12.83	18.2923	12.3294	10.9071	13.0125	10.5243	-0.8628	0.4388	-1.6255	1.6873	5.8334	5.9365	5.2003	6.7109
8.2215	8.2598	13.254	11.5608	13.2893	18.79	13.0685	12.7622	18.1981	12.2263	10.857	12.9448	10.4507	-0.8598	0.4476	-1.6196	1.6932	5.7303	5.9512	5.1414	6.6638
8.1332	8.198	13.1392	11.4548	13.2334	18.7017	12.936	12.721	18.0921	12.1409	10.7981	12.8594	10.377	-0.8687	0.4711	-1.6667	1.6961	5.6302	5.9453	5.0796	6.655
8.0242	8.1656	13.039	11.3135	13.1686	18.6074	12.8152	12.6209	17.9596	12.032	10.7304	12.7446	10.2799	-0.8716	0.4918	-1.6785	1.705	5.5036	5.9424	5.0148	6.602
7.9418	8.1391	12.933	11.1868	13.1127	18.472	12.6857	12.5473	17.8212	11.9201	10.6538	12.6327	10.1768	-0.854	0.5212	-1.6932	1.6637	5.3888	5.9453	4.9706	6.5902
7.8623	8.089	12.8594	11.0955	13.0567	18.3807	12.5649	12.4648	17.6916	11.8082	10.5478	12.4972	10.0472	-0.8245	0.5507	-1.7491	1.6343	5.2504	5.9335	4.8941	6.5254
7.7916	8.0625	12.774	10.9954	13.0125	18.2658	12.453	12.3794	17.5591	11.6992	10.4477	12.3735	9.9206	-0.7951	0.6331	-1.7727	1.5666	5.1179	5.9247	4.844	6.4488
7.7151	8.0508	12.6533	10.8983	12.9271	18.1598	12.3529	12.2587	17.4089	11.5726	10.3417	12.2292	9.7793	-0.7686	0.6684	-1.8404	1.49	4.9706	5.8952	4.788	6.4017
7.6591	7.9919	12.5826	10.857	12.83	18.0685	12.2528	12.1733	17.2941	11.4725	10.2563	12.0967	9.6438	-0.7244	0.7097	-1.9052	1.4076	4.8528	5.8629	4.7615	6.3104
7.609	7.983	12.5031	10.7716	12.7534	17.9566	12.1733	12.0526	17.1469	11.3547	10.1326	11.9613	9.5201	-0.6684	0.7568	-1.9788	1.3192	4.7233	5.8422	4.7409	6.2368
7.5708	7.9595	12.4442	10.7628	12.7357	17.886	12.1468	11.9966	17.0585	11.287	10.0443	11.8612	9.4141	-0.6184	0.8068	-2.0848	1.2162	4.6379	5.8364	4.7527	6.1544
7.5619	7.9565	12.3765	10.754	12.668	17.8006	12.0702	11.8936	16.9348	11.1957	9.953	11.764	9.3052	-0.583	0.8275	-2.1732	1.1308	4.5319	5.7922	4.7409	6.0896
7.5119	7.9241	12.3176	10.7127	12.5826	17.7181	11.9966	11.7817	16.8436	11.1014	9.8676	11.6609	9.1845	-0.5389	0.8363	-2.2821	1.0424	4.4023	5.7421	4.7498	5.9954
7.4854	7.9094	12.2587	10.6951	12.5002	17.6327	11.9348	11.6727	16.7169	10.9954	9.7528	11.5225	9.0608	-0.5006	0.8598	-2.4058	0.9924	4.258	5.6921	4.7439	5.9365
7.4618	7.8829	12.1851	10.6833	12.4295	17.5621	11.8759	11.5608	16.605	10.8865	9.6615	11.4165	8.9018	-0.48	0.8746	-2.5354	0.9364	4.1019	5.6597	4.7203	5.8481
7.4383	7.8446	12.1262	10.6273	12.347	17.4354	11.8199	11.4725	16.4725	10.751	9.5702	11.2958	8.7634	-0.4564	0.8775	-2.6708	0.8981	3.9429	5.6037	4.7203	5.7804
7.4324	7.8034	12.0555	10.5979	12.2675	17.3353	11.7287	11.3547	16.3312	10.6391	9.4819	11.1721	8.6073	-0.4476	0.8863	-2.7474	0.8746	3.7898	5.5566	4.6909	5.7156
7.3794	7.7445	11.9583	10.5331	12.1586	17.2234	11.6462	11.2369	16.184	10.4889	9.3847	11.0131	8.3982	-0.4388	0.8805	-2.8563	0.8657	3.619	5.5007	4.6585	5.6391
7.3381	7.6768	11.8641	10.4683	12.0261	17.0644	11.5255	11.0955	16.0132	10.3064	9.2404	10.8187	8.1626	-0.4476	0.907	-2.9211	0.8834	3.407	5.4005	4.5878	5.5507
7.2557	7.5619	11.7345	10.3741	11.8612	16.8848	11.3989	10.9041	15.8011	10.1209	9.0902	10.5832	7.9182	-0.4535	0.9099	-2.9447	0.8952	3.2038	5.3299	4.5054	5.4683
7.1997	7.4883	11.6138	10.2887	11.708	16.7111	11.2722	10.7628	15.5626	9.9059	8.9342	10.38	7.6621	-0.4564	0.9158	-2.9358	0.9129	3.0036	5.2091	4.4759	5.3564
7.1497	7.3646	11.4784	10.1915	11.5314	16.5285	11.1103	10.5714	15.3329	9.6939	8.7545	10.1267	7.3794	-0.4682	0.9394	-2.8946	0.9335	2.7886	5.112	4.4082	5.2504
7.0731	7.2145	11.34	10.0855	11.3665	16.3312	10.9837	10.3977	15.0885	9.4554	8.5778	9.8529	7.0849	-0.4888	0.9511	-2.7621	0.9541	2.5707	4.9912	4.3198	5.1179
7.0024	7.1232	11.1898	9.9883	11.1927	16.1516	10.8482	10.2033	14.8677	9.2669	8.3982	9.6055	6.8052	-0.5065	1.0041	-2.5913	0.9717	2.3587	4.8882	4.261	4.9853
6.9377	6.9936	11.0779	9.9	11.016	15.9631	10.7069	10.0355	14.6115	9.0431	8.2215	9.3523	6.5254	-0.5153	1.0483	-2.3881	1.0012	2.1319	4.7586	4.1756	4.8322
6.8729	6.8788	10.9395	9.7852	10.8364	15.7746	10.5478	9.847	14.3789	8.8576	8.0213	9.0726	6.2427	-0.5507	1.119	-2.1467	1.0454	1.9258	4.6408	4.0931	4.6673
6.8228	6.7816	10.8423	9.685	10.698	15.595	10.4271	9.688	14.1492	8.675	7.8328	8.8311	6.0101	-0.5565	1.1808	-1.8699	1.0836	1.7374	4.5201	4.0254	4.5377
6.7728	6.708	10.7422	9.5997	10.5655	15.4389	10.3093	9.5349	13.9489	8.5013	7.6621	8.6102	5.751	-0.5801	1.2957	-1.5401	1.1396	1.5548	4.3787	3.9164	4.3905
6.7521	6.6403	10.648	9.5143	10.4507	15.3388	10.2004	9.423	13.787	8.3393	7.5237	8.4306	5.5537	-0.6037	1.3899	-1.2338	1.1808	1.4164	4.2816	3.8281	4.2462
6.6815	6.5814	10.5508	9.4082	10.3447	15.1887	10.0973	9.2993	13.6191	8.2039	7.3853	8.2422	5.3623	-0.6449	1.5018	-0.9011	1.2603	1.2515	4.1785	3.7162	4.1284
6.6579	6.5342	10.4948	9.3611	10.2593	15.0915	9.9766	9.2021	13.4925	8.0949	7.2557	8.0684	5.1797	-0.6802	1.6019	-0.5948	1.3251	1.119	4.1167	3.6337	4.0165
6.5755	6.5225	10.4477	9.264	10.2063	15.0061	9.8617	9.1373	13.3453	7.9506	7.1585	7.9359	4.9765	-0.7156	1.702	-0.2915	1.4017	0.9688	4.046	3.4983	3.9164
6.5578	6.5225	10.3859	9.1815	10.1591	14.9207	9.7704	9.0726	13.2452	7.8122	7.0702	7.8093	4.8204	-0.745	1.7874	-0.0088	1.4782	0.8598	4.0195	3.3805	3.8634
6.5019	6.546	10.3417	9.0784	10.165	14.8412	9.6674	9.0225	13.1539	7.7003	6.9848	7.6679	4.6408	-0.8068	1.8463	0.2326	1.5725	0.7126	4.0048	3.2509	3.8192
6.4665	6.5342	10.3093	9.0107	10.1474	14.7764	9.5466	8.993	13.0538	7.5796	6.9318	7.5178	4.4553	-0.8363	1.9199	0.4446	1.6372	0.5801	4.0136	3.1184	3.7898
6.4488	6.5931	10.2917	8.9548	10.168	14.7499	9.4995	8.9989	12.989	7.503	6.8817	7.4383	4.3375	-0.8363	1.9906	0.6302	1.649	0.5153	4.0578	3.0713	3.778
6.3782	6.6137	10.2416	8.8694	10.1591	14.7204	9.3817	8.943	12.8741	7.3823	6.811	7.3146	4.1549	-0.8716	2.0024	0.7627	1.7138	0.3828	4.0489	2.9623	3.7751
6.3517	6.6373	10.2269	8.8046	10.1739	14.6674	9.2875	8.9047	12.8064	7.2557	6.7315	7.1615	3.9871	-0.8716	2.0436	0.854	1.7138	0.2915	4.0902	2.877	3.7515
6.2957	6.6196	10.1739	8.6927	10.1621	14.6645	9.1786	8.8841	12.7269	7.1202	6.6579	7.0378	3.7927	-0.8628	2.0524	0.9364	1.6902	0.2061	4.1343	2.8092	3.7515
6.2722	6.655	10.168	8.6426	10.1591	14.6321	9.1138	8.8664	12.6798	7.0201	6.5725	6.9465	3.675	-0.8481	2.0848	0.9511	1.6667	0.1266	4.1608	2.7474	3.725
6.2368	6.6756	10.165	8.5543	10.1827	14.6351	9.0254	8.8311	12.6474	6.9141	6.4783	6.8287	3.513	-0.8245	2.1702	1.0041	1.6166	0.053	4.1932	2.7091	3.7162
6.2663	6.705	10.2004	8.5072	10.1827	14.6704	8.9783	8.8311	12.6032	6.8493	6.4223	6.7345	3.3864	-0.7892	2.1908	0.9423	1.5636	0.0147	4.2374	2.6885	3.725
6.2692	6.7492	10.2151	8.4689	10.2004	14.6939	8.9283	8.8016	12.5944	6.7669	6.3281	6.6432	3.2774	-0.7568	2.2792	0.9452	1.49	-0.0383	4.2492	2.659	3.6956
6.3222	6.811	10.2799	8.4512	10.2475	14.7587	8.9224	8.8016	12.6238	6.7787	6.3075	6.5902	3.2126	-0.7067	2.3381	0.8598	1.3899	-0.0412	4.2963	2.6826	3.7103
6.3929	6.867	10.3623	8.4512	10.2534	14.8147	8.8988	8.8134	12.6474	6.7404	6.2368	6.549	3.1538	-0.6567	2.3999	0.8245	1.3015	-0.0147	4.3405	2.6649	3.675
6.4871	6.9936	10.4801	8.5072	10.3505	14.9531	8.9577	8.8635	12.7181	6.7698	6.2192	6.5725	3.1714	-0.586	2.5177	0.7774	1.169	0.0471	4.3935	2.715	3.6838
6.6108	7.0908	10.6126	8.5602	10.4271	15.0885	8.996	8.9194	12.8182	6.8228	6.2192	6.5902	3.1891	-0.5212	2.5678	0.692	1.0395	0.1031	4.4347	2.768	3.675
6.705	7.188	10.7216	8.6014	10.4978	15.2063	9.0578	8.9577	12.9065	6.864	6.1956	6.6255	3.2333	-0.4594	2.5913	0.5919	0.9011	0.1826	4.4759	2.8328	3.675
6.8258	7.3381	10.8659	8.6809	10.6008	15.3624	9.1314	9.0461	13.0184	6.9465	6.2044	6.6815	3.2774	-0.3887	2.6178	0.477	0.7774	0.2827	4.5319	2.8887	3.6926
6.9377	7.45	10.9925	8.7545	10.6774	15.4802	9.208	9.0726	13.1185	7.0054	6.1956	6.7256	3.3128	-0.3416	2.6267	0.3416	0.6714	0.371	4.5584	2.9565	3.675
7.0437	7.5796	11.1103	8.834	10.7451	15.5862	9.2698	9.1138	13.1657	7.0613	6.2015	6.7286	3.3481	-0.3004	2.6031	0.1561	0.5772	0.4417	4.6143	3.0036	3.6838
7.1291	7.6709	11.1927	8.8635	10.7952	15.701	9.3111	9.1403	13.2039	7.082	6.1603	6.7315	3.3452	-0.2621	2.5648	-0.0442	0.4977	0.4947	4.6614	3.0419	3.6838
7.2027	7.7592	11.2928	8.9194	10.8659	15.7805	9.3729	9.155	13.2569	7.1114	6.1367	6.7404	3.3805	-0.2061	2.5354	-0.2179	0.4123	0.6125	4.6761	3.0949	3.6367
7.2851	7.8417	11.3665	8.943	10.8835	15.8306	9.367	9.158	13.2569	7.1202	6.0631	6.6844	3.3658	-0.1885	2.4824	-0.4064	0.3622	0.6832	4.7027	3.1272	3.6131
7.344	7.9006	11.4312	8.9607	10.9012	15.8836	9.37	9.1432	13.2511	7.1026	5.9954	6.6432	3.3569	-0.1678	2.4618	-0.5889	0.3269	0.7479	4.7262	3.1685	3.566
7.4059	8.0036	11.5078	8.9872	10.9189	15.9248	9.3994	9.1256	13.2452	7.1143	5.9483	6.5872	3.3187	-0.1384	2.4676	-0.7479	0.2739	0.8304	4.738	3.2156	3.5189
7.4824	8.0655	11.5343	9.0284	10.9571	15.9307	9.4053	9.1049	13.201	7.1085	5.8835	6.5313	3.3069	-0.1296	2.4765	-0.8481	0.2474	0.9276	4.7645	3.2774	3.4894
7.5266	8.1244	11.5785	9.0313	10.963	15.9395	9.3994	9.0726	13.1627	7.082	5.8246	6.4371	3.2686	-0.1237	2.4618	-0.9776	0.2474	1.0189	4.7674	3.3452	3.4188
7.5914	8.1509	11.605	9.0137	10.9454	15.9337	9.3876	9.0402	13.1156	7.0584	5.7598	6.334	3.2509	-0.1119	2.4559	-1.0836	0.2297	1.1131	4.7468	3.4188	3.3834
7.6709	8.2569	11.6285	9.049	11.0072	15.9454	9.3965	9.0402	13.095	7.0908	5.7362	6.3016	3.2833	-0.109	2.5059	-1.1396	0.2209	1.2427	4.788	3.5189	3.3628
7.7092	8.301	11.6786	9.0313	10.9837	15.9425	9.4024	9.0284	13.095	7.1026	5.7038	6.2545	3.2951	-0.1119	2.5059	-1.1955	0.2267	1.3546	4.7733	3.5955	3.3687
7.7681	8.3835	11.6815	9.0372	11.0219	15.9013	9.3965	8.9901	13.0744	7.1202	5.6744	6.2309	3.3275	-0.1119	2.5177	-1.2633	0.2415	1.4694	4.7733	3.7221	3.3658
7.8564	8.4483	11.711	9.0431	11.069	15.916	9.4112	9.0166	13.0508	7.1497	5.695	6.2251	3.3717	-0.1413	2.556	-1.2957	0.2591	1.596	4.7822	3.8281	3.3893
7.8917	8.5101	11.7463	9.0402	11.0632	15.916	9.4053	9.0019	13.0331	7.1762	5.7274	6.228	3.4482	-0.1561	2.5442	-1.331	0.3004	1.7432	4.7851	3.8929	3.4129
7.9536	8.5661	11.7669	9.0313	11.0985	15.913	9.423	9.0225	13.0596	7.2351	5.7627	6.2457	3.513	-0.1708	2.5295	-1.3693	0.3416	1.8816	4.8028	4.0077	3.4512
7.9712	8.622	11.7787	9.0402	11.1633	15.9189	9.4554	9.0549	13.0714	7.3057	5.8246	6.3016	3.6367	-0.1943	2.5795	-1.384	0.3681	2.023	4.8028	4.096	3.4836
8.0036	8.6279	11.7669	8.9901	11.1427	15.9013	9.4289	9.0578	13.0803	7.3381	5.8629	6.3369	3.6867	-0.2061	2.556	-1.3987	0.4123	2.1437	4.8293	4.1549	3.5189
8.0007	8.6309	11.7316	8.9459	11.1486	15.8335	9.42	9.0667	13.039	7.3558	5.8717	6.3281	3.7221	-0.2444	2.5619	-1.3928	0.4594	2.235	4.8087	4.1903	3.5748
8.0095	8.625	11.711	8.9165	11.1309	15.7923	9.3876	9.0696	13.0037	7.3882	5.9217	6.3458	3.7986	-0.2474	2.5471	-1.3369	0.4888	2.3499	4.8028	4.2374	3.6013
8.0125	8.6044	11.6433	8.8016	11.1162	15.7275	9.3641	9.0726	12.9448	7.3764	5.963	6.3487	3.8487	-0.2856	2.5265	-1.2898	0.53	2.4352	4.8116	4.258	3.6543
7.9565	8.5778	11.5785	8.7457	11.0867	15.6451	9.3052	9.049	12.8859	7.3705	5.9895	6.3458	3.8458	-0.2739	2.503	-1.2338	0.5448	2.5118	4.788	4.258	3.6956
7.9565	8.5484	11.5196	8.6515	11.072	15.5538	9.2522	9.0225	12.8152	7.3588	5.9954	6.2839	3.8369	-0.2886	2.4941	-1.1219	0.5742	2.5854	4.8028	4.2639	3.728
7.9006	8.4748	11.4136	8.5219	11.0308	15.4183	9.1697	9.0048	12.7122	7.3322	6.013	6.2486	3.8399	-0.321	2.4706	-1.0483	0.6184	2.6296	4.791	4.2344	3.781
7.8299	8.4041	11.2958	8.4041	10.966	15.3035	9.0784	8.9577	12.6091	7.2734	5.9983	6.2015	3.8192	-0.3239	2.4647	-0.9924	0.6361	2.659	4.8087	4.2079	3.7957
7.7622	8.3452	11.178	8.2804	10.8953	15.1563	8.9872	8.9077	12.4972	7.2204	5.9924	6.1514	3.7927	-0.3563	2.4971	-0.9099	0.6832	2.6649	4.788	4.1962	3.8192
7.6915	8.248	11.0396	8.1303	10.8099	15.0296	8.8664	8.8252	12.3677	7.1585	5.963	6.0719	3.7721	-0.3769	2.4941	-0.8687	0.7273	2.6885	4.7763	4.152	3.8045
7.5737	8.1774	10.9159	8.0007	10.7392	14.8971	8.7722	8.7987	12.2528	7.082	5.9335	6.0248	3.7368	-0.4034	2.5148	-0.8275	0.7745	2.6973	4.8028	4.1019	3.8458
7.503	8.0979	10.8099	7.877	10.6892	14.7528	8.6839	8.7663	12.135	7.0525	5.9394	5.9836	3.7339	-0.4152	2.5383	-0.7951	0.8098	2.6885	4.8234	4.0695	3.8605
7.4235	8.0625	10.7127	7.771	10.6509	14.6321	8.6044	8.7663	12.0408	6.9966	5.9483	5.9453	3.7397	-0.4535	2.5766	-0.7921	0.8716	2.6738	4.8617	4.0372	3.9164
7.3146	7.9889	10.592	7.6444	10.6038	14.5232	8.5042	8.7398	11.9407	6.9347	5.9689	5.9159	3.7397	-0.477	2.6002	-0.8186	0.9364	2.6708	4.9147	3.9753	3.9429
7.2645	7.9389	10.5419	7.5502	10.592	14.4407	8.4129	8.7369	11.8818	6.9082	5.9895	5.9041	3.7515	-0.5153	2.6355	-0.8598	0.9982	2.6355	4.9795	3.9194	4.046
7.2056	7.93	10.4624	7.4736	10.5802	14.3671	8.3658	8.7781	11.817	6.8847	6.066	5.9188	3.7574	-0.53	2.7062	-0.907	1.0277	2.6267	5.0472	3.9017	4.152
7.1497	7.8976	10.3653	7.3735	10.5861	14.2464	8.2804	8.7751	11.7493	6.8346	6.1073	5.8982	3.7515	-0.5654	2.7533	-0.9806	1.1043	2.5884	5.1355	3.8222	4.2286
7.0967	7.88	10.2887	7.2557	10.5567	14.1698	8.1833	8.7987	11.6992	6.7757	6.1397	5.8687	3.7339	-0.586	2.8151	-1.0336	1.1573	2.5148	5.2209	3.7574	4.3051
7.0466	7.8505	10.2151	7.1968	10.5478	14.0844	8.1155	8.8164	11.605	6.7109	6.1868	5.8629	3.7191	-0.6184	2.877	-1.1072	1.2162	2.4559	5.3093	3.7015	4.4023
6.9642	7.7975	10.1091	7.0613	10.4831	13.9548	7.9683	8.7722	11.4784	6.599	6.1897	5.8069	3.6455	-0.6714	2.9182	-1.2103	1.3104	2.3469	5.3505	3.5955	4.4582
6.8994	7.7327	10.0266	6.9583	10.4035	13.8341	7.8358	8.731	11.3458	6.4518	6.1838	5.7215	3.5395	-0.7214	2.9417	-1.275	1.4134	2.2144	5.3799	3.4718	4.5083
6.814	7.6709	9.8882	6.8287	10.3476	13.6721	7.6974	8.675	11.2016	6.3134	6.1632	5.6184	3.4158	-0.7627	3.0006	-1.3163	1.4871	2.0583	5.3976	3.3245	4.5348
6.7521	7.5825	9.7675	6.705	10.2563	13.5337	7.5767	8.6191	11.072	6.1956	6.1485	5.4889	3.2863	-0.798	3.0536	-1.3604	1.5607	1.9111	5.427	3.195	4.5849
6.6461	7.5325	9.6438	6.5814	10.1621	13.3777	7.4471	8.5337	10.9189	6.0543	6.0925	5.3858	3.1773	-0.8186	3.0742	-1.4134	1.6255	1.7639	5.4212	3.0801	4.5819
6.5755	7.4294	9.4995	6.44	10.0325	13.2157	7.2734	8.4129	10.7216	5.8864	6.016	5.2091	3.0095	-0.854	3.086	-1.4399	1.6726	1.5842	5.3976	2.93	4.5643
6.4901	7.3322	9.3817	6.3311	9.9471	13.0773	7.1791	8.3099	10.5449	5.7362	5.9394	5.059	2.8887	-0.8657	3.1479	-1.4547	1.6932	1.4458	5.3593	2.7974	4.5495
6.4165	7.2498	9.2316	6.228	9.7999	12.9212	7.0083	8.1803	10.3977	5.5772	5.854	4.9353	2.7415	-0.8657	3.1538	-1.4547	1.702	1.3104	5.3063	2.6973	4.4789
6.3222	7.1467	9.1138	6.1132	9.685	12.7652	6.9023	8.0508	10.271	5.43	5.7568	4.8087	2.6355	-0.8628	3.1773	-1.4252	1.6902	1.1661	5.2415	2.5854	4.4288
6.2516	7.0731	8.9872	6.0013	9.5702	12.6003	6.7904	7.9065	10.0944	5.3093	5.6773	4.685	2.5059	-0.8716	3.1744	-1.437	1.705	1.0247	5.165	2.5118	4.3522
6.228	7.026	8.9224	5.9247	9.5084	12.5119	6.705	7.8358	9.9707	5.1826	5.5949	4.5937	2.4352	-0.8628	3.2215	-1.3958	1.6667	0.9246	5.109	2.4411	4.2963
6.1897	6.9966	8.8223	5.857	9.4348	12.3942	6.652	7.7474	9.8647	5.1061	5.5301	4.5024	2.3557	-0.851	3.2333	-1.3781	1.6667	0.8216	5.0442	2.4058	4.2168
6.1308	6.9583	8.7634	5.7922	9.367	12.2764	6.5784	7.6562	9.7793	5.0236	5.4683	4.417	2.2762	-0.8569	3.2185	-1.4076	1.6755	0.6773	4.9677	2.3616	4.1608
6.0837	6.9524	8.6986	5.748	9.3199	12.1645	6.4901	7.5884	9.6733	4.9264	5.4035	4.3463	2.2026	-0.8628	3.2539	-1.4252	1.6902	0.5713	4.9117	2.3234	4.0784
6.0601	6.973	8.6515	5.7009	9.2905	12.0967	6.443	7.5354	9.5731	4.8793	5.3387	4.2816	2.1231	-0.8569	3.2774	-1.4753	1.6785	0.4682	4.8469	2.3145	4.0165
6.0278	6.9642	8.572	5.6597	9.2198	11.9937	6.3664	7.4471	9.4819	4.7674	5.2563	4.2286	2.0554	-0.8805	3.2568	-1.5842	1.7226	0.3151	4.7822	2.2674	3.9518
5.9983	6.9642	8.5219	5.6096	9.1609	11.8936	6.2751	7.3794	9.4082	4.685	5.1561	4.1343	1.9347	-0.8952	3.2509	-1.6932	1.7639	0.1796	4.7233	2.2291	3.8575
5.963	6.9406	8.4542	5.5596	9.1049	11.7728	6.2251	7.2792	9.2757	4.579	5.0855	4.046	1.8228	-0.9394	3.2627	-1.8493	1.8051	0.0324	4.6732	2.2026	3.7751
5.8952	6.8699	8.3541	5.4889	9.0254	11.6403	6.1161	7.1644	9.158	4.4671	4.9706	3.9253	1.6932	-0.96	3.245	-1.9877	1.8522	-0.1384	4.6231	2.1437	3.675
5.8481	6.8375	8.2952	5.4418	8.9135	11.5284	6.0248	7.0496	9.0461	4.3405	4.844	3.7927	1.5283	-0.9629	3.2421	-2.1467	1.8787	-0.2591	4.576	2.0672	3.5748
5.7598	6.7374	8.1774	5.3593	8.8193	11.3753	5.91	6.9053	8.9047	4.2138	4.7027	3.6367	1.3369	-0.9806	3.2568	-2.2792	1.9229	-0.4005	4.5201	1.9759	3.4541
5.7245	6.6491	8.0743	5.3063	8.6956	11.2752	5.8393	6.8052	8.7869	4.1019	4.5377	3.4836	1.172	-0.9924	3.2421	-2.4205	1.9376	-0.5595	4.4524	1.9199	3.3157
5.6479	6.5696	8.0036	5.2621	8.5778	11.1515	5.7392	6.6815	8.6691	4.0077	4.4111	3.3628	1.0247	-1.0012	3.2598	-2.5265	1.9405	-0.7156	4.4229	1.8581	3.195
5.5772	6.4783	7.9418	5.2474	8.4512	11.0278	5.6921	6.5431	8.5631	3.9194	4.258	3.2126	0.8628	-0.9835	3.2421	-2.6414	1.9288	-0.8481	4.3876	1.7668	3.0419
5.5242	6.3782	7.8417	5.2239	8.3482	10.9277	5.6273	6.4223	8.4453	3.8428	4.1078	3.0831	0.7332	-0.9806	3.2715	-2.7032	1.9082	-0.9629	4.3611	1.7167	2.9064
5.4742	6.3046	7.7857	5.2356	8.2304	10.8394	5.5861	6.3075	8.3658	3.778	3.9783	3.0065	0.639	-0.9776	3.2539	-2.7562	1.9023	-1.063	4.3463	1.6844	2.7886
