"FZ"	"FC3"	"FCZ"	"FC4"	"C3"	"CZ"	"C4"	"CP3"	"CPZ"	"CP4"	"P3"	"PZ"	"P4"	"OZ"	"FP1"	"FP2"	"A2"	"P8"	"TP7"	"TP8"	"P7"	"VEOG"	"HEOG"
0.0882	-0.5804	-0.3186	-0.2788	-0.9559	-1.2574	-0.3926	-0.8904	-1.2318	-0.2048	-0.8051	-1.0839	-0.0484	-0.1479	-0.239	-0.6742	0.2447	0.5661	0.4779	-0.1394	0.3471	-0.2418	-0.5405
0.1223	-0.569	-0.2731	-0.1935	-0.9132	-1.1664	-0.2816	-0.825	-1.1294	-0.0797	-0.7368	-0.953	0.0882	-0.1593	-0.2333	-0.5462	0.2646	0.6259	0.4495	-0.0256	0.3528	-0.3897	-0.5377
0.1508	-0.569	-0.2304	-0.1053	-0.8449	-1.0867	-0.1707	-0.7425	-1.0128	0.0541	-0.6429	-0.8023	0.2247	-0.1565	-0.2418	-0.404	0.2731	0.6828	0.3784	0.0654	0.3613	-0.5804	-0.5377
0.1963	-0.5348	-0.1536	-0.037	-0.7852	-0.9985	-0.0541	-0.6828	-0.8961	0.1878	-0.5775	-0.6572	0.3471	-0.1479	-0.2077	-0.1707	0.2646	0.7425	0.3328	0.1764	0.3613	-0.7994	-0.5178
0.2219	-0.5519	-0.1422	0.0199	-0.7169	-0.9104	0.0427	-0.606	-0.7823	0.3016	-0.4836	-0.5121	0.4523	-0.1678	-0.1821	0.0199	0.276	0.7624	0.276	0.239	0.367	-1.0241	-0.4865
0.2589	-0.5348	-0.0882	0.074	-0.6429	-0.8421	0.1252	-0.5235	-0.6515	0.404	-0.404	-0.3841	0.5604	-0.1678	-0.1081	0.2333	0.2788	0.8079	0.2304	0.3414	0.3585	-1.2603	-0.4666
0.3016	-0.5348	-0.0512	0.1479	-0.5804	-0.7283	0.2077	-0.4523	-0.5462	0.4979	-0.3129	-0.256	0.6486	-0.1536	-0.0228	0.4097	0.2816	0.825	0.1991	0.4239	0.3442	-1.4736	-0.4438
0.3272	-0.4893	-0.0142	0.2048	-0.5064	-0.6401	0.293	-0.3841	-0.4353	0.6116	-0.2276	-0.1394	0.7397	-0.1593	0.0768	0.6316	0.276	0.8392	0.1821	0.5064	0.3357	-1.7069	-0.4353
0.3812	-0.4353	0.0455	0.2731	-0.4466	-0.5092	0.3841	-0.2788	-0.293	0.7169	-0.1366	0.0313	0.8307	-0.1422	0.1707	0.8136	0.2503	0.8335	0.2048	0.6003	0.3727	-1.8918	-0.421
0.4239	-0.3954	0.0939	0.3243	-0.3556	-0.4182	0.4609	-0.1906	-0.1735	0.7909	-0.0455	0.1422	0.9018	-0.1366	0.2731	0.936	0.2361	0.8193	0.2447	0.6515	0.3727	-2.0398	-0.4153
0.4637	-0.33	0.1508	0.3727	-0.2646	-0.2987	0.532	-0.0882	-0.0484	0.8933	0.0569	0.2475	0.9673	-0.1337	0.4097	1.0554	0.2247	0.788	0.2674	0.6685	0.3812	-2.1934	-0.404
0.5206	-0.239	0.202	0.4381	-0.1565	-0.1849	0.6088	0.0028	0.0882	0.9786	0.1707	0.3755	1.0355	-0.1223	0.5064	1.1237	0.2077	0.7738	0.3471	0.7141	0.441	-2.3072	-0.404
0.5434	-0.1963	0.2475	0.4495	-0.0853	-0.0967	0.6401	0.0797	0.1991	1.027	0.2703	0.4779	1.0611	-0.1223	0.5946	1.1209	0.2077	0.7197	0.3983	0.7283	0.4609	-2.3811	-0.4011
0.5718	-0.1337	0.2731	0.5007	-0.0085	0.0057	0.6771	0.1878	0.2959	1.0583	0.3641	0.5889	1.0924	-0.1195	0.6685	1.1294	0.2077	0.6629	0.4381	0.7084	0.458	-2.4324	-0.4182
0.5917	-0.0569	0.3243	0.5092	0.0939	0.1109	0.7141	0.2816	0.4381	1.101	0.4552	0.6828	1.1351	-0.1166	0.7795	1.0896	0.202	0.6202	0.4865	0.6885	0.4979	-2.4722	-0.4239
0.6372	-0.0028	0.3556	0.5377	0.1821	0.2077	0.7283	0.3784	0.5035	1.1123	0.5291	0.7681	1.1465	-0.1053	0.8279	1.0782	0.1906	0.5547	0.5121	0.6714	0.4922	-2.4551	-0.4267
0.6429	0.074	0.3897	0.5405	0.2503	0.2816	0.7397	0.458	0.6031	1.1209	0.5974	0.8392	1.1323	-0.1109	0.899	1.0498	0.1821	0.4666	0.5377	0.6344	0.5206	-2.4295	-0.4353
0.6828	0.1337	0.4296	0.5291	0.3556	0.367	0.7567	0.5519	0.6742	1.1209	0.6941	0.899	1.1294	-0.1024	0.9189	1.0042	0.1622	0.4125	0.5405	0.6031	0.5064	-2.3527	-0.4438
0.697	0.2134	0.4722	0.5377	0.4182	0.4182	0.7539	0.6116	0.7283	1.1152	0.734	0.953	1.0896	-0.0825	0.9445	0.9217	0.1394	0.3442	0.5235	0.5547	0.4922	-2.2674	-0.4637
0.7197	0.2589	0.5121	0.5092	0.458	0.4666	0.7254	0.66	0.7624	1.0725	0.7738	0.99	1.0469	-0.0825	0.9217	0.8648	0.128	0.2532	0.5092	0.5035	0.4751	-2.1393	-0.4466
0.7311	0.3414	0.5405	0.4808	0.5149	0.5291	0.6799	0.6941	0.7909	1.0213	0.8165	0.9929	0.9872	-0.0711	0.9502	0.8136	0.1024	0.1821	0.5121	0.4466	0.458	-2.0312	-0.458
0.7226	0.3442	0.5405	0.4324	0.5547	0.5206	0.6458	0.7254	0.771	0.9388	0.7966	0.9616	0.9189	-0.0711	0.8734	0.7084	0.1138	0.0541	0.4495	0.367	0.4068	-1.8805	-0.4466
0.7368	0.404	0.5491	0.4097	0.569	0.5291	0.5747	0.7141	0.7368	0.8648	0.7624	0.9388	0.8364	-0.0768	0.8648	0.6429	0.0996	-0.0512	0.4353	0.2959	0.4011	-1.7297	-0.4324
0.751	0.4239	0.569	0.367	0.5747	0.5434	0.532	0.7169	0.7226	0.7852	0.7482	0.9047	0.7454	-0.0569	0.8222	0.5633	0.0768	-0.1081	0.367	0.239	0.3272	-1.5761	-0.4324
0.7454	0.4438	0.5576	0.3442	0.5633	0.495	0.4666	0.7055	0.6629	0.6828	0.6913	0.8392	0.6458	-0.0654	0.7766	0.4523	0.0853	-0.1963	0.3243	0.1536	0.2845	-1.4111	-0.421
0.7311	0.4466	0.5604	0.3215	0.5348	0.5035	0.404	0.6771	0.6372	0.606	0.6372	0.7653	0.5434	-0.0626	0.7169	0.3385	0.0882	-0.2816	0.2646	0.0455	0.2276	-1.2574	-0.3926
0.7311	0.458	0.5633	0.3158	0.5263	0.5035	0.3499	0.6486	0.6031	0.5263	0.6003	0.7169	0.4609	-0.0541	0.6941	0.2589	0.091	-0.3556	0.2077	-0.0057	0.1707	-1.1123	-0.3954
0.7254	0.4609	0.5405	0.2816	0.5263	0.4637	0.3357	0.6031	0.5576	0.4438	0.4979	0.6458	0.3727	-0.0597	0.623	0.1166	0.0967	-0.3841	0.1678	-0.0711	0.1109	-0.9445	-0.3841
0.7254	0.4779	0.5462	0.2703	0.5206	0.458	0.3101	0.5889	0.5149	0.3897	0.4438	0.5661	0.2816	-0.0711	0.5462	0.0028	0.1138	-0.4353	0.1536	-0.1053	0.0455	-0.7624	-0.3585
0.734	0.5064	0.569	0.293	0.5149	0.4637	0.2902	0.5775	0.4666	0.3186	0.4097	0.5291	0.2475	-0.0541	0.4922	-0.0996	0.0967	-0.4495	0.165	-0.1394	0.0171	-0.5974	-0.3528
0.7169	0.5121	0.5462	0.2731	0.5121	0.458	0.2646	0.5718	0.4495	0.2646	0.3613	0.4779	0.2077	-0.074	0.421	-0.2134	0.0967	-0.4722	0.1622	-0.1678	0.0085	-0.4182	-0.3215
0.7084	0.5462	0.5747	0.2987	0.5377	0.4666	0.2788	0.5604	0.441	0.2361	0.33	0.4552	0.1678	-0.0512	0.3129	-0.33	0.074	-0.4694	0.1906	-0.1792	-0.0284	-0.2361	-0.3072
0.6998	0.5462	0.5889	0.3357	0.5434	0.4979	0.3072	0.5747	0.4552	0.2276	0.3044	0.4239	0.1309	-0.0341	0.2503	-0.4097	0.0341	-0.4267	0.2048	-0.1906	-0.0171	-0.0484	-0.293
0.7055	0.5661	0.5747	0.3328	0.5718	0.4836	0.2987	0.5718	0.4353	0.1906	0.2959	0.3983	0.1109	-0.0228	0.1451	-0.5092	0.0199	-0.4153	0.2617	-0.1935	-0.0284	0.1337	-0.276
0.6572	0.5661	0.5576	0.3471	0.5747	0.495	0.3072	0.5804	0.4267	0.1707	0.276	0.367	0.0882	-0.0114	0.0711	-0.6287	-0.0114	-0.3926	0.2532	-0.202	-0.037	0.2959	-0.2447
0.6344	0.6031	0.5604	0.3784	0.5946	0.4979	0.3442	0.5661	0.4381	0.1508	0.239	0.3129	0.0597	0.0057	-0.0171	-0.7027	-0.0455	-0.3755	0.293	-0.1735	-0.0341	0.4495	-0.2333
0.6316	0.5946	0.5576	0.3869	0.6088	0.4979	0.3499	0.5747	0.4609	0.1735	0.2447	0.3129	0.0341	0.0256	-0.1053	-0.7852	-0.0882	-0.3129	0.2532	-0.1792	-0.0341	0.5604	-0.1991
0.5775	0.6458	0.5547	0.4267	0.6685	0.5121	0.3983	0.5917	0.458	0.1479	0.2361	0.2845	0.0171	0.0398	-0.1935	-0.8449	-0.1223	-0.2987	0.2475	-0.1878	-0.0541	0.6344	-0.1678
0.5633	0.6458	0.5547	0.4097	0.6885	0.5235	0.4097	0.6031	0.4609	0.1337	0.2162	0.2617	-0.0057	0.0597	-0.2532	-0.9217	-0.1593	-0.2731	0.2247	-0.165	-0.0626	0.6629	-0.1366
0.5121	0.6657	0.5092	0.4125	0.6941	0.5064	0.3897	0.6031	0.4552	0.1195	0.1991	0.2304	-0.0142	0.0825	-0.3328	-0.9559	-0.1764	-0.2247	0.1792	-0.1764	-0.1223	0.6572	-0.1109
0.5064	0.6685	0.5007	0.4353	0.7197	0.5235	0.4296	0.6031	0.4523	0.1024	0.1935	0.2077	-0.0427	0.0939	-0.3869	-0.9616	-0.2162	-0.2191	0.1166	-0.1707	-0.1536	0.6031	-0.0768
0.4666	0.6941	0.495	0.458	0.7254	0.5291	0.441	0.6145	0.4751	0.1109	0.1906	0.2048	-0.0484	0.091	-0.4353	-0.9331	-0.2304	-0.1991	0.0882	-0.1821	-0.2162	0.5092	-0.0512
0.4609	0.7141	0.4979	0.4552	0.7539	0.5519	0.4666	0.6202	0.4922	0.1252	0.165	0.2134	-0.0825	0.1081	-0.4637	-0.8478	-0.2503	-0.1849	0.0455	-0.2077	-0.2902	0.3926	-0.037
0.4523	0.6885	0.495	0.4523	0.7624	0.5547	0.4495	0.6173	0.5035	0.1024	0.1394	0.1878	-0.0882	0.1053	-0.4666	-0.7482	-0.2447	-0.1792	-0.0228	-0.2589	-0.3556	0.2475	0.0028
0.4324	0.697	0.4694	0.4523	0.7482	0.5348	0.4495	0.6003	0.5035	0.1024	0.1252	0.1764	-0.1081	0.1252	-0.4466	-0.5917	-0.2674	-0.1707	-0.074	-0.2873	-0.3727	0.0711	0.0228
0.4523	0.697	0.495	0.4779	0.7766	0.5832	0.5007	0.623	0.5462	0.1081	0.1309	0.1849	-0.1252	0.1337	-0.4239	-0.4011	-0.2873	-0.1593	-0.0853	-0.2987	-0.4239	-0.1109	0.037
0.458	0.6998	0.5263	0.4751	0.7738	0.606	0.5007	0.6202	0.5832	0.1252	0.1195	0.2191	-0.1081	0.1536	-0.3812	-0.2247	-0.3243	-0.1422	-0.1024	-0.3442	-0.4523	-0.276	0.0654
0.4552	0.66	0.5291	0.4637	0.751	0.6287	0.4979	0.6116	0.5974	0.1109	0.1138	0.2134	-0.1422	0.1707	-0.3385	-0.0455	-0.3499	-0.1593	-0.1508	-0.3869	-0.495	-0.4523	0.0996
0.4637	0.6657	0.5434	0.4722	0.7766	0.6543	0.5206	0.6259	0.6401	0.1138	0.1337	0.2276	-0.1366	0.1735	-0.2589	0.1394	-0.3784	-0.1394	-0.1451	-0.3869	-0.495	-0.6003	0.128
0.458	0.6885	0.5747	0.4779	0.7909	0.6998	0.5377	0.6372	0.697	0.1337	0.1422	0.2674	-0.1195	0.1906	-0.2134	0.3016	-0.421	-0.0996	-0.1337	-0.3841	-0.5348	-0.7254	0.1479
0.4722	0.6401	0.569	0.4808	0.7738	0.7311	0.5377	0.6116	0.697	0.1223	0.1479	0.2646	-0.1166	0.2219	-0.128	0.4466	-0.4466	-0.0797	-0.1508	-0.3613	-0.5462	-0.8478	0.165
0.4722	0.6344	0.5747	0.4836	0.7624	0.7567	0.5462	0.623	0.7283	0.1479	0.1622	0.3101	-0.091	0.2219	-0.0541	0.6145	-0.4694	-0.0455	-0.1764	-0.33	-0.5405	-0.9701	0.1678
0.4808	0.6372	0.623	0.4922	0.7681	0.788	0.5519	0.6401	0.7681	0.1565	0.1906	0.367	-0.0797	0.2304	0.0427	0.734	-0.4922	-0.0171	-0.1707	-0.2873	-0.5178	-1.0583	0.1821
0.4751	0.6287	0.6287	0.495	0.7596	0.8023	0.5604	0.623	0.7567	0.1479	0.1935	0.3698	-0.0626	0.2361	0.1109	0.8421	-0.5007	0.0341	-0.1735	-0.2617	-0.5348	-1.1209	0.1849
0.4552	0.5946	0.6316	0.4893	0.7254	0.8051	0.5462	0.6031	0.7681	0.1508	0.1963	0.3812	-0.0654	0.2447	0.1764	0.9274	-0.5121	0.0597	-0.1849	-0.2247	-0.532	-1.1493	0.1821
0.4466	0.586	0.6145	0.4979	0.697	0.8392	0.5462	0.5633	0.8079	0.1735	0.2105	0.404	-0.0427	0.2447	0.2617	0.9929	-0.5092	0.1223	-0.1849	-0.1878	-0.5206	-1.1806	0.1878
0.441	0.5832	0.6401	0.5149	0.6685	0.8449	0.5348	0.5718	0.8023	0.1878	0.2105	0.4324	-0.0171	0.2447	0.33	1.0298	-0.5206	0.165	-0.1849	-0.1366	-0.4922	-1.1493	0.1821
0.4153	0.5547	0.6344	0.5035	0.6316	0.8449	0.5405	0.5462	0.7766	0.1878	0.202	0.4296	-0.0142	0.2304	0.3698	1.0412	-0.5092	0.2048	-0.1963	-0.091	-0.458	-1.1067	0.1906
0.3954	0.5434	0.6031	0.5035	0.6173	0.8193	0.5263	0.5007	0.7852	0.1821	0.1991	0.4523	0.0114	0.2247	0.4125	1.0042	-0.4922	0.2361	-0.2219	-0.037	-0.4182	-1.0355	0.1878
0.3499	0.5064	0.5576	0.495	0.5377	0.7852	0.4922	0.4552	0.7482	0.1821	0.202	0.4324	0.0142	0.2276	0.4381	0.9843	-0.4751	0.2873	-0.2646	0.0228	-0.3897	-0.9388	0.2048
0.3129	0.4836	0.532	0.4609	0.4979	0.7795	0.4893	0.4381	0.7368	0.1792	0.1963	0.4182	0.0085	0.2048	0.3784	0.8933	-0.4381	0.3186	-0.2475	0.0313	-0.3556	-0.8108	0.202
0.2816	0.441	0.5007	0.4552	0.4324	0.7254	0.4694	0.3641	0.6714	0.1622	0.1849	0.3897	0.0256	0.2048	0.3357	0.7852	-0.4239	0.3499	-0.2816	0.0797	-0.3101	-0.6629	0.2048
0.1906	0.4011	0.4239	0.4267	0.3442	0.6799	0.3869	0.3272	0.6543	0.1394	0.1878	0.3954	0.0284	0.1878	0.2788	0.6657	-0.3784	0.3414	-0.2589	0.1309	-0.2646	-0.4979	0.202
0.1422	0.33	0.3954	0.3841	0.2816	0.6259	0.3585	0.2703	0.6202	0.0939	0.1878	0.367	0.0398	0.1678	0.1622	0.5291	-0.3471	0.3585	-0.2703	0.1138	-0.1963	-0.3158	0.1935
0.0654	0.2788	0.3101	0.3585	0.2077	0.5633	0.3072	0.2333	0.5491	0.0711	0.1792	0.3727	0.0484	0.1337	0.0256	0.33	-0.3016	0.3613	-0.2617	0.1565	-0.1195	-0.1223	0.2105
-0.0114	0.1707	0.2105	0.3016	0.0967	0.4808	0.2276	0.1565	0.5007	0.0512	0.1735	0.3471	0.0398	0.1053	-0.1053	0.1252	-0.2333	0.3556	-0.2503	0.1565	-0.037	0.091	0.2361
-0.1195	0.091	0.1309	0.2191	0.0171	0.3812	0.1707	0.0797	0.4068	-0.0142	0.1565	0.3072	0.0028	0.0853	-0.2731	-0.128	-0.1678	0.3442	-0.2475	0.1508	0.0228	0.2959	0.2532
-0.2276	0.0057	0.0313	0.1792	-0.074	0.3016	0.091	0.0484	0.367	-0.0427	0.1735	0.2703	0.0142	0.0484	-0.4267	-0.3698	-0.1109	0.3385	-0.2134	0.1422	0.1223	0.5348	0.276
-0.3328	-0.0967	-0.0654	0.091	-0.1536	0.2077	0.0171	-0.0313	0.2447	-0.0825	0.1536	0.2304	-0.0142	0.0142	-0.5917	-0.6344	-0.0427	0.3243	-0.1906	0.1337	0.1935	0.7539	0.2987
-0.4324	-0.2105	-0.1878	-0.0057	-0.2816	0.0939	-0.0853	-0.0939	0.1678	-0.1536	0.128	0.1593	-0.037	-0.0313	-0.7795	-0.8819	0.0313	0.2959	-0.1878	0.1479	0.2503	0.9985	0.3158
-0.5291	-0.3215	-0.2987	-0.1053	-0.3641	-0.0228	-0.1821	-0.1366	0.0683	-0.2134	0.1337	0.1252	-0.0683	-0.0654	-0.916	-1.0981	0.091	0.2532	-0.1906	0.1593	0.3044	1.2261	0.3215
-0.6344	-0.4068	-0.4239	-0.2105	-0.4523	-0.1252	-0.2731	-0.202	-0.0512	-0.256	0.1223	0.074	-0.0768	-0.0853	-1.0327	-1.3143	0.1451	0.2617	-0.1678	0.1678	0.3755	1.4338	0.3272
-0.7624	-0.5007	-0.5235	-0.3158	-0.5291	-0.2589	-0.3585	-0.2703	-0.1366	-0.3158	0.0825	-0.0142	-0.1337	-0.1138	-1.1351	-1.5078	0.1935	0.2247	-0.1366	0.1622	0.4239	1.6244	0.3442
-0.8648	-0.6088	-0.6543	-0.4068	-0.6088	-0.3613	-0.4666	-0.3357	-0.2816	-0.3812	0.0654	-0.0996	-0.1963	-0.1451	-1.192	-1.6159	0.239	0.1792	-0.1109	0.1508	0.4438	1.7667	0.3471
-0.9843	-0.6913	-0.7653	-0.5377	-0.6828	-0.4979	-0.5718	-0.3755	-0.3812	-0.4779	0.0313	-0.1735	-0.239	-0.1565	-1.229	-1.7211	0.2902	0.1451	-0.0967	0.1593	0.4523	1.8833	0.33
-1.0896	-0.7909	-0.8933	-0.6429	-0.7397	-0.623	-0.66	-0.4666	-0.5178	-0.5747	-0.0171	-0.2674	-0.3016	-0.1764	-1.2176	-1.7524	0.3272	0.091	-0.0996	0.1565	0.4552	1.9573	0.3357
-1.1635	-0.8165	-0.9843	-0.7425	-0.8051	-0.7283	-0.7624	-0.4751	-0.6088	-0.6031	-0.0541	-0.3385	-0.3471	-0.1991	-1.1806	-1.7382	0.3528	0.0313	-0.0768	0.1508	0.4438	2.0085	0.3215
-1.266	-0.9388	-1.1095	-0.862	-0.8677	-0.8535	-0.8563	-0.5804	-0.7425	-0.697	-0.1479	-0.4381	-0.4267	-0.2304	-1.1493	-1.687	0.4011	-0.0228	-0.0455	0.1422	0.4125	2.0398	0.33
-1.3229	-0.9644	-1.1863	-0.9729	-0.9132	-0.9502	-0.9416	-0.6287	-0.8449	-0.7653	-0.1963	-0.5121	-0.495	-0.2304	-1.0412	-1.5931	0.421	-0.1081	-0.0284	0.1337	0.3841	2.0284	0.3442
-1.357	-1.0128	-1.246	-0.9843	-0.9303	-0.9985	-1.0185	-0.6941	-0.9388	-0.8307	-0.2532	-0.6173	-0.5547	-0.2162	-0.9047	-1.4367	0.4011	-0.1565	0.0171	0.1252	0.3556	1.9942	0.3556
-1.3997	-1.027	-1.3115	-1.0725	-0.9673	-1.0782	-1.0867	-0.7311	-1.027	-0.8762	-0.3215	-0.7084	-0.6344	-0.2219	-0.788	-1.32	0.4097	-0.202	0.037	0.0825	0.2987	1.943	0.3556
-1.4224	-1.0526	-1.3684	-1.1323	-1.0042	-1.1465	-1.155	-0.7795	-1.1038	-0.9217	-0.3784	-0.7766	-0.6856	-0.2134	-0.6828	-1.1607	0.4011	-0.2646	0.0398	0.0398	0.2475	1.8861	0.3556
-1.4196	-1.0554	-1.3911	-1.1522	-0.9872	-1.1749	-1.1892	-0.8136	-1.1607	-0.9587	-0.4296	-0.8421	-0.7397	-0.1935	-0.5491	-1.0071	0.3698	-0.2987	0.0626	-0.0028	0.2048	1.8036	0.367
-1.4025	-1.0327	-1.3741	-1.1721	-0.9673	-1.1806	-1.1977	-0.8478	-1.2062	-0.9929	-0.4694	-0.8876	-0.771	-0.1906	-0.4068	-0.8051	0.3471	-0.3556	0.074	-0.0313	0.1565	1.7382	0.3784
-1.3883	-0.9957	-1.4196	-1.1863	-0.9559	-1.1863	-1.246	-0.8933	-1.2745	-1.0014	-0.5291	-0.9502	-0.825	-0.1593	-0.2873	-0.6458	0.2987	-0.3869	0.0711	-0.0597	0.0939	1.6443	0.367
-1.3684	-0.9473	-1.3712	-1.1692	-0.9217	-1.1721	-1.2432	-0.9075	-1.2717	-1.0327	-0.5775	-0.99	-0.862	-0.1508	-0.1935	-0.4694	0.2589	-0.4466	0.0569	-0.0967	0.0512	1.5846	0.3613
-1.3513	-0.9331	-1.3741	-1.1806	-0.9416	-1.1579	-1.2745	-0.9701	-1.3257	-1.0754	-0.6543	-1.0498	-0.8876	-0.1138	-0.1166	-0.3328	0.2276	-0.4922	-0.0199	-0.1678	-0.0427	1.5362	0.3528
-1.2944	-0.8848	-1.3314	-1.1692	-0.9132	-1.118	-1.2717	-1.0071	-1.3029	-1.0896	-0.6998	-1.1038	-0.9388	-0.1024	-0.0114	-0.2077	0.1878	-0.5405	-0.0882	-0.2447	-0.091	1.5021	0.3613
-1.2233	-0.8051	-1.2574	-1.1209	-0.8904	-1.0298	-1.2631	-1.0241	-1.3058	-1.0867	-0.7311	-1.1067	-0.9445	-0.0797	0.0597	-0.0797	0.1451	-0.5832	-0.1366	-0.2902	-0.1565	1.4879	0.3414
-1.1635	-0.751	-1.1806	-1.0668	-0.8848	-1.0042	-1.2404	-1.0384	-1.2745	-1.0867	-0.7795	-1.1294	-0.9416	-0.0683	0.1024	0.0398	0.1166	-0.6088	-0.2418	-0.3499	-0.2191	1.4964	0.3385
-1.0981	-0.7027	-1.1152	-1.0355	-0.8307	-0.899	-1.2233	-1.0384	-1.2574	-1.0754	-0.8108	-1.1152	-0.9416	-0.0541	0.1508	0.1678	0.091	-0.6486	-0.3328	-0.3954	-0.2873	1.5277	0.3385
-1.0099	-0.606	-1.0071	-0.9587	-0.788	-0.8023	-1.1863	-1.0412	-1.1863	-1.0355	-0.8279	-1.0896	-0.9303	-0.0398	0.1849	0.2646	0.0455	-0.66	-0.4353	-0.4666	-0.3357	1.5931	0.3243
-0.9388	-0.5405	-0.916	-0.899	-0.7567	-0.7169	-1.155	-1.0583	-1.155	-1.0185	-0.8307	-1.0981	-0.9331	-0.0171	0.1963	0.3755	0.0256	-0.6799	-0.5519	-0.5092	-0.3897	1.6586	0.33
-0.862	-0.4466	-0.7966	-0.8506	-0.7084	-0.6259	-1.1237	-1.0469	-1.0782	-1.0014	-0.8648	-1.0554	-0.9075	-0.0171	0.239	0.5035	-0.0114	-0.7141	-0.6287	-0.5547	-0.4182	1.7524	0.3072
-0.7653	-0.3556	-0.6657	-0.7368	-0.6316	-0.495	-1.0384	-1.0071	-0.9815	-0.9673	-0.8335	-0.9758	-0.8762	0.0085	0.2532	0.5946	-0.0512	-0.7283	-0.7226	-0.5747	-0.4552	1.852	0.3215
-0.6742	-0.2731	-0.5377	-0.6629	-0.5747	-0.4153	-0.9957	-1.0042	-0.9075	-0.9132	-0.8222	-0.936	-0.825	0.0341	0.2475	0.6998	-0.0967	-0.734	-0.8023	-0.6031	-0.5035	1.9942	0.3215
-0.5889	-0.1963	-0.4153	-0.6173	-0.5348	-0.293	-0.9502	-0.9872	-0.825	-0.8791	-0.8136	-0.9132	-0.8307	0.0455	0.2731	0.7937	-0.128	-0.7596	-0.8705	-0.6685	-0.5661	2.1166	0.3016
-0.4808	-0.0939	-0.2731	-0.5348	-0.4495	-0.1821	-0.8677	-0.9331	-0.7169	-0.8193	-0.788	-0.8449	-0.7852	0.0626	0.2873	0.8762	-0.165	-0.7738	-0.8904	-0.7055	-0.5946	2.2588	0.3186
-0.404	0.0028	-0.1337	-0.4267	-0.3698	-0.0541	-0.7795	-0.899	-0.606	-0.7567	-0.7482	-0.751	-0.7596	0.0768	0.2902	0.9274	-0.1878	-0.7937	-0.9104	-0.7055	-0.6429	2.3982	0.3186
-0.3101	0.0626	-0.0313	-0.3471	-0.3272	0.0142	-0.7482	-0.8478	-0.5235	-0.7368	-0.7169	-0.6941	-0.7112	0.0797	0.2845	0.9673	-0.1906	-0.8108	-0.9217	-0.7254	-0.6742	2.5319	0.33
-0.2532	0.1337	0.0939	-0.2674	-0.2503	0.1195	-0.697	-0.8108	-0.4153	-0.6828	-0.6828	-0.6515	-0.6998	0.0797	0.2788	0.9473	-0.1906	-0.8648	-0.9189	-0.7681	-0.7027	2.6855	0.3442
-0.1565	0.2219	0.1963	-0.2048	-0.2077	0.2077	-0.6372	-0.7596	-0.3385	-0.6344	-0.6515	-0.5804	-0.66	0.0882	0.3158	0.9246	-0.1792	-0.8677	-0.899	-0.771	-0.7254	2.8306	0.3499
-0.0711	0.2959	0.3101	-0.1337	-0.1479	0.3016	-0.5804	-0.7084	-0.2304	-0.5547	-0.6003	-0.5178	-0.6145	0.0626	0.3357	0.8848	-0.1593	-0.8933	-0.8364	-0.7681	-0.7141	2.9814	0.3812
-0.0199	0.3243	0.3926	-0.0569	-0.1223	0.3556	-0.5291	-0.6515	-0.1849	-0.5064	-0.5405	-0.4666	-0.586	0.0626	0.3613	0.8193	-0.1479	-0.9189	-0.788	-0.7937	-0.7254	3.135	0.3784
0.0541	0.4068	0.4779	-0.0142	-0.0626	0.441	-0.4751	-0.6031	-0.074	-0.4523	-0.5007	-0.3841	-0.5348	0.0597	0.3841	0.7539	-0.1366	-0.9189	-0.7084	-0.7994	-0.697	3.3	0.3926
0.1195	0.4466	0.5889	0.0597	-0.0114	0.5121	-0.3954	-0.5576	0.0284	-0.3869	-0.4381	-0.3272	-0.4922	0.0569	0.421	0.6799	-0.1309	-0.9416	-0.6344	-0.7937	-0.6657	3.4508	0.3897
0.1906	0.4751	0.6344	0.1053	0.0171	0.5547	-0.3499	-0.4893	0.0768	-0.3414	-0.3869	-0.2646	-0.4523	0.0398	0.4438	0.6003	-0.1024	-0.9644	-0.5377	-0.788	-0.6486	3.5931	0.3926
0.2646	0.5121	0.6998	0.1622	0.0484	0.5974	-0.2959	-0.4466	0.1622	-0.2788	-0.3414	-0.1878	-0.404	0.0341	0.5064	0.5377	-0.091	-0.9701	-0.4466	-0.7909	-0.6486	3.7495	0.3812
0.3129	0.5491	0.7653	0.1764	0.0797	0.6202	-0.2646	-0.4011	0.1878	-0.239	-0.2845	-0.1394	-0.3727	0.0199	0.5462	0.4836	-0.074	-1.0156	-0.3869	-0.7937	-0.6173	3.9117	0.3841
0.3613	0.5462	0.7966	0.1991	0.0711	0.6344	-0.2276	-0.367	0.2646	-0.1792	-0.2333	-0.091	-0.3556	0.0114	0.5946	0.4267	-0.0541	-1.0071	-0.3414	-0.8193	-0.5917	4.0568	0.3698
0.4097	0.569	0.8222	0.239	0.0626	0.6259	-0.202	-0.3243	0.2873	-0.1337	-0.2134	-0.0256	-0.3016	-0.0114	0.6572	0.404	-0.0171	-1.0327	-0.3044	-0.8023	-0.5832	4.2047	0.3641
0.4495	0.5661	0.8364	0.2361	0.0683	0.6515	-0.1593	-0.2987	0.293	-0.1024	-0.1735	0.0341	-0.2646	-0.0199	0.7226	0.3812	0.0171	-1.0298	-0.2959	-0.7795	-0.5604	4.3469	0.367
0.4609	0.5462	0.8222	0.2304	0.0797	0.623	-0.1422	-0.2987	0.3414	-0.0541	-0.1366	0.0626	-0.2418	-0.0313	0.7823	0.3954	0.0484	-1.0298	-0.2959	-0.8079	-0.5604	4.4807	0.3613
0.4808	0.5576	0.8165	0.2532	0.074	0.6173	-0.1223	-0.2589	0.3414	-0.0427	-0.0939	0.1138	-0.1935	-0.0654	0.8535	0.4011	0.074	-1.0441	-0.3414	-0.7937	-0.5804	4.6201	0.3272
0.4808	0.5206	0.8051	0.2418	0.0569	0.6173	-0.1081	-0.239	0.3613	0.0228	-0.0768	0.1451	-0.165	-0.0683	0.899	0.3983	0.091	-1.0014	-0.3698	-0.7994	-0.5775	4.7367	0.3328
0.4979	0.5064	0.7653	0.2418	0.0541	0.586	-0.0768	-0.2361	0.3727	0.0228	-0.0427	0.1878	-0.1252	-0.0711	0.9758	0.3983	0.0996	-0.9929	-0.4267	-0.8108	-0.6003	4.8562	0.3129
0.5206	0.4808	0.734	0.2333	0.037	0.5434	-0.0797	-0.2304	0.3613	0.0626	-0.0057	0.239	-0.0853	-0.0597	1.0327	0.3869	0.1053	-0.9616	-0.5007	-0.7909	-0.586	4.9813	0.3186
0.4979	0.4552	0.6885	0.2219	0.0142	0.5149	-0.0853	-0.2276	0.3528	0.0853	0.0114	0.2503	-0.0597	-0.074	1.101	0.3897	0.1166	-0.9729	-0.5491	-0.8023	-0.606	5.0439	0.3129
0.4922	0.4296	0.6401	0.202	0.0199	0.4523	-0.091	-0.1906	0.3385	0.1223	0.0171	0.3016	-0.0199	-0.0825	1.1579	0.3158	0.1252	-0.9616	-0.5946	-0.7823	-0.6003	5.1207	0.3101
0.4922	0.367	0.5889	0.1849	0.0057	0.4068	-0.1138	-0.1678	0.3072	0.1081	0.037	0.2845	-0.0341	-0.0768	1.229	0.256	0.1223	-0.9132	-0.66	-0.788	-0.6202	5.1805	0.3072
0.4865	0.367	0.5405	0.1678	0.0284	0.3698	-0.0996	-0.1792	0.2703	0.0996	0.0683	0.2959	-0.0171	-0.0683	1.2546	0.1878	0.0996	-0.8876	-0.7283	-0.7624	-0.6088	5.2459	0.2845
0.4751	0.3556	0.4666	0.1451	0.0284	0.2845	-0.1394	-0.1678	0.239	0.0882	0.0797	0.2902	-0.0341	-0.0768	1.2916	0.1081	0.1024	-0.8876	-0.751	-0.7653	-0.5832	5.2943	0.2873
0.4722	0.367	0.4239	0.128	0.0597	0.2475	-0.1422	-0.1309	0.2333	0.1081	0.1223	0.3272	-0.0171	-0.0626	1.3314	0.0284	0.0683	-0.825	-0.7596	-0.7027	-0.5434	5.3398	0.2873
0.4722	0.3841	0.3585	0.1138	0.0825	0.1764	-0.1707	-0.128	0.1821	0.1053	0.1166	0.3385	0	-0.0427	1.3684	-0.0228	0.0512	-0.8165	-0.7567	-0.6543	-0.5092	5.4166	0.2589
0.5092	0.3983	0.3328	0.1138	0.1024	0.1565	-0.1707	-0.091	0.1707	0.1081	0.1394	0.3442	-0.0057	-0.0313	1.4167	-0.0711	0.0171	-0.7567	-0.7311	-0.6202	-0.4495	5.4479	0.2304
0.5206	0.421	0.2873	0.1138	0.1508	0.0882	-0.1792	-0.0597	0.1195	0.0996	0.1678	0.3471	-0.0199	-0.0228	1.4423	-0.0398	0.0057	-0.7283	-0.7226	-0.5121	-0.4068	5.4963	0.2276
0.5747	0.4637	0.2617	0.1394	0.1735	0.0484	-0.1906	-0.037	0.1081	0.1138	0.1849	0.3528	-0.0142	-0.0142	1.448	-0.0398	-0.0057	-0.6856	-0.66	-0.4438	-0.3613	5.5418	0.2105
0.5832	0.5178	0.2532	0.1479	0.2447	0.0228	-0.1678	-0.0171	0.0882	0.1252	0.1764	0.3499	-0.0114	0.0057	1.5135	0.0284	-0.0228	-0.6116	-0.6287	-0.3613	-0.3272	5.5759	0.2134
0.6458	0.5377	0.239	0.1451	0.2731	-0.0028	-0.1821	0.0171	0.074	0.128	0.1678	0.3556	0.0085	0.0114	1.5533	0.1536	-0.0569	-0.5747	-0.5633	-0.2589	-0.2959	5.5845	0.2077
0.7226	0.606	0.2816	0.1963	0.3613	0.0057	-0.1366	0.0541	0.0797	0.1593	0.1906	0.3841	0.0284	0.0398	1.6273	0.2902	-0.1024	-0.5092	-0.4666	-0.1422	-0.2361	5.5987	0.2077
0.7966	0.6372	0.2816	0.2077	0.3528	-0.0171	-0.1451	0.0825	0.0654	0.1622	0.1678	0.3471	0.0028	0.0626	1.6898	0.4609	-0.128	-0.4779	-0.404	-0.0455	-0.2418	5.5731	0.1963
0.862	0.6799	0.3101	0.2219	0.3897	-0.0142	-0.1394	0.0967	0.0683	0.1935	0.165	0.3698	0.0057	0.0683	1.7411	0.6429	-0.165	-0.4267	-0.3471	0.0114	-0.2134	5.5759	0.1878
0.9217	0.7254	0.3357	0.2589	0.404	0.0114	-0.1479	0.1195	0.0768	0.1735	0.1337	0.3613	0.0028	0.0882	1.8093	0.8734	-0.2048	-0.4097	-0.293	0.1138	-0.2276	5.5901	0.2048
0.99	0.7425	0.3869	0.3016	0.4267	0.0284	-0.1081	0.1223	0.0711	0.202	0.1366	0.3528	-0.0057	0.1024	1.8463	1.0355	-0.2418	-0.3784	-0.2589	0.1935	-0.2105	5.6214	0.2077
1.0469	0.8051	0.421	0.3243	0.4438	0.0711	-0.1053	0.1223	0.0768	0.2219	0.0939	0.3414	-0.0028	0.1422	1.9089	1.2432	-0.293	-0.3613	-0.2333	0.2674	-0.2418	5.6869	0.2162
1.0953	0.8279	0.4694	0.3698	0.4495	0.0797	-0.0768	0.1081	0.0996	0.2162	0.0797	0.3471	0.0085	0.1565	1.9288	1.4423	-0.3328	-0.3528	-0.1849	0.3528	-0.2447	5.7722	0.2162
1.1692	0.8421	0.5235	0.3897	0.4466	0.1252	-0.0541	0.0654	0.1252	0.239	0.0455	0.3357	-0.0114	0.1878	1.9772	1.6244	-0.4068	-0.3215	-0.1764	0.404	-0.2475	5.8718	0.2418
1.2091	0.8648	0.5775	0.4182	0.4438	0.1622	-0.0142	0.0597	0.1622	0.2703	0.0256	0.3272	-0.0341	0.2077	1.9914	1.7837	-0.4438	-0.2703	-0.2048	0.4495	-0.2987	5.9827	0.2589
1.2802	0.916	0.6287	0.4353	0.4523	0.2077	0.0142	0.0512	0.1707	0.2731	-0.0256	0.3129	-0.0199	0.239	2.0113	1.9459	-0.4979	-0.2503	-0.2219	0.5348	-0.3385	6.1079	0.2674
1.3371	0.9388	0.6941	0.4779	0.4068	0.256	0.0512	0.0085	0.1991	0.2902	-0.074	0.3016	-0.0142	0.2589	2.0739	2.091	-0.5547	-0.2361	-0.2674	0.5775	-0.4068	6.2246	0.2788
1.3598	0.9303	0.751	0.4836	0.3755	0.2674	0.0597	-0.0626	0.2219	0.2902	-0.128	0.2703	-0.0199	0.2788	2.0711	2.2076	-0.5775	-0.2077	-0.3243	0.6003	-0.4865	6.3298	0.2873
1.3741	0.9132	0.788	0.5007	0.2703	0.2987	0.0626	-0.1366	0.1963	0.293	-0.2105	0.2276	-0.074	0.2902	2.0995	2.2873	-0.606	-0.2105	-0.3897	0.6202	-0.5747	6.4322	0.2959
1.4224	0.8791	0.8421	0.5121	0.2162	0.2987	0.0711	-0.2361	0.1821	0.276	-0.2788	0.1508	-0.1109	0.3044	2.1109	2.3669	-0.6145	-0.2134	-0.4865	0.6287	-0.6856	6.5261	0.3129
1.4594	0.8506	0.8961	0.5092	0.1309	0.3044	0.074	-0.3072	0.165	0.2873	-0.3897	0.1223	-0.1223	0.3101	2.1592	2.4437	-0.6429	-0.2134	-0.5547	0.6401	-0.7624	6.6058	0.3215
1.5078	0.8392	0.936	0.5434	0.0398	0.3101	0.0711	-0.4011	0.1366	0.2845	-0.495	0.037	-0.1792	0.3243	2.2361	2.5262	-0.6685	-0.2276	-0.6401	0.6429	-0.8819	6.6541	0.3357
1.5305	0.8051	0.99	0.5405	-0.0597	0.3158	0.074	-0.4922	0.1024	0.2674	-0.5946	-0.0256	-0.2134	0.3243	2.2873	2.5917	-0.6657	-0.2361	-0.7254	0.6259	-0.9929	6.6911	0.3471
1.5561	0.7397	0.9957	0.5547	-0.1565	0.3158	0.0626	-0.5889	0.0512	0.2447	-0.6799	-0.1081	-0.239	0.3328	2.3385	2.6457	-0.6771	-0.2191	-0.7966	0.6145	-1.0668	6.7423	0.3727
1.5476	0.6828	1.0213	0.5491	-0.256	0.2873	0.0569	-0.697	-0.0085	0.2276	-0.788	-0.1821	-0.3044	0.3328	2.3698	2.6656	-0.6685	-0.2475	-0.8165	0.6003	-1.1323	6.8106	0.4068
1.5561	0.6116	1.0441	0.5576	-0.3841	0.2447	0.0284	-0.7766	-0.0341	0.2134	-0.8677	-0.2731	-0.3357	0.3385	2.3811	2.7083	-0.6799	-0.2617	-0.8563	0.5604	-1.1835	6.8646	0.4239
1.5817	0.5519	1.0526	0.5576	-0.4808	0.2219	0.0256	-0.8848	-0.1252	0.1935	-0.9616	-0.3414	-0.3755	0.3385	2.4238	2.7339	-0.6714	-0.2788	-0.8734	0.5206	-1.2574	6.9215	0.4552
1.5675	0.4438	1.027	0.5405	-0.5747	0.1508	0.0171	-0.9729	-0.1764	0.1593	-1.0697	-0.4353	-0.4153	0.3272	2.4039	2.6969	-0.6657	-0.2987	-0.8677	0.5035	-1.2773	7.0012	0.4893
1.5362	0.367	1.0213	0.5263	-0.6856	0.0711	-0.0398	-1.081	-0.2646	0.1195	-1.1607	-0.5064	-0.4751	0.3272	2.4039	2.6884	-0.6657	-0.3129	-0.8819	0.4523	-1.3371	7.0723	0.5348
1.5334	0.2646	0.99	0.5064	-0.8051	0.0028	-0.0626	-1.1721	-0.3613	0.0882	-1.2318	-0.6031	-0.5178	0.3186	2.3641	2.64	-0.6543	-0.3357	-0.8791	0.3983	-1.3456	7.1491	0.586
1.4879	0.1764	0.9473	0.5121	-0.8535	-0.0512	-0.0654	-1.2546	-0.4466	0.0569	-1.3001	-0.7027	-0.5434	0.3215	2.3328	2.5604	-0.6629	-0.3585	-0.8848	0.3755	-1.3513	7.243	0.6401
1.4367	0.0768	0.8876	0.4666	-0.9815	-0.1451	-0.1252	-1.3314	-0.5547	0.0114	-1.3968	-0.825	-0.5889	0.3272	2.2588	2.421	-0.6429	-0.3983	-0.8933	0.3186	-1.3712	7.3511	0.6998
1.394	-0.0341	0.8079	0.4182	-1.0668	-0.2447	-0.1565	-1.3997	-0.6572	-0.0171	-1.4395	-0.916	-0.6259	0.3272	2.2048	2.3129	-0.6629	-0.3954	-0.8876	0.2873	-1.3456	7.4393	0.7567
1.3086	-0.1195	0.734	0.3897	-1.1721	-0.367	-0.1935	-1.4651	-0.7909	-0.0427	-1.5163	-1.0099	-0.6629	0.3243	2.1336	2.1678	-0.6685	-0.404	-0.8848	0.2418	-1.3655	7.5247	0.7937
1.2432	-0.2105	0.6742	0.3784	-1.2404	-0.4438	-0.202	-1.522	-0.9018	-0.0683	-1.5618	-1.1067	-0.6771	0.3357	2.1024	2.017	-0.6828	-0.4011	-0.8933	0.202	-1.3542	7.5929	0.8648
1.2119	-0.2788	0.5946	0.3926	-1.3058	-0.5348	-0.2447	-1.5675	-0.9985	-0.0967	-1.5988	-1.2233	-0.7311	0.3215	2.0312	1.8691	-0.6856	-0.4153	-0.8791	0.1394	-1.3257	7.6527	0.9075
1.1323	-0.3755	0.4922	0.3926	-1.3655	-0.6572	-0.2589	-1.6216	-1.1095	-0.1252	-1.6358	-1.3058	-0.7482	0.33	1.9487	1.6557	-0.6629	-0.4239	-0.953	0.0882	-1.32	7.7153	0.9559
1.0953	-0.4153	0.4466	0.3784	-1.4253	-0.7226	-0.2646	-1.6443	-1.2091	-0.1309	-1.6443	-1.3883	-0.7766	0.3186	1.8947	1.4879	-0.6543	-0.3983	-0.9872	0.037	-1.3314	7.775	1.0042
1.0725	-0.4751	0.3897	0.4125	-1.4509	-0.7852	-0.2646	-1.6699	-1.3172	-0.1309	-1.6898	-1.485	-0.8136	0.3215	1.852	1.3598	-0.6429	-0.4239	-1.0128	-0.0199	-1.3342	7.812	1.0498
1.0241	-0.5206	0.3243	0.4523	-1.4765	-0.8364	-0.2532	-1.6785	-1.3997	-0.1195	-1.6813	-1.5391	-0.8136	0.3044	1.8179	1.1806	-0.623	-0.4296	-1.0441	-0.0541	-1.2916	7.8518	1.081
1.0213	-0.5263	0.3186	0.4979	-1.4736	-0.8734	-0.2361	-1.6642	-1.4708	-0.1109	-1.6898	-1.5846	-0.8421	0.3016	1.7866	1.1038	-0.623	-0.4125	-1.0953	-0.0427	-1.2944	7.8888	1.1266
1.0185	-0.5178	0.276	0.5804	-1.4594	-0.9047	-0.202	-1.6699	-1.5419	-0.1252	-1.6927	-1.6472	-0.8478	0.2845	1.7723	0.9985	-0.5974	-0.4495	-1.1408	-0.0569	-1.2859	7.9258	1.1692
1.0241	-0.5291	0.2902	0.6629	-1.4765	-0.9246	-0.2077	-1.6699	-1.6415	-0.1366	-1.6984	-1.7524	-0.9075	0.2845	1.7524	0.9502	-0.5832	-0.4865	-1.1835	-0.0939	-1.2916	7.9855	1.2204
1.0355	-0.5178	0.2646	0.734	-1.4423	-0.9445	-0.1735	-1.6642	-1.6955	-0.1622	-1.7411	-1.8093	-0.9502	0.2816	1.7638	0.9331	-0.5661	-0.5263	-1.2574	-0.0654	-1.3172	8.0083	1.2773
1.0526	-0.4865	0.2959	0.8335	-1.431	-0.9843	-0.1394	-1.6671	-1.7752	-0.202	-1.7496	-1.8719	-0.99	0.2703	1.7866	0.936	-0.5462	-0.5604	-1.3143	-0.0825	-1.3029	8.0623	1.3285
1.081	-0.4666	0.2674	0.899	-1.4281	-0.99	-0.1366	-1.6813	-1.8292	-0.2361	-1.8008	-1.9487	-1.0469	0.2617	1.7951	1.0185	-0.5405	-0.6145	-1.3798	-0.0597	-1.3456	8.142	1.3883
1.1123	-0.421	0.3016	0.9587	-1.4167	-1.0099	-0.1252	-1.6842	-1.9146	-0.293	-1.8349	-2.0398	-1.1294	0.256	1.8577	1.1436	-0.5291	-0.6657	-1.4566	-0.0853	-1.3826	8.2103	1.4623
1.1379	-0.4125	0.3272	1.027	-1.4139	-1.027	-0.1252	-1.7183	-1.9658	-0.3101	-1.8662	-2.0995	-1.2034	0.2674	1.9146	1.3115	-0.5434	-0.7027	-1.5192	-0.0626	-1.4111	8.307	1.5078
1.1607	-0.3897	0.33	1.0839	-1.4082	-1.0469	-0.1366	-1.7382	-2.0511	-0.3784	-1.9146	-2.2019	-1.2916	0.2646	1.9402	1.4793	-0.5377	-0.7596	-1.6045	-0.0683	-1.4623	8.4037	1.5561
1.1948	-0.367	0.3158	1.1067	-1.4139	-1.1067	-0.1849	-1.7866	-2.1479	-0.458	-1.9686	-2.31	-1.4082	0.2589	2.0085	1.6898	-0.5263	-0.7966	-1.6842	-0.1053	-1.5106	8.4862	1.6073
1.2176	-0.3528	0.2873	1.1237	-1.4736	-1.1579	-0.2361	-1.8435	-2.256	-0.569	-2.0568	-2.4437	-1.5334	0.2503	2.0312	1.9032	-0.5121	-0.8791	-1.7524	-0.1451	-1.5533	8.5716	1.6443
1.2091	-0.3499	0.2788	1.1323	-1.4907	-1.2546	-0.3101	-1.9174	-2.3897	-0.6941	-2.0995	-2.5661	-1.6415	0.239	2.0881	2.1194	-0.4979	-0.953	-1.8378	-0.1821	-1.6187	8.6541	1.6785
1.2204	-0.3641	0.2674	1.1067	-1.559	-1.3257	-0.3897	-2.0142	-2.4949	-0.7795	-2.2048	-2.7197	-1.778	0.2418	2.1422	2.3726	-0.5064	-1.0099	-1.9317	-0.2447	-1.6273	8.7195	1.724
1.2233	-0.4068	0.2077	1.0554	-1.6244	-1.4253	-0.4609	-2.091	-2.6286	-0.9075	-2.2531	-2.842	-1.8861	0.2418	2.219	2.6144	-0.5092	-1.0554	-2.017	-0.2503	-1.6785	8.7764	1.7723
1.2148	-0.4153	0.1821	1.0355	-1.6842	-1.5277	-0.5434	-2.1905	-2.7595	-1.0042	-2.3442	-2.9587	-1.9686	0.2503	2.2218	2.8221	-0.5263	-1.0782	-2.091	-0.2646	-1.6984	8.8475	1.7951
1.1863	-0.4836	0.1109	0.9616	-1.7809	-1.6443	-0.6543	-2.2844	-2.9046	-1.1123	-2.3811	-3.0867	-2.0483	0.2589	2.2474	3.0184	-0.5462	-1.0754	-2.1621	-0.2788	-1.7382	8.93	1.8179
1.1351	-0.5434	0.0882	0.899	-1.8634	-1.7325	-0.7425	-2.3641	-3.0326	-1.2062	-2.4267	-3.2062	-2.1536	0.2788	2.2161	3.1692	-0.5747	-1.081	-2.2446	-0.3243	-1.7382	9.0324	1.8349
1.0867	-0.6173	-0.0114	0.8051	-1.9402	-1.8548	-0.8079	-2.438	-3.1493	-1.2859	-2.475	-3.2972	-2.2076	0.2987	2.1735	3.32	-0.606	-1.0754	-2.293	-0.3328	-1.7354	9.1519	1.852
0.9985	-0.7141	-0.0797	0.7283	-2.0284	-1.9686	-0.9274	-2.5092	-3.2773	-1.357	-2.4864	-3.3911	-2.2361	0.33	2.1137	3.4167	-0.6685	-1.0355	-2.2958	-0.3357	-1.6813	9.3169	1.8435
0.8819	-0.825	-0.1935	0.6259	-2.1024	-2.0739	-0.9929	-2.5974	-3.3968	-1.4338	-2.4893	-3.4679	-2.256	0.3499	1.9743	3.502	-0.6885	-0.9929	-2.3356	-0.3158	-1.6329	9.4933	1.8435
0.7567	-0.9445	-0.276	0.5235	-2.1877	-2.182	-1.0839	-2.64	-3.502	-1.4708	-2.4836	-3.5162	-2.2617	0.3585	1.8264	3.5191	-0.7197	-0.9559	-2.3555	-0.3243	-1.5761	9.7152	1.8236
0.6173	-1.0754	-0.3784	0.4182	-2.2389	-2.256	-1.1294	-2.6599	-3.5731	-1.522	-2.4238	-3.5418	-2.2275	0.3698	1.65	3.5703	-0.7596	-0.8848	-2.347	-0.2987	-1.485	9.9485	1.8122
0.4609	-1.2034	-0.4694	0.3186	-2.2816	-2.3214	-1.155	-2.6628	-3.6329	-1.485	-2.3242	-3.5333	-2.182	0.4153	1.4566	3.5561	-0.8222	-0.7766	-2.31	-0.256	-1.3627	10.213	1.7894
0.2646	-1.3399	-0.5718	0.2418	-2.3186	-2.3698	-1.1806	-2.6286	-3.65	-1.4566	-2.2446	-3.5049	-2.0682	0.4353	1.2717	3.5561	-0.8819	-0.6515	-2.2702	-0.202	-1.2347	10.4691	1.761
0.0427	-1.5135	-0.6913	0.1394	-2.3555	-2.4267	-1.1948	-2.5974	-3.6926	-1.4196	-2.145	-3.4622	-1.9573	0.4609	1.0526	3.4821	-0.9331	-0.5434	-2.2247	-0.1764	-1.1095	10.7593	1.7325
-0.1849	-1.6586	-0.8335	0.0512	-2.3555	-2.4807	-1.1835	-2.5632	-3.7182	-1.3399	-2.0113	-3.3797	-1.798	0.4979	0.7994	3.4366	-1.0071	-0.3897	-2.1422	-0.0797	-0.9616	11.0523	1.6984
-0.404	-1.8236	-0.9616	-0.0569	-2.3726	-2.5149	-1.1493	-2.5149	-3.7069	-1.2489	-1.8918	-3.3057	-1.6386	0.5377	0.5576	3.2887	-1.081	-0.2134	-2.0426	-0.0142	-0.8421	11.3709	1.6756
-0.6941	-1.9942	-1.1152	-0.1309	-2.3811	-2.5547	-1.1123	-2.4523	-3.6898	-1.1379	-1.7297	-3.1606	-1.4338	0.5718	0.2902	3.135	-1.1465	-0.0569	-1.9573	0.074	-0.6572	11.681	1.6415
-0.9815	-2.1991	-1.2688	-0.2077	-2.4124	-2.5888	-1.0754	-2.3868	-3.6841	-1.0128	-1.5874	-3.044	-1.1948	0.6116	0.0313	2.9786	-1.2204	0.1081	-1.8776	0.1593	-0.4865	11.9939	1.6017
-1.2375	-2.3328	-1.4338	-0.2532	-2.4238	-2.5974	-1.0042	-2.2958	-3.6386	-0.8193	-1.3883	-2.8875	-0.936	0.6344	-0.2503	2.7965	-1.3001	0.3129	-1.761	0.2532	-0.2959	12.3182	1.5675
-1.5135	-2.5291	-1.596	-0.3072	-2.438	-2.6087	-0.9303	-2.1849	-3.5731	-0.6287	-1.1607	-2.7083	-0.6515	0.6828	-0.5121	2.5689	-1.3769	0.5519	-1.6614	0.3897	-0.0967	12.6283	1.5305
-1.798	-2.6799	-1.7524	-0.3613	-2.4352	-2.6429	-0.8392	-2.0796	-3.5049	-0.4296	-0.953	-2.5405	-0.367	0.7254	-0.7539	2.31	-1.4594	0.7937	-1.5248	0.5007	0.1337	12.9498	1.4992
-2.0341	-2.8562	-1.9516	-0.3784	-2.421	-2.6571	-0.7283	-1.9857	-3.4508	-0.2162	-0.7311	-2.3641	-0.0569	0.751	-0.9872	2.017	-1.5049	1.0384	-1.4253	0.623	0.3442	13.2314	1.4765
-2.2702	-2.9956	-2.108	-0.3755	-2.4409	-2.6827	-0.6429	-1.852	-3.3968	0.0341	-0.4893	-2.1365	0.2987	0.7766	-1.2034	1.6927	-1.5561	1.3285	-1.2745	0.7681	0.6003	13.5017	1.4623
-2.4608	-3.1123	-2.2446	-0.3442	-2.4324	-2.714	-0.5007	-1.7439	-3.337	0.2674	-0.2418	-1.9146	0.6344	0.8193	-1.4025	1.3513	-1.6244	1.6301	-1.1294	0.9445	0.8279	13.735	1.4623
-2.64	-3.2488	-2.4096	-0.3414	-2.4352	-2.7624	-0.4068	-1.6159	-3.2801	0.4922	0	-1.7183	0.9701	0.8307	-1.5817	0.953	-1.6642	1.9146	-1.0042	1.1152	1.0697	13.9569	1.4651
-2.805	-3.3399	-2.5461	-0.2902	-2.4494	-2.7937	-0.2873	-1.4992	-3.2346	0.7311	0.239	-1.5078	1.2887	0.8563	-1.7325	0.5547	-1.7211	2.1962	-0.8478	1.2944	1.2973	14.1219	1.4651
-2.9274	-3.465	-2.7026	-0.2816	-2.4722	-2.8989	-0.2048	-1.4253	-3.2431	0.9473	0.4381	-1.3542	1.5931	0.8933	-1.8548	0.0996	-1.778	2.4864	-0.697	1.4594	1.4964	14.2755	1.4765
-3.0326	-3.5675	-2.842	-0.2475	-2.5092	-2.9672	-0.1508	-1.3257	-3.2574	1.1237	0.6572	-1.1749	1.8662	0.9047	-1.963	-0.3556	-1.8179	2.7311	-0.5718	1.6358	1.687	14.3779	1.4736
-3.1237	-3.6471	-2.9871	-0.2447	-2.5604	-3.0895	-0.0882	-1.2717	-3.2972	1.2859	0.8478	-1.0583	2.108	0.9303	-2.0853	-0.8762	-1.8748	2.9729	-0.4381	1.7951	1.8548	14.4576	1.5135
-3.1806	-3.7125	-3.1635	-0.2361	-2.603	-3.2431	-0.0626	-1.2318	-3.374	1.4054	1.0241	-0.9246	2.3242	0.953	-2.1735	-1.4196	-1.9117	3.2261	-0.2987	1.9743	1.9886	14.5259	1.5135
-3.2431	-3.7694	-3.3086	-0.2361	-2.6855	-3.411	-0.0853	-1.192	-3.448	1.5277	1.1721	-0.8364	2.5006	0.9786	-2.2474	-1.9772	-1.9487	3.4337	-0.202	2.1223	2.1393	14.5827	1.522
-3.2887	-3.8292	-3.4707	-0.2589	-2.7823	-3.6215	-0.1451	-1.2034	-3.6044	1.5618	1.2688	-0.8079	2.6372	0.99	-2.3527	-2.5661	-1.9601	3.613	-0.1024	2.2617	2.2361	14.6226	1.5448
-3.2915	-3.8747	-3.63	-0.2959	-2.842	-3.8349	-0.1764	-1.2034	-3.7154	1.6273	1.3513	-0.7823	2.7168	0.9985	-2.4153	-3.1663	-1.9942	3.778	-0.0057	2.3783	2.3186	14.6567	1.5362
-3.3285	-3.9031	-3.778	-0.367	-2.97	-4.0653	-0.2845	-1.2432	-3.8975	1.5988	1.4167	-0.8136	2.7453	1.0014	-2.5063	-3.7609	-1.9914	3.869	0.0882	2.4324	2.384	14.6766	1.5277
-3.3228	-3.9174	-3.9657	-0.4267	-3.0497	-4.3213	-0.404	-1.2688	-4.0909	1.5533	1.4566	-0.8591	2.7368	0.9815	-2.5831	-4.3782	-1.9743	3.9231	0.1536	2.4779	2.3897	14.7278	1.5135
-3.3143	-3.8975	-4.1336	-0.5263	-3.1777	-4.5745	-0.5405	-1.3627	-4.3014	1.485	1.4139	-0.9388	2.6799	0.9729	-2.6855	-4.9501	-1.9516	3.9572	0.1849	2.4836	2.3726	14.7734	1.4623
-3.2744	-3.8832	-4.273	-0.5804	-3.2744	-4.8192	-0.7197	-1.4224	-4.5034	1.3911	1.4167	-1.0355	2.5888	0.9473	-2.7737	-5.5133	-1.9117	3.9487	0.2191	2.5006	2.3186	14.8302	1.448
-3.2261	-3.8491	-4.401	-0.6828	-3.3655	-5.0638	-0.8506	-1.5135	-4.6997	1.2688	1.3371	-1.1465	2.4779	0.9388	-2.8477	-6.0226	-1.8805	3.8975	0.2589	2.4949	2.2588	14.8729	1.3997
-3.1806	-3.7865	-4.5006	-0.7539	-3.4423	-5.2744	-1.0412	-1.6017	-4.9102	1.1095	1.266	-1.2887	2.3072	0.9331	-2.9046	-6.4834	-1.8605	3.8491	0.2788	2.4466	2.1621	14.9213	1.3485
-3.1009	-3.6727	-4.5916	-0.8563	-3.5077	-5.4877	-1.2261	-1.7183	-5.1151	0.9616	1.1635	-1.4338	2.1336	0.9047	-2.9501	-6.9073	-1.8179	3.7353	0.2589	2.3954	2.0284	14.9782	1.2745
-2.9985	-3.5675	-4.6485	-0.8933	-3.5248	-5.6442	-1.357	-1.8179	-5.263	0.7909	1.0611	-1.596	1.9345	0.8876	-2.9871	-7.2174	-1.7866	3.5902	0.2532	2.3242	1.8918	15.0294	1.2034
-2.8733	-3.4224	-4.6684	-0.9587	-3.5532	-5.7779	-1.5135	-1.8947	-5.4308	0.5974	0.9274	-1.7411	1.6927	0.8791	-3.0013	-7.4649	-1.761	3.4451	0.2162	2.2588	1.7069	15.0778	1.1465
-2.7396	-3.2631	-4.6343	-0.9843	-3.5475	-5.8718	-1.6329	-1.9999	-5.5503	0.4182	0.7681	-1.9061	1.4537	0.862	-2.9814	-7.6356	-1.7297	3.2488	0.1394	2.1479	1.4907	15.129	1.064
-2.5945	-3.1151	-4.5831	-0.9985	-3.5447	-5.9202	-1.7695	-2.0938	-5.6499	0.2361	0.6401	-2.0682	1.192	0.8364	-2.9444	-7.7323	-1.6898	3.0127	0.0996	2.0341	1.2717	15.183	1.0042
-2.4153	-2.9131	-4.492	-0.9786	-3.4679	-5.8832	-1.8577	-2.1592	-5.684	0.0683	0.4836	-2.219	0.9303	0.8136	-2.8733	-7.6953	-1.6529	2.7595	-0.0028	1.8975	1.0099	15.2228	0.9445
-2.1849	-2.6799	-4.2929	-0.9132	-3.3854	-5.7978	-1.9089	-2.1962	-5.6442	-0.0711	0.3414	-2.3129	0.697	0.8051	-2.7567	-7.5531	-1.6329	2.5291	-0.0797	1.7809	0.7681	15.2541	0.8677
-1.9743	-2.438	-4.1222	-0.8307	-3.2488	-5.6584	-1.9317	-2.2048	-5.6357	-0.2333	0.1935	-2.4124	0.4466	0.7852	-2.6201	-7.3426	-1.5732	2.2446	-0.1963	1.6358	0.5007	15.2911	0.8108
-1.7439	-2.1564	-3.8434	-0.7084	-3.0639	-5.4479	-1.9231	-2.1905	-5.4934	-0.3499	0.0825	-2.4665	0.2276	0.771	-2.4636	-7.0183	-1.5391	1.9373	-0.3101	1.4964	0.2276	15.3281	0.7539
-1.4594	-1.8236	-3.5106	-0.5178	-2.8221	-5.1748	-1.8321	-2.1223	-5.2971	-0.4267	-0.0114	-2.4722	0.0256	0.751	-2.2446	-6.5233	-1.5021	1.6329	-0.3926	1.3627	-0.037	15.3366	0.6486
-1.1465	-1.4594	-3.1265	-0.3101	-2.5718	-4.7907	-1.7211	-2.0284	-5.0212	-0.4808	-0.1053	-2.4551	-0.1422	0.7226	-2.0227	-5.9742	-1.4452	1.32	-0.4979	1.2318	-0.2816	15.3651	0.586
-0.8136	-1.0697	-2.6685	-0.0427	-2.2048	-4.3327	-1.5533	-1.8492	-4.6741	-0.4609	-0.1195	-2.3612	-0.2589	0.6885	-1.7297	-5.3	-1.4025	1.0213	-0.5747	1.1123	-0.4979	15.4021	0.5035
-0.4153	-0.6088	-2.1393	0.2873	-1.8065	-3.7922	-1.3115	-1.6358	-4.2559	-0.421	-0.091	-2.219	-0.3357	0.6856	-1.394	-4.5034	-1.3712	0.7141	-0.6088	1.0185	-0.6828	15.4106	0.4182
0.0142	-0.1707	-1.5789	0.6572	-1.3542	-3.1948	-1.0441	-1.3684	-3.7609	-0.3328	-0.0228	-2.0341	-0.4011	0.6572	-1.027	-3.6357	-1.3257	0.4239	-0.6372	0.9018	-0.8648	15.4362	0.3442
0.4666	0.3072	-0.9274	1.0498	-0.8762	-2.5291	-0.7226	-1.0611	-3.2318	-0.2134	0.0569	-1.8292	-0.458	0.6344	-0.6287	-2.6941	-1.2717	0.1622	-0.6515	0.7681	-0.9985	15.4419	0.2703
0.9388	0.8136	-0.256	1.5078	-0.3556	-1.798	-0.3328	-0.7311	-2.6144	-0.0284	0.1963	-1.5334	-0.4239	0.5974	-0.2447	-1.6728	-1.2204	-0.1024	-0.6088	0.6657	-1.081	15.4874	0.1792
1.4651	1.3911	0.5064	2.0056	0.2048	-0.9758	0.1081	-0.3442	-1.9345	0.1764	0.4011	-1.2176	-0.3414	0.5832	0.2304	-0.5804	-1.1863	-0.3357	-0.5576	0.6173	-1.1607	15.4846	0.1138
2.0227	1.9573	1.2631	2.5348	0.8136	-0.1622	0.5804	0.1109	-1.229	0.4324	0.5946	-0.8421	-0.2418	0.569	0.7112	0.5804	-1.1493	-0.5604	-0.441	0.5405	-1.1948	15.513	0.0569
2.6059	2.5433	2.0938	3.1066	1.4566	0.7368	1.0867	0.5661	-0.4779	0.6998	0.8307	-0.4267	-0.0967	0.5462	1.1977	1.7012	-1.1152	-0.7425	-0.3215	0.4666	-1.1635	15.5642	0.0284
3.1806	3.1578	2.9245	3.7069	2.0995	1.6642	1.6102	1.0469	0.3016	1.027	1.0611	0.0057	0.074	0.5149	1.724	2.8562	-1.0782	-0.9303	-0.1536	0.3954	-1.118	15.624	-0.0256
3.7979	3.7666	3.7894	4.3242	2.7567	2.5888	2.1536	1.5305	1.101	1.3854	1.3712	0.4353	0.2617	0.5263	2.219	3.943	-1.0583	-1.0611	0.0484	0.3158	-1.0725	15.7264	-0.0341
4.3868	4.3583	4.6513	4.9415	3.4281	3.5191	2.751	2.054	1.8918	1.7411	1.6785	0.9104	0.4922	0.5149	2.7737	5.0013	-1.0412	-1.1664	0.2646	0.2987	-0.953	15.8487	-0.037
5.007	5.0013	5.5361	5.5845	4.0795	4.4494	3.3086	2.5405	2.6571	2.1194	1.9658	1.3769	0.7226	0.5007	3.32	5.9827	-1.0185	-1.2802	0.5178	0.2788	-0.8591	16.0222	-0.0142
5.6357	5.6015	6.3753	6.2103	4.7168	5.3569	3.8605	3.0611	3.465	2.4864	2.3072	1.8662	0.9929	0.4979	3.8605	6.876	-1.0298	-1.3342	0.8023	0.2731	-0.7084	16.2498	0.0171
6.2274	6.1563	7.1918	6.8106	5.3114	6.2274	4.4209	3.539	4.1933	2.8505	2.5888	2.3072	1.2148	0.5007	4.4209	7.6783	-1.0128	-1.4025	1.0782	0.2873	-0.5604	16.4916	0.0256
6.8134	6.7366	7.9969	7.4336	5.8974	7.0894	4.9643	4.0056	4.9273	3.2204	2.916	2.751	1.4736	0.5007	4.9643	8.3297	-1.0327	-1.4509	1.3911	0.3158	-0.3841	16.8046	0.0711
7.3653	7.2828	8.7536	7.9941	6.4664	7.8774	5.465	4.4408	5.6072	3.5646	3.2118	3.1891	1.7354	0.5092	5.4707	8.8731	-1.0384	-1.4822	1.7354	0.3528	-0.1963	17.1659	0.0967
7.9428	7.8234	9.4933	8.5659	7.004	8.6598	5.9514	4.9045	6.2644	3.9117	3.5162	3.63	1.9772	0.5149	6.0226	9.2742	-1.064	-1.5021	2.0483	0.4495	-0.0341	17.5528	0.1195
8.4635	8.2956	10.1533	9.0609	7.5047	9.3198	6.4095	5.2829	6.8277	4.2189	3.7694	4.0084	2.1934	0.5064	6.5119	9.5786	-1.0526	-1.5362	2.3499	0.5348	0.128	17.9567	0.1479
8.93	8.7622	10.7849	9.5161	7.9599	9.9712	6.7992	5.6385	7.3966	4.4892	4.0113	4.364	2.3726	0.5064	6.9927	9.7806	-1.0355	-1.5761	2.6457	0.6259	0.3016	18.3664	0.1678
9.3767	9.1434	11.3339	9.9115	8.3383	10.5374	7.1321	5.9401	7.8689	4.6883	4.2047	4.6656	2.5234	0.4922	7.4165	9.8517	-0.9957	-1.6358	2.8932	0.697	0.4011	18.7732	0.1678
9.7778	9.5132	11.8232	10.2529	8.6854	11.0011	7.4222	6.1961	8.2871	4.8732	4.3441	4.9017	2.6372	0.4609	7.8091	9.8546	-0.9445	-1.6984	3.118	0.7624	0.4865	19.163	0.1707
10.1732	9.8318	12.2557	10.563	8.9556	11.4164	7.6498	6.3952	8.637	4.9842	4.4664	5.1378	2.7083	0.4296	8.2131	9.7892	-0.8848	-1.7467	3.2887	0.8478	0.5348	19.5157	0.1508
10.4662	10.1078	12.6056	10.7507	9.1747	11.7834	7.8262	6.5403	8.9385	5.1008	4.5034	5.3256	2.7823	0.3926	8.5431	9.6953	-0.8108	-1.8492	3.3683	0.8961	0.5576	19.8543	0.1166
10.7678	10.3297	12.9043	10.947	9.3596	12.048	7.9599	6.6456	9.186	5.1606	4.5518	5.4536	2.8079	0.3442	8.8333	9.5274	-0.7226	-1.9516	3.4537	0.8791	0.4979	20.1416	0.0541
11.0238	10.5317	13.1432	11.0779	9.4933	12.2585	8.0339	6.7053	9.3539	5.172	4.5347	5.5503	2.8164	0.2987	9.1064	9.3596	-0.6202	-2.0483	3.465	0.8933	0.4381	20.3919	0.0142
11.2258	10.6483	13.3083	11.1518	9.5502	12.3865	8.0566	6.6996	9.4904	5.1634	4.4408	5.5958	2.768	0.2475	9.2828	9.1007	-0.5035	-2.1592	3.3655	0.8535	0.3072	20.6651	-0.0398
11.3567	10.7792	13.4306	11.1632	9.6156	12.4804	8.051	6.6826	9.573	5.1293	4.3583	5.6385	2.714	0.1707	9.4165	8.8418	-0.3841	-2.2361	3.2801	0.8193	0.165	20.8813	-0.0996
11.4648	10.8446	13.4846	11.149	9.5815	12.5088	8.0026	6.6228	9.6213	5.0923	4.2388	5.6556	2.6884	0.1337	9.5018	8.5289	-0.2959	-2.3072	3.1123	0.7567	-0.0484	21.1202	-0.1508
11.57	10.8958	13.5273	11.1206	9.5758	12.5145	7.9343	6.5403	9.664	5.0326	4.1023	5.6385	2.6201	0.0882	9.4848	8.1989	-0.2048	-2.3755	2.9103	0.7027	-0.2162	21.3308	-0.2048
11.6042	10.8987	13.496	11.0352	9.5161	12.4804	7.8632	6.455	9.6498	4.9927	3.9515	5.6186	2.5575	0.0398	9.4392	7.8404	-0.1053	-2.4437	2.7112	0.6145	-0.421	21.5242	-0.256
11.5985	10.8958	13.4306	10.947	9.4762	12.4064	7.7949	6.3355	9.6412	4.9245	3.7808	5.5958	2.5348	0.0228	9.3425	7.4905	-0.0569	-2.475	2.4466	0.5946	-0.6458	21.6892	-0.3016
11.5501	10.8446	13.3253	10.8247	9.334	12.2813	7.6413	6.1762	9.5673	4.8619	3.5845	5.5475	2.4779	-0.0256	9.1348	7.115	0.0199	-2.4494	2.1735	0.5149	-0.8876	21.8172	-0.3499
11.4932	10.8105	13.2058	10.7024	9.2429	12.1561	7.5389	6.0396	9.4791	4.7993	3.3712	5.502	2.421	-0.0398	8.9471	6.8021	0.0541	-2.475	1.9146	0.4808	-1.1266	21.9026	-0.3897
11.4221	10.7593	13.0721	10.5999	9.1462	12.0082	7.4251	5.9145	9.4079	4.7367	3.2204	5.4735	2.421	-0.037	8.7053	6.5233	0.0569	-2.4352	1.687	0.4751	-1.3485	21.968	-0.421
11.3254	10.654	12.9128	10.4406	9.0324	11.8261	7.3284	5.7751	9.3198	4.6883	3.0212	5.3939	2.3897	-0.0512	8.4208	6.2502	0.0654	-2.4096	1.431	0.4381	-1.5789	21.9737	-0.4609
11.1718	10.563	12.708	10.2927	8.8959	11.6497	7.206	5.6271	9.1775	4.6314	2.8193	5.317	2.347	-0.0398	8.1192	6.0652	0.0455	-2.3641	1.2062	0.4523	-1.7752	21.9396	-0.4922
11.0238	10.4492	12.5288	10.1704	8.765	11.4676	7.0837	5.482	9.0779	4.6115	2.6514	5.263	2.3385	-0.0228	7.8404	5.8945	0	-2.3129	1.0213	0.4381	-1.9658	21.8855	-0.5121
10.8844	10.3439	12.3239	10.0139	8.6398	11.2656	6.9813	5.3426	8.9357	4.5489	2.4978	5.1577	2.2901	0.0057	7.5218	5.7352	-0.0484	-2.2332	0.8165	0.441	-2.1223	21.8058	-0.532
10.6938	10.1874	12.0736	9.8916	8.4919	11.0779	6.8703	5.2004	8.7935	4.4892	2.3043	5.024	2.2304	0.0398	7.2146	5.6158	-0.0939	-2.1763	0.6316	0.458	-2.3129	21.7233	-0.5434
10.4861	10.0623	11.8744	9.738	8.3354	10.8531	6.7679	5.0895	8.6256	4.4437	2.1507	4.9045	2.1962	0.0825	6.9159	5.5674	-0.1735	-2.0767	0.4865	0.4808	-2.475	21.5868	-0.5519
10.3211	9.883	11.6412	9.6071	8.2046	10.6597	6.6968	4.9586	8.4691	4.4323	1.9999	4.7822	2.1649	0.128	6.6996	5.5702	-0.2646	-1.9999	0.3499	0.5121	-2.6286	21.4445	-0.5661
10.0765	9.7152	11.3937	9.4734	8.014	10.4207	6.5688	4.805	8.2615	4.3327	1.8321	4.6371	2.1166	0.1707	6.4265	5.5475	-0.3442	-1.9288	0.2077	0.5405	-2.7709	21.2938	-0.5661
9.8603	9.5047	11.1376	9.334	7.8376	10.1818	6.4721	4.6741	8.0766	4.2929	1.6785	4.4693	2.0597	0.202	6.2331	5.6186	-0.4267	-1.8264	0.0626	0.5917	-2.9359	21.1316	-0.5661
9.6327	9.3482	10.91	9.2088	7.6669	9.9655	6.381	4.5603	7.8831	4.2616	1.4936	4.3071	2.0312	0.2447	6.0738	5.6926	-0.5206	-1.7154	-0.0654	0.6372	-3.0753	20.9552	-0.5718
9.3852	9.1206	10.6625	9.0523	7.499	9.7436	6.2928	4.401	7.6612	4.2104	1.3513	4.1478	2.0113	0.2987	5.9173	5.7694	-0.6088	-1.6017	-0.1991	0.7112	-3.2289	20.7988	-0.5519
9.1604	8.9243	10.4065	8.9414	7.2971	9.5274	6.2189	4.2986	7.4564	4.1819	1.2176	3.9657	1.9942	0.3471	5.7722	5.8718	-0.7141	-1.4765	-0.3044	0.7795	-3.3342	20.6707	-0.5434
8.8959	8.7024	10.1561	8.7821	7.1207	9.2913	6.1335	4.162	7.2032	4.1393	1.0782	3.7922	1.9715	0.3954	5.6499	5.9714	-0.8136	-1.3485	-0.3784	0.862	-3.4224	20.5484	-0.5235
8.6285	8.5004	9.8916	8.6626	6.95	9.0723	6.0852	4.0369	7.0012	4.1393	0.9473	3.6073	1.9715	0.4552	5.5674	6.0595	-0.9246	-1.2148	-0.495	0.9701	-3.5191	20.4545	-0.4979
8.3895	8.3013	9.6811	8.5346	6.785	8.8475	5.9913	3.9174	6.7708	4.125	0.8392	3.4394	1.9715	0.5263	5.519	6.1989	-1.064	-1.0469	-0.5917	1.081	-3.5618	20.3863	-0.4808
8.1391	8.0879	9.4535	8.3952	6.6143	8.6341	5.9657	3.8349	6.5631	4.1364	0.7766	3.2943	1.9743	0.5775	5.4678	6.2644	-1.1721	-0.9047	-0.6486	1.1721	-3.6016	20.355	-0.4523
7.8859	7.866	9.2145	8.2444	6.4521	8.3952	5.9116	3.7552	6.3099	4.1194	0.6828	3.1094	1.9857	0.6202	5.3825	6.3241	-1.2745	-0.7766	-0.7283	1.2887	-3.6357	20.3521	-0.4296
7.6441	7.684	8.9869	8.1562	6.3156	8.1818	5.8689	3.6528	6.0795	4.1051	0.6372	2.9786	2.0198	0.6856	5.354	6.4379	-1.3769	-0.6316	-0.771	1.431	-3.6556	20.3436	-0.4097
7.4165	7.4877	8.7935	8.0253	6.1477	7.9713	5.8206	3.5931	5.8746	4.1137	0.5974	2.8249	2.0455	0.7454	5.3626	6.4948	-1.4936	-0.4495	-0.7795	1.5504	-3.613	20.3464	-0.3812
7.1662	7.2885	8.546	7.9144	5.9685	7.7522	5.7722	3.5106	5.647	4.1222	0.5405	2.6656	2.0682	0.7795	5.3057	6.5176	-1.5732	-0.3129	-0.7823	1.6586	-3.5874	20.355	-0.33
6.9642	7.0581	8.3155	7.7778	5.8007	7.5019	5.6983	3.4224	5.3825	4.1023	0.4979	2.4893	2.0568	0.8051	5.2886	6.5119	-1.6244	-0.1707	-0.8193	1.7496	-3.5333	20.3351	-0.2959
6.7309	6.8362	8.0851	7.6555	5.6271	7.2686	5.6385	3.3399	5.1236	4.0938	0.4751	2.3299	2.0654	0.8335	5.2516	6.4721	-1.6671	-0.037	-0.8222	1.8292	-3.4764	20.3351	-0.2646
6.5517	6.6371	7.8746	7.5303	5.4479	7.0638	5.5987	3.2773	4.8846	4.1051	0.4438	2.1991	2.091	0.8677	5.2232	6.4237	-1.7297	0.1138	-0.8222	1.9117	-3.3882	20.3265	-0.202
6.3497	6.4379	7.6328	7.4222	5.263	6.8021	5.5219	3.1834	4.657	4.108	0.4438	2.0426	2.0938	0.8876	5.1919	6.3298	-1.7723	0.239	-0.8222	1.9914	-3.3	20.3151	-0.1764
6.1733	6.2246	7.4109	7.3454	5.1151	6.583	5.4564	3.1379	4.4522	4.1023	0.4353	1.9203	2.1223	0.916	5.1634	6.2217	-1.8292	0.3869	-0.7966	2.0767	-3.2147	20.3265	-0.1394
6.014	5.9941	7.2089	7.2373	4.9586	6.344	5.428	3.0269	4.2161	4.0938	0.4068	1.7695	2.1308	0.9388	5.1407	6.1051	-1.8833	0.5007	-0.7937	2.1564	-3.1265	20.3038	-0.0967
5.8576	5.7836	6.987	7.1434	4.7822	6.0965	5.354	2.9587	3.9743	4.0994	0.3983	1.6386	2.1564	0.9758	5.0582	5.9486	-1.943	0.6173	-0.7681	2.2161	-3.0497	20.318	-0.0597
5.7011	5.6072	6.7935	7.0809	4.6286	5.8803	5.2943	2.8932	3.7837	4.0795	0.4182	1.5362	2.2019	1.0042	5.0041	5.8234	-1.9971	0.7567	-0.7567	2.2958	-2.9302	20.2867	-0.0313
5.6044	5.4109	6.583	7.0296	4.492	5.6613	5.2488	2.8221	3.5902	4.0824	0.4153	1.431	2.2161	1.0298	4.9757	5.7182	-2.0568	0.899	-0.7425	2.3299	-2.8676	20.2526	0.0142
5.4678	5.2459	6.3896	6.9784	4.3441	5.4564	5.2232	2.7567	3.3968	4.0881	0.4182	1.3314	2.2674	1.0526	4.9387	5.6072	-2.1223	1.0327	-0.7169	2.3897	-2.7823	20.2013	0.0228
5.3853	5.0866	6.2018	6.9329	4.199	5.2402	5.1606	2.7026	3.2289	4.0881	0.4097	1.2574	2.3157	1.1095	4.8846	5.5617	-2.1905	1.2034	-0.7311	2.475	-2.7055	20.1274	0.0569
5.3114	4.9444	6.051	6.8959	4.1108	5.0439	5.1577	2.677	3.0867	4.1222	0.4353	1.1835	2.3726	1.1152	4.8419	5.4934	-2.2417	1.3456	-0.6913	2.4921	-2.6201	20.0363	0.0626
5.2146	4.8135	5.8718	6.8732	3.9686	4.8391	5.098	2.6059	2.9274	4.108	0.458	1.1209	2.3925	1.1408	4.7851	5.428	-2.273	1.4879	-0.6885	2.5376	-2.5461	19.9425	0.0683
5.152	4.6741	5.7267	6.859	3.8633	4.657	5.0525	2.5945	2.7624	4.1165	0.4666	1.0554	2.4523	1.1607	4.6883	5.3711	-2.3072	1.6415	-0.6742	2.5604	-2.438	19.8344	0.0683
5.0838	4.5774	5.5759	6.8561	3.7922	4.4721	5.0326	2.5461	2.6628	4.0909	0.5035	0.9843	2.4665	1.1863	4.6485	5.2886	-2.3499	1.7723	-0.6515	2.5575	-2.3328	19.7405	0.0939
5.0297	4.4892	5.4337	6.8476	3.7154	4.3043	5.0126	2.4921	2.5177	4.0966	0.5291	0.9445	2.5006	1.1977	4.5518	5.2232	-2.3783	1.9203	-0.6515	2.5604	-2.2019	19.6409	0.0996
4.9614	4.4152	5.2943	6.8476	3.6443	4.162	4.9529	2.4523	2.384	4.0852	0.5718	0.8791	2.512	1.2204	4.4664	5.0866	-2.4124	2.0227	-0.6629	2.5205	-2.1137	19.5669	0.091
4.9245	4.3583	5.1862	6.8305	3.5902	4.0198	4.9102	2.4466	2.3043	4.0653	0.5804	0.8506	2.549	1.2432	4.3498	4.9444	-2.4693	2.182	-0.6885	2.5092	-2.017	19.5186	0.0967
4.8334	4.3071	5.0411	6.822	3.5077	3.8889	4.859	2.4011	2.2048	4.0681	0.5804	0.7852	2.5376	1.2745	4.2275	4.7651	-2.5177	2.31	-0.7283	2.4551	-1.9345	19.4788	0.0996
4.7936	4.2474	4.9501	6.8248	3.4878	3.7694	4.8363	2.3811	2.1166	4.0454	0.6202	0.7141	2.5433	1.3029	4.0966	4.5347	-2.5774	2.4437	-0.7823	2.3954	-1.852	19.456	0.0967
4.7481	4.1763	4.8476	6.822	3.4309	3.6756	4.7879	2.3356	2.0426	4.0226	0.6173	0.6742	2.5348	1.3257	3.98	4.3014	-2.6457	2.5604	-0.8591	2.3527	-1.7723	19.4674	0.0797
4.6684	4.0966	4.7424	6.8049	3.3854	3.5589	4.7424	2.2958	1.9715	4.0141	0.6202	0.623	2.5262	1.3598	3.832	4.0482	-2.7026	2.6599	-0.953	2.3043	-1.7183	19.5186	0.0398
4.5944	4.0425	4.64	6.7736	3.3313	3.485	4.6883	2.2531	1.9174	4.0056	0.623	0.5718	2.5205	1.3883	3.6841	3.7666	-2.7624	2.7737	-1.064	2.2617	-1.6443	19.5527	0.0142
4.5375	3.9743	4.5375	6.7708	3.2403	3.3968	4.6286	2.2105	1.8805	3.9771	0.6344	0.5377	2.512	1.4167	3.539	3.5561	-2.8107	2.8733	-1.1806	2.2161	-1.5789	19.6096	-0.0085
4.4294	3.8747	4.4465	6.7309	3.2005	3.3313	4.5944	2.1336	1.8292	3.9458	0.6145	0.5035	2.5035	1.431	3.374	3.3	-2.8505	2.9757	-1.2944	2.1706	-1.5305	19.7149	-0.0512
4.3526	3.7979	4.364	6.694	3.1379	3.2943	4.5461	2.1052	1.7923	3.9487	0.606	0.4836	2.5035	1.4537	3.1976	3.0724	-2.8762	3.0781	-1.4139	2.1479	-1.4793	19.7917	-0.0996
4.2559	3.6983	4.273	6.6598	3.0611	3.246	4.5091	2.0511	1.7411	3.9316	0.5946	0.458	2.5376	1.4651	3.0639	2.9131	-2.9046	3.1493	-1.5248	2.1479	-1.4139	19.8827	-0.1337
4.1535	3.5931	4.2047	6.6058	2.9871	3.2062	4.475	2.0056	1.7211	3.9202	0.5775	0.4296	2.5405	1.4594	2.9103	2.751	-2.9131	3.2574	-1.6301	2.1109	-1.3229	20.0079	-0.165
4.0909	3.4878	4.1393	6.5745	2.933	3.1948	4.4408	1.963	1.7411	3.943	0.5804	0.4296	2.5604	1.4708	2.7851	2.6429	-2.916	3.3655	-1.7069	2.1194	-1.2204	20.1245	-0.2048
4.0198	3.4053	4.0681	6.5119	2.8733	3.1663	4.3953	1.9146	1.7183	3.9202	0.586	0.3897	2.5803	1.4566	2.6628	2.5689	-2.9018	3.4337	-1.7581	2.0938	-1.1237	20.2497	-0.2276
3.9174	3.2972	4.0056	6.455	2.7851	3.1578	4.3441	1.8691	1.6955	3.9031	0.5718	0.3784	2.5917	1.4281	2.5461	2.4864	-2.8449	3.5276	-1.8378	2.0711	-1.0384	20.372	-0.239
3.8491	3.2175	3.9373	6.3896	2.7112	3.1464	4.2929	1.8236	1.6842	3.9031	0.5889	0.367	2.6087	1.4167	2.4267	2.4608	-2.8079	3.6215	-1.8378	2.091	-0.8876	20.4574	-0.2617
3.741	3.1009	3.8605	6.3014	2.623	3.1066	4.2275	1.7467	1.6159	3.8377	0.5604	0.3044	2.5746	1.3542	2.3499	2.4437	-2.7083	3.6699	-1.8719	2.0711	-0.7539	20.5257	-0.2845
3.6727	3.0127	3.8121	6.2445	2.5547	3.0895	4.1876	1.7012	1.6045	3.8462	0.5946	0.2845	2.5689	1.3257	2.2816	2.4494	-2.6457	3.7637	-1.8492	2.0824	-0.6116	20.574	-0.3101
3.576	2.9103	3.7268	6.1307	2.4807	3.0412	4.1279	1.6443	1.5647	3.7837	0.5917	0.2447	2.5604	1.2773	2.1905	2.438	-2.5461	3.8178	-1.8264	2.108	-0.458	20.5939	-0.3272
3.5077	2.842	3.6585	6.0425	2.384	3.0042	4.034	1.5874	1.4907	3.7381	0.5718	0.1963	2.5518	1.2432	2.1166	2.5035	-2.4608	3.8804	-1.7923	2.1194	-0.293	20.5683	-0.3499
3.4167	2.768	3.5646	5.9031	2.293	2.9074	3.9572	1.5163	1.431	3.6756	0.5604	0.1309	2.5063	1.1948	2.0625	2.5461	-2.3726	3.9344	-1.7354	2.1365	-0.1252	20.5143	-0.367
3.3029	2.6599	3.4508	5.758	2.1735	2.805	3.815	1.4139	1.3342	3.5817	0.5633	0.0512	2.4551	1.1294	1.9942	2.603	-2.2446	3.943	-1.7041	2.1251	0.0142	20.4375	-0.3755
3.2147	2.5974	3.3256	5.6214	2.1052	2.714	3.7239	1.3627	1.2688	3.5134	0.569	0.0142	2.4039	1.0782	1.9658	2.6486	-2.1507	4.0141	-1.6386	2.1393	0.1963	20.3151	-0.3954
3.1066	2.5234	3.1948	5.4394	2.0085	2.6144	3.5874	1.2802	1.1635	3.4451	0.5633	-0.0569	2.3811	1.0213	1.926	2.6998	-2.0426	4.0369	-1.5533	2.1137	0.3528	20.207	-0.4239
3.0013	2.4665	3.0895	5.2516	1.9032	2.4921	3.4508	1.2176	1.0782	3.3569	0.5661	-0.0967	2.3584	0.9786	1.9061	2.7823	-1.9487	4.0852	-1.4566	2.091	0.5405	20.0819	-0.4523
2.879	2.3584	2.9444	5.0695	1.7923	2.3726	3.32	1.1351	0.99	3.2943	0.5775	-0.1422	2.3129	0.916	1.8605	2.7965	-1.8321	4.1023	-1.3655	2.0597	0.7112	19.9396	-0.4865
2.7481	2.3043	2.7823	4.8676	1.687	2.1991	3.1635	1.0526	0.8791	3.1862	0.5747	-0.1821	2.3043	0.8734	1.8179	2.7823	-1.7382	4.1478	-1.2745	2.0227	0.8819	19.8031	-0.5178
2.6173	2.2105	2.6201	4.6798	1.5988	2.0483	3.0127	1.0014	0.7966	3.1066	0.6003	-0.1963	2.293	0.8165	1.8122	2.8022	-1.6472	4.1734	-1.1721	1.9402	1.0611	19.6409	-0.5491
2.4978	2.1223	2.458	4.475	1.5078	1.9231	2.879	0.953	0.734	3.0696	0.6287	-0.2048	2.31	0.7937	1.7866	2.7424	-1.5931	4.2246	-1.0213	1.8719	1.2404	19.4958	-0.6088
2.3271	2.0455	2.2674	4.2644	1.4025	1.761	2.6969	0.8848	0.6629	2.9672	0.6685	-0.1963	2.3043	0.7681	1.7553	2.6713	-1.5277	4.2588	-0.9132	1.815	1.4167	19.3394	-0.6657
2.182	1.9317	2.0682	4.0255	1.2973	1.5761	2.5319	0.8648	0.6003	2.9018	0.7112	-0.1849	2.3214	0.734	1.7411	2.5718	-1.4736	4.3043	-0.7653	1.724	1.5931	19.2	-0.7169
2.0284	1.8264	1.8634	3.8007	1.2005	1.3997	2.3584	0.8051	0.5121	2.8136	0.7197	-0.1678	2.3356	0.7084	1.7069	2.421	-1.4196	4.3356	-0.6372	1.6614	1.7467	19.0463	-0.788
1.8435	1.6927	1.6386	3.5902	1.0896	1.2432	2.1763	0.7681	0.4523	2.7112	0.7766	-0.1764	2.3299	0.6828	1.6529	2.2361	-1.3769	4.3555	-0.4637	1.5903	1.9117	18.9098	-0.8335
1.6785	1.5448	1.4224	3.3285	0.9929	1.0583	1.9971	0.734	0.4068	2.623	0.8079	-0.1735	2.3157	0.6714	1.6073	2.0881	-1.32	4.4067	-0.2959	1.5135	2.0511	18.7562	-0.8876
1.5021	1.4395	1.2148	3.0981	0.8876	0.8648	1.7951	0.7084	0.3585	2.5319	0.8307	-0.1735	2.3129	0.6202	1.5334	1.8805	-1.2717	4.4294	-0.1451	1.4537	2.2076	18.6111	-0.9388
1.3371	1.2944	0.9729	2.8619	0.8307	0.6572	1.6443	0.6657	0.2873	2.438	0.9018	-0.1593	2.2986	0.6088	1.4623	1.6898	-1.2404	4.4693	0.0085	1.4281	2.3499	18.4745	-0.9758
1.1465	1.1635	0.7197	2.6144	0.7027	0.4609	1.4139	0.6031	0.1821	2.3186	0.9047	-0.1792	2.2816	0.6031	1.3968	1.4822	-1.2091	4.4863	0.1394	1.3854	2.4551	18.3465	-1.0298
0.9843	1.0128	0.4893	2.3811	0.5974	0.2788	1.2261	0.5434	0.1024	2.1877	0.9416	-0.1821	2.2417	0.5804	1.3029	1.2916	-1.1692	4.5091	0.276	1.3485	2.5518	18.227	-1.0725
0.7966	0.862	0.2873	2.1507	0.5035	0.0825	1.0441	0.495	0.0541	2.0767	0.9587	-0.1593	2.2361	0.5747	1.1977	1.118	-1.1692	4.5489	0.4125	1.3456	2.6799	18.1331	-1.1123
0.6344	0.7141	0.0569	1.9288	0.4125	-0.1195	0.8478	0.4523	-0.0114	1.9544	0.9957	-0.1366	2.2161	0.5576	1.1266	0.9872	-1.1635	4.5802	0.5576	1.3428	2.7624	18.0336	-1.155
0.4694	0.5434	-0.1735	1.687	0.2959	-0.3016	0.6515	0.3897	-0.0825	1.8748	1.0128	-0.1366	2.1934	0.5718	1.0327	0.9018	-1.1635	4.6343	0.6287	1.3456	2.8449	17.9596	-1.1948
0.2703	0.3556	-0.4182	1.4651	0.1792	-0.4836	0.4666	0.3328	-0.1508	1.7638	1.0042	-0.1735	2.1763	0.5633	0.8876	0.7823	-1.1436	4.6684	0.6828	1.3371	2.8904	17.9397	-1.2261
0.0797	0.1735	-0.6116	1.2432	0.0398	-0.6714	0.2788	0.2845	-0.2418	1.6785	1.027	-0.1394	2.1877	0.569	0.7823	0.6856	-1.1436	4.7139	0.7226	1.3712	2.9587	17.9368	-1.246
-0.0825	-0.0028	-0.8279	1.0298	-0.074	-0.8222	0.128	0.1849	-0.3186	1.5903	1.0384	-0.1309	2.1905	0.5747	0.6657	0.6429	-1.155	4.7594	0.771	1.4111	3.0298	17.9767	-1.2546
-0.2617	-0.1935	-1.0384	0.8279	-0.1935	-0.9957	-0.0541	0.1195	-0.4153	1.4964	1.0583	-0.1166	2.2019	0.5661	0.5547	0.6031	-1.1493	4.7907	0.7738	1.4395	3.0981	18.0393	-1.266
-0.4552	-0.3357	-1.229	0.6316	-0.3215	-1.1436	-0.2077	0.0484	-0.4836	1.4338	1.0668	-0.0939	2.2218	0.5718	0.4722	0.5718	-1.1607	4.8448	0.7852	1.4594	3.1692	18.1246	-1.2546
-0.606	-0.532	-1.3968	0.4637	-0.421	-1.3001	-0.3243	-0.0199	-0.5405	1.3712	1.0839	-0.0853	2.2304	0.5747	0.367	0.5576	-1.1579	4.9216	0.7795	1.4964	3.209	18.2213	-1.229
-0.8193	-0.7027	-1.5874	0.2902	-0.5576	-1.431	-0.4751	-0.074	-0.6173	1.3115	1.1123	-0.0654	2.273	0.5747	0.2845	0.569	-1.1436	4.9785	0.751	1.559	3.2744	18.318	-1.2233
-0.9758	-0.9047	-1.7866	0.1166	-0.6941	-1.5817	-0.5946	-0.1622	-0.7226	1.2375	1.1152	-0.0597	2.273	0.5604	0.2162	0.5804	-1.1152	5.0098	0.7055	1.5618	3.32	18.429	-1.2034
-1.155	-1.0782	-1.9487	-0.0484	-0.7909	-1.6955	-0.7254	-0.2162	-0.7994	1.2005	1.1379	-0.0541	2.31	0.5462	0.1422	0.6344	-1.101	5.0781	0.6885	1.5988	3.3797	18.5399	-1.1977
-1.3029	-1.229	-2.1223	-0.1935	-0.8961	-1.8179	-0.8279	-0.2589	-0.8563	1.1522	1.1607	-0.0398	2.3385	0.5462	0.1138	0.6629	-1.081	5.1094	0.6429	1.6273	3.4081	18.6395	-1.2005
-1.4651	-1.3883	-2.2759	-0.3528	-0.9872	-1.8947	-0.9331	-0.3471	-0.936	1.1067	1.1635	-0.0228	2.3499	0.5405	0.1166	0.7141	-1.0668	5.1577	0.5576	1.6329	3.4593	18.7391	-1.1835
-1.5846	-1.5163	-2.4324	-0.4836	-1.0697	-1.9914	-1.0014	-0.3812	-1.0185	1.081	1.1692	-0.0398	2.3555	0.5235	0.1337	0.7738	-1.0611	5.172	0.495	1.6529	3.4821	18.7903	-1.1977
-1.7439	-1.6386	-2.549	-0.6088	-1.1579	-2.0483	-1.081	-0.4011	-1.0839	1.0554	1.1892	-0.0228	2.4039	0.5149	0.1337	0.8791	-1.0469	5.2146	0.4267	1.6586	3.5362	18.833	-1.2204
-1.8947	-1.7752	-2.6742	-0.7397	-1.2432	-2.1166	-1.2034	-0.4523	-1.1379	1.0128	1.2176	-0.0171	2.3982	0.5064	0.1878	0.9701	-1.0298	5.2289	0.3186	1.6529	3.5675	18.8415	-1.2717
-2.0142	-1.852	-2.7965	-0.8904	-1.2944	-2.145	-1.266	-0.4979	-1.2005	0.9673	1.2233	-0.0114	2.4324	0.5121	0.2646	1.0355	-1.0128	5.2488	0.2219	1.6614	3.6016	18.8102	-1.3058
-2.1251	-1.9459	-2.9018	-0.9644	-1.3172	-2.1991	-1.2887	-0.5007	-1.2204	0.9815	1.2432	0.0085	2.4722	0.495	0.3215	1.1209	-1.0156	5.2431	0.1536	1.6187	3.6101	18.7704	-1.3513
-2.2446	-2.017	-3.0241	-1.0697	-1.3399	-2.2133	-1.3542	-0.5263	-1.2432	0.9957	1.2717	0.0541	2.5234	0.5035	0.3954	1.1607	-1.0156	5.2687	0.0597	1.613	3.6386	18.668	-1.4082
-2.3442	-2.0426	-3.1094	-1.1607	-1.3627	-2.2218	-1.3769	-0.5206	-1.2688	1.0128	1.32	0.1053	2.5746	0.5064	0.4865	1.1664	-1.0241	5.2687	-0.0114	1.6159	3.6727	18.5399	-1.4708
-2.438	-2.0654	-3.1663	-1.229	-1.3627	-2.2332	-1.4082	-0.5263	-1.2546	1.0298	1.3655	0.1422	2.623	0.5007	0.569	1.155	-1.0384	5.3028	-0.0797	1.5903	3.7211	18.3806	-1.5305
-2.5177	-2.0824	-3.2431	-1.2916	-1.357	-2.2076	-1.4281	-0.4808	-1.2375	1.0867	1.4367	0.2219	2.7112	0.5064	0.66	1.1266	-1.027	5.3085	-0.1337	1.5931	3.7581	18.1872	-1.6187
-2.5888	-2.0853	-3.2943	-1.3542	-1.3285	-2.1877	-1.4423	-0.4552	-1.2204	1.1294	1.4822	0.2703	2.768	0.5064	0.7084	1.081	-1.027	5.3341	-0.1422	1.596	3.8235	17.9937	-1.7098
-2.6543	-2.0625	-3.3598	-1.4111	-1.3172	-2.1905	-1.4139	-0.4267	-1.1835	1.1778	1.5391	0.3499	2.8818	0.5064	0.7482	0.9303	-1.0185	5.3512	-0.1991	1.5931	3.8576	17.8003	-1.8036
-2.7339	-2.0682	-3.4508	-1.4765	-1.2859	-2.2161	-1.4509	-0.3954	-1.1892	1.2034	1.5476	0.404	2.9587	0.4751	0.7624	0.8023	-0.9872	5.3825	-0.2134	1.5647	3.8975	17.6182	-1.8833
-2.8136	-2.0711	-3.5561	-1.5846	-1.2973	-2.273	-1.5163	-0.3926	-1.2005	1.2204	1.5732	0.4068	2.9643	0.441	0.734	0.6031	-0.9246	5.3626	-0.2589	1.5021	3.8861	17.439	-1.9772
-2.8847	-2.0767	-3.6158	-1.6614	-1.3001	-2.2787	-1.5561	-0.3812	-1.1977	1.229	1.5903	0.4637	3.0127	0.4296	0.6742	0.3727	-0.862	5.3569	-0.256	1.4793	3.9316	17.2911	-2.0739
-2.9928	-2.1109	-3.7296	-1.7951	-1.3001	-2.347	-1.613	-0.3926	-1.2375	1.2204	1.5903	0.4495	3.0326	0.3926	0.5917	0.1565	-0.7966	5.3341	-0.3186	1.4025	3.906	17.163	-2.1536
-3.0838	-2.128	-3.8462	-1.8833	-1.3285	-2.4124	-1.6984	-0.4267	-1.2717	1.2176	1.5732	0.441	3.044	0.3442	0.4836	-0.091	-0.7141	5.3114	-0.33	1.3285	3.8633	17.0379	-2.2304
-3.209	-2.1336	-3.9544	-2.0369	-1.3655	-2.4807	-1.7923	-0.4438	-1.32	1.1806	1.5504	0.4097	3.0298	0.3072	0.3641	-0.33	-0.6401	5.2801	-0.3784	1.2404	3.832	16.9383	-2.31
-3.3	-2.2019	-4.1165	-2.1479	-1.4224	-2.5945	-1.8918	-0.5092	-1.4111	1.1379	1.485	0.3727	3.0127	0.2646	0.202	-0.5576	-0.5491	5.2345	-0.4438	1.1465	3.7666	16.833	-2.3783
-3.411	-2.2588	-4.2275	-2.2986	-1.4736	-2.6429	-2.0113	-0.5519	-1.4651	1.0924	1.4224	0.3243	2.9786	0.2162	0.0597	-0.734	-0.4637	5.1748	-0.4722	1.027	3.6955	16.7477	-2.4494
-3.5162	-2.3413	-4.3896	-2.4324	-1.5618	-2.7823	-2.128	-0.6287	-1.559	1.0384	1.3542	0.2617	2.9416	0.1821	-0.1366	-0.916	-0.3812	5.1378	-0.5178	0.9189	3.6215	16.6965	-2.5149
-3.63	-2.4238	-4.5461	-2.6087	-1.65	-2.8932	-2.2474	-0.7141	-1.6301	0.9559	1.2973	0.2191	2.9131	0.1451	-0.2589	-1.0554	-0.3072	5.0724	-0.5519	0.7937	3.5162	16.6254	-2.5604
-3.741	-2.4921	-4.6599	-2.7197	-1.6955	-2.9786	-2.3641	-0.7539	-1.6842	0.9217	1.2347	0.1935	2.8904	0.1195	-0.4068	-1.118	-0.256	5.0439	-0.5804	0.7141	3.4309	16.5628	-2.6258
-3.8462	-2.5518	-4.8021	-2.8733	-1.7638	-3.0696	-2.4636	-0.825	-1.7325	0.8762	1.1778	0.1422	2.8619	0.091	-0.5491	-1.1806	-0.202	4.987	-0.6287	0.6088	3.3456	16.5002	-2.6656
-3.9544	-2.6315	-4.9415	-3.0212	-1.8435	-3.1635	-2.5774	-0.8762	-1.7667	0.862	1.1607	0.1622	2.8762	0.0711	-0.6657	-1.1863	-0.1707	4.9472	-0.6515	0.5235	3.2574	16.4205	-2.6969
-4.0625	-2.6742	-5.0297	-3.118	-1.8861	-3.2175	-2.6543	-0.8961	-1.7723	0.8591	1.1123	0.1821	2.8762	0.0711	-0.7681	-1.1522	-0.1622	4.9102	-0.6572	0.4637	3.1891	16.3437	-2.7254
-4.1649	-2.751	-5.1407	-3.2346	-1.9317	-3.2403	-2.7225	-0.9416	-1.7894	0.8051	1.0896	0.1991	2.8961	0.0626	-0.8591	-1.0981	-0.165	4.8846	-0.6828	0.4353	3.1265	16.301	-2.7368
-4.2275	-2.7937	-5.2061	-3.3057	-1.9715	-3.246	-2.7453	-0.9246	-1.7382	0.8677	1.1209	0.2532	2.9444	0.0797	-0.9132	-0.9985	-0.202	4.8875	-0.6941	0.3926	3.0867	16.247	-2.7538
-4.3014	-2.8335	-5.2801	-3.3854	-1.9971	-3.2659	-2.7652	-0.899	-1.7098	0.8904	1.1323	0.3044	3.0099	0.0882	-0.9331	-0.8819	-0.2162	4.859	-0.6742	0.3897	3.0241	16.2185	-2.7794
-4.3782	-2.8733	-5.3313	-3.4138	-1.9772	-3.246	-2.7396	-0.8734	-1.6273	0.9559	1.1806	0.404	3.0724	0.1138	-0.9673	-0.7966	-0.2532	4.8932	-0.6685	0.3983	2.9928	16.2271	-2.7794
-4.4152	-2.8961	-5.3313	-3.4736	-1.9715	-3.2033	-2.7254	-0.8023	-1.5419	1.0327	1.2688	0.5291	3.1976	0.1309	-0.9644	-0.6885	-0.2987	4.9074	-0.6202	0.4466	3.0156	16.2641	-2.7851
-4.475	-2.9217	-5.3711	-3.4821	-1.9459	-3.1606	-2.6713	-0.7454	-1.4253	1.155	1.3428	0.6714	3.3228	0.1678	-0.9331	-0.6003	-0.3585	4.9557	-0.586	0.5348	2.9985	16.2982	-2.788
-4.492	-2.9359	-5.3654	-3.502	-1.8947	-3.0867	-2.6087	-0.6486	-1.3029	1.2261	1.4281	0.7823	3.4252	0.1906	-0.9189	-0.5235	-0.404	4.9956	-0.5235	0.6003	3.0212	16.375	-2.788
-4.5006	-2.9274	-5.3483	-3.485	-1.8292	-2.9814	-2.5205	-0.532	-1.1323	1.3598	1.5618	0.936	3.5504	0.2333	-0.8933	-0.4182	-0.4808	5.0553	-0.4324	0.7027	3.0611	16.4575	-2.7937
-4.5461	-2.9416	-5.3256	-3.4707	-1.7837	-2.8875	-2.4352	-0.4153	-1.0327	1.4793	1.6756	1.0611	3.6471	0.2617	-0.8734	-0.3641	-0.532	5.0951	-0.3243	0.8079	3.0952	16.5457	-2.7965
-4.566	-2.9387	-5.2857	-3.4281	-1.7041	-2.7908	-2.347	-0.3101	-0.8904	1.5761	1.7581	1.2062	3.741	0.2731	-0.8535	-0.3016	-0.569	5.1634	-0.239	0.899	3.1208	16.6339	-2.7908
-4.5489	-2.9018	-5.2345	-3.4195	-1.6102	-2.6656	-2.2332	-0.202	-0.7368	1.724	1.8861	1.3485	3.8462	0.2959	-0.8222	-0.2788	-0.6116	5.2032	-0.1309	0.9872	3.1777	16.7192	-2.7766
-4.5745	-2.8676	-5.2061	-3.3825	-1.5476	-2.5661	-2.1336	-0.0882	-0.6145	1.8065	1.9971	1.4708	3.9515	0.3101	-0.8051	-0.256	-0.6486	5.2317	-0.0142	1.0896	3.2118	16.8046	-2.768
-4.5461	-2.8193	-5.152	-3.3171	-1.4623	-2.458	-2.0398	0.0398	-0.4523	1.9231	2.0995	1.6216	4.0397	0.3243	-0.771	-0.2304	-0.6742	5.2516	0.1053	1.1778	3.2517	16.8814	-2.751
-4.5489	-2.7737	-5.1207	-3.2545	-1.3741	-2.3612	-1.9373	0.1479	-0.3129	2.0142	2.2048	1.7667	4.1421	0.3357	-0.771	-0.1963	-0.6913	5.2914	0.2418	1.2631	3.2943	16.9724	-2.7197
-4.5034	-2.7368	-5.0155	-3.1777	-1.2631	-2.2133	-1.7951	0.2646	-0.1536	2.1251	2.3214	1.9061	4.2161	0.3499	-0.751	-0.1878	-0.7141	5.317	0.367	1.3314	3.32	17.0492	-2.6969
-4.4892	-2.677	-4.9387	-3.0952	-1.1493	-2.1365	-1.6785	0.3897	-0.0057	2.2133	2.4238	2.0654	4.3128	0.3471	-0.734	-0.202	-0.7226	5.3398	0.4779	1.4139	3.3456	17.1374	-2.6656
-4.4437	-2.6059	-4.8846	-2.9985	-1.0554	-1.9914	-1.5732	0.5007	0.1508	2.3271	2.5319	2.2105	4.4181	0.3442	-0.7397	-0.2105	-0.7254	5.354	0.5604	1.4736	3.3712	17.2398	-2.64
-4.3782	-2.5035	-4.7907	-2.9217	-0.9502	-1.9061	-1.4623	0.6316	0.3072	2.4295	2.6144	2.3726	4.5034	0.3442	-0.7283	-0.1991	-0.7112	5.3341	0.6344	1.522	3.3882	17.3309	-2.6059
-4.3441	-2.4409	-4.7196	-2.805	-0.862	-1.7809	-1.3542	0.7283	0.4353	2.5092	2.7311	2.5291	4.6001	0.3414	-0.7311	-0.2048	-0.6998	5.3597	0.6885	1.5504	3.3911	17.4219	-2.5689
-4.2758	-2.3157	-4.6144	-2.7055	-0.7254	-1.6642	-1.2233	0.8535	0.5889	2.623	2.8449	2.6799	4.6912	0.3442	-0.734	-0.2219	-0.697	5.337	0.7653	1.5817	3.3939	17.5158	-2.5262
-4.2189	-2.2247	-4.5205	-2.586	-0.6202	-1.5704	-1.1123	0.9587	0.734	2.7026	2.953	2.8477	4.7623	0.3215	-0.7596	-0.2077	-0.6771	5.3313	0.7823	1.6216	3.4053	17.5841	-2.5006
-4.1137	-2.0995	-4.438	-2.4551	-0.5178	-1.4594	-1.0213	1.0754	0.8762	2.7908	3.0269	2.9786	4.8249	0.3101	-0.7482	-0.202	-0.6486	5.2943	0.788	1.6472	3.3939	17.6694	-2.4665
-4.0425	-1.9942	-4.3555	-2.3499	-0.3926	-1.4054	-0.9217	1.1835	0.9758	2.842	3.1293	3.1293	4.9102	0.3044	-0.7596	-0.1479	-0.6173	5.263	0.788	1.6642	3.3996	17.7377	-2.4238
-3.943	-1.8634	-4.2332	-2.2105	-0.256	-1.2773	-0.8023	1.3086	1.118	2.9188	3.2346	3.283	4.9757	0.2873	-0.7539	-0.1309	-0.5889	5.2289	0.8335	1.6898	3.4025	17.8202	-2.3925
-3.8235	-1.7325	-4.1478	-2.0881	-0.1508	-1.2005	-0.7482	1.431	1.2347	2.9643	3.3456	3.4224	5.024	0.2703	-0.7169	-0.0626	-0.5434	5.1976	0.8392	1.7041	3.4167	17.8828	-2.384
-3.7268	-1.5988	-4.0397	-1.9857	0.0142	-1.1123	-0.6486	1.5334	1.3684	3.0269	3.4423	3.5788	5.0838	0.239	-0.7027	0.0028	-0.5149	5.1691	0.8449	1.7012	3.4394	17.9397	-2.3499
-3.6016	-1.4594	-3.9544	-1.8406	0.1309	-1.0241	-0.5661	1.6386	1.4879	3.0952	3.5504	3.704	5.1122	0.2247	-0.6515	0.0882	-0.4609	5.0923	0.862	1.7183	3.465	17.9852	-2.3385
-3.4906	-1.3371	-3.8491	-1.7467	0.2731	-0.9473	-0.4779	1.7354	1.613	3.1606	3.63	3.8462	5.1691	0.2048	-0.6344	0.1536	-0.4267	5.0297	0.8563	1.7268	3.4878	18.0279	-2.3328
-3.3797	-1.2233	-3.7268	-1.6358	0.3926	-0.8535	-0.4068	1.8463	1.7098	3.1948	3.7353	3.9743	5.1947	0.1764	-0.5946	0.2503	-0.3755	4.9444	0.8535	1.7268	3.4906	18.0592	-2.3271
-3.2744	-1.0924	-3.6528	-1.5362	0.4836	-0.7823	-0.3641	1.943	1.852	3.2574	3.8377	4.1137	5.226	0.1451	-0.5576	0.3328	-0.3414	4.8761	0.862	1.6842	3.5134	18.062	-2.3157
-3.1692	-1.0128	-3.5703	-1.4082	0.586	-0.7084	-0.3186	2.0284	1.943	3.2431	3.8975	4.2132	5.2175	0.1223	-0.495	0.458	-0.276	4.7708	0.8421	1.6216	3.4736	18.0364	-2.3299
-3.0696	-0.8961	-3.4793	-1.3257	0.6941	-0.6429	-0.2247	2.1052	2.0597	3.3086	4.0027	4.3669	5.2829	0.1081	-0.441	0.5747	-0.2304	4.6883	0.8193	1.5817	3.4764	18.0051	-2.3413
-2.9672	-0.7738	-3.3768	-1.2318	0.7766	-0.5235	-0.1707	2.2161	2.2076	3.3655	4.1137	4.5432	5.3512	0.0768	-0.4068	0.6771	-0.1878	4.6115	0.7624	1.5533	3.5106	17.9824	-2.3328
-2.8534	-0.6799	-3.2744	-1.1095	0.899	-0.4182	-0.0939	2.3015	2.3698	3.4281	4.1905	4.6969	5.3682	0.0683	-0.3215	0.8421	-0.165	4.5091	0.7454	1.4879	3.4821	17.9567	-2.3413
-2.7794	-0.5661	-3.2005	-1.0298	0.9815	-0.33	-0.0114	2.3868	2.4949	3.4906	4.29	4.8619	5.4337	0.0484	-0.2617	0.9502	-0.1366	4.4579	0.6998	1.4281	3.4935	17.9368	-2.3385
-2.6742	-0.4836	-3.118	-0.9246	1.0697	-0.2077	0.0541	2.4978	2.6486	3.5646	4.4095	5.0553	5.5048	0.0541	-0.2048	1.0839	-0.1252	4.3953	0.6515	1.3826	3.5305	17.9454	-2.3356
-2.5774	-0.3897	-3.007	-0.8449	1.1692	-0.1053	0.1252	2.586	2.8306	3.613	4.5091	5.2089	5.5446	0.0341	-0.1337	1.1664	-0.0967	4.3299	0.5917	1.3172	3.5703	17.9795	-2.3584
-2.4722	-0.2617	-2.8847	-0.7169	1.2688	0.0512	0.2105	2.6912	3.0156	3.6898	4.6115	5.3967	5.6129	0.0256	-0.0683	1.2347	-0.0683	4.3014	0.5434	1.2859	3.5987	18.0563	-2.3612
-2.3755	-0.1536	-2.7538	-0.6344	1.3712	0.1764	0.2987	2.8107	3.1862	3.7723	4.7253	5.5759	5.6783	0.0028	-0.0199	1.2773	-0.0341	4.2218	0.5092	1.2489	3.667	18.1644	-2.3811
-2.2958	-0.0455	-2.6486	-0.5434	1.4793	0.3414	0.367	2.9359	3.3712	3.8377	4.8476	5.7864	5.758	-0.0028	0	1.2859	0	4.2104	0.5348	1.2432	3.7325	18.3323	-2.3726
-2.1991	0.0711	-2.512	-0.4466	1.596	0.5064	0.4552	3.0696	3.5845	3.8975	5.0126	5.9799	5.8206	-0.0284	0.0711	1.2631	0.0284	4.1819	0.5035	1.2233	3.832	18.5115	-2.3755
-2.0967	0.2105	-2.3954	-0.3641	1.7297	0.6486	0.5263	3.1834	3.7808	3.9572	5.1264	6.1648	5.8718	-0.0541	0.1422	1.2432	0.0797	4.1336	0.5462	1.2233	3.9088	18.7049	-2.3868
-1.9914	0.3613	-2.219	-0.2646	1.8691	0.8478	0.5917	3.3456	4.0027	4.034	5.2687	6.3469	5.9344	-0.0626	0.2077	1.1977	0.091	4.1194	0.6173	1.2603	4.0226	18.9638	-2.3897
-1.8634	0.495	-2.0455	-0.1935	1.9942	1.0213	0.6401	3.4793	4.199	4.071	5.4138	6.5176	5.9714	-0.0683	0.2646	1.192	0.1081	4.0966	0.6742	1.2773	4.1421	19.1886	-2.3868
-1.7297	0.6685	-1.889	-0.0768	2.1393	1.229	0.7368	3.613	4.3868	4.1165	5.5304	6.6968	6.0254	-0.0683	0.3585	1.1579	0.128	4.0767	0.8051	1.3314	4.2559	19.4247	-2.4011
-1.5817	0.8506	-1.6898	0.0028	2.3385	1.4423	0.7937	3.7894	4.6144	4.1563	5.6897	6.8732	6.0624	-0.0853	0.4182	1.1892	0.1337	4.0795	0.9445	1.3712	4.4095	19.6324	-2.4011
-1.4196	1.0071	-1.4879	0.1109	2.5092	1.6443	0.8762	3.9487	4.822	4.2218	5.8462	7.0666	6.1108	-0.0939	0.4751	1.2062	0.1479	4.1051	1.0981	1.4423	4.5461	19.8116	-2.3925
-1.246	1.2233	-1.2546	0.2219	2.7112	1.8947	0.9786	4.1393	5.0752	4.2872	6.0453	7.2658	6.1989	-0.0797	0.5263	1.2404	0.1337	4.1194	1.2745	1.5248	4.6883	19.9937	-2.4011
-1.0526	1.4196	-1.0298	0.3385	2.9018	2.1052	1.0526	4.3185	5.2886	4.3413	6.1876	7.4535	6.2615	-0.0825	0.5832	1.3058	0.1337	4.1307	1.4936	1.6159	4.8249	20.1103	-2.4096
-0.8705	1.6358	-0.7795	0.4694	3.0753	2.3527	1.118	4.4863	5.4877	4.4038	6.3412	7.6584	6.3327	-0.0882	0.6173	1.3741	0.1337	4.145	1.7154	1.6984	4.9614	20.244	-2.4039
-0.6629	1.8548	-0.5178	0.6116	3.3228	2.6286	1.2574	4.6997	5.7324	4.4863	6.5147	7.8461	6.4208	-0.0853	0.6202	1.4537	0.1337	4.2132	1.9544	1.7866	5.0951	20.3237	-2.3925
-0.421	2.0824	-0.2304	0.7482	3.539	2.8847	1.3513	4.9159	5.9657	4.5859	6.7167	8.0566	6.509	-0.074	0.6344	1.5248	0.1138	4.2559	2.2275	1.889	5.2601	20.4176	-2.3954
-0.2304	2.3043	0.037	0.9274	3.7723	3.1578	1.4736	5.0866	6.1847	4.6798	6.8789	8.2615	6.62	-0.0797	0.6486	1.6358	0.1081	4.31	2.5149	1.9999	5.3796	20.4801	-2.3783
0.0057	2.5035	0.3044	1.0554	3.9743	3.4053	1.5874	5.3114	6.3981	4.7851	7.0695	8.4748	6.748	-0.0597	0.6401	1.7325	0.1024	4.364	2.805	2.0796	5.5247	20.5484	-2.3499
0.2105	2.7168	0.5889	1.2091	4.1962	3.6727	1.6927	5.5076	6.6228	4.8818	7.243	8.6711	6.8476	-0.0768	0.6145	1.8292	0.1053	4.4408	3.0668	2.1877	5.6442	20.6281	-2.3413
0.421	2.9501	0.8791	1.3542	4.4294	3.9344	1.8378	5.7125	6.8447	5.0041	7.4194	8.8731	6.9756	-0.074	0.606	1.9402	0.1109	4.5006	3.3882	2.2759	5.7551	20.7134	-2.3271
0.6316	3.1806	1.1579	1.5248	4.6656	4.1876	1.9772	5.9059	7.0581	5.1378	7.5872	9.0893	7.1065	-0.0654	0.6116	2.0654	0.1138	4.566	3.6386	2.3954	5.886	20.7845	-2.3072
0.8791	3.3996	1.4395	1.687	4.8875	4.4607	2.108	6.1051	7.2572	5.2402	7.7579	9.2543	7.2032	-0.074	0.6116	2.1877	0.1223	4.6229	3.8946	2.4864	5.9941	20.8784	-2.2958
1.0782	3.6044	1.7211	1.8292	5.1264	4.7168	2.256	6.2871	7.482	5.3711	7.9485	9.4705	7.3483	-0.074	0.606	2.3385	0.1252	4.694	4.1165	2.5803	6.1136	20.941	-2.3072
1.3485	3.8605	2.0142	2.0085	5.3455	4.9984	2.4039	6.4891	7.701	5.519	8.1391	9.6611	7.4763	-0.0711	0.6173	2.5063	0.1166	4.7737	4.31	2.6571	6.2274	21.0093	-2.293
1.5761	4.0881	2.3072	2.2076	5.6072	5.2601	2.5746	6.7025	7.9172	5.6414	8.3041	9.8574	7.6015	-0.0797	0.6572	2.6969	0.1109	4.8192	4.4693	2.7453	6.3127	21.052	-2.2901
1.8122	4.3128	2.6059	2.3982	5.8519	5.5162	2.7368	6.8902	8.1164	5.795	8.4521	10.0367	7.7238	-0.0569	0.6856	2.8818	0.0939	4.9159	4.6115	2.7937	6.3924	21.0747	-2.3015
2.0711	4.5575	2.916	2.5718	6.0795	5.7921	2.916	7.0922	8.344	5.9571	8.6228	10.2187	7.8518	-0.0626	0.7197	3.044	0.0939	4.9586	4.731	2.8335	6.4863	21.0889	-2.3186
2.3214	4.805	3.2147	2.768	6.3383	6.0539	3.1037	7.2914	8.5573	6.1221	8.7906	10.3951	7.9997	-0.0597	0.7681	3.1948	0.0797	5.0212	4.8363	2.8875	6.5574	21.1089	-2.3356
2.5888	5.0354	3.5049	2.9672	6.5602	6.3298	3.2545	7.4678	8.7735	6.2786	8.9215	10.5715	8.1249	-0.0597	0.862	3.2972	0.0882	5.0724	4.8903	2.9018	6.62	21.1373	-2.3555
2.8619	5.2744	3.8377	3.1976	6.8134	6.6171	3.4508	7.6697	8.9812	6.455	9.0808	10.7706	8.2871	-0.0569	0.9075	3.3768	0.0768	5.1264	4.9358	2.9387	6.6769	21.1828	-2.3698
3.1379	5.5645	4.1706	3.4537	7.0581	6.9073	3.6898	7.8945	9.2515	6.674	9.2429	10.9527	8.4606	-0.0341	0.9473	3.4195	0.0541	5.1976	4.9899	2.9814	6.7395	21.2625	-2.384
3.4537	5.8433	4.5347	3.7069	7.317	7.2117	3.9316	8.0822	9.5018	6.8703	9.3823	11.1547	8.6199	-0.0455	1.064	3.4252	0.037	5.2402	4.9842	3.0212	6.7708	21.3478	-2.3868
3.7353	6.0624	4.8761	3.9373	7.5531	7.5218	4.1535	8.2472	9.7493	7.0609	9.536	11.3538	8.7849	-0.0427	1.118	3.4053	0.0484	5.2971	4.9671	3.0696	6.7878	21.4645	-2.4039
4.0369	6.3383	5.2402	4.236	7.7978	7.849	4.3896	8.4606	10.0139	7.2686	9.6839	11.5473	8.9642	-0.0313	1.2119	3.3541	0.0199	5.3426	5.0041	3.1123	6.8362	21.5754	-2.4124
4.3469	6.5887	5.5958	4.5091	8.031	8.1932	4.6371	8.637	10.2785	7.4791	9.8233	11.7464	9.1178	-0.0341	1.32	3.2972	0.0199	5.4024	5.0013	3.1322	6.8817	21.712	-2.421
4.64	6.8334	5.9657	4.7907	8.27	8.509	4.896	8.8418	10.5203	7.684	9.9798	11.9171	9.2657	-0.0228	1.4224	3.2118	0.0085	5.4337	4.9757	3.1948	6.9159	21.8571	-2.4267
4.9728	7.1292	6.3782	5.1122	8.5374	8.8589	5.1663	9.0324	10.8048	7.9087	10.1277	12.0992	9.4307	-0.0142	1.5248	3.0952	-0.0085	5.482	4.987	3.2488	6.9727	21.9879	-2.438
5.2801	7.3938	6.7423	5.3825	8.7309	9.1917	5.4024	9.2202	11.0409	8.0936	10.2244	12.2215	9.5616	-0.0057	1.6244	2.9899	-0.0114	5.4963	4.9671	3.2773	6.9955	22.1216	-2.438
5.6015	7.6584	7.1321	5.7039	8.9727	9.5388	5.6613	9.371	11.2998	8.2842	10.3382	12.3723	9.6811	-0.0142	1.7325	2.9046	-0.0199	5.5162	4.9614	3.3342	7.0524	22.2411	-2.4153
5.9202	7.8774	7.5019	6.0254	9.1548	9.8461	5.9059	9.5132	11.5302	8.4549	10.4122	12.4918	9.7892	-0.0142	1.8207	2.7851	-0.0114	5.5304	4.9557	3.3882	7.0979	22.3634	-2.421
6.2331	8.1391	7.8746	6.3099	9.3653	10.1846	6.1477	9.6498	11.7464	8.6313	10.526	12.5828	9.8916	-0.0057	1.9089	2.6685	-0.0171	5.5446	4.9444	3.4565	7.1548	22.4915	-2.4124
6.546	8.3866	8.2757	6.6371	9.5388	10.5146	6.3981	9.7892	11.974	8.8276	10.6028	12.6568	9.9627	-0.0114	1.98	2.5632	-0.0142	5.5674	4.9529	3.5191	7.1861	22.6138	-2.3811
6.839	8.6029	8.6228	6.9272	9.738	10.8304	6.6399	9.8944	12.176	8.9613	10.6739	12.7507	10.0395	0.0057	2.0739	2.4409	-0.0313	5.5845	4.9671	3.6244	7.2459	22.7759	-2.3584
7.1378	8.8276	9.0324	7.2373	9.9086	11.1462	6.8789	10.0253	12.4036	9.1405	10.7393	12.836	10.1448	0.0142	2.1365	2.3413	-0.0484	5.6044	5.0013	3.7296	7.3141	22.9296	-2.3385
7.4109	9.0381	9.3539	7.5474	10.048	11.4306	7.1121	10.122	12.5771	9.2998	10.7735	12.8787	10.1647	0.0199	2.1621	2.2617	-0.0626	5.593	5.0183	3.8121	7.3483	23.1116	-2.2958
7.684	9.2287	9.7294	7.8461	10.2074	11.7407	7.3454	10.233	12.782	9.4648	10.8503	12.947	10.2643	0.0341	2.1735	2.1905	-0.0853	5.6186	5.0724	3.96	7.445	23.3563	-2.2588
7.9343	9.4165	10.0424	8.1192	10.3524	11.9911	7.5958	10.3012	12.9413	9.6185	10.9186	13.0038	10.3183	0.0455	2.1564	2.1621	-0.1024	5.63	5.1236	4.0852	7.5332	23.5867	-2.2304
8.1477	9.6156	10.3667	8.3952	10.4975	12.267	7.812	10.4036	13.0977	9.7892	10.9442	13.038	10.3923	0.0341	2.1223	2.1109	-0.1024	5.6698	5.1435	4.2019	7.6043	23.8655	-2.1934
8.3497	9.7664	10.6512	8.6313	10.6284	12.5032	8.031	10.4861	13.2343	9.9172	10.9897	13.0664	10.4378	0.0313	2.0881	2.1223	-0.1053	5.6926	5.1748	4.3157	7.684	24.1301	-2.1678
8.5204	9.9257	10.91	8.8703	10.7137	12.7051	8.1989	10.5317	13.3367	10.0281	11.0096	13.0778	10.4691	0.0341	2.0597	2.1877	-0.0853	5.7182	5.189	4.4266	7.7323	24.4004	-2.145
8.6996	10.0367	11.1376	9.0808	10.8133	12.9071	8.3696	10.5886	13.4448	10.1334	11.0437	13.0807	10.5146	0.0199	2.0028	2.2787	-0.0654	5.7182	5.2089	4.5233	7.7921	24.6564	-2.1052
8.8447	10.1931	11.4022	9.297	10.9157	13.1148	8.5687	10.6568	13.5643	10.287	11.0836	13.1034	10.5743	0.0171	1.9373	2.3925	-0.0683	5.7893	5.2431	4.6485	7.8831	24.9181	-2.0625
8.9812	10.2899	11.6127	9.4705	11.0068	13.2713	8.6996	10.6853	13.6553	10.4036	11.1063	13.1176	10.5943	-0.0057	1.8406	2.4807	-0.0398	5.812	5.2573	4.7338	7.9372	25.1742	-2.0284
9.0751	10.3923	11.7806	9.6156	11.075	13.4306	8.856	10.7365	13.7094	10.4805	11.1348	13.112	10.6255	0	1.798	2.6543	-0.0313	5.8405	5.2573	4.8363	7.9941	25.4103	-1.9971
9.1633	10.4748	11.9911	9.7835	11.1689	13.5899	9.004	10.8019	13.7862	10.5914	11.1831	13.1091	10.6483	-0.0028	1.7183	2.805	-0.0228	5.8746	5.2801	4.9301	8.0595	25.6265	-1.9772
9.2515	10.5573	12.1419	9.9115	11.2343	13.7236	9.132	10.8503	13.8744	10.6938	11.2457	13.1006	10.6824	-0.0114	1.6159	2.9729	-0.0085	5.8945	5.2801	4.9984	8.1078	25.8256	-1.9373
9.3283	10.6284	12.2813	10.048	11.2998	13.8289	9.2429	10.9186	13.937	10.7536	11.2571	13.0807	10.6938	-0.0114	1.5504	3.1521	-0.0085	5.9173	5.3	5.0923	8.1448	25.9849	-1.9004
9.4108	10.6682	12.4178	10.1419	11.405	13.9683	9.3681	10.9812	14.0223	10.8361	11.3026	13.0892	10.7137	-0.0171	1.4509	3.3	-0.0085	5.9827	5.2801	5.1463	8.196	26.1471	-1.889
9.4421	10.7223	12.5373	10.2244	11.4847	14.0735	9.4677	11.0494	14.0849	10.9129	11.351	13.092	10.7223	-0.0085	1.3285	3.4423	-0.0142	6.0112	5.2943	5.2175	8.2216	26.2922	-1.8605
9.4904	10.782	12.6369	10.361	11.5843	14.2101	9.5786	11.1348	14.1589	11.0068	11.4306	13.1091	10.7678	-0.0028	1.229	3.6044	-0.0142	6.051	5.3199	5.2914	8.2785	26.4088	-1.8321
9.5217	10.8275	12.7364	10.4207	11.6696	14.304	9.6839	11.2116	14.2158	11.0637	11.4762	13.1319	10.8048	-0.0028	1.1237	3.7296	-0.0256	6.0766	5.3256	5.3398	8.3041	26.5368	-1.7951
9.5388	10.856	12.8246	10.5061	11.7578	14.4234	9.7863	11.2884	14.2983	11.149	11.5387	13.1575	10.8275	0.0142	0.9815	3.8064	-0.0484	6.1421	5.3313	5.3939	8.3383	26.6449	-1.7581
9.536	10.8987	12.9242	10.5971	11.8574	14.5287	9.9086	11.388	14.4234	11.2486	11.607	13.2115	10.9015	0.0228	0.8506	3.8775	-0.0711	6.2018	5.354	5.4451	8.3667	26.7502	-1.7268
9.5644	10.9413	13.0067	10.6995	11.9712	14.6624	10.0395	11.479	14.5116	11.3538	11.6611	13.2627	10.9584	0.0569	0.751	3.9458	-0.1138	6.2843	5.3512	5.5133	8.361	26.8555	-1.6785
9.5986	11.0039	13.1063	10.8048	12.0935	14.8445	10.1818	11.6042	14.6425	11.4989	11.7606	13.3367	11.0637	0.074	0.6372	3.9942	-0.1792	6.3753	5.3853	5.5958	8.4037	26.9778	-1.6216
9.6441	11.0011	13.203	10.8958	12.1874	14.9696	10.3183	11.7066	14.7591	11.6269	11.846	13.3993	11.1433	0.1081	0.532	3.9885	-0.2304	6.4863	5.4251	5.6442	8.398	27.0944	-1.5789
9.6782	11.0608	13.2912	11.0153	12.304	15.1233	10.4691	11.8147	14.8957	11.7493	11.9143	13.496	11.2429	0.1252	0.4666	3.9942	-0.2816	6.5716	5.4109	5.7153	8.4179	27.2225	-1.522
9.701	11.112	13.3993	11.1177	12.3922	15.2911	10.6227	11.9513	15.0351	11.8972	11.9968	13.5956	11.3965	0.165	0.3698	3.9401	-0.3442	6.6683	5.4507	5.7893	8.4066	27.3647	-1.4793
9.7266	11.1632	13.5444	11.26	12.5288	15.4447	10.782	12.0764	15.183	12.0565	12.065	13.6639	11.5018	0.1906	0.3072	3.8719	-0.4068	6.7935	5.4906	5.8405	8.435	27.5325	-1.4367
9.7664	11.1974	13.6155	11.3396	12.634	15.6183	10.9413	12.1675	15.3253	12.2101	12.1219	13.7577	11.6355	0.2191	0.256	3.8093	-0.4609	6.9045	5.5532	5.9173	8.4635	27.6947	-1.3741
9.829	11.2315	13.7264	11.4506	12.7194	15.7947	11.0921	12.2386	15.459	12.3666	12.2101	13.8744	11.7863	0.2333	0.1963	3.7325	-0.5149	7.0496	5.5845	6.0169	8.4805	27.8796	-1.3314
9.8517	11.2514	13.8402	11.5359	12.8303	15.9312	11.2457	12.3382	15.5898	12.4946	12.2699	13.9398	11.9114	0.2589	0.165	3.6414	-0.5434	7.1918	5.6101	6.0795	8.4891	28.0788	-1.2773
9.9143	11.2941	13.9199	11.6127	12.8787	16.082	11.3368	12.4263	15.6979	12.6426	12.3125	14.0223	12.0508	0.2646	0.1024	3.5646	-0.5832	7.3369	5.6414	6.1534	8.5004	28.2665	-1.2233
9.9798	11.3396	14.0223	11.6895	12.9754	16.2214	11.4961	12.4946	15.8231	12.7933	12.3552	14.1105	12.213	0.3016	0.1053	3.5106	-0.6372	7.5275	5.6783	6.2672	8.5346	28.4429	-1.1749
10.0424	11.3481	14.1162	11.755	13.0181	16.3779	11.6212	12.5629	15.9454	12.9612	12.4007	14.1902	12.3951	0.3328	0.0626	3.465	-0.6941	7.7209	5.7039	6.3668	8.5516	28.6392	-1.1379
10.122	11.3481	14.2186	11.8318	13.0636	16.4945	11.7635	12.5771	16.0564	13.092	12.4292	14.2385	12.5259	0.3442	0.0455	3.4195	-0.7254	7.9144	5.7039	6.4578	8.5061	28.8127	-1.0697
10.1874	11.3908	14.3409	11.9057	13.1376	16.6623	11.8887	12.671	16.2185	13.2684	12.4747	14.3751	12.7222	0.3812	0.0256	3.3882	-0.7966	8.1448	5.7295	6.5915	8.509	28.9863	-1.0156
10.2899	11.405	14.4519	11.9626	13.1774	16.7619	12.0025	12.7222	16.3466	13.4448	12.5288	14.4604	12.91	0.4182	-0.0142	3.3456	-0.8563	8.3838	5.7352	6.7139	8.4947	29.1655	-1.0099
10.3667	11.4164	14.5429	12.0195	13.2257	16.9013	12.1276	12.7592	16.4945	13.6496	12.58	14.5941	13.1831	0.4438	-0.037	3.2858	-0.916	8.637	5.7295	6.9215	8.5033	29.3277	-0.953
10.4805	11.4534	14.6738	12.0907	13.2713	17.0436	12.267	12.8246	16.6595	13.8602	12.6397	14.7477	13.442	0.4893	-0.0853	3.2318	-0.9957	8.9272	5.7438	7.0837	8.509	29.5069	-0.9018
10.58	11.4961	14.7961	12.1618	13.3253	17.1687	12.415	12.91	16.8131	14.0906	12.7279	14.8928	13.7378	0.5206	-0.1109	3.1749	-1.0754	9.2117	5.758	7.28	8.546	29.6577	-0.862
10.6682	11.4932	14.9213	12.2272	13.3851	17.3024	12.5572	12.9669	16.9867	14.3267	12.8332	15.092	14.0394	0.569	-0.1394	3.081	-1.1635	9.5473	5.7808	7.4706	8.5431	29.7942	-0.8222
10.7877	11.5615	15.0237	12.2869	13.4334	17.4305	12.6909	13.0465	17.1716	14.5714	12.9356	15.2826	14.3552	0.6145	-0.1536	2.9871	-1.2546	9.8546	5.8377	7.6811	8.6	29.9279	-0.7738
10.8844	11.5985	15.1375	12.3638	13.4818	17.567	12.8388	13.1376	17.3565	14.8189	13.0465	15.4959	14.6994	0.6629	-0.1878	2.9018	-1.3314	10.1761	5.8945	7.8689	8.6085	30.0161	-0.7368
10.9954	11.6639	15.2627	12.4377	13.5444	17.6836	12.9925	13.2371	17.5329	15.0749	13.1916	15.7178	15.0436	0.6941	-0.2077	2.7766	-1.4139	10.4748	5.96	8.0766	8.6882	30.11	-0.7027
11.1035	11.7066	15.3907	12.5088	13.6297	17.7804	13.1518	13.3339	17.7235	15.3423	13.3196	15.9483	15.3964	0.7368	-0.2333	2.6144	-1.4907	10.8133	6.0169	8.2615	8.7195	30.1783	-0.6657
11.1917	11.7806	15.4817	12.5629	13.6952	17.9084	13.2969	13.422	17.8999	15.5984	13.4733	16.1673	15.7264	0.8079	-0.2617	2.4523	-1.5988	11.1092	6.1193	8.4435	8.7878	30.2152	-0.6685
11.277	11.8318	15.5728	12.6426	13.7634	18.0165	13.4334	13.5216	18.0848	15.8373	13.6269	16.4035	16.0592	0.8449	-0.2788	2.2759	-1.687	11.4107	6.2445	8.5972	8.8816	30.2693	-0.6515
11.351	11.8744	15.6553	12.6852	13.8118	18.0933	13.5586	13.5956	18.2156	16.0478	13.7549	16.5998	16.3494	0.8734	-0.2873	2.0455	-1.7524	11.6582	6.3469	8.7195	8.9585	30.2977	-0.6429
11.4534	11.9769	15.7634	12.7592	13.9199	18.1957	13.6952	13.7122	18.4005	16.2925	13.9114	16.8103	16.631	0.9303	-0.3186	1.8122	-1.8492	11.9342	6.492	8.8504	9.0467	30.3461	-0.6486
11.5302	12.0338	15.8345	12.8132	13.991	18.2754	13.8033	13.8289	18.5513	16.4888	14.0564	17.0179	16.9013	0.9587	-0.3158	1.5789	-1.9203	12.1504	6.6399	8.9698	9.1263	30.3831	-0.6657
11.5985	12.0707	15.9113	12.8616	14.0564	18.3465	13.9057	13.9171	18.6623	16.6709	14.1702	17.2029	17.1374	0.9815	-0.3357	1.32	-1.9857	12.3581	6.7622	9.0182	9.2088	30.4201	-0.6941
11.6412	12.139	15.9483	12.9071	14.1162	18.4062	13.9996	14.0195	18.8159	16.8188	14.2812	17.3736	17.3252	1.0156	-0.3641	1.0099	-2.0312	12.5202	6.8675	9.0609	9.2799	30.4855	-0.7397
11.6924	12.1845	15.991	12.91	14.2044	18.4461	14.0621	14.1077	18.9069	16.944	14.3978	17.5414	17.5186	1.0298	-0.3727	0.7226	-2.0853	12.6454	7.0069	9.1035	9.3198	30.5623	-0.7852
11.7436	12.2557	16.0535	12.964	14.2926	18.52	14.1702	14.1845	19.0264	17.0862	14.5145	17.7206	17.6893	1.0668	-0.4182	0.3869	-2.1393	12.7933	7.1548	9.132	9.3966	30.6505	-0.8136
11.7464	12.3325	16.0592	12.9498	14.3438	18.5428	14.2158	14.2698	19.1203	17.1744	14.5799	17.8515	17.8287	1.081	-0.441	0.0768	-2.1735	12.8787	7.2743	9.1149	9.4336	30.7159	-0.8677
11.7663	12.3808	16.0848	12.9953	14.4177	18.5741	14.2556	14.3523	19.2	17.2569	14.6624	17.9795	17.9368	1.0867	-0.4779	-0.2418	-2.1934	12.9413	7.3739	9.0922	9.4478	30.807	-0.9132
11.8033	12.4178	16.1047	12.9982	14.4576	18.6253	14.2698	14.4149	19.2739	17.3053	14.7108	18.1218	18.0136	1.0981	-0.5491	-0.5718	-2.2105	13.0067	7.4507	9.0523	9.4705	30.8809	-0.9559
11.7834	12.4861	16.0848	12.9811	14.523	18.6281	14.2727	14.4718	19.3394	17.3423	14.7847	18.1929	18.0649	1.0953	-0.6344	-0.8876	-2.2133	13.0209	7.5503	9.0068	9.4933	30.9606	-0.99
11.7834	12.5316	16.0621	12.9583	14.5856	18.6452	14.2954	14.5486	19.3962	17.3508	14.8786	18.2953	18.1018	1.0953	-0.7112	-1.2034	-2.1905	13.0209	7.6072	8.9385	9.5189	31.0147	-1.0298
11.7606	12.5572	16.0535	12.9327	14.6254	18.631	14.267	14.6027	19.4418	17.3423	14.9327	18.3863	18.1075	1.0782	-0.7766	-1.4992	-2.1564	13.001	7.6612	8.8731	9.5047	31.063	-1.0725
11.7237	12.6056	15.9966	12.8901	14.6738	18.6253	14.2328	14.6681	19.4617	17.2911	14.9782	18.4262	18.0677	1.0554	-0.8478	-1.7638	-2.1251	12.964	7.6754	8.7821	9.5217	31.1057	-1.0981
11.7009	12.6568	15.971	12.836	14.7421	18.6139	14.1731	14.7193	19.4731	17.2199	15.0465	18.4745	18.0136	1.0355	-0.9132	-2.0312	-2.0881	12.8844	7.7124	8.6939	9.5303	31.1199	-1.1493
11.6469	12.6738	15.9028	12.7478	14.762	18.5826	14.0792	14.779	19.4702	17.1488	15.0863	18.4944	17.9368	1.0128	-0.9673	-2.2361	-2.0312	12.7763	7.6868	8.5801	9.5303	31.1057	-1.1806
11.6099	12.7307	15.8629	12.6767	14.8445	18.5855	14.0166	14.8359	19.5243	17.0549	15.1233	18.5143	17.8543	0.9872	-1.0213	-2.4124	-1.9715	12.6852	7.6783	8.4976	9.5417	31.0886	-1.2062
11.5757	12.7307	15.7719	12.5714	14.8644	18.5399	13.9114	14.8758	19.4788	16.9241	15.1887	18.5286	17.7377	0.9502	-1.0611	-2.5092	-1.9117	12.5344	7.6384	8.3667	9.5388	31.0516	-1.2375
11.5217	12.745	15.6922	12.4776	14.8957	18.5229	13.7919	14.9241	19.4788	16.7989	15.2172	18.5343	17.6239	0.9217	-1.081	-2.5718	-1.8605	12.4007	7.5901	8.2586	9.5502	30.9634	-1.3001
11.4306	12.7307	15.5984	12.3296	14.9213	18.4546	13.6639	14.944	19.4162	16.6481	15.2456	18.4944	17.4788	0.8677	-1.0867	-2.5746	-1.7866	12.2187	7.5133	8.1107	9.5104	30.861	-1.3428
11.3538	12.7393	15.4675	12.2158	14.9497	18.4176	13.5472	14.9554	19.365	16.4831	15.2513	18.4688	17.3195	0.8307	-1.0981	-2.5006	-1.7041	12.0622	7.4336	7.977	9.5047	30.7273	-1.4054
11.2941	12.7251	15.3679	12.0679	14.9611	18.3437	13.4107	14.9782	19.3308	16.3494	15.2883	18.4262	17.1573	0.8193	-1.0554	-2.3755	-1.6586	11.9171	7.334	7.8376	9.4819	30.5908	-1.4594
11.2059	12.6966	15.2712	11.937	14.9725	18.2782	13.277	15.0066	19.2881	16.1986	15.2797	18.392	17.0009	0.7966	-1.0241	-2.2275	-1.6102	11.7407	7.2459	7.7096	9.4648	30.4428	-1.5192
11.1177	12.6397	15.1347	11.7976	14.9611	18.2156	13.1233	14.9981	19.2142	16.0279	15.2712	18.3664	16.8529	0.7624	-0.9673	-1.98	-1.5561	11.5672	7.1349	7.5844	9.4222	30.2977	-1.5903
11.0153	12.5828	15.0294	11.6469	14.9384	18.1331	13.0038	15.0209	19.1601	15.8885	15.2883	18.355	16.7335	0.7454	-0.9473	-1.7723	-1.5192	11.4278	7.0666	7.4621	9.4023	30.1726	-1.6244
10.91	12.5003	14.8786	11.4705	14.8871	18.0535	12.8445	14.9725	19.0662	15.7378	15.2342	18.2953	16.6026	0.7226	-0.9047	-1.5533	-1.4623	11.2514	6.9329	7.3141	9.334	30.0502	-1.6842
10.7763	12.4235	14.7221	11.3254	14.8502	17.9567	12.7137	14.9611	19.0236	15.5784	15.2228	18.2526	16.4433	0.6998	-0.8904	-1.3172	-1.4253	11.0978	6.8419	7.1719	9.26	29.9734	-1.7524
10.6369	12.3211	14.5827	11.1775	14.8018	17.8657	12.5828	14.9327	18.9325	15.4447	15.1944	18.1957	16.2954	0.6856	-0.8705	-1.0697	-1.3968	10.9385	6.7196	7.0183	9.2088	29.9108	-1.8207
10.5174	12.2215	14.4547	10.9982	14.7477	17.8003	12.4605	14.8843	18.9126	15.3452	15.1716	18.1843	16.2015	0.6828	-0.8762	-0.8705	-1.3854	10.7934	6.6228	6.9073	9.169	29.8852	-1.8691
10.3724	12.1333	14.2983	10.8645	14.6852	17.7121	12.3467	14.8246	18.8529	15.22	15.1403	18.1587	16.0991	0.6685	-0.8506	-0.586	-1.3598	10.6398	6.529	6.7765	9.0808	29.8625	-1.9146
10.2216	12.0195	14.1589	10.7251	14.614	17.6239	12.2329	14.7762	18.8017	15.1119	15.1176	18.1218	15.9767	0.66	-0.8648	-0.4068	-1.3513	10.5231	6.4294	6.6314	8.9841	29.8824	-1.98
10.048	11.8915	13.991	10.5317	14.5002	17.5073	12.0707	14.688	18.7021	14.9753	15.0351	18.0563	15.843	0.6515	-0.9104	-0.1849	-1.3229	10.324	6.3327	6.4749	8.8816	29.9052	-2.017
9.8973	11.7777	13.8545	10.3809	14.4234	17.4248	11.9541	14.634	18.6537	14.8758	14.9753	18.0336	15.7207	0.6401	-0.9018	-0.0057	-1.3001	10.1761	6.2331	6.3213	8.7821	29.9564	-2.0711
9.7323	11.6127	13.6525	10.1988	14.3153	17.2939	11.8204	14.5287	18.5769	14.725	14.8928	17.9824	15.587	0.6316	-0.9473	0.1366	-1.2688	10.0196	6.1278	6.1677	8.6484	30.019	-2.1109
9.5445	11.5046	13.5159	10.068	14.2243	17.2171	11.6981	14.4519	18.52	14.6027	14.8132	17.9169	15.4561	0.6173	-1.0042	0.276	-1.2517	9.8489	6.0624	6.0311	8.5403	30.1071	-2.1649
9.3653	11.3652	13.3651	9.9058	14.1361	17.0948	11.5644	14.3466	18.4574	14.4661	14.7221	17.8543	15.3167	0.6116	-0.9843	0.4011	-1.2375	9.7152	5.977	5.9031	8.435	30.201	-2.2019
9.2202	11.2514	13.2058	9.7522	14.0308	16.9781	11.4278	14.2414	18.392	14.3096	14.6197	17.7633	15.1546	0.606	-0.9872	0.4779	-1.2204	9.5644	5.8974	5.7665	8.3098	30.3177	-2.2161
9.0609	11.0921	13.0465	9.6298	13.9341	16.8842	11.2998	14.1333	18.3124	14.1845	14.5173	17.6922	15.0066	0.5974	-1.0071	0.5178	-1.2034	9.4023	5.8547	5.6556	8.2074	30.44	-2.2503
8.8845	10.9641	12.8844	9.4791	13.8004	16.7676	11.1604	14.028	18.2355	14.0849	14.4092	17.6182	14.8701	0.5946	-0.9985	0.5604	-1.1977	9.2657	5.7893	5.5674	8.0709	30.5879	-2.2531
8.7252	10.8275	12.7649	9.3795	13.7037	16.6851	11.0466	13.9398	18.1872	13.9626	14.3068	17.5556	14.7506	0.5889	-1.0156	0.569	-1.1892	9.1434	5.758	5.4849	7.9571	30.7359	-2.2674
8.5516	10.7024	12.6369	9.2259	13.624	16.5998	10.9385	13.8431	18.136	13.8488	14.2186	17.5158	14.6311	0.5946	-1.0327	0.5291	-1.1806	9.0125	5.7324	5.4195	7.8575	30.9378	-2.273
8.4094	10.5658	12.5145	9.1206	13.533	16.5258	10.8446	13.752	18.0876	13.7464	14.1333	17.439	14.5116	0.5917	-1.0384	0.5092	-1.1607	8.8788	5.6983	5.3341	7.7636	31.1228	-2.2873
8.2558	10.4662	12.3808	9.0097	13.4391	16.4717	10.7593	13.7008	18.0848	13.6781	14.0337	17.4077	14.4149	0.5718	-1.0611	0.4552	-1.1379	8.7423	5.6812	5.2545	7.6612	31.3304	-2.2901
8.105	10.361	12.2699	8.9129	13.3765	16.4234	10.6739	13.6383	18.0848	13.5899	13.9739	17.3764	14.3267	0.5547	-1.1152	0.3869	-1.101	8.6285	5.6983	5.1947	7.6015	31.5722	-2.31
7.9997	10.2699	12.1703	8.8304	13.3367	16.4091	10.6056	13.607	18.0819	13.533	13.9171	17.365	14.2527	0.532	-1.1408	0.3357	-1.0725	8.5061	5.7125	5.1264	7.5417	31.8112	-2.3072
7.8945	10.1846	12.1219	8.7451	13.2912	16.4035	10.5658	13.6041	18.1274	13.496	13.9114	17.3821	14.1987	0.5064	-1.1749	0.2731	-1.0071	8.3923	5.7295	5.0724	7.5104	32.0502	-2.3157
7.7892	10.1135	12.065	8.6939	13.2798	16.4262	10.5174	13.5842	18.1986	13.4846	13.8943	17.3906	14.1532	0.4779	-1.1806	0.2731	-0.9644	8.2985	5.7694	4.9956	7.4905	32.2778	-2.3413
7.7266	10.1021	12.0281	8.6199	13.3054	16.4632	10.4918	13.6013	18.2583	13.4533	13.9085	17.4361	14.1247	0.4381	-1.2233	0.1906	-0.9018	8.1818	5.849	4.9102	7.4848	32.5224	-2.3726
7.6697	10.0822	12.0281	8.6	13.3367	16.5002	10.4748	13.6582	18.318	13.4505	13.9341	17.4674	14.0678	0.4011	-1.229	0.165	-0.8307	8.068	5.9145	4.8476	7.4678	32.7358	-2.3868
7.6441	10.0736	12.0053	8.5687	13.3651	16.5884	10.4662	13.7037	18.4091	13.4363	13.9683	17.5215	14.0365	0.3556	-1.2887	0.1195	-0.7311	7.9372	5.977	4.7737	7.4791	32.9548	-2.3897
7.6043	10.0537	12.0138	8.5346	13.4334	16.6367	10.4662	13.752	18.5115	13.4476	13.991	17.5698	13.9882	0.3158	-1.2916	0.0853	-0.6515	7.8205	6.0624	4.6969	7.5047	33.1568	-2.4181
7.61	10.068	12.0451	8.5403	13.4846	16.7363	10.4577	13.8317	18.5883	13.4334	14.0564	17.6239	13.9455	0.2816	-1.2973	0.0569	-0.5889	7.701	6.1591	4.6201	7.536	33.3531	-2.4153
7.6328	10.1249	12.1049	8.5545	13.5643	16.8103	10.4691	13.8886	18.685	13.4306	14.0963	17.695	13.8943	0.2503	-1.3029	0	-0.5064	7.5844	6.2246	4.5717	7.5815	33.558	-2.4352
7.6555	10.1732	12.1703	8.563	13.661	16.9155	10.5032	13.9739	18.8074	13.4476	14.1845	17.769	13.8715	0.1991	-1.3143	-0.0512	-0.4182	7.4763	6.2786	4.5119	7.5958	33.7514	-2.421
7.7466	10.25	12.25	8.6029	13.7777	17.0123	10.5288	14.0764	18.9098	13.4448	14.2385	17.8259	13.8459	0.1508	-1.3001	-0.1109	-0.3328	7.371	6.3696	4.455	7.6356	33.9363	-2.4267
7.8148	10.3297	12.3325	8.6683	13.8602	17.1317	10.5715	14.1873	19.0065	13.4875	14.2983	17.8856	13.8232	0.1223	-1.2916	-0.1451	-0.2503	7.2715	6.4578	4.4209	7.6783	34.1127	-2.4437
7.9087	10.4463	12.4519	8.7309	14.0081	17.2711	10.6568	14.3011	19.1658	13.5558	14.3808	17.9937	13.8317	0.0882	-1.2717	-0.1849	-0.1764	7.206	6.5403	4.4067	7.7295	34.2862	-2.458
8.0282	10.5715	12.5942	8.839	14.1646	17.3821	10.7507	14.4547	19.2967	13.6183	14.4661	18.0848	13.8545	0.0341	-1.2204	-0.2105	-0.0967	7.1321	6.6115	4.401	7.7693	34.4598	-2.4693
8.1818	10.708	12.7393	8.9898	14.2897	17.5215	10.8588	14.5515	19.4304	13.7236	14.5315	18.1872	13.8801	0.0199	-1.1579	-0.2048	-0.0455	7.0837	6.6911	4.401	7.8177	34.602	-2.4807
8.3554	10.8816	12.927	9.1462	14.4889	17.6893	11.021	14.6994	19.6125	13.8402	14.6539	18.3266	13.9626	-0.0085	-1.0839	-0.2191	-0.0142	7.0752	6.7878	4.4494	7.8859	34.7613	-2.4807
8.5346	11.0836	13.1205	9.3539	14.6596	17.8942	11.2087	14.8644	19.8088	14.0195	14.7591	18.4859	14.0821	-0.0085	-0.9872	-0.1935	-0.0085	7.1036	6.9073	4.5518	7.9571	34.9093	-2.4636
8.711	11.2742	13.294	9.553	14.8416	18.0649	11.405	15.0066	19.9766	14.193	14.8644	18.6651	14.2186	-0.0171	-0.8791	-0.1678	0	7.1292	6.987	4.6684	8.014	35.0686	-2.4409
8.9129	11.4534	13.5074	9.7778	15.0521	18.2355	11.6127	15.1688	20.1928	14.3978	15.0123	18.8472	14.3722	-0.0142	-0.771	-0.1707	-0.0171	7.1833	7.1036	4.7851	8.0794	35.2307	-2.4238
9.0893	11.6269	13.7065	10.0054	15.2172	18.4262	11.8375	15.3082	20.4005	14.5884	15.1432	19.0179	14.5031	0.0057	-0.6828	-0.1508	-0.0341	7.2316	7.2146	4.9188	8.1534	35.3957	-2.3954
9.2799	11.8062	13.9057	10.2415	15.385	18.6025	12.0508	15.4846	20.5797	14.7961	15.2712	19.1743	14.6368	0	-0.606	-0.1166	-0.0313	7.3056	7.3141	5.0809	8.216	35.5721	-2.3755
9.4791	12.0138	14.0821	10.5089	15.5756	18.7818	12.2955	15.6467	20.7675	15.0038	15.4078	19.3593	14.8132	0.0171	-0.5007	-0.0853	-0.0512	7.3597	7.4222	5.2545	8.2814	35.7257	-2.3271
9.6071	12.176	14.2698	10.7536	15.7434	18.9468	12.5401	15.7918	20.9439	15.2228	15.5472	19.5243	14.9696	0.0313	-0.4011	-0.0142	-0.0882	7.4365	7.5389	5.4109	8.3667	35.8794	-2.2901
9.8375	12.3524	14.4604	10.9954	15.9312	19.1175	12.7962	15.954	21.1458	15.4504	15.7122	19.6893	15.1147	0.0484	-0.2845	0.1195	-0.1166	7.5047	7.6925	5.5759	8.4635	35.9846	-2.2332
9.9968	12.5316	14.6226	11.2486	16.0763	19.2569	13.0067	16.1019	21.2824	15.6297	15.8146	19.8144	15.2712	0.0597	-0.1735	0.2105	-0.1479	7.573	7.7978	5.7324	8.5289	36.1126	-2.1792
10.1476	12.6738	14.7876	11.479	16.2641	19.4304	13.2428	16.2612	21.4531	15.8316	15.954	19.9396	15.3822	0.0654	-0.0683	0.3499	-0.1508	7.6555	7.9229	5.8604	8.6398	36.2065	-2.1365
10.3126	12.8189	14.9071	11.6924	16.3693	19.5499	13.4448	16.3779	21.5783	16.008	16.045	20.042	15.5102	0.0484	0.0455	0.4922	-0.1366	7.6925	8.0168	6.0112	8.6854	36.2748	-2.0881
10.4549	12.9583	15.0607	11.8944	16.5116	19.6494	13.6582	16.5229	21.7148	16.1986	16.1531	20.1359	15.6069	0.0569	0.1764	0.6657	-0.1394	7.7437	8.0936	6.1477	8.7337	36.3545	-2.0369
10.5487	13.0607	15.1546	12.1134	16.6481	19.7661	13.8658	16.6367	21.8286	16.3466	16.247	20.2013	15.7235	0.0626	0.293	0.8335	-0.1337	7.7949	8.1903	6.2814	8.7878	36.4199	-1.9971
10.6739	13.1575	15.2598	12.2898	16.7648	19.8514	14.0707	16.7335	21.9623	16.4973	16.3096	20.2981	15.8203	0.0341	0.4267	0.9843	-0.1138	7.8575	8.2643	6.3896	8.8191	36.5109	-1.9288
10.7877	13.2826	15.3565	12.5344	16.8871	19.9624	14.2897	16.8871	22.0875	16.6851	16.412	20.3806	15.9255	0.0398	0.5604	1.1635	-0.1024	7.9286	8.3155	6.5176	8.8418	36.5963	-1.9004
10.8873	13.405	15.4675	12.7051	17.0066	20.0534	14.4917	16.981	22.2013	16.8387	16.486	20.4574	16.0592	0.0228	0.7283	1.3285	-0.0882	7.9884	8.3525	6.6342	8.8475	36.7158	-1.8349
10.9584	13.459	15.5301	12.8872	17.1175	20.1444	14.6795	17.1147	22.3037	17.0037	16.5485	20.5456	16.156	0.0228	0.8307	1.4708	-0.0626	8.0538	8.3923	6.7594	8.8788	36.858	-1.8065
11.0381	13.5643	15.6126	13.0807	17.237	20.2554	14.8672	17.2256	22.4374	17.1801	16.6254	20.6565	16.3067	0.0085	0.9872	1.5931	-0.0484	8.1192	8.4379	6.9045	8.8617	37.0315	-1.7524
11.1291	13.6695	15.7093	13.2656	17.3679	20.3749	15.1034	17.3736	22.6052	17.3707	16.7363	20.7789	16.4461	0	1.1123	1.7268	-0.037	8.216	8.4635	7.024	8.8873	37.2079	-1.7183
11.223	13.7208	15.8089	13.4363	17.4646	20.4858	15.2883	17.4959	22.7304	17.53	16.8302	20.8926	16.5713	0	1.2546	1.8406	-0.0284	8.3098	8.4947	7.1406	8.8788	37.4156	-1.7069
11.2856	13.8146	15.8828	13.6383	17.5841	20.6138	15.5073	17.6296	22.8954	17.7348	16.9411	21.0377	16.7505	0.0142	1.3883	1.9857	-0.0455	8.4122	8.5403	7.2914	8.8959	37.6147	-1.6756
11.3453	13.8858	15.9369	13.789	17.695	20.7362	15.7122	17.769	23.0519	17.8999	17.0407	21.1885	16.8985	0	1.4936	2.1251	-0.0313	8.4976	8.5573	7.445	8.9073	37.8252	-1.6301
11.3908	13.9427	15.9995	13.9455	17.7832	20.8301	15.8743	17.8771	23.1828	18.0705	17.1346	21.2938	17.0293	-0.0142	1.6301	2.2019	-0.0284	8.5687	8.5403	7.5559	8.9186	38.0528	-1.6017
11.4591	13.991	16.1076	14.1162	17.8799	20.9666	16.0678	18.0136	23.3421	18.264	17.2313	21.4218	17.1829	0.0114	1.7211	2.3129	-0.037	8.6455	8.563	7.6669	8.9101	38.269	-1.6073
11.4819	14.0508	16.136	14.2641	17.971	21.0889	16.2242	18.1104	23.4843	18.4091	17.3252	21.5555	17.3167	0.0142	1.8179	2.3641	-0.0427	8.7252	8.5573	7.7579	8.9101	38.5109	-1.5704
11.5359	14.0849	16.1816	14.4121	18.0705	21.1544	16.4063	18.2384	23.6095	18.5627	17.4105	21.6892	17.4305	0.0256	1.9004	2.4352	-0.0597	8.839	8.5801	7.8774	8.9016	38.7555	-1.559
11.5729	14.1389	16.247	14.5628	18.1246	21.2625	16.54	18.3351	23.7233	18.7021	17.4987	21.8002	17.567	0.0284	1.9715	2.4295	-0.074	8.9129	8.5573	7.977	8.8845	39.0059	-1.5504
11.5786	14.1389	16.301	14.6766	18.1815	21.3592	16.668	18.4034	23.8399	18.8415	17.5528	21.8883	17.6723	0.0228	2.0142	2.4039	-0.074	8.9613	8.5431	8.0396	8.8703	39.2903	-1.5504
11.6298	14.1816	16.3409	14.816	18.2412	21.4474	16.8188	18.4887	23.9253	18.9752	17.6182	21.9708	17.7804	0.0512	2.0511	2.3783	-0.0996	9.0324	8.5317	8.1135	8.8731	39.5578	-1.5277
11.6383	14.1816	16.3835	14.9128	18.2754	21.5441	16.9383	18.5371	24.0106	19.0975	17.658	22.0448	17.8686	0.037	2.0967	2.3214	-0.1053	9.0893	8.5061	8.1676	8.8674	39.8394	-1.5391
11.6725	14.1987	16.412	15.0408	18.3493	21.638	17.0578	18.5741	24.0988	19.2142	17.6922	22.1415	17.9767	0.037	2.0995	2.2531	-0.1081	9.1548	8.5004	8.2359	8.8902	40.1267	-1.5135
11.6725	14.2072	16.503	15.1603	18.355	21.7006	17.1829	18.6253	24.1642	19.345	17.7348	22.1927	18.0819	0.0398	2.1137	2.1962	-0.1138	9.2202	8.4919	8.3155	8.8845	40.4254	-1.5277
11.7151	14.2158	16.5429	15.2684	18.4119	21.7774	17.2996	18.6452	24.2154	19.4304	17.7462	22.2468	18.173	0.0256	2.1223	2.128	-0.0853	9.2856	8.4407	8.3411	8.8447	40.7071	-1.5277
11.7464	14.2328	16.6197	15.3964	18.4318	21.8485	17.3906	18.6566	24.2837	19.5356	17.7832	22.3008	18.264	0.0228	2.1137	2.0597	-0.0626	9.3368	8.4151	8.398	8.8333	41.0086	-1.5476
11.7863	14.2414	16.668	15.4846	18.4489	21.9139	17.4817	18.685	24.3463	19.6096	17.7946	22.3435	18.3408	-0.0171	2.0682	2.0198	-0.0057	9.388	8.3952	8.4492	8.8134	41.2846	-1.5533
11.809	14.2584	16.7562	15.5784	18.4432	22.0192	17.5784	18.6936	24.4203	19.6978	17.7974	22.3634	18.4176	-0.0398	2.0654	1.9886	0.0398	9.4392	8.3383	8.4805	8.8134	41.5577	-1.5647
11.8631	14.2897	16.8245	15.678	18.4603	22.0932	17.6694	18.685	24.4772	19.7831	17.7861	22.4118	18.4973	-0.0683	2.0227	1.9772	0.1024	9.4734	8.3383	8.509	8.8077	41.8308	-1.559
11.9086	14.3011	16.8842	15.7605	18.4546	22.1415	17.7178	18.6793	24.5056	19.8201	17.7889	22.4033	18.52	-0.0967	2.0284	1.9715	0.1678	9.4705	8.2985	8.5175	8.8276	42.0726	-1.5846
11.9683	14.3296	16.9554	15.8373	18.4802	22.2297	17.806	18.6708	24.5597	19.8628	17.7775	22.4118	18.5712	-0.1195	2.0142	1.9715	0.2247	9.5132	8.3041	8.509	8.8475	42.3258	-1.5789
11.9939	14.3409	17.0379	15.9113	18.4774	22.2752	17.8486	18.6651	24.5654	19.86	17.7292	22.3663	18.5286	-0.1593	2.0227	1.9743	0.2788	9.4705	8.3098	8.4748	8.8333	42.5477	-1.6073
12.0082	14.3438	17.0805	15.9568	18.4318	22.3236	17.8316	18.6168	24.5682	19.8571	17.7007	22.298	18.483	-0.1792	2.0198	1.9658	0.3328	9.4506	8.2871	8.4379	8.8219	42.7725	-1.6358
12.065	14.3523	17.1431	16.0308	18.4347	22.3407	17.8458	18.5655	24.5511	19.8088	17.6495	22.2297	18.4119	-0.1935	2.0455	1.9715	0.3471	9.4051	8.2956	8.3582	8.8475	42.9602	-1.6529
12.065	14.3495	17.1744	16.0422	18.3949	22.3777	17.8287	18.5428	24.5454	19.7632	17.6011	22.1046	18.3152	-0.1991	2.0568	1.9146	0.3698	9.3425	8.307	8.3098	8.8532	43.1707	-1.6614
12.0537	14.3182	17.1659	16.0279	18.3579	22.3577	17.7889	18.4574	24.4402	19.6551	17.5158	21.9595	18.1644	-0.2247	2.0597	1.8719	0.3983	9.2287	8.2842	8.1932	8.8134	43.3756	-1.6614
12.0508	14.2869	17.1858	16.0393	18.2924	22.3122	17.7405	18.3749	24.3634	19.5556	17.3764	21.7916	17.9937	-0.2333	2.0796	1.8264	0.4182	9.1092	8.2842	8.0993	8.8248	43.5832	-1.6813
12.0082	14.2499	17.1744	16.0507	18.2355	22.3037	17.6609	18.2981	24.2553	19.4275	17.2768	21.5839	17.8174	-0.2333	2.0767	1.7638	0.4296	9.0154	8.2729	8.014	8.8048	43.7966	-1.6927
11.9712	14.2214	17.1431	16.0166	18.1843	22.2496	17.5955	18.2071	24.1443	19.2711	17.1346	21.3791	17.6154	-0.256	2.108	1.7154	0.4495	8.8902	8.27	7.903	8.7536	44.0128	-1.7012
11.9769	14.1816	17.1232	15.9995	18.1161	22.1871	17.5272	18.0905	23.9992	19.1345	17.0066	21.1686	17.4305	-0.2503	2.1052	1.6415	0.4438	8.7735	8.27	7.8148	8.7394	44.2148	-1.7154
11.9057	14.1276	17.1175	15.9881	18.025	22.1302	17.4532	17.9824	23.857	19.0236	16.8387	20.9495	17.2342	-0.2333	2.128	1.6017	0.421	8.6683	8.2814	7.7466	8.711	44.4139	-1.7126
11.9	14.0849	17.0834	15.9995	17.9567	22.0676	17.3792	17.8543	23.7005	18.8785	16.6936	20.7305	17.0436	-0.2134	2.1649	1.596	0.3812	8.5886	8.2871	7.6897	8.6654	44.5903	-1.6898
11.8801	14.0024	17.0663	16.0109	17.8942	21.9822	17.3252	17.7377	23.5241	18.7476	16.5286	20.4801	16.8273	-0.1906	2.1678	1.6102	0.3499	8.4834	8.2615	7.6271	8.6228	44.7553	-1.6842
11.883	13.9626	17.0436	16.0052	17.8259	21.9111	17.2541	17.641	23.3677	18.6139	16.3779	20.2526	16.6396	-0.1678	2.2275	1.6671	0.2959	8.4037	8.2529	7.5844	8.5829	44.9089	-1.6614
11.8631	13.9142	17.0179	16.0279	17.7292	21.8314	17.2057	17.5186	23.1998	18.4944	16.2129	20.0278	16.4575	-0.1451	2.2588	1.7524	0.2361	8.3212	8.2387	7.5588	8.509	45.0654	-1.6642
11.8716	13.8914	17.0208	16.0365	17.6751	21.7632	17.1687	17.4276	23.0377	18.392	16.0649	19.7831	16.2584	-0.1195	2.3242	1.8748	0.1849	8.2729	8.2273	7.5503	8.435	45.182	-1.6443
11.8403	13.8516	16.9639	15.9966	17.5698	21.6465	17.072	17.274	22.8158	18.2242	15.8828	19.5186	16.0478	-0.0967	2.3584	2.0113	0.1479	8.1591	8.1818	7.4962	8.3525	45.3243	-1.6329
11.8318	13.7833	16.9298	16.0023	17.5243	21.5498	17.0236	17.1659	22.6337	18.1018	15.7093	19.2625	15.8459	-0.0939	2.4124	2.182	0.1451	8.0652	8.1591	7.4564	8.2529	45.421	-1.6017
11.8232	13.7407	16.8928	15.9796	17.4219	21.436	16.9611	17.0322	22.4374	17.971	15.5045	18.9951	15.6353	-0.0768	2.4665	2.3925	0.1166	7.9827	8.1363	7.445	8.1591	45.5348	-1.5761
11.809	13.6952	16.8586	15.9568	17.3366	21.3336	16.8928	16.8842	22.2269	17.7917	15.3281	18.7192	15.3878	-0.0768	2.5149	2.6201	0.1109	7.8945	8.0965	7.3995	8.0623	45.6486	-1.5504
11.7663	13.6297	16.7875	15.9028	17.2427	21.234	16.7904	16.7676	22.0164	17.6381	15.146	18.4404	15.1659	-0.0569	2.5746	2.8363	0.0996	7.8148	8.0453	7.3568	7.9514	45.7795	-1.5192
11.7407	13.5558	16.7534	15.8288	17.1346	21.106	16.6965	16.631	21.7831	17.4561	14.944	18.1218	14.8786	-0.0597	2.6486	3.0724	0.0996	7.6953	8.0026	7.2999	7.8319	45.9246	-1.4964
11.6781	13.422	16.6424	15.7235	17.0236	20.9581	16.5656	16.449	21.5612	17.2626	14.7165	17.7889	14.5913	-0.0541	2.6855	3.2801	0.1024	7.5759	7.9428	7.2345	7.6726	46.1009	-1.4537
11.6554	13.331	16.5514	15.6609	16.9184	20.8329	16.4689	16.3124	21.3478	17.0777	14.4917	17.493	14.3409	-0.0711	2.7368	3.4508	0.1053	7.4763	7.8831	7.2032	7.5559	46.3115	-1.4253
11.607	13.2457	16.503	15.5898	16.8074	20.7476	16.3579	16.1787	21.143	16.9241	14.3068	17.2142	14.0991	-0.0654	2.7737	3.5987	0.0939	7.4251	7.8234	7.1833	7.4365	46.5618	-1.3911
11.59	13.1205	16.4347	15.5045	16.6936	20.6338	16.2413	16.0137	20.9439	16.742	14.0821	16.9468	13.8658	-0.0825	2.7965	3.7467	0.0939	7.3397	7.7892	7.1833	7.3141	46.8292	-1.3598
11.5188	13.0095	16.3494	15.3992	16.5941	20.5001	16.1531	15.8487	20.7248	16.5429	13.8858	16.6623	13.6468	-0.0626	2.7908	3.8178	0.0939	7.2999	7.7124	7.1804	7.1918	47.1507	-1.32
11.4392	12.8787	16.2441	15.2968	16.466	20.409	16.0222	15.6922	20.5541	16.3835	13.6809	16.3978	13.3936	-0.0597	2.7567	3.8462	0.0967	7.243	7.6441	7.1804	7.078	47.5091	-1.2859
11.3937	12.745	16.1702	15.1859	16.3153	20.3151	15.917	15.4931	20.3948	16.2328	13.4505	16.1531	13.1888	-0.0597	2.7396	3.8747	0.0939	7.1861	7.5588	7.2089	6.9301	47.8591	-1.2517
11.3453	12.6255	16.0905	15.1147	16.2015	20.2213	15.8316	15.3708	20.2355	16.0934	13.2684	15.9341	13.0095	-0.0597	2.7168	3.8576	0.0853	7.169	7.4877	7.2601	6.7964	48.2289	-1.2318
11.2998	12.4889	16.0478	15.0265	16.0848	20.1615	15.7292	15.2257	20.116	15.9824	13.0579	15.7491	12.8616	-0.0569	2.6514	3.8519	0.0768	7.1747	7.4023	7.3141	6.6797	48.6129	-1.2148
11.2486	12.3922	15.9995	14.9725	15.9653	20.1302	15.6524	15.1034	20.0107	15.8658	12.8986	15.5813	12.7251	-0.0597	2.5945	3.815	0.074	7.1605	7.3426	7.3767	6.5858	48.9999	-1.2005
11.1803	12.2756	15.9198	14.8957	15.8686	20.0847	15.5898	14.9696	19.9311	15.7691	12.7364	15.4049	12.6113	-0.0626	2.5888	3.7694	0.0768	7.1463	7.2572	7.4621	6.492	49.3868	-1.2005
11.1689	12.1732	15.8686	14.8359	15.7776	20.0506	15.5415	14.8843	19.8287	15.6837	12.6056	15.2598	12.4719	-0.0569	2.512	3.7381	0.0797	7.1662	7.2146	7.5218	6.4123	49.7793	-1.1892
11.1319	12.0707	15.8544	14.8331	15.6866	20.0449	15.513	14.7819	19.7803	15.6382	12.4804	15.1176	12.378	-0.0484	2.5006	3.6784	0.0711	7.1861	7.115	7.6185	6.3156	50.1862	-1.192
11.0893	11.9825	15.8288	14.7734	15.6012	20.0307	15.4447	14.6823	19.7177	15.5784	12.3438	14.9981	12.2813	-0.0569	2.4523	3.6443	0.074	7.1918	7.0695	7.7039	6.2502	50.5987	-1.1778
11.0523	11.8972	15.7975	14.7449	15.5472	20.0307	15.4305	14.6226	19.6978	15.5187	12.25	14.9071	12.1874	-0.0512	2.3925	3.5874	0.0683	7.1975	7.0296	7.8063	6.2018	51.0083	-1.192
10.9897	11.8147	15.7491	14.6795	15.4675	20.0079	15.3793	14.5515	19.6494	15.4447	12.1362	14.7847	12.0878	-0.0484	2.3129	3.4906	0.074	7.206	6.9557	7.8774	6.1392	51.4578	-1.1977
10.9385	11.7037	15.7235	14.6368	15.4021	19.9994	15.3224	14.4803	19.6039	15.3765	12.0394	14.6624	11.974	-0.0484	2.2389	3.3882	0.0797	7.1833	6.8988	7.9201	6.0908	51.9073	-1.1948
10.856	11.6412	15.6979	14.5685	15.3253	20.0079	15.2797	14.4007	19.5584	15.3224	11.9598	14.5458	11.8915	-0.0541	2.1223	3.2033	0.0939	7.169	6.8248	7.94	6.0453	52.3682	-1.2261
10.7991	11.5558	15.6695	14.5401	15.2911	20.0107	15.2598	14.3239	19.5243	15.2513	11.8517	14.449	11.8033	-0.0654	2.017	3.0298	0.091	7.1491	6.7907	7.977	6.0368	52.8632	-1.246
10.7223	11.4676	15.6297	14.5002	15.1972	19.9965	15.1859	14.2442	19.4588	15.1802	11.7606	14.3267	11.718	-0.0683	1.8947	2.8022	0.0967	7.1065	6.7395	7.9713	6.0027	53.344	-1.2745
10.654	11.3794	15.5927	14.4377	15.1603	19.9908	15.1603	14.2072	19.4275	15.1318	11.6525	14.2072	11.607	-0.0654	1.7667	2.5461	0.1053	7.0865	6.6854	7.9514	5.9458	53.8418	-1.2973
10.5999	11.277	15.5585	14.3921	15.0863	19.9937	15.1318	14.1219	19.3906	15.0806	11.5416	14.102	11.5131	-0.0711	1.6273	2.2446	0.1109	7.0268	6.6029	7.9087	5.9116	54.3311	-1.3371
10.5459	11.2144	15.5614	14.3779	15.0237	19.988	15.0948	14.0877	19.3621	15.0436	11.4534	14.0138	11.4562	-0.0512	1.522	1.9942	0.0853	7.0126	6.5517	7.8859	5.8746	54.8034	-1.357
10.5004	11.149	15.5443	14.3381	14.9668	19.9908	15.0664	14.0195	19.3365	15.018	11.3396	13.9142	11.3766	-0.0626	1.3854	1.7211	0.1081	6.9557	6.492	7.8433	5.8177	55.2472	-1.3911
10.4492	11.112	15.5443	14.3381	14.9554	20.0278	15.0721	13.9796	19.3166	14.9981	11.2685	13.8545	11.3396	-0.0683	1.3001	1.4793	0.1109	6.9727	6.4294	7.7665	5.7694	55.6682	-1.4224
10.452	11.0893	15.5756	14.3352	14.9184	20.0563	15.0806	13.9142	19.3052	15.018	11.1945	13.7919	11.3282	-0.0626	1.2546	1.283	0.1166	6.9557	6.3611	7.7266	5.7267	56.0437	-1.4566
10.4805	11.0949	15.6353	14.358	14.9184	20.1188	15.1318	13.9341	19.3251	15.0493	11.1348	13.7634	11.3282	-0.0654	1.2204	1.1266	0.1109	6.9841	6.3184	7.647	5.6869	56.3823	-1.4793
10.5004	11.1234	15.6837	14.3893	14.9241	20.1615	15.1517	13.9142	19.345	15.0635	11.0836	13.7435	11.3567	-0.0683	1.2005	1.0071	0.1195	6.9756	6.2587	7.5872	5.6214	56.7151	-1.4793
10.5288	11.1718	15.7406	14.4121	14.9241	20.2497	15.2029	13.9057	19.3991	15.1005	11.058	13.7407	11.3823	-0.0654	1.2148	0.9416	0.1109	6.987	6.2046	7.5133	5.5901	56.9967	-1.4879
10.58	11.24	15.8231	14.4519	14.9526	20.3123	15.2399	13.9085	19.4446	15.1659	11.0295	13.7492	11.4136	-0.0768	1.2717	0.9132	0.128	7.0211	6.1563	7.4422	5.5389	57.2727	-1.4964
10.6568	11.3168	15.8942	14.5031	14.9867	20.372	15.2854	13.9341	19.4645	15.1972	11.0267	13.7378	11.4278	-0.0654	1.32	0.9274	0.1081	7.041	6.1193	7.371	5.5133	57.523	-1.4907
10.7052	11.405	15.9653	14.5372	15.0066	20.4346	15.3309	13.9313	19.493	15.2172	11.0124	13.735	11.4591	-0.0711	1.4253	0.9559	0.1109	7.0553	6.0681	7.28	5.4849	57.7819	-1.4992
10.7906	11.4875	16.0393	14.5571	15.0436	20.4574	15.3679	13.9313	19.4788	15.2285	10.9982	13.7037	11.4562	-0.0683	1.5277	1.0469	0.1081	7.0837	6.0169	7.169	5.4593	58.0351	-1.4566
10.8304	11.5359	16.0991	14.5657	15.0095	20.4972	15.3537	13.9199	19.4759	15.2086	10.9584	13.6553	11.4363	-0.0683	1.6159	1.0782	0.1195	7.0752	5.9059	7.1065	5.4109	58.3082	-1.4452
10.893	11.5985	16.1417	14.5543	15.0209	20.5086	15.3395	13.9171	19.4446	15.183	10.9243	13.6126	11.4193	-0.0654	1.7069	1.1835	0.1109	7.078	5.8462	6.987	5.3995	58.5756	-1.4139
10.947	11.681	16.1958	14.5344	14.9981	20.4944	15.3338	13.8744	19.4133	15.1489	10.8702	13.5757	11.3681	-0.0654	1.8008	1.2773	0.1109	7.0553	5.7608	6.9159	5.3626	58.8772	-1.3513
10.9669	11.7009	16.1958	14.5031	14.9839	20.483	15.2997	13.8317	19.345	15.0863	10.8048	13.5017	11.3225	-0.0711	1.8833	1.3712	0.1366	7.0126	5.6442	6.8163	5.3028	59.1759	-1.2944
11.0352	11.755	16.2157	14.4974	14.9241	20.4688	15.2627	13.752	19.291	15.0379	10.7536	13.4135	11.2486	-0.0654	1.9658	1.4793	0.1109	6.9927	5.5162	6.6996	5.2374	59.486	-1.2489
11.0381	11.7464	16.2328	14.4604	14.8672	20.4346	15.2058	13.6838	19.2426	14.981	10.6654	13.3509	11.2031	-0.0711	2.0455	1.6159	0.1138	6.9386	5.3967	6.6143	5.1805	59.8331	-1.1607
11.0779	11.7578	16.2555	14.4121	14.8018	20.3919	15.1802	13.6126	19.1544	14.9241	10.5715	13.2741	11.1462	-0.074	2.1536	1.7211	0.1166	6.8931	5.2687	6.5204	5.0895	60.1773	-1.0981
11.1376	11.7777	16.2612	14.395	14.7364	20.3663	15.1347	13.5444	19.1004	14.8729	10.5032	13.2314	11.1092	-0.0711	2.2361	1.8748	0.1053	6.8703	5.172	6.455	5.061	60.5329	-1.0441
11.1575	11.7919	16.284	14.3865	14.6766	20.3294	15.0977	13.4818	19.0577	14.8388	10.4492	13.1745	11.0637	-0.074	2.3925	2.054	0.1024	6.8077	5.098	6.3867	5.0155	60.8942	-0.9786
11.223	11.7834	16.3124	14.3637	14.6283	20.3379	15.0493	13.4135	19.0378	14.7933	10.4036	13.1546	11.0637	-0.0654	2.4949	2.2105	0.1109	6.8021	5.0411	6.3412	4.9956	61.2726	-0.9274
11.2514	11.7834	16.3266	14.3466	14.5856	20.2867	15.0209	13.3623	19.0008	14.7506	10.3581	13.1432	11.0494	-0.0797	2.6116	2.3811	0.1223	6.7452	4.9785	6.2843	4.9643	61.6367	-0.8791
11.3168	11.809	16.3779	14.3409	14.5515	20.3038	15.0351	13.3339	18.9951	14.7449	10.3468	13.166	11.0665	-0.0853	2.7937	2.5746	0.128	6.7053	5.0041	6.2672	5.0041	62.0065	-0.8421
11.351	11.7806	16.3864	14.321	14.523	20.2838	15.0066	13.2826	18.9638	14.7193	10.3439	13.1404	11.058	-0.0882	2.8904	2.7396	0.1451	6.6456	5.0013	6.2103	5.0041	62.3821	-0.7966
11.3766	11.7749	16.3921	14.2954	14.4633	20.2469	14.9355	13.257	18.9382	14.6766	10.3297	13.1432	11.0381	-0.0967	3.0298	2.9387	0.1764	6.583	5.0212	6.1648	5.0155	62.7462	-0.7624
11.4193	11.7436	16.3949	14.2698	14.4206	20.2298	14.8928	13.2115	18.9098	14.614	10.3069	13.1319	11.0153	-0.1109	3.1606	3.0952	0.1906	6.4948	5.0667	6.1477	5.0553	63.1274	-0.7254
11.4306	11.7094	16.4006	14.2471	14.3637	20.1985	14.8189	13.1888	18.8529	14.5458	10.3098	13.1034	10.9698	-0.1309	3.2545	3.2574	0.2191	6.4038	5.1207	6.0965	5.0809	63.4944	-0.7055
11.4648	11.6924	16.4006	14.2158	14.3267	20.1587	14.7762	13.1262	18.8074	14.4718	10.2984	13.0494	10.9072	-0.1309	3.3655	3.4508	0.2191	6.3099	5.189	6.0766	5.1378	63.8557	-0.6629
11.4506	11.6326	16.3693	14.156	14.2556	20.0705	14.6738	13.0693	18.7362	14.3865	10.2671	12.9782	10.7991	-0.1252	3.448	3.5646	0.2418	6.1847	5.2658	6.0283	5.1549	64.1971	-0.6344
11.4278	11.5786	16.3266	14.0963	14.1731	20.0107	14.5771	13.0067	18.6509	14.2698	10.233	12.8758	10.6711	-0.1422	3.5219	3.7239	0.2532	6.0567	5.3284	5.9714	5.1833	64.5442	-0.6088
11.4107	11.4847	16.2754	14.0252	14.0963	19.9197	14.4576	12.9384	18.5428	14.1503	10.1732	12.7649	10.5317	-0.1366	3.5447	3.8292	0.256	5.9002	5.3882	5.9258	5.2232	64.9254	-0.6031
11.3453	11.3624	16.2043	13.9341	13.9654	19.8258	14.3182	12.8132	18.4005	13.9996	10.0907	12.6283	10.3724	-0.165	3.5646	3.8633	0.276	5.7352	5.4223	5.8633	5.2004	65.2867	-0.5775
11.2799	11.2742	16.1275	13.8602	13.8459	19.7092	14.2186	12.7023	18.264	13.863	9.994	12.4975	10.2159	-0.1593	3.5418	3.9088	0.2845	5.5617	5.4365	5.8263	5.1691	65.6508	-0.5377
11.2457	11.1234	16.0222	13.7577	13.7179	19.6039	14.0934	12.597	18.1189	13.7321	9.8859	12.3239	10.0281	-0.1707	3.5333	3.8918	0.3044	5.3967	5.4707	5.7551	5.1094	66.032	-0.532
11.1775	11.0238	15.9653	13.6809	13.6212	19.5157	13.9739	12.4889	17.988	13.5956	9.7806	12.2073	9.8802	-0.1735	3.502	3.8775	0.3044	5.2573	5.4792	5.7409	5.0724	66.4047	-0.4836
11.0921	10.8645	15.8743	13.5671	13.4562	19.3991	13.8459	12.3638	17.8572	13.4761	9.6782	12.0707	9.7209	-0.1764	3.4451	3.8406	0.3328	5.1008	5.4564	5.6897	4.987	66.7461	-0.4609
11.0381	10.7621	15.7719	13.4989	13.3367	19.3024	13.7435	12.2557	17.7036	13.3481	9.5758	11.9456	9.5502	-0.2048	3.3768	3.7467	0.3698	4.933	5.4365	5.6271	4.9159	67.0932	-0.4296
10.9641	10.6597	15.6951	13.4135	13.2115	19.2398	13.6354	12.1419	17.5898	13.2514	9.4648	11.8062	9.3994	-0.2333	3.3057	3.63	0.4153	4.7737	5.4052	5.5845	4.8107	67.4232	-0.3954
10.9015	10.5772	15.6353	13.3595	13.1176	19.1459	13.5728	12.0594	17.4731	13.1432	9.3795	11.7379	9.2913	-0.2503	3.1919	3.465	0.458	4.6229	5.3882	5.5446	4.731	67.7133	-0.3641
10.8588	10.4833	15.5528	13.2969	13.0124	19.0862	13.4903	11.9655	17.3878	13.0181	9.2942	11.6241	9.1377	-0.2788	3.1094	3.32	0.5263	4.4721	5.3114	5.4792	4.6087	67.9722	-0.3215
10.819	10.4264	15.513	13.24	12.9356	19.0378	13.3936	11.8773	17.2939	12.9441	9.2344	11.5473	9.0097	-0.3158	3.0355	3.135	0.5804	4.3043	5.2687	5.3967	4.5262	68.197	-0.2873
10.7593	10.3439	15.4533	13.1859	12.8445	18.9752	13.3395	11.7948	17.1801	12.8388	9.1434	11.4164	8.8674	-0.3471	2.9643	2.9643	0.6543	4.1478	5.1833	5.3	4.4266	68.3563	-0.2503
10.7365	10.3069	15.4163	13.1575	12.7763	18.9297	13.2514	11.7237	17.0834	12.7421	9.0723	11.3425	8.7309	-0.3727	2.9018	2.7766	0.7055	3.9828	5.1151	5.2317	4.3185	68.5042	-0.2162
10.6711	10.2472	15.3338	13.0977	12.6767	18.8216	13.1404	11.6013	16.9582	12.5942	8.9812	11.2087	8.5403	-0.4153	2.8363	2.5746	0.771	3.7637	5.0354	5.0923	4.1933	68.5782	-0.2048
10.6597	10.196	15.2883	13.0266	12.5913	18.7419	13.0579	11.516	16.8302	12.4548	8.876	11.0893	8.3838	-0.4153	2.7709	2.4096	0.8136	3.6158	4.9216	5.007	4.0738	68.6322	-0.1622
10.6142	10.1476	15.2143	12.9982	12.4747	18.6708	12.9526	11.4107	16.6709	12.3211	8.7707	10.9214	8.1704	-0.4353	2.7396	2.2588	0.8335	3.411	4.8448	4.8875	3.9629	68.6521	-0.1223
10.5402	10.0765	15.1034	12.9299	12.3837	18.5143	12.8474	11.2628	16.5144	12.1419	8.6228	10.7735	7.9485	-0.4523	2.6543	2.0938	0.8734	3.2062	4.7338	4.7509	3.8206	68.6664	-0.1081
10.5032	10.0594	15.018	12.8588	12.2756	18.4005	12.745	11.149	16.3466	11.9712	8.4891	10.5687	7.7238	-0.4666	2.6457	1.9715	0.8848	2.9757	4.6257	4.6201	3.6727	68.6692	-0.0626
10.4577	9.9855	14.9469	12.7962	12.1589	18.2839	12.6198	11.0153	16.1702	11.8119	8.3411	10.3923	7.4934	-0.4523	2.6315	1.9117	0.8762	2.7851	4.5262	4.5205	3.5191	68.6464	-0.0171
10.415	9.9428	14.8701	12.7677	12.0565	18.153	12.5202	10.9072	16.0109	11.6412	8.2188	10.2074	7.2715	-0.4523	2.6201	1.8719	0.8705	2.5774	4.438	4.4323	3.3768	68.6265	0.0199
10.3553	9.8802	14.7847	12.7165	11.9313	18.0136	12.4093	10.7593	15.8174	11.4477	8.0424	10.0025	7.024	-0.441	2.6258	1.8691	0.862	2.3982	4.31	4.2986	3.2346	68.6208	0.0569
10.3183	9.8517	14.7022	12.6824	11.8318	17.9027	12.3239	10.6568	15.6837	11.3197	7.9229	9.8517	6.8419	-0.4381	2.6002	1.9089	0.8535	2.2361	4.2417	4.2246	3.118	68.6379	0.0797
10.2899	9.8233	14.6396	12.6397	11.718	17.7605	12.23	10.5032	15.5187	11.1632	7.775	9.664	6.6371	-0.4097	2.6514	1.9772	0.8307	2.0824	4.1393	4.1478	2.9871	68.655	0.1138
10.2443	9.8261	14.6112	12.617	11.6781	17.6808	12.1874	10.4122	15.4021	11.0523	7.6697	9.5445	6.492	-0.4097	2.6628	2.0625	0.7937	1.9487	4.0852	4.108	2.8932	68.7062	0.1309
10.2187	9.8034	14.5543	12.5999	11.6099	17.5698	12.1191	10.3439	15.2911	10.9385	7.5588	9.4193	6.3383	-0.3897	2.7083	2.2019	0.7596	1.8321	4.034	4.0511	2.7851	68.7631	0.1565
10.1761	9.8091	14.5116	12.5686	11.5501	17.4959	12.085	10.2529	15.2086	10.8332	7.445	9.3141	6.1933	-0.3926	2.7481	2.3442	0.751	1.7012	3.9885	4.0255	2.6884	68.8484	0.1593
10.1846	9.8119	14.4832	12.5714	11.4989	17.4333	12.0309	10.1874	15.1375	10.745	7.3397	9.1917	6.0624	-0.3698	2.8221	2.5177	0.7169	1.5732	3.9458	3.9686	2.6173	68.9651	0.165
10.1391	9.8176	14.4405	12.5117	11.4648	17.3536	11.9825	10.1192	15.0465	10.617	7.2487	9.0808	5.9315	-0.3698	2.8619	2.6514	0.7084	1.4708	3.9088	3.9231	2.5319	69.1073	0.1735
10.1049	9.8261	14.4234	12.469	11.4136	17.2939	11.9143	10.068	15.0123	10.5487	7.1776	9.0154	5.8149	-0.3613	2.8875	2.8278	0.6913	1.3627	3.9003	3.8946	2.4893	69.2894	0.1678
10.0793	9.8062	14.4064	12.469	11.3851	17.237	11.8801	10.0054	14.927	10.4463	7.0894	8.9186	5.6954	-0.3585	2.9302	2.9729	0.6771	1.2489	3.8775	3.8377	2.3954	69.4743	0.165
10.0395	9.792	14.3665	12.4007	11.3567	17.1943	11.8119	9.9627	14.9099	10.3724	7.0439	8.8248	5.5674	-0.3499	2.9473	3.1123	0.6572	1.1351	3.869	3.8206	2.3641	69.7246	0.1821
10.0224	9.792	14.3438	12.3552	11.3197	17.1573	11.7749	9.883	14.8445	10.2586	6.9471	8.7195	5.4308	-0.3272	3.0013	3.2488	0.6316	1.0298	3.8406	3.7552	2.3129	69.975	0.202
9.9769	9.7664	14.3068	12.304	11.3026	17.1118	11.7294	9.8461	14.799	10.1476	6.8703	8.6171	5.3142	-0.3243	2.9757	3.3512	0.6116	0.9502	3.7865	3.7467	2.2588	70.2509	0.2162
9.957	9.7749	14.2983	12.2471	11.2685	17.0606	11.6469	9.7835	14.7648	10.068	6.7622	8.4891	5.1492	-0.3072	3.0042	3.4281	0.5832	0.8734	3.7467	3.6898	2.1792	70.4842	0.2247
9.9115	9.738	14.2414	12.1874	11.2116	17.0236	11.5558	9.7067	14.6965	9.9741	6.657	8.3582	5.0041	-0.2816	3.007	3.485	0.5604	0.8222	3.6869	3.6329	2.0967	70.7602	0.2475
9.8717	9.701	14.2243	12.1419	11.186	16.9952	11.5018	9.6412	14.6311	9.8745	6.5517	8.2302	4.8619	-0.293	3.0013	3.5219	0.5491	0.7425	3.6101	3.5902	2.0056	71.0191	0.2788
