"FZ"	"FC3"	"FCZ"	"FC4"	"C3"	"CZ"	"C4"	"CP3"	"CPZ"	"CP4"	"P3"	"PZ"	"P4"	"OZ"	"FP1"	"FP2"	"A2"	"P8"	"TP7"	"TP8"	"P7"
-0.4117	-1.0578	-0.8329	-0.2439	-1.4314	-1.4473	-0.6967	-1.5866	-1.8241	-1.2763	-1.9445	-2.1567	-1.8526	-0.3452	0.6112	1.0578	0.7126	-1.4346	-0.4212	-0.9627	-1.0482
-0.4624	-1.0768	-0.8804	-0.2945	-1.4219	-1.5011	-0.7411	-1.5803	-1.7956	-1.2699	-1.8558	-2.0522	-1.7291	-0.3769	0.5257	0.8962	0.7632	-1.3174	-0.4212	-0.9121	-0.9627
-0.475	-1.0673	-0.8804	-0.304	-1.4061	-1.5138	-0.7696	-1.5455	-1.764	-1.2319	-1.745	-1.9192	-1.6246	-0.4054	0.4655	0.7537	0.8234	-1.1813	-0.4212	-0.8329	-0.8836
-0.4877	-1.0546	-0.8962	-0.3452	-1.3966	-1.5328	-0.8297	-1.4948	-1.7513	-1.2193	-1.6246	-1.8115	-1.5043	-0.4339	0.3484	0.5795	0.8772	-1.0451	-0.418	-0.7917	-0.7886
-0.4719	-1.0007	-0.8962	-0.3737	-1.3554	-1.5043	-0.8836	-1.4188	-1.6816	-1.1813	-1.4568	-1.688	-1.3713	-0.4497	0.2755	0.4845	0.8994	-0.8962	-0.4149	-0.7284	-0.6524
-0.4529	-0.9659	-0.8519	-0.3864	-1.2763	-1.4726	-0.8962	-1.3269	-1.6215	-1.1211	-1.3016	-1.5201	-1.2319	-0.4529	0.2058	0.399	0.9247	-0.7537	-0.3895	-0.6587	-0.5415
-0.437	-0.8931	-0.8456	-0.4244	-1.2351	-1.4029	-0.9342	-1.2129	-1.5233	-1.0894	-1.1243	-1.3554	-1.0609	-0.4592	0.19	0.3452	0.9184	-0.5922	-0.3515	-0.5605	-0.4085
-0.399	-0.8012	-0.7696	-0.437	-1.1274	-1.3301	-0.9437	-1.1053	-1.4061	-1.0261	-0.9374	-1.1876	-0.9216	-0.4434	0.1742	0.3009	0.8867	-0.4434	-0.3167	-0.475	-0.2534
-0.3484	-0.7189	-0.6967	-0.4465	-0.9944	-1.2193	-0.9406	-0.9627	-1.2858	-0.9532	-0.7411	-0.9722	-0.7632	-0.4339	0.1615	0.2819	0.8487	-0.2629	-0.209	-0.3737	-0.0823
-0.2787	-0.5827	-0.6112	-0.4497	-0.8677	-1.1021	-0.9406	-0.8107	-1.1433	-0.8614	-0.5352	-0.7664	-0.608	-0.3769	0.1552	0.209	0.7727	-0.0697	-0.1488	-0.2755	0.0887
-0.2312	-0.4782	-0.5415	-0.4687	-0.7316	-0.9912	-0.9152	-0.6651	-1.0166	-0.7917	-0.2945	-0.5574	-0.437	-0.3452	0.2058	0.1932	0.6936	0.0665	-0.0412	-0.1837	0.2597
-0.1488	-0.4085	-0.4592	-0.4782	-0.627	-0.8614	-0.9247	-0.5162	-0.8424	-0.7252	-0.0887	-0.3515	-0.266	-0.3072	0.2154	0.1013	0.6239	0.228	0.0475	-0.114	0.4465
-0.1203	-0.3135	-0.3642	-0.475	-0.4909	-0.7537	-0.8994	-0.3674	-0.7252	-0.6651	0.0982	-0.152	-0.1267	-0.2692	0.2375	0.057	0.5352	0.3864	0.1235	-0.0475	0.6334
-0.0633	-0.2344	-0.3135	-0.4877	-0.3705	-0.6492	-0.8804	-0.2154	-0.5669	-0.5922	0.3357	0.0348	0.019	-0.2217	0.2914	-0.0633	0.4434	0.4972	0.2249	0.0538	0.8107
-0.0285	-0.1552	-0.2439	-0.5099	-0.2597	-0.5574	-0.8772	-0.0507	-0.4402	-0.5447	0.532	0.2185	0.1615	-0.1647	0.3325	-0.1773	0.3294	0.6112	0.3357	0.1108	0.9659
-0.0253	-0.1108	-0.2058	-0.5479	-0.1457	-0.475	-0.8899	0.0982	-0.2914	-0.4529	0.7316	0.4307	0.2882	-0.0982	0.3199	-0.3294	0.2249	0.7506	0.4054	0.1678	1.1243
0	-0.0665	-0.1488	-0.5257	-0.0222	-0.38	-0.8551	0.2154	-0.1678	-0.4117	0.9437	0.5985	0.4117	-0.0443	0.3515	-0.4275	0.0982	0.8677	0.532	0.2439	1.2889
0.0127	-0.038	-0.1583	-0.5289	0.0792	-0.2945	-0.8297	0.361	-0.038	-0.3167	1.1116	0.7664	0.5415	0.0032	0.3104	-0.589	-0.0095	0.9596	0.6144	0.3072	1.4251
-0.0158	-0.0348	-0.1393	-0.551	0.133	-0.2502	-0.8297	0.4624	0.0412	-0.285	1.2731	0.9057	0.627	0.057	0.2692	-0.7221	-0.1013	1.0292	0.6936	0.3579	1.5265
-0.038	-0.057	-0.171	-0.5574	0.152	-0.2185	-0.8139	0.5384	0.1298	-0.2565	1.3776	1.0007	0.6872	0.076	0.2217	-0.8646	-0.1583	1.0768	0.7284	0.399	1.6056
-0.1203	-0.1108	-0.2312	-0.6112	0.2027	-0.2027	-0.8234	0.5985	0.1615	-0.228	1.4631	1.0989	0.7506	0.1203	0.1615	-0.9849	-0.2217	1.1401	0.7854	0.4307	1.688
-0.19	-0.171	-0.2629	-0.5985	0.1742	-0.209	-0.7981	0.6619	0.1868	-0.2375	1.5265	1.1464	0.7537	0.1298	0.0823	-1.0609	-0.2534	1.1274	0.7664	0.437	1.726
-0.2882	-0.2534	-0.3547	-0.6714	0.1583	-0.2344	-0.8107	0.6651	0.209	-0.2312	1.5613	1.2034	0.7601	0.1457	0.0222	-1.1306	-0.2755	1.1116	0.7601	0.4085	1.7355
-0.4244	-0.3642	-0.4465	-0.6936	0.1235	-0.3009	-0.8392	0.6524	0.1868	-0.2819	1.5581	1.1813	0.7347	0.1488	-0.0443	-1.1401	-0.2787	1.0863	0.7474	0.3927	1.6785
-0.5194	-0.4434	-0.551	-0.7221	0.0633	-0.342	-0.8424	0.627	0.1837	-0.2945	1.4916	1.1369	0.6936	0.1552	-0.1172	-1.1401	-0.2819	1.0229	0.7062	0.3769	1.6436
-0.6366	-0.5447	-0.6714	-0.7601	-0.019	-0.399	-0.8551	0.5795	0.114	-0.3357	1.4441	1.1148	0.5954	0.133	-0.2185	-1.0831	-0.2629	0.9311	0.6239	0.3167	1.5613
-0.7411	-0.6556	-0.7664	-0.7981	-0.0697	-0.4624	-0.8424	0.5004	0.0602	-0.3895	1.3681	1.0387	0.5257	0.1267	-0.3135	-0.9944	-0.2502	0.8487	0.589	0.285	1.4758
-0.8424	-0.7189	-0.8836	-0.8044	-0.1457	-0.5067	-0.8456	0.4275	0.0032	-0.4244	1.2794	0.9564	0.4244	0.1203	-0.3895	-0.9089	-0.2407	0.7727	0.5035	0.1963	1.3586
-0.9374	-0.7949	-0.9469	-0.8487	-0.2217	-0.57	-0.8804	0.3515	-0.0728	-0.5004	1.1654	0.8772	0.3199	0.1108	-0.437	-0.7886	-0.1963	0.6334	0.4497	0.1045	1.2478
-1.0419	-0.8677	-1.0356	-0.8519	-0.2692	-0.6239	-0.8551	0.2819	-0.1393	-0.5099	1.0419	0.7696	0.19	0.095	-0.5004	-0.6207	-0.1868	0.5225	0.418	0.057	1.1084
-1.1243	-0.8962	-1.1243	-0.8772	-0.3072	-0.6524	-0.8456	0.2122	-0.1647	-0.5637	0.9247	0.6841	0.1077	0.0918	-0.4814	-0.4782	-0.1457	0.4212	0.4244	0.0348	0.9817
-1.1971	-0.9406	-1.1908	-0.8804	-0.361	-0.7031	-0.8487	0.095	-0.2502	-0.5985	0.7981	0.5985	-0.038	0.0697	-0.4909	-0.323	-0.0982	0.2945	0.3769	-0.0633	0.8266
-1.2478	-0.9406	-1.2319	-0.9057	-0.4117	-0.7157	-0.8361	0.0063	-0.3167	-0.6587	0.6682	0.4814	-0.1425	0.0317	-0.5035	-0.1425	-0.038	0.171	0.3674	-0.1457	0.7094
-1.2636	-0.8899	-1.2636	-0.8772	-0.4085	-0.7411	-0.8076	-0.0285	-0.3547	-0.6556	0.5605	0.3927	-0.247	0.0032	-0.4814	0.0285	0.0222	0.0665	0.3674	-0.2185	0.5542
-1.2699	-0.8741	-1.2478	-0.8677	-0.4117	-0.7347	-0.7854	-0.1013	-0.3674	-0.6651	0.4624	0.3262	-0.3325	-0.0412	-0.3959	0.3072	0.0855	-0.0348	0.3642	-0.2565	0.4275
-1.2636	-0.8171	-1.2256	-0.8361	-0.4275	-0.7221	-0.7506	-0.1583	-0.38	-0.6904	0.3484	0.2344	-0.437	-0.0728	-0.3769	0.5225	0.1742	-0.152	0.323	-0.3452	0.2724
-1.2003	-0.7379	-1.1813	-0.7949	-0.399	-0.6714	-0.6999	-0.171	-0.3737	-0.6524	0.2375	0.171	-0.5099	-0.1298	-0.3104	0.7886	0.2439	-0.2375	0.304	-0.3895	0.1393
-1.1084	-0.6366	-1.1116	-0.7221	-0.3515	-0.6334	-0.6302	-0.2122	-0.3705	-0.6366	0.1425	0.1235	-0.5479	-0.1488	-0.2122	1.0736	0.3104	-0.323	0.2724	-0.437	0
-1.0292	-0.532	-1.0229	-0.6746	-0.3072	-0.5384	-0.5732	-0.2439	-0.3325	-0.6334	0.0538	0.0823	-0.608	-0.1963	-0.1805	1.3301	0.3864	-0.4117	0.2344	-0.4782	-0.133
-0.9057	-0.4149	-0.8931	-0.589	-0.2439	-0.4402	-0.4719	-0.2439	-0.2977	-0.5574	-0.0127	0.0538	-0.6017	-0.2217	-0.0475	1.593	0.437	-0.456	0.2027	-0.4877	-0.2344
-0.7696	-0.3009	-0.8044	-0.513	-0.2058	-0.3705	-0.4307	-0.2755	-0.2534	-0.5479	-0.0918	0.0063	-0.627	-0.2502	0.0792	1.7861	0.5099	-0.5384	0.1393	-0.5067	-0.3674
-0.6619	-0.1773	-0.6936	-0.4402	-0.1203	-0.3009	-0.3484	-0.247	-0.2122	-0.494	-0.152	0	-0.6366	-0.2724	0.1837	1.9477	0.5415	-0.6017	0.076	-0.5542	-0.4592
-0.513	-0.0792	-0.5415	-0.3484	-0.0538	-0.2154	-0.285	-0.2502	-0.1805	-0.4434	-0.2185	-0.0253	-0.6302	-0.2724	0.2882	2.0807	0.5669	-0.6207	-0.0158	-0.5795	-0.5795
-0.3769	0.0538	-0.4244	-0.2597	-0.019	-0.1267	-0.2312	-0.2534	-0.1393	-0.4022	-0.266	-0.0253	-0.6175	-0.2914	0.4054	2.1598	0.5732	-0.6999	-0.0855	-0.6017	-0.6524
-0.2375	0.1678	-0.3072	-0.19	0.0633	-0.0285	-0.1552	-0.2407	-0.0792	-0.342	-0.304	-0.038	-0.5985	-0.2882	0.4814	2.1725	0.5732	-0.7347	-0.1678	-0.6302	-0.7664
-0.0728	0.2945	-0.1552	-0.0443	0.171	0.0855	-0.0697	-0.2058	0.019	-0.266	-0.3104	-0.0222	-0.5447	-0.266	0.6334	2.1313	0.5194	-0.7284	-0.1995	-0.589	-0.8076
0.0665	0.3959	-0.019	0.0507	0.2122	0.1615	-0.019	-0.1932	0.0412	-0.2027	-0.3515	-0.0127	-0.513	-0.2217	0.7506	2.0648	0.4719	-0.7474	-0.2724	-0.5605	-0.8677
0.1837	0.4624	0.0823	0.1425	0.2534	0.2597	0.0792	-0.1647	0.095	-0.1425	-0.342	0	-0.4655	-0.19	0.8139	1.9318	0.4054	-0.7442	-0.3262	-0.5415	-0.9279
0.3104	0.5447	0.2249	0.2755	0.3294	0.3325	0.1615	-0.1267	0.171	-0.0633	-0.3642	0.0412	-0.4085	-0.1488	0.8994	1.7576	0.323	-0.7411	-0.3484	-0.5004	-0.9596
0.3959	0.6049	0.323	0.3927	0.3325	0.3864	0.247	-0.1077	0.2122	0.0222	-0.3769	0.076	-0.3325	-0.1077	0.9469	1.5676	0.2312	-0.7252	-0.3927	-0.4719	-0.9722
0.5384	0.6492	0.4212	0.4782	0.3769	0.4687	0.323	-0.0823	0.3009	0.1108	-0.361	0.057	-0.2502	-0.0317	0.9659	1.3459	0.1077	-0.6746	-0.4085	-0.4212	-0.9881
0.6429	0.7031	0.5162	0.6239	0.4117	0.5289	0.418	-0.0633	0.342	0.1995	-0.3515	0.1267	-0.19	0.0095	1.0102	1.1211	-0.0032	-0.6461	-0.437	-0.3547	-1.0039
0.7252	0.7252	0.5605	0.7126	0.4085	0.5637	0.513	-0.057	0.3864	0.2597	-0.3389	0.1678	-0.133	0.076	1.0166	0.8772	-0.1235	-0.6397	-0.4402	-0.3357	-0.9944
0.8107	0.7379	0.6239	0.8107	0.4149	0.6017	0.57	-0.0095	0.4307	0.3357	-0.3452	0.1995	-0.057	0.133	1.0071	0.6207	-0.2407	-0.6334	-0.4497	-0.2882	-1.0166
0.8614	0.7157	0.6366	0.8772	0.3674	0.6239	0.6397	-0.0032	0.4529	0.4149	-0.3167	0.2344	-0.0063	0.1963	1.0039	0.3262	-0.3674	-0.5827	-0.4212	-0.2185	-0.9881
0.8836	0.7031	0.6492	0.9564	0.3515	0.6144	0.6841	-0.0317	0.4624	0.437	-0.3357	0.2249	0.0348	0.2565	0.9596	0.0348	-0.4687	-0.5954	-0.4339	-0.1932	-1.0007
0.8899	0.6619	0.627	0.9786	0.2945	0.627	0.7252	-0.0538	0.4655	0.437	-0.3452	0.2185	0.0792	0.285	0.8772	-0.2755	-0.5415	-0.57	-0.4117	-0.1647	-0.9817
0.8836	0.6144	0.5985	1.0007	0.2724	0.5669	0.7157	-0.0792	0.437	0.456	-0.3832	0.2185	0.0855	0.323	0.8107	-0.5067	-0.6112	-0.5732	-0.4465	-0.152	-1.0102
0.8361	0.551	0.5637	1.0071	0.19	0.5415	0.7126	-0.0728	0.4465	0.4845	-0.4022	0.2185	0.1045	0.3452	0.7252	-0.7442	-0.6746	-0.5732	-0.399	-0.1013	-0.9912
0.7854	0.4719	0.475	0.9659	0.0982	0.5067	0.7157	-0.1172	0.4117	0.4592	-0.4085	0.171	0.0918	0.3895	0.6175	-0.9501	-0.7442	-0.5225	-0.4149	-0.0507	-0.9912
0.7506	0.4022	0.4402	0.9627	0.0602	0.4655	0.7094	-0.1393	0.4022	0.4497	-0.4275	0.1837	0.1013	0.4022	0.5225	-1.0514	-0.7886	-0.5257	-0.418	-0.0253	-0.9691
0.6682	0.3199	0.3769	0.9247	-0.0317	0.4275	0.6746	-0.1837	0.3579	0.4244	-0.4275	0.152	0.1108	0.4212	0.4529	-1.1211	-0.8139	-0.5162	-0.38	0.0063	-0.9501
0.6144	0.2375	0.304	0.8677	-0.0855	0.3705	0.627	-0.2027	0.3262	0.4022	-0.4529	0.114	0.0823	0.4402	0.361	-1.1211	-0.8266	-0.5004	-0.3547	0.0538	-0.9216
0.5384	0.1805	0.2312	0.8076	-0.1203	0.3167	0.5732	-0.247	0.2819	0.3452	-0.4877	0.1045	0.038	0.4212	0.2629	-1.0768	-0.8107	-0.5067	-0.3167	0.0538	-0.9247
0.4465	0.1045	0.1742	0.7347	-0.1457	0.2755	0.5289	-0.2407	0.2439	0.323	-0.4529	0.0507	0.0285	0.399	0.1583	-1.0356	-0.7854	-0.4592	-0.285	0.1013	-0.8741
0.4022	0.0507	0.114	0.6556	-0.1837	0.2502	0.475	-0.2724	0.228	0.2787	-0.4845	0.0158	-0.0127	0.3832	0.0728	-0.9216	-0.7411	-0.4655	-0.304	0.1013	-0.8646
0.323	0.0032	0.0412	0.5637	-0.2344	0.1837	0.4085	-0.2819	0.1963	0.2217	-0.475	-0.0222	-0.0507	0.3484	-0.0475	-0.8519	-0.6809	-0.437	-0.2724	0.114	-0.8329
0.247	-0.038	0	0.4719	-0.2502	0.1488	0.3515	-0.285	0.1583	0.1678	-0.513	-0.057	-0.0982	0.323	-0.1742	-0.7284	-0.6017	-0.437	-0.2882	0.1362	-0.8361
0.1868	-0.0443	-0.0348	0.3832	-0.2407	0.1267	0.2914	-0.2629	0.1362	0.1425	-0.5004	-0.1108	-0.1267	0.266	-0.2629	-0.6239	-0.5289	-0.418	-0.2819	0.1457	-0.8202
0.1077	-0.0412	-0.057	0.2914	-0.2344	0.1077	0.2375	-0.2502	0.1457	0.1077	-0.5099	-0.1362	-0.1583	0.2312	-0.4022	-0.5099	-0.4497	-0.3769	-0.304	0.1742	-0.7506
0.0633	-0.057	-0.0665	0.1963	-0.2154	0.0792	0.2027	-0.2502	0.114	0.076	-0.5162	-0.1932	-0.1805	0.19	-0.5035	-0.4339	-0.361	-0.3452	-0.3072	0.2027	-0.7727
0.019	-0.019	-0.0507	0.1108	-0.1742	0.0887	0.1932	-0.2312	0.1045	0.0412	-0.4845	-0.2122	-0.2122	0.1552	-0.6239	-0.3325	-0.285	-0.2945	-0.3357	0.1868	-0.7442
0.0317	0.0158	-0.0412	0.0317	-0.133	0.1045	0.1647	-0.1773	0.1172	0.0792	-0.4624	-0.2312	-0.1963	0.1203	-0.7411	-0.2692	-0.209	-0.2819	-0.3642	0.2344	-0.7221
0.019	0.0538	0.0063	-0.0063	-0.0697	0.152	0.19	-0.1488	0.1552	0.0697	-0.4529	-0.2439	-0.1805	0.076	-0.8424	-0.2027	-0.1393	-0.2249	-0.3547	0.2407	-0.6809
0.0475	0.1488	0.0855	-0.0253	0.0348	0.2344	0.2185	-0.0665	0.1963	0.1235	-0.4054	-0.2375	-0.1362	0.0602	-0.9564	-0.1393	-0.0918	-0.1488	-0.3769	0.285	-0.6366
0.0412	0.2122	0.1615	-0.076	0.095	0.2787	0.247	-0.0222	0.228	0.1615	-0.38	-0.2534	-0.1203	0.0253	-0.9912	-0.1045	-0.0253	-0.1045	-0.3895	0.2977	-0.6017
0.0728	0.2977	0.2407	-0.0697	0.1963	0.3452	0.304	0.038	0.2724	0.2185	-0.3389	-0.2439	-0.0823	-0.019	-1.0451	-0.0443	0.057	-0.0538	-0.4117	0.3262	-0.5542
0.095	0.3515	0.2977	-0.0697	0.2755	0.418	0.342	0.095	0.3199	0.247	-0.3072	-0.2375	-0.0602	-0.0443	-1.0229	0.0443	0.1077	0.0032	-0.4117	0.3294	-0.4845
0.1362	0.437	0.4244	-0.038	0.3832	0.5162	0.4085	0.1837	0.38	0.3357	-0.2692	-0.2122	0.0095	-0.0792	-0.9722	0.1077	0.1742	0.0602	-0.3769	0.3484	-0.4212
0.171	0.5289	0.5225	-0.0063	0.5004	0.5922	0.4909	0.2565	0.4149	0.399	-0.1932	-0.2027	0.0633	-0.1108	-0.8646	0.1583	0.228	0.1203	-0.323	0.3642	-0.342
0.2375	0.6175	0.6556	0.0412	0.5859	0.6619	0.57	0.3547	0.4909	0.4592	-0.1298	-0.1868	0.1203	-0.1298	-0.7347	0.228	0.2724	0.1678	-0.2977	0.361	-0.2502
0.3072	0.6841	0.7506	0.1172	0.6999	0.7696	0.6714	0.4465	0.5542	0.5827	-0.0918	-0.1583	0.2122	-0.1425	-0.608	0.2755	0.3104	0.228	-0.2312	0.3832	-0.1362
0.3547	0.7601	0.8646	0.1742	0.7917	0.8582	0.7506	0.5035	0.6017	0.627	-0.0412	-0.1457	0.2724	-0.1552	-0.4624	0.3135	0.3325	0.285	-0.1837	0.38	-0.0538
0.4022	0.8361	0.9469	0.2439	0.8899	0.9311	0.8487	0.5859	0.6556	0.7189	0.0348	-0.1298	0.3389	-0.1583	-0.3167	0.3325	0.3325	0.3262	-0.0855	0.3705	0.0443
0.4877	0.9026	1.0799	0.3705	0.9627	1.0007	0.9691	0.7062	0.7189	0.8076	0.0982	-0.0855	0.4085	-0.1457	-0.2058	0.3642	0.2945	0.3737	-0.0095	0.3864	0.1552
0.5384	0.9596	1.1749	0.4465	1.0514	1.0641	1.0387	0.7822	0.7727	0.9026	0.1362	-0.0633	0.475	-0.1267	-0.114	0.3135	0.2565	0.4244	0.0633	0.3674	0.2407
0.5859	1.0007	1.2383	0.4972	1.0958	1.1274	1.1338	0.8139	0.8139	0.9596	0.171	-0.0697	0.5605	-0.0982	-0.0443	0.2534	0.2027	0.437	0.1077	0.38	0.3009
0.6239	1.0229	1.3143	0.5922	1.1274	1.1338	1.1749	0.8551	0.8012	1.0134	0.2058	-0.0507	0.5985	-0.0633	0.0032	0.1995	0.133	0.513	0.1615	0.38	0.418
0.6239	0.9912	1.3269	0.6239	1.1179	1.1528	1.2193	0.8646	0.7981	1.0546	0.2344	-0.0633	0.6397	-0.0253	-0.0095	0.0633	0.0602	0.5194	0.1773	0.3737	0.4529
0.627	0.9501	1.3206	0.6429	1.0799	1.1528	1.2288	0.8646	0.7696	1.0609	0.247	-0.0633	0.6936	0.0222	-0.0507	-0.095	-0.019	0.5289	0.1837	0.3769	0.4782
0.6556	0.9089	1.3364	0.6809	1.0578	1.1433	1.2699	0.8836	0.7854	1.1179	0.2787	-0.0507	0.7474	0.0665	-0.1045	-0.2502	-0.1267	0.5922	0.2249	0.4054	0.5194
0.6302	0.8456	1.3079	0.6872	0.9786	1.1148	1.2794	0.8361	0.7442	1.1338	0.3009	-0.0602	0.7917	0.1298	-0.1678	-0.4022	-0.228	0.5859	0.228	0.3927	0.5605
0.6144	0.7569	1.2604	0.6651	0.8962	1.0673	1.2699	0.7791	0.6809	1.1116	0.2692	-0.0728	0.8234	0.1805	-0.285	-0.5985	-0.3389	0.6239	0.2597	0.437	0.589
0.6049	0.6619	1.2161	0.6651	0.8361	1.0071	1.2509	0.7442	0.6334	1.1211	0.2882	-0.0855	0.8646	0.2312	-0.4149	-0.7759	-0.4307	0.6651	0.2439	0.4244	0.6239
0.5954	0.5764	1.1781	0.6302	0.7347	0.9532	1.2383	0.7126	0.589	1.1274	0.2914	-0.076	0.9089	0.2755	-0.494	-0.9247	-0.5384	0.6999	0.2882	0.4909	0.6587
0.5542	0.4687	1.0863	0.589	0.6207	0.8741	1.1528	0.6524	0.5352	1.0799	0.2914	-0.0602	0.9374	0.3325	-0.5859	-1.0831	-0.6334	0.7411	0.3199	0.5289	0.6904
0.4845	0.3294	0.9849	0.4972	0.494	0.7917	1.1021	0.5985	0.456	1.0958	0.323	-0.0855	0.9849	0.3737	-0.6936	-1.1908	-0.7126	0.7506	0.3452	0.5669	0.6999
0.4592	0.209	0.8677	0.4307	0.38	0.6967	1.0387	0.5637	0.437	1.0831	0.3579	-0.057	1.0197	0.4149	-0.7411	-1.2953	-0.7981	0.8234	0.3737	0.6049	0.7442
0.3737	0.0633	0.7474	0.2977	0.2249	0.57	0.9089	0.4687	0.3452	1.0197	0.3167	-0.0602	1.0071	0.437	-0.7917	-1.3776	-0.8551	0.8202	0.3769	0.6175	0.7474
0.304	-0.0665	0.6302	0.1963	0.1362	0.4719	0.8424	0.4212	0.2914	1.0039	0.3515	-0.0348	1.0768	0.4877	-0.8456	-1.4188	-0.9279	0.8677	0.3832	0.6366	0.7569
0.2154	-0.2217	0.4719	0.076	0.0158	0.399	0.7379	0.3547	0.228	0.9501	0.3769	-0.0222	1.0831	0.5004	-0.8994	-1.4631	-0.9881	0.8614	0.38	0.6461	0.8012
0.076	-0.3895	0.3072	-0.0982	-0.1203	0.2249	0.6017	0.3009	0.1425	0.8962	0.3642	-0.0443	1.0989	0.5162	-0.9279	-1.4853	-0.9912	0.8677	0.3484	0.6144	0.7759
-0.0222	-0.5194	0.1583	-0.2502	-0.2185	0.1108	0.4719	0.2344	0.076	0.8582	0.3769	-0.0222	1.0799	0.5352	-1.0007	-1.479	-1.0261	0.8677	0.3357	0.6175	0.8044
-0.133	-0.6619	0.0222	-0.3927	-0.3104	0.0095	0.3389	0.19	-0.0032	0.7917	0.3515	-0.0253	1.0768	0.5415	-1.0292	-1.4536	-1.0482	0.8582	0.3262	0.5827	0.8234
-0.3009	-0.8012	-0.1805	-0.6144	-0.437	-0.1583	0.2058	0.1108	-0.076	0.7157	0.3674	-0.0285	1.0736	0.5225	-1.0673	-1.4283	-1.0261	0.8076	0.2534	0.5384	0.8171
-0.3959	-0.8962	-0.3104	-0.7474	-0.5004	-0.2439	0.095	0.0982	-0.0887	0.6967	0.4117	0.0063	1.0831	0.5194	-1.0514	-1.3776	-1.0134	0.7886	0.2407	0.5289	0.8234
-0.4782	-0.9944	-0.4117	-0.8677	-0.5352	-0.3104	-0.0127	0.0855	-0.1362	0.6587	0.4434	0.0633	1.1211	0.5067	-1.0324	-1.2984	-0.9849	0.7822	0.2312	0.4845	0.8297
-0.5384	-1.0356	-0.5099	-1.0166	-0.5859	-0.399	-0.0887	0.0823	-0.1488	0.6429	0.5067	0.1045	1.1306	0.4909	-0.9342	-1.2161	-0.9469	0.7506	0.209	0.4687	0.8487
-0.608	-1.0609	-0.6207	-1.1338	-0.5764	-0.4624	-0.19	0.095	-0.1678	0.6461	0.5415	0.1742	1.1464	0.4655	-0.8646	-1.1433	-0.8931	0.6872	0.1678	0.4339	0.8392
-0.6239	-1.0261	-0.6429	-1.1908	-0.5542	-0.4465	-0.228	0.1235	-0.1362	0.6651	0.5985	0.2439	1.1623	0.4402	-0.7664	-1.0609	-0.8519	0.6682	0.1773	0.4117	0.8709
-0.6841	-1.0134	-0.6967	-1.2414	-0.5194	-0.4877	-0.2502	0.1583	-0.1267	0.6587	0.6524	0.3389	1.1939	0.3959	-0.6872	-1.0166	-0.7601	0.6302	0.152	0.3705	0.8709
-0.6809	-0.9722	-0.6936	-1.3396	-0.4655	-0.4814	-0.2787	0.2058	-0.076	0.6809	0.7157	0.4307	1.2224	0.3515	-0.6049	-0.9817	-0.6841	0.5605	0.19	0.3262	0.8962
-0.6619	-0.8899	-0.6967	-1.3364	-0.3895	-0.4022	-0.2597	0.2597	0.0063	0.7252	0.8076	0.5289	1.2573	0.3167	-0.4624	-0.8741	-0.6112	0.5542	0.2058	0.3167	0.9311
-0.6239	-0.8107	-0.6524	-1.3491	-0.3009	-0.3642	-0.2154	0.3547	0.0792	0.7727	0.9311	0.6714	1.2921	0.2629	-0.3642	-0.7917	-0.5384	0.5067	0.2344	0.2565	0.9722
-0.5732	-0.7062	-0.5954	-1.3206	-0.1837	-0.285	-0.171	0.456	0.1932	0.8582	1.0197	0.8202	1.3428	0.2439	-0.2502	-0.6492	-0.4655	0.4814	0.2565	0.2407	0.9976
-0.475	-0.5542	-0.5099	-1.2731	-0.076	-0.1742	-0.1172	0.5479	0.3167	0.9247	1.1243	0.9469	1.4378	0.209	-0.095	-0.4845	-0.3832	0.4402	0.2755	0.2249	1.0482
-0.4117	-0.4054	-0.4244	-1.2351	0.0538	-0.0918	-0.0538	0.6682	0.4434	0.9944	1.2668	1.1084	1.4631	0.152	0.0253	-0.3135	-0.2945	0.4117	0.3547	0.1868	1.0958
-0.2882	-0.247	-0.2819	-1.1369	0.1805	0.0633	0.0538	0.7442	0.5764	1.0641	1.3554	1.2573	1.536	0.1108	0.2185	-0.0823	-0.2027	0.4054	0.3927	0.1773	1.1338
-0.133	-0.0633	-0.1393	-1.0229	0.361	0.2154	0.1678	0.9311	0.7411	1.1781	1.498	1.4378	1.6215	0.0633	0.3927	0.171	-0.1267	0.3832	0.4782	0.1932	1.2034
0.0475	0.1267	0.0095	-0.8962	0.5447	0.38	0.3009	1.0609	0.9152	1.2604	1.65	1.6183	1.6943	0.0317	0.6017	0.4339	-0.057	0.361	0.5574	0.209	1.2731
0.247	0.342	0.1963	-0.7379	0.7347	0.57	0.4307	1.2129	1.1148	1.3491	1.7925	1.802	1.7513	-0.0032	0.8361	0.7157	0.0222	0.3705	0.6429	0.2122	1.3428
0.3959	0.5447	0.3864	-0.6144	0.8836	0.7189	0.551	1.3333	1.2858	1.4188	1.9002	1.954	1.7766	-0.0507	1.0261	0.9342	0.1235	0.3325	0.6999	0.2122	1.3713
0.5954	0.7316	0.5415	-0.4719	1.0387	0.8931	0.6777	1.4536	1.4409	1.5043	2.0237	2.1092	1.8178	-0.1108	1.1749	1.1464	0.2185	0.2819	0.7949	0.2407	1.4029
0.7347	0.8741	0.6967	-0.3674	1.1686	1.0102	0.7822	1.5676	1.6088	1.5518	2.125	2.2485	1.8653	-0.1552	1.2921	1.3111	0.323	0.2565	0.8582	0.2597	1.4251
0.9026	1.0641	0.8614	-0.2058	1.3143	1.1971	0.8804	1.6848	1.7481	1.5898	2.2073	2.4005	1.8811	-0.19	1.3871	1.4504	0.3927	0.247	0.8994	0.2819	1.4378
1.0704	1.2066	1.0324	-0.1077	1.4631	1.3428	0.9849	1.7798	1.8938	1.6373	2.2897	2.5272	1.8875	-0.2217	1.4536	1.5423	0.4687	0.2027	0.9912	0.323	1.4663
1.1781	1.3364	1.1369	-0.0095	1.5771	1.4568	1.0482	1.8621	2.0173	1.6658	2.3974	2.6412	1.8685	-0.2724	1.4536	1.5803	0.5415	0.1393	0.9754	0.3104	1.4568
1.2858	1.4568	1.2668	0.0633	1.688	1.5993	1.1053	1.9413	2.1313	1.6595	2.448	2.7299	1.8526	-0.2914	1.4093	1.5676	0.5795	0.133	1.0261	0.3199	1.4821
1.4093	1.5233	1.3459	0.1615	1.7323	1.6848	1.1654	1.973	2.2232	1.669	2.5177	2.8217	1.84	-0.3104	1.3681	1.5138	0.627	0.0728	1.0229	0.3357	1.4631
1.4758	1.5961	1.4536	0.2692	1.802	1.7671	1.2288	2.011	2.3119	1.6785	2.543	2.8946	1.7925	-0.3325	1.2668	1.4156	0.6556	0.0253	0.9817	0.342	1.4346
1.555	1.6088	1.5233	0.2914	1.8146	1.8526	1.2636	2.0268	2.3815	1.669	2.5272	2.9452	1.7671	-0.3262	1.2003	1.2794	0.6651	-0.0285	0.9722	0.361	1.3871
1.5803	1.6025	1.555	0.3642	1.8241	1.916	1.2668	1.9952	2.4195	1.6405	2.5494	2.9769	1.707	-0.3357	1.0736	1.1179	0.6936	-0.0633	0.8931	0.3357	1.3143
1.6088	1.6278	1.6151	0.3895	1.8305	1.9825	1.2699	1.9698	2.4702	1.6056	2.5367	2.9991	1.6341	-0.3325	1.0166	0.9627	0.6714	-0.1267	0.8456	0.342	1.2541
1.6246	1.5708	1.6595	0.4244	1.802	2.0237	1.2858	1.9382	2.4987	1.5898	2.4924	3.0117	1.5835	-0.3072	0.9279	0.7854	0.6429	-0.1552	0.7727	0.3389	1.2003
1.6405	1.5581	1.707	0.4497	1.7798	2.0965	1.3174	1.916	2.5525	1.5771	2.4829	3.0466	1.5423	-0.2945	0.8456	0.627	0.6112	-0.1742	0.7221	0.3325	1.1306
1.6373	1.5138	1.7165	0.4845	1.7418	2.0965	1.3206	1.8495	2.5684	1.5328	2.4037	3.0402	1.4663	-0.2692	0.7917	0.5194	0.5637	-0.2185	0.6366	0.342	1.0356
1.612	1.4663	1.7481	0.5035	1.6911	2.1535	1.3206	1.7988	2.5779	1.5233	2.3625	3.0339	1.4409	-0.2439	0.7727	0.4212	0.5004	-0.2375	0.5669	0.3357	0.9659
1.5993	1.4188	1.7513	0.4877	1.6278	2.1693	1.3269	1.7228	2.5905	1.5011	2.2643	3.0022	1.3713	-0.2122	0.7284	0.3104	0.437	-0.247	0.5257	0.3452	0.8804
1.5771	1.3586	1.7545	0.4972	1.5803	2.1947	1.3206	1.6436	2.6	1.4853	2.1852	2.9801	1.3206	-0.1615	0.7126	0.3009	0.3452	-0.2819	0.475	0.3452	0.7917
1.536	1.3079	1.745	0.4814	1.498	2.1947	1.3016	1.5581	2.5715	1.4409	2.0838	2.9072	1.2446	-0.1235	0.6967	0.285	0.2565	-0.304	0.4022	0.323	0.6714
1.4695	1.2256	1.707	0.456	1.3744	2.1788	1.2953	1.4156	2.5082	1.3744	1.9413	2.8281	1.1528	-0.0855	0.6809	0.285	0.171	-0.3135	0.3199	0.3104	0.5954
1.4093	1.1496	1.6816	0.4307	1.3079	2.144	1.2604	1.2984	2.4544	1.3269	1.84	2.7679	1.1021	-0.0475	0.6841	0.2945	0.095	-0.3547	0.2882	0.2977	0.4814
1.3079	1.0736	1.6183	0.3389	1.1781	2.0743	1.1813	1.1559	2.3499	1.2604	1.7006	2.6412	0.9912	-0.0127	0.6302	0.304	0.019	-0.3705	0.2058	0.2407	0.3389
1.2351	0.9722	1.5423	0.3104	1.0768	2.011	1.1464	1.0419	2.277	1.1908	1.5328	2.5082	0.9152	0.0285	0.5985	0.3135	-0.0507	-0.4054	0.1235	0.2502	0.2249
1.1433	0.8614	1.4948	0.2597	0.9564	1.9572	1.0958	0.9311	2.1947	1.1464	1.3554	2.3847	0.8044	0.0697	0.5352	0.2977	-0.1235	-0.4149	0.0158	0.2058	0.1172
1.0673	0.7791	1.4061	0.2058	0.7854	1.8558	1.0261	0.7537	2.049	1.0419	1.1939	2.2453	0.6904	0.0982	0.4592	0.2629	-0.171	-0.4877	-0.0697	0.1868	-0.038
0.9564	0.6366	1.2889	0.1267	0.6524	1.7323	0.9406	0.5985	1.9033	0.9342	0.9976	2.0933	0.5605	0.1172	0.3705	0.2058	-0.2027	-0.5289	-0.1805	0.1425	-0.1805
0.8519	0.5194	1.1844	0.057	0.5352	1.6436	0.8392	0.4402	1.7798	0.8392	0.8456	1.9445	0.4655	0.133	0.3325	0.1203	-0.2439	-0.5669	-0.3104	0.1108	-0.3199
0.7347	0.3895	1.0578	-0.0158	0.3737	1.5138	0.7759	0.3009	1.6563	0.7442	0.6746	1.7513	0.3452	0.1583	0.2312	0.057	-0.2724	-0.57	-0.4339	0.0665	-0.437
0.6017	0.2629	0.9247	-0.0887	0.2312	1.3903	0.6809	0.1552	1.4853	0.6366	0.4782	1.6056	0.2185	0.1552	0.171	-0.0285	-0.285	-0.6175	-0.5194	0.038	-0.5605
0.5067	0.1457	0.8171	-0.1393	0.0982	1.2763	0.6302	0.0285	1.3333	0.5542	0.323	1.4504	0.1172	0.1615	0.1393	-0.0918	-0.2882	-0.6492	-0.6556	-0.0032	-0.6809
0.3579	0.0095	0.6746	-0.2312	-0.0348	1.1306	0.4909	-0.1045	1.1623	0.418	0.1552	1.2636	-0.0158	0.1425	0.1235	-0.1963	-0.2724	-0.7094	-0.8076	-0.0918	-0.8266
0.2819	-0.076	0.5827	-0.2534	-0.1425	1.0071	0.4655	-0.1868	1.0609	0.323	0.0253	1.1274	-0.1267	0.1615	0.1362	-0.2154	-0.2914	-0.7347	-0.9026	-0.1457	-0.9152
0.1868	-0.1678	0.4655	-0.3167	-0.228	0.8899	0.3674	-0.2819	0.9089	0.228	-0.1235	0.9659	-0.2344	0.1647	0.1868	-0.2122	-0.2945	-0.7727	-1.0356	-0.209	-1.0387
0.114	-0.2407	0.3515	-0.342	-0.342	0.7886	0.3104	-0.3642	0.7791	0.1298	-0.2502	0.8139	-0.3294	0.1552	0.2534	-0.171	-0.2914	-0.7981	-1.1338	-0.2502	-1.1496
0.057	-0.3135	0.2692	-0.3737	-0.4149	0.6651	0.2344	-0.4402	0.6397	0.0665	-0.3484	0.6461	-0.3927	0.171	0.342	-0.057	-0.2945	-0.8076	-1.2414	-0.3389	-1.2351
0.0127	-0.3515	0.1932	-0.3864	-0.4877	0.57	0.1932	-0.4814	0.513	-0.019	-0.4275	0.5352	-0.5035	0.1773	0.437	0.0443	-0.323	-0.8361	-1.3048	-0.342	-1.2984
-0.0443	-0.4117	0.1298	-0.399	-0.5384	0.4814	0.1583	-0.4909	0.4085	-0.0887	-0.5067	0.4117	-0.5764	0.1932	0.5447	0.2154	-0.3547	-0.8329	-1.3871	-0.4022	-1.3744
-0.0602	-0.4434	0.038	-0.4212	-0.5827	0.3895	0.095	-0.5352	0.3167	-0.1837	-0.6017	0.2534	-0.6524	0.2027	0.6556	0.3832	-0.3705	-0.8551	-1.4378	-0.4244	-1.4758
-0.0475	-0.4655	0.019	-0.4085	-0.5827	0.2914	0.0665	-0.5384	0.2312	-0.2154	-0.6334	0.1647	-0.7062	0.2249	0.7917	0.5637	-0.4054	-0.8582	-1.4758	-0.4307	-1.4885
-0.0697	-0.4592	-0.0348	-0.4085	-0.6175	0.2565	0.0633	-0.5162	0.1583	-0.2565	-0.6809	0.0665	-0.7569	0.2407	0.9089	0.7537	-0.4402	-0.8519	-1.517	-0.4655	-1.5771
-0.0697	-0.4877	-0.0697	-0.4275	-0.6397	0.1678	0.019	-0.5257	0.0728	-0.342	-0.7252	-0.038	-0.8076	0.2344	1.0419	0.9311	-0.456	-0.8646	-1.5771	-0.5352	-1.6341
-0.0602	-0.4845	-0.1013	-0.4434	-0.6366	0.1108	-0.0032	-0.5035	-0.0127	-0.38	-0.7664	-0.1552	-0.8582	0.2565	1.1528	1.0926	-0.4845	-0.8487	-1.5866	-0.5225	-1.669
-0.0507	-0.4845	-0.1457	-0.4244	-0.608	0.0538	-0.0602	-0.5035	-0.076	-0.437	-0.7981	-0.2439	-0.9057	0.2882	1.2763	1.2573	-0.5384	-0.8234	-1.612	-0.5352	-1.7006
-0.076	-0.5099	-0.1678	-0.4814	-0.6207	-0.0475	-0.1045	-0.494	-0.1678	-0.513	-0.8392	-0.3579	-0.9374	0.2977	1.3839	1.3206	-0.5732	-0.8044	-1.6563	-0.5542	-1.7671
-0.0538	-0.4972	-0.2154	-0.4687	-0.6112	-0.1235	-0.1425	-0.475	-0.2534	-0.5605	-0.8646	-0.4687	-0.9944	0.3389	1.4599	1.3903	-0.6461	-0.7917	-1.669	-0.5542	-1.8051
-0.0823	-0.5099	-0.2407	-0.4877	-0.6017	-0.2027	-0.1932	-0.4814	-0.3579	-0.627	-0.9469	-0.5859	-1.0419	0.38	1.5233	1.4156	-0.7284	-0.7569	-1.6911	-0.5732	-1.8368
-0.1203	-0.5447	-0.2914	-0.532	-0.6207	-0.2882	-0.2692	-0.5162	-0.4624	-0.7189	-1.0166	-0.7189	-1.1148	0.4054	1.5708	1.3681	-0.8044	-0.7506	-1.6848	-0.5922	-1.9033
-0.1362	-0.5542	-0.3515	-0.57	-0.6239	-0.38	-0.3547	-0.5415	-0.5669	-0.8107	-1.0958	-0.8519	-1.1908	0.456	1.5518	1.2604	-0.8772	-0.7126	-1.6911	-0.608	-1.9445
-0.2312	-0.6239	-0.4307	-0.6714	-0.7157	-0.5099	-0.4719	-0.6207	-0.7411	-0.9722	-1.2066	-1.0071	-1.3048	0.4655	1.5043	1.1116	-0.9247	-0.7189	-1.7291	-0.6556	-2.0458
-0.3294	-0.7126	-0.5479	-0.7727	-0.7791	-0.6936	-0.5985	-0.6999	-0.9121	-1.1211	-1.3554	-1.2129	-1.4251	0.4909	1.4346	0.9532	-0.9659	-0.7442	-1.7545	-0.6999	-2.1408
-0.4275	-0.7252	-0.6397	-0.8804	-0.8582	-0.8171	-0.7411	-0.8171	-1.0641	-1.2604	-1.4916	-1.4029	-1.5201	0.5194	1.3681	0.7981	-1.0134	-0.7379	-1.821	-0.7664	-2.2548
-0.5415	-0.8392	-0.7506	-1.0387	-0.9406	-0.9754	-0.9026	-0.9501	-1.2604	-1.4409	-1.6531	-1.5993	-1.6595	0.5447	1.2668	0.5954	-1.0609	-0.7474	-1.8495	-0.8297	-2.3879
-0.6714	-0.9406	-0.8836	-1.1528	-1.0831	-1.1749	-1.0863	-1.0926	-1.5043	-1.6278	-1.8526	-1.8178	-1.764	0.5542	1.0799	0.3927	-1.0989	-0.7854	-1.9287	-0.8804	-2.5209
-0.8044	-1.0324	-1.0451	-1.2984	-1.2129	-1.3618	-1.2573	-1.2763	-1.6753	-1.821	-2.0205	-2.0237	-1.9033	0.5859	0.9121	0.1837	-1.1464	-0.7981	-2.0237	-0.9342	-2.6855
-0.9786	-1.1623	-1.1844	-1.4409	-1.3586	-1.5581	-1.4314	-1.4885	-1.9192	-2.0142	-2.2517	-2.2612	-2.0205	0.5985	0.6714	-0.0412	-1.1844	-0.7917	-2.1313	-0.9912	-2.8439
-1.1243	-1.2794	-1.2984	-1.5613	-1.5043	-1.7481	-1.6215	-1.6341	-2.1377	-2.1788	-2.448	-2.4354	-2.1408	0.6366	0.4085	-0.2629	-1.2414	-0.7664	-2.2327	-0.9881	-2.9959
-1.2636	-1.3998	-1.4916	-1.745	-1.6816	-1.9477	-1.8115	-1.821	-2.3435	-2.334	-2.6222	-2.6349	-2.22	0.6524	0.1267	-0.5035	-1.2858	-0.7252	-2.3277	-1.0102	-3.1669
-1.4029	-1.5106	-1.6531	-1.8463	-1.8083	-2.1313	-1.9382	-1.9983	-2.5335	-2.4797	-2.8122	-2.8154	-2.3055	0.6746	-0.1457	-0.7252	-1.3459	-0.7062	-2.4449	-1.0356	-3.3284
-1.5676	-1.631	-1.8336	-2.011	-1.9445	-2.315	-2.0902	-2.1788	-2.7362	-2.619	-2.9706	-2.9674	-2.3467	0.7126	-0.4592	-0.9437	-1.3998	-0.6682	-2.5525	-1.0419	-3.4456
-1.745	-1.7576	-1.9793	-2.1313	-2.0933	-2.4955	-2.2358	-2.3404	-2.9009	-2.6887	-3.1131	-3.1131	-2.3404	0.7347	-0.7537	-1.2193	-1.4441	-0.6175	-2.6824	-1.0419	-3.5755
-1.8843	-1.8811	-2.1567	-2.277	-2.239	-2.6824	-2.3594	-2.5019	-3.0624	-2.7837	-3.2334	-3.2271	-2.3372	0.7537	-1.0482	-1.4441	-1.4885	-0.5162	-2.7679	-0.9944	-3.6578
-2.0458	-2.03	-2.3467	-2.429	-2.3942	-2.8692	-2.4829	-2.6729	-3.2303	-2.8566	-3.3633	-3.3379	-2.3277	0.7727	-1.3301	-1.6943	-1.5265	-0.4117	-2.9104	-1.0071	-3.7433
-2.2232	-2.182	-2.5462	-2.5715	-2.5399	-3.0339	-2.5969	-2.7806	-3.3569	-2.8692	-3.4139	-3.3886	-2.2517	0.7917	-1.6341	-1.9413	-1.5486	-0.3325	-2.9927	-0.9881	-3.7845
-2.3974	-2.3309	-2.7426	-2.7521	-2.6824	-3.2081	-2.7045	-2.9041	-3.4709	-2.9009	-3.4519	-3.4298	-2.1915	0.8076	-1.9413	-2.163	-1.5708	-0.2122	-3.1289	-0.9627	-3.8351
-2.5652	-2.5019	-2.9326	-2.9104	-2.8059	-3.3759	-2.8249	-2.9959	-3.5438	-2.8756	-3.4646	-3.4424	-2.0585	0.8076	-2.2327	-2.3689	-1.5835	-0.0728	-3.2271	-0.9216	-3.8098
-2.7932	-2.6697	-3.1701	-3.1574	-2.9136	-3.5311	-2.9199	-3.0561	-3.642	-2.8724	-3.4741	-3.4488	-1.9635	0.8044	-2.5335	-2.5557	-1.5771	0.0855	-3.3411	-0.8741	-3.8035
-3.0497	-2.8661	-3.4519	-3.4013	-3.0656	-3.699	-3.0371	-3.1384	-3.7211	-2.8439	-3.4773	-3.4171	-1.8305	0.7886	-2.8249	-2.7267	-1.5581	0.2375	-3.4234	-0.8614	-3.7908
-3.2683	-3.0339	-3.642	-3.6515	-3.1511	-3.8225	-3.1067	-3.1352	-3.7306	-2.7584	-3.3664	-3.3538	-1.631	0.8012	-3.0624	-2.7996	-1.5581	0.3737	-3.4931	-0.7981	-3.7053
-3.5058	-3.2524	-3.889	-3.8921	-3.2683	-3.9618	-3.2176	-3.1479	-3.7623	-2.6982	-3.2778	-3.2524	-1.4441	0.7949	-3.2778	-2.9009	-1.5613	0.532	-3.5533	-0.7506	-3.6198
-3.7813	-3.4488	-4.1012	-4.1708	-3.3633	-4.0885	-3.3126	-3.1638	-3.756	-2.6602	-3.1859	-3.1669	-1.2541	0.7917	-3.4868	-2.9516	-1.5455	0.6777	-3.6198	-0.7157	-3.5311
-4.041	-3.6451	-4.3862	-4.459	-3.4678	-4.2152	-3.4139	-3.1226	-3.7496	-2.6064	-3.0656	-3.0339	-1.0831	0.7949	-3.6325	-2.9421	-1.5455	0.8519	-3.6388	-0.6809	-3.3949
-4.3482	-3.8636	-4.6237	-4.7472	-3.5755	-4.3228	-3.5216	-3.1226	-3.7275	-2.5209	-2.9357	-2.9104	-0.8709	0.7854	-3.7528	-2.9041	-1.5201	0.9849	-3.661	-0.6461	-3.2904
-4.6142	-4.0568	-4.8612	-5.0322	-3.6768	-4.44	-3.6546	-3.0782	-3.7148	-2.4385	-2.8059	-2.7964	-0.6999	0.7569	-3.851	-2.8597	-1.4758	1.1116	-3.661	-0.6429	-3.1606
-4.9056	-4.2627	-5.1114	-5.3204	-3.7496	-4.5509	-3.7243	-3.0624	-3.7053	-2.3879	-2.6855	-2.7045	-0.5415	0.7379	-3.9301	-2.8027	-1.4409	1.2034	-3.68	-0.6397	-2.9959
-5.1842	-4.4622	-5.3426	-5.6276	-3.8225	-4.6395	-3.8573	-3.0307	-3.7148	-2.3372	-2.5177	-2.562	-0.3832	0.7094	-3.9713	-2.7299	-1.3966	1.3206	-3.6325	-0.6524	-2.8597
-5.4186	-4.6427	-5.5484	-5.8651	-3.9301	-4.7409	-3.984	-2.9991	-3.6958	-2.3119	-2.4195	-2.4734	-0.247	0.6999	-3.965	-2.6602	-1.3396	1.4156	-3.6135	-0.6461	-2.7267
-5.6308	-4.8074	-5.7606	-6.109	-4.0252	-4.8454	-4.0822	-2.9832	-3.7116	-2.3087	-2.2992	-2.4259	-0.1552	0.6461	-3.9713	-2.5715	-1.2636	1.4409	-3.6008	-0.6809	-2.619
-5.843	-4.9467	-5.919	-6.3433	-4.0632	-4.9499	-4.1898	-2.9611	-3.6895	-2.2738	-2.182	-2.296	-0.038	0.608	-3.9206	-2.5082	-1.1876	1.4536	-3.5311	-0.6904	-2.4512
-6.014	-5.0956	-6.1153	-6.5714	-4.136	-5.0766	-4.2975	-2.9706	-3.7211	-2.2833	-2.0807	-2.2263	0.0127	0.5827	-3.8573	-2.5114	-1.1084	1.5011	-3.4773	-0.7284	-2.3182
-6.1787	-5.2191	-6.261	-6.7265	-4.212	-5.1621	-4.4242	-2.9611	-3.7591	-2.3055	-1.9603	-2.1725	0.076	0.5289	-3.7876	-2.5399	-1.0356	1.4758	-3.4203	-0.7632	-2.1693
-6.261	-5.3078	-6.394	-6.888	-4.2943	-5.2729	-4.5572	-2.9927	-3.832	-2.372	-1.9128	-2.1313	0.076	0.4909	-3.6863	-2.5937	-0.9627	1.4441	-3.3791	-0.8076	-2.0807
-6.356	-5.3996	-6.4922	-7.0179	-4.3767	-5.3711	-4.6649	-3.0244	-3.8763	-2.448	-1.8305	-2.0933	0.076	0.4497	-3.5533	-2.6855	-0.8836	1.3934	-3.3094	-0.8487	-1.9413
-6.4003	-5.4819	-6.6062	-7.1414	-4.4717	-5.5104	-4.8074	-3.0751	-3.9998	-2.5462	-1.7893	-2.0933	0.038	0.4117	-3.4931	-2.8566	-0.7917	1.2921	-3.2588	-0.9311	-1.8653
-6.4193	-5.5136	-6.6347	-7.1921	-4.5572	-5.6244	-4.8897	-3.1352	-4.0758	-2.6444	-1.7798	-2.1123	0.0032	0.3864	-3.3791	-3.0212	-0.7474	1.2414	-3.2049	-0.9722	-1.7323
-6.4383	-5.5991	-6.7075	-7.2427	-4.6902	-5.7765	-5.0291	-3.2049	-4.2437	-2.7711	-1.7766	-2.1567	-0.0918	0.342	-3.3506	-3.1764	-0.6841	1.1338	-3.1954	-1.0863	-1.6753
-6.3908	-5.6529	-6.7645	-7.2586	-4.7947	-5.9411	-5.1431	-3.3094	-4.3482	-2.9262	-1.8305	-2.1852	-0.171	0.3199	-3.3126	-3.4456	-0.6175	1.0356	-3.1701	-1.1369	-1.6025
-6.3465	-5.6625	-6.7804	-7.2332	-4.9214	-6.071	-5.2508	-3.4456	-4.516	-3.0434	-1.8241	-2.2485	-0.2534	0.3135	-3.3253	-3.6958	-0.5985	0.9279	-3.1543	-1.1813	-1.536
-6.3338	-5.7321	-6.8215	-7.2047	-5.0512	-6.2325	-5.3584	-3.5913	-4.7124	-3.2398	-1.8938	-2.3435	-0.399	0.3009	-3.3728	-3.9491	-0.5795	0.8266	-3.2113	-1.3079	-1.4821
-6.2325	-5.7606	-6.7962	-7.1382	-5.1874	-6.3528	-5.4313	-3.737	-4.8707	-3.4044	-1.9508	-2.41	-0.4877	0.3135	-3.4393	-4.1867	-0.6049	0.7316	-3.2239	-1.3903	-1.4346
-6.1153	-5.7575	-6.793	-7.0559	-5.3078	-6.489	-5.5168	-3.8921	-5.0481	-3.5501	-2.0268	-2.5082	-0.6017	0.3262	-3.5279	-4.4622	-0.6302	0.6366	-3.2588	-1.4726	-1.3998
-6.0203	-5.7733	-6.7645	-6.9451	-5.4598	-6.6284	-5.6149	-4.0632	-5.2159	-3.7465	-2.0965	-2.6285	-0.7094	0.3642	-3.6293	-4.706	-0.6904	0.5605	-3.2778	-1.555	-1.3839
-5.8873	-5.7638	-6.7012	-6.7962	-5.5579	-6.6949	-5.6244	-4.2278	-5.3711	-3.8668	-2.2137	-2.695	-0.8361	0.4085	-3.7085	-4.8929	-0.7759	0.5099	-3.2714	-1.6183	-1.3649
-5.7575	-5.7638	-6.641	-6.6632	-5.672	-6.8089	-5.6371	-4.3703	-5.5294	-4.0283	-2.315	-2.8281	-0.9469	0.4434	-3.775	-5.0512	-0.8741	0.4465	-3.3379	-1.6816	-1.3586
-5.6086	-5.7163	-6.5239	-6.4858	-5.7575	-6.831	-5.6466	-4.5002	-5.672	-4.1455	-2.4164	-2.9167	-1.0451	0.4972	-3.8763	-5.2444	-0.9817	0.38	-3.3189	-1.726	-1.3808
-5.4788	-5.6783	-6.4415	-6.3085	-5.8176	-6.8944	-5.6371	-4.649	-5.8176	-4.2658	-2.5145	-3.0054	-1.1274	0.57	-4.0062	-5.4281	-1.1116	0.3864	-3.3759	-1.7798	-1.4219
-5.3553	-5.6561	-6.3497	-6.1343	-5.9126	-6.9102	-5.5959	-4.8074	-5.9253	-4.3513	-2.6254	-3.1036	-1.1939	0.627	-4.117	-5.6149	-1.2224	0.361	-3.4013	-1.783	-1.5011
-5.2571	-5.6118	-6.2452	-5.9443	-5.9665	-6.9261	-5.5453	-4.9309	-6.0235	-4.4369	-2.7552	-3.1828	-1.2509	0.6746	-4.2912	-5.7955	-1.3364	0.3705	-3.4678	-1.802	-1.5518
-5.1969	-5.6213	-6.1692	-5.8018	-6.0266	-6.9292	-5.4978	-5.0417	-6.09	-4.4717	-2.8661	-3.2904	-1.3111	0.7379	-4.4717	-5.919	-1.4409	0.4085	-3.5248	-1.7988	-1.6563
-5.1082	-5.6118	-6.0583	-5.6498	-6.0741	-6.888	-5.3933	-5.1621	-6.1755	-4.5287	-3.0117	-3.3728	-1.3681	0.7949	-4.6522	-6.0298	-1.5486	0.4529	-3.6166	-1.7988	-1.764
-5.0481	-5.5801	-5.9601	-5.5009	-6.0932	-6.8532	-5.3141	-5.2508	-6.1913	-4.5414	-3.1194	-3.4519	-1.3776	0.8456	-4.8105	-6.052	-1.65	0.513	-3.7116	-1.7671	-1.8621
-5.0227	-5.5738	-5.881	-5.3584	-6.0963	-6.7455	-5.2032	-5.3204	-6.1882	-4.5097	-3.2239	-3.4868	-1.3839	0.9057	-4.9531	-6.0456	-1.7576	0.5764	-3.8415	-1.7291	-2.011
-4.9626	-5.5389	-5.729	-5.2286	-6.0583	-6.6284	-5.0449	-5.3521	-6.1597	-4.4717	-3.3158	-3.5058	-1.3776	0.9691	-5.0861	-5.9981	-1.8653	0.6682	-3.9396	-1.6626	-2.1472
-4.8992	-5.4693	-5.5928	-5.0956	-5.9981	-6.4763	-4.8961	-5.3489	-6.0678	-4.3925	-3.3506	-3.4994	-1.3238	0.9944	-5.1431	-5.8715	-1.9572	0.7727	-3.9998	-1.5771	-2.2453
-4.8612	-5.4059	-5.4218	-4.9752	-5.8905	-6.2958	-4.7187	-5.2793	-5.919	-4.269	-3.3981	-3.4931	-1.2636	1.0419	-5.1874	-5.691	-2.0458	0.8772	-4.1043	-1.5106	-2.3309
-4.7662	-5.2919	-5.2729	-4.8581	-5.7416	-6.052	-4.497	-5.1937	-5.7638	-4.117	-3.3633	-3.3949	-1.1591	1.0894	-5.1716	-5.4408	-2.1503	1.0102	-4.1708	-1.4061	-2.4132
-4.6807	-5.1716	-5.0481	-4.7092	-5.5294	-5.7733	-4.2595	-5.0481	-5.5611	-3.9143	-3.3284	-3.3031	-1.0609	1.1338	-5.1146	-5.1367	-2.2263	1.1116	-4.2278	-1.3111	-2.4417
-4.5889	-4.9911	-4.8169	-4.5604	-5.2793	-5.4914	-3.9935	-4.8581	-5.3014	-3.6958	-3.2239	-3.1352	-0.8709	1.1813	-4.9879	-4.7852	-2.315	1.2763	-4.2373	-1.1464	-2.448
-4.4084	-4.82	-4.5414	-4.3925	-5.0069	-5.1336	-3.7148	-4.6364	-4.9847	-3.4298	-3.1036	-2.9547	-0.6936	1.2288	-4.82	-4.3957	-2.3942	1.4409	-4.2437	-1.0039	-2.4354
-4.2278	-4.5667	-4.2437	-4.1835	-4.6902	-4.763	-3.4171	-4.3798	-4.6617	-3.1416	-2.9389	-2.7457	-0.5194	1.2383	-4.6205	-3.9618	-2.4385	1.5613	-4.2183	-0.8424	-2.4005
-4.041	-4.3038	-3.9333	-3.9808	-4.3387	-4.383	-3.1131	-4.0632	-4.3165	-2.8344	-2.7426	-2.4924	-0.2914	1.2699	-4.3957	-3.5564	-2.4955	1.7355	-4.1898	-0.6904	-2.3119
-3.8003	-4.0347	-3.5913	-3.7465	-3.9903	-3.9903	-2.7932	-3.7433	-3.908	-2.4765	-2.5367	-2.2105	-0.0602	1.2953	-4.1518	-3.1352	-2.5367	1.9065	-4.136	-0.5067	-2.2295
-3.5406	-3.7306	-3.2651	-3.5153	-3.6071	-3.566	-2.4607	-3.4361	-3.5374	-2.163	-2.2928	-1.954	0.1647	1.2953	-3.9111	-2.6982	-2.5304	2.0522	-4.0568	-0.3452	-2.125
-3.2398	-3.4171	-2.8851	-3.2176	-3.1986	-3.1321	-2.1187	-3.0497	-3.1004	-1.7735	-2.0047	-1.5993	0.4624	1.3048	-3.6166	-2.2422	-2.562	2.2168	-3.9048	-0.1203	-1.9698
-2.9579	-3.1004	-2.5335	-2.9927	-2.8154	-2.7552	-1.7956	-2.6982	-2.676	-1.4283	-1.7513	-1.2794	0.6999	1.3079	-3.3664	-1.8336	-2.5399	2.372	-3.8035	0.0443	-1.821
-2.619	-2.7457	-2.1313	-2.6792	-2.4037	-2.296	-1.4251	-2.315	-2.239	-1.0609	-1.4156	-0.9121	0.9912	1.2921	-3.0244	-1.4314	-2.543	2.5462	-3.6325	0.2375	-1.6373
-2.3023	-2.372	-1.7513	-2.372	-1.992	-1.8748	-1.1116	-1.9255	-1.7988	-0.6967	-1.1053	-0.5415	1.2794	1.2826	-2.7299	-1.0356	-2.5209	2.6665	-3.4773	0.4085	-1.4314
-1.9255	-2.0237	-1.3744	-2.0838	-1.5613	-1.4473	-0.7632	-1.5233	-1.3459	-0.3325	-0.7601	-0.1773	1.5803	1.2699	-2.4164	-0.6651	-2.4892	2.8281	-3.2873	0.5764	-1.1939
-1.5518	-1.6595	-0.9881	-1.7735	-1.1749	-1.0482	-0.4307	-1.1306	-0.9247	0.0222	-0.4212	0.2407	1.8843	1.2383	-2.0807	-0.3515	-2.4449	2.9484	-3.0466	0.7696	-0.9596
-1.1749	-1.3079	-0.6175	-1.4568	-0.7506	-0.6619	-0.1203	-0.7379	-0.4814	0.3642	-0.0538	0.6239	2.1725	1.2003	-1.7481	-0.0602	-2.3784	3.0719	-2.8249	0.8994	-0.7031
-0.8076	-0.9374	-0.2407	-1.1116	-0.38	-0.2755	0.2122	-0.3579	-0.0475	0.7316	0.2692	1.0102	2.4385	1.1623	-1.3839	0.2027	-2.2992	3.1923	-2.5842	1.0419	-0.4465
-0.3959	-0.57	0.1425	-0.7917	0	0.1013	0.5289	0.0095	0.3737	1.0641	0.6397	1.4346	2.7362	1.1053	-1.0578	0.437	-2.1725	3.2398	-2.3119	1.1876	-0.1837
-0.0538	-0.2185	0.4497	-0.4972	0.3547	0.4402	0.7632	0.3705	0.7981	1.3713	0.9944	1.8431	2.9991	1.0229	-0.7632	0.6239	-2.0268	3.3031	-2.0553	1.2541	0.0855
0.2977	0.1045	0.7886	-0.171	0.6777	0.7791	1.0482	0.6872	1.1718	1.669	1.3428	2.1915	3.2303	0.9469	-0.4909	0.7791	-1.859	3.3158	-1.8051	1.3554	0.342
0.6461	0.437	1.1211	0.1583	1.0071	1.0894	1.3048	1.0324	1.5455	1.9603	1.6816	2.581	3.4614	0.8582	-0.209	0.9152	-1.6943	3.3284	-1.5265	1.4188	0.6049
1.0197	0.7664	1.4219	0.4624	1.2984	1.3998	1.5835	1.3301	1.9097	2.2295	1.9983	2.9452	3.6863	0.7506	0.0127	1.0007	-1.498	3.3094	-1.2478	1.4726	0.8614
1.3459	1.0704	1.726	0.7569	1.574	1.7196	1.8115	1.6246	2.258	2.4955	2.3182	3.2809	3.8921	0.6619	0.2217	1.0229	-1.3143	3.2873	-0.9691	1.5265	1.1084
1.6753	1.3966	2.0395	1.0958	1.8526	2.011	2.0807	1.9065	2.638	2.7584	2.6032	3.6451	4.0853	0.5732	0.4307	1.0482	-1.1306	3.2398	-0.7062	1.5581	1.3491
1.9762	1.6943	2.3182	1.4124	2.1598	2.3277	2.3404	2.1915	2.9769	3.0307	2.9167	3.9681	4.2785	0.4782	0.608	1.0609	-0.9311	3.1954	-0.4244	1.6088	1.5613
2.2833	2.0015	2.6285	1.7101	2.41	2.6032	2.5779	2.467	3.3443	3.2936	3.2018	4.3038	4.4622	0.3705	0.8139	1.0419	-0.7252	3.1416	-0.152	1.6246	1.7956
2.5589	2.3214	2.9104	2.011	2.657	2.9041	2.8344	2.7331	3.6895	3.5533	3.4741	4.6332	4.6427	0.2629	0.9722	1.0197	-0.5225	3.0656	0.1172	1.7038	1.9888
2.8787	2.6127	3.2081	2.3309	2.9199	3.1891	3.0909	2.9832	4.0125	3.8098	3.7211	4.9372	4.7979	0.1552	1.1591	0.9817	-0.3009	2.9896	0.3642	1.745	2.1915
3.1606	2.9199	3.4899	2.6285	3.1796	3.5058	3.3569	3.2461	4.3545	4.0632	3.9713	5.2413	4.9531	0.0538	1.3111	0.9532	-0.0855	2.9199	0.5985	1.7861	2.3245
3.4266	3.1954	3.7813	2.9421	3.4298	3.7971	3.6071	3.4773	4.7155	4.3165	4.1993	5.5231	5.1241	-0.0665	1.4695	0.9596	0.1425	2.8312	0.8361	1.8368	2.4829
3.6736	3.4836	4.0727	3.1859	3.6768	4.1107	3.8763	3.718	5.0196	4.573	4.44	5.7955	5.2888	-0.1773	1.65	0.9532	0.3642	2.7521	1.0546	1.8875	2.6475
3.9396	3.7781	4.3513	3.4836	3.9301	4.4274	4.155	3.946	5.3521	4.8169	4.6395	6.0551	5.4344	-0.2724	1.8051	0.9342	0.5637	2.6982	1.2731	1.9572	2.7616
4.1392	4.0505	4.6364	3.7275	4.174	4.725	4.4337	4.1867	5.6593	5.0639	4.8581	6.3148	5.5928	-0.3864	1.9477	0.9184	0.7854	2.6412	1.4568	2.011	2.8851
4.3672	4.2912	4.8992	3.9872	4.3862	4.9942	4.6617	4.3703	5.9411	5.2888	5.0069	6.5175	5.729	-0.4814	2.0807	0.9152	0.9722	2.5747	1.6278	2.0522	2.9547
4.5667	4.5255	5.1114	4.1962	4.5889	5.2888	4.9277	4.5477	6.2167	5.5041	5.1684	6.7297	5.8398	-0.5764	2.1883	0.9057	1.1591	2.5019	1.802	2.0965	3.0371
4.7567	4.744	5.3838	4.402	4.8042	5.5453	5.1336	4.7155	6.4637	5.7068	5.2824	6.8722	5.9443	-0.6619	2.2833	0.8741	1.3143	2.4322	1.9097	2.1377	3.0814
4.9436	4.9246	5.5801	4.5604	5.0101	5.8145	5.3553	4.8644	6.6822	5.881	5.3869	7.0179	6.0361	-0.7157	2.3625	0.8677	1.4346	2.391	2.0648	2.1852	3.1067
5.0354	5.0829	5.786	4.7187	5.1526	5.9918	5.5168	5.0037	6.8564	6.0361	5.4503	7.1287	6.0932	-0.7664	2.3847	0.8266	1.5265	2.3404	2.1883	2.2232	3.1067
5.1747	5.2096	5.9475	4.8264	5.2951	6.204	5.691	5.0892	6.9957	6.1692	5.4788	7.1762	6.166	-0.8012	2.391	0.7822	1.5961	2.3055	2.2643	2.2263	3.0782
5.2127	5.2919	6.071	4.9087	5.4313	6.3528	5.8366	5.1684	7.1224	6.261	5.4629	7.1699	6.1692	-0.8329	2.3372	0.7759	1.6405	2.2675	2.353	2.22	3.0339
5.2666	5.3679	6.1977	4.9436	5.4883	6.4922	5.9126	5.1969	7.1572	6.337	5.4249	7.1636	6.1565	-0.8329	2.296	0.7664	1.6753	2.2168	2.4385	2.2105	2.9326
5.2666	5.3616	6.2642	4.9531	5.5389	6.565	5.9696	5.1811	7.1826	6.3623	5.3584	7.0591	6.1058	-0.8456	2.2643	0.7442	1.6911	2.1472	2.505	2.1757	2.8249
5.2539	5.3838	6.2927	4.9246	5.5484	6.5967	5.976	5.1557	7.1572	6.3402	5.2571	6.9672	6.0203	-0.8551	2.2073	0.7537	1.6911	2.0585	2.5367	2.1282	2.695
5.2286	5.3553	6.2863	4.8834	5.5453	6.6284	5.9601	5.1209	7.0749	6.3085	5.1367	6.8152	5.9696	-0.8392	2.1915	0.7917	1.6563	2.0015	2.5715	2.0997	2.5557
5.1494	5.2983	6.2832	4.7979	5.5199	6.6157	5.9316	5.0354	7.0147	6.242	4.9562	6.6664	5.843	-0.8044	2.1883	0.8709	1.6246	1.9572	2.5114	2.0142	2.3879
5.0481	5.1811	6.1945	4.6839	5.4471	6.5587	5.843	4.9277	6.8247	6.1375	4.7725	6.4415	5.7005	-0.7822	2.182	0.9247	1.5866	1.8653	2.4354	1.9097	2.2232
4.9404	5.0956	6.1438	4.5319	5.3901	6.4605	5.7606	4.8422	6.717	6.0393	4.6015	6.2357	5.5706	-0.7664	2.1662	1.0007	1.5391	1.8178	2.3752	1.8495	2.068
4.8232	4.9594	6.033	4.3703	5.2603	6.3528	5.5928	4.6807	6.5302	5.8778	4.402	6.0045	5.4439	-0.7442	2.1345	1.1053	1.498	1.7671	2.2865	1.7671	1.9192
4.6617	4.8137	5.9221	4.2057	5.1716	6.2198	5.4629	4.554	6.3243	5.7575	4.2215	5.767	5.3204	-0.7189	2.0965	1.1876	1.4536	1.7291	2.1915	1.6816	1.7735
4.5319	4.6902	5.7923	4.041	5.0481	6.0963	5.3394	4.4495	6.1628	5.6181	4.0695	5.5516	5.1937	-0.6872	2.087	1.3396	1.3839	1.7386	2.0902	1.6563	1.6595
4.364	4.5287	5.6149	3.8161	4.8897	5.9126	5.1557	4.2627	5.9063	5.4344	3.8415	5.2888	5.0449	-0.6872	2.0332	1.4536	1.3491	1.6658	1.9888	1.5708	1.5233
4.2278	4.3608	5.4819	3.6451	4.7314	5.7195	4.9531	4.1138	5.6941	5.2476	3.6736	5.0702	4.9151	-0.6492	1.9857	1.5613	1.3174	1.6658	1.8716	1.5075	1.3998
4.0505	4.2057	5.3046	3.4709	4.5857	5.5199	4.7884	4.0157	5.4503	5.0892	3.5469	4.8612	4.801	-0.6302	1.9508	1.6816	1.2604	1.7038	1.7766	1.4916	1.3523
3.8731	4.022	5.1051	3.2588	4.4305	5.3173	4.5604	3.832	5.2096	4.8897	3.3759	4.6269	4.6902	-0.6175	1.8907	1.7608	1.2383	1.6848	1.6721	1.4251	1.2636
3.7021	3.8541	4.9182	3.0814	4.2975	5.1304	4.4115	3.7338	4.9689	4.744	3.2968	4.4337	4.6237	-0.589	1.8463	1.84	1.1718	1.7228	1.5581	1.3998	1.2351
3.5343	3.6895	4.706	2.8977	4.1202	4.9024	4.1867	3.6293	4.7662	4.5825	3.1764	4.25	4.5192	-0.5795	1.8115	1.9097	1.1433	1.7323	1.4568	1.3681	1.2256
3.3601	3.5279	4.4939	2.6697	3.9713	4.6965	4.0125	3.5248	4.5224	4.4147	3.0909	4.079	4.4559	-0.5669	1.7323	1.9603	1.1274	1.7481	1.3744	1.3618	1.1971
3.1986	3.3728	4.2943	2.5209	3.8225	4.4495	3.8193	3.4298	4.326	4.2753	3.0307	3.9365	4.3672	-0.5542	1.707	1.9857	1.0989	1.7481	1.2953	1.3079	1.2288
3.0022	3.1923	4.041	2.2738	3.6578	4.2342	3.623	3.3253	4.1202	4.1138	2.9706	3.7908	4.3038	-0.5352	1.6373	1.9762	1.0863	1.7703	1.2034	1.2826	1.2604
2.8439	3.0371	3.8161	2.106	3.4963	3.9935	3.4013	3.2303	3.8921	3.9396	2.9167	3.6515	4.2088	-0.5542	1.5708	1.935	1.0989	1.7735	1.1401	1.1971	1.3143
2.6475	2.9326	3.5913	1.8811	3.3633	3.7591	3.2049	3.1733	3.7275	3.8098	2.9199	3.5691	4.1487	-0.5574	1.5138	1.9097	1.0989	1.783	1.0926	1.1971	1.3808
2.505	2.7837	3.4013	1.7006	3.2366	3.566	3.0086	3.1099	3.5564	3.699	2.9294	3.4899	4.0917	-0.5384	1.4473	1.8621	1.0768	1.8115	1.0704	1.1781	1.4821
2.3467	2.6475	3.1796	1.5296	3.1289	3.3918	2.8534	3.0782	3.4234	3.5818	2.9706	3.4456	4.0885	-0.5289	1.3871	1.7893	1.0514	1.802	1.0451	1.1496	1.6088
2.2073	2.5494	2.9769	1.3618	3.0086	3.1923	2.6824	3.0687	3.3063	3.4931	2.9991	3.4139	4.0442	-0.5099	1.3143	1.6911	1.0229	1.8368	1.0482	1.1306	1.7228
2.0807	2.4512	2.7774	1.2034	2.9389	3.0307	2.543	3.0719	3.2271	3.3886	3.0814	3.4329	4.0315	-0.4972	1.2446	1.5835	0.9817	1.8685	1.0419	1.0989	1.8875
1.9762	2.3372	2.6095	1.0704	2.8724	2.8692	2.4132	3.1099	3.1479	3.3538	3.1891	3.4583	4.0853	-0.4624	1.1876	1.4188	0.9279	1.916	1.0894	1.0958	2.0268
1.878	2.2612	2.4259	0.8899	2.7742	2.7489	2.2485	3.1036	3.0782	3.2619	3.3031	3.4963	4.0853	-0.4497	1.1053	1.2224	0.8931	1.9255	1.0958	1.0863	2.1757
1.7608	2.1725	2.2675	0.7664	2.7426	2.6254	2.1535	3.1669	3.0434	3.2588	3.4171	3.5533	4.1328	-0.4149	1.0387	1.0197	0.8392	1.992	1.1243	1.0926	2.3245
1.6785	2.0933	2.1123	0.6334	2.6824	2.5367	2.0522	3.2081	3.0149	3.2493	3.5279	3.6261	4.1835	-0.3895	0.9469	0.7791	0.7981	2.0712	1.1813	1.0894	2.467
1.5676	1.9952	1.9635	0.4972	2.638	2.429	1.9445	3.2113	2.9801	3.1954	3.623	3.6768	4.2215	-0.38	0.8994	0.4909	0.7632	2.1123	1.1939	1.0799	2.6
1.4599	1.9572	1.84	0.3705	2.6317	2.3499	1.8653	3.2778	2.9896	3.2049	3.7338	3.7781	4.2722	-0.3769	0.8297	0.228	0.7506	2.1788	1.2509	1.0641	2.7267
1.3713	1.8875	1.7006	0.2502	2.5937	2.2643	1.7608	3.3221	2.9642	3.1701	3.832	3.832	4.3165	-0.3895	0.7664	-0.0412	0.7474	2.2453	1.2763	1.0609	2.8312
1.2763	1.8273	1.5708	0.114	2.5684	2.201	1.6563	3.3443	2.9484	3.1764	3.8985	3.9016	4.3608	-0.3737	0.6841	-0.3294	0.7474	2.3087	1.3048	1.0261	2.9231
1.1623	1.7513	1.4314	-0.019	2.5589	2.0965	1.5645	3.3474	2.9484	3.1416	3.9967	3.9523	4.4179	-0.3832	0.6492	-0.6049	0.7696	2.3657	1.3111	0.9754	2.9959
1.0324	1.7038	1.2921	-0.1932	2.5114	2.0237	1.4726	3.3506	2.8851	3.1036	4.0695	3.984	4.4179	-0.4022	0.5352	-0.8519	0.7981	2.4037	1.3396	0.9152	3.0497
0.9342	1.6753	1.1559	-0.323	2.5114	1.954	1.4124	3.3886	2.8977	3.1226	4.1423	4.06	4.5002	-0.4022	0.4244	-1.0926	0.8107	2.4734	1.3808	0.9057	3.1099
0.8234	1.631	1.0609	-0.4497	2.5019	1.9097	1.3111	3.3791	2.9104	3.0972	4.1962	4.1043	4.5224	-0.4054	0.285	-1.3143	0.8266	2.5209	1.4061	0.8962	3.1257
0.7031	1.6056	0.9089	-0.5922	2.4797	1.8146	1.2161	3.3981	2.8629	3.0877	4.2532	4.1423	4.554	-0.418	0.114	-1.555	0.8424	2.5525	1.4473	0.8487	3.1796
0.6112	1.574	0.7981	-0.7062	2.486	1.7545	1.1528	3.4139	2.8787	3.0624	4.3133	4.1962	4.6079	-0.4054	-0.0412	-1.7101	0.8234	2.638	1.4663	0.8171	3.1828
0.4877	1.5486	0.6872	-0.8519	2.448	1.6626	1.0482	3.3886	2.8281	3.0434	4.3418	4.2152	4.6205	-0.4212	-0.1932	-1.8843	0.8551	2.6792	1.4916	0.7632	3.2049
0.3832	1.5518	0.608	-0.9596	2.4607	1.593	0.9722	3.4203	2.8281	3.0371	4.3988	4.2468	4.6775	-0.4275	-0.3357	-2.0142	0.8424	2.7774	1.5138	0.7347	3.2556
0.2882	1.5328	0.4655	-1.0989	2.4512	1.517	0.8994	3.4076	2.8249	3.0276	4.459	4.3038	4.6807	-0.4244	-0.4782	-2.1155	0.8424	2.8407	1.5391	0.7157	3.2619
0.1868	1.4916	0.3769	-1.2161	2.4354	1.4378	0.7981	3.3854	2.8027	3.0054	4.4685	4.3577	4.7187	-0.4244	-0.5954	-2.1883	0.8487	2.8724	1.5613	0.6714	3.2651
0.133	1.4885	0.2819	-1.3206	2.4322	1.3618	0.7284	3.4076	2.7837	2.9927	4.497	4.3925	4.7662	-0.4022	-0.6746	-2.2263	0.8266	2.9547	1.5803	0.6841	3.3063
0.0317	1.4409	0.19	-1.4219	2.4037	1.2763	0.6587	3.3823	2.7616	2.9516	4.5667	4.4052	4.8137	-0.418	-0.7284	-2.2358	0.8107	3.0212	1.574	0.6461	3.3474
-0.0348	1.4029	0.0792	-1.5075	2.3974	1.2003	0.57	3.3823	2.7331	2.9167	4.5667	4.4369	4.8296	-0.3895	-0.7474	-2.2485	0.7886	3.1194	1.5898	0.6144	3.3506
-0.1172	1.3776	-0.019	-1.612	2.3625	1.1084	0.5004	3.3569	2.7077	2.8882	4.5667	4.4274	4.8644	-0.38	-0.7886	-2.258	0.7537	3.1954	1.5866	0.608	3.3633
-0.1868	1.3111	-0.1457	-1.7323	2.315	0.9944	0.4022	3.3063	2.6634	2.8281	4.5794	4.4464	4.8739	-0.3547	-0.7727	-2.2453	0.7126	3.2429	1.5771	0.6144	3.3791
-0.2882	1.2414	-0.2407	-1.8685	2.2707	0.9152	0.3262	3.2873	2.6095	2.8027	4.5667	4.4527	4.8929	-0.3104	-0.7696	-2.277	0.6366	3.3316	1.612	0.6334	3.4108
-0.4085	1.1591	-0.361	-1.973	2.1947	0.7854	0.209	3.2176	2.5494	2.7457	4.5477	4.4084	4.8644	-0.2819	-0.7411	-2.3023	0.589	3.4139	1.574	0.6049	3.3791
-0.4814	1.0578	-0.4845	-2.0585	2.1218	0.6619	0.1235	3.1384	2.4702	2.6602	4.4939	4.364	4.8486	-0.2565	-0.7316	-2.2992	0.532	3.4519	1.5771	0.6302	3.3854
-0.6017	0.9501	-0.6366	-2.201	1.992	0.5099	-0.0253	3.0434	2.3499	2.5494	4.4052	4.2627	4.8137	-0.2344	-0.7379	-2.3499	0.4845	3.4899	1.555	0.6429	3.3664
-0.7062	0.8012	-0.7759	-2.315	1.8621	0.3705	-0.1203	2.9167	2.2042	2.429	4.326	4.1677	4.7377	-0.209	-0.7094	-2.3372	0.437	3.5216	1.5043	0.608	3.3411
-0.8424	0.6967	-0.9374	-2.4354	1.745	0.228	-0.2249	2.7901	2.0617	2.3372	4.2278	4.0663	4.687	-0.1773	-0.6904	-2.3372	0.38	3.5723	1.4758	0.627	3.3031
-0.9564	0.5605	-1.0736	-2.543	1.6088	0.0507	-0.323	2.6792	1.9223	2.2263	4.1265	3.9238	4.611	-0.1425	-0.7094	-2.3087	0.3167	3.6135	1.4473	0.6461	3.2683
-1.0609	0.4307	-1.2066	-2.6064	1.4568	-0.0918	-0.4149	2.543	1.7703	2.1218	3.9872	3.8066	4.5224	-0.0982	-0.7601	-2.2738	0.2344	3.623	1.3998	0.6777	3.1859
-1.1591	0.3294	-1.3396	-2.6507	1.3111	-0.2502	-0.5035	2.4132	1.612	2.0047	3.8636	3.6451	4.4147	-0.0602	-0.7917	-2.2485	0.1393	3.6198	1.3776	0.6999	3.1289
-1.2668	0.1773	-1.4726	-2.7362	1.1623	-0.4085	-0.589	2.2168	1.4124	1.8653	3.7021	3.4551	4.3387	-0.0095	-0.8551	-2.1693	0.0507	3.6673	1.2826	0.7157	3.0592
-1.3586	0.0633	-1.6151	-2.7711	0.9817	-0.5922	-0.6936	2.0712	1.2161	1.745	3.5438	3.2841	4.2247	0.0443	-0.8836	-2.0902	-0.0538	3.6673	1.1908	0.7347	2.9896
-1.3934	-0.0538	-1.7165	-2.7742	0.8392	-0.7474	-0.7411	1.9065	1.0451	1.6373	3.3854	3.1226	4.117	0.095	-0.9216	-1.973	-0.1773	3.6926	1.1369	0.7506	2.9072
-1.4726	-0.1868	-1.8526	-2.7932	0.6492	-0.9374	-0.8107	1.7038	0.8202	1.4695	3.1986	2.8882	4.0062	0.1647	-0.9247	-1.859	-0.2945	3.6926	1.0451	0.7632	2.7869
-1.5075	-0.2914	-1.935	-2.7964	0.4972	-1.0641	-0.8329	1.5423	0.6175	1.3618	2.9927	2.6887	3.8826	0.228	-0.9247	-1.7165	-0.4275	3.7085	0.9817	0.7854	2.6855
-1.5296	-0.3895	-2.0427	-2.7521	0.3135	-1.2256	-0.8836	1.3206	0.4212	1.1971	2.7806	2.467	3.7401	0.285	-0.9311	-1.574	-0.5574	3.7116	0.8899	0.8012	2.5367
-1.5645	-0.532	-2.1377	-2.7077	0.1298	-1.3934	-0.9342	1.1243	0.1963	1.0831	2.581	2.2453	3.5976	0.3674	-0.9026	-1.4504	-0.7126	3.7053	0.7917	0.8139	2.41
-1.6025	-0.6746	-2.2358	-2.6665	-0.057	-1.5581	-0.9786	0.8931	-0.0538	0.9279	2.3245	1.9698	3.4424	0.4275	-0.9279	-1.3649	-0.8329	3.6926	0.608	0.8266	2.2327
-1.6436	-0.7949	-2.334	-2.6317	-0.266	-1.7323	-1.0197	0.6682	-0.2882	0.7791	2.0902	1.7323	3.2556	0.494	-0.9469	-1.2889	-0.9627	3.6926	0.456	0.8076	2.0553
-1.6563	-0.9469	-2.4385	-2.5969	-0.4909	-1.9002	-1.0831	0.4022	-0.5415	0.6112	1.7988	1.4504	3.0941	0.5479	-1.0039	-1.2319	-1.0704	3.6388	0.2565	0.8044	1.8526
-1.688	-1.1148	-2.5304	-2.5462	-0.7157	-2.087	-1.1496	0.1552	-0.7981	0.4624	1.5265	1.1908	2.9167	0.608	-1.0578	-1.1971	-1.1781	3.6483	0.0602	0.8076	1.6563
-1.7513	-1.2731	-2.6222	-2.5209	-0.9247	-2.2675	-1.2034	-0.0982	-1.0546	0.3072	1.2604	0.9216	2.7457	0.6746	-1.0799	-1.1528	-1.2953	3.642	-0.1552	0.8012	1.4441
-1.8178	-1.4314	-2.7299	-2.5019	-1.1781	-2.4544	-1.2921	-0.3864	-1.3428	0.133	0.9722	0.6461	2.5399	0.7126	-1.1496	-1.1401	-1.3776	3.6008	-0.3959	0.8139	1.2161
-1.8558	-1.612	-2.8819	-2.5335	-1.3776	-2.657	-1.3554	-0.6651	-1.5835	-0.019	0.6872	0.361	2.3815	0.7601	-1.2319	-1.0894	-1.4853	3.5976	-0.6017	0.8329	0.9691
-1.897	-1.7925	-2.9611	-2.5399	-1.612	-2.8217	-1.4378	-0.9121	-1.8273	-0.1773	0.4434	0.076	2.2042	0.8107	-1.2858	-1.0736	-1.5993	3.5755	-0.8614	0.8487	0.7537
-1.9983	-1.9762	-3.0972	-2.5462	-1.8463	-3.0371	-1.5328	-1.1876	-2.0743	-0.3262	0.1615	-0.1742	2.0268	0.8677	-1.3333	-1.0324	-1.6975	3.566	-1.1053	0.8646	0.5225
-2.0553	-2.1598	-3.2081	-2.5652	-2.0902	-3.2271	-1.6151	-1.4568	-2.3119	-0.4845	-0.1235	-0.4275	1.859	0.9152	-1.3903	-0.9691	-1.7925	3.5469	-1.3713	0.8551	0.2819
-2.1408	-2.3435	-3.3506	-2.6317	-2.3055	-3.3791	-1.7196	-1.7101	-2.5272	-0.6397	-0.3832	-0.6809	1.6975	0.9659	-1.4029	-0.9152	-1.8875	3.5343	-1.5835	0.8614	0.0633
-2.2643	-2.5177	-3.4678	-2.7109	-2.5462	-3.585	-1.821	-1.9635	-2.7616	-0.8234	-0.6144	-0.9089	1.5486	1.0102	-1.4251	-0.8234	-1.9667	3.5216	-1.8115	0.8361	-0.1647
-2.3594	-2.676	-3.5945	-2.7806	-2.7489	-3.7401	-1.9287	-2.1947	-2.9452	-0.9406	-0.8424	-1.1243	1.3903	1.0482	-1.4536	-0.7537	-2.0363	3.5026	-2.03	0.8297	-0.3484
-2.4544	-2.8217	-3.7275	-2.8882	-2.9389	-3.9143	-2.0237	-2.3879	-3.1257	-1.0768	-1.0546	-1.3301	1.2509	1.0863	-1.4283	-0.6492	-2.1155	3.4868	-2.2327	0.7981	-0.5415
-2.581	-2.9801	-3.8541	-2.9927	-3.1067	-4.0473	-2.1472	-2.5715	-3.3126	-1.2256	-1.2541	-1.5233	1.1243	1.1179	-1.3903	-0.5985	-2.1693	3.4709	-2.41	0.7252	-0.7062
-2.7362	-3.1352	-3.9903	-3.1226	-3.2936	-4.2152	-2.2738	-2.7837	-3.4773	-1.3713	-1.4378	-1.7133	0.9691	1.1243	-1.3871	-0.5732	-2.201	3.4171	-2.5905	0.6682	-0.8709
-2.8376	-3.2683	-4.1423	-3.2999	-3.4298	-4.3925	-2.4005	-2.9357	-3.6736	-1.498	-1.612	-1.878	0.8297	1.1496	-1.3459	-0.5605	-2.22	3.3633	-2.7552	0.589	-1.0578
-2.9674	-3.3664	-4.25	-3.4329	-3.5469	-4.5002	-2.5272	-3.0592	-3.8035	-1.6151	-1.7576	-2.0237	0.7157	1.1528	-1.3079	-0.551	-2.2517	3.3253	-2.9072	0.5067	-1.1813
-3.0719	-3.4614	-4.3577	-3.5881	-3.6673	-4.63	-2.6602	-3.1891	-3.9301	-1.7418	-1.9192	-2.163	0.5447	1.1464	-1.2889	-0.5827	-2.2517	3.2524	-3.0054	0.4307	-1.3301
-3.1859	-3.5374	-4.4812	-3.7338	-3.7655	-4.7282	-2.7679	-3.2841	-4.022	-1.8305	-2.0332	-2.2833	0.437	1.1496	-1.2731	-0.6682	-2.258	3.1828	-3.0941	0.3547	-1.4156
-3.2524	-3.6135	-4.573	-3.8826	-3.8225	-4.8581	-2.8851	-3.3759	-4.1392	-1.9382	-2.1218	-2.3847	0.304	1.1306	-1.3016	-0.7696	-2.239	3.1131	-3.1321	0.285	-1.5075
-3.3506	-3.6293	-4.6364	-4.0157	-3.8573	-4.8961	-2.9674	-3.4171	-4.1772	-2.0015	-2.1725	-2.4449	0.2249	1.1464	-1.2953	-0.8867	-2.2422	3.0529	-3.1384	0.2565	-1.5708
-3.4424	-3.6736	-4.7092	-4.1613	-3.8731	-4.9721	-3.0434	-3.4361	-4.25	-2.0743	-2.2232	-2.524	0.1425	1.1211	-1.3586	-1.0419	-2.2137	2.9611	-3.1448	0.1742	-1.5835
-3.5121	-3.6768	-4.763	-4.307	-3.889	-5.0037	-3.1257	-3.4424	-4.2532	-2.1377	-2.2453	-2.5462	0.0507	1.1338	-1.3523	-1.2034	-2.2168	2.9262	-3.0687	0.152	-1.6088
-3.5628	-3.6705	-4.82	-4.44	-3.8858	-5.0512	-3.2208	-3.4298	-4.3007	-2.1725	-2.2612	-2.5715	-0.0158	1.1148	-1.3839	-1.3776	-2.1883	2.8629	-3.0561	0.1013	-1.5961
-3.6103	-3.661	-4.8454	-4.5509	-3.8636	-5.0892	-3.2746	-3.4139	-4.3007	-2.2042	-2.2263	-2.5557	-0.0538	1.1053	-1.3808	-1.5328	-2.1725	2.8154	-2.9516	0.057	-1.5866
-3.661	-3.6388	-4.8992	-4.6617	-3.8605	-5.1082	-3.3316	-3.3696	-4.2753	-2.239	-2.2073	-2.524	-0.0823	1.0736	-1.4409	-1.7165	-2.1282	2.7394	-2.8787	-0.0063	-1.5993
-3.6895	-3.6135	-4.9182	-4.7599	-3.8003	-5.1241	-3.3506	-3.3126	-4.2278	-2.22	-2.1598	-2.4987	-0.1045	1.0736	-1.479	-1.9033	-2.106	2.695	-2.7774	-0.0222	-1.5138
-3.7465	-3.6103	-4.9626	-4.8612	-3.7971	-5.1272	-3.4108	-3.2904	-4.212	-2.2485	-2.125	-2.4544	-0.114	1.0451	-1.5296	-2.0585	-2.0395	2.6507	-2.7014	-0.0633	-1.4916
-3.7718	-3.5945	-4.9847	-4.9531	-3.737	-5.1272	-3.4519	-3.2081	-4.1645	-2.2168	-2.0712	-2.3815	-0.1013	1.0102	-1.5645	-2.2295	-1.9857	2.6064	-2.6127	-0.1013	-1.4346
-3.7718	-3.5628	-5.0196	-5.0386	-3.7211	-5.1431	-3.5026	-3.1479	-4.0885	-2.2263	-1.9983	-2.296	-0.0823	0.9754	-1.6215	-2.4417	-1.9192	2.562	-2.5145	-0.1045	-1.3491
-3.7971	-3.5374	-5.0227	-5.0829	-3.6958	-5.1367	-3.5026	-3.1067	-4.0663	-2.2042	-1.9065	-2.2042	-0.0412	0.9311	-1.6278	-2.5905	-1.8241	2.5525	-2.4385	-0.1077	-1.2889
-3.7971	-3.5216	-5.0449	-5.1241	-3.6578	-5.1146	-3.5058	-3.0086	-3.9998	-2.1535	-1.8178	-2.106	0	0.8836	-1.6531	-2.7299	-1.7228	2.5399	-2.3625	-0.114	-1.2161
-3.7781	-3.5026	-5.0227	-5.1494	-3.6451	-5.1051	-3.5216	-2.9357	-3.908	-2.0807	-1.7545	-1.9857	0.0507	0.8234	-1.6531	-2.8819	-1.6088	2.524	-2.2897	-0.1298	-1.1559
-3.7781	-3.4931	-5.0354	-5.1779	-3.604	-5.0607	-3.4994	-2.9041	-3.8415	-2.0617	-1.6658	-1.897	0.133	0.7569	-1.6658	-3.0561	-1.4695	2.5209	-2.2263	-0.114	-1.0704
-3.7465	-3.4741	-5.0101	-5.1399	-3.5755	-5.0354	-3.4709	-2.8027	-3.7655	-1.9698	-1.5835	-1.7576	0.2249	0.6872	-1.6595	-3.1859	-1.3554	2.5589	-2.1788	-0.1108	-0.9564
-3.7591	-3.4773	-5.0322	-5.1557	-3.5628	-5.0227	-3.4583	-2.7552	-3.6958	-1.9002	-1.4758	-1.6215	0.3167	0.6175	-1.6753	-3.3316	-1.2066	2.5399	-2.1282	-0.1267	-0.8931
-3.7211	-3.4646	-4.9689	-5.0987	-3.5153	-4.9689	-3.3791	-2.6634	-3.5596	-1.7861	-1.3586	-1.4695	0.4054	0.5637	-1.65	-3.4361	-1.0958	2.5779	-2.0522	-0.0855	-0.7981
-3.6958	-3.4361	-4.9309	-5.0227	-3.5058	-4.9024	-3.3253	-2.6127	-3.4678	-1.6975	-1.2541	-1.3459	0.513	0.5067	-1.6246	-3.5406	-0.9817	2.6095	-1.9698	-0.0633	-0.6682
-3.6578	-3.4361	-4.8866	-4.9056	-3.4171	-4.8296	-3.2271	-2.5019	-3.3443	-1.5771	-1.1148	-1.1718	0.6809	0.4592	-1.5961	-3.5913	-0.8867	2.6507	-1.9128	-0.0348	-0.5257
-3.6736	-3.4234	-4.8454	-4.8486	-3.3981	-4.7725	-3.1796	-2.41	-3.2398	-1.4346	-0.9754	-1.0102	0.8329	0.4054	-1.5898	-3.6166	-0.7791	2.6697	-1.897	0.0032	-0.456
-3.6135	-3.4234	-4.8074	-4.763	-3.3664	-4.6807	-3.0656	-2.3435	-3.0941	-1.3269	-0.8487	-0.8329	0.9691	0.3452	-1.6183	-3.6388	-0.6714	2.7109	-1.821	0.0222	-0.3262
-3.5501	-3.3949	-4.7345	-4.6522	-3.3348	-4.6047	-2.9801	-2.2612	-2.9674	-1.1876	-0.7031	-0.6777	1.1306	0.3009	-1.6025	-3.6008	-0.5764	2.7457	-1.7671	0.0633	-0.2249
-3.4963	-3.3664	-4.6522	-4.535	-3.2651	-4.497	-2.8566	-2.1535	-2.8027	-1.0134	-0.5605	-0.5099	1.3048	0.2534	-1.6151	-3.566	-0.475	2.8027	-1.688	0.114	-0.0697
-3.4488	-3.3379	-4.5667	-4.4274	-3.1986	-4.364	-2.7235	-2.0458	-2.6507	-0.8392	-0.3959	-0.3104	1.5075	0.1995	-1.6721	-3.4804	-0.3674	2.8566	-1.5961	0.1583	0.057
-3.3664	-3.2936	-4.4527	-4.2785	-3.1543	-4.2278	-2.5747	-1.9318	-2.505	-0.6556	-0.247	-0.0982	1.688	0.1615	-1.707	-3.3411	-0.2819	2.9136	-1.517	0.2312	0.19
-3.2556	-3.2271	-4.3672	-4.136	-3.0307	-4.0948	-2.4164	-1.821	-2.3182	-0.4782	-0.0728	0.0918	1.916	0.1108	-1.7196	-3.1923	-0.1995	2.9389	-1.4314	0.2565	0.3294
-3.1226	-3.1384	-4.212	-3.9713	-2.9452	-3.9111	-2.258	-1.6658	-2.1092	-0.2724	0.0982	0.3294	2.1092	0.0855	-1.7418	-2.9896	-0.1552	3.0212	-1.3111	0.323	0.4972
-3.0117	-3.0561	-4.0853	-3.8003	-2.8534	-3.7686	-2.0965	-1.5296	-1.9287	-0.0697	0.2819	0.5225	2.3245	0.0697	-1.783	-2.7172	-0.1172	3.0782	-1.2034	0.3895	0.6397
-2.8851	-2.9737	-3.9301	-3.6261	-2.7362	-3.5913	-1.8748	-1.4061	-1.7386	0.1362	0.4655	0.7284	2.5589	0.057	-1.764	-2.4069	-0.0918	3.1669	-1.1148	0.4307	0.7886
-2.7299	-2.8914	-3.7845	-3.4266	-2.6254	-3.4171	-1.6785	-1.2319	-1.555	0.3579	0.6017	0.9121	2.7299	0.0412	-1.7513	-2.0838	-0.0697	3.2303	-1.0071	0.551	0.9216
-2.5905	-2.7521	-3.6261	-3.2429	-2.4955	-3.2303	-1.517	-1.1116	-1.3554	0.5415	0.7759	1.1369	2.9262	0.0348	-1.7038	-1.726	-0.0507	3.3063	-0.9057	0.6366	1.0546
-2.4417	-2.6285	-3.4994	-3.0782	-2.3784	-3.0941	-1.3491	-0.9627	-1.1844	0.7157	0.9057	1.2794	3.1099	0.0285	-1.6626	-1.3713	-0.0222	3.3506	-0.8107	0.7221	1.1401
-2.3087	-2.5462	-3.3886	-2.9262	-2.2928	-2.9737	-1.1686	-0.8551	-1.0641	0.8994	1.0292	1.4409	3.2778	0.0222	-1.6373	-1.0324	-0.0032	3.4393	-0.7727	0.8107	1.2224
-2.201	-2.4385	-3.2366	-2.7647	-2.144	-2.8312	-1.0229	-0.7221	-0.9216	1.0546	1.1433	1.6025	3.4266	0.0127	-1.5676	-0.7347	-0.0032	3.4868	-0.6809	0.8867	1.3206
-2.106	-2.3404	-3.1289	-2.6412	-2.0585	-2.695	-0.9057	-0.6302	-0.7886	1.1876	1.2699	1.7101	3.5691	0.0063	-1.4695	-0.4529	0.0063	3.5564	-0.6175	0.9912	1.3681
-2.011	-2.22	-3.0371	-2.5082	-1.9667	-2.619	-0.7727	-0.5194	-0.6841	1.3143	1.3649	1.8305	3.6768	0.0095	-1.4441	-0.2755	0.019	3.6103	-0.5795	1.1021	1.4346
-1.9128	-2.0902	-2.9706	-2.41	-1.8621	-2.5304	-0.6809	-0.437	-0.6144	1.4409	1.4378	1.9223	3.794	0	-1.3618	-0.1457	0.0095	3.6863	-0.5352	1.1971	1.4695
-1.8685	-1.992	-2.9167	-2.3594	-1.7798	-2.4544	-0.6175	-0.3642	-0.5384	1.4885	1.4885	1.9983	3.8795	-0.0032	-1.2858	-0.0918	0.0222	3.7148	-0.5162	1.2604	1.4853
-1.84	-1.9002	-2.8882	-2.3182	-1.6848	-2.4385	-0.5859	-0.285	-0.475	1.6025	1.5328	2.068	3.9681	0.019	-1.2541	-0.0633	-0.0127	3.7591	-0.5225	1.3459	1.4758
-1.7988	-1.8051	-2.8407	-2.2643	-1.5961	-2.353	-0.513	-0.2249	-0.4434	1.6405	1.6246	2.1282	4.0632	0.0222	-1.1971	-0.0443	-0.0222	3.8193	-0.4877	1.4188	1.4916
-1.7576	-1.6911	-2.8186	-2.2358	-1.5201	-2.353	-0.4909	-0.152	-0.4054	1.726	1.6531	2.1883	4.1265	0.038	-1.1844	-0.1235	-0.0475	3.8826	-0.4909	1.5106	1.4885
-1.7355	-1.6088	-2.7774	-2.2105	-1.4441	-2.296	-0.4465	-0.0982	-0.3484	1.7925	1.6975	2.2707	4.2088	0.0633	-1.1623	-0.1963	-0.076	3.9365	-0.513	1.5771	1.4726
-1.7038	-1.4473	-2.7394	-2.1598	-1.3396	-2.2675	-0.4054	-0.0285	-0.285	1.8463	1.7671	2.3625	4.2912	0.0697	-1.0989	-0.2692	-0.133	3.9808	-0.4814	1.6595	1.4853
-1.6975	-1.3713	-2.7267	-2.1662	-1.2541	-2.2612	-0.3864	0.0032	-0.2787	1.8938	1.7988	2.4195	4.3672	0.1108	-1.0831	-0.3325	-0.1995	4.06	-0.5257	1.7323	1.4599
-1.6595	-1.2541	-2.7077	-2.1345	-1.1781	-2.1978	-0.3452	0.0792	-0.2407	1.9762	1.8653	2.4797	4.4464	0.1615	-1.0166	-0.4022	-0.2914	4.1455	-0.551	1.8241	1.4346
-1.6341	-1.1433	-2.6539	-2.1028	-1.0926	-2.1852	-0.3452	0.1077	-0.2217	2.0078	1.9002	2.543	4.5572	0.1932	-0.9342	-0.475	-0.3705	4.2183	-0.6017	1.8875	1.4061
-1.6088	-1.0102	-2.6222	-2.0743	-0.9817	-2.144	-0.3009	0.152	-0.1742	2.0617	1.9445	2.6285	4.6205	0.2629	-0.8741	-0.5257	-0.5162	4.326	-0.6112	1.9762	1.3998
-1.5233	-0.8741	-2.5747	-2.03	-0.8551	-2.1155	-0.2407	0.2344	-0.1393	2.1503	1.9825	2.6887	4.6997	0.3579	-0.7474	-0.5542	-0.6746	4.421	-0.6239	2.0838	1.3744
-1.4504	-0.7221	-2.5019	-1.9952	-0.7474	-2.0522	-0.209	0.3135	-0.0602	2.2137	2.0522	2.7837	4.801	0.4244	-0.6587	-0.5542	-0.8424	4.5287	-0.6366	2.182	1.3649
-1.4188	-0.5922	-2.4797	-1.9445	-0.6461	-2.0205	-0.1583	0.3705	-0.0253	2.2928	2.1345	2.8692	4.8834	0.513	-0.5985	-0.551	-1.0007	4.6649	-0.6682	2.3055	1.3649
-1.3459	-0.4719	-2.4037	-1.8748	-0.5384	-1.9888	-0.0792	0.437	0.0348	2.3435	2.1788	2.9389	4.9911	0.5985	-0.4782	-0.5352	-1.1654	4.7472	-0.6714	2.4069	1.3618
-1.2604	-0.3009	-2.3277	-1.7956	-0.4085	-1.8938	-0.0127	0.4972	0.0887	2.4385	2.2612	3.0276	5.0892	0.6841	-0.399	-0.5162	-1.3238	4.8866	-0.6366	2.5272	1.3776
-1.2066	-0.1963	-2.2548	-1.7196	-0.2882	-1.8653	0.0538	0.57	0.171	2.4955	2.334	3.0814	5.1747	0.7664	-0.3294	-0.4845	-1.4853	4.9942	-0.6397	2.6634	1.4188
-1.1496	-0.0443	-2.1883	-1.6373	-0.19	-1.783	0.152	0.6651	0.2534	2.5874	2.4195	3.1923	5.2666	0.8329	-0.2344	-0.4624	-1.6341	5.1241	-0.6112	2.7837	1.4473
-1.0704	0.0665	-2.1187	-1.5708	-0.1077	-1.7038	0.2058	0.7411	0.3104	2.676	2.4797	3.2651	5.3901	0.9057	-0.2344	-0.4275	-1.7671	5.2508	-0.57	2.8977	1.4821
-1.0134	0.1932	-2.0332	-1.4695	0.0158	-1.6151	0.3104	0.8361	0.4212	2.7806	2.581	3.3759	5.4724	0.9691	-0.1678	-0.4434	-1.878	5.3521	-0.5289	3.0086	1.5613
-0.9722	0.2724	-1.9825	-1.3903	0.1013	-1.5613	0.3927	0.8772	0.4655	2.8376	2.6444	3.4614	5.5769	0.9881	-0.19	-0.5035	-1.935	5.4344	-0.4972	3.0909	1.6056
-0.8804	0.38	-1.8653	-1.2699	0.1932	-1.4283	0.4909	0.9786	0.5985	2.9484	2.7204	3.5469	5.6941	1.0261	-0.1457	-0.5574	-2.0173	5.5326	-0.4244	3.2081	1.6848
-0.8266	0.4529	-1.7956	-1.1718	0.266	-1.3586	0.6017	1.0356	0.6999	3.0212	2.8281	3.6736	5.786	1.0451	-0.1615	-0.6999	-2.0458	5.6118	-0.3864	3.3094	1.7766
-0.8044	0.5162	-1.6975	-1.0894	0.3294	-1.2478	0.7062	1.1148	0.8044	3.1289	2.9262	3.7655	5.9063	1.0514	-0.1963	-0.8329	-2.068	5.7036	-0.3009	3.3696	1.8305
-0.7347	0.5447	-1.593	-0.9881	0.3864	-1.1338	0.7917	1.1749	0.9374	3.2271	2.9832	3.8605	5.9791	1.0451	-0.2154	-0.9881	-2.0617	5.748	-0.2249	3.4614	1.9255
-0.6397	0.6175	-1.5075	-0.8677	0.4402	-1.0229	0.9279	1.2573	1.0768	3.3284	3.1067	3.9555	6.09	1.0451	-0.285	-1.1496	-2.0585	5.8461	-0.1235	3.5438	2.0332
-0.5985	0.6714	-1.3934	-0.7442	0.5194	-0.8804	1.0482	1.3269	1.2161	3.4298	3.1796	4.0632	6.1818	1.0229	-0.3389	-1.3016	-2.0205	5.8936	-0.0253	3.5913	2.1725
-0.5479	0.6714	-1.2858	-0.6461	0.551	-0.7886	1.1338	1.3586	1.3048	3.5121	3.2461	4.155	6.2705	1.0039	-0.3927	-1.4568	-1.9477	5.9601	0.0602	3.6546	2.258
-0.475	0.6967	-1.1908	-0.5605	0.589	-0.6397	1.2288	1.3871	1.4124	3.5786	3.3031	4.2342	6.3212	0.9437	-0.4307	-1.5835	-1.8653	5.9728	0.1583	3.6578	2.3815
-0.4212	0.6999	-1.1084	-0.4655	0.6017	-0.551	1.3174	1.4473	1.5265	3.661	3.3759	4.307	6.3813	0.9026	-0.4434	-1.6626	-1.7608	5.9918	0.2724	3.6926	2.4607
-0.3642	0.6999	-1.0292	-0.4054	0.608	-0.4782	1.3903	1.4695	1.5961	3.7401	3.4139	4.3767	6.4035	0.8361	-0.456	-1.6911	-1.6405	5.9855	0.3959	3.6958	2.5589
-0.2724	0.7062	-0.9026	-0.2914	0.6682	-0.3674	1.4504	1.517	1.6911	3.8256	3.4931	4.4559	6.4732	0.7981	-0.4592	-1.688	-1.5455	6.0013	0.5415	3.737	2.6697
-0.2312	0.6967	-0.8392	-0.2439	0.6651	-0.2914	1.5106	1.5201	1.7513	3.8763	3.5153	4.4875	6.4858	0.7347	-0.4655	-1.6373	-1.4378	6.0013	0.6777	3.7465	2.7806
-0.1425	0.6841	-0.7284	-0.171	0.6682	-0.1837	1.5898	1.593	1.8273	3.9396	3.5564	4.5762	6.4953	0.7031	-0.4275	-1.536	-1.3459	5.9696	0.7854	3.7686	2.8692
-0.0982	0.6872	-0.6587	-0.1425	0.6682	-0.1298	1.6088	1.5613	1.8811	3.9681	3.5755	4.5889	6.4858	0.6366	-0.4497	-1.4631	-1.2319	5.9158	0.9089	3.794	2.9452
-0.019	0.6619	-0.6144	-0.1077	0.6682	-0.1045	1.6088	1.5771	1.8907	4.0157	3.6135	4.6015	6.4858	0.589	-0.4402	-1.3396	-1.1338	5.8905	0.9944	3.8225	3.0339
0.0095	0.6366	-0.5827	-0.0887	0.627	-0.0697	1.6405	1.5486	1.8938	3.9998	3.6008	4.6142	6.4478	0.5479	-0.4972	-1.2794	-1.0419	5.862	1.1084	3.8193	3.1352
0.0602	0.608	-0.5542	-0.0855	0.6207	-0.0697	1.612	1.5328	1.9128	3.984	3.6198	4.6079	6.4542	0.5067	-0.513	-1.1718	-0.9691	5.7891	1.1971	3.8256	3.2176
0.0665	0.57	-0.5415	-0.1108	0.5827	-0.095	1.574	1.536	1.8748	3.9808	3.6261	4.573	6.4035	0.4465	-0.5605	-1.1116	-0.8772	5.729	1.3048	3.8098	3.2968
0.1077	0.532	-0.532	-0.0982	0.5732	-0.0887	1.5486	1.5011	1.8653	3.946	3.585	4.5509	6.3528	0.4275	-0.6144	-1.0261	-0.8107	5.6751	1.3903	3.8098	3.3538
0.1108	0.5257	-0.5415	-0.1235	0.513	-0.1393	1.5043	1.4726	1.802	3.8731	3.5818	4.5097	6.28	0.3864	-0.6809	-0.9754	-0.7474	5.5801	1.4916	3.7623	3.4361
0.1425	0.4909	-0.5479	-0.1298	0.4909	-0.1805	1.4568	1.4726	1.7513	3.8446	3.5564	4.4527	6.2103	0.361	-0.7221	-0.9216	-0.6967	5.5073	1.5993	3.7243	3.5026
0.1267	0.4465	-0.5732	-0.1742	0.456	-0.247	1.3966	1.4378	1.6595	3.756	3.5248	4.3893	6.1122	0.3452	-0.7886	-0.8709	-0.6429	5.4091	1.6658	3.6546	3.5248
0.1362	0.4244	-0.5954	-0.2027	0.4117	-0.3389	1.3143	1.3871	1.5645	3.6673	3.4773	4.2817	6.033	0.3262	-0.8361	-0.7727	-0.5985	5.3236	1.7418	3.604	3.5596
0.1362	0.418	-0.6239	-0.2597	0.3452	-0.399	1.2288	1.3428	1.4631	3.585	3.4234	4.1962	5.9506	0.3072	-0.8772	-0.7062	-0.5637	5.2413	1.802	3.5469	3.6008
0.152	0.4054	-0.6429	-0.285	0.3515	-0.4592	1.1686	1.3364	1.3871	3.4963	3.3823	4.1423	5.8461	0.2882	-0.8297	-0.5795	-0.532	5.1431	1.8621	3.4646	3.6451
0.1742	0.399	-0.6461	-0.3009	0.3452	-0.5289	1.0989	1.3206	1.3079	3.4393	3.3316	4.0347	5.7765	0.2819	-0.8551	-0.4655	-0.5289	5.0766	1.8907	3.4139	3.6863
0.2154	0.4529	-0.6461	-0.3484	0.3135	-0.5827	1.0482	1.3016	1.2351	3.3569	3.2999	3.9618	5.6815	0.285	-0.8266	-0.3737	-0.5257	4.9974	1.9698	3.3506	3.7021
0.247	0.4972	-0.6049	-0.3389	0.3864	-0.5922	1.0514	1.3143	1.1971	3.3094	3.2841	3.927	5.6276	0.2819	-0.7759	-0.2312	-0.5352	4.9657	2.0427	3.3506	3.7591
0.2787	0.5447	-0.5764	-0.3389	0.3832	-0.6334	0.9881	1.3428	1.1464	3.2619	3.2746	3.8668	5.5801	0.2787	-0.7506	-0.1773	-0.5225	4.9214	2.0933	3.2873	3.7876
0.2882	0.5954	-0.57	-0.3579	0.4497	-0.6429	0.9501	1.3744	1.1084	3.2303	3.2778	3.851	5.5136	0.2724	-0.6714	-0.1393	-0.5162	4.8802	2.1693	3.2651	3.832
0.3674	0.7062	-0.5067	-0.3294	0.5415	-0.6144	0.9849	1.4283	1.1053	3.2303	3.3094	3.8668	5.5389	0.2755	-0.5985	-0.0855	-0.5352	4.8581	2.2358	3.2873	3.8763
0.4085	0.8076	-0.4497	-0.2945	0.6144	-0.5954	0.9691	1.5075	1.1116	3.2398	3.3601	3.8858	5.5358	0.2819	-0.5004	-0.0475	-0.5289	4.8802	2.3435	3.2746	3.9491
0.456	0.8899	-0.3832	-0.2819	0.7126	-0.5447	0.9976	1.5835	1.1496	3.2524	3.4234	3.9143	5.5643	0.2755	-0.4149	-0.076	-0.5162	4.8897	2.41	3.2651	4.0188
0.5289	1.0102	-0.304	-0.2249	0.8677	-0.4719	1.0546	1.6911	1.2256	3.3126	3.5216	4.0062	5.6118	0.2565	-0.2914	-0.0633	-0.5035	4.8866	2.4924	3.2841	4.0917
0.6334	1.1591	-0.2027	-0.171	0.9912	-0.3642	1.1338	1.8241	1.3238	3.3886	3.6135	4.1043	5.6973	0.2534	-0.2058	-0.1013	-0.4782	4.9087	2.562	3.3094	4.1613
0.6967	1.2984	-0.0918	-0.0855	1.1369	-0.2502	1.2256	1.9477	1.4346	3.4709	3.7401	4.2215	5.7923	0.2597	-0.0887	-0.0538	-0.4814	4.9911	2.6697	3.3823	4.2532
0.8266	1.4504	0.0538	0.019	1.3079	-0.0855	1.3649	2.0807	1.5803	3.5913	3.8573	4.3387	5.9095	0.2439	0.0222	-0.0443	-0.4624	5.0354	2.7299	3.4171	4.3418
0.9311	1.6341	0.2058	0.1488	1.498	0.057	1.5043	2.2865	1.7386	3.7338	3.9967	4.4939	6.0425	0.247	0.152	0.0158	-0.4814	5.0987	2.8059	3.4741	4.4052
1.0831	1.8051	0.3769	0.2882	1.6975	0.2597	1.6658	2.429	1.916	3.889	4.1233	4.6585	6.1723	0.2534	0.2819	0.0697	-0.475	5.1811	2.9009	3.5564	4.478
1.2446	1.9825	0.5605	0.4529	1.897	0.4592	1.859	2.6	2.1092	4.0537	4.2722	4.8327	6.3465	0.2597	0.4022	0.1425	-0.4877	5.2983	2.9579	3.6325	4.5382
1.4156	2.1472	0.7537	0.6397	2.0775	0.6651	2.0427	2.7679	2.315	4.2785	4.402	5.0006	6.4985	0.2629	0.5289	0.2375	-0.4845	5.3869	2.9927	3.6958	4.5825
1.5835	2.3625	0.9722	0.8297	2.2738	0.8677	2.2422	2.9326	2.5304	4.4495	4.5319	5.2064	6.6379	0.266	0.6366	0.3294	-0.4877	5.4566	3.0561	3.8035	4.6237
1.7703	2.5145	1.2034	1.0324	2.4512	1.1116	2.4639	3.0877	2.7299	4.6617	4.668	5.3584	6.8089	0.2565	0.7474	0.4719	-0.4877	5.5738	3.0402	3.8858	4.6395
1.9572	2.6507	1.4124	1.2256	2.6064	1.2889	2.6824	3.2144	2.9199	4.8707	4.7789	5.5231	6.9799	0.2755	0.8614	0.5795	-0.5004	5.6846	3.0276	3.9872	4.6649
2.1662	2.8249	1.65	1.4536	2.7837	1.5391	2.9294	3.3538	3.1479	5.0797	4.8929	5.7258	7.1731	0.266	0.9121	0.6809	-0.4972	5.8335	2.9864	4.0695	4.6522
2.3562	2.9896	1.859	1.6911	2.9674	1.7671	3.1638	3.5121	3.3791	5.3394	5.0417	5.9348	7.3473	0.2692	1.0007	0.7727	-0.5067	5.9538	2.9579	4.2088	4.6744
2.5715	3.1321	2.0902	1.9128	3.1099	1.9888	3.3886	3.623	3.5596	5.5579	5.1272	6.109	7.5119	0.285	1.1021	0.9216	-0.5289	6.0995	2.9136	4.326	4.6395
2.7774	3.3094	2.3309	2.1218	3.2746	2.201	3.6546	3.7718	3.7908	5.7891	5.2634	6.2927	7.7209	0.2945	1.1939	1.0356	-0.5605	6.2388	2.8661	4.4305	4.649
2.9547	3.4424	2.5684	2.3372	3.3696	2.4164	3.8795	3.8573	3.9776	6.0266	5.3806	6.4542	7.9046	0.2945	1.3238	1.1718	-0.589	6.4003	2.8186	4.5667	4.649
3.1606	3.5406	2.7711	2.5304	3.5089	2.5905	4.0917	3.9491	4.1265	6.2103	5.4503	6.5967	8.0661	0.3262	1.4631	1.3174	-0.6302	6.527	2.7901	4.6712	4.6459
3.2999	3.6135	2.9104	2.6602	3.5628	2.7616	4.2627	4.003	4.2595	6.375	5.5389	6.7234	8.2182	0.3452	1.5866	1.4156	-0.6682	6.6632	2.7172	4.763	4.6332
3.4424	3.7306	3.0624	2.8186	3.6641	2.9009	4.4179	4.079	4.383	6.5714	5.6276	6.8532	8.3543	0.3642	1.726	1.536	-0.7062	6.7899	2.6634	4.8739	4.6237
3.5755	3.7876	3.1986	2.9421	3.7116	2.9927	4.5604	4.1487	4.4907	6.7297	5.6878	6.9482	8.5127	0.3927	1.8431	1.6468	-0.7601	6.9134	2.6159	4.9847	4.6427
3.6641	3.8288	3.2904	3.0339	3.7243	3.0814	4.6807	4.1582	4.6047	6.8184	5.7701	7.0591	8.6109	0.4149	1.9287	1.745	-0.8139	7.0211	2.5715	5.0797	4.6142
3.7306	3.8288	3.3633	3.0846	3.7243	3.1257	4.7915	4.174	4.63	6.9387	5.8145	7.1256	8.747	0.4465	1.9698	1.764	-0.8646	7.1446	2.5209	5.1874	4.5889
3.794	3.8415	3.4108	3.1352	3.7306	3.1733	4.8897	4.2025	4.6902	7.0369	5.8651	7.2174	8.8357	0.4909	1.992	1.8178	-0.9374	7.2554	2.4924	5.2729	4.5667
3.813	3.794	3.4044	3.1511	3.7148	3.1828	4.9721	4.2247	4.7377	7.1287	5.8873	7.2776	8.9275	0.5225	1.9888	1.8431	-1.0102	7.3346	2.4607	5.3996	4.5667
3.8035	3.756	3.3918	3.1954	3.6831	3.2113	5.0322	4.2183	4.7599	7.2237	5.9221	7.3346	9.0226	0.5669	1.9603	1.8146	-1.0989	7.4676	2.3847	5.5009	4.5319
3.7971	3.7433	3.3854	3.2113	3.661	3.2144	5.1051	4.2437	4.7789	7.3092	5.9475	7.3663	9.1271	0.6175	1.897	1.8115	-1.1876	7.5594	2.3594	5.6339	4.5192
3.7338	3.661	3.3538	3.2271	3.6515	3.1923	5.1652	4.2437	4.7852	7.3758	5.957	7.4074	9.1682	0.6524	1.8241	1.7513	-1.2636	7.6449	2.2928	5.7353	4.4907
3.6641	3.585	3.2841	3.1986	3.5818	3.1764	5.1906	4.212	4.7662	7.4169	5.9538	7.4359	9.2094	0.6841	1.6911	1.65	-1.3396	7.7241	2.2707	5.8493	4.4274
3.6071	3.4931	3.1828	3.1764	3.5058	3.1099	5.2032	4.174	4.7409	7.4644	5.9253	7.4074	9.2316	0.7157	1.555	1.5233	-1.4093	7.7938	2.1852	5.9158	4.3957
3.4804	3.3601	3.0877	3.0814	3.4171	3.0466	5.2001	4.1487	4.6775	7.4676	5.8715	7.3758	9.2094	0.7411	1.3998	1.3839	-1.4346	7.8318	2.106	5.9886	4.3133
3.3316	3.1986	2.9389	2.9737	3.3063	2.9262	5.1367	4.022	4.573	7.4106	5.7701	7.3029	9.1461	0.7442	1.2224	1.2161	-1.4536	7.8445	1.9888	5.9981	4.212
3.1479	3.0371	2.7616	2.8122	3.1479	2.7932	5.0544	3.9491	4.4685	7.3504	5.6688	7.1952	9.0542	0.7379	1.0292	1.0166	-1.4473	7.7938	1.9223	6.033	4.1265
2.9421	2.8471	2.562	2.6729	3.0181	2.6412	4.9436	3.8066	4.3228	7.2332	5.5041	7.0369	8.9307	0.7411	0.8329	0.8424	-1.4346	7.7304	1.84	5.9981	4.0093
2.7521	2.6254	2.3562	2.4417	2.7964	2.4892	4.8042	3.6483	4.174	7.0654	5.3331	6.85	8.7787	0.6999	0.5954	0.6175	-1.3681	7.6418	1.7133	5.9348	3.8605
2.5082	2.4069	2.1503	2.2105	2.6	2.277	4.6427	3.4963	3.9745	6.9324	5.1367	6.6759	8.5823	0.6746	0.3547	0.4307	-1.3238	7.5563	1.6215	5.862	3.756
2.2707	2.1978	1.9255	1.9762	2.41	2.0775	4.4559	3.3253	3.7845	6.7487	4.9594	6.4922	8.405	0.6587	0.1108	0.2407	-1.2604	7.4454	1.498	5.7796	3.6135
2.0205	1.9192	1.6341	1.6911	2.1693	1.8685	4.2342	3.1067	3.5374	6.5144	4.725	6.2135	8.1643	0.6049	-0.1077	0.0665	-1.1623	7.2934	1.3776	5.6498	3.4678
1.7735	1.707	1.4156	1.4219	1.9572	1.65	4.0315	2.9041	3.3411	6.299	4.4939	6.0203	7.9458	0.5542	-0.3294	-0.0887	-1.0736	7.1636	1.2794	5.5548	3.3284
1.5233	1.4885	1.1591	1.1623	1.7291	1.4283	3.7971	2.6665	3.0877	6.0361	4.2753	5.7606	7.6924	0.5035	-0.57	-0.2407	-0.9627	7.0021	1.1433	5.3774	3.1954
1.2858	1.2383	0.9247	0.8677	1.5138	1.1971	3.5628	2.4417	2.8756	5.7891	4.0473	5.5009	7.4739	0.4687	-0.7506	-0.3484	-0.8867	6.8659	1.0324	5.2508	3.0434
1.0356	1.0514	0.7062	0.6017	1.2826	0.9817	3.3126	2.2358	2.6349	5.5294	3.7845	5.2539	7.2079	0.4244	-0.9152	-0.513	-0.8076	6.698	0.9311	5.0924	2.8914
0.7949	0.8107	0.4592	0.3357	1.0673	0.7791	3.0529	1.9952	2.4195	5.2824	3.5279	5.0164	6.9387	0.3832	-1.0578	-0.6144	-0.7442	6.527	0.7854	4.9404	2.7426
0.6049	0.6207	0.2629	0.0918	0.8646	0.5669	2.7869	1.7766	2.1757	4.9879	3.2651	4.7409	6.679	0.3579	-1.1591	-0.7632	-0.6714	6.318	0.6619	4.7472	2.5874
0.4085	0.4402	0.0728	-0.1583	0.6556	0.3579	2.5494	1.536	1.973	4.7219	3.0244	4.5065	6.4162	0.3357	-1.2129	-0.9089	-0.6429	6.1692	0.5352	4.5984	2.41
0.2375	0.2565	-0.0855	-0.3674	0.4624	0.1457	2.3023	1.3111	1.7576	4.4369	2.7774	4.2532	6.147	0.323	-1.2414	-1.0387	-0.6112	6.0013	0.4212	4.4147	2.2738
0.076	0.1172	-0.285	-0.5764	0.2597	-0.0475	2.0395	1.0894	1.5201	4.1613	2.5177	4.0315	5.8651	0.2977	-1.2826	-1.1781	-0.5637	5.7828	0.2819	4.2247	2.0997
-0.0285	-0.0507	-0.4085	-0.7316	0.095	-0.2122	1.7956	0.8994	1.3301	3.8953	2.2992	3.7813	5.6054	0.285	-1.2446	-1.3396	-0.5289	5.5769	0.1868	4.0442	1.9413
-0.152	-0.1647	-0.5605	-0.9184	-0.076	-0.3832	1.5613	0.7062	1.1148	3.6325	2.0648	3.5153	5.3584	0.266	-1.2066	-1.4568	-0.4972	5.3553	0.1045	3.8446	1.8083
-0.2217	-0.266	-0.6587	-1.0578	-0.2249	-0.5574	1.3048	0.5035	0.9279	3.3474	1.8558	3.2778	5.0797	0.2375	-1.2034	-1.5961	-0.4465	5.1304	0.0063	3.6103	1.6658
-0.2755	-0.3547	-0.7664	-1.1876	-0.3705	-0.7126	1.0736	0.3515	0.7347	3.0972	1.6563	3.0782	4.8137	0.2217	-1.2034	-1.6626	-0.4212	4.9087	-0.0665	3.3728	1.5265
-0.3579	-0.4402	-0.8709	-1.3143	-0.513	-0.8646	0.8329	0.1678	0.5574	2.8249	1.4726	2.8629	4.5762	0.1963	-1.2034	-1.7956	-0.3737	4.63	-0.133	3.1321	1.3998
-0.3895	-0.5067	-0.9722	-1.4283	-0.6334	-1.0039	0.608	0.0032	0.3769	2.543	1.2921	2.657	4.326	0.1773	-1.2478	-1.9255	-0.3167	4.3925	-0.1837	2.9009	1.2826
-0.3959	-0.532	-1.0546	-1.4916	-0.7474	-1.1401	0.3959	-0.152	0.2027	2.296	1.1053	2.429	4.0695	0.1362	-1.2858	-2.0553	-0.2597	4.1328	-0.2565	2.6317	1.1718
-0.3895	-0.5574	-1.1179	-1.574	-0.8297	-1.2699	0.1995	-0.2819	0.0317	2.068	0.9532	2.2517	3.8193	0.1108	-1.2763	-2.1662	-0.2027	3.8858	-0.2977	2.3562	1.1053
-0.4275	-0.6017	-1.2129	-1.6468	-0.9754	-1.4314	-0.0222	-0.4307	-0.1457	1.8368	0.8076	2.0712	3.6261	0.0823	-1.3523	-2.3499	-0.1298	3.6325	-0.3547	2.068	0.9659
-0.4054	-0.5795	-1.2636	-1.6721	-1.0134	-1.5518	-0.2217	-0.532	-0.2977	1.5961	0.6524	1.8843	3.4013	0.038	-1.3713	-2.4829	-0.0633	3.3728	-0.3642	1.821	0.9026
-0.3959	-0.5859	-1.3459	-1.7386	-1.1369	-1.688	-0.4149	-0.6461	-0.456	1.3776	0.5225	1.7101	3.1669	0	-1.3839	-2.6127	0.0127	3.1384	-0.3864	1.5803	0.8139
-0.361	-0.5795	-1.4029	-1.7703	-1.2193	-1.8115	-0.589	-0.7822	-0.6112	1.1654	0.3769	1.536	2.9579	-0.0412	-1.4093	-2.6887	0.0855	2.8882	-0.399	1.3428	0.7221
-0.3325	-0.5605	-1.4568	-1.8051	-1.2953	-1.9413	-0.7569	-0.9184	-0.7949	0.9659	0.2629	1.3934	2.7679	-0.0728	-1.4156	-2.7964	0.1583	2.676	-0.4022	1.1021	0.6492
-0.3135	-0.5257	-1.5201	-1.8051	-1.3618	-2.0743	-0.9121	-1.0419	-0.9342	0.7506	0.1267	1.2193	2.5874	-0.1108	-1.3966	-2.8597	0.2312	2.4385	-0.4022	0.8646	0.589
-0.3135	-0.5035	-1.5803	-1.8368	-1.4314	-2.2105	-1.0451	-1.1401	-1.1116	0.5827	0.0095	1.0451	2.4132	-0.1457	-1.3649	-2.8882	0.3072	2.239	-0.3959	0.7062	0.513
-0.3104	-0.4782	-1.6405	-1.8938	-1.5043	-2.3245	-1.1908	-1.2509	-1.2889	0.3959	-0.114	0.9057	2.2358	-0.1678	-1.3143	-2.8566	0.3737	2.049	-0.4117	0.5004	0.4307
-0.3357	-0.4655	-1.7355	-1.9635	-1.5423	-2.4449	-1.3238	-1.3396	-1.3934	0.2534	-0.1995	0.7632	2.0902	-0.2154	-1.2604	-2.8376	0.4497	1.8495	-0.4022	0.3325	0.3959
-0.3484	-0.456	-1.8083	-2.0237	-1.631	-2.6032	-1.4441	-1.4536	-1.5486	0.114	-0.3325	0.6429	1.9287	-0.2565	-1.1749	-2.7996	0.5289	1.6721	-0.4434	0.1488	0.3009
-0.4149	-0.4719	-1.9097	-2.1028	-1.6816	-2.7204	-1.5803	-1.5581	-1.6943	-0.0348	-0.4149	0.5004	1.7766	-0.3009	-1.1084	-2.7869	0.6239	1.4568	-0.4845	-0.0095	0.2502
-0.4845	-0.475	-2.0015	-2.1852	-1.7956	-2.8502	-1.6753	-1.6341	-1.8305	-0.1837	-0.5035	0.3674	1.631	-0.3642	-1.0546	-2.7647	0.7347	1.2826	-0.5004	-0.1963	0.1995
-0.5447	-0.475	-2.0933	-2.2612	-1.8146	-2.9896	-1.7798	-1.7133	-1.9698	-0.2882	-0.5922	0.2565	1.5043	-0.4022	-0.9406	-2.7774	0.8202	1.0894	-0.494	-0.3547	0.1742
-0.6366	-0.5067	-2.201	-2.3689	-1.8907	-3.0972	-1.8685	-1.7545	-2.0553	-0.4054	-0.6429	0.1773	1.3934	-0.4592	-0.8962	-2.7647	0.9152	0.9026	-0.4909	-0.4972	0.1393
-0.7411	-0.5479	-2.3182	-2.4639	-1.9033	-3.1448	-1.9413	-1.7735	-2.1662	-0.4782	-0.6619	0.0887	1.3143	-0.4972	-0.8234	-2.7616	0.9976	0.7411	-0.4719	-0.6524	0.1488
-0.8424	-0.5732	-2.3942	-2.5589	-1.935	-3.2556	-2.0078	-1.8495	-2.2232	-0.5605	-0.6967	0.0158	1.2668	-0.5447	-0.7347	-2.7647	1.0989	0.5795	-0.456	-0.7727	0.1773
-0.9247	-0.6144	-2.4607	-2.6602	-1.9508	-3.2588	-2.0522	-1.8336	-2.2422	-0.5922	-0.6682	0.0475	1.1781	-0.6017	-0.6682	-2.7457	1.1876	0.4339	-0.4022	-0.8931	0.1963
-1.0387	-0.6587	-2.5304	-2.7457	-1.9413	-3.2714	-2.0648	-1.7925	-2.3023	-0.6175	-0.6556	0.0158	1.1464	-0.6366	-0.6239	-2.7014	1.2699	0.2914	-0.3769	-0.9817	0.2407
-1.1274	-0.6936	-2.581	-2.8249	-1.935	-3.2936	-2.0775	-1.7766	-2.2802	-0.6175	-0.6207	0.0507	1.1053	-0.6714	-0.5605	-2.6792	1.3681	0.1267	-0.3294	-1.0863	0.2914
-1.1749	-0.6777	-2.5969	-2.8439	-1.8653	-3.2366	-2.0268	-1.6785	-2.2168	-0.5637	-0.5384	0.1045	1.1116	-0.7062	-0.4845	-2.6254	1.4283	0.0475	-0.2502	-1.1401	0.3579
-1.2129	-0.7157	-2.5905	-2.9104	-1.8241	-3.1701	-2.0142	-1.612	-2.1725	-0.5257	-0.4655	0.152	1.1401	-0.7474	-0.4085	-2.562	1.5075	-0.114	-0.19	-1.2224	0.4497
-1.2731	-0.7189	-2.5747	-2.9041	-1.745	-3.0624	-1.9382	-1.5011	-2.0427	-0.456	-0.3515	0.2565	1.1591	-0.7854	-0.304	-2.4227	1.5613	-0.247	-0.1203	-1.2636	0.532
-1.2636	-0.6651	-2.4955	-2.9009	-1.6183	-2.9484	-1.84	-1.3586	-1.9223	-0.3325	-0.228	0.3674	1.1844	-0.7949	-0.171	-2.3214	1.5866	-0.3389	-0.0127	-1.2731	0.6334
-1.2699	-0.6524	-2.4132	-2.8692	-1.4853	-2.7964	-1.7101	-1.2003	-1.783	-0.2185	-0.0887	0.5162	1.2414	-0.8044	-0.0887	-2.1472	1.6151	-0.4117	0.0823	-1.2921	0.7157
-1.2224	-0.5922	-2.3119	-2.8027	-1.3333	-2.5937	-1.555	-1.0356	-1.5835	-0.0633	0.0792	0.7031	1.3333	-0.8329	0.038	-1.9445	1.6468	-0.494	0.1742	-1.2573	0.8266
-1.1591	-0.494	-2.1218	-2.7109	-1.1401	-2.3435	-1.3808	-0.8392	-1.3269	0.1235	0.247	0.8772	1.4441	-0.8424	0.1583	-1.7291	1.6595	-0.5415	0.285	-1.2668	0.9469
-1.0578	-0.3864	-1.9572	-2.5969	-0.9374	-2.1092	-1.2066	-0.6017	-1.1053	0.3357	0.4592	1.1021	1.5486	-0.8392	0.247	-1.479	1.6626	-0.5859	0.4212	-1.2161	1.0609
-0.9691	-0.2945	-1.7608	-2.4765	-0.7537	-1.8431	-1.0102	-0.4054	-0.8709	0.5289	0.6461	1.2984	1.669	-0.8456	0.3547	-1.1781	1.6753	-0.6556	0.5257	-1.1908	1.1338
-0.8487	-0.1678	-1.5803	-2.3625	-0.5194	-1.5676	-0.8044	-0.1742	-0.5795	0.7379	0.8487	1.5201	1.7956	-0.8519	0.4687	-0.8867	1.6911	-0.7031	0.5922	-1.1654	1.2414
-0.7189	-0.038	-1.3269	-2.2232	-0.304	-1.2636	-0.589	0.076	-0.2724	0.9469	1.0451	1.783	1.9318	-0.8582	0.551	-0.589	1.6975	-0.7126	0.6619	-1.1306	1.3333
-0.5637	0.1488	-1.1179	-2.0458	-0.038	-0.9754	-0.361	0.3199	0.0095	1.1844	1.2604	2.0395	2.0902	-0.8551	0.6302	-0.285	1.7038	-0.7727	0.7347	-1.1084	1.4568
-0.418	0.285	-0.8836	-1.9223	0.1837	-0.6714	-0.1552	0.5225	0.2914	1.3871	1.4599	2.2928	2.2263	-0.8582	0.6904	-0.0095	1.7133	-0.8044	0.7981	-1.0609	1.5391
-0.266	0.456	-0.6492	-1.7956	0.4212	-0.361	0.038	0.7632	0.6112	1.6025	1.6563	2.5304	2.3784	-0.8677	0.7031	0.266	1.7291	-0.8519	0.8487	-1.0546	1.6056
-0.1077	0.6366	-0.3832	-1.6531	0.6397	-0.0823	0.247	1.0102	0.9089	1.8368	1.8716	2.7901	2.5272	-0.8804	0.7442	0.4814	1.745	-0.8772	0.8899	-1.0419	1.707
0.0665	0.8202	-0.171	-1.5265	0.8804	0.1995	0.4339	1.2383	1.2003	2.0395	2.0743	3.0339	2.6729	-0.8994	0.7822	0.7221	1.783	-0.8962	0.9406	-0.9944	1.7956
0.266	1.0261	0.057	-1.3713	1.0799	0.513	0.608	1.4251	1.5138	2.2295	2.2675	3.2873	2.8154	-0.9121	0.8107	0.8614	1.802	-0.9311	0.9627	-0.9881	1.8907
0.4687	1.2383	0.3072	-1.2224	1.3649	0.8012	0.8329	1.6785	1.8336	2.467	2.4892	3.5564	2.9832	-0.8994	0.8582	1.0387	1.8146	-0.9121	1.0039	-0.9374	1.9762
0.6429	1.4536	0.5415	-1.1148	1.6025	1.0768	1.0007	1.878	2.0997	2.6285	2.6855	3.8003	3.1131	-0.9311	0.9026	1.1813	1.8526	-0.9722	0.9881	-0.9437	2.0268
0.8456	1.6816	0.7949	-0.9437	1.8431	1.3364	1.2003	2.1123	2.372	2.8629	2.8534	4.022	3.2524	-0.9279	0.9406	1.2383	1.8431	-0.9469	1.0451	-0.8836	2.1028
1.0514	1.916	0.9944	-0.7759	2.068	1.5866	1.3744	2.3182	2.6349	3.0244	3.0497	4.2722	3.3918	-0.9279	0.9659	1.2826	1.8558	-0.9469	1.0578	-0.8424	2.1693
1.2794	2.1788	1.2478	-0.6017	2.3309	1.8241	1.5391	2.5304	2.9041	3.2334	3.2461	4.5034	3.5438	-0.9374	1.0134	1.2858	1.84	-0.9501	1.0989	-0.7981	2.2358
1.5138	2.429	1.4916	-0.4149	2.5525	2.0997	1.7513	2.7267	3.1511	3.4171	3.4108	4.7092	3.699	-0.9026	1.0229	1.2541	1.8241	-0.9057	1.1148	-0.6999	2.3023
1.7766	2.714	1.7703	-0.2154	2.7837	2.3372	1.9413	2.9547	3.4266	3.6293	3.6103	4.9689	3.8415	-0.8962	1.0229	1.1908	1.7798	-0.8867	1.1908	-0.6049	2.3657
2.0363	2.9864	2.0522	0.038	3.0371	2.5905	2.1757	3.1543	3.6736	3.8351	3.8003	5.1589	3.9998	-0.8519	1.0261	1.1274	1.7196	-0.8139	1.2604	-0.4845	2.429
2.3023	3.2746	2.3119	0.2787	3.3158	2.8502	2.4069	3.4013	3.9175	4.0315	3.9872	5.3711	4.1423	-0.8139	1.0102	1.0229	1.6341	-0.7632	1.3839	-0.342	2.5082
2.5589	3.5469	2.5652	0.5384	3.5343	3.1099	2.6064	3.6261	4.1297	4.2437	4.1645	5.6023	4.3007	-0.7791	0.9754	0.8931	1.5771	-0.7094	1.4409	-0.2439	2.5969
2.8281	3.8256	2.8249	0.7601	3.7876	3.3379	2.8407	3.851	4.4052	4.459	4.3798	5.843	4.4337	-0.7411	0.9786	0.8012	1.4853	-0.6207	1.574	-0.095	2.6855
3.0846	4.0885	3.0529	1.0039	4.0125	3.566	3.0497	4.1043	4.6205	4.6617	4.5825	6.0393	4.5635	-0.7157	0.9216	0.6556	1.4314	-0.5605	1.7101	0.0158	2.7774
3.2999	4.3165	3.2809	1.2414	4.2627	3.7908	3.2968	4.3133	4.8707	4.8676	4.7662	6.2737	4.7155	-0.6936	0.8582	0.513	1.3839	-0.494	1.8431	0.152	2.8439
3.5406	4.5635	3.4804	1.4726	4.478	4.0093	3.4931	4.5224	5.0766	5.0512	4.9594	6.4478	4.8676	-0.6714	0.7981	0.3737	1.3364	-0.3959	1.9888	0.285	2.9611
3.6736	4.7409	3.6831	1.669	4.7282	4.2025	3.7053	4.763	5.2856	5.2381	5.1462	6.6822	4.9816	-0.6524	0.7094	0.2122	1.2984	-0.3167	2.1503	0.4307	3.0751
3.8288	4.8929	3.8288	1.8273	4.8549	4.364	3.8478	4.9341	5.4819	5.3806	5.3236	6.8279	5.0797	-0.6397	0.6366	0.057	1.2921	-0.2692	2.2833	0.5637	3.1543
3.9555	5.0196	3.9365	1.992	5.0259	4.4907	3.9967	5.1557	5.6529	5.5294	5.4788	7.0084	5.1716	-0.6397	0.5035	-0.1172	1.2763	-0.2122	2.4164	0.6746	3.2778
4.003	5.1304	4.0537	2.1282	5.1557	4.63	4.1265	5.2824	5.8208	5.6593	5.6434	7.1604	5.2413	-0.6397	0.4275	-0.2502	1.2826	-0.1393	2.5177	0.8076	3.3316
4.079	5.1747	4.1487	2.2295	5.2951	4.7282	4.269	5.4566	5.9601	5.7828	5.7796	7.3124	5.3458	-0.6366	0.3547	-0.3832	1.2858	-0.0507	2.6064	0.9057	3.4298
4.1297	5.2413	4.2247	2.3657	5.3996	4.8454	4.4052	5.6308	6.0963	5.9348	5.9475	7.4581	5.4534	-0.6302	0.3072	-0.4529	1.2763	0.0317	2.7299	1.0482	3.5374
4.1582	5.2508	4.269	2.4512	5.4883	4.9372	4.5319	5.748	6.2135	6.0615	6.0551	7.5658	5.5326	-0.6461	0.2724	-0.532	1.3143	0.0918	2.8091	1.1559	3.6071
4.1487	5.2539	4.3197	2.5905	5.6054	5.0132	4.6585	5.881	6.3465	6.1723	6.1723	7.6988	5.6181	-0.6524	0.2945	-0.5257	1.3111	0.2027	2.9136	1.2636	3.718
4.1392	5.2159	4.3323	2.6665	5.6593	5.0861	4.7535	6.0108	6.4542	6.3148	6.3212	7.8128	5.71	-0.6587	0.3294	-0.5225	1.3269	0.2977	3.0022	1.3839	3.8003
4.117	5.2159	4.383	2.7711	5.7321	5.1779	4.8834	6.1343	6.5397	6.451	6.4193	7.9395	5.8113	-0.6556	0.418	-0.4972	1.3111	0.4085	3.1131	1.4599	3.8985
4.0917	5.2064	4.3988	2.8661	5.8145	5.2476	5.0132	6.261	6.6664	6.6252	6.5872	8.0788	5.9316	-0.6492	0.4845	-0.4275	1.2921	0.513	3.2176	1.5676	4.0252
4.0885	5.1937	4.4717	2.9611	5.9	5.3521	5.1336	6.4003	6.793	6.7614	6.6917	8.215	6.0678	-0.6429	0.589	-0.3515	1.2858	0.6207	3.3284	1.6626	4.1328
4.1265	5.2222	4.5509	3.1099	6.0203	5.4598	5.2888	6.5587	6.9609	6.9134	6.8754	8.3955	6.2388	-0.627	0.7347	-0.2249	1.2604	0.7696	3.4931	1.7735	4.307
4.1518	5.2508	4.5889	3.2081	6.1312	5.5833	5.4376	6.717	7.1034	7.1066	7.0242	8.5507	6.3972	-0.627	0.8709	-0.0665	1.2604	0.8931	3.6261	1.8843	4.4337
4.2247	5.3109	4.706	3.3284	6.2768	5.7321	5.5643	6.9166	7.2586	7.2871	7.2332	8.7565	6.6157	-0.6334	1.0197	0.0443	1.2636	1.0419	3.8161	1.9793	4.6332
4.2658	5.4218	4.7915	3.4203	6.4162	5.8588	5.7036	7.0971	7.4391	7.4866	7.4359	8.9529	6.831	-0.6397	1.1464	0.1837	1.2763	1.1844	4.0062	2.1092	4.801
4.3735	5.4914	4.9119	3.5184	6.5967	6.0171	5.8683	7.3092	7.6481	7.7146	7.6513	9.1809	7.0432	-0.6429	1.2731	0.2787	1.3111	1.3586	4.1962	2.22	4.9784
4.5034	5.6276	5.0449	3.68	6.774	6.1882	6.0235	7.5404	7.8761	7.9078	7.9015	9.3931	7.2966	-0.6587	1.3966	0.3927	1.3428	1.5011	4.4052	2.3404	5.2096
4.5952	5.7765	5.1747	3.7718	6.9609	6.375	6.1723	7.7526	8.0915	8.1358	8.1326	9.6433	7.5468	-0.7094	1.4948	0.4655	1.4124	1.6405	4.6332	2.4702	5.4154
4.7409	5.9443	5.3489	3.9016	7.2016	6.5745	6.3623	8.0123	8.3195	8.3892	8.405	9.9061	7.8128	-0.7316	1.5708	0.5447	1.4695	1.8178	4.8929	2.6032	5.6593
4.8486	6.1027	5.4661	3.984	7.4201	6.7709	6.5302	8.2245	8.5443	8.6014	8.652	10.1658	8.0788	-0.7664	1.6626	0.6334	1.5423	1.9762	5.1304	2.7109	5.8715
4.9816	6.2832	5.6244	4.1202	7.6228	6.9451	6.6885	8.4873	8.7977	8.8389	8.9085	10.4223	8.3543	-0.7981	1.6975	0.7189	1.6056	2.1662	5.3553	2.8692	6.0837
5.1082	6.4827	5.8113	4.2468	7.8603	7.1541	6.9007	8.7502	9.0321	9.0986	9.1746	10.7042	8.6267	-0.8329	1.8083	0.8804	1.6721	2.3372	5.5833	3.0276	6.3243
5.2919	6.679	5.9665	4.4147	8.0725	7.3726	7.0812	9.0226	9.2949	9.3424	9.4342	10.9797	8.9244	-0.8551	1.8621	1.0071	1.726	2.5114	5.8271	3.1859	6.5619
5.4123	6.907	6.1565	4.5509	8.3132	7.5784	7.2649	9.2822	9.5261	9.6053	9.7066	11.2489	9.2062	-0.8836	1.9192	1.1749	1.7893	2.714	6.0425	3.3506	6.8025
5.5833	7.1224	6.3085	4.7092	8.5475	7.7875	7.4581	9.5451	9.7826	9.8745	9.9378	11.5244	9.4659	-0.9342	2.011	1.3808	1.8621	2.8946	6.28	3.5184	7.0211
5.7226	7.3187	6.5017	4.8707	8.7692	7.9775	7.6513	9.7953	10.0423	10.112	10.1975	11.7493	9.7351	-0.9627	2.0838	1.5201	1.9287	3.0909	6.4668	3.699	7.2459
5.8398	7.5151	6.6505	5.0006	8.975	8.196	7.8476	10.0201	10.2988	10.3653	10.4318	12.0565	10.0138	-1.0071	2.1472	1.6816	2.011	3.2524	6.6537	3.8446	7.4359
5.9665	7.7019	6.7867	5.1652	9.1556	8.3892	8.0376	10.2228	10.511	10.606	10.6567	12.2781	10.2862	-1.0514	2.1947	1.84	2.1092	3.4361	6.8374	4.0125	7.6354
6.0995	7.8856	6.9514	5.3299	9.3804	8.5887	8.2498	10.4952	10.7929	10.8752	10.9037	12.5695	10.5712	-1.1021	2.2675	2.0078	2.2105	3.6325	6.9831	4.1962	7.854
6.2008	8.0345	7.0527	5.4534	9.5514	8.7312	8.4208	10.6788	10.9829	11.1	11.1	12.7785	10.7992	-1.1623	2.3182	2.1123	2.3245	3.775	7.0939	4.3323	8.006
6.2705	8.1516	7.1636	5.5738	9.6749	8.9117	8.6109	10.891	11.2426	11.3471	11.3154	13.0255	11.0462	-1.2224	2.4132	2.2548	2.4417	3.946	7.2111	4.5002	8.2055
6.4225	8.3005	7.3092	5.7353	9.8586	9.1112	8.8294	11.1032	11.4674	11.5909	11.5371	13.2852	11.2901	-1.2573	2.5272	2.3974	2.5272	4.1075	7.3156	4.6649	8.405
6.4922	8.3733	7.3916	5.8461	10.0011	9.2696	8.9845	11.2774	11.6733	11.8063	11.7303	13.5037	11.5181	-1.3238	2.6	2.5304	2.6317	4.2722	7.4011	4.82	8.557
6.5967	8.4398	7.4834	5.9696	10.131	9.4247	9.1556	11.4452	11.8728	12.0375	11.9203	13.6969	11.7429	-1.3586	2.6919	2.6285	2.7109	4.4084	7.4549	4.9689	8.7217
6.6695	8.5	7.5784	6.0868	10.207	9.5831	9.3582	11.5909	12.0533	12.2338	12.0881	13.8996	11.9551	-1.4188	2.7616	2.7457	2.8091	4.5604	7.5119	5.1082	8.8959
6.7424	8.5538	7.6639	6.2167	10.3052	9.7129	9.5071	11.7429	12.2686	12.4175	12.2686	14.1023	12.1325	-1.4568	2.8692	2.8344	2.8819	4.6744	7.5658	5.2254	9.0511
6.7994	8.5317	7.7146	6.3022	10.3432	9.8238	9.6148	11.8411	12.3763	12.56	12.37	14.2448	12.2876	-1.4885	2.9389	2.9199	2.9642	4.7409	7.5943	5.3078	9.1397
6.8215	8.538	7.7685	6.3845	10.4223	9.9061	9.7383	11.9456	12.5188	12.6962	12.4808	14.3683	12.3985	-1.5106	3.0497	3.0212	3.0181	4.8581	7.6608	5.3711	9.2569
6.8564	8.5222	7.8065	6.4827	10.4413	10.0043	9.8586	12.0216	12.6297	12.8007	12.5632	14.4887	12.4998	-1.5391	3.1131	3.1036	3.0719	4.9246	7.6798	5.4186	9.3519
6.8754	8.4968	7.8223	6.5777	10.4698	10.0676	9.9631	12.0945	12.712	12.8894	12.6392	14.571	12.5442	-1.5518	3.1828	3.1606	3.0972	4.9721	7.7019	5.4693	9.4628
6.8817	8.4493	7.8445	6.6474	10.4572	10.1278	10.0581	12.1293	12.7785	12.9749	12.7057	14.6438	12.617	-1.574	3.2714	3.2239	3.1162	5.0291	7.7494	5.5263	9.5356
6.8722	8.3923	7.835	6.7582	10.4667	10.1595	10.1373	12.161	12.8324	13.0002	12.7342	14.6723	12.6107	-1.5581	3.3316	3.2524	3.1004	5.0322	7.7463	5.5453	9.5483
6.8532	8.3258	7.8286	6.7994	10.4223	10.1658	10.1468	12.1451	12.8482	13.0034	12.7152	14.6438	12.5758	-1.5518	3.3601	3.2904	3.0941	5.0291	7.759	5.5579	9.5483
6.8342	8.2815	7.7938	6.8595	10.3875	10.1531	10.2038	12.142	12.8387	12.9939	12.7088	14.6122	12.5188	-1.5391	3.3664	3.2936	3.0592	5.0259	7.759	5.5643	9.5578
6.7582	8.196	7.7685	6.8659	10.34	10.1405	10.188	12.123	12.8165	12.9369	12.6645	14.5552	12.4713	-1.517	3.3633	3.2588	3.0181	4.9847	7.7399	5.5706	9.5514
6.7202	8.1231	7.7083	6.869	10.2703	10.1025	10.169	12.0723	12.7468	12.8609	12.6328	14.4918	12.3573	-1.498	3.3348	3.2081	2.9642	4.9341	7.7368	5.5706	9.4786
6.6569	8.0186	7.6513	6.8532	10.1943	10.0423	10.1088	12.0375	12.6962	12.7532	12.5283	14.3683	12.2338	-1.4663	3.3158	3.1479	2.9041	4.8802	7.7146	5.5104	9.4659
6.5682	7.9205	7.5689	6.793	10.0898	9.9695	10.0296	11.9361	12.6107	12.6233	12.4555	14.2575	12.0786	-1.4188	3.2271	3.0561	2.8281	4.8074	7.7051	5.4851	9.3836
6.4542	7.8413	7.4454	6.7297	10.0043	9.8618	9.9315	11.8506	12.4777	12.4745	12.3415	14.0928	11.8981	-1.4061	3.1321	2.9421	2.7742	4.6712	7.7019	5.4091	9.3202
6.3402	7.7241	7.3599	6.641	9.884	9.7478	9.8111	11.7524	12.3256	12.294	12.237	13.9344	11.7049	-1.3618	3.0212	2.7837	2.7172	4.5699	7.6608	5.3141	9.2347
6.2103	7.5531	7.1857	6.5112	9.7509	9.6021	9.6496	11.5973	12.1673	12.0565	12.0628	13.7508	11.4674	-1.3586	2.8407	2.5905	2.6919	4.4242	7.5911	5.1811	9.1017
6.0963	7.4106	7.0686	6.3782	9.6053	9.4818	9.4881	11.4927	11.9836	11.8664	11.9234	13.5354	11.2362	-1.3428	2.638	2.4069	2.657	4.2817	7.5436	5.0544	8.9909
5.9126	7.2617	6.8975	6.2072	9.4438	9.2886	9.2759	11.2932	11.7714	11.5814	11.7176	13.2916	10.9765	-1.3301	2.4575	2.2675	2.6444	4.0948	7.4518	4.8897	8.8579
5.767	7.0844	6.7075	6.0235	9.2727	9.1017	9.0542	11.1032	11.5117	11.2901	11.4927	13.0382	10.6725	-1.3333	2.2358	2.0807	2.638	3.9048	7.3504	4.7092	8.671
5.5928	6.9039	6.5112	5.805	9.0701	8.8642	8.8104	10.9069	11.2521	11.0177	11.2552	12.7532	10.359	-1.3111	2.049	1.9318	2.6159	3.7021	7.2079	4.5572	8.4873
5.3933	6.7234	6.2958	5.5833	8.8547	8.6362	8.5222	10.6788	10.9829	10.6979	11.0114	12.4713	10.0581	-1.3174	1.8431	1.7481	2.6159	3.4868	7.0559	4.3513	8.291
5.1906	6.4922	6.0425	5.2951	8.5665	8.348	8.2403	10.4097	10.6725	10.3527	10.7105	12.1166	9.7066	-1.3174	1.6278	1.5866	2.619	3.2746	6.8627	4.136	8.0503
4.9942	6.2832	5.8113	5.0354	8.348	8.0946	7.9616	10.1341	10.3622	9.9916	10.4065	11.7936	9.3867	-1.3016	1.4695	1.4124	2.5969	3.0497	6.6632	3.9618	7.8255
4.7567	6.0235	5.5326	4.7029	8.0408	7.797	7.6164	9.8301	10.0043	9.6243	10.0803	11.4262	9.0194	-1.3016	1.2826	1.2414	2.5937	2.7806	6.4257	3.7085	7.5594
4.516	5.7891	5.2381	4.3957	7.7431	7.4866	7.2839	9.5039	9.6496	9.2252	9.7351	11.0399	8.6615	-1.2921	1.0831	1.0324	2.5747	2.5399	6.1945	3.4804	7.2839
4.2563	5.5136	4.9372	4.06	7.4581	7.1509	6.9324	9.2126	9.2791	8.8579	9.4089	10.6757	8.3037	-1.2794	0.9532	0.8962	2.5462	2.2897	5.9601	3.2524	7.0147
3.984	5.2159	4.6269	3.68	7.1319	6.8057	6.5524	8.8642	8.8705	8.481	9.0384	10.302	7.9363	-1.2794	0.8202	0.7284	2.5462	2.0585	5.71	3.0276	6.7519
3.6926	4.9436	4.326	3.3284	6.8247	6.4542	6.204	8.5348	8.4842	8.0978	8.6932	9.9251	7.5879	-1.2699	0.7252	0.5922	2.524	1.8115	5.4534	2.8027	6.4858
3.4424	4.6585	3.9713	2.9167	6.4985	6.1185	5.8398	8.2118	8.12	7.7241	8.3575	9.5451	7.2554	-1.2699	0.6746	0.5035	2.5114	1.5455	5.2127	2.5557	6.2135
3.1416	4.3292	3.6578	2.543	6.1438	5.7796	5.4851	7.8318	7.7241	7.3282	7.9901	9.1334	6.9292	-1.2668	0.6334	0.3515	2.524	1.3364	4.9467	2.3214	5.9095
2.8597	4.06	3.3538	2.1535	5.843	5.4661	5.1336	7.5309	7.3631	6.9799	7.6734	8.7882	6.6379	-1.2604	0.6112	0.2914	2.5082	1.1179	4.7092	2.106	5.6783
2.6	3.7528	3.0307	1.7608	5.5453	5.1367	4.7694	7.1952	6.9862	6.6347	7.3377	8.4335	6.3275	-1.2731	0.5985	0.19	2.524	0.9184	4.4875	1.878	5.4313
2.3055	3.4868	2.7299	1.4156	5.2476	4.8264	4.4179	6.9166	6.6474	6.3212	7.0559	8.0851	6.0837	-1.2604	0.6239	0.095	2.5082	0.7126	4.2785	1.6595	5.2159
2.0458	3.2113	2.4354	1.0894	4.9689	4.5097	4.1075	6.6189	6.3275	6.0361	6.7392	7.7938	5.8303	-1.2763	0.6461	0.0158	2.5304	0.5257	4.0758	1.4441	4.9974
1.7988	2.9452	2.163	0.7442	4.6807	4.2247	3.8066	6.337	5.9981	5.7543	6.489	7.4771	5.5864	-1.2763	0.6492	-0.0665	2.5557	0.3484	3.9111	1.2288	4.7725
1.5455	2.6919	1.8843	0.4434	4.4464	3.9713	3.5374	6.0868	5.7068	5.4946	6.2325	7.2269	5.3774	-1.2858	0.6746	-0.1235	2.5589	0.209	3.794	1.0419	4.6174
1.3143	2.4765	1.6341	0.1837	4.2152	3.6958	3.2714	5.8556	5.4439	5.2761	6.0361	6.9799	5.1874	-1.2826	0.6904	-0.1805	2.5462	0.0665	3.6926	0.8804	4.4432
1.0989	2.2327	1.4029	-0.076	3.984	3.4804	3.0434	5.6498	5.1969	5.0481	5.824	6.7519	5.0322	-1.2889	0.6936	-0.228	2.5494	-0.0602	3.5818	0.7094	4.3165
0.9406	2.0712	1.2446	-0.2819	3.8161	3.3126	2.8534	5.4693	5.0101	4.8992	5.6783	6.565	4.9087	-1.2668	0.6714	-0.2819	2.524	-0.152	3.5279	0.5732	4.1867
0.7917	1.9223	1.1021	-0.4497	3.6958	3.1511	2.7014	5.3331	4.8232	4.7599	5.5516	6.4162	4.801	-1.2604	0.6809	-0.2692	2.5114	-0.2249	3.4298	0.4275	4.079
0.6651	1.7545	0.9437	-0.608	3.5248	3.0212	2.5525	5.2032	4.6649	4.6332	5.4154	6.2895	4.706	-1.2541	0.6841	-0.2122	2.505	-0.2977	3.3443	0.3325	3.9681
0.589	1.65	0.8614	-0.7252	3.4298	2.9452	2.4512	5.1114	4.554	4.5604	5.3363	6.204	4.6649	-1.2383	0.7379	-0.1773	2.4639	-0.3262	3.2968	0.2502	3.9175
0.5637	1.612	0.8139	-0.7949	3.3664	2.8946	2.3689	5.0417	4.5002	4.4939	5.2856	6.1407	4.6554	-1.2193	0.7854	-0.038	2.4385	-0.3389	3.2113	0.209	3.8446
0.513	1.5581	0.7854	-0.8677	3.2841	2.8566	2.3277	4.9531	4.4337	4.4654	5.2476	6.1185	4.63	-1.2256	0.8234	0.1077	2.4354	-0.3705	3.1289	0.1615	3.7781
0.5067	1.5391	0.7696	-0.8772	3.2904	2.8724	2.277	4.9404	4.421	4.4654	5.2476	6.128	4.649	-1.2193	0.9026	0.2724	2.4164	-0.3642	3.0719	0.1488	3.737
0.5067	1.5296	0.7854	-0.9089	3.2778	2.9167	2.2802	4.9562	4.44	4.4875	5.2444	6.1597	4.687	-1.2383	0.9279	0.4402	2.4417	-0.3262	2.9864	0.1425	3.7306
0.57	1.5708	0.8614	-0.8741	3.2873	2.9832	2.2802	4.9942	4.5002	4.5287	5.2698	6.2135	4.7535	-1.2478	0.9881	0.6461	2.4639	-0.3072	2.9452	0.1552	3.7116
0.6175	1.6088	0.9057	-0.8361	3.3348	3.0592	2.3309	5.0322	4.554	4.5604	5.3426	6.3148	4.82	-1.2604	1.0292	0.8551	2.4955	-0.2755	2.8756	0.1963	3.7338
0.7062	1.6721	0.9881	-0.7886	3.4108	3.1384	2.3625	5.0766	4.6269	4.6332	5.4281	6.3813	4.9341	-1.2858	1.0578	0.9849	2.543	-0.209	2.8344	0.1995	3.7686
0.8012	1.7418	1.1148	-0.7062	3.4614	3.2746	2.4639	5.1779	4.7567	4.725	5.5389	6.5334	5.0417	-1.3048	1.0387	1.1243	2.5905	-0.1457	2.7806	0.2502	3.8351
0.8867	1.7925	1.2034	-0.5985	3.5311	3.3918	2.5399	5.2761	4.8739	4.8391	5.6466	6.6695	5.1716	-1.3428	1.0007	1.2003	2.6665	-0.0602	2.7457	0.3199	3.8985
0.9691	1.878	1.3238	-0.4877	3.5881	3.5121	2.6475	5.3553	4.9911	4.9626	5.7416	6.8152	5.3109	-1.3903	0.9247	1.2034	2.7299	0.0158	2.7267	0.3737	3.9808
1.0831	1.935	1.4314	-0.3547	3.6863	3.6388	2.7457	5.4503	5.1082	5.0639	5.8683	6.9546	5.4439	-1.4124	0.8646	1.2098	2.7964	0.1267	2.676	0.4434	4.041
1.1401	1.9952	1.5423	-0.2344	3.7528	3.7433	2.8629	5.5263	5.2413	5.1747	5.9823	7.0622	5.5674	-1.4314	0.7284	1.1369	2.8312	0.2344	2.6475	0.5162	4.1233
1.2383	2.0585	1.6595	-0.0538	3.8351	3.8636	2.9832	5.6149	5.3584	5.2539	6.0551	7.1509	5.6783	-1.4441	0.6556	1.0419	2.8692	0.3547	2.6349	0.627	4.1835
1.3206	2.1155	1.7798	0.0728	3.9175	3.9872	3.1352	5.7353	5.4978	5.3996	6.1882	7.3061	5.8113	-1.4536	0.5035	0.9279	2.8692	0.475	2.638	0.7506	4.269
1.3428	2.1535	1.8685	0.2407	3.9776	4.0948	3.2714	5.8113	5.6086	5.5073	6.2895	7.4169	5.9475	-1.4441	0.323	0.7696	2.8566	0.6017	2.6222	0.8582	4.3513
1.4346	2.2168	1.9698	0.4149	4.0442	4.2088	3.4013	5.8873	5.7163	5.6086	6.3623	7.5088	6.071	-1.4219	0.171	0.6207	2.8186	0.7474	2.6254	1.0007	4.4084
1.4599	2.2422	2.0712	0.5574	4.098	4.3007	3.5311	5.9696	5.8208	5.71	6.4383	7.5753	6.1628	-1.3871	-0.0285	0.4212	2.7647	0.8646	2.6444	1.0989	4.4622
1.4948	2.2802	2.1472	0.7031	4.1645	4.4052	3.6546	6.0235	5.9095	5.8176	6.508	7.6354	6.2483	-1.3713	-0.2154	0.2629	2.7362	1.0007	2.6824	1.2288	4.5192
1.5201	2.2802	2.2263	0.8772	4.2183	4.4749	3.7971	6.0868	6.0235	5.9095	6.5492	7.7114	6.3338	-1.3333	-0.3705	0.1077	2.6539	1.1306	2.6982	1.3586	4.5857
1.5645	2.3277	2.3119	1.0261	4.2817	4.5635	3.9365	6.185	6.0963	6.0361	6.603	7.759	6.4225	-1.3143	-0.5352	-0.0633	2.5874	1.2288	2.7647	1.4853	4.6174
1.5613	2.3245	2.4164	1.1844	4.3165	4.6585	4.06	6.2357	6.1692	6.1122	6.6474	7.816	6.4827	-1.2668	-0.6746	-0.247	2.5177	1.3396	2.8091	1.5866	4.6585
1.5898	2.3499	2.4892	1.3174	4.3957	4.7409	4.1613	6.3117	6.2452	6.1882	6.679	7.8571	6.5555	-1.2256	-0.8171	-0.3927	2.4385	1.4441	2.8534	1.6816	4.6965
1.593	2.353	2.5652	1.4504	4.4115	4.8042	4.2753	6.3655	6.3085	6.2515	6.698	7.8635	6.584	-1.1971	-0.9374	-0.5922	2.3752	1.5233	2.9294	1.7671	4.7124
1.6088	2.3625	2.6127	1.5581	4.4622	4.8771	4.3798	6.4035	6.3623	6.3338	6.7424	7.9173	6.6062	-1.1559	-0.9944	-0.7474	2.2928	1.6025	2.9611	1.8336	4.7377
1.6658	2.353	2.714	1.6943	4.5065	4.9689	4.5002	6.489	6.4288	6.4035	6.7487	7.9331	6.6347	-1.1243	-1.0261	-0.8962	2.22	1.6436	3.0497	1.9223	4.7409
1.7006	2.3784	2.7616	1.7988	4.5572	5.0101	4.592	6.5144	6.4922	6.4447	6.7329	7.93	6.6252	-1.0768	-1.0229	-1.0102	2.1408	1.688	3.0719	1.973	4.7187
1.7386	2.372	2.8281	1.8938	4.5984	5.0671	4.706	6.5397	6.508	6.4668	6.7234	7.9015	6.622	-1.0419	-1.0451	-1.1274	2.0648	1.7323	3.1194	2.0427	4.706
1.7735	2.372	2.9009	2.0047	4.611	5.1399	4.782	6.5745	6.5365	6.5207	6.6822	7.873	6.6189	-0.9849	-0.9944	-1.2098	1.9762	1.7608	3.1131	2.087	4.6744
1.7893	2.3594	2.9642	2.0965	4.6427	5.1684	4.8391	6.5745	6.5429	6.5144	6.6157	7.8413	6.5587	-0.9532	-1.0071	-1.2636	1.8938	1.7513	3.1004	2.0965	4.6205
1.8495	2.3879	3.0117	2.1567	4.6427	5.1811	4.8802	6.565	6.5302	6.508	6.5682	7.7938	6.508	-0.9057	-0.9406	-1.3079	1.8051	1.7576	3.0751	2.1218	4.516
1.8907	2.4037	3.0434	2.2263	4.6459	5.2317	4.9341	6.5429	6.5207	6.5175	6.4573	7.7209	6.451	-0.8519	-0.9152	-1.2984	1.6816	1.7355	3.0054	2.1377	4.4242
1.9413	2.4069	3.1067	2.3119	4.6775	5.2349	4.9689	6.5239	6.4922	6.4922	6.3972	7.6418	6.356	-0.7791	-0.8582	-1.2541	1.5613	1.7513	2.9547	2.144	4.3038
1.992	2.448	3.1574	2.3435	4.687	5.2381	5.0132	6.5017	6.4605	6.4763	6.2863	7.5563	6.2705	-0.7284	-0.7632	-1.2034	1.4409	1.6975	2.8597	2.1377	4.1835
2.0712	2.486	3.1796	2.391	4.6775	5.2508	5.0164	6.4542	6.4478	6.4193	6.1723	7.4549	6.185	-0.6619	-0.6809	-1.1338	1.3143	1.6563	2.8027	2.1377	4.0727
2.1092	2.5145	3.2176	2.4132	4.6712	5.1937	4.9911	6.3845	6.3813	6.3465	6.0456	7.3504	6.0583	-0.6017	-0.5637	-1.0514	1.2098	1.5898	2.714	2.1218	3.9175
2.1282	2.5525	3.1954	2.3657	4.6459	5.1747	4.9879	6.3117	6.3085	6.2642	5.8968	7.2111	5.9316	-0.5479	-0.475	-0.9944	1.1021	1.5265	2.6159	2.1155	3.756
2.1915	2.5874	3.2049	2.3752	4.6395	5.1494	4.9436	6.242	6.2357	6.1913	5.7828	7.1192	5.7828	-0.5099	-0.361	-0.8994	1.0039	1.4409	2.5462	2.087	3.6103
2.1883	2.638	3.1828	2.296	4.6174	5.0797	4.8707	6.1407	6.1248	6.0615	5.6466	6.9451	5.6498	-0.4782	-0.2724	-0.8646	0.9532	1.3523	2.4575	2.0427	3.4836
2.2168	2.6887	3.1733	2.2453	4.6142	5.0132	4.8042	6.09	6.0298	5.9696	5.5009	6.85	5.4914	-0.4465	-0.1805	-0.7569	0.8962	1.2351	2.3847	2.0078	3.3696
2.2358	2.7616	3.1511	2.1472	4.5857	4.9594	4.7155	6.014	5.9506	5.8335	5.3996	6.7392	5.3489	-0.4275	-0.1362	-0.7094	0.8677	1.1369	2.3245	1.9635	3.2556
2.2548	2.8312	3.1036	2.03	4.5889	4.9024	4.6364	5.9665	5.881	5.7385	5.2856	6.622	5.1969	-0.4307	-0.1172	-0.6366	0.8456	1.0324	2.3055	1.8907	3.1669
2.277	2.8977	3.1004	1.916	4.6079	4.8105	4.5224	5.8905	5.8113	5.6339	5.2032	6.5429	5.0671	-0.4212	-0.1045	-0.5289	0.8297	0.9406	2.277	1.84	3.0814
2.3023	2.9389	3.0592	1.8051	4.5794	4.7345	4.383	5.843	5.7005	5.4978	5.0987	6.4383	4.9182	-0.4244	-0.114	-0.4275	0.8424	0.8392	2.2548	1.7735	2.9991
2.315	3.0244	3.0117	1.6816	4.5984	4.6522	4.2817	5.7986	5.6086	5.3869	5.0322	6.3623	4.7947	-0.4244	-0.1488	-0.3389	0.8456	0.7696	2.2992	1.7133	2.9452
2.3182	3.0782	2.9547	1.5455	4.6174	4.5509	4.136	5.748	5.5358	5.2571	4.9531	6.2673	4.6807	-0.4402	-0.1742	-0.2122	0.8646	0.6967	2.3309	1.6531	2.9389
2.2643	3.1416	2.8819	1.4251	4.6142	4.4749	4.0157	5.7131	5.4598	5.1526	4.8961	6.2198	4.5477	-0.4465	-0.2249	-0.1172	0.8741	0.6302	2.3499	1.6088	2.9041
2.2643	3.2049	2.7869	1.2889	4.6047	4.3957	3.889	5.6846	5.3743	5.0576	4.8422	6.1185	4.44	-0.4275	-0.266	0.0095	0.8804	0.5795	2.391	1.5581	2.8597
2.2485	3.2493	2.7426	1.1876	4.63	4.3165	3.775	5.6751	5.3141	4.9657	4.82	6.0963	4.364	-0.437	-0.3072	0.1045	0.8804	0.5605	2.448	1.5391	2.8977
2.2295	3.2809	2.695	1.0736	4.6205	4.2468	3.6673	5.6434	5.2508	4.8866	4.8137	6.0361	4.269	-0.437	-0.3357	0.1995	0.8741	0.5289	2.5177	1.5613	2.9041
2.2168	3.3126	2.5779	0.9532	4.6205	4.155	3.5533	5.6371	5.1906	4.8422	4.7979	5.995	4.2152	-0.4307	-0.3832	0.2819	0.8551	0.5352	2.6064	1.5961	2.9579
2.163	3.3316	2.5019	0.8297	4.6015	4.0822	3.4646	5.6118	5.1241	4.7599	4.7567	5.9443	4.1613	-0.4339	-0.456	0.3135	0.8519	0.5352	2.6634	1.6056	2.9737
2.1123	3.3284	2.4322	0.7316	4.5889	3.984	3.3633	5.6149	5.0671	4.7092	4.7535	5.9221	4.1043	-0.4149	-0.4814	0.3452	0.8361	0.5669	2.7299	1.6468	3.0402
2.087	3.3759	2.3974	0.6809	4.611	3.9333	3.3284	5.6213	5.0354	4.6775	4.7599	5.919	4.079	-0.4117	-0.5289	0.3674	0.8171	0.5922	2.8312	1.6785	3.0846
2.0775	3.3601	2.3087	0.6397	4.5984	3.8573	3.2619	5.6181	4.9721	4.6649	4.782	5.8968	4.079	-0.4022	-0.5922	0.323	0.8044	0.6334	2.9231	1.726	3.1131
2.0363	3.3474	2.2675	0.6049	4.592	3.8098	3.2651	5.6529	4.9562	4.6775	4.8264	5.8968	4.0917	-0.3927	-0.6682	0.2882	0.7822	0.6841	3.0909	1.7861	3.2176
2.0142	3.3759	2.2358	0.5922	4.63	3.7971	3.2461	5.6941	4.9689	4.6934	4.9087	5.9633	4.1297	-0.3674	-0.7189	0.247	0.7537	0.7664	3.2208	1.8495	3.3189
1.9888	3.3918	2.2295	0.5764	4.6744	3.794	3.2588	5.7511	4.9531	4.7409	4.9689	5.9823	4.1867	-0.3674	-0.7537	0.1583	0.7474	0.8392	3.3664	1.9223	3.4234
2.0078	3.4234	2.2327	0.6397	4.7345	3.813	3.3126	5.8461	5.0481	4.8137	5.0576	6.0615	4.2817	-0.342	-0.7664	0.1108	0.6999	0.9564	3.5343	2.0173	3.5818
1.9825	3.4298	2.2548	0.6904	4.7757	3.8446	3.3791	5.9158	5.0702	4.8929	5.1399	6.1343	4.3735	-0.3294	-0.7664	0.0222	0.6682	1.0673	3.6578	2.0838	3.7021
1.973	3.4424	2.258	0.7442	4.8296	3.889	3.4488	5.9696	5.1146	4.9657	5.2349	6.1913	4.4749	-0.3072	-0.7506	-0.0918	0.627	1.1623	3.7876	2.1915	3.8098
1.9793	3.4551	2.296	0.8234	4.8802	3.9333	3.5311	6.0551	5.1906	5.0956	5.3204	6.2863	4.5762	-0.2977	-0.7981	-0.2755	0.5827	1.3048	3.8858	2.2738	3.9428
2.0047	3.4899	2.3372	0.9564	4.9246	3.9776	3.6325	6.109	5.2729	5.2032	5.4091	6.3687	4.6997	-0.266	-0.7759	-0.3927	0.5257	1.4314	3.9745	2.3847	4.0283
2.0173	3.5121	2.4005	1.0799	4.9499	4.0473	3.775	6.1692	5.3363	5.2919	5.4819	6.4478	4.8105	-0.2375	-0.7601	-0.5352	0.4624	1.6056	4.0315	2.4892	4.1392
2.03	3.4994	2.4417	1.2003	4.9784	4.1012	3.8636	6.204	5.3838	5.3774	5.5041	6.4573	4.9404	-0.2122	-0.7252	-0.6872	0.4244	1.7133	4.0473	2.6095	4.1993
2.0427	3.4899	2.4797	1.3206	4.9942	4.155	3.946	6.2167	5.4313	5.4756	5.5326	6.5239	5.0322	-0.1868	-0.6936	-0.8646	0.3674	1.8495	4.0505	2.714	4.2468
2.0648	3.4804	2.524	1.4504	4.9911	4.1898	4.0537	6.223	5.4851	5.5358	5.5643	6.546	5.1462	-0.1488	-0.6714	-1.0134	0.323	1.9667	4.0093	2.8059	4.2753
2.0553	3.4488	2.562	1.5993	5.0037	4.231	4.1645	6.2262	5.5231	5.6339	5.5643	6.5745	5.2096	-0.1362	-0.5447	-1.1338	0.2914	2.087	3.9618	2.9072	4.2848
2.0427	3.4013	2.5715	1.6848	4.9657	4.25	4.25	6.204	5.5294	5.691	5.5294	6.565	5.2698	-0.1298	-0.475	-1.2509	0.2755	2.1788	3.9175	3.0086	4.2722
2.0332	3.3474	2.6	1.7703	4.9436	4.25	4.3133	6.1755	5.5358	5.7448	5.4819	6.5334	5.3331	-0.1457	-0.3357	-1.3206	0.2787	2.2643	3.832	3.0561	4.2627
2.0078	3.3031	2.6285	1.8653	4.9214	4.2722	4.3925	6.1217	5.5358	5.7733	5.4756	6.5397	5.3964	-0.1488	-0.1837	-1.3998	0.3104	2.3499	3.7686	3.1384	4.2278
2.0142	3.2493	2.6507	1.9508	4.8486	4.2753	4.4084	6.071	5.5263	5.7955	5.3806	6.4668	5.4408	-0.1868	-0.057	-1.4631	0.3927	2.4227	3.6483	3.2081	4.1645
1.9825	3.1986	2.6349	2.011	4.8169	4.2437	4.4622	6.0425	5.5168	5.7891	5.3363	6.432	5.4566	-0.228	0.1362	-1.498	0.4624	2.4607	3.5786	3.2271	4.1075
1.9445	3.1543	2.6602	2.0648	4.7757	4.2627	4.4844	6.0045	5.5136	5.8366	5.2698	6.3813	5.4724	-0.2755	0.2755	-1.5328	0.5542	2.5145	3.4646	3.2556	4.06
1.9255	3.1162	2.6665	2.1313	4.725	4.2532	4.5002	5.9411	5.4756	5.8081	5.2127	6.3275	5.4914	-0.3262	0.4149	-1.555	0.6524	2.543	3.3918	3.2714	4.0125
1.916	3.0846	2.6539	2.201	4.6965	4.2595	4.5509	5.9031	5.4503	5.8335	5.1526	6.2673	5.4978	-0.361	0.5194	-1.5233	0.7284	2.5874	3.3126	3.3031	3.927
1.9065	3.0529	2.6887	2.2707	4.6839	4.2658	4.592	5.8715	5.4661	5.8461	5.1051	6.2262	5.5041	-0.4085	0.5859	-1.4378	0.8266	2.6317	3.2239	3.3126	3.8763
1.9223	3.0339	2.6855	2.3214	4.687	4.2437	4.611	5.8208	5.4408	5.8398	5.0607	6.1628	5.4756	-0.4529	0.6144	-1.3016	0.9057	2.6222	3.1796	3.3379	3.8066
1.9382	3.0371	2.7647	2.4354	4.6965	4.2722	4.6332	5.8113	5.4471	5.8398	5.0132	6.128	5.5009	-0.4909	0.6207	-1.1464	0.9691	2.6285	3.1701	3.3664	3.7401
1.9603	3.0561	2.7806	2.4702	4.7029	4.2943	4.6712	5.8113	5.4408	5.8398	4.9879	6.0837	5.4788	-0.5099	0.6144	-0.9374	1.0229	2.6159	3.1194	3.3759	3.661
2.0427	3.1004	2.8439	2.5684	4.7155	4.3292	4.7314	5.7986	5.4503	5.8651	4.9246	6.0425	5.4661	-0.5289	0.5827	-0.7157	1.0578	2.6159	3.1194	3.4234	3.5818
2.1408	3.1384	2.9072	2.6792	4.7599	4.383	4.7979	5.805	5.5041	5.9253	4.9024	6.0266	5.4439	-0.5225	0.5605	-0.4212	1.0704	2.6127	3.0814	3.4709	3.4931
2.2485	3.2144	3.0117	2.7711	4.8327	4.4844	4.8739	5.824	5.5548	5.9221	4.8866	6.014	5.4249	-0.5225	0.5035	-0.1742	1.0641	2.6285	3.0814	3.5089	3.4329
2.3657	3.2873	3.1067	2.8787	4.8644	4.5382	4.9531	5.8398	5.6054	5.9791	4.8612	5.9855	5.4059	-0.5162	0.4845	0.057	1.0546	2.6032	3.1036	3.5723	3.3316
2.4892	3.3728	3.2239	3.0086	4.9404	4.6237	5.0164	5.9	5.6815	6.0045	4.8549	6.0045	5.3933	-0.5162	0.4497	0.3009	1.0324	2.5779	3.0941	3.642	3.2524
2.6792	3.4994	3.3506	3.1574	5.0734	4.7345	5.1494	5.9506	5.7575	6.0868	4.8549	6.0266	5.3869	-0.475	0.4085	0.5637	0.9786	2.5842	3.0941	3.6926	3.2018
2.8471	3.6293	3.5026	3.3158	5.1652	4.8739	5.2508	6.0108	5.8841	6.1438	4.8707	6.071	5.3964	-0.4497	0.4054	0.7632	0.9057	2.5367	3.1194	3.7813	3.1321
3.0529	3.7465	3.6483	3.4488	5.3014	5.0322	5.3616	6.1217	5.9918	6.2293	4.9151	6.128	5.4059	-0.4149	0.361	0.9564	0.8297	2.5589	3.1289	3.8161	3.0877
3.2746	3.9143	3.8415	3.6451	5.4629	5.2286	5.5294	6.2103	6.1565	6.3623	4.9689	6.1945	5.4408	-0.3515	0.3737	1.1369	0.6967	2.5589	3.1511	3.9333	3.0466
3.4836	4.0505	4.0188	3.7876	5.5991	5.3711	5.6498	6.3053	6.2768	6.4257	5.0101	6.299	5.4693	-0.2819	0.3737	1.2604	0.5859	2.5462	3.1511	3.984	3.0212
3.7021	4.2437	4.231	3.9238	5.7606	5.5611	5.7891	6.4352	6.451	6.5334	5.0956	6.4003	5.5104	-0.2217	0.3769	1.3649	0.4465	2.5494	3.1859	4.079	3.0181
3.9111	4.4305	4.4527	4.0948	5.9348	5.7638	5.919	6.5587	6.6537	6.6315	5.1969	6.4953	5.5579	-0.1488	0.399	1.4631	0.2977	2.5684	3.2049	4.1487	3.0371
4.1202	4.5889	4.6459	4.2373	6.1058	5.9506	6.0393	6.6695	6.7962	6.7265	5.2539	6.6157	5.5516	-0.0665	0.3705	1.5011	0.1552	2.5747	3.2018	4.1835	3.0276
4.3672	4.7694	4.8612	4.3798	6.2642	6.1628	6.1597	6.812	6.9736	6.8215	5.3299	6.7202	5.5864	-0.0095	0.3927	1.5043	0.019	2.5715	3.2049	4.2247	3.0402
4.554	4.9594	5.0512	4.4749	6.4288	6.3085	6.2642	6.9356	7.0939	6.9007	5.4249	6.8057	5.6118	0.0665	0.4022	1.4916	-0.1235	2.543	3.2176	4.2753	3.0877
4.6902	5.0956	5.2096	4.5604	6.5334	6.4478	6.3338	7.0211	7.2206	6.9229	5.4851	6.8437	5.5769	0.133	0.4022	1.4441	-0.247	2.5114	3.2081	4.2627	3.0751
4.8612	5.2571	5.3679	4.6427	6.6949	6.5745	6.3718	7.1192	7.3061	6.9609	5.5104	6.9324	5.5358	0.2058	0.3927	1.4061	-0.3769	2.4639	3.2049	4.2437	3.0751
4.9816	5.3711	5.4946	4.6712	6.7392	6.6664	6.4067	7.1446	7.3821	6.9736	5.5453	6.9166	5.5009	0.2597	0.38	1.3459	-0.4877	2.4227	3.1986	4.231	3.0656
5.1051	5.4978	5.6181	4.7472	6.8564	6.7804	6.4352	7.1889	7.4328	6.9672	5.5326	6.9324	5.4281	0.3199	0.38	1.3174	-0.608	2.3594	3.2144	4.2152	3.0276
5.1937	5.5959	5.7163	4.7947	6.9039	6.8437	6.4542	7.2332	7.4993	6.9261	5.5294	6.9261	5.3489	0.3737	0.3674	1.2889	-0.7157	2.2992	3.2018	4.136	3.0054
5.2571	5.6498	5.8018	4.7947	6.9102	6.8722	6.4193	7.2142	7.5024	6.8627	5.5073	6.9134	5.2761	0.418	0.3484	1.2668	-0.8139	2.2295	3.2176	4.1075	2.9706
5.3046	5.7005	5.8651	4.7789	6.9672	6.9134	6.4067	7.2301	7.4866	6.7994	5.4756	6.8975	5.1494	0.4814	0.323	1.2921	-0.9184	2.144	3.2113	4.0505	2.9167
5.3648	5.7575	5.919	4.7884	6.9767	6.9261	6.3623	7.2111	7.5056	6.7139	5.4344	6.8564	5.0417	0.5257	0.3452	1.3713	-1.0261	2.1028	3.2398	4.0125	2.9072
5.4344	5.8018	5.9791	4.8105	7.0052	6.9672	6.3592	7.2111	7.5024	6.66	5.4186	6.8374	4.9784	0.5764	0.361	1.4916	-1.1148	2.03	3.2746	3.9428	2.9167
5.4693	5.8493	6.0361	4.8391	7.0147	6.9862	6.3243	7.2364	7.4898	6.5872	5.4123	6.8184	4.9309	0.6112	0.456	1.631	-1.2098	2.0015	3.2999	3.8858	2.9326
5.5263	5.9158	6.0868	4.8834	7.0527	6.9926	6.3053	7.2617	7.5056	6.5809	5.4313	6.8089	4.8739	0.6682	0.5447	1.8051	-1.2921	1.9762	3.3633	3.851	2.9452
5.5896	5.9665	6.1438	4.8834	7.1161	7.0242	6.2547	7.2966	7.4929	6.5207	5.4344	6.8025	4.8296	0.6841	0.6429	1.954	-1.3428	1.9603	3.4393	3.8066	3.0244
5.6339	6.0266	6.185	4.8866	7.1161	7.0622	6.2578	7.3346	7.5309	6.4953	5.4788	6.8215	4.8137	0.6967	0.7981	2.1313	-1.3871	1.9318	3.5216	3.8066	3.0687
5.6561	6.0678	6.2072	4.9056	7.1256	7.0464	6.2262	7.3473	7.5278	6.4573	5.5326	6.8469	4.7979	0.7221	0.9184	2.2485	-1.4188	1.9192	3.642	3.8003	3.1384
5.7321	6.1185	6.242	4.9214	7.1572	7.0907	6.2008	7.3853	7.5658	6.4637	5.5833	6.8785	4.8105	0.7411	1.0482	2.334	-1.4251	1.954	3.7401	3.8066	3.2176
5.729	6.1723	6.2705	4.9214	7.1952	7.1097	6.1977	7.4138	7.5721	6.4352	5.6308	6.9261	4.8391	0.7284	1.2034	2.3879	-1.4188	1.9635	3.8288	3.794	3.3126
5.7131	6.2008	6.261	4.8866	7.1984	7.0939	6.1312	7.4296	7.5404	6.4225	5.6815	6.9324	4.8105	0.7126	1.2858	2.372	-1.3871	1.9762	3.8985	3.7845	3.4108
5.7005	6.185	6.223	4.8391	7.1699	7.0654	6.1027	7.4011	7.5436	6.3908	5.7163	6.9546	4.8169	0.6936	1.3998	2.2992	-1.3459	1.9698	3.9776	3.7845	3.4899
5.6751	6.1787	6.1818	4.8105	7.1509	7.0116	6.0393	7.4011	7.5151	6.3465	5.7068	6.9482	4.8137	0.6492	1.4726	2.1187	-1.2573	1.9667	4.022	3.7528	3.5628
5.6149	6.1407	6.1533	4.782	7.1066	6.9577	5.995	7.3916	7.4454	6.318	5.7258	6.9229	4.8169	0.6144	1.5423	1.9128	-1.1876	1.992	4.0442	3.7243	3.6451
5.5548	6.0805	6.0551	4.7029	7.0591	6.8785	5.8905	7.3314	7.3789	6.2547	5.7036	6.8912	4.82	0.5669	1.5961	1.6341	-1.0863	2.011	4.0632	3.6736	3.68
5.4534	6.033	5.9823	4.649	6.9989	6.7994	5.8271	7.2839	7.3219	6.2452	5.7036	6.8564	4.7757	0.5067	1.6246	1.3744	-0.9786	1.992	4.0695	3.6388	3.7528
5.3584	5.9316	5.843	4.5699	6.9007	6.6949	5.7353	7.1984	7.2522	6.1692	5.6593	6.8247	4.7504	0.4307	1.631	1.0482	-0.8329	1.9667	4.0157	3.5596	3.7845
5.2317	5.8145	5.7258	4.4875	6.7962	6.5777	5.6529	7.1192	7.1541	6.1185	5.6308	6.7677	4.7155	0.3484	1.6278	0.7411	-0.6651	1.973	3.9872	3.5153	3.8035
5.0892	5.6846	5.5769	4.3545	6.6917	6.4478	5.5611	7.0242	7.0464	6.0235	5.5801	6.698	4.687	0.2597	1.593	0.437	-0.5067	1.9698	3.946	3.4171	3.8478
4.9277	5.5548	5.4218	4.2373	6.5714	6.3212	5.4598	6.9419	6.9419	5.9855	5.5674	6.6157	4.7029	0.1805	1.5138	0.1235	-0.323	1.9888	3.9175	3.3728	3.8858
4.7504	5.4154	5.2603	4.1107	6.4637	6.1692	5.3426	6.85	6.8279	5.9031	5.5073	6.584	4.6617	0.0823	1.3998	-0.1488	-0.133	1.9508	3.8858	3.3189	3.9143
4.5952	5.2539	5.0766	3.9808	6.337	6.0456	5.2476	6.774	6.7297	5.8366	5.4724	6.5144	4.6775	-0.0127	1.2984	-0.3959	0.0348	1.9382	3.8636	3.2239	3.9365
4.4115	5.0639	4.9151	3.8161	6.1818	5.9031	5.1494	6.6759	6.6664	5.786	5.4344	6.47	4.6522	-0.0982	1.1369	-0.627	0.2185	1.9477	3.8256	3.1384	3.9618
4.2215	4.8676	4.7345	3.6483	6.0456	5.7701	5.0259	6.5872	6.5745	5.7005	5.4059	6.4067	4.63	-0.1615	0.9912	-0.7632	0.3642	1.9508	3.8256	3.0782	3.9967
4.022	4.6902	4.554	3.5216	5.9095	5.6276	4.8929	6.508	6.47	5.6213	5.3553	6.3497	4.6174	-0.2439	0.8361	-0.9184	0.5067	1.9603	3.832	2.9642	4.0537
3.832	4.5224	4.3703	3.3411	5.7606	5.4946	4.7725	6.432	6.3845	5.5674	5.3553	6.2895	4.5762	-0.3009	0.7252	-1.0134	0.6334	1.9477	3.8605	2.8977	4.079
3.6673	4.3323	4.2088	3.1669	5.6498	5.3679	4.6554	6.3243	6.2895	5.5009	5.3173	6.2325	4.5699	-0.3769	0.5764	-1.0926	0.7537	1.9445	3.8858	2.7837	4.1012
3.4804	4.1107	4.003	2.9737	5.4598	5.2222	4.5224	6.2198	6.2008	5.4186	5.2286	6.185	4.535	-0.4339	0.4149	-1.1084	0.8772	1.9097	3.9016	2.7077	4.1138
3.3126	3.927	3.8446	2.8154	5.3363	5.1082	4.3925	6.1185	6.1027	5.3489	5.1684	6.1122	4.5224	-0.475	0.3104	-1.0926	0.9691	1.9097	3.9143	2.6254	4.117
3.1289	3.7306	3.6863	2.6317	5.1779	4.9816	4.2373	5.9981	5.976	5.2571	5.0861	6.014	4.4844	-0.5257	0.1805	-1.0292	1.0546	1.8907	3.9206	2.543	4.1043
2.9516	3.5564	3.5216	2.4417	5.0196	4.8359	4.1012	5.8651	5.8715	5.1431	4.9721	5.9063	4.402	-0.5764	0.0507	-0.9374	1.1433	1.8621	3.8921	2.4449	4.0442
2.7964	3.3474	3.3759	2.2643	4.8517	4.6902	3.9491	5.7258	5.7226	5.0227	4.8391	5.7955	4.3165	-0.608	-0.0032	-0.7949	1.2098	1.8431	3.8541	2.3499	3.9903
2.638	3.1764	3.1733	2.0775	4.6902	4.5287	3.8035	5.5769	5.5833	4.9151	4.6997	5.6403	4.2247	-0.6492	-0.1013	-0.6112	1.2858	1.7671	3.7971	2.2675	3.8668
2.505	2.9706	3.0592	1.9128	4.5319	4.4305	3.6736	5.4186	5.4693	4.82	4.5635	5.5073	4.1392	-0.6587	-0.1678	-0.4275	1.3206	1.7006	3.7306	2.1947	3.7496
2.4322	2.8534	2.9452	1.7798	4.3893	4.2912	3.5564	5.2888	5.3299	4.7155	4.4147	5.3806	4.041	-0.6714	-0.19	-0.1963	1.3333	1.65	3.6768	2.1313	3.6483
2.3404	2.7045	2.8249	1.6531	4.2247	4.1898	3.4361	5.1209	5.2159	4.6047	4.2342	5.2381	3.9618	-0.6841	-0.2185	0.0253	1.3491	1.5835	3.585	2.0617	3.4709
2.3087	2.6064	2.7932	1.5645	4.136	4.1012	3.3284	4.9974	5.1082	4.5065	4.079	5.1051	3.8605	-0.6809	-0.1773	0.2692	1.3396	1.5328	3.5374	2.0015	3.3379
2.258	2.5367	2.7299	1.4695	4.0283	4.0442	3.2176	4.8422	5.0101	4.3798	3.8953	4.9531	3.7655	-0.6714	-0.1773	0.437	1.3301	1.4663	3.4583	1.9382	3.1733
2.2833	2.4702	2.7077	1.4156	3.9238	3.9586	3.1859	4.7409	4.9404	4.3323	3.7465	4.8232	3.6831	-0.6429	-0.1267	0.6366	1.2826	1.4029	3.3949	1.9097	2.9737
2.3245	2.41	2.6887	1.3903	3.8351	3.9238	3.1099	4.6205	4.8612	4.2658	3.6008	4.7155	3.5945	-0.6239	-0.0475	0.7949	1.2414	1.3491	3.3284	1.8685	2.8312
2.3784	2.3594	2.7172	1.3808	3.7528	3.8763	3.0782	4.497	4.7884	4.193	3.4583	4.5825	3.5089	-0.5827	0.0127	0.9184	1.1718	1.2763	3.2398	1.8526	2.6317
2.429	2.3562	2.7584	1.3776	3.7116	3.889	3.0529	4.4052	4.7535	4.155	3.3348	4.5129	3.4646	-0.5415	0.0855	1.0292	1.1021	1.1876	3.1638	1.8368	2.4702
2.5019	2.3625	2.7901	1.4156	3.6641	3.8826	3.0402	4.3292	4.6997	4.1202	3.1606	4.4147	3.3601	-0.5225	0.1615	1.1338	1.0451	1.1401	3.0814	1.8146	2.2833
2.6	2.4005	2.8914	1.4695	3.6451	3.8953	3.0561	4.231	4.687	4.079	3.0497	4.3545	3.2999	-0.4782	0.247	1.2319	0.9659	1.0958	2.9927	1.8115	2.106
2.676	2.4037	2.9357	1.4885	3.5881	3.8795	3.0402	4.1233	4.6205	4.0315	2.8566	4.2278	3.1986	-0.4434	0.2787	1.3079	0.9152	1.0356	2.8946	1.8368	1.8843
2.7932	2.429	3.0307	1.5708	3.5818	3.9175	3.0592	4.0537	4.5857	3.9967	2.7457	4.1708	3.1289	-0.418	0.3642	1.4093	0.8487	0.9754	2.7552	1.8241	1.707
2.8534	2.4765	3.1162	1.6626	3.5279	3.9333	3.1162	3.9713	4.5699	3.9872	2.5937	4.079	3.0497	-0.3737	0.399	1.5265	0.7696	0.9184	2.6317	1.8875	1.4758
2.9706	2.5209	3.2208	1.7576	3.5374	3.9681	3.1257	3.8795	4.5287	3.9681	2.4354	3.9681	2.9326	-0.3452	0.4845	1.6183	0.7126	0.8487	2.4829	1.8938	1.2383
3.1004	2.5969	3.3221	1.8526	3.5279	3.9998	3.1828	3.7876	4.5382	3.946	2.2992	3.8826	2.8566	-0.3104	0.57	1.7513	0.6366	0.7601	2.3245	1.9318	1.0071
3.2049	2.6634	3.4298	1.9603	3.5343	4.0378	3.2271	3.7243	4.5002	3.9428	2.1187	3.8003	2.7426	-0.2755	0.6587	1.8463	0.5732	0.6714	2.1725	1.9382	0.7601
3.3221	2.7584	3.5311	2.0522	3.5343	4.0885	3.2714	3.6451	4.4844	3.8985	1.9413	3.6926	2.6127	-0.2534	0.8171	1.9952	0.5162	0.57	1.973	1.9318	0.494
3.4361	2.8154	3.6546	2.1567	3.5248	4.1392	3.2968	3.5786	4.4559	3.908	1.821	3.5976	2.5019	-0.228	0.9216	2.1282	0.4687	0.4782	1.7988	1.9445	0.2217
3.5501	2.9167	3.7908	2.277	3.5564	4.2278	3.3823	3.4931	4.44	3.851	1.6373	3.5058	2.3752	-0.2249	1.0831	2.296	0.4402	0.3895	1.612	1.9192	-0.0158
3.6831	3.0561	3.9301	2.3974	3.5881	4.2753	3.4456	3.4456	4.459	3.8826	1.517	3.4266	2.2928	-0.19	1.2256	2.4449	0.4117	0.2882	1.4188	1.935	-0.2439
3.8415	3.1606	4.0568	2.5367	3.6515	4.3735	3.5153	3.4361	4.5034	3.8953	1.4061	3.3886	2.1947	-0.1932	1.3713	2.6127	0.3832	0.2058	1.2604	1.9318	-0.456
3.9713	3.3063	4.2215	2.6665	3.699	4.4685	3.5976	3.4139	4.5255	3.8953	1.3206	3.3633	2.1123	-0.171	1.5391	2.7647	0.3579	0.1267	1.1148	1.9065	-0.6366
4.1518	3.4931	4.364	2.8344	3.7781	4.6047	3.6926	3.4139	4.5667	3.9175	1.2541	3.3126	2.0458	-0.152	1.7006	2.9294	0.3199	0.0602	1.0039	1.9255	-0.7569
4.2912	3.6325	4.5192	2.9516	3.8858	4.7029	3.7623	3.4298	4.6047	3.9523	1.2193	3.2999	1.9857	-0.1298	1.8431	3.0244	0.2977	-0.0095	0.9089	1.916	-0.8804
4.4337	3.7971	4.6807	3.0751	3.9776	4.8296	3.8383	3.4709	4.6712	3.9745	1.2066	3.3094	1.935	-0.1425	2.0047	3.1479	0.2882	-0.0697	0.8519	1.916	-0.9659
4.5699	3.9333	4.8105	3.2049	4.06	4.9087	3.9016	3.5058	4.7282	3.9776	1.1781	3.2968	1.878	-0.1583	2.1187	3.1986	0.3009	-0.1583	0.7949	1.8843	-1.0324
4.7377	4.1043	4.9594	3.3411	4.1867	5.0164	3.984	3.5533	4.7884	4.0125	1.1908	3.3031	1.8368	-0.152	2.2548	3.2461	0.3072	-0.2249	0.7632	1.8495	-1.0736
4.8327	4.2627	5.0797	3.4456	4.2753	5.1272	4.0632	3.6293	4.8391	4.0378	1.2256	3.2968	1.8146	-0.1457	2.3467	3.2334	0.2914	-0.2407	0.7854	1.8558	-1.0736
4.9784	4.4274	5.2001	3.5406	4.4179	5.2032	4.1202	3.6705	4.8961	4.0663	1.2763	3.3443	1.7861	-0.1362	2.467	3.1923	0.285	-0.2819	0.7981	1.859	-1.0673
5.0797	4.5794	5.2856	3.6356	4.5287	5.3078	4.1582	3.7401	4.9562	4.0727	1.3174	3.3506	1.745	-0.1298	2.524	3.1574	0.247	-0.3325	0.8456	1.8051	-1.0324
5.1747	4.7029	5.3838	3.7116	4.6079	5.3711	4.2057	3.8003	5.0037	4.0727	1.3523	3.3791	1.7101	-0.0982	2.5589	3.0339	0.2122	-0.3484	0.8899	1.8146	-0.9501
5.2476	4.8517	5.4693	3.7845	4.7187	5.4471	4.2532	3.8795	5.0512	4.098	1.4378	3.4044	1.6848	-0.0602	2.6222	2.9262	0.1425	-0.361	0.9817	1.7925	-0.8867
5.3236	4.9436	5.4978	3.8351	4.7915	5.4914	4.2563	3.9301	5.0766	4.0853	1.5011	3.4203	1.6531	-0.0317	2.619	2.7521	0.095	-0.4054	1.0292	1.764	-0.8329
