"FZ"	"FC3"	"FCZ"	"FC4"	"C3"	"CZ"	"C4"	"CP3"	"CPZ"	"CP4"	"P3"	"PZ"	"P4"	"OZ"	"FP1"	"FP2"	"A2"	"P8"	"TP7"	"TP8"	"P7"	"VEOG"	"HEOG"
-0.6154	-0.5819	-0.9362	-1.3055	-1.3241	-1.2794	-1.1041	-1.7419	-2.3014	-1.6635	-2.2156	-2.9578	-2.0888	0.3021	-0.0485	0.69	-0.5968	-0.925	-1.0183	-0.3618	-0.8877	-0.6341	1.0668
-0.5707	-0.5222	-0.9101	-1.2271	-1.298	-1.216	-1.022	-1.7531	-2.279	-1.6039	-2.2566	-2.9504	-2.0813	0.3021	-0.1194	0.5669	-0.5781	-0.9996	-1.022	-0.4066	-0.9474	-0.2909	1.0257
-0.5558	-0.4551	-0.8616	-1.1227	-1.2644	-1.1749	-0.9474	-1.7643	-2.2827	-1.5666	-2.2976	-2.9355	-2.044	0.2797	-0.1231	0.4737	-0.5408	-1.0929	-1.0257	-0.4476	-1.0071	0.0373	0.9661
-0.5147	-0.3991	-0.8318	-1.022	-1.2346	-1.1414	-0.8504	-1.7643	-2.2603	-1.4994	-2.3312	-2.9131	-2.044	0.2686	-0.179	0.3581	-0.5334	-1.1973	-0.9922	-0.4812	-1.0444	0.4401	0.9213
-0.5222	-0.3394	-0.7945	-0.9586	-1.1973	-1.119	-0.7758	-1.7754	-2.2678	-1.4659	-2.3312	-2.8982	-2.0552	0.2611	-0.1492	0.2424	-0.5073	-1.257	-0.981	-0.5408	-1.1003	0.7348	0.8728
-0.4886	-0.2723	-0.7199	-0.8765	-1.1563	-1.0481	-0.7087	-1.7568	-2.238	-1.4099	-2.3312	-2.8944	-2.0067	0.2424	-0.1417	0.1044	-0.4774	-1.3241	-0.9064	-0.5781	-1.1264	1.0295	0.8057
-0.4998	-0.3059	-0.7311	-0.8467	-1.16	-1.0668	-0.6751	-1.7568	-2.2641	-1.3763	-2.3648	-2.8944	-2.0291	0.2238	-0.1604	-0.0149	-0.4401	-1.436	-0.9213	-0.6453	-1.2085	1.2794	0.7199
-0.4812	-0.2499	-0.6975	-0.7796	-1.16	-1.0518	-0.6378	-1.7605	-2.238	-1.3689	-2.3909	-2.887	-2.0216	0.194	-0.1305	-0.1268	-0.4028	-1.5069	-0.8765	-0.7012	-1.257	1.4882	0.6117
-0.4774	-0.1865	-0.6602	-0.7236	-1.1003	-1.0369	-0.6117	-1.7568	-2.2491	-1.3428	-2.3909	-2.8534	-2.0328	0.1716	-0.0932	-0.2126	-0.3618	-1.5815	-0.8616	-0.7497	-1.3241	1.6561	0.5185
-0.4737	-0.1455	-0.6005	-0.6527	-1.0854	-1.0145	-0.5595	-1.712	-2.223	-1.2831	-2.3685	-2.8124	-1.9918	0.1678	-0.0783	-0.2723	-0.3282	-1.6524	-0.8243	-0.7572	-1.3652	1.768	0.4364
-0.4439	-0.0783	-0.5707	-0.5707	-1.0034	-0.9474	-0.5147	-1.6449	-2.1671	-1.2346	-2.3461	-2.7639	-1.9545	0.1529	-0.0075	-0.2909	-0.2797	-1.6673	-0.8057	-0.7572	-1.4136	1.8239	0.4066
-0.3842	0.0186	-0.4998	-0.4961	-0.8915	-0.9026	-0.4737	-1.5703	-2.1111	-1.1824	-2.2864	-2.693	-1.9023	0.1343	0.0261	-0.2947	-0.2574	-1.671	-0.6863	-0.787	-1.4025	1.8724	0.373
-0.3506	0.1268	-0.4364	-0.414	-0.7497	-0.8803	-0.4103	-1.4771	-2.0515	-1.1414	-2.2007	-2.596	-1.8389	0.1231	0.0448	-0.3506	-0.2275	-1.6785	-0.5968	-0.7758	-1.3913	1.8985	0.3469
-0.2648	0.2238	-0.317	-0.2462	-0.6005	-0.7945	-0.3245	-1.3316	-1.9955	-1.0481	-2.0962	-2.4767	-1.7456	0.1194	0.1417	-0.3394	-0.2313	-1.671	-0.5259	-0.7833	-1.3652	1.9135	0.3693
-0.2089	0.3059	-0.2611	-0.1604	-0.4812	-0.7236	-0.2872	-1.2309	-1.8911	-0.9735	-2.0253	-2.3834	-1.6524	0.1231	0.2499	-0.3506	-0.2313	-1.6262	-0.4476	-0.7534	-1.339	1.8948	0.3805
-0.1156	0.3991	-0.1678	-0.0522	-0.3767	-0.7012	-0.2201	-1.119	-1.8314	-0.9138	-1.9209	-2.3051	-1.5964	0.1268	0.3133	-0.3916	-0.2424	-1.574	-0.3655	-0.7534	-1.2943	1.865	0.3991
-0.0075	0.4961	-0.0634	0.0709	-0.2648	-0.6192	-0.1641	-1.0145	-1.7531	-0.8542	-1.8127	-2.1634	-1.4547	0.1231	0.4289	-0.3469	-0.2387	-1.5181	-0.332	-0.7348	-1.2682	1.7978	0.4028
0.097	0.5595	0.0522	0.1753	-0.1455	-0.5446	-0.1231	-0.8765	-1.6635	-0.746	-1.6971	-2.0291	-1.3614	0.1417	0.5856	-0.3208	-0.2611	-1.4286	-0.2499	-0.7012	-1.2234	1.7046	0.3954
0.2275	0.5856	0.138	0.2947	-0.0746	-0.4998	-0.0559	-0.843	-1.5778	-0.6975	-1.5889	-1.9246	-1.2533	0.1417	0.7273	-0.276	-0.276	-1.3092	-0.2201	-0.6341	-1.216	1.5815	0.3543
0.3208	0.6415	0.2201	0.3916	-0.0336	-0.4439	-0.0261	-0.7497	-1.4882	-0.6005	-1.4733	-1.7978	-1.1115	0.1305	0.8803	-0.1641	-0.2723	-1.2197	-0.2051	-0.6154	-1.1712	1.4659	0.3357
0.4513	0.7199	0.332	0.5259	0.0448	-0.3916	0.0485	-0.6677	-1.4248	-0.5073	-1.3652	-1.6897	-0.9959	0.1417	1.0929	0.0075	-0.2797	-1.0668	-0.2126	-0.5408	-1.1302	1.3129	0.276
0.5632	0.7609	0.4066	0.649	0.1268	-0.3469	0.1119	-0.6005	-1.3241	-0.4103	-1.2794	-1.5218	-0.8653	0.138	1.2719	0.1529	-0.2723	-0.9772	-0.1828	-0.4737	-1.1078	1.1563	0.2238
0.6751	0.9101	0.511	0.7646	0.2238	-0.2648	0.1902	-0.5334	-1.2421	-0.2947	-1.1898	-1.4099	-0.7385	0.1305	1.4398	0.373	-0.2574	-0.828	-0.1902	-0.3767	-1.063	0.9922	0.179
0.8206	1.0295	0.6229	0.8691	0.3693	-0.194	0.2648	-0.4215	-1.1078	-0.179	-1.0444	-1.2607	-0.5707	0.138	1.6225	0.5856	-0.2536	-0.6975	-0.1492	-0.2947	-0.9847	0.843	0.1231
0.9399	1.1339	0.7572	0.9884	0.4774	-0.097	0.3655	-0.2872	-0.9959	-0.0522	-0.9064	-1.1041	-0.4289	0.1268	1.7829	0.8616	-0.235	-0.5781	-0.1044	-0.1828	-0.9064	0.6639	0.0932
1.0481	1.2682	0.8579	1.0966	0.6378	-0.0186	0.4662	-0.1305	-0.8467	0.0746	-0.746	-0.9474	-0.2536	0.1156	1.9246	1.1264	-0.2163	-0.3991	-0.0485	-0.0783	-0.8131	0.4849	0.0485
1.1264	1.3801	0.9064	1.1414	0.7423	0.0522	0.4849	-0.0485	-0.7385	0.1455	-0.5893	-0.8019	-0.1156	0.0932	2.0552	1.3726	-0.1753	-0.3096	-0.0075	-0.0149	-0.7423	0.2984	0.0336
1.216	1.4472	0.9959	1.1712	0.8243	0.1194	0.5483	0.0709	-0.6042	0.2499	-0.4774	-0.6677	0.0037	0.0783	2.1783	1.6113	-0.1604	-0.1529	0.0522	0.0597	-0.6415	0.1268	0.0037
1.2607	1.4808	1.0295	1.1824	0.8877	0.1753	0.5856	0.1865	-0.4961	0.3469	-0.3096	-0.5296	0.1231	0.0746	2.2491	1.8575	-0.1231	-0.0634	0.1082	0.1119	-0.5744	-0.0597	-0.0336
1.2868	1.4771	1.0668	1.2048	0.9288	0.2387	0.6415	0.276	-0.3879	0.4513	-0.1604	-0.3805	0.2424	0.0448	2.3126	2.0776	-0.0709	0.0373	0.138	0.1753	-0.4439	-0.2201	-0.0448
1.3092	1.4882	1.0742	1.2048	0.9996	0.2984	0.6863	0.3842	-0.2462	0.5296	0.0075	-0.2424	0.3693	0.0112	2.3536	2.2641	-0.0336	0.1492	0.1753	0.2051	-0.3357	-0.3543	-0.0746
1.3502	1.4882	1.1041	1.2122	1.0295	0.3394	0.7236	0.4961	-0.1343	0.6005	0.1828	-0.097	0.4551	-0.0075	2.3648	2.4095	0.0075	0.2536	0.2313	0.2424	-0.2126	-0.4215	-0.1156
1.3279	1.4621	1.1003	1.1302	1.0705	0.3805	0.746	0.6192	0	0.649	0.3469	0.0895	0.5781	-0.0149	2.3126	2.5177	0.0448	0.3282	0.2797	0.2984	-0.0932	-0.4625	-0.138
1.2682	1.4136	1.0518	1.0406	1.1078	0.4439	0.7273	0.7087	0.138	0.6938	0.5147	0.1977	0.6341	-0.0522	2.2417	2.5438	0.1007	0.3916	0.3618	0.2797	0.0261	-0.4178	-0.2089
1.2346	1.3838	1.0332	0.9661	1.1563	0.4774	0.7497	0.8616	0.2909	0.7572	0.6975	0.3805	0.7124	-0.0746	2.1745	2.5177	0.1156	0.4289	0.4103	0.2909	0.194	-0.3059	-0.2723
1.1414	1.3577	1.0145	0.884	1.2234	0.4774	0.7236	0.981	0.3954	0.7497	0.8392	0.4998	0.7721	-0.0746	2.0291	2.4207	0.1567	0.4737	0.4364	0.2611	0.2797	-0.1119	-0.3208
1.0556	1.257	0.9101	0.7534	1.2346	0.511	0.6863	1.0779	0.5035	0.7423	0.9772	0.6042	0.8131	-0.0932	1.8389	2.2529	0.1977	0.5035	0.4737	0.1977	0.4178	0.1231	-0.373
0.925	1.1563	0.8131	0.6453	1.2309	0.4812	0.6453	1.1712	0.6042	0.7236	1.119	0.7161	0.8206	-0.1082	1.6412	2.0104	0.2163	0.5147	0.5185	0.1567	0.5185	0.4066	-0.4327
0.7907	1.0183	0.705	0.5185	1.201	0.4849	0.5744	1.2383	0.6826	0.705	1.2495	0.8131	0.8206	-0.1119	1.4099	1.768	0.2275	0.4998	0.5744	0.1007	0.6192	0.7348	-0.4588
0.6005	0.828	0.5632	0.3805	1.119	0.4178	0.5147	1.2756	0.6938	0.6453	1.3167	0.8579	0.8206	-0.1007	1.1003	1.4547	0.2387	0.4588	0.6005	0.0149	0.7087	1.0556	-0.4924
0.4028	0.6229	0.4364	0.2089	1.0295	0.3618	0.4066	1.2794	0.7236	0.5669	1.3801	0.9138	0.7796	-0.1231	0.7982	1.0854	0.2611	0.4439	0.608	-0.0634	0.7721	1.3987	-0.5147
0.1678	0.3805	0.2387	0.0448	0.9064	0.2797	0.3021	1.2495	0.7236	0.5035	1.4248	0.9549	0.7572	-0.1305	0.4551	0.7124	0.2611	0.414	0.6565	-0.1268	0.843	1.7381	-0.5334
-0.0448	0.1604	0.041	-0.1604	0.7385	0.1641	0.1604	1.2122	0.7161	0.414	1.436	0.9586	0.6826	-0.1455	0.097	0.3432	0.2835	0.3693	0.6714	-0.2089	0.8579	2.044	-0.5334
-0.2275	-0.0298	-0.1305	-0.3208	0.6304	0.097	0.0261	1.1824	0.7124	0.3208	1.4659	0.9698	0.6378	-0.138	-0.2462	0.0075	0.2686	0.3394	0.7236	-0.2611	0.9138	2.3275	-0.5035
-0.4401	-0.2424	-0.2835	-0.4551	0.5147	0.0149	-0.0559	1.1414	0.6863	0.2686	1.4659	0.9959	0.6192	-0.1343	-0.5781	-0.3506	0.2835	0.3096	0.7497	-0.3059	0.9511	2.5774	-0.4849
-0.6266	-0.4066	-0.4327	-0.5968	0.4289	-0.0485	-0.1641	1.119	0.6863	0.2126	1.4733	1.0183	0.5931	-0.1343	-0.8803	-0.6304	0.2797	0.2611	0.8392	-0.3133	1.0108	2.7937	-0.4401
-0.7423	-0.5296	-0.5371	-0.69	0.3506	-0.097	-0.2462	1.0668	0.6788	0.194	1.4733	1.0071	0.5632	-0.138	-1.1339	-0.8504	0.2872	0.3096	0.884	-0.3133	1.0444	2.9131	-0.4178
-0.8691	-0.6378	-0.6304	-0.7907	0.2723	-0.179	-0.3394	1.022	0.6714	0.1343	1.4248	1.0145	0.5296	-0.138	-1.3614	-1.0817	0.2872	0.2984	0.9064	-0.3282	1.0518	3.0138	-0.3693
-0.9399	-0.7572	-0.7087	-0.8318	0.1828	-0.1865	-0.373	0.9549	0.649	0.1343	1.4211	1.0369	0.5371	-0.1455	-1.5516	-1.2943	0.3059	0.276	0.9026	-0.2872	1.0742	3.0436	-0.3357
-0.9772	-0.828	-0.7609	-0.884	0.1529	-0.2201	-0.4327	0.8952	0.6639	0.0895	1.3726	1.0481	0.5371	-0.1492	-1.6449	-1.4174	0.2872	0.3059	0.9138	-0.2872	1.0854	3.0175	-0.276
-1.0108	-0.8765	-0.8131	-0.9026	0.0746	-0.2574	-0.4662	0.8392	0.6304	0.0559	1.3055	1.0332	0.4849	-0.1529	-1.727	-1.5516	0.3059	0.3282	0.8877	-0.2462	1.0817	2.9392	-0.2051
-1.0034	-0.8616	-0.8094	-0.8691	0.0783	-0.2313	-0.4849	0.8169	0.6229	0.0634	1.2719	1.0481	0.5035	-0.1417	-1.7158	-1.6524	0.2984	0.3581	0.8989	-0.1455	1.0705	2.831	-0.1305
-0.9959	-0.8467	-0.7945	-0.8616	0.0858	-0.2275	-0.5073	0.7721	0.6714	0.0932	1.2197	1.0668	0.5259	-0.1305	-1.6785	-1.6785	0.2686	0.3879	0.9176	-0.1007	1.0444	2.693	-0.0298
-0.9623	-0.8467	-0.7945	-0.8355	0.0448	-0.2387	-0.5035	0.6975	0.6714	0.0634	1.1637	1.0742	0.5185	-0.1119	-1.6151	-1.7158	0.2686	0.3954	0.9101	-0.0261	1.0406	2.5475	0.0485
-0.9362	-0.8392	-0.7684	-0.8019	0.0522	-0.2238	-0.5147	0.6527	0.6751	0.0559	1.0966	1.0593	0.5259	-0.1194	-1.5069	-1.727	0.2462	0.4215	0.8915	0.0112	1.022	2.4282	0.1567
-0.8579	-0.7796	-0.7348	-0.7572	0.0448	-0.179	-0.511	0.608	0.6826	0.0522	1.0034	1.0518	0.5259	-0.0932	-1.3987	-1.6971	0.1977	0.4625	0.8803	0.1007	0.9586	2.2864	0.2499
-0.8579	-0.7758	-0.746	-0.7572	-0.0037	-0.2051	-0.5371	0.5185	0.6602	0.0448	0.9176	0.9996	0.4924	-0.0746	-1.3092	-1.671	0.1753	0.4774	0.8131	0.1305	0.8803	2.1708	0.3357
-0.8355	-0.7423	-0.7273	-0.7497	-0.0671	-0.179	-0.5707	0.414	0.6341	0.0112	0.8131	0.9959	0.4849	-0.0597	-1.2122	-1.6151	0.1492	0.4849	0.7497	0.1902	0.8094	2.0253	0.4178
-0.8355	-0.7646	-0.705	-0.7385	-0.1268	-0.1604	-0.5558	0.332	0.608	0.0037	0.7161	0.9549	0.4662	-0.0448	-1.1227	-1.5405	0.1119	0.511	0.7087	0.2387	0.7497	1.8612	0.4551
-0.7982	-0.7311	-0.6863	-0.7087	-0.194	-0.1977	-0.5632	0.2201	0.5819	-0.0261	0.5893	0.9288	0.4215	-0.0373	-1.0145	-1.3987	0.0709	0.4961	0.6192	0.2947	0.6527	1.6598	0.4812
-0.7758	-0.7534	-0.6714	-0.705	-0.2909	-0.1716	-0.5893	0.1119	0.552	-0.0559	0.47	0.8653	0.3842	0.0037	-0.9288	-1.2533	0.0075	0.552	0.552	0.3282	0.5669	1.4174	0.5035
-0.7348	-0.7684	-0.6602	-0.649	-0.3432	-0.138	-0.5931	0.0149	0.5595	-0.0783	0.4178	0.8877	0.3916	0.0298	-0.8542	-1.0593	-0.0597	0.5781	0.4513	0.373	0.4737	1.1302	0.4961
-0.6751	-0.7087	-0.5819	-0.6117	-0.3842	-0.1268	-0.5931	-0.0746	0.5371	-0.1305	0.2797	0.8131	0.3021	0.0559	-0.7124	-0.7572	-0.1231	0.5446	0.3282	0.3842	0.3767	0.7311	0.5185
-0.5931	-0.6154	-0.5185	-0.5483	-0.373	-0.0746	-0.5856	-0.1231	0.5632	-0.1343	0.2387	0.8131	0.2984	0.1044	-0.5744	-0.4364	-0.2051	0.5595	0.2462	0.4215	0.3432	0.3021	0.5707
-0.4961	-0.552	-0.4439	-0.5222	-0.3469	-0.0373	-0.5558	-0.1455	0.5819	-0.1604	0.2163	0.8355	0.2574	0.138	-0.4178	-0.0597	-0.2723	0.5819	0.1194	0.4625	0.2723	-0.1716	0.6192
-0.3506	-0.4327	-0.3357	-0.4289	-0.2909	0.0336	-0.5259	-0.1492	0.6304	-0.1567	0.1977	0.8542	0.2536	0.1716	-0.2387	0.3469	-0.3208	0.6154	-0.0037	0.4886	0.2201	-0.6938	0.6714
-0.2387	-0.3357	-0.2536	-0.3618	-0.2462	0.1119	-0.4849	-0.1231	0.6565	-0.2126	0.2238	0.843	0.2126	0.1678	-0.0634	0.7423	-0.3655	0.6154	-0.0671	0.4998	0.2201	-1.1637	0.7236
-0.1417	-0.2201	-0.1492	-0.276	-0.1417	0.1678	-0.4513	-0.0932	0.7012	-0.194	0.2238	0.8467	0.1902	0.2089	0.1231	1.16	-0.4066	0.6565	-0.1455	0.5334	0.1902	-1.6188	0.7534
-0.0448	-0.1753	-0.0746	-0.2387	-0.0671	0.2462	-0.4513	-0.0298	0.7497	-0.1977	0.2611	0.8653	0.1641	0.2163	0.3021	1.5218	-0.4401	0.6714	-0.1828	0.5669	0.2201	-2.0067	0.8057
0.0261	-0.097	-0.0298	-0.2424	0.0112	0.276	-0.4588	0.0559	0.7945	-0.235	0.3096	0.884	0.1492	0.235	0.4178	1.8053	-0.4662	0.6788	-0.194	0.5632	0.2648	-2.3722	0.8691
0.0895	-0.0298	0.0186	-0.2051	0.0746	0.3469	-0.4439	0.1082	0.8243	-0.2424	0.3432	0.9026	0.1567	0.2275	0.5334	2.0776	-0.47	0.6938	-0.194	0.5707	0.2947	-2.6706	0.8989
0.1305	0.0186	0.0448	-0.1604	0.1492	0.3954	-0.4364	0.1828	0.8542	-0.2648	0.3879	0.9101	0.1044	0.2313	0.6677	2.3014	-0.4625	0.6975	-0.1604	0.5856	0.3282	-2.9355	0.9176
0.1902	0.0746	0.097	-0.1156	0.194	0.4476	-0.414	0.2648	0.9101	-0.2499	0.4439	0.9213	0.1194	0.2275	0.7721	2.4618	-0.4625	0.7087	-0.1268	0.5632	0.3879	-3.1555	0.8877
0.2201	0.0671	0.1268	-0.0821	0.2387	0.47	-0.3693	0.2797	0.9138	-0.2201	0.5185	0.925	0.1417	0.2089	0.8019	2.5214	-0.4178	0.6863	-0.0783	0.5669	0.4625	-3.3084	0.8579
0.2163	0.0932	0.1343	-0.0149	0.2686	0.5185	-0.2947	0.3693	0.9437	-0.1902	0.5819	0.9474	0.1417	0.2014	0.8765	2.5438	-0.3842	0.7273	-0.0224	0.5893	0.5035	-3.4315	0.7833
0.2387	0.0858	0.1641	0.0485	0.2984	0.5483	-0.2611	0.4252	0.9698	-0.1567	0.6304	0.9362	0.1716	0.1567	0.9026	2.4916	-0.332	0.705	0.0224	0.5744	0.5558	-3.4875	0.7199
0.1828	0.0522	0.138	0.0746	0.2574	0.5371	-0.2163	0.4588	0.9325	-0.1231	0.6639	0.9511	0.1902	0.1194	0.8467	2.2827	-0.2648	0.7199	0.0634	0.5483	0.608	-3.4875	0.6229
0.1641	0.0373	0.1343	0.097	0.2387	0.5483	-0.1716	0.4662	0.9288	-0.0634	0.6975	0.9399	0.2238	0.097	0.7796	2.0664	-0.2089	0.6826	0.0559	0.5446	0.6415	-3.4502	0.5371
0.1119	-0.0261	0.1268	0.1268	0.1753	0.5259	-0.138	0.4289	0.8952	-0.0373	0.6938	0.925	0.235	0.0709	0.6677	1.7531	-0.1492	0.6826	0.0224	0.4998	0.6042	-3.3681	0.4401
0.0559	-0.1119	0.0783	0.1455	0.1156	0.5259	-0.0858	0.3954	0.8579	-0.0037	0.6975	0.8877	0.2499	0.0448	0.511	1.3465	-0.0932	0.6602	-0.0186	0.511	0.6005	-3.245	0.3394
0.0336	-0.194	0.0634	0.1678	0.0336	0.4849	-0.0783	0.3469	0.8169	0.041	0.6415	0.8616	0.2723	0.0075	0.3357	0.8803	-0.0149	0.608	-0.1007	0.4364	0.5558	-3.0846	0.235
-0.0261	-0.2686	0.041	0.2089	-0.0448	0.4327	0.0075	0.3021	0.7609	0.1156	0.6453	0.8803	0.3282	-0.0149	0.1567	0.414	0.0261	0.5968	-0.1678	0.414	0.5371	-2.8907	0.1194
-0.0597	-0.3469	0.0485	0.235	-0.1417	0.4178	0.0559	0.2163	0.7124	0.1828	0.5856	0.8392	0.3357	-0.041	-0.0821	-0.0373	0.0783	0.5595	-0.2574	0.3954	0.4439	-2.6669	-0.0149
-0.0932	-0.4327	0	0.2499	-0.2424	0.3543	0.1156	0.1529	0.6602	0.2089	0.5408	0.8243	0.4103	-0.0522	-0.3021	-0.5073	0.1194	0.5147	-0.3469	0.3618	0.3954	-2.417	-0.1492
-0.1678	-0.5035	-0.0037	0.2872	-0.3282	0.3245	0.1455	0.097	0.6042	0.2909	0.5035	0.8243	0.4364	-0.0895	-0.5707	-0.9586	0.1641	0.47	-0.373	0.3133	0.3543	-2.1596	-0.2835
-0.1828	-0.552	-0.0112	0.3133	-0.3618	0.3245	0.2313	0.0448	0.5781	0.3357	0.4588	0.787	0.4924	-0.1156	-0.8019	-1.3465	0.2163	0.4774	-0.4401	0.2499	0.2947	-1.9209	-0.4215
-0.1716	-0.5931	0.0037	0.3543	-0.3655	0.3394	0.3096	0.0224	0.5856	0.4476	0.4289	0.7945	0.5558	-0.1343	-1.0295	-1.671	0.2499	0.4364	-0.4849	0.2238	0.2536	-1.6785	-0.5595
-0.1455	-0.6229	0.0448	0.4066	-0.3916	0.3469	0.4066	-0.0112	0.5595	0.5371	0.4178	0.8243	0.5968	-0.1417	-1.2495	-2.0253	0.2947	0.4252	-0.5222	0.2387	0.2089	-1.4845	-0.6938
-0.1305	-0.6341	0.0597	0.4178	-0.4066	0.3543	0.4886	-0.0485	0.5707	0.6117	0.3618	0.8504	0.6677	-0.1529	-1.4136	-2.2491	0.317	0.4103	-0.5371	0.179	0.1828	-1.3316	-0.8243
-0.1082	-0.6192	0.1044	0.4364	-0.3991	0.3506	0.5073	-0.0448	0.5781	0.6602	0.3879	0.8542	0.7124	-0.2014	-1.5628	-2.4543	0.3693	0.3916	-0.5334	0.1417	0.1156	-1.257	-0.9549
-0.0895	-0.6304	0.1716	0.4551	-0.4327	0.4178	0.6154	-0.0671	0.6005	0.7497	0.3469	0.9138	0.7684	-0.2014	-1.6598	-2.6184	0.4178	0.3655	-0.5707	0.1119	0.097	-1.2495	-1.0817
-0.0373	-0.5968	0.2499	0.4924	-0.4103	0.47	0.6975	-0.0895	0.6565	0.8131	0.332	0.9362	0.8392	-0.2387	-1.6971	-2.6744	0.4662	0.3432	-0.5408	0.0671	0.0634	-1.2831	-1.2197
-0.0075	-0.5483	0.2947	0.511	-0.3655	0.5446	0.8019	-0.0559	0.7311	0.9399	0.3655	1.0034	0.9213	-0.2611	-1.7568	-2.693	0.5073	0.3618	-0.5073	0.0634	0.0746	-1.354	-1.3465
0.041	-0.5371	0.3543	0.552	-0.3208	0.6117	0.8803	-0.0037	0.7945	1.0257	0.3805	1.0705	0.9772	-0.2797	-1.7643	-2.6706	0.5558	0.3357	-0.4924	0.0485	0.0448	-1.5069	-1.4398
0.1529	-0.4551	0.4513	0.608	-0.2424	0.6938	0.981	0.0336	0.9176	1.1414	0.4103	1.1525	1.0742	-0.3133	-1.7605	-2.5513	0.6042	0.332	-0.3954	0.0709	0.0634	-1.6822	-1.5293
0.2275	-0.3879	0.5296	0.649	-0.179	0.8169	1.0779	0.1044	1.022	1.2271	0.4662	1.2346	1.1563	-0.3245	-1.7232	-2.4095	0.6415	0.3357	-0.3506	0.0559	0.0709	-1.9135	-1.574
0.2574	-0.317	0.6154	0.6453	-0.1231	0.9474	1.1563	0.179	1.119	1.3279	0.5185	1.3129	1.2085	-0.3543	-1.6449	-2.2454	0.6938	0.3245	-0.2872	0.0709	0.0858	-2.1335	-1.6374
0.3469	-0.235	0.7124	0.6788	-0.0298	1.0332	1.201	0.2387	1.2271	1.4099	0.5819	1.3838	1.2943	-0.3767	-1.5405	-2.0365	0.7311	0.3021	-0.2238	0.0671	0.1194	-2.376	-1.6859
0.4476	-0.1305	0.7721	0.6826	0.0783	1.1451	1.2719	0.3245	1.3838	1.4398	0.6677	1.492	1.3428	-0.3991	-1.4398	-1.7904	0.7758	0.2872	-0.1529	0.0485	0.1567	-2.6221	-1.7419
0.552	-0.0149	0.8616	0.7348	0.2163	1.2383	1.3167	0.4439	1.5032	1.5069	0.7236	1.5927	1.3689	-0.4215	-1.2421	-1.4994	0.828	0.2872	-0.1268	0.0858	0.2014	-2.9056	-1.7941
0.6527	0.097	0.9772	0.7497	0.3469	1.3987	1.3614	0.5707	1.6598	1.5964	0.8467	1.6934	1.4025	-0.4476	-1.0742	-1.216	0.8728	0.2536	-0.0522	0.0709	0.276	-3.1704	-1.8127
0.7534	0.194	1.0369	0.7684	0.4774	1.5069	1.4062	0.6788	1.7904	1.671	0.9586	1.7829	1.4845	-0.4849	-0.8915	-0.9399	0.9325	0.2424	-0.0037	0.0895	0.3282	-3.4315	-1.865
0.8243	0.3282	1.1003	0.787	0.6005	1.6151	1.4286	0.7721	1.906	1.6971	1.0518	1.8762	1.5181	-0.5073	-0.7124	-0.6677	0.9922	0.2275	0.0112	0.1194	0.3767	-3.7001	-1.9023
0.9511	0.4849	1.2085	0.8355	0.7348	1.7307	1.4994	0.8952	2.044	1.7381	1.1451	2.003	1.5591	-0.5222	-0.511	-0.3543	1.0183	0.2201	0.0746	0.1417	0.4774	-3.9612	-1.9097
1.0295	0.6266	1.2533	0.8355	0.8728	1.8426	1.5442	1.0406	2.2007	1.8165	1.2756	2.1261	1.6113	-0.5296	-0.3021	-0.0373	1.0406	0.2051	0.1529	0.1902	0.5558	-4.2409	-1.8836
1.0668	0.7199	1.2756	0.8616	1.0108	1.9135	1.5293	1.1414	2.2753	1.809	1.3652	2.2007	1.6449	-0.5558	-0.1567	0.1977	1.0929	0.1828	0.2014	0.1902	0.6453	-4.4871	-1.8351
1.0929	0.8691	1.3129	0.8504	1.1264	1.9881	1.5293	1.2682	2.4245	1.8575	1.4994	2.2976	1.6598	-0.5558	-0.0075	0.4289	1.0966	0.2014	0.3021	0.2387	0.7311	-4.7109	-1.7643
1.1152	1.0183	1.3353	0.8355	1.2719	2.0589	1.533	1.4025	2.5102	1.8612	1.6374	2.3983	1.7083	-0.5669	0.097	0.6304	1.119	0.1865	0.4066	0.2611	0.8952	-4.9272	-1.6524
1.1078	1.0929	1.3353	0.8094	1.3987	2.0925	1.492	1.4994	2.5736	1.85	1.7008	2.4319	1.7158	-0.5707	0.1902	0.7646	1.1339	0.1417	0.511	0.2648	0.9772	-5.0802	-1.5106
1.063	1.1637	1.3129	0.8019	1.5106	2.1111	1.4323	1.6113	2.6221	1.8277	1.809	2.4953	1.7008	-0.5744	0.235	0.8616	1.1488	0.1417	0.6266	0.2872	1.1003	-5.1921	-1.3801
1.0071	1.2122	1.2682	0.7646	1.5964	2.0999	1.3987	1.6971	2.652	1.8016	1.9097	2.5214	1.6971	-0.5819	0.2835	0.9213	1.16	0.1268	0.7199	0.3059	1.1749	-5.2629	-1.2122
0.9474	1.2607	1.1936	0.7236	1.6785	2.0962	1.3838	1.7605	2.6482	1.7605	1.9358	2.5438	1.6934	-0.5781	0.3208	0.8989	1.1525	0.1007	0.8243	0.3357	1.2533	-5.2741	-1.0966
0.8392	1.2644	1.1264	0.6677	1.727	2.0328	1.3129	1.8202	2.5998	1.7083	1.9731	2.5214	1.6262	-0.5781	0.3394	0.8392	1.1637	0.0932	0.8952	0.3394	1.3167	-5.2294	-0.9922
0.7423	1.2458	1.0034	0.6154	1.6859	1.9545	1.2421	1.8575	2.5363	1.6001	1.9694	2.4953	1.5591	-0.5819	0.3245	0.7497	1.16	0.0112	0.8915	0.3096	1.3279	-5.1771	-0.9026
0.649	1.2234	0.8877	0.5483	1.6747	1.8389	1.1339	1.7754	2.4245	1.492	1.9097	2.376	1.4882	-0.5893	0.3618	0.6117	1.1525	-0.0821	0.9064	0.2313	1.3428	-5.0951	-0.843
0.5147	1.1824	0.7684	0.4364	1.63	1.6971	1.022	1.7605	2.2976	1.3689	1.8687	2.2939	1.3652	-0.5707	0.3618	0.5073	1.1264	-0.1417	0.8653	0.1828	1.2868	-5.0168	-0.828
0.3805	1.1152	0.6117	0.317	1.5479	1.4994	0.8765	1.6673	2.1372	1.1973	1.7419	2.1149	1.2309	-0.5446	0.3693	0.3879	1.1041	-0.2797	0.8206	0.1082	1.2644	-4.9272	-0.8355
0.2611	1.0481	0.4513	0.2014	1.4136	1.3167	0.6938	1.5442	1.9358	1.0518	1.6374	1.9918	1.0891	-0.5446	0.4066	0.235	1.0742	-0.3357	0.7497	-0.0112	1.2048	-4.8787	-0.8877
0.1678	0.9623	0.2872	0.0485	1.3129	1.1115	0.552	1.436	1.7381	0.9026	1.5106	1.8314	0.9511	-0.5147	0.4178	0.1082	1.0295	-0.4364	0.649	-0.0821	1.119	-4.8377	-0.9399
0.0336	0.8653	0.1268	-0.0858	1.1898	0.9213	0.3655	1.3279	1.5032	0.7087	1.3577	1.6262	0.7796	-0.4998	0.3879	-0.0075	1.0034	-0.5483	0.5968	-0.1902	1.0257	-4.8041	-1.0108
-0.0746	0.7609	-0.0671	-0.1977	1.063	0.705	0.194	1.216	1.3055	0.5408	1.2346	1.4584	0.6266	-0.4812	0.4252	-0.041	0.9474	-0.6415	0.5483	-0.2835	0.981	-4.8414	-1.1152
-0.1417	0.6527	-0.2051	-0.3432	0.9399	0.5222	0.0895	1.1041	1.0966	0.414	1.1152	1.2868	0.5334	-0.4513	0.4028	-0.0821	0.8915	-0.705	0.4886	-0.3655	0.9064	-4.8825	-1.1749
-0.276	0.5446	-0.373	-0.47	0.7796	0.3208	0	0.9474	0.8691	0.2723	0.9623	1.0779	0.3916	-0.4289	0.4103	-0.0821	0.8504	-0.7982	0.4327	-0.4551	0.828	-5.0056	-1.2794
-0.332	0.414	-0.5035	-0.5558	0.6378	0.1455	-0.1343	0.8057	0.6639	0.1604	0.828	0.9101	0.2947	-0.4103	0.4066	-0.0485	0.8094	-0.843	0.373	-0.5296	0.7684	-5.1659	-1.3428
-0.4401	0.2536	-0.6304	-0.6192	0.4588	-0.0224	-0.2014	0.6266	0.4849	0.0634	0.6975	0.7534	0.1828	-0.3805	0.4028	-0.0559	0.7609	-0.9064	0.3469	-0.5669	0.69	-5.3413	-1.4136
-0.4886	0.1231	-0.7273	-0.7199	0.2686	-0.2051	-0.2723	0.4551	0.2797	-0.0298	0.511	0.5707	0.0858	-0.3767	0.3879	0.0112	0.7534	-0.9474	0.276	-0.6378	0.6042	-5.5539	-1.4808
-0.5669	0	-0.8355	-0.7609	0.0858	-0.3618	-0.3469	0.2909	0.1007	-0.1231	0.3469	0.3879	-0.0037	-0.3618	0.3543	0.0224	0.7311	-0.9661	0.2387	-0.6714	0.5073	-5.7702	-1.5181
-0.5781	-0.0895	-0.925	-0.8094	-0.0709	-0.4439	-0.3991	0.1119	-0.0298	-0.1641	0.2014	0.2313	-0.0634	-0.3618	0.3506	0.0373	0.7124	-0.9996	0.2126	-0.6826	0.4178	-6.0276	-1.5293
-0.5893	-0.138	-0.9437	-0.828	-0.2014	-0.5371	-0.3879	-0.0037	-0.1678	-0.1865	0.0783	0.1007	-0.1268	-0.3432	0.332	0.0783	0.69	-1.0183	0.194	-0.6565	0.332	-6.2924	-1.533
-0.5744	-0.1641	-0.9362	-0.8616	-0.3282	-0.608	-0.4178	-0.1231	-0.2947	-0.2387	-0.0559	-0.0448	-0.1678	-0.3469	0.3059	0.0783	0.6751	-0.9996	0.1865	-0.6453	0.2947	-6.5945	-1.4957
-0.5483	-0.1604	-0.9474	-0.8318	-0.3991	-0.6639	-0.4215	-0.2387	-0.4103	-0.2536	-0.194	-0.1678	-0.2238	-0.3469	0.276	0.0709	0.6826	-1.0295	0.1417	-0.6304	0.1977	-6.9153	-1.4696
-0.4625	-0.1268	-0.8989	-0.7684	-0.4178	-0.6975	-0.3991	-0.3469	-0.4737	-0.2387	-0.317	-0.3096	-0.2723	-0.3357	0.2648	0.1082	0.6714	-1.0369	0.1268	-0.5968	0.1417	-7.2584	-1.4248
-0.3805	-0.0709	-0.843	-0.6863	-0.4476	-0.7087	-0.3432	-0.3954	-0.5296	-0.2536	-0.4103	-0.3991	-0.276	-0.317	0.2686	0.0858	0.649	-1.0145	0.1268	-0.5371	0.097	-7.5867	-1.3763
-0.2872	0.0149	-0.7721	-0.5558	-0.4252	-0.6788	-0.2872	-0.4625	-0.5819	-0.2387	-0.4886	-0.47	-0.3208	-0.3282	0.2611	0.1156	0.649	-1.0071	0.1082	-0.4812	0.0597	-7.9	-1.3092
-0.1716	0.1231	-0.6751	-0.4513	-0.4066	-0.6304	-0.2089	-0.4961	-0.6005	-0.194	-0.5819	-0.5707	-0.3282	-0.332	0.2835	0.1156	0.6378	-0.9661	0.1156	-0.4401	0.0075	-8.1611	-1.2495
-0.1044	0.1567	-0.6415	-0.3059	-0.373	-0.6378	-0.1492	-0.5558	-0.6677	-0.1678	-0.6863	-0.6826	-0.3618	-0.332	0.2424	0.0634	0.6527	-0.9586	0.0597	-0.4028	-0.0485	-8.3811	-1.2309
-0.0261	0.2126	-0.5371	-0.1529	-0.3954	-0.6304	-0.0522	-0.5931	-0.7236	-0.1305	-0.7907	-0.787	-0.4028	-0.3245	0.2275	0.0149	0.6304	-0.9362	-0.0037	-0.3618	-0.1156	-8.5229	-1.201
0.0149	0.1977	-0.511	-0.0224	-0.4178	-0.6304	0.0336	-0.6826	-0.7572	-0.1231	-0.8803	-0.8877	-0.4513	-0.3059	0.1455	-0.1194	0.6154	-0.8952	-0.0261	-0.3059	-0.179	-8.5676	-1.1936
0.0186	0.194	-0.511	0.0783	-0.4364	-0.6527	0.1119	-0.7385	-0.8169	-0.1007	-0.9847	-1.0145	-0.4737	-0.3059	0.0821	-0.2462	0.6042	-0.8952	-0.0783	-0.2686	-0.2648	-8.5788	-1.2085
-0.0037	0.1194	-0.5222	0.097	-0.5296	-0.6938	0.1231	-0.8243	-0.8952	-0.1231	-1.1115	-1.1339	-0.5185	-0.3059	-0.0261	-0.4737	0.5931	-0.8728	-0.138	-0.2611	-0.317	-8.5005	-1.1861
-0.0932	0.0224	-0.5595	0.179	-0.5893	-0.7423	0.1529	-0.8803	-0.9511	-0.1156	-1.2085	-1.257	-0.6192	-0.2797	-0.1305	-0.6788	0.5669	-0.8206	-0.1492	-0.2089	-0.4066	-8.37	-1.2122
-0.1716	-0.1268	-0.6304	0.194	-0.7199	-0.828	0.138	-0.9735	-1.0742	-0.1604	-1.3465	-1.4136	-0.6639	-0.2835	-0.2947	-0.9288	0.5408	-0.7945	-0.1604	-0.1678	-0.4401	-8.1909	-1.2346
-0.2947	-0.3059	-0.7385	0.1902	-0.8691	-0.9026	0.1156	-1.1041	-1.1861	-0.2201	-1.4733	-1.5479	-0.7236	-0.2648	-0.4252	-1.1936	0.5147	-0.7385	-0.1977	-0.1417	-0.5259	-7.9932	-1.2495
-0.4178	-0.4737	-0.8355	0.1567	-1.0369	-0.9959	0.0709	-1.2346	-1.2906	-0.2574	-1.574	-1.6747	-0.7684	-0.235	-0.5371	-1.4286	0.4662	-0.6975	-0.2089	-0.1044	-0.5669	-7.7694	-1.2831
-0.5707	-0.6192	-0.9474	0.0746	-1.1525	-1.0854	0.0037	-1.3129	-1.3689	-0.3021	-1.6524	-1.7904	-0.8542	-0.2275	-0.6826	-1.6561	0.4215	-0.6378	-0.2275	-0.0932	-0.6266	-7.5307	-1.2682
-0.7236	-0.8057	-1.0891	0.0224	-1.2868	-1.216	-0.0671	-1.4136	-1.4994	-0.4028	-1.7866	-1.9284	-0.9288	-0.1753	-0.7684	-1.8463	0.3618	-0.5483	-0.2536	-0.0373	-0.6826	-7.2883	-1.2682
-0.8989	-0.9735	-1.2458	-0.0746	-1.4062	-1.3316	-0.1678	-1.4994	-1.6262	-0.4774	-1.8724	-2.0515	-1.0071	-0.1455	-0.8915	-2.0664	0.2947	-0.4961	-0.3059	-0.0186	-0.6938	-7.0533	-1.2458
-0.9884	-1.1152	-1.3577	-0.179	-1.5032	-1.3987	-0.2648	-1.5405	-1.727	-0.552	-1.906	-2.1484	-1.0668	-0.1044	-0.9362	-2.1671	0.2163	-0.4401	-0.332	0.0224	-0.7124	-6.8444	-1.2197
-1.16	-1.257	-1.4808	-0.317	-1.5815	-1.5367	-0.3916	-1.6076	-1.8389	-0.6565	-2.0067	-2.2678	-1.16	-0.0709	-0.9884	-2.2417	0.1455	-0.3879	-0.3693	0.0373	-0.7423	-6.6505	-1.1637
-1.257	-1.3614	-1.5889	-0.3954	-1.6374	-1.6262	-0.4588	-1.6337	-1.9209	-0.7311	-2.0328	-2.3797	-1.2197	-0.0336	-0.981	-2.2641	0.0559	-0.3432	-0.4103	0.0485	-0.7423	-6.505	-1.1078
-1.354	-1.4286	-1.7232	-0.4812	-1.6897	-1.7008	-0.5856	-1.671	-2.0403	-0.8243	-2.0925	-2.4804	-1.3241	0.0075	-0.9399	-2.1895	-0.0186	-0.3208	-0.4289	0.0709	-0.7572	-6.4117	-1.0518
-1.4509	-1.4845	-1.8426	-0.5931	-1.7232	-1.8202	-0.6714	-1.6971	-2.1186	-0.9288	-2.141	-2.5886	-1.4099	0.041	-0.9213	-2.1037	-0.097	-0.2984	-0.4737	0.0858	-0.7534	-6.3297	-0.9698
-1.4882	-1.4808	-1.8985	-0.649	-1.7158	-1.9097	-0.7385	-1.6859	-2.2081	-0.9959	-2.1634	-2.6408	-1.5032	0.0932	-0.8616	-1.9657	-0.1753	-0.276	-0.4662	0.1194	-0.7423	-6.27	-0.884
-1.5852	-1.5032	-1.9918	-0.7236	-1.7046	-1.9731	-0.8392	-1.6822	-2.2715	-1.0966	-2.1708	-2.6818	-1.5442	0.1343	-0.8019	-1.8389	-0.2611	-0.2462	-0.4774	0.1529	-0.7199	-6.2178	-0.7907
-1.6449	-1.4882	-2.0664	-0.7721	-1.6449	-2.0104	-0.8915	-1.6449	-2.32	-1.1414	-2.1596	-2.7117	-1.6113	0.1902	-0.6826	-1.6561	-0.3618	-0.2014	-0.4401	0.2089	-0.6751	-6.1917	-0.705
-1.6971	-1.4621	-2.1186	-0.828	-1.6262	-2.0626	-0.9437	-1.6151	-2.3648	-1.1973	-2.1559	-2.7713	-1.6449	0.2163	-0.6117	-1.5367	-0.4327	-0.194	-0.4439	0.2126	-0.705	-6.1693	-0.6154
-1.7792	-1.5218	-2.2156	-0.8915	-1.6449	-2.1522	-0.9884	-1.63	-2.4021	-1.2458	-2.1484	-2.7974	-1.712	0.2499	-0.552	-1.4136	-0.4849	-0.1156	-0.4625	0.2574	-0.6565	-6.1693	-0.5632
-1.8538	-1.574	-2.3014	-0.9399	-1.6934	-2.2007	-1.0369	-1.6412	-2.4729	-1.2868	-2.1596	-2.7974	-1.7195	0.2797	-0.4588	-1.2756	-0.5408	-0.0821	-0.4551	0.3059	-0.6639	-6.2141	-0.5296
-1.906	-1.6039	-2.3499	-0.9847	-1.6934	-2.2417	-1.0668	-1.6337	-2.4953	-1.3129	-2.1559	-2.79	-1.7307	0.3208	-0.3916	-1.1525	-0.6042	-0.0112	-0.4737	0.3506	-0.69	-6.2588	-0.5073
-1.9769	-1.6598	-2.4506	-1.0556	-1.7829	-2.3312	-1.1264	-1.6785	-2.5475	-1.3353	-2.2118	-2.8385	-1.7568	0.3357	-0.3357	-1.0481	-0.6453	0.0224	-0.5334	0.3842	-0.7423	-6.3297	-0.4961
-2.0253	-1.7419	-2.5102	-1.1302	-1.8277	-2.3573	-1.1787	-1.7419	-2.5662	-1.3763	-2.2156	-2.79	-1.7941	0.3469	-0.2984	-0.9138	-0.6826	0.0559	-0.6117	0.4215	-0.8131	-6.4304	-0.511
-2.0888	-1.809	-2.5177	-1.1749	-1.8687	-2.3797	-1.2309	-1.7456	-2.5513	-1.3875	-2.2454	-2.7788	-1.7904	0.3767	-0.2723	-0.8243	-0.7348	0.1119	-0.6639	0.4476	-0.8579	-6.5498	-0.5073
-2.0888	-1.8351	-2.5736	-1.2197	-1.9209	-2.4095	-1.2644	-1.7792	-2.5736	-1.4099	-2.2603	-2.7228	-1.7754	0.3991	-0.2499	-0.6975	-0.7609	0.1305	-0.7684	0.4476	-0.9586	-6.7027	-0.5147
-2.0701	-1.8277	-2.5662	-1.2458	-1.9508	-2.3983	-1.2906	-1.7829	-2.5363	-1.4136	-2.2454	-2.652	-1.768	0.4066	-0.2014	-0.5558	-0.7982	0.1716	-0.8057	0.4439	-1.0071	-6.9004	-0.4849
-1.9918	-1.8165	-2.5401	-1.2756	-1.9545	-2.3797	-1.3055	-1.8127	-2.4879	-1.4136	-2.2641	-2.596	-1.7456	0.414	-0.1194	-0.4178	-0.8169	0.1828	-0.9288	0.4401	-1.1003	-7.1242	-0.47
-1.9321	-1.7717	-2.4767	-1.2607	-1.947	-2.3126	-1.3167	-1.8165	-2.417	-1.3577	-2.2641	-2.4953	-1.7307	0.4364	-0.0298	-0.2947	-0.8504	0.2163	-1.0034	0.4588	-1.1973	-7.4039	-0.4476
-1.8463	-1.7605	-2.4058	-1.2607	-1.9284	-2.2715	-1.2906	-1.8127	-2.3312	-1.3689	-2.2193	-2.3797	-1.6747	0.4289	0.0448	-0.1305	-0.8467	0.2499	-1.1041	0.4551	-1.2794	-7.706	-0.3879
-1.7307	-1.6822	-2.3275	-1.2346	-1.8985	-2.2118	-1.2607	-1.7829	-2.2305	-1.3092	-2.2268	-2.2566	-1.6113	0.4327	0.1343	0.0112	-0.8616	0.2275	-1.1898	0.4625	-1.3465	-8.0082	-0.332
-1.6486	-1.6225	-2.223	-1.2309	-1.8836	-2.141	-1.2346	-1.7792	-2.1149	-1.2794	-2.2007	-2.1335	-1.5666	0.4327	0.2014	0.1604	-0.8765	0.2499	-1.2868	0.4662	-1.4398	-8.3438	-0.2947
-1.5591	-1.5703	-2.1671	-1.2048	-1.8762	-2.0776	-1.1749	-1.7754	-2.0291	-1.2271	-2.1484	-1.9806	-1.4808	0.4401	0.2686	0.2797	-0.8691	0.2648	-1.3763	0.4886	-1.5032	-8.6683	-0.2648
-1.4509	-1.5367	-2.0813	-1.1749	-1.8575	-2.0291	-1.1302	-1.7829	-1.9246	-1.1525	-2.1335	-1.8873	-1.3801	0.4289	0.2909	0.3581	-0.8542	0.2872	-1.4733	0.511	-1.574	-8.9667	-0.2201
-1.3838	-1.5181	-2.0664	-1.1302	-1.8762	-1.9731	-1.0817	-1.7904	-1.8687	-1.1078	-2.1149	-1.7717	-1.339	0.4252	0.3133	0.4961	-0.828	0.2686	-1.5778	0.5073	-1.63	-9.2763	-0.194
-1.298	-1.4845	-1.9992	-1.0854	-1.8575	-1.9358	-1.0071	-1.768	-1.7605	-1.0406	-2.0589	-1.671	-1.2794	0.4066	0.276	0.5893	-0.7945	0.2424	-1.6151	0.5259	-1.6747	-9.53	-0.1529
-1.3055	-1.4696	-1.9881	-1.0668	-1.8389	-1.9806	-0.9772	-1.7643	-1.7307	-0.9847	-2.0589	-1.5778	-1.2122	0.3805	0.2611	0.6042	-0.7572	0.2462	-1.6785	0.5371	-1.7158	-9.7015	-0.1417
-1.3055	-1.492	-2.0067	-1.0518	-1.8762	-1.9992	-0.9661	-1.8165	-1.6747	-0.9549	-2.0253	-1.5106	-1.1675	0.3543	0.1716	0.6192	-0.6975	0.2201	-1.7381	0.511	-1.7493	-9.8731	-0.1231
-1.3055	-1.5069	-2.0104	-1.0556	-1.9023	-2.0365	-0.9213	-1.8389	-1.671	-0.9399	-1.9992	-1.4211	-1.1339	0.3096	0.138	0.6639	-0.6192	0.1828	-1.7978	0.4924	-1.8016	-9.9887	-0.1007
-1.354	-1.5703	-2.085	-1.0668	-1.9321	-2.0999	-0.9213	-1.8799	-1.6934	-0.9325	-2.0104	-1.3987	-1.1152	0.2611	0.0821	0.649	-0.5296	0.1156	-1.85	0.4439	-1.865	-10.082	-0.1007
-1.4062	-1.6188	-2.141	-1.0854	-1.9843	-2.1857	-0.8952	-1.8985	-1.7158	-0.9176	-2.0216	-1.3689	-1.0779	0.2275	0.0559	0.649	-0.4513	0.0746	-1.8985	0.414	-1.8873	-10.1603	-0.097
-1.5144	-1.6971	-2.2081	-1.1152	-2.0664	-2.2976	-0.8877	-1.9881	-1.7307	-0.8877	-2.0291	-1.3502	-1.0556	0.1753	0.0112	0.6415	-0.3432	0.0112	-1.9321	0.3394	-1.947	-10.1864	-0.1492
-1.6039	-1.8127	-2.3387	-1.1525	-2.1447	-2.3685	-0.8728	-2.0365	-1.7643	-0.8765	-2.0104	-1.3279	-1.0518	0.1044	-0.0037	0.6341	-0.2163	-0.0485	-1.9806	0.2499	-1.9657	-10.22	-0.2462
-1.7307	-1.947	-2.4356	-1.201	-2.2417	-2.5177	-0.8467	-2.1149	-1.8426	-0.8542	-2.0701	-1.3092	-1.0444	0.0522	-0.0858	0.6341	-0.0821	-0.138	-2.0552	0.1417	-2.0253	-10.2237	-0.3394
-1.8202	-2.0477	-2.5289	-1.2309	-2.3237	-2.5811	-0.8206	-2.1745	-1.85	-0.8094	-2.0477	-1.2794	-1.0145	-0.0112	-0.0821	0.6788	0.041	-0.2089	-2.0776	0.041	-2.0477	-10.2386	-0.4551
-1.9843	-2.2081	-2.7005	-1.3428	-2.4356	-2.7117	-0.8094	-2.2753	-1.9508	-0.843	-2.1149	-1.3092	-1.0257	-0.0858	-0.1268	0.6714	0.194	-0.332	-2.1634	-0.1268	-2.1298	-10.2386	-0.6005
-2.0925	-2.3499	-2.8459	-1.3652	-2.5587	-2.8086	-0.7945	-2.32	-1.9918	-0.787	-2.1298	-1.2906	-1.0332	-0.1641	-0.194	0.7385	0.332	-0.4364	-2.1596	-0.235	-2.1447	-10.2013	-0.7087
-2.2603	-2.5289	-2.9989	-1.4696	-2.652	-2.9131	-0.8057	-2.4431	-2.0813	-0.7982	-2.182	-1.3428	-1.0668	-0.2536	-0.2723	0.7236	0.4961	-0.5931	-2.2156	-0.4103	-2.2044	-10.1379	-0.8616
-2.4431	-2.7415	-3.1704	-1.6001	-2.8198	-3.0436	-0.8318	-2.5363	-2.1634	-0.7982	-2.2454	-1.3614	-1.0929	-0.3282	-0.3618	0.705	0.6527	-0.7199	-2.2529	-0.6117	-2.2417	-10.026	-0.9847
-2.6259	-2.9466	-3.3159	-1.6859	-2.969	-3.1219	-0.8206	-2.6371	-2.238	-0.8019	-2.2902	-1.3614	-1.1003	-0.3916	-0.4551	0.6527	0.7833	-0.8131	-2.2529	-0.746	-2.2902	-9.8582	-1.119
-2.79	-3.1443	-3.5173	-1.8165	-3.0884	-3.2152	-0.8616	-2.7378	-2.2902	-0.8243	-2.3237	-1.4025	-1.1376	-0.4737	-0.6266	0.5446	0.9138	-0.9511	-2.2603	-0.9288	-2.3312	-9.6269	-1.257
-3.0138	-3.3719	-3.6964	-1.9992	-3.2562	-3.3271	-0.9138	-2.8571	-2.4282	-0.8542	-2.4095	-1.4509	-1.1898	-0.5296	-0.8169	0.3842	1.0481	-1.0742	-2.2753	-1.1003	-2.376	-9.3509	-1.3913
-3.245	-3.5733	-3.8344	-2.1559	-3.398	-3.398	-0.9698	-2.9466	-2.4879	-0.8691	-2.4804	-1.4621	-1.2346	-0.5707	-1.0108	0.1641	1.1302	-1.1749	-2.2827	-1.2383	-2.4133	-9.0302	-1.5144
-3.4166	-3.756	-3.9873	-2.3349	-3.5509	-3.4838	-1.0444	-3.0511	-2.5848	-0.9288	-2.5475	-1.5218	-1.2906	-0.6304	-1.2085	-0.0858	1.2346	-1.2906	-2.2864	-1.436	-2.4655	-8.6795	-1.6412
-3.6255	-3.9164	-4.1328	-2.4618	-3.6777	-3.536	-1.1115	-3.163	-2.6557	-0.9623	-2.6147	-1.5405	-1.3316	-0.649	-1.4248	-0.3581	1.3017	-1.3875	-2.2827	-1.5554	-2.5065	-8.3289	-1.7456
-3.8456	-4.0693	-4.267	-2.6333	-3.8194	-3.577	-1.1973	-3.2823	-2.7266	-1.0518	-2.7117	-1.5666	-1.4062	-0.69	-1.6412	-0.6938	1.3763	-1.4771	-2.3126	-1.7083	-2.5886	-7.982	-1.8911
-3.9873	-4.2111	-4.364	-2.7825	-3.9276	-3.618	-1.2831	-3.3607	-2.7788	-1.1041	-2.7601	-1.6076	-1.4398	-0.7311	-1.8016	-1.0108	1.4398	-1.574	-2.3275	-1.8687	-2.6296	-7.6874	-1.9918
-4.1365	-4.3304	-4.4573	-2.8982	-4.0358	-3.6218	-1.3353	-3.4576	-2.8683	-1.1787	-2.8459	-1.6449	-1.4994	-0.7497	-1.9694	-1.3614	1.4882	-1.6449	-2.3722	-2.0104	-2.7191	-7.4039	-2.0888
-4.2484	-4.3901	-4.5058	-2.9877	-4.0992	-3.6367	-1.4025	-3.5397	-2.9131	-1.2421	-2.9131	-1.6598	-1.5815	-0.7646	-2.0477	-1.7456	1.5181	-1.6859	-2.4058	-2.141	-2.7863	-7.195	-2.2118
-4.2969	-4.4088	-4.4983	-3.1108	-4.1514	-3.5882	-1.4733	-3.5845	-2.9616	-1.298	-2.9317	-1.6561	-1.6151	-0.7796	-2.141	-2.0776	1.5218	-1.7456	-2.4506	-2.2417	-2.8422	-7.057	-2.3051
-4.3193	-4.4274	-4.502	-3.1742	-4.1924	-3.5733	-1.5479	-3.6479	-3.0362	-1.4062	-2.9877	-1.6673	-1.6635	-0.7833	-2.1857	-2.4021	1.5554	-1.8351	-2.4841	-2.3872	-2.9168	-6.9936	-2.3834
-4.2558	-4.3789	-4.4386	-3.1928	-4.1887	-3.4949	-1.63	-3.6628	-3.025	-1.4248	-3.0138	-1.6374	-1.6449	-0.7684	-2.1783	-2.6296	1.5405	-1.8463	-2.4841	-2.4916	-2.9429	-7.0496	-2.4543
-4.2036	-4.3081	-4.3416	-3.2003	-4.1663	-3.439	-1.6635	-3.6702	-3.0175	-1.5069	-3.0399	-1.6076	-1.6673	-0.7758	-2.1895	-2.8609	1.5554	-1.8911	-2.4916	-2.5848	-2.9317	-7.1615	-2.5252
-4.0843	-4.2111	-4.2185	-3.1854	-4.1141	-3.3383	-1.7232	-3.6553	-3.0026	-1.5255	-2.9989	-1.5591	-1.6449	-0.7796	-2.1559	-3.0511	1.5442	-1.8724	-2.4879	-2.6557	-2.9355	-7.3517	-2.596
-3.9612	-4.0693	-4.1253	-3.1518	-4.0619	-3.2562	-1.7232	-3.618	-2.9877	-1.5666	-2.969	-1.5032	-1.6262	-0.7945	-2.1783	-3.2077	1.5405	-1.8873	-2.4468	-2.7228	-2.8832	-7.568	-2.6296
-3.8083	-3.9463	-3.9761	-3.066	-4.0059	-3.1518	-1.7717	-3.5882	-2.9653	-1.5666	-2.9093	-1.4248	-1.5591	-0.7796	-2.182	-3.301	1.5293	-1.8426	-2.4841	-2.7303	-2.8982	-7.844	-2.652
-3.6143	-3.7411	-3.7821	-2.9765	-3.8866	-3.0212	-1.7531	-3.5061	-2.8907	-1.5554	-2.8161	-1.298	-1.4808	-0.7646	-2.1895	-3.3047	1.4957	-1.7754	-2.4282	-2.7378	-2.8049	-8.1424	-2.6632
-3.4129	-3.5322	-3.6031	-2.8497	-3.7337	-2.8907	-1.7344	-3.3905	-2.8049	-1.4994	-2.7005	-1.1787	-1.3726	-0.7385	-2.2342	-3.3234	1.436	-1.6673	-2.3872	-2.6706	-2.7266	-8.4669	-2.652
-3.2115	-3.3122	-3.4092	-2.7378	-3.5994	-2.79	-1.7008	-3.26	-2.7191	-1.4621	-2.5886	-1.0556	-1.2346	-0.705	-2.2753	-3.2562	1.4025	-1.5554	-2.3872	-2.6184	-2.6594	-8.8548	-2.6445
-3.0175	-3.0735	-3.2189	-2.596	-3.4278	-2.652	-1.671	-3.163	-2.6333	-1.4099	-2.4655	-0.9399	-1.0966	-0.6788	-2.3387	-3.1928	1.3353	-1.4174	-2.3797	-2.5252	-2.5699	-9.2614	-2.6109
-2.8124	-2.8534	-3.0697	-2.4543	-3.2786	-2.5625	-1.6262	-3.0623	-2.5513	-1.3614	-2.3461	-0.8019	-0.981	-0.6453	-2.417	-3.1294	1.2794	-1.2906	-2.3797	-2.4245	-2.4953	-9.7015	-2.6035
-2.6482	-2.5923	-2.8944	-2.3088	-3.1294	-2.4543	-1.5778	-2.9168	-2.4841	-1.2719	-2.2417	-0.6639	-0.8094	-0.6117	-2.4991	-3.0138	1.1936	-1.1227	-2.3499	-2.32	-2.3946	-10.1379	-2.5848
-2.4991	-2.3797	-2.7788	-2.1932	-2.9168	-2.3797	-1.5293	-2.7863	-2.4021	-1.2197	-2.0738	-0.552	-0.6415	-0.5632	-2.6333	-2.9243	1.1227	-0.9586	-2.3424	-2.2454	-2.2753	-10.5408	-2.5363
-2.3275	-2.2007	-2.6259	-2.0888	-2.7601	-2.2939	-1.492	-2.6594	-2.32	-1.1451	-1.9396	-0.3991	-0.5035	-0.5185	-2.7005	-2.8236	1.0332	-0.7907	-2.3051	-2.1335	-2.1634	-10.9026	-2.4879
-2.2715	-2.0291	-2.5289	-2.0253	-2.6147	-2.2678	-1.4808	-2.5699	-2.2827	-1.0817	-1.809	-0.2872	-0.3245	-0.4849	-2.79	-2.7191	0.9549	-0.5893	-2.3312	-2.0104	-2.085	-11.2122	-2.4282
-2.2007	-1.9321	-2.4804	-1.9582	-2.5065	-2.2342	-1.4584	-2.458	-2.1969	-1.0071	-1.6971	-0.1977	-0.1678	-0.4401	-2.8944	-2.6706	0.8616	-0.4103	-2.3126	-1.8836	-1.9694	-11.4471	-2.376
-2.1484	-1.8165	-2.4245	-1.9209	-2.4282	-2.2193	-1.4621	-2.3983	-2.1708	-0.9735	-1.5815	-0.1082	-0.041	-0.4028	-2.9765	-2.5998	0.7833	-0.2238	-2.3573	-1.7643	-1.8911	-11.6672	-2.3051
-2.1111	-1.768	-2.4468	-1.9172	-2.3648	-2.2417	-1.4733	-2.3349	-2.1298	-0.9362	-1.5144	-0.0186	0.1007	-0.3581	-3.0324	-2.5475	0.7087	-0.0075	-2.3722	-1.6262	-1.8165	-11.8201	-2.223
-2.1335	-1.7568	-2.4319	-1.9023	-2.3163	-2.2491	-1.4994	-2.2417	-2.0999	-0.9064	-1.4025	0.0858	0.2424	-0.3059	-3.1219	-2.5326	0.6192	0.1716	-2.4133	-1.4771	-1.7344	-11.9283	-2.1335
-2.1298	-1.7493	-2.458	-1.906	-2.2976	-2.2827	-1.5069	-2.2342	-2.0813	-0.8616	-1.3316	0.1492	0.3618	-0.2686	-3.1816	-2.5475	0.5222	0.3543	-2.4767	-1.3204	-1.6785	-12.0141	-2.0515
-2.1634	-1.7866	-2.5065	-1.9246	-2.2976	-2.3237	-1.5405	-2.2118	-2.085	-0.8579	-1.2868	0.179	0.4737	-0.2275	-3.2413	-2.5886	0.4289	0.4886	-2.5065	-1.1824	-1.5964	-12.0365	-1.9769
-2.2268	-1.8314	-2.5625	-1.9992	-2.3237	-2.3909	-1.5703	-2.2118	-2.0888	-0.8467	-1.2271	0.2499	0.6005	-0.1678	-3.2861	-2.6072	0.3357	0.6677	-2.5774	-1.0444	-1.6188	-12.0551	-1.8538
-2.2827	-1.85	-2.6371	-2.0216	-2.3237	-2.4356	-1.5964	-2.1708	-2.0515	-0.8169	-1.1525	0.2797	0.6938	-0.1156	-3.3271	-2.6632	0.2275	0.843	-2.5475	-0.9064	-1.5181	-12.0439	-1.7978
-2.3685	-1.9396	-2.7378	-2.1261	-2.32	-2.4916	-1.671	-2.1857	-2.0664	-0.8094	-1.1227	0.3096	0.7758	-0.0559	-3.3196	-2.693	0.1194	0.9661	-2.5848	-0.7945	-1.4771	-12.0216	-1.7008
-2.4879	-2.0253	-2.8422	-2.2305	-2.3797	-2.5736	-1.7419	-2.1634	-2.085	-0.8131	-1.0929	0.3469	0.884	-0.0149	-3.3495	-2.7788	0.0336	1.0817	-2.5774	-0.6639	-1.4584	-11.947	-1.6262
-2.6072	-2.1149	-2.9392	-2.3163	-2.4468	-2.6408	-1.7643	-2.1857	-2.0813	-0.8243	-1.0742	0.3693	0.925	0.0373	-3.3756	-2.8646	-0.0597	1.1824	-2.5662	-0.5819	-1.4323	-11.8574	-1.574
-2.7303	-2.2268	-3.0697	-2.3983	-2.4767	-2.7154	-1.8053	-2.2081	-2.0776	-0.7907	-1.0295	0.3916	1.0183	0.0783	-3.3532	-2.9131	-0.1641	1.2682	-2.5438	-0.4961	-1.3913	-11.7605	-1.5442
-2.8385	-2.3126	-3.1369	-2.4692	-2.4916	-2.7266	-1.7941	-2.1969	-2.0701	-0.7646	-0.981	0.4215	1.0929	0.138	-3.2935	-2.969	-0.2462	1.3577	-2.4991	-0.3991	-1.3838	-11.6672	-1.5181
-2.9392	-2.3797	-3.2301	-2.4841	-2.514	-2.734	-1.7531	-2.1708	-2.0253	-0.7273	-0.9772	0.4513	1.16	0.1828	-3.245	-2.9914	-0.3506	1.4136	-2.4543	-0.3245	-1.3614	-11.559	-1.5218
-3.0175	-2.4618	-3.2823	-2.5214	-2.4991	-2.749	-1.7158	-2.1111	-1.9881	-0.6714	-0.9213	0.4662	1.2309	0.2201	-3.1854	-3.025	-0.4252	1.4248	-2.3946	-0.2536	-1.3241	-11.4658	-1.5479
-3.1257	-2.5214	-3.3383	-2.5363	-2.4319	-2.734	-1.6561	-2.0589	-1.8911	-0.5669	-0.8467	0.5558	1.3017	0.2536	-3.1481	-3.0324	-0.5035	1.4621	-2.3126	-0.1567	-1.2831	-11.3576	-1.6039
-3.2152	-2.5662	-3.4017	-2.5699	-2.4058	-2.7117	-1.6076	-1.9955	-1.8389	-0.5185	-0.8318	0.5632	1.3614	0.2797	-3.0921	-3.0884	-0.552	1.5032	-2.2566	-0.1119	-1.2644	-11.2383	-1.6859
-3.2749	-2.6482	-3.4278	-2.5774	-2.3834	-2.652	-1.5479	-1.9582	-1.7381	-0.4625	-0.7796	0.6341	1.4025	0.2984	-3.0623	-3.1219	-0.5781	1.4696	-2.1708	-0.0671	-1.2197	-11.0853	-1.8165
-3.342	-2.7266	-3.4688	-2.5998	-2.3648	-2.6259	-1.492	-1.8799	-1.6822	-0.4178	-0.7236	0.649	1.4472	0.2909	-3.0324	-3.1704	-0.5669	1.4286	-2.1037	-0.0634	-1.1973	-10.8765	-1.9246
-3.4129	-2.7863	-3.48	-2.5998	-2.3648	-2.5625	-1.4547	-1.7904	-1.5852	-0.3767	-0.6565	0.7087	1.4435	0.276	-3.0511	-3.1816	-0.5446	1.3204	-2.0365	-0.0448	-1.1675	-10.6228	-2.0403
-3.4651	-2.8683	-3.5211	-2.6296	-2.3424	-2.4804	-1.4136	-1.7643	-1.5293	-0.3543	-0.6565	0.7348	1.4398	0.2387	-3.0548	-3.2003	-0.47	1.1787	-1.9806	-0.0821	-1.1563	-10.3282	-2.182
-3.5024	-2.9317	-3.5024	-2.6594	-2.3051	-2.4133	-1.3987	-1.6971	-1.4286	-0.3282	-0.5931	0.7646	1.4062	0.2014	-3.0399	-3.2338	-0.3842	1.0183	-1.9172	-0.1343	-1.1302	-10.0037	-2.3499
-3.5695	-2.9989	-3.5211	-2.6669	-2.3163	-2.3536	-1.3801	-1.6486	-1.339	-0.3357	-0.5856	0.7311	1.354	0.1343	-3.0511	-3.2301	-0.2611	0.8542	-1.8575	-0.2201	-1.1003	-9.6978	-2.5065
-3.5994	-3.0623	-3.4987	-2.7079	-2.2864	-2.279	-1.3726	-1.5964	-1.2421	-0.332	-0.552	0.746	1.2868	0.0559	-3.0548	-3.1891	-0.1119	0.6565	-1.7941	-0.2872	-1.119	-9.3696	-2.6818
-3.5994	-3.0921	-3.5024	-2.6967	-2.2603	-2.1596	-1.3316	-1.5367	-1.1675	-0.3506	-0.5185	0.7534	1.2271	-0.0112	-3.0846	-3.0884	0.0485	0.4439	-1.7456	-0.3506	-1.119	-9.0563	-2.8497
-3.577	-3.107	-3.4427	-2.7005	-2.1969	-2.0664	-1.3129	-1.4398	-1.0593	-0.317	-0.4588	0.7796	1.1787	-0.1343	-3.0809	-2.9951	0.2424	0.2089	-1.6598	-0.4513	-1.063	-8.7541	-2.9802
-3.5546	-3.0101	-3.3756	-2.6893	-2.0999	-1.906	-1.2719	-1.3204	-0.925	-0.3096	-0.4178	0.8131	1.1264	-0.2275	-3.0473	-2.8459	0.4401	-0.0112	-1.5703	-0.4737	-1.0481	-8.4819	-3.0958
-3.4576	-2.8944	-3.245	-2.6184	-1.9508	-1.727	-1.2085	-1.1936	-0.7497	-0.2536	-0.3021	0.8579	1.1041	-0.3133	-3.0026	-2.6445	0.6304	-0.2089	-1.4174	-0.5073	-0.9511	-8.2469	-3.2115
-3.3084	-2.7005	-3.0921	-2.5214	-1.7344	-1.5293	-1.0742	-0.9772	-0.5558	-0.1492	-0.1865	0.9399	1.0891	-0.4215	-2.9243	-2.4133	0.8467	-0.3655	-1.2309	-0.5035	-0.8728	-8.0604	-3.2861
-3.2227	-2.5028	-2.928	-2.376	-1.5367	-1.3204	-0.9586	-0.7907	-0.3618	-0.0485	-0.0746	1.0034	1.1041	-0.5371	-2.8758	-2.2118	1.0742	-0.552	-1.0556	-0.5296	-0.7758	-7.8888	-3.3607
-3.0399	-2.2454	-2.7079	-2.2081	-1.2607	-1.0891	-0.7907	-0.5632	-0.1268	0.0783	0.0709	1.119	1.1115	-0.6527	-2.7415	-1.9433	1.2868	-0.6975	-0.8094	-0.4849	-0.6527	-7.7993	-3.4203
-2.8795	-1.9657	-2.5065	-2.0365	-0.981	-0.828	-0.608	-0.3208	0.1119	0.2126	0.2499	1.2682	1.1675	-0.7273	-2.6632	-1.6859	1.4733	-0.8243	-0.5931	-0.4252	-0.5185	-7.7508	-3.4987
-2.6855	-1.671	-2.2827	-1.8612	-0.7087	-0.5819	-0.4737	-0.0858	0.3282	0.332	0.3991	1.3689	1.1787	-0.8206	-2.5363	-1.3838	1.6635	-0.9698	-0.3991	-0.3842	-0.4252	-7.7993	-3.5509
-2.4804	-1.354	-2.0403	-1.6673	-0.3805	-0.3021	-0.3059	0.1492	0.5595	0.4476	0.5707	1.4696	1.216	-0.9176	-2.3983	-1.1227	1.8202	-1.1115	-0.1678	-0.3432	-0.2947	-7.8851	-3.5882
-2.2566	-1.0444	-1.8202	-1.5293	-0.1194	-0.0448	-0.2051	0.3879	0.8094	0.5558	0.7161	1.5778	1.1973	-1.0034	-2.279	-0.8765	1.9955	-1.3055	0.0149	-0.3394	-0.2014	-8.0305	-3.6441
-2.0589	-0.7534	-1.5815	-1.3763	0.1231	0.1641	-0.1044	0.5856	1.0071	0.6154	0.8392	1.671	1.1712	-1.0929	-2.1447	-0.6304	2.1372	-1.4733	0.2126	-0.3357	-0.0485	-8.2319	-3.6964
-1.8351	-0.4439	-1.3465	-1.2085	0.4215	0.4327	0	0.8243	1.2383	0.69	0.9735	1.7456	1.1078	-1.1488	-1.9918	-0.4028	2.2715	-1.671	0.4215	-0.3655	0.0336	-8.4669	-3.756
-1.5852	-0.1156	-1.1041	-1.0481	0.7236	0.6639	0.097	1.0556	1.4435	0.7273	1.1451	1.8463	1.1003	-1.216	-1.8463	-0.2126	2.3909	-1.8612	0.6154	-0.3581	0.179	-8.7504	-3.7933
-1.3316	0.1455	-0.9101	-0.9101	0.9847	0.8616	0.1828	1.2682	1.6449	0.8057	1.2607	1.9284	1.0668	-1.2719	-1.7381	-0.1007	2.5214	-2.0515	0.7684	-0.4028	0.2947	-9.0413	-3.8381
-1.1376	0.4028	-0.7087	-0.7385	1.2122	1.0593	0.2462	1.4323	1.8389	0.8318	1.4062	1.9881	0.981	-1.3279	-1.5852	0	2.652	-2.2753	0.8877	-0.4252	0.3954	-9.3658	-3.8903
-0.9064	0.6602	-0.4961	-0.6527	1.4323	1.2383	0.3096	1.6001	1.9769	0.8206	1.4659	2.0365	0.9176	-1.3987	-1.4211	0.0634	2.7564	-2.4879	1.0406	-0.5222	0.4924	-9.7463	-3.9649
-0.6751	0.8504	-0.3208	-0.5744	1.6039	1.3913	0.3096	1.7344	2.1261	0.8094	1.5778	2.0701	0.8206	-1.4435	-1.2533	0.1156	2.8758	-2.7266	1.0891	-0.608	0.5334	-10.1267	-4.0134
-0.4812	1.0034	-0.1716	-0.5222	1.7307	1.5106	0.2984	1.8538	2.2081	0.7572	1.63	2.0925	0.7199	-1.5106	-1.0854	0.1231	3.0063	-2.8907	1.1898	-0.69	0.608	-10.5482	-4.088
-0.276	1.1861	-0.0336	-0.4401	1.8724	1.6337	0.3096	1.9433	2.3573	0.746	1.671	2.0999	0.6192	-1.5591	-0.8653	0.138	3.0996	-3.1219	1.257	-0.7684	0.6938	-10.9996	-4.1626
-0.138	1.2346	0.1007	-0.3767	1.9284	1.7195	0.3059	2.0104	2.4058	0.6938	1.7046	2.0813	0.4961	-1.6225	-0.6005	0.1343	3.1965	-3.3122	1.2906	-0.8392	0.6938	-11.4695	-4.2335
0.0037	1.3353	0.1865	-0.3432	1.9694	1.7568	0.3096	2.0664	2.4618	0.649	1.7419	2.0813	0.3805	-1.6635	-0.3842	0.1156	3.301	-3.4875	1.3316	-0.8877	0.7907	-11.9395	-4.2782
0.1268	1.4509	0.2387	-0.3432	2.0403	1.8389	0.2909	2.085	2.4543	0.5819	1.7456	2.0253	0.2723	-1.712	-0.1268	0.1268	3.383	-3.674	1.3652	-0.9772	0.7945	-12.4318	-4.3342
0.2835	1.5628	0.373	-0.317	2.0999	1.9023	0.2686	2.1559	2.5326	0.5408	1.7717	2.003	0.1716	-1.727	0.1753	0.1641	3.4315	-3.8269	1.4099	-1.0108	0.8504	-12.9428	-4.3566
0.3805	1.671	0.4178	-0.3021	2.1484	1.906	0.2275	2.182	2.5214	0.4998	1.7456	1.9321	0.0298	-1.7717	0.4103	0.2201	3.4875	-3.9724	1.4323	-1.0593	0.8765	-13.4725	-4.3528
0.4961	1.7531	0.4476	-0.3432	2.1857	1.9097	0.1604	2.2044	2.5252	0.4103	1.7195	1.8724	-0.097	-1.7792	0.6453	0.3282	3.5285	-4.0992	1.4472	-1.0705	0.8989	-14.0133	-4.3416
0.5781	1.865	0.4886	-0.3916	2.2081	1.8948	0.138	2.1745	2.5065	0.3767	1.727	1.809	-0.2163	-1.7829	0.8653	0.4737	3.5546	-4.1999	1.4659	-1.0891	0.9511	-14.5094	-4.3155
0.649	1.9508	0.5259	-0.4774	2.2268	1.8463	0.0634	2.1857	2.4356	0.2686	1.7046	1.7344	-0.3282	-1.8165	1.0295	0.5595	3.5919	-4.3304	1.4584	-1.1227	0.9847	-14.9757	-4.2745
0.7161	2.0104	0.5483	-0.5446	2.2454	1.8202	-0.0149	2.2044	2.3909	0.194	1.6934	1.6524	-0.4551	-1.7978	1.1824	0.6639	3.5695	-4.4125	1.4957	-1.1227	1.0481	-15.3673	-4.2111
0.7348	2.0291	0.47	-0.6788	2.2081	1.7456	-0.138	2.1708	2.2976	0.0821	1.6524	1.5703	-0.6192	-1.8165	1.2794	0.7311	3.5882	-4.5393	1.4957	-1.1637	1.0705	-15.6545	-4.1626
0.7124	2.0104	0.4178	-0.8579	2.1671	1.6262	-0.235	2.1111	2.1895	-0.0075	1.6039	1.4547	-0.7236	-1.8127	1.3279	0.7572	3.5658	-4.6326	1.492	-1.2048	1.0891	-15.8783	-4.1066
0.6453	1.9619	0.3245	-1.0332	2.0477	1.4547	-0.3767	2.0104	2.0515	-0.1678	1.5106	1.3092	-0.8803	-1.7904	1.2868	0.7199	3.5472	-4.7482	1.4248	-1.2868	1.0929	-16.0014	-4.0693
0.5073	1.85	0.1716	-1.2682	1.9097	1.2682	-0.5669	1.906	1.8762	-0.2984	1.4286	1.16	-1.0406	-1.8016	1.1787	0.6565	3.5285	-4.8489	1.3502	-1.3875	1.1041	-16.0573	-4.0246
0.4215	1.7493	-0.0037	-1.4808	1.7456	1.0593	-0.7236	1.768	1.7008	-0.4327	1.3204	0.9847	-1.216	-1.7643	1.0295	0.5931	3.4875	-4.9272	1.2719	-1.4696	1.0891	-16.0014	-3.9948
0.2163	1.5666	-0.2275	-1.7381	1.5703	0.828	-0.884	1.6449	1.4808	-0.6229	1.2458	0.8243	-1.4025	-1.7344	0.8467	0.4662	3.4427	-5.0168	1.1637	-1.6151	1.063	-15.8783	-3.9836
0.0261	1.4099	-0.4513	-1.9992	1.4099	0.5744	-1.0593	1.5293	1.257	-0.7684	1.1376	0.6751	-1.5255	-1.7158	0.649	0.3021	3.3905	-5.1249	1.1115	-1.7568	1.0779	-15.6918	-3.9948
-0.2275	1.1973	-0.705	-2.2156	1.2309	0.3021	-1.2309	1.3465	1.0183	-0.8952	1.0556	0.5185	-1.6598	-1.6822	0.4066	0.1492	3.3308	-5.1734	1.0034	-1.865	1.063	-15.4307	-4.0097
-0.4588	1.0145	-0.9735	-2.4916	1.0518	0.0112	-1.4174	1.2533	0.787	-1.0444	0.925	0.3282	-1.8426	-1.6598	0.1604	-0.0149	3.2935	-5.2704	0.8989	-2.044	1.0369	-15.1211	-4.0768
-0.7684	0.8355	-1.2682	-2.7788	0.8765	-0.2835	-1.574	1.1227	0.5558	-1.216	0.843	0.1716	-1.9619	-1.6262	-0.1007	-0.2462	3.2264	-5.3151	0.8392	-2.1783	1.0518	-14.7481	-4.1066
-1.0406	0.6677	-1.5703	-3.0101	0.7534	-0.5595	-1.712	1.0108	0.332	-1.3428	0.7646	0.0224	-2.0738	-1.5964	-0.3693	-0.4364	3.163	-5.386	0.8057	-2.3051	1.0742	-14.3378	-4.1626
-1.3167	0.4812	-1.8762	-3.2786	0.6304	-0.8915	-1.8985	0.884	0.0858	-1.4584	0.7124	-0.1417	-2.1671	-1.5628	-0.6602	-0.6453	3.0846	-5.4159	0.7572	-2.4356	1.0891	-13.894	-4.1962
-1.6635	0.2686	-2.2007	-3.536	0.4849	-1.2048	-2.0701	0.7721	-0.1417	-1.5889	0.6378	-0.2797	-2.3014	-1.5405	-0.9474	-0.8803	3.0436	-5.4569	0.7534	-2.5811	1.1339	-13.4389	-4.2484
-1.9358	0.0559	-2.4729	-3.7933	0.3469	-1.4994	-2.2491	0.649	-0.3879	-1.712	0.5669	-0.4289	-2.3872	-1.5255	-1.1936	-1.1264	2.9951	-5.4867	0.7161	-2.7079	1.1712	-13.01	-4.282
-2.223	-0.1268	-2.8086	-4.0768	0.194	-1.809	-2.3909	0.5408	-0.6042	-1.8426	0.5147	-0.5893	-2.4729	-1.4882	-1.4472	-1.3726	2.9429	-5.4942	0.6826	-2.8086	1.2234	-12.5922	-4.2969
-2.5028	-0.3842	-3.1145	-4.2931	0.0485	-2.1149	-2.5886	0.414	-0.8243	-1.9731	0.4178	-0.7311	-2.5848	-1.5032	-1.6449	-1.6151	2.9429	-5.5576	0.6117	-2.9168	1.2421	-12.223	-4.3379
-2.8273	-0.6304	-3.4129	-4.5617	-0.1417	-2.376	-2.7564	0.2648	-1.0406	-2.1037	0.3469	-0.8691	-2.6781	-1.4845	-1.8836	-1.8762	2.9317	-5.5688	0.5147	-3.0735	1.2458	-11.8612	-4.3715
-3.0697	-0.9138	-3.6926	-4.7594	-0.332	-2.6371	-2.9317	0.1082	-1.2607	-2.2268	0.2574	-0.9884	-2.734	-1.4957	-2.0738	-2.1186	2.9429	-5.5986	0.3693	-3.1667	1.2271	-11.574	-4.364
-3.2973	-1.1861	-3.991	-4.972	-0.5632	-2.9317	-3.107	-0.041	-1.4472	-2.3387	0.1678	-1.1152	-2.8198	-1.4845	-2.182	-2.3387	2.9317	-5.6173	0.2387	-3.2749	1.2197	-11.3725	-4.3528
-3.5061	-1.4398	-4.2297	-5.1921	-0.7534	-3.1443	-3.2786	-0.2089	-1.6337	-2.4431	0.1156	-1.2085	-2.8832	-1.5032	-2.2902	-2.5326	2.9392	-5.6359	0.1007	-3.383	1.2122	-11.2495	-4.3304
-3.6628	-1.6785	-4.42	-5.3375	-0.9325	-3.3047	-3.3495	-0.2984	-1.7456	-2.458	0.0709	-1.257	-2.8534	-1.4845	-2.3349	-2.6445	2.9243	-5.5651	-0.0037	-3.439	1.2197	-11.2196	-4.2931
-3.7859	-1.8724	-4.599	-5.4345	-1.1488	-3.4912	-3.4278	-0.4439	-1.8575	-2.5065	0.0224	-1.3017	-2.8907	-1.4808	-2.3349	-2.749	2.928	-5.5427	-0.1268	-3.4576	1.2346	-11.2868	-4.2521
-3.8791	-2.0626	-4.7519	-5.4979	-1.2271	-3.6068	-3.4427	-0.511	-1.9321	-2.5065	0.0298	-1.2831	-2.8124	-1.4845	-2.2976	-2.7639	2.9355	-5.4606	-0.2126	-3.4987	1.2458	-11.4583	-4.2074
-3.95	-2.1895	-4.8452	-5.5166	-1.3614	-3.6814	-3.4875	-0.5669	-1.9731	-2.4841	0.0559	-1.2533	-2.7601	-1.4882	-2.238	-2.79	2.9355	-5.3636	-0.2574	-3.4987	1.3092	-11.7008	-4.1589
-3.9724	-2.3014	-4.916	-5.5352	-1.4472	-3.7486	-3.4726	-0.6005	-2.003	-2.4468	0.1082	-1.1973	-2.6482	-1.4845	-2.1522	-2.7676	2.928	-5.2443	-0.2872	-3.4726	1.3614	-12.0402	-4.088
-3.9836	-2.3573	-4.9683	-5.5278	-1.492	-3.7486	-3.4427	-0.6042	-1.9918	-2.3872	0.1455	-1.1115	-2.5214	-1.4845	-2.0179	-2.7117	2.9093	-5.1025	-0.2947	-3.4539	1.4174	-12.4691	-4.0432
-3.9761	-2.3983	-5.013	-5.4867	-1.5293	-3.7971	-3.4353	-0.608	-1.9955	-2.3237	0.2163	-1.0183	-2.4133	-1.4733	-1.8724	-2.6072	2.8944	-4.972	-0.2723	-3.4651	1.5218	-12.9354	-3.9798
-3.9425	-2.4207	-5.0317	-5.4681	-1.5703	-3.8045	-3.3942	-0.6117	-1.9657	-2.2529	0.2909	-0.9288	-2.2827	-1.4733	-1.712	-2.5177	2.872	-4.8787	-0.2536	-3.48	1.6188	-13.4054	-3.9575
-3.8978	-2.4282	-5.0466	-5.4494	-1.6113	-3.8157	-3.3905	-0.6229	-1.9582	-2.1969	0.373	-0.8542	-2.1596	-1.4621	-1.5889	-2.4319	2.8646	-4.7184	-0.2499	-3.4875	1.6673	-13.8791	-3.9127
-3.9202	-2.4655	-5.0615	-5.4233	-1.6412	-3.853	-3.3942	-0.6192	-1.9657	-2.1484	0.4215	-0.7609	-2.044	-1.4584	-1.4733	-2.3163	2.8609	-4.5729	-0.2238	-3.4949	1.7307	-14.3378	-3.8829
-3.9015	-2.4431	-5.0615	-5.3897	-1.6262	-3.812	-3.3756	-0.5744	-1.9135	-2.085	0.5371	-0.6304	-1.8836	-1.4211	-1.3689	-2.1783	2.8049	-4.3939	-0.2051	-3.5061	1.8426	-14.722	-3.8605
-3.8903	-2.4394	-5.0876	-5.3674	-1.6561	-3.8269	-3.3607	-0.5968	-1.9023	-2.0515	0.6154	-0.552	-1.7978	-1.4174	-1.3353	-2.141	2.8012	-4.2894	-0.1492	-3.5546	1.9321	-15.0801	-3.8456
-3.8978	-2.4282	-5.0876	-5.3413	-1.6635	-3.8418	-3.3607	-0.5744	-1.8985	-2.0179	0.6677	-0.4439	-1.6897	-1.4099	-1.2794	-2.0664	2.7751	-4.1365	-0.0895	-3.577	2.0216	-15.3673	-3.8306
-3.8903	-2.4282	-5.0951	-5.3487	-1.6524	-3.853	-3.3681	-0.5147	-1.8762	-1.9582	0.7982	-0.317	-1.533	-1.3801	-1.3279	-2.0253	2.749	-3.9686	-0.0448	-3.577	2.1223	-15.5948	-3.8306
-3.894	-2.4095	-5.0839	-5.3151	-1.6337	-3.8567	-3.3271	-0.4849	-1.865	-1.9097	0.8728	-0.2462	-1.4248	-1.3726	-1.3652	-1.9918	2.7378	-3.8567	0.0224	-3.618	2.2491	-15.8037	-3.8418
-3.8978	-2.3983	-5.0764	-5.2965	-1.574	-3.853	-3.3047	-0.4103	-1.8389	-1.8389	0.9959	-0.138	-1.2868	-1.3689	-1.4472	-1.9209	2.7042	-3.6591	0.0858	-3.6292	2.3872	-15.9678	-3.853
-3.894	-2.361	-5.0913	-5.304	-1.5293	-3.8493	-3.2861	-0.3469	-1.809	-1.7717	1.0817	-0.0485	-1.1302	-1.3689	-1.5554	-1.8948	2.6967	-3.4949	0.1753	-3.6479	2.5252	-16.0946	-3.8903
-3.8866	-2.32	-5.0764	-5.2592	-1.4696	-3.8642	-3.2301	-0.2574	-1.8016	-1.7083	1.2122	0.097	-0.9586	-1.354	-1.6188	-1.8127	2.6744	-3.3047	0.2462	-3.6106	2.6855	-16.2326	-3.9015
-3.8642	-2.2939	-5.0876	-5.2331	-1.4136	-3.8791	-3.2115	-0.179	-1.7829	-1.6262	1.3353	0.1977	-0.8019	-1.3614	-1.6785	-1.7754	2.6594	-3.0809	0.3021	-3.6068	2.8012	-16.3333	-3.95
-3.894	-2.32	-5.11	-5.248	-1.4248	-3.9202	-3.2227	-0.1268	-1.8127	-1.6113	1.4323	0.2686	-0.6863	-1.3652	-1.7866	-1.768	2.6781	-2.928	0.3655	-3.618	2.9355	-16.3818	-4.0059
-3.9052	-2.3424	-5.1473	-5.2704	-1.4099	-3.9873	-3.1928	-0.041	-1.7866	-1.5442	1.5703	0.3916	-0.5185	-1.3652	-1.8762	-1.7941	2.6818	-2.6893	0.4327	-3.5621	3.066	-16.3781	-4.0582
-3.9686	-2.4095	-5.1846	-5.3002	-1.4435	-4.0582	-3.2227	-0.0298	-1.8277	-1.5218	1.6524	0.4625	-0.414	-1.3726	-1.9433	-1.8239	2.6893	-2.4953	0.4812	-3.5248	3.1854	-16.2923	-4.1178
-4.0283	-2.5028	-5.2778	-5.3413	-1.4957	-4.1738	-3.2525	-0.0224	-1.906	-1.5405	1.7046	0.4998	-0.3021	-1.3838	-2.0403	-1.9433	2.7228	-2.3014	0.5147	-3.5397	3.2711	-16.1543	-4.1738
-4.1178	-2.6184	-5.3786	-5.4382	-1.574	-4.3118	-3.3084	-0.0112	-1.9806	-1.5442	1.7717	0.5408	-0.2163	-1.3763	-2.1447	-2.1298	2.7378	-2.0999	0.5632	-3.5173	3.3868	-15.9566	-4.2596
-4.2335	-2.7639	-5.483	-5.5166	-1.6934	-4.4573	-3.4092	-0.0634	-2.085	-1.574	1.8016	0.5446	-0.1455	-1.3875	-2.2305	-2.2976	2.7527	-1.9135	0.5819	-3.5061	3.439	-15.7366	-4.3081
-4.364	-2.9243	-5.6322	-5.6322	-1.8239	-4.6512	-3.5173	-0.0746	-2.1969	-1.6449	1.8277	0.5259	-0.1082	-1.395	-2.3237	-2.4991	2.7564	-1.7344	0.5931	-3.4949	3.5285	-15.509	-4.3752
-4.5281	-3.107	-5.7739	-5.7739	-1.9731	-4.8377	-3.6441	-0.1455	-2.3424	-1.7643	1.8016	0.511	-0.041	-1.4025	-2.417	-2.7042	2.7527	-1.5293	0.5632	-3.4912	3.5397	-15.274	-4.3864
-4.6176	-3.245	-5.9045	-5.8933	-2.1186	-5.0056	-3.7635	-0.2163	-2.4692	-1.8426	1.7978	0.4588	-0.0448	-1.4062	-2.4804	-2.8944	2.7564	-1.3726	0.5595	-3.4502	3.5733	-15.054	-4.4162
-4.7109	-3.3942	-5.9903	-6.0089	-2.2454	-5.1809	-3.8679	-0.2462	-2.6072	-1.9172	1.7978	0.4401	-0.0149	-1.3726	-2.5102	-3.0436	2.7191	-1.1861	0.511	-3.398	3.6218	-14.8787	-4.4162
-4.8414	-3.5658	-6.1171	-6.1096	-2.3946	-5.3897	-4.0619	-0.3282	-2.7863	-2.0701	1.7531	0.3655	-0.0336	-1.3652	-2.5736	-3.2376	2.7079	-1.0295	0.4588	-3.3868	3.5956	-14.7183	-4.4162
-4.9049	-3.7075	-6.2327	-6.2215	-2.5252	-5.5464	-4.1812	-0.4252	-2.887	-2.1745	1.7493	0.3432	-0.0522	-1.3614	-2.6333	-3.3644	2.6781	-0.8691	0.4178	-3.3532	3.6106	-14.5952	-4.3827
-5.0018	-3.8157	-6.3334	-6.3297	-2.6744	-5.7031	-4.3304	-0.511	-3.0362	-2.3088	1.6785	0.2797	-0.0559	-1.3577	-2.6482	-3.4912	2.6594	-0.7423	0.3208	-3.3084	3.6218	-14.5131	-4.3566
-5.054	-3.9388	-6.3931	-6.4379	-2.7937	-5.8784	-4.4685	-0.608	-3.1443	-2.4207	1.6561	0.2201	-0.0709	-1.3428	-2.6669	-3.5807	2.6408	-0.5669	0.2611	-3.2935	3.618	-14.4535	-4.3155
-5.0839	-4.0358	-6.4565	-6.4714	-2.8944	-6.0015	-4.5878	-0.6639	-3.2749	-2.5363	1.6262	0.1678	-0.0895	-1.3428	-2.6967	-3.5956	2.6371	-0.4401	0.2201	-3.2488	3.6218	-14.4124	-4.2521
-5.0578	-4.1104	-6.4677	-6.4863	-2.9653	-6.0798	-4.6624	-0.6938	-3.3457	-2.6072	1.6151	0.1604	-0.0858	-1.3055	-2.6408	-3.5472	2.596	-0.2313	0.2201	-3.1592	3.6441	-14.4124	-4.1701
-5.0764	-4.1924	-6.5013	-6.5199	-3.0212	-6.1544	-4.7631	-0.6863	-3.4241	-2.7079	1.6225	0.138	-0.0671	-1.3241	-2.5998	-3.5061	2.5811	-0.0709	0.1977	-3.0996	3.674	-14.4124	-4.0843
-5.0988	-4.2558	-6.5199	-6.5236	-3.0735	-6.229	-4.8601	-0.7423	-3.4688	-2.7713	1.5889	0.1305	-0.0448	-1.3017	-2.596	-3.4688	2.5662	0.1007	0.1902	-3.0175	3.6852	-14.4497	-3.9537
-5.069	-4.3043	-6.505	-6.5236	-3.107	-6.229	-4.9049	-0.7572	-3.4838	-2.7974	1.6039	0.1343	-0.0224	-1.2906	-2.5252	-3.3159	2.5438	0.3059	0.1865	-2.9056	3.7113	-14.5169	-3.8493
-5.069	-4.3901	-6.5348	-6.5013	-3.163	-6.2588	-4.9571	-0.7124	-3.5024	-2.8236	1.6561	0.2051	0.0373	-1.2644	-2.5214	-3.2077	2.5177	0.5296	0.2238	-2.7751	3.7374	-14.6064	-3.7337
-5.0466	-4.4535	-6.5386	-6.4714	-3.1816	-6.2737	-4.9795	-0.7087	-3.4726	-2.8347	1.6635	0.2275	0.1044	-1.2607	-2.4729	-3.0884	2.4804	0.7572	0.2462	-2.6669	3.7859	-14.722	-3.5956
-5.0503	-4.5169	-6.5199	-6.3968	-3.1854	-6.2215	-4.9496	-0.6863	-3.4278	-2.8161	1.7307	0.3021	0.194	-1.2346	-2.4319	-2.9616	2.4506	0.981	0.2797	-2.4841	3.8381	-14.86	-3.48
-5.0205	-4.5729	-6.4975	-6.2887	-3.2152	-6.229	-4.9384	-0.6415	-3.3719	-2.7751	1.7717	0.3282	0.2947	-1.2309	-2.4021	-2.8347	2.4095	1.257	0.3059	-2.3536	3.8829	-15.0092	-3.3719
-4.9944	-4.5953	-6.4677	-6.1581	-3.1854	-6.1581	-4.8601	-0.5595	-3.2935	-2.7191	1.8389	0.47	0.4066	-1.2048	-2.3536	-2.6967	2.3872	1.4994	0.3581	-2.1708	3.9313	-15.1883	-3.2338
-4.9496	-4.6102	-6.4416	-6.0313	-3.1406	-6.1208	-4.8004	-0.4849	-3.2115	-2.6445	1.9284	0.5595	0.5334	-1.1936	-2.2827	-2.5252	2.3536	1.7568	0.4327	-1.9992	4.0097	-15.4046	-3.1257
-4.8899	-4.6102	-6.3894	-5.9045	-3.066	-6.0686	-4.7184	-0.3991	-3.0884	-2.5662	1.9918	0.6453	0.6639	-1.1712	-2.2081	-2.3573	2.3088	2.0253	0.4924	-1.8538	4.0358	-15.6694	-3.0399
-4.8526	-4.5729	-6.3856	-5.759	-3.0063	-6.0313	-4.6288	-0.3208	-3.0175	-2.458	2.0701	0.7124	0.7684	-1.1525	-2.085	-2.1372	2.2753	2.3051	0.5669	-1.6635	4.1253	-15.9604	-2.9616
-4.7967	-4.6102	-6.3633	-5.6098	-2.9616	-6.0201	-4.5244	-0.2424	-2.9392	-2.3834	2.141	0.7982	0.8765	-1.1302	-2.0067	-1.9433	2.238	2.5587	0.6154	-1.4659	4.1924	-16.255	-2.8982
-4.7818	-4.6288	-6.3782	-5.5016	-2.9429	-5.994	-4.4573	-0.2051	-2.8944	-2.3014	2.1969	0.8653	0.9847	-1.1152	-1.9284	-1.7531	2.1932	2.7937	0.6677	-1.3017	4.2223	-16.5497	-2.8497
-4.7407	-4.6214	-6.3744	-5.386	-2.8944	-6.0052	-4.3939	-0.1268	-2.8497	-2.2081	2.2342	0.9362	1.1152	-1.0779	-1.8463	-1.574	2.1372	3.0436	0.6938	-1.0966	4.2894	-16.8294	-2.7937
-4.7221	-4.6326	-6.4304	-5.289	-2.8347	-5.9903	-4.364	-0.0634	-2.8012	-2.1932	2.2976	0.9735	1.1563	-1.0444	-1.7829	-1.436	2.0552	3.2413	0.7534	-0.9549	4.3454	-17.0681	-2.7266
-4.7295	-4.6549	-6.4752	-5.2182	-2.7937	-6.0201	-4.3155	-0.0261	-2.79	-2.1186	2.3648	0.9922	1.2346	-0.9996	-1.7866	-1.3428	1.9806	3.439	0.8019	-0.843	4.4013	-17.277	-2.6706
-4.7258	-4.6363	-6.5125	-5.1921	-2.7303	-6.0947	-4.3081	0.0298	-2.7863	-2.0738	2.4133	1.0145	1.2943	-0.9511	-1.8053	-1.2682	1.8911	3.6516	0.8952	-0.6863	4.4386	-17.4374	-2.5811
-4.8004	-4.696	-6.6393	-5.2182	-2.7527	-6.1954	-4.323	0.0634	-2.8236	-2.0738	2.4655	1.0034	1.3055	-0.9138	-1.9097	-1.2495	1.8016	3.8232	0.9437	-0.5707	4.5169	-17.5307	-2.5252
-4.9086	-4.7743	-6.7624	-5.2294	-2.7751	-6.2961	-4.3715	0.0522	-2.8683	-2.0626	2.4618	0.9847	1.354	-0.8504	-2.0365	-1.3428	1.6971	3.9612	0.9735	-0.4737	4.5431	-17.5456	-2.4916
-5.0466	-4.931	-6.96	-5.2965	-2.8795	-6.4379	-4.4312	-0.0112	-2.9541	-2.0999	2.458	0.9213	1.3241	-0.8057	-2.2342	-1.4323	1.6113	4.0992	0.9474	-0.4103	4.5207	-17.4896	-2.4394
-5.1995	-5.1249	-7.1242	-5.386	-2.9802	-6.6094	-4.502	-0.0746	-3.0697	-2.1484	2.4207	0.8392	1.298	-0.7646	-2.4356	-1.5591	1.5144	4.2111	0.9922	-0.332	4.5319	-17.415	-2.4207
-5.4196	-5.3077	-7.3591	-5.5091	-3.1704	-6.8034	-4.6065	-0.179	-3.2301	-2.238	2.3648	0.7236	1.2533	-0.7385	-2.6967	-1.712	1.4435	4.3043	0.9623	-0.2947	4.5095	-17.3442	-2.417
-5.5986	-5.5464	-7.5904	-5.6508	-3.342	-7.0085	-4.7034	-0.2835	-3.3644	-2.3051	2.3163	0.6117	1.2346	-0.6714	-2.9355	-1.8762	1.3316	4.4162	0.9884	-0.2611	4.5132	-17.2472	-2.4356
-5.8224	-5.8112	-7.8217	-5.7963	-3.5434	-7.2137	-4.7967	-0.4028	-3.5211	-2.3722	2.2491	0.5259	1.1563	-0.6266	-3.1965	-2.0291	1.2458	4.5058	1.0108	-0.1828	4.4871	-17.2062	-2.4692
-6.035	-6.0649	-8.0455	-5.9492	-3.7337	-7.4226	-4.9235	-0.5408	-3.6852	-2.4356	2.182	0.4178	1.0966	-0.5744	-3.4614	-2.1335	1.1414	4.6065	1.0369	-0.1268	4.4573	-17.1987	-2.5028
-6.2364	-6.3148	-8.3103	-6.1171	-3.9649	-7.6501	-5.0429	-0.6938	-3.8493	-2.5438	2.0626	0.235	1.0518	-0.5296	-3.674	-2.2305	1.0369	4.6512	1.0183	-0.1156	4.4125	-17.2472	-2.5438
-6.4304	-6.5684	-8.5378	-6.2961	-4.185	-7.8739	-5.1883	-0.8616	-4.0582	-2.6445	1.9657	0.0783	0.9288	-0.4662	-3.894	-2.2641	0.9399	4.7034	0.9847	-0.0858	4.3677	-17.3218	-2.5774
-6.6094	-6.7997	-8.7765	-6.4789	-4.3901	-8.0828	-5.2816	-0.9996	-4.267	-2.7564	1.8426	-0.1044	0.8542	-0.4252	-4.0582	-2.2902	0.8392	4.7333	0.9138	-0.1044	4.2931	-17.4523	-2.6147
-6.7922	-7.0123	-9.0078	-6.6579	-4.5766	-8.2991	-5.442	-1.1973	-4.4573	-2.8459	1.7046	-0.276	0.7385	-0.3805	-4.2148	-2.3051	0.7423	4.7445	0.8579	-0.0821	4.226	-17.5829	-2.6333
-6.96	-7.2435	-9.2092	-6.8332	-4.7892	-8.4893	-5.5539	-1.3577	-4.6475	-2.969	1.5591	-0.4625	0.6453	-0.3357	-4.405	-2.2603	0.6415	4.7631	0.7646	-0.0895	4.1439	-17.7209	-2.6594
-7.1279	-7.4337	-9.3957	-7.0384	-4.9645	-8.687	-5.6844	-1.5293	-4.8414	-3.0772	1.4248	-0.6304	0.5446	-0.2872	-4.5207	-2.223	0.5595	4.7668	0.608	-0.0895	4.0432	-17.8887	-2.7079
-7.2622	-7.6389	-9.6046	-7.1726	-5.1734	-8.8362	-5.7739	-1.7307	-4.9944	-3.163	1.2607	-0.7982	0.4476	-0.2313	-4.599	-2.1969	0.4625	4.7594	0.4961	-0.097	3.9052	-18.0491	-2.7378
-7.3741	-7.7545	-9.7649	-7.3144	-5.345	-8.9929	-5.8634	-1.8948	-5.1771	-3.2488	1.0966	-0.9511	0.3767	-0.1977	-4.6736	-2.1298	0.3767	4.7258	0.3693	-0.0783	3.8045	-18.2132	-2.7788
-7.4785	-7.9074	-9.9141	-7.4561	-5.4793	-9.1383	-5.9604	-2.0589	-5.3338	-3.301	0.9847	-1.0891	0.2984	-0.1641	-4.7072	-2.1074	0.3021	4.7221	0.2909	-0.1007	3.7038	-18.4035	-2.8086
-7.5941	-8.0417	-10.082	-7.5979	-5.6434	-9.2763	-6.0499	-2.2118	-5.4159	-3.3644	0.8653	-1.2122	0.2163	-0.1119	-4.7594	-2.0477	0.2051	4.7109	0.1567	-0.1119	3.5845	-18.5713	-2.831
-7.6986	-8.1611	-10.22	-7.7172	-5.7739	-9.392	-6.1283	-2.3722	-5.5613	-3.4315	0.7012	-1.3279	0.1567	-0.0597	-4.7482	-2.0179	0.1194	4.6811	0.0522	-0.1343	3.48	-18.7205	-2.8347
-7.8254	-8.3327	-10.3916	-7.9112	-5.9865	-9.53	-6.2476	-2.5587	-5.6993	-3.5285	0.5446	-1.4882	0.0373	-0.0261	-4.7557	-2.0515	0.0709	4.6549	-0.0559	-0.1977	3.3346	-18.8473	-2.8347
-7.9485	-8.4296	-10.5184	-8.0455	-6.1096	-9.6083	-6.3521	-2.7079	-5.7851	-3.5845	0.4066	-1.5628	-0.041	0.0037	-4.7706	-2.1186	0	4.5692	-0.1902	-0.2313	3.1928	-18.9256	-2.8124
-8.0939	-8.6012	-10.7049	-8.2096	-6.3185	-9.7314	-6.4677	-2.8758	-5.8821	-3.7001	0.2536	-1.6785	-0.1268	0.0186	-4.7855	-2.2342	-0.0336	4.5095	-0.332	-0.2797	3.0511	-18.948	-2.7974
-8.2618	-8.7616	-10.9026	-8.3588	-6.5125	-9.8619	-6.5759	-3.0511	-5.9865	-3.7672	0.0634	-1.7904	-0.2313	0.0112	-4.834	-2.3797	-0.0373	4.4013	-0.5296	-0.3655	2.872	-18.9629	-2.7676
-8.4222	-8.9145	-11.0891	-8.4856	-6.6766	-9.9887	-6.6766	-3.2189	-6.0574	-3.8456	-0.0783	-1.8873	-0.3133	0.0261	-4.8526	-2.6296	-0.0485	4.3304	-0.6639	-0.4289	2.6893	-18.8921	-2.7676
-8.6199	-9.0973	-11.2793	-8.6646	-6.8519	-10.1006	-6.7959	-3.3756	-6.1879	-3.9313	-0.2387	-2.003	-0.4252	0.0149	-4.8825	-2.887	-0.0336	4.2372	-0.8057	-0.5483	2.5625	-18.8175	-2.7676
-8.7691	-9.2651	-11.4844	-8.7579	-7.016	-10.2163	-6.8854	-3.5136	-6.2402	-3.9985	-0.373	-2.0664	-0.511	0.0112	-4.916	-3.1667	-0.0075	4.1402	-0.9735	-0.6266	2.3946	-18.7056	-2.7676
-8.9929	-9.4218	-11.6747	-8.922	-7.1838	-10.3356	-7.0272	-3.674	-6.3073	-4.0693	-0.4924	-2.1596	-0.6192	-0.0186	-4.916	-3.4278	0.0261	3.9985	-1.1414	-0.7497	2.2193	-18.59	-2.7825
-9.1644	-9.6008	-11.9022	-9.0712	-7.3256	-10.4363	-7.1465	-3.756	-6.3707	-4.1663	-0.6341	-2.2081	-0.7124	-0.0448	-4.9832	-3.7113	0.0783	3.853	-1.3017	-0.8915	2.1372	-18.4519	-2.79
-9.3621	-9.7463	-12.0887	-9.2204	-7.4412	-10.5408	-7.2771	-3.8567	-6.4192	-4.2521	-0.7124	-2.2417	-0.7982	-0.0634	-5.013	-3.9612	0.1156	3.7299	-1.4659	-1.0257	2.0216	-18.3177	-2.8385
-9.515	-9.8731	-12.2752	-9.3733	-7.5568	-10.6601	-7.4337	-3.9425	-6.449	-4.3342	-0.7721	-2.2902	-0.9026	-0.0932	-5.0727	-4.2036	0.1865	3.5658	-1.5815	-1.1488	1.9097	-18.2132	-2.8422
-9.6493	-9.9813	-12.4132	-9.474	-7.624	-10.731	-7.5233	-3.9873	-6.4453	-4.4162	-0.8206	-2.3126	-0.9623	-0.1231	-5.069	-4.3267	0.2462	3.4129	-1.6971	-1.298	1.8463	-18.1461	-2.8459
-9.7538	-10.0223	-12.5251	-9.5971	-7.6463	-10.7795	-7.6165	-3.9948	-6.4304	-4.4423	-0.8243	-2.2976	-1.0257	-0.1641	-5.0727	-4.4386	0.3208	3.2562	-1.7568	-1.4099	1.8127	-18.0939	-2.8609
-9.8731	-10.082	-12.6183	-9.6754	-7.6687	-10.8168	-7.706	-3.9948	-6.4117	-4.5132	-0.8057	-2.2902	-1.0966	-0.2051	-5.0876	-4.5095	0.3954	3.1108	-1.8127	-1.5815	1.8016	-18.0864	-2.8385
-9.9813	-10.1603	-12.7526	-9.7761	-7.6762	-10.8504	-7.8105	-3.9537	-6.367	-4.5281	-0.7945	-2.2193	-1.1451	-0.2536	-5.0839	-4.5319	0.4886	2.9541	-1.8463	-1.6934	1.7941	-18.1051	-2.8198
-10.026	-10.164	-12.7974	-9.8321	-7.6352	-10.8765	-7.859	-3.9239	-6.2924	-4.5542	-0.7348	-2.141	-1.16	-0.2835	-5.0205	-4.4983	0.5595	2.8161	-1.9023	-1.7866	1.8351	-18.1722	-2.7863
-10.0633	-10.164	-12.8496	-9.8768	-7.6053	-10.8541	-7.9298	-3.8605	-6.2327	-4.5505	-0.6527	-2.0552	-1.1488	-0.317	-4.9981	-4.4088	0.6453	2.6967	-1.9172	-1.8948	1.8463	-18.2617	-2.7639
-10.0783	-10.1491	-12.872	-9.9104	-7.5307	-10.8727	-7.9746	-3.7747	-6.1432	-4.5766	-0.5669	-1.947	-1.1525	-0.3767	-4.9347	-4.3342	0.7311	2.5774	-1.947	-1.9806	1.865	-18.3662	-2.7266
-10.1193	-10.1193	-12.872	-9.9365	-7.4487	-10.8205	-8.0082	-3.6964	-6.0313	-4.558	-0.4961	-1.8277	-1.0891	-0.4103	-4.8787	-4.2111	0.8057	2.5177	-1.9023	-2.0515	1.9097	-18.5154	-2.693
-10.082	-10.041	-12.8645	-9.9104	-7.3181	-10.7459	-8.0044	-3.5583	-5.8784	-4.4946	-0.3432	-1.6747	-1.0593	-0.4439	-4.7967	-4.0395	0.8691	2.4431	-1.8538	-2.1149	1.9769	-18.7056	-2.6482
-10.0559	-9.9328	-12.7825	-9.8619	-7.154	-10.6601	-7.9373	-3.383	-5.7217	-4.4162	-0.194	-1.4845	-0.9511	-0.4662	-4.7445	-3.8605	0.9176	2.4356	-1.7866	-2.1186	2.0701	-18.8958	-2.5811
-10.0074	-9.8284	-12.7041	-9.7911	-6.9638	-10.5333	-7.8888	-3.204	-5.5389	-4.3342	-0.0485	-1.298	-0.8616	-0.4961	-4.6624	-3.7001	0.9735	2.3872	-1.7046	-2.1149	2.1634	-19.086	-2.5289
-9.9291	-9.653	-12.596	-9.6866	-6.7624	-10.3878	-7.7881	-3.0138	-5.3413	-4.2297	0.1305	-1.0929	-0.7534	-0.4998	-4.6065	-3.4949	1.0034	2.4356	-1.6188	-2.1037	2.2529	-19.2874	-2.4804
-9.8507	-9.4889	-12.4654	-9.6046	-6.5423	-10.2498	-7.6911	-2.7788	-5.1361	-4.0805	0.3208	-0.8542	-0.5856	-0.511	-4.5915	-3.3346	1.022	2.4282	-1.5218	-2.0738	2.361	-19.4366	-2.4431
-9.7239	-9.295	-12.2976	-9.4516	-6.2961	-10.0745	-7.5867	-2.5438	-4.9123	-3.9649	0.5185	-0.6378	-0.4551	-0.5371	-4.5505	-3.1704	1.0406	2.4468	-1.4398	-2.0291	2.4655	-19.5896	-2.4207
-9.6269	-9.1682	-12.1334	-9.3285	-6.0947	-9.8992	-7.4337	-2.3461	-4.7109	-3.8157	0.6714	-0.4066	-0.2947	-0.5408	-4.5617	-3.0884	1.063	2.4991	-1.3726	-1.9619	2.514	-19.7164	-2.417
-9.5039	-8.9817	-11.9544	-9.1793	-5.8858	-9.7015	-7.292	-2.1596	-4.4908	-3.6591	0.828	-0.1865	-0.1343	-0.5558	-4.5393	-2.9951	1.0854	2.4879	-1.3092	-1.9508	2.6184	-19.8059	-2.4431
-9.3696	-8.8026	-11.7455	-9.06	-5.6956	-9.4889	-7.1428	-1.9806	-4.2521	-3.5136	0.9959	0.0298	-0.0037	-0.5446	-4.558	-2.9429	1.0891	2.4953	-1.298	-1.9097	2.6557	-19.8917	-2.458
-9.2651	-8.6795	-11.5553	-8.922	-5.5315	-9.2912	-7.0309	-1.8389	-4.0395	-3.3569	1.1115	0.2723	0.2163	-0.5558	-4.599	-2.9616	1.1078	2.5438	-1.3017	-1.8538	2.652	-19.9365	-2.5028
-9.1159	-8.493	-11.3427	-8.7765	-5.3599	-9.0302	-6.8668	-1.6598	-3.8157	-3.1816	1.216	0.5222	0.3618	-0.5558	-4.6326	-2.9989	1.0929	2.5587	-1.2868	-1.7792	2.6594	-19.9514	-2.5811
-8.9705	-8.3513	-11.1152	-8.6273	-5.1921	-8.7728	-6.7064	-1.5293	-3.5285	-2.9728	1.3577	0.7833	0.5893	-0.5632	-4.7109	-3.0884	1.0742	2.5848	-1.2906	-1.712	2.6706	-19.9402	-2.6482
-8.8325	-8.2021	-10.8914	-8.4893	-5.0466	-8.5229	-6.5236	-1.3763	-3.2674	-2.7639	1.4509	1.0444	0.7945	-0.5446	-4.7892	-3.1779	1.0668	2.6482	-1.3129	-1.6151	2.6594	-19.8917	-2.7191
-8.6795	-8.0044	-10.6452	-8.3252	-4.8452	-8.2357	-6.3334	-1.2085	-2.9728	-2.5214	1.6151	1.3353	1.0295	-0.5073	-4.8489	-3.2973	1.0145	2.7191	-1.3353	-1.492	2.6333	-19.8134	-2.7863
-8.5602	-7.8105	-10.4065	-8.2021	-4.7109	-7.9522	-6.1842	-1.0742	-2.7005	-2.3424	1.7307	1.5852	1.2346	-0.5035	-4.9608	-3.4427	0.9922	2.7564	-1.3017	-1.4472	2.6706	-19.7313	-2.8534
-8.3849	-7.5979	-10.1342	-8.0529	-4.4871	-7.6277	-5.9753	-0.8653	-2.3872	-2.085	1.8911	1.9209	1.492	-0.4662	-5.0056	-3.5509	0.925	2.8422	-1.2421	-1.3129	2.6744	-19.6045	-2.9355
-8.2506	-7.3703	-9.8918	-7.9298	-4.2894	-7.3256	-5.8038	-0.705	-2.085	-1.85	2.0291	2.2193	1.7008	-0.4364	-5.0802	-3.6591	0.8691	2.8982	-1.1898	-1.2383	2.6781	-19.4963	-2.9989
-8.12	-7.1689	-9.6419	-7.8217	-4.1178	-7.0235	-5.6434	-0.5185	-1.7568	-1.6486	2.1895	2.5289	1.9545	-0.4103	-5.1548	-3.7337	0.7945	2.969	-1.0966	-1.1824	2.7005	-19.3658	-3.0772
-7.9783	-6.9489	-9.3733	-7.7098	-3.9351	-6.6654	-5.4606	-0.3693	-1.4286	-1.4211	2.3349	2.7974	2.1745	-0.3543	-5.2032	-3.8232	0.7199	3.0399	-1.022	-1.1152	2.7079	-19.2501	-3.1481
-7.8366	-6.7213	-9.1047	-7.6016	-3.7448	-6.3409	-5.3002	-0.1902	-1.119	-1.1861	2.4916	3.066	2.376	-0.3245	-5.2032	-3.8567	0.649	3.0809	-0.9362	-1.0779	2.7378	-19.1532	-3.1965
-7.7098	-6.5087	-8.8847	-7.5345	-3.5434	-6.0238	-5.1697	-0.0112	-0.8504	-1.0183	2.6109	3.3196	2.5699	-0.2909	-5.2256	-3.8829	0.5856	3.1219	-0.8803	-1.0332	2.7452	-19.0301	-3.26
-7.5531	-6.3073	-8.6049	-7.43	-3.3532	-5.7292	-5.0168	0.1417	-0.5446	-0.8206	2.7303	3.5658	2.7601	-0.2536	-5.2256	-3.9388	0.5147	3.1555	-0.8355	-1.0295	2.749	-18.907	-3.2823
-7.4263	-6.1245	-8.37	-7.3629	-3.1742	-5.4382	-4.9011	0.3021	-0.2797	-0.6677	2.8571	3.8083	2.9168	-0.2275	-5.1771	-3.9537	0.4588	3.2077	-0.8131	-1.0034	2.7415	-18.8212	-3.2749
-7.2622	-5.9231	-8.1126	-7.2734	-3.0063	-5.1436	-4.7557	0.4625	-0.0186	-0.47	2.9951	4.0283	3.0884	-0.1977	-5.0913	-3.9686	0.3842	3.2786	-0.7833	-0.981	2.7713	-18.728	-3.26
-7.1055	-5.7254	-7.9037	-7.1353	-2.8347	-4.8676	-4.599	0.5781	0.2313	-0.3245	3.1257	4.2111	3.2637	-0.1678	-5.0279	-3.9537	0.3245	3.3271	-0.7907	-0.9474	2.7974	-18.6198	-3.2674
-6.9787	-5.5949	-7.6799	-7.0272	-2.7117	-4.6176	-4.4871	0.7423	0.4588	-0.1678	3.2227	4.4349	3.4241	-0.1417	-4.9608	-4.0246	0.2797	3.3868	-0.8057	-0.8989	2.7825	-18.5154	-3.2562
-6.7847	-5.4047	-7.4375	-6.8817	-2.5177	-4.3491	-4.2931	0.9176	0.7012	0.0261	3.3495	4.6214	3.5956	-0.1268	-4.8265	-4.0022	0.2424	3.4427	-0.828	-0.8467	2.7937	-18.3997	-3.2376
-6.6691	-5.2853	-7.251	-6.7325	-2.361	-4.0992	-4.1477	1.0406	0.9026	0.1753	3.4614	4.793	3.7411	-0.1194	-4.7258	-4.0693	0.2163	3.4763	-0.8691	-0.8019	2.7863	-18.2692	-3.2338
-6.4789	-5.1175	-7.0085	-6.5833	-2.1969	-3.8791	-3.9649	1.1861	1.1152	0.3357	3.5546	4.9645	3.8829	-0.1007	-4.5729	-4.0544	0.1977	3.5397	-0.9549	-0.705	2.7601	-18.1759	-3.2338
-6.3409	-4.972	-6.837	-6.4006	-2.0179	-3.6441	-3.8083	1.3353	1.3129	0.4849	3.6889	5.1361	4.0432	-0.0932	-4.4386	-4.0507	0.1828	3.6143	-0.9661	-0.6341	2.7788	-18.0678	-3.26
-6.1805	-4.8414	-6.6542	-6.2178	-1.8463	-3.4502	-3.6255	1.4882	1.5255	0.6863	3.8194	5.3338	4.2074	-0.0932	-4.2745	-3.9873	0.1828	3.6889	-0.9884	-0.5296	2.7974	-17.9708	-3.2861
-6.0723	-4.7258	-6.4752	-6.0425	-1.6897	-3.245	-3.4539	1.6561	1.712	0.8467	3.95	5.4793	4.364	-0.1082	-4.1439	-3.9425	0.179	3.7635	-0.9922	-0.4289	2.8347	-17.8589	-3.2973
-5.9753	-4.5953	-6.2961	-5.8448	-1.5069	-3.0511	-3.2525	1.8127	1.8948	1.0332	4.0805	5.6322	4.5207	-0.0858	-4.0022	-3.8381	0.1678	3.8605	-0.9922	-0.2797	2.8347	-17.7619	-3.3346
-5.8858	-4.5281	-6.1581	-5.6881	-1.3913	-2.8944	-3.0958	1.9806	2.0477	1.1637	4.226	5.7739	4.6699	-0.097	-3.909	-3.7486	0.1678	3.9537	-0.9698	-0.1977	2.9019	-17.6575	-3.3457
-5.8	-4.4498	-6.0425	-5.5315	-1.2346	-2.7601	-2.9243	2.1261	2.1932	1.3017	4.3528	5.8746	4.7967	-0.0932	-3.8232	-3.6441	0.1716	4.0059	-0.9101	-0.0821	2.9504	-17.5157	-3.3644
-5.7515	-4.4088	-5.9194	-5.3823	-1.119	-2.6296	-2.7825	2.3014	2.3051	1.436	4.4983	6.035	4.9235	-0.0783	-3.7672	-3.5956	0.1529	4.1253	-0.8504	0.0485	3.0324	-17.3479	-3.3681
-5.7105	-4.3528	-5.8261	-5.2331	-0.9772	-2.5401	-2.596	2.4356	2.4207	1.5516	4.6288	6.1208	5.0764	-0.0895	-3.7486	-3.5285	0.1455	4.2074	-0.7385	0.1455	3.0884	-17.1241	-3.3719
-5.6658	-4.3043	-5.7441	-5.0429	-0.843	-2.4618	-2.4282	2.5774	2.555	1.727	4.7631	6.2327	5.2144	-0.0709	-3.756	-3.4763	0.1492	4.3193	-0.6863	0.2686	3.1481	-16.8928	-3.3607
-5.6098	-4.2185	-5.6658	-4.9011	-0.7124	-2.361	-2.2454	2.7303	2.6221	1.8575	4.8787	6.3148	5.3524	-0.0709	-3.7821	-3.4092	0.138	4.4423	-0.5968	0.3991	3.2376	-16.669	-3.3122
-5.5464	-4.1663	-5.5837	-4.7519	-0.5893	-2.32	-2.1186	2.872	2.7117	1.9731	5.0056	6.3894	5.4382	-0.097	-3.8344	-3.3644	0.1678	4.5654	-0.5222	0.4924	3.3122	-16.4714	-3.2525
-5.4532	-4.0246	-5.4793	-4.5878	-0.4066	-2.2081	-1.9172	3.0101	2.8086	2.0999	5.11	6.4453	5.5576	-0.0932	-3.8418	-3.2338	0.1604	4.6549	-0.4252	0.5781	3.3756	-16.3259	-3.1592
-5.3301	-3.9425	-5.386	-4.4349	-0.2536	-2.1335	-1.7605	3.1592	2.887	2.2156	5.2032	6.5162	5.662	-0.097	-3.8754	-3.0884	0.1753	4.7519	-0.3394	0.6975	3.5024	-16.2699	-3.0772
-5.2219	-3.7896	-5.2517	-4.2782	-0.0895	-2.0515	-1.5964	3.3196	2.9728	2.3275	5.345	6.5982	5.7478	-0.1119	-3.9015	-2.8944	0.2126	4.8601	-0.2275	0.8318	3.5509	-16.2811	-2.9802
-5.0802	-3.6553	-5.11	-4.0955	0.0597	-1.9582	-1.4509	3.4502	3.0809	2.4543	5.4308	6.6355	5.8336	-0.1343	-3.8866	-2.6669	0.2424	4.9347	-0.1455	0.9325	3.674	-16.393	-2.9056
-4.8862	-3.4726	-4.9645	-3.909	0.2163	-1.8575	-1.2756	3.6143	3.1481	2.5662	5.524	6.6989	5.9306	-0.1455	-3.8605	-2.4095	0.2909	5.0018	-0.0224	1.0742	3.771	-16.5833	-2.8646
-4.696	-3.3084	-4.834	-3.7672	0.3991	-1.7493	-1.1675	3.6964	3.2338	2.652	5.6285	6.7474	5.9828	-0.1753	-3.8567	-2.1895	0.332	5.0615	0.0746	1.1824	3.853	-16.8033	-2.8273
-4.5505	-3.1518	-4.6661	-3.6367	0.5259	-1.6449	-1.022	3.8083	3.3047	2.734	5.6844	6.7773	6.0164	-0.1977	-3.812	-2.0067	0.4028	5.1025	0.1268	1.2794	3.9015	-17.0047	-2.7937
-4.3752	-3.0362	-4.5244	-3.4614	0.6229	-1.5367	-0.9026	3.8717	3.3756	2.8124	5.7217	6.7959	6.0425	-0.2499	-3.8269	-1.8463	0.4924	5.1398	0.179	1.3689	3.9202	-17.236	-2.79
-4.1924	-2.8907	-4.3789	-3.3346	0.7199	-1.4398	-0.8019	3.9612	3.4651	2.8795	5.7702	6.8295	6.1022	-0.2872	-3.8418	-1.7493	0.5819	5.1958	0.2499	1.492	3.9649	-17.4001	-2.8161
-4.0507	-2.7788	-4.2782	-3.2301	0.7945	-1.3465	-0.6826	3.9724	3.4987	2.9392	5.7888	6.8146	6.0984	-0.3432	-3.8232	-1.7195	0.69	5.1809	0.2835	1.5666	3.95	-17.553	-2.8571
-3.9127	-2.7154	-4.1701	-3.1145	0.8355	-1.2756	-0.6341	3.9798	3.5658	2.9914	5.7478	6.8034	6.1096	-0.4066	-3.8344	-1.7717	0.8094	5.1921	0.317	1.6188	3.9724	-17.6724	-2.9392
-3.8045	-2.6259	-4.0619	-3.0324	0.8504	-1.1824	-0.5371	3.9686	3.5733	3.025	5.7665	6.8071	6.091	-0.4662	-3.8493	-1.8239	0.9064	5.1921	0.3357	1.6934	3.95	-17.747	-2.9914
-3.7448	-2.5625	-3.9649	-2.9317	0.8504	-1.119	-0.4588	3.9388	3.6143	3.0324	5.7441	6.7698	6.1022	-0.4849	-3.8344	-1.9396	0.981	5.2592	0.317	1.7493	3.894	-17.7843	-3.0958
-3.6553	-2.4953	-3.8679	-2.887	0.8392	-1.0481	-0.3991	3.894	3.6255	3.066	5.6919	6.7176	6.0238	-0.5334	-3.8269	-2.0738	1.0593	5.248	0.2835	1.7866	3.8194	-17.8216	-3.163
-3.5882	-2.4767	-3.8232	-2.8534	0.7982	-0.9735	-0.3618	3.8344	3.6329	3.0511	5.6247	6.6691	5.9791	-0.5595	-3.8493	-2.2007	1.1115	5.2331	0.3133	1.8202	3.7933	-17.7806	-3.2301
-3.5621	-2.4655	-3.7747	-2.8497	0.7534	-0.9399	-0.3357	3.771	3.6441	3.0324	5.5688	6.643	5.9082	-0.5781	-3.8567	-2.3014	1.1525	5.2107	0.2574	1.8426	3.7038	-17.7619	-3.2935
-3.5322	-2.4095	-3.7523	-2.8422	0.7423	-0.884	-0.2872	3.6889	3.6255	3.0436	5.4718	6.5609	5.8261	-0.5968	-3.853	-2.3872	1.1637	5.1883	0.2051	1.8575	3.6031	-17.691	-3.342
-3.5136	-2.4356	-3.7038	-2.8049	0.6975	-0.8318	-0.2648	3.6031	3.6031	3.0399	5.3823	6.4714	5.7478	-0.5893	-3.8381	-2.4879	1.1563	5.1585	0.1604	1.8538	3.536	-17.6202	-3.342
-3.4502	-2.3872	-3.6553	-2.7863	0.6975	-0.7423	-0.2238	3.5807	3.6255	3.0212	5.3711	6.449	5.7329	-0.5632	-3.8642	-2.4729	1.119	5.1175	0.1082	1.906	3.439	-17.553	-3.3569
-3.439	-2.3872	-3.5733	-2.7713	0.6938	-0.6565	-0.1641	3.5285	3.6031	3.0063	5.2704	6.367	5.6322	-0.5483	-3.853	-2.5177	1.0817	5.0951	0.0448	1.8873	3.3719	-17.4411	-3.342
-3.4054	-2.3685	-3.5211	-2.7751	0.6788	-0.5669	-0.1082	3.4763	3.6591	3.0287	5.2107	6.3446	5.5874	-0.5296	-3.8456	-2.5177	1.0406	5.0802	-0.0448	1.9209	3.2749	-17.3404	-3.3271
-3.4203	-2.3685	-3.4987	-2.7751	0.6415	-0.4886	-0.0895	3.398	3.6628	3.0473	5.1249	6.2551	5.4867	-0.5147	-3.8381	-2.5289	1.0071	5.0093	-0.1156	1.8873	3.2115	-17.1912	-3.301
-3.398	-2.3946	-3.4315	-2.7639	0.6042	-0.414	-0.0336	3.3532	3.674	3.0772	5.0578	6.2178	5.4457	-0.4812	-3.8344	-2.4729	0.9474	4.9981	-0.2089	1.9135	3.1294	-17.0234	-3.2861
-3.4241	-2.3872	-3.4054	-2.7639	0.5707	-0.3245	0.041	3.2711	3.6702	3.0809	4.9981	6.1432	5.4159	-0.4439	-3.8269	-2.4543	0.8803	4.9608	-0.2872	1.8799	3.0735	-16.8108	-3.2674
-3.4203	-2.4319	-3.3532	-2.6893	0.5595	-0.2238	0.1305	3.2301	3.7075	3.1145	4.9272	6.1133	5.386	-0.4103	-3.7933	-2.4207	0.8057	4.9123	-0.3245	1.8873	3.0287	-16.6131	-3.2413
-3.4203	-2.4245	-3.3196	-2.6333	0.552	-0.1268	0.2611	3.2003	3.7411	3.1854	4.8713	6.0499	5.3711	-0.3767	-3.7411	-2.3499	0.7311	4.9011	-0.373	1.8985	2.9914	-16.4154	-3.2003
-3.4539	-2.4729	-3.2413	-2.5289	0.5334	0.0261	0.3618	3.1555	3.7971	3.2823	4.8228	6.0425	5.3786	-0.3357	-3.7262	-2.279	0.6453	4.9422	-0.4178	1.9172	2.9802	-16.2028	-3.1331
-3.4353	-2.4506	-3.1742	-2.4282	0.5632	0.1492	0.5296	3.1555	3.8269	3.3793	4.7743	6.0276	5.4009	-0.2723	-3.6106	-2.1559	0.5446	4.9683	-0.47	1.9619	2.9392	-16.0387	-3.066
-3.4427	-2.514	-3.1406	-2.3536	0.5632	0.2536	0.6788	3.1555	3.909	3.5099	4.7333	6.0126	5.4606	-0.2462	-3.6106	-2.0291	0.47	4.9981	-0.5222	2.0291	2.8907	-15.8969	-2.9765
-3.4912	-2.5438	-3.0921	-2.279	0.5446	0.3916	0.8206	3.1257	3.9127	3.6106	4.6624	5.994	5.483	-0.194	-3.5733	-1.906	0.3842	5.0578	-0.5595	2.0738	2.8534	-15.7589	-2.8944
-3.5285	-2.6296	-3.0809	-2.2081	0.5371	0.4551	0.9661	3.0884	3.95	3.7225	4.599	5.9604	5.5278	-0.1753	-3.536	-1.7493	0.3208	5.0951	-0.6341	2.182	2.8273	-15.6806	-2.8086
-3.5583	-2.6669	-3.0026	-2.1745	0.5446	0.5669	1.0966	3.0548	3.9948	3.8232	4.5244	5.9455	5.5837	-0.138	-3.5024	-1.6374	0.2574	5.1548	-0.7012	2.2678	2.8012	-15.606	-2.734
-3.5994	-2.7564	-2.9951	-2.1149	0.5334	0.6714	1.2309	3.0101	3.9948	3.95	4.4573	5.938	5.6508	-0.1082	-3.5136	-1.5293	0.2089	5.2032	-0.7423	2.3573	2.7527	-15.5426	-2.6744
-3.6814	-2.831	-2.9989	-2.1074	0.5259	0.7385	1.3204	3.0063	4.0432	4.0805	4.3901	5.938	5.6956	-0.0895	-3.5248	-1.4659	0.1753	5.2704	-0.8355	2.4543	2.7154	-15.5016	-2.6333
-3.7225	-2.8609	-3.0063	-2.0813	0.5296	0.8542	1.436	2.9951	4.0992	4.1999	4.2894	5.9157	5.7851	-0.0671	-3.5397	-1.4211	0.1231	5.3151	-0.8877	2.5177	2.7079	-15.4643	-2.5886
-3.7933	-2.9355	-2.9653	-2.0888	0.5185	0.9623	1.5442	2.9765	4.1365	4.3043	4.2521	5.9306	5.8597	-0.0522	-3.6292	-1.4323	0.1007	5.3487	-0.9735	2.6035	2.6967	-15.4232	-2.5177
-3.8791	-2.9989	-2.9802	-2.1522	0.5296	1.0369	1.6486	2.9504	4.1812	4.4461	4.1887	5.9567	5.9343	-0.0485	-3.7113	-1.4882	0.0858	5.4233	-1.0369	2.7154	2.6706	-15.3748	-2.4841
-3.9202	-3.0735	-2.969	-2.1372	0.5222	1.16	1.712	2.9466	4.2335	4.5431	4.1216	5.9716	6.0313	-0.0373	-3.7859	-1.5516	0.0634	5.4532	-1.1078	2.7937	2.6557	-15.3225	-2.4319
-4.0022	-3.1331	-2.969	-2.1522	0.5073	1.2309	1.809	2.9056	4.2782	4.6624	4.0358	5.9903	6.1022	-0.0261	-3.894	-1.6374	0.0559	5.5128	-1.1898	2.872	2.5811	-15.2405	-2.3872
-4.1066	-3.2264	-2.9765	-2.1708	0.4439	1.2943	1.85	2.831	4.3304	4.7557	3.9612	6.0164	6.1805	-0.0186	-4.047	-1.7568	0.0373	5.6061	-1.2719	2.9504	2.5513	-15.136	-2.3909
-4.2223	-3.3532	-2.9951	-2.2193	0.3916	1.3689	1.9023	2.8049	4.3901	4.8899	3.8754	6.0537	6.2924	-0.0149	-4.2185	-1.9023	0.0298	5.6247	-1.3726	2.9989	2.514	-15.0204	-2.3983
-4.323	-3.4875	-3.0362	-2.238	0.2984	1.4882	1.9545	2.7266	4.4423	5.0056	3.7971	6.0984	6.3782	-0.0224	-4.4125	-2.0626	0.041	5.6769	-1.4584	3.0399	2.4692	-14.8899	-2.4095
-4.4461	-3.618	-3.0772	-2.2529	0.2089	1.5367	2.0365	2.6706	4.4983	5.1025	3.7225	6.1581	6.4528	-0.0261	-4.5953	-2.2342	0.0522	5.7217	-1.5293	3.1033	2.4133	-14.7444	-2.4207
-4.5617	-3.7448	-3.1108	-2.2491	0.1194	1.6076	2.1149	2.6184	4.5617	5.2405	3.6777	6.2215	6.5759	-0.0336	-4.8004	-2.4468	0.0671	5.7926	-1.5628	3.1481	2.3797	-14.5915	-2.4282
-4.6773	-3.8456	-3.1219	-2.2603	0.0597	1.7046	2.1634	2.5998	4.6363	5.3301	3.6218	6.2998	6.6616	-0.0485	-4.9944	-2.6184	0.0895	5.8187	-1.5815	3.1592	2.3349	-14.4385	-2.417
-4.7706	-3.909	-3.1145	-2.223	0.0485	1.8239	2.2641	2.6109	4.7706	5.4942	3.6255	6.4043	6.7698	-0.0522	-5.1249	-2.79	0.1007	5.8746	-1.5927	3.2115	2.3237	-14.3117	-2.4356
-4.793	-3.9612	-3.0772	-2.182	0.041	1.9694	2.3834	2.6184	4.8974	5.6173	3.6255	6.5311	6.8817	-0.0559	-5.2704	-2.9504	0.1156	5.9306	-1.5703	3.26	2.3126	-14.1961	-2.417
-4.8191	-3.9313	-3.0362	-2.0999	0.1156	2.0999	2.5438	2.6967	5.0913	5.7926	3.6964	6.684	7.0346	-0.0522	-5.3786	-3.1145	0.1082	6.0015	-1.533	3.3047	2.32	-14.114	-2.3872
-4.8079	-3.8754	-2.9168	-1.9657	0.2313	2.2641	2.7191	2.8124	5.289	5.9903	3.8008	6.8705	7.195	-0.0522	-5.483	-3.2488	0.1044	6.0611	-1.4472	3.3607	2.3983	-14.0469	-2.3499
-4.7407	-3.7075	-2.7676	-1.8053	0.4439	2.5065	2.9541	2.9653	5.5278	6.2402	3.8978	7.0757	7.3853	-0.0485	-5.58	-3.3942	0.097	6.1469	-1.3763	3.4278	2.4282	-13.9984	-2.3014
-4.6624	-3.5024	-2.596	-1.6374	0.7012	2.7452	3.2115	3.1965	5.8112	6.4677	4.0731	7.3666	7.5941	-0.0186	-5.7031	-3.5472	0.0522	6.2625	-1.2868	3.5322	2.5102	-13.9462	-2.1932
-4.5281	-3.2152	-2.3685	-1.395	1.0295	3.0436	3.5061	3.4576	6.1395	6.7885	4.2894	7.6836	7.844	0.0112	-5.7665	-3.6665	-0.0075	6.3931	-1.1712	3.6479	2.6632	-13.9238	-2.0999
-4.3976	-2.872	-2.1223	-1.1525	1.4025	3.3905	3.8194	3.771	6.4863	7.0757	4.5431	7.9895	8.0828	0.0448	-5.8746	-3.8306	-0.0746	6.4975	-1.0406	3.771	2.7564	-13.8791	-1.9843
-4.2074	-2.5065	-1.865	-0.884	1.8127	3.7075	4.1514	4.0768	6.8183	7.3741	4.7743	8.2916	8.3289	0.0709	-5.9716	-3.9836	-0.1529	6.5945	-0.9026	3.8679	2.8982	-13.8492	-1.8799
-4.0843	-2.2044	-1.6337	-0.6117	2.1969	4.0544	4.4386	4.4088	7.1726	7.6538	5.0279	8.6534	8.5826	0.1082	-6.091	-4.1812	-0.2275	6.6691	-0.8094	3.9724	3.0175	-13.8343	-1.7866
-3.9351	-1.8911	-1.395	-0.3432	2.5625	4.3304	4.7668	4.6736	7.4972	7.9522	5.2331	8.9518	8.784	0.1417	-6.1656	-4.364	-0.2909	6.7362	-0.7497	4.0693	3.1108	-13.8343	-1.712
-3.7747	-1.6225	-1.16	-0.1044	2.8832	4.6922	5.0503	4.931	7.8217	8.2058	5.4755	9.2428	8.9891	0.1716	-6.2327	-4.4908	-0.3506	6.7997	-0.7124	4.1328	3.1779	-13.8716	-1.6374
-3.6404	-1.3801	-0.9623	0.1305	3.1928	4.9832	5.3413	5.1846	8.1462	8.4557	5.6844	9.5523	9.2055	0.2126	-6.3036	-4.5729	-0.4066	6.9004	-0.7161	4.2074	3.2338	-13.9611	-1.5964
-3.48	-1.1376	-0.7161	0.4215	3.4502	5.3077	5.6396	5.4382	8.4408	8.6795	5.8709	9.8209	9.392	0.2387	-6.2998	-4.5654	-0.4625	6.9414	-0.7012	4.2745	3.2562	-14.1252	-1.5591
-3.3084	-0.8989	-0.4961	0.6863	3.7187	5.5837	5.8933	5.6322	8.7168	8.9257	6.0686	10.1156	9.6008	0.2536	-6.3185	-4.5319	-0.5259	7.0421	-0.7161	4.3528	3.3196	-14.3155	-1.5442
-3.1592	-0.7348	-0.3059	0.9661	3.9686	5.8523	6.1768	5.8261	8.9742	9.1458	6.2364	10.3617	9.7873	0.2835	-6.27	-4.4162	-0.5669	7.1204	-0.6975	4.42	3.3681	-14.5877	-1.5218
-3.0063	-0.5334	-0.0783	1.2309	4.1738	6.1208	6.4379	6.0388	9.2465	9.3696	6.4453	10.6452	9.9589	0.2984	-6.2215	-4.2074	-0.6117	7.2137	-0.6826	4.5281	3.4203	-14.8824	-1.492
-2.8571	-0.3842	0.097	1.4696	4.364	6.3633	6.6654	6.1954	9.4889	9.5412	6.6169	10.8839	10.1342	0.3357	-6.1656	-3.9948	-0.6677	7.3069	-0.6415	4.6139	3.4688	-15.2032	-1.4659
-2.7191	-0.2275	0.2648	1.6822	4.5132	6.5721	6.8332	6.3483	9.7127	9.7351	6.7698	11.0928	10.3132	0.3469	-6.1245	-3.7896	-0.6975	7.4002	-0.5931	4.7072	3.4987	-15.5314	-1.4025
-2.6072	-0.1231	0.3842	1.8612	4.6512	6.7698	6.9899	6.4714	9.8582	9.8619	6.9227	11.2756	10.4438	0.3655	-6.076	-3.536	-0.7236	7.527	-0.5334	4.7818	3.5621	-15.8373	-1.3652
-2.4991	-0.0261	0.511	2.0104	4.737	6.9339	7.0906	6.5982	10.041	10.0037	7.057	11.4919	10.6079	0.3805	-6.0388	-3.342	-0.7833	7.6463	-0.4886	4.8303	3.6255	-16.1021	-1.2756
-2.4133	0.0336	0.6304	2.1522	4.8041	7.0533	7.2137	6.6654	10.179	10.1118	7.1428	11.6224	10.7273	0.4215	-6.0872	-3.1667	-0.8318	7.7284	-0.47	4.9011	3.6479	-16.3147	-1.2271
-2.417	-0.0261	0.6117	2.1745	4.7706	7.1018	7.2249	6.6728	10.2461	10.1678	7.2062	11.7343	10.8392	0.4215	-6.1879	-3.0996	-0.8392	7.8291	-0.5147	4.9422	3.6479	-16.4452	-1.1861
-2.4095	-0.1156	0.6042	2.2044	4.7221	7.1167	7.2286	6.6467	10.2424	10.1752	7.2659	11.8201	10.9212	0.4364	-6.311	-3.025	-0.8765	7.8888	-0.5632	4.9571	3.6516	-16.5198	-1.1488
-2.4543	-0.2126	0.5334	2.1522	4.6065	7.1204	7.195	6.6057	10.2685	10.2275	7.2883	11.8649	10.9697	0.4551	-6.4938	-3.0809	-0.9064	7.9559	-0.5856	4.9571	3.6479	-16.4825	-1.1339
-2.5848	-0.3655	0.4364	2.0477	4.4647	7.0719	7.098	6.5348	10.2498	10.1976	7.2957	11.9432	11.0257	0.4588	-6.7101	-3.1704	-0.9213	8.0119	-0.6527	4.916	3.6367	-16.3595	-1.1003
-2.7228	-0.5595	0.2909	1.9358	4.3342	6.9936	7.0048	6.449	10.2088	10.2013	7.292	11.9544	11.0853	0.4662	-6.9638	-3.2861	-0.9362	8.0865	-0.7161	4.8862	3.6329	-16.1506	-1.119
-2.9466	-0.787	0.1119	1.7717	4.1328	6.9041	6.8929	6.3222	10.1305	10.1342	7.3032	11.9507	11.063	0.4513	-7.2734	-3.5322	-0.8952	8.1051	-0.7833	4.8153	3.6255	-15.8858	-1.1451
-3.1592	-1.0444	-0.0932	1.5479	3.894	6.7512	6.7661	6.1842	10.0372	10.0895	7.2771	11.9619	11.0816	0.4401	-7.5755	-3.7747	-0.884	8.0939	-0.828	4.7258	3.5919	-15.565	-1.1898
-3.4278	-1.2943	-0.3059	1.3428	3.6591	6.6318	6.6169	6.0723	9.9664	10.041	7.2435	11.932	11.0667	0.4327	-7.8664	-4.088	-0.8467	8.0939	-0.884	4.6363	3.5919	-15.2069	-1.2682
-3.7411	-1.5852	-0.5744	1.0779	3.4054	6.4714	6.4677	5.9231	9.8731	9.944	7.2323	11.9208	11.0443	0.3916	-8.1387	-4.3976	-0.7796	8.0716	-0.9437	4.5132	3.6068	-14.8973	-1.3353
-4.0059	-1.8389	-0.787	0.8765	3.1742	6.3334	6.3148	5.7926	9.7799	9.8731	7.1988	11.9022	11.0219	0.373	-8.3961	-4.6885	-0.7273	8.0566	-0.981	4.3752	3.577	-14.5915	-1.4025
-4.3118	-2.085	-1.0406	0.5819	2.969	6.2029	6.1544	5.6956	9.6717	9.8022	7.2211	11.8985	10.9772	0.332	-8.6348	-5.0205	-0.6415	8.0305	-0.9698	4.2894	3.6068	-14.308	-1.4771
-4.6176	-2.2753	-1.2868	0.3506	2.8385	6.0499	6.0089	5.6135	9.6083	9.6978	7.2286	11.8649	10.9473	0.2872	-8.8474	-5.3151	-0.5707	8.0007	-0.9549	4.1551	3.6628	-14.0954	-1.5591
-4.8862	-2.4953	-1.4994	0.1119	2.6594	5.897	5.8858	5.5315	9.5113	9.6008	7.2323	11.8276	10.8802	0.2313	-9.0675	-5.6247	-0.4774	7.941	-0.9213	4.0432	3.7075	-13.9014	-1.6188
-5.1361	-2.6557	-1.7046	-0.1156	2.5475	5.7627	5.7031	5.4569	9.4554	9.5039	7.251	11.7828	10.7944	0.2014	-9.2428	-5.8896	-0.3991	7.8776	-0.8579	3.9127	3.7821	-13.741	-1.6897
-5.4196	-2.8497	-1.9246	-0.373	2.4468	5.6359	5.5501	5.4233	9.3882	9.3808	7.2883	11.7716	10.7235	0.1604	-9.4479	-6.1805	-0.3059	7.8105	-0.8206	3.8194	3.8418	-13.5993	-1.7754
-5.6434	-2.9802	-2.1298	-0.6117	2.3573	5.4718	5.3972	5.3599	9.295	9.2614	7.3069	11.7045	10.6377	0.1044	-9.6195	-6.4677	-0.2201	7.7172	-0.7684	3.6665	3.9351	-13.4874	-1.8836
-5.8821	-3.1443	-2.3387	-0.8504	2.2305	5.3114	5.2107	5.3002	9.198	9.1271	7.3368	11.6523	10.5221	0.0634	-9.7873	-6.7251	-0.1305	7.6314	-0.7012	3.5472	4.047	-13.3867	-1.9918
-6.0835	-3.2973	-2.5252	-1.1003	2.1559	5.1585	5.013	5.2629	9.0973	8.9929	7.3256	11.5702	10.3692	0.0224	-9.9626	-6.975	-0.0448	7.5233	-0.6751	3.398	4.1402	-13.3084	-2.1223
-6.3185	-3.4539	-2.734	-1.3801	2.0403	5.0093	4.8153	5.1697	8.9854	8.7952	7.3629	11.5068	10.2573	-0.0261	-10.0783	-7.2174	0.0559	7.4039	-0.6192	3.2674	4.2447	-13.2599	-2.2715
-6.4602	-3.5621	-2.9131	-1.6076	1.9657	4.8191	4.5953	5.1249	8.8698	8.6012	7.3405	11.38	10.1305	-0.0597	-10.1827	-7.4263	0.1343	7.3069	-0.5707	3.1481	4.3379	-13.2375	-2.4282
-6.6057	-3.7113	-3.0884	-1.8127	1.8389	4.6811	4.3901	5.054	8.7802	8.4222	7.3629	11.3054	10.0223	-0.0895	-10.2312	-7.5829	0.179	7.2286	-0.4849	3.0399	4.4498	-13.2412	-2.6035
-6.7773	-3.8567	-3.2711	-2.0515	1.7232	4.4834	4.1626	4.9757	8.6273	8.2431	7.3405	11.1711	9.8395	-0.1343	-10.3207	-7.7582	0.2648	7.1204	-0.4439	2.9355	4.5095	-13.2711	-2.7639
-6.9004	-3.9388	-3.4278	-2.2902	1.6337	4.2894	3.9575	4.9011	8.4781	8.0417	7.2957	11.0406	9.6866	-0.1641	-10.317	-7.9037	0.3133	7.0272	-0.3916	2.8385	4.6363	-13.3233	-2.9131
-7.016	-4.0171	-3.5621	-2.4692	1.5479	4.1402	3.771	4.8265	8.3401	7.8925	7.3032	10.9399	9.5971	-0.1902	-10.3394	-8.0492	0.3618	6.9489	-0.3245	2.7863	4.7221	-13.3681	-3.0548
-7.1503	-4.088	-3.7486	-2.7005	1.4696	3.991	3.5472	4.7445	8.1946	7.6762	7.2435	10.7907	9.4367	-0.2201	-10.3505	-8.1946	0.4178	6.8593	-0.3021	2.7117	4.7892	-13.4054	-3.1742
-7.2734	-4.1216	-3.8679	-2.9168	1.4211	3.8418	3.3271	4.7184	8.0604	7.5233	7.2137	10.6601	9.3099	-0.235	-10.3804	-8.355	0.4737	6.7922	-0.2424	2.6781	4.8676	-13.4203	-3.301
-7.4188	-4.1924	-4.0395	-3.1369	1.3428	3.6591	3.1294	4.6438	7.9298	7.3256	7.1503	10.5035	9.157	-0.2835	-10.455	-8.5565	0.5408	6.7586	-0.2424	2.6482	4.931	-13.3979	-3.4241
-7.5606	-4.2372	-4.1999	-3.3756	1.2794	3.5136	2.9205	4.5766	7.7694	7.1316	7.113	10.3468	9.0264	-0.3021	-10.5072	-8.7877	0.5893	6.6952	-0.194	2.6408	4.9795	-13.3494	-3.5285
-7.6948	-4.2857	-4.3528	-3.5919	1.2458	3.3644	2.7117	4.5393	7.6277	6.9787	7.0384	10.1864	8.881	-0.317	-10.5818	-9.0227	0.6304	6.6505	-0.138	2.596	5.0018	-13.2748	-3.6441
-7.844	-4.3118	-4.5244	-3.7821	1.2234	3.2152	2.5401	4.5132	7.5046	6.8071	6.9638	10.0372	8.7467	-0.3394	-10.6825	-9.2875	0.6677	6.6057	-0.1007	2.6333	5.0727	-13.1741	-3.7038
-7.9895	-4.323	-4.6624	-3.9537	1.1861	3.1219	2.4058	4.4946	7.3629	6.6803	6.9302	9.9104	8.6422	-0.3655	-10.7534	-9.4777	0.7087	6.5908	-0.0261	2.6296	5.1175	-13.1107	-3.7747
-8.1238	-4.3789	-4.8303	-4.1365	1.1488	2.9765	2.2603	4.4498	7.2547	6.5535	6.8407	9.7463	8.5154	-0.3842	-10.8093	-9.653	0.7534	6.5535	-0.0037	2.5774	5.1734	-13.0697	-3.8418
-8.2245	-4.4125	-4.931	-4.2409	1.1227	2.9093	2.1596	4.4013	7.1503	6.4267	6.8034	9.5934	8.3923	-0.4028	-10.8019	-9.7351	0.7684	6.5199	0.0448	2.6035	5.207	-13.051	-3.8866
-8.3252	-4.4461	-5.0652	-4.364	1.0966	2.7974	2.0216	4.3939	7.0346	6.3222	6.7288	9.4442	8.2916	-0.4178	-10.7981	-9.7463	0.7945	6.464	0.0559	2.5252	5.2256	-13.1032	-3.9313
-8.4334	-4.461	-5.1846	-4.4908	1.1115	2.7266	1.947	4.3416	6.9227	6.1842	6.6281	9.2726	8.1275	-0.4215	-10.731	-9.709	0.8131	6.4043	0.0597	2.4953	5.2555	-13.2189	-3.9313
-8.5042	-4.4647	-5.304	-4.5841	1.1078	2.6557	1.85	4.3043	6.8332	6.0835	6.5647	9.1159	8.0156	-0.3991	-10.7049	-9.6307	0.7907	6.3819	0.0821	2.4506	5.289	-13.3382	-3.9537
-8.5975	-4.4647	-5.4084	-4.6811	1.1003	2.596	1.8016	4.282	6.6989	5.9642	6.4714	8.9556	7.8627	-0.3991	-10.6415	-9.5337	0.7907	6.3036	0.0895	2.3573	5.2853	-13.4949	-3.9313
-8.6609	-4.4349	-5.5054	-4.7594	1.1115	2.5289	1.712	4.267	6.6057	5.8261	6.3633	8.7653	7.7172	-0.3991	-10.552	-9.4479	0.7796	6.1842	0.0858	2.2976	5.289	-13.6515	-3.9015
-8.7765	-4.4386	-5.58	-4.8787	1.1376	2.4692	1.5927	4.2185	6.4714	5.6881	6.2439	8.5714	7.5307	-0.3879	-10.5072	-9.3733	0.7572	6.076	0.0746	2.1895	5.2592	-13.7821	-3.8903
-8.8959	-4.4349	-5.7329	-5.0056	1.1152	2.4058	1.4994	4.1999	6.3707	5.5389	6.1432	8.37	7.3293	-0.3805	-10.5147	-9.336	0.7497	5.9343	0.0373	2.044	5.2368	-13.8641	-3.8418
-9.0152	-4.5058	-5.8858	-5.151	1.0779	2.2902	1.3502	4.0955	6.229	5.3599	5.9903	8.1424	7.1055	-0.3805	-10.5445	-9.3658	0.7423	5.7329	0.0075	1.9023	5.1921	-13.9052	-3.8083
-9.157	-4.4908	-6.0015	-5.2517	1.0891	2.2454	1.2607	4.0395	6.1208	5.2219	5.8933	7.9597	6.9302	-0.373	-10.593	-9.3957	0.7236	5.6098	0.0075	1.8239	5.1585	-13.894	-3.7635
-9.3323	-4.5431	-6.1357	-5.386	1.0071	2.1745	1.1376	3.9798	5.9865	5.0578	5.7851	7.7359	6.6915	-0.3767	-10.6303	-9.4628	0.7273	5.4382	-0.0112	1.7158	5.0951	-13.8567	-3.7262
-9.4442	-4.5542	-6.2551	-5.4979	0.9959	2.0888	1.0034	3.909	5.8672	4.9011	5.6434	7.5568	6.5162	-0.3618	-10.7049	-9.5486	0.705	5.2704	-0.0075	1.5815	5.0429	-13.7709	-3.6889
-9.6232	-4.6139	-6.3707	-5.6359	0.9586	2.0253	0.8952	3.8381	5.7515	4.7295	5.5128	7.3629	6.2476	-0.373	-10.8093	-9.6605	0.7236	5.0615	-0.0075	1.4696	4.9795	-13.6292	-3.6852
-9.75	-4.6251	-6.4752	-5.7851	0.9399	1.9881	0.8131	3.7971	5.6396	4.6326	5.4159	7.1652	6.0537	-0.3618	-10.9063	-9.7276	0.7236	4.8638	0.0559	1.3279	4.9683	-13.4762	-3.6777
-9.903	-4.6661	-6.5833	-5.8821	0.8915	1.9097	0.6975	3.7337	5.5352	4.4685	5.3114	6.9862	5.8299	-0.3693	-10.9921	-9.8694	0.7273	4.6512	0.1044	1.1973	4.9384	-13.2897	-3.6964
-9.9962	-4.6438	-6.6355	-5.9791	0.8989	1.8687	0.6154	3.7187	5.4643	4.3416	5.2144	6.822	5.5912	-0.3655	-11.048	-9.9477	0.7236	4.4162	0.1828	1.0779	4.931	-13.1032	-3.7187
-10.1006	-4.6811	-6.7064	-6.0947	0.884	1.8612	0.552	3.7001	5.3823	4.2335	5.1286	6.6766	5.3823	-0.3543	-11.1525	-10.0037	0.7273	4.1999	0.2723	0.9288	4.9198	-12.8906	-3.7598
-10.1902	-4.7109	-6.7362	-6.1469	0.9213	1.8314	0.4439	3.6926	5.304	4.088	5.0578	6.5274	5.1734	-0.3767	-11.2196	-10.0596	0.7423	3.95	0.3618	0.7833	4.9086	-12.678	-3.8269
-10.2461	-4.737	-6.8071	-6.2402	0.9026	1.8053	0.4066	3.6889	5.2405	3.9612	4.9795	6.3782	4.9608	-0.3767	-11.2644	-10.0559	0.7609	3.6964	0.3842	0.6192	4.8937	-12.4393	-3.8978
-10.2685	-4.696	-6.7885	-6.2439	0.9698	1.8016	0.3991	3.6889	5.207	3.9313	4.9608	6.2737	4.793	-0.3991	-11.3278	-10.0074	0.7721	3.4688	0.4812	0.5222	4.8974	-12.1707	-3.9724
-10.2983	-4.7184	-6.781	-6.2625	0.9586	1.8053	0.3842	3.715	5.1734	3.8567	4.8899	6.1581	4.5841	-0.4178	-11.339	-9.9776	0.8206	3.2003	0.5296	0.373	4.8526	-11.8835	-4.088
-10.2909	-4.7333	-6.74	-6.2476	0.9884	1.8612	0.4066	3.7337	5.1548	3.7971	4.8414	6.0686	4.4274	-0.4439	-11.339	-9.9104	0.8653	2.9728	0.5856	0.276	4.8601	-11.5665	-4.1999
-10.2275	-4.7184	-6.6728	-6.1656	1.0295	1.9097	0.4625	3.7635	5.1809	3.7859	4.8265	6.0015	4.2969	-0.47	-11.3539	-9.8806	0.9325	2.7191	0.6192	0.1716	4.8414	-11.186	-4.3416
-10.2013	-4.7146	-6.6057	-6.1096	1.0929	1.9806	0.5408	3.8157	5.2032	3.7635	4.7818	5.9604	4.1439	-0.5035	-11.3427	-9.8806	0.9959	2.4879	0.6975	0.0634	4.8377	-10.7608	-4.4423
-10.1603	-4.7109	-6.5162	-6.0425	1.1078	2.0664	0.6154	3.8642	5.2704	3.7896	4.8004	5.9492	4.0507	-0.5371	-11.3651	-9.888	1.0668	2.2566	0.7721	-0.0037	4.8489	-10.2834	-4.5542
-10.0932	-4.6661	-6.4043	-5.938	1.16	2.182	0.6863	3.9239	5.2965	3.7896	4.7668	5.9343	3.9463	-0.5856	-11.3502	-9.903	1.1525	2.044	0.8355	-0.0671	4.8079	-9.7575	-4.6587
-10.0298	-4.6549	-6.2998	-5.8075	1.216	2.2678	0.7945	3.9724	5.3786	3.8232	4.7557	5.9567	3.9015	-0.6266	-11.3203	-9.9552	1.2458	1.8314	0.9474	-0.0783	4.8116	-9.198	-4.7445
-9.9104	-4.5766	-6.1395	-5.7031	1.298	2.4245	0.884	4.0582	5.4905	3.8903	4.8041	5.9828	3.8269	-0.6826	-11.3464	-10.0149	1.3316	1.6747	1.0406	-0.097	4.8228	-8.6348	-4.8041
-9.7538	-4.4871	-5.9642	-5.5688	1.436	2.5811	1.0406	4.1589	5.6322	3.9761	4.8041	6.0388	3.8008	-0.7236	-11.2905	-10.0298	1.4099	1.4808	1.1488	-0.0821	4.8116	-8.1089	-4.8377
-9.6046	-4.3789	-5.7702	-5.427	1.5479	2.7601	1.16	4.2558	5.7739	4.0656	4.8489	6.0649	3.7971	-0.7497	-11.2308	-10.0447	1.4845	1.3167	1.2756	-0.0895	4.8228	-7.6352	-4.8638
-9.3845	-4.1999	-5.5315	-5.2294	1.6859	2.9989	1.3092	4.3939	5.8933	4.2036	4.8713	6.1693	3.7859	-0.7907	-11.1637	-10.0559	1.5591	1.2085	1.4025	-0.0448	4.834	-7.1988	-4.8452
-9.2017	-4.0805	-5.3077	-5.0839	1.809	3.1965	1.4323	4.4908	6.0462	4.2708	4.8862	6.2402	3.8008	-0.8579	-11.0965	-10.0895	1.6635	1.0705	1.5032	-0.0186	4.8004	-6.7997	-4.7967
-8.9406	-3.8717	-5.0429	-4.8899	1.9694	3.3905	1.5927	4.6139	6.2215	4.3976	4.9384	6.3409	3.8344	-0.8989	-11.0107	-10.0559	1.7531	0.9549	1.5964	0.0485	4.7967	-6.4975	-4.7333
-8.6833	-3.6852	-4.7855	-4.7184	2.1223	3.5994	1.7419	4.6997	6.367	4.5169	4.9347	6.3968	3.8381	-0.9437	-10.91	-10.041	1.85	0.828	1.6859	0.0821	4.7668	-6.1991	-4.6773
-8.4035	-3.4912	-4.4796	-4.4946	2.2864	3.8567	1.8836	4.8265	6.5609	4.6288	4.9757	6.4938	3.8493	-1.0034	-10.8131	-9.9365	1.9582	0.7311	1.7307	0.1343	4.7072	-5.9753	-4.599
-8.0828	-3.2227	-4.2036	-4.2745	2.4655	4.1141	2.044	4.9533	6.7288	4.7743	5.0056	6.5796	3.8866	-1.0593	-10.6228	-9.8731	2.0664	0.6266	1.8016	0.1977	4.7034	-5.7926	-4.5132
-7.7732	-2.9653	-3.894	-4.0432	2.6818	4.3939	2.238	5.1063	6.9265	4.9459	5.0429	6.6952	3.9575	-1.1041	-10.4699	-9.7836	2.1671	0.5446	1.8985	0.2872	4.6699	-5.6396	-4.4237
-7.4487	-2.7042	-3.5882	-3.7635	2.872	4.6512	2.4618	5.2368	7.0906	5.0988	5.0951	6.781	4.0395	-1.1525	-10.261	-9.6046	2.2603	0.4737	1.9657	0.3432	4.6587	-5.5278	-4.3416
-7.1092	-2.4095	-3.2562	-3.4838	3.1294	4.931	2.7191	5.4047	7.3107	5.3114	5.151	6.9041	4.1626	-1.1898	-10.026	-9.4031	2.3387	0.4439	2.044	0.4625	4.6326	-5.442	-4.2521
-6.7512	-2.0888	-2.9578	-3.1779	3.3868	5.248	2.9541	5.6023	7.5158	5.5352	5.2331	7.0346	4.2708	-1.2309	-9.7649	-9.2092	2.4282	0.4028	2.1522	0.5483	4.6475	-5.3935	-4.1887
-6.408	-1.768	-2.6259	-2.8795	3.6852	5.5688	3.2488	5.8112	7.7582	5.7665	5.3189	7.1764	4.4312	-1.2719	-9.4815	-8.9444	2.4916	0.414	2.279	0.6677	4.6549	-5.386	-4.0955
-6.0499	-1.4323	-2.3014	-2.555	3.9612	5.8411	3.5061	6.0015	7.9634	6.035	5.4457	7.3554	4.6065	-1.2831	-9.1831	-8.6721	2.5252	0.4439	2.376	0.828	4.6661	-5.3748	-4.0321
-5.7142	-1.0779	-1.9769	-2.2753	4.3006	6.1693	3.8083	6.2103	8.217	6.2849	5.5128	7.5046	4.7743	-1.3055	-8.881	-8.3662	2.5662	0.4774	2.5065	0.9735	4.7109	-5.3935	-3.9686
-5.4009	-0.7572	-1.6822	-1.947	4.5953	6.4602	4.1141	6.4453	8.4483	6.5908	5.6546	7.6948	4.9981	-1.3055	-8.5975	-8.0716	2.5811	0.5669	2.6259	1.1302	4.7184	-5.3935	-3.8978
-5.1063	-0.4401	-1.4211	-1.6934	4.8564	6.7213	4.3752	6.5908	8.6534	6.837	5.7478	7.8515	5.151	-1.3167	-8.3065	-7.7769	2.5923	0.6117	2.7154	1.298	4.7184	-5.3562	-3.8642
-4.8191	-0.1194	-1.1414	-1.4398	5.1473	6.9862	4.6475	6.8146	8.8623	7.113	5.8746	8.038	5.3413	-1.3092	-8.0231	-7.4599	2.5662	0.7087	2.8459	1.4733	4.7706	-5.3002	-3.7971
-4.5654	0.1343	-0.9138	-1.216	5.3636	7.2137	4.8787	6.9563	9.0488	7.3703	5.9604	8.1723	5.5128	-1.2906	-7.7209	-7.113	2.555	0.8318	2.9541	1.6524	4.8041	-5.2256	-3.7747
-4.3267	0.3543	-0.6975	-0.9884	5.5501	7.4226	5.0988	7.0943	9.2241	7.5979	6.0649	8.3401	5.6993	-1.2906	-7.5382	-6.822	2.5289	0.9064	3.0436	1.8277	4.8452	-5.0876	-3.7523
-4.1589	0.5073	-0.5446	-0.8355	5.6881	7.5494	5.2592	7.1726	9.3584	7.8067	6.1096	8.4408	5.8523	-1.2794	-7.2883	-6.5013	2.5252	0.9959	3.0772	1.9694	4.8191	-4.9086	-3.7337
-3.9798	0.6565	-0.3916	-0.6788	5.7926	7.7284	5.4196	7.2547	9.4516	7.9746	6.1805	8.5453	5.9753	-1.2682	-7.0608	-6.1693	2.5177	1.063	3.0846	2.1335	4.8153	-4.6736	-3.7225
-3.8306	0.787	-0.2797	-0.5669	5.9007	7.8552	5.5539	7.3442	9.5822	8.1424	6.2551	8.6534	6.0872	-1.2682	-6.8668	-5.8672	2.5065	1.1339	3.1108	2.2454	4.8041	-4.4088	-3.7225
-3.7187	0.8542	-0.1678	-0.4476	5.9604	7.9634	5.6695	7.4002	9.6754	8.2842	6.3148	8.728	6.1991	-1.2533	-6.6989	-5.5986	2.4804	1.1861	3.1257	2.3946	4.8004	-4.0693	-3.7113
-3.618	0.8616	-0.1007	-0.3543	5.9865	8.0119	5.7553	7.4263	9.7239	8.37	6.3409	8.7989	6.2775	-1.2383	-6.5348	-5.2816	2.4655	1.2458	3.107	2.4767	4.7743	-3.7075	-3.715
-3.5285	0.8803	-0.0261	-0.235	5.9903	8.0939	5.8597	7.4561	9.7873	8.5192	6.3744	8.8474	6.3968	-1.2271	-6.3856	-5.054	2.4431	1.3241	3.0996	2.6184	4.7967	-3.2525	-3.715
-3.5136	0.7907	-0.0149	-0.1753	5.9119	8.1089	5.9194	7.4524	9.8172	8.5676	6.3744	8.8735	6.4453	-1.2085	-6.2663	-4.8526	2.4058	1.3428	3.0772	2.6967	4.7482	-2.7303	-3.7374
-3.5248	0.6975	-0.0261	-0.1343	5.8746	8.12	5.938	7.4002	9.8358	8.6497	6.4192	8.922	6.5162	-1.1861	-6.2439	-4.7184	2.3834	1.3913	3.0511	2.7676	4.7333	-2.1447	-3.7598
-3.5509	0.5968	-0.0261	-0.1119	5.7702	8.1126	6.0089	7.3853	9.806	8.6534	6.4229	8.9369	6.5162	-1.1861	-6.2103	-4.6549	2.3536	1.3987	3.0585	2.8124	4.7519	-1.492	-3.7635
-3.5845	0.4625	-0.0671	-0.0895	5.6844	8.12	6.0723	7.3703	9.8358	8.7392	6.4341	8.9891	6.5721	-1.1637	-6.2215	-4.6176	2.3237	1.4323	3.0846	2.8944	4.7258	-0.8131	-3.756
-3.6553	0.3357	-0.1119	-0.1007	5.6023	8.0678	6.0649	7.3666	9.7948	8.7392	6.4341	8.9854	6.587	-1.1563	-6.2514	-4.6176	2.2864	1.4323	3.1219	2.9466	4.737	-0.097	-3.7411
-3.7113	0.2163	-0.1567	-0.0634	5.5501	8.0455	6.0798	7.3554	9.7948	8.7952	6.4677	9.0078	6.6728	-1.1227	-6.3036	-4.6848	2.2193	1.4808	3.1704	2.9802	4.7557	0.6229	-3.7113
-3.7859	0.0858	-0.2126	-0.0783	5.483	7.997	6.1096	7.3778	9.7948	8.8026	6.5013	9.0376	6.6654	-1.0929	-6.3521	-4.7557	2.1708	1.4771	3.2077	3.0362	4.7482	1.354	-3.6591
-3.8456	-0.0261	-0.2536	-0.0746	5.4457	7.9634	6.091	7.3778	9.7649	8.7802	6.5199	9.0488	6.6803	-1.0668	-6.464	-4.8713	2.1223	1.4882	3.204	3.0623	4.7706	2.0738	-3.6068
-3.95	-0.0858	-0.2872	-0.0597	5.4196	7.9112	6.1171	7.3778	9.7463	8.7877	6.5274	9.0302	6.7027	-1.0406	-6.546	-5.0578	2.0776	1.4845	3.245	3.0884	4.7668	2.8086	-3.5807
-4.0358	-0.1417	-0.3394	-0.0597	5.427	7.9074	6.1432	7.4114	9.7426	8.8064	6.5609	9.0451	6.7362	-1.0257	-6.7101	-5.2256	2.0291	1.5144	3.2749	3.1406	4.7557	3.5248	-3.5099
-4.088	-0.1529	-0.3282	-0.0336	5.4718	7.8888	6.1506	7.4524	9.7538	8.8175	6.5609	9.0637	6.7362	-0.9996	-6.837	-5.4159	1.9843	1.5255	3.2786	3.2003	4.7706	4.2335	-3.4465
-4.1514	-0.1977	-0.373	-0.0261	5.4905	7.8664	6.1768	7.4748	9.7724	8.8175	6.5759	9.0973	6.7549	-0.9735	-7.0197	-5.5912	1.9284	1.5405	3.2674	3.2189	4.7445	4.9011	-3.3942
-4.2409	-0.2089	-0.4103	-0.0149	5.5315	7.8217	6.1693	7.5046	9.7239	8.7877	6.5721	9.0786	6.7325	-0.9772	-7.195	-5.8112	1.9135	1.5032	3.245	3.2189	4.7184	5.5427	-3.3457
-4.3081	-0.1828	-0.3879	-0.0559	5.5874	7.8142	6.1842	7.527	9.7165	8.7616	6.5386	9.0637	6.6952	-0.9511	-7.3554	-6.0089	1.8911	1.4845	3.2376	3.2003	4.6736	6.1581	-3.2973
-4.323	-0.1492	-0.4178	-0.0224	5.6919	7.7769	6.1469	7.5456	9.709	8.7243	6.5311	9.0451	6.6654	-0.9362	-7.5083	-6.1357	1.8612	1.4435	3.1928	3.1854	4.6438	6.7288	-3.2562
-4.3379	-0.1044	-0.3916	-0.0298	5.7366	7.762	6.1283	7.568	9.709	8.6833	6.5498	9.0413	6.6355	-0.925	-7.6613	-6.2514	1.8277	1.4062	3.2264	3.1592	4.64	7.2734	-3.2264
-4.4013	-0.1044	-0.4215	-0.0485	5.8075	7.7209	6.1096	7.5941	9.6754	8.6199	6.5236	9.0227	6.5684	-0.9399	-7.8366	-6.3894	1.8389	1.3801	3.1816	3.0772	4.5953	7.7844	-3.1928
-4.405	-0.0634	-0.414	-0.041	5.8299	7.7284	6.0984	7.5792	9.6642	8.5714	6.505	8.9966	6.5236	-0.9176	-7.9746	-6.4714	1.8239	1.3055	3.1854	3.0473	4.5729	8.3028	-3.1854
-4.4498	-0.0224	-0.414	-0.0112	5.8448	7.6911	6.1133	7.5494	9.6493	8.5415	6.4602	8.9556	6.4714	-0.9176	-8.0939	-6.546	1.8239	1.2644	3.1779	2.9877	4.5617	8.8026	-3.2152
-4.4796	-0.0224	-0.4103	0.0075	5.8411	7.7098	6.1245	7.5233	9.6307	8.508	6.408	8.9593	6.4304	-0.9362	-8.1984	-6.5982	1.8314	1.2197	3.1108	2.9131	4.5169	9.3024	-3.2637
-4.4759	-0.0261	-0.4252	0.0261	5.8112	7.6986	6.1805	7.4487	9.6307	8.493	6.3595	8.922	6.4006	-0.9138	-8.2618	-6.6579	1.8202	1.1824	3.0735	2.8422	4.4573	9.7948	-3.3196
-4.5169	-0.0485	-0.4215	0.0559	5.7553	7.6613	6.1879	7.3405	9.571	8.4446	6.2476	8.8847	6.3521	-0.9549	-8.3215	-6.7213	1.8762	1.0966	2.9989	2.7564	4.3827	10.2722	-3.4203
-4.5393	-0.097	-0.4364	0.0783	5.6471	7.6463	6.1879	7.2771	9.515	8.4296	6.1805	8.8698	6.3371	-0.9623	-8.3774	-6.781	1.8799	1.0891	2.9168	2.693	4.3416	10.7459	-3.5173
-4.5542	-0.1268	-0.4401	0.0858	5.5613	7.6277	6.2402	7.1615	9.5001	8.4259	6.0835	8.825	6.3036	-0.9474	-8.3662	-6.8071	1.8836	1.0742	2.8049	2.6371	4.2558	11.2159	-3.6143
-4.599	-0.1902	-0.4588	0.1007	5.4606	7.624	6.2476	7.0235	9.4367	8.3923	5.9903	8.7802	6.2625	-0.9661	-8.3327	-6.8407	1.8948	1.0406	2.7005	2.6035	4.1812	11.6747	-3.7411
-4.6065	-0.2275	-0.4364	0.1455	5.3599	7.5829	6.2812	6.8854	9.4031	8.3886	5.8858	8.7318	6.2103	-0.981	-8.3103	-6.8705	1.9172	0.9922	2.6296	2.5475	4.1029	12.0924	-3.8791
-4.6027	-0.2387	-0.4178	0.1641	5.207	7.5456	6.3185	6.7474	9.3621	8.3961	5.7478	8.7094	6.1879	-0.9772	-8.2208	-6.8668	1.9172	0.9661	2.5513	2.5177	4.0395	12.4878	-4.0358
-4.599	-0.2947	-0.4439	0.1865	5.0764	7.5046	6.3446	6.5796	9.2912	8.3737	5.621	8.6273	6.1656	-0.9772	-8.1051	-6.8705	1.9321	0.9138	2.4245	2.4655	3.9313	12.872	-4.2074
-4.5729	-0.3394	-0.414	0.2424	4.9049	7.4897	6.3968	6.408	9.2055	8.3737	5.4867	8.5751	6.1171	-0.9661	-7.9895	-6.837	1.906	0.8803	2.3275	2.4356	3.8679	13.2375	-4.3752
-4.5468	-0.3543	-0.3842	0.3021	4.7855	7.43	6.4192	6.229	9.1458	8.3252	5.3338	8.5005	6.0686	-0.981	-7.8701	-6.8519	1.9284	0.8355	2.2156	2.4021	3.756	13.6068	-4.5692
-4.4871	-0.3543	-0.373	0.3618	4.6848	7.4039	6.4714	6.0686	9.0413	8.3401	5.207	8.4371	6.0276	-0.9772	-7.6874	-6.8332	1.9209	0.8057	2.085	2.361	3.6889	13.976	-4.7333
-4.42	-0.3096	-0.2797	0.4364	4.6251	7.3853	6.5311	5.9977	8.9742	8.3364	5.1361	8.3625	5.9903	-0.9623	-7.5419	-6.8183	1.8985	0.7684	2.0365	2.3126	3.6441	14.3639	-4.8899
-4.3006	-0.2499	-0.2201	0.5147	4.64	7.3741	6.587	5.9194	8.9369	8.3401	5.0242	8.3215	5.953	-0.9437	-7.333	-6.7773	1.8799	0.7572	1.9433	2.2678	3.5807	14.7369	-5.0503
-4.1626	-0.1119	-0.1231	0.5856	4.6848	7.4002	6.643	5.9007	8.8735	8.3438	4.9683	8.2506	5.9119	-0.9549	-7.1801	-6.7325	1.8724	0.7199	1.8873	2.2156	3.5733	15.1211	-5.1697
-4.0321	-0.0037	-0.0522	0.6415	4.7295	7.3778	6.643	5.8299	8.7952	8.2804	4.8787	8.1685	5.8523	-0.9362	-6.9712	-6.7027	1.8687	0.6639	1.8127	2.1671	3.5322	15.4755	-5.2965
-3.8791	0.1604	0.0298	0.6975	4.7743	7.3927	6.6766	5.8187	8.7392	8.2469	4.7967	8.1089	5.7814	-0.9437	-6.7624	-6.5982	1.8612	0.6192	1.7754	2.0999	3.5173	15.8223	-5.4047
-3.6964	0.332	0.1194	0.7796	4.8564	7.3927	6.6542	5.8075	8.6646	8.1872	4.7519	8.038	5.7068	-0.9399	-6.5162	-6.4789	1.8426	0.5968	1.7083	2.1186	3.4651	16.1133	-5.5278
-3.5061	0.4886	0.2424	0.8057	4.916	7.4002	6.6766	5.7702	8.5788	8.1499	4.6885	7.9559	5.6546	-0.9288	-6.2737	-6.311	1.8239	0.5819	1.6635	2.0925	3.4539	16.352	-5.6322
-3.3308	0.6453	0.3394	0.9026	4.9832	7.3629	6.6505	5.7404	8.4781	8.0716	4.599	7.8366	5.5539	-0.9288	-6.0313	-6.1133	1.8314	0.5669	1.5852	2.0403	3.398	16.5571	-5.7254
-3.107	0.7907	0.4588	0.9288	5.0429	7.3629	6.6057	5.7441	8.4073	8.0156	4.5431	7.7433	5.4979	-0.925	-5.7665	-5.9045	1.8277	0.5632	1.5703	2.044	3.4017	16.6802	-5.8112
-2.9093	0.9698	0.5371	0.9959	5.1212	7.348	6.602	5.7068	8.314	7.9224	4.4908	7.6687	5.3786	-0.9288	-5.5651	-5.6956	1.8314	0.552	1.5293	2.003	3.3532	16.8108	-5.8746
-2.7117	1.1675	0.6677	1.063	5.1659	7.3442	6.5386	5.6956	8.2058	7.8328	4.4274	7.5419	5.289	-0.9288	-5.3413	-5.5128	1.8277	0.5408	1.4733	1.9731	3.3122	16.9562	-5.9157
-2.5214	1.3353	0.7758	1.119	5.2256	7.3181	6.5125	5.6508	8.0977	7.7582	4.3677	7.4226	5.2107	-0.9213	-5.1771	-5.3226	1.8239	0.5483	1.4248	1.9955	3.2898	17.1054	-5.9903
-2.3573	1.4696	0.8318	1.1861	5.2667	7.3032	6.4938	5.5837	7.9671	7.6575	4.2708	7.2995	5.1212	-0.925	-4.9906	-5.1622	1.8463	0.5669	1.3763	1.9806	3.2189	17.2807	-6.0425
-2.1857	1.6039	0.9213	1.2234	5.2778	7.2249	6.449	5.5166	7.8291	7.5867	4.185	7.1801	5.0429	-0.9511	-4.8601	-5.0205	1.865	0.5669	1.3279	1.9619	3.1704	17.4934	-6.0947
-2.0477	1.6971	0.9474	1.2682	5.2405	7.154	6.3931	5.4196	7.6799	7.471	4.0656	7.0309	4.9272	-0.9511	-4.7557	-4.9459	1.8911	0.5781	1.2533	1.9582	3.1108	17.7544	-6.1133
-1.9508	1.7792	1.0034	1.2682	5.1809	7.0831	6.3185	5.2965	7.5121	7.348	3.9388	6.8519	4.8004	-0.9772	-4.6885	-4.8825	1.9358	0.5259	1.1898	1.9582	3.0212	18.0827	-6.1693
-1.9135	1.7866	0.9922	1.257	5.1137	6.9489	6.2364	5.1398	7.3144	7.2361	3.8045	6.7027	4.6848	-1.0071	-4.6699	-4.9049	1.9806	0.5446	1.1115	1.9358	2.9355	18.493	-6.2327
-1.8762	1.7643	0.9511	1.2085	4.9795	6.8332	6.1991	5.013	7.1242	7.1018	3.6329	6.5162	4.558	-1.0295	-4.6773	-4.9981	2.0403	0.5446	1.0444	1.9097	2.8571	18.9891	-6.2924
-1.906	1.6598	0.8765	1.1712	4.8228	6.7139	6.1096	4.7967	6.919	6.9675	3.4651	6.3334	4.4274	-1.0742	-4.7407	-5.1398	2.1223	0.511	0.9437	1.8538	2.749	19.5784	-6.367
-1.9433	1.5516	0.8355	1.1152	4.6475	6.5498	6.0313	4.6288	6.7176	6.8556	3.3346	6.1283	4.3043	-1.1078	-4.8191	-5.304	2.1895	0.4849	0.8877	1.7866	2.6818	20.2535	-6.4379
-2.0179	1.4323	0.7161	1.022	4.4871	6.4155	5.9082	4.4685	6.5162	6.7288	3.1854	5.9679	4.1887	-1.1563	-4.931	-5.5389	2.2715	0.4364	0.8616	1.7344	2.5998	21.0032	-6.5236
-2.085	1.2906	0.608	0.9138	4.3155	6.2439	5.8411	4.2969	6.3297	6.6318	3.0063	5.7963	4.0619	-1.1824	-5.1025	-5.8075	2.3349	0.3991	0.7945	1.6822	2.5177	21.8238	-6.6206
-2.2305	1.1003	0.511	0.8169	4.1104	6.1022	5.7627	4.1439	6.1432	6.5013	2.8982	5.6173	3.9351	-1.2197	-5.2443	-6.035	2.417	0.3842	0.7833	1.6151	2.4804	22.678	-6.7288
-2.3685	0.9288	0.3767	0.6863	3.95	5.9903	5.662	4.0134	5.9642	6.3782	2.749	5.4718	3.8418	-1.2533	-5.4457	-6.3297	2.4767	0.3432	0.7534	1.533	2.4245	23.5694	-6.8407
-2.5028	0.7833	0.2648	0.6042	3.8232	5.8448	5.5837	3.9015	5.8299	6.2924	2.652	5.3189	3.7486	-1.2868	-5.6396	-6.5833	2.5438	0.3432	0.7609	1.5293	2.3909	24.4907	-6.9377
-2.6371	0.6453	0.138	0.4662	3.7187	5.7142	5.4905	3.8344	5.6844	6.2103	2.5699	5.2144	3.674	-1.3167	-5.8523	-6.837	2.6072	0.3133	0.8019	1.4696	2.3722	25.412	-7.0384
-2.8012	0.5259	0.0298	0.3394	3.6665	5.6173	5.4233	3.7784	5.5874	6.1357	2.514	5.069	3.6218	-1.3353	-6.0462	-7.0458	2.6669	0.3059	0.8206	1.3689	2.3722	26.3109	-7.1428
-2.928	0.4737	-0.041	0.2387	3.6777	5.5688	5.3935	3.812	5.5539	6.091	2.5214	5.0354	3.5509	-1.3652	-6.2551	-7.292	2.7079	0.3021	0.8915	1.3428	2.4095	27.2397	-7.1913
-3.0399	0.4327	-0.097	0.1902	3.7337	5.5352	5.3599	3.853	5.5016	6.0499	2.5475	4.9869	3.5173	-1.3838	-6.4602	-7.5046	2.7527	0.3282	0.9959	1.3167	2.4655	28.1311	-7.251
-3.1518	0.4513	-0.1417	0.1044	3.8679	5.5128	5.3077	3.9798	5.5278	6.0425	2.6184	4.9683	3.5099	-1.4136	-6.6766	-7.706	2.79	0.3394	1.0817	1.2607	2.5401	29.0263	-7.292
-3.2488	0.4961	-0.1678	0.0559	3.9836	5.5054	5.2816	4.1216	5.5203	6.0164	2.6669	4.972	3.5136	-1.4136	-6.8332	-7.859	2.7863	0.3879	1.2458	1.2197	2.6669	29.8879	-7.3107
-3.3159	0.5334	-0.1977	-0.0037	4.1514	5.5389	5.2778	4.2447	5.5725	6.0313	2.8049	5.0018	3.536	-1.4025	-6.9489	-8.0007	2.7974	0.414	1.4211	1.2197	2.8124	30.7048	-7.3181
-3.3681	0.6154	-0.1641	-0.0373	4.2931	5.5427	5.248	4.4125	5.6322	6.0238	2.8571	5.0018	3.536	-1.4025	-7.057	-8.1089	2.8049	0.4662	1.5703	1.201	2.9466	31.4507	-7.3069
-3.383	0.6826	-0.1641	-0.0559	4.4834	5.621	5.2928	4.5953	5.7329	6.0611	3.0138	5.0764	3.577	-1.4062	-7.0757	-8.1648	2.7825	0.4998	1.7568	1.201	3.0697	32.1184	-7.292
-3.398	0.8019	-0.1082	-0.0559	4.6885	5.6881	5.2778	4.793	5.7926	6.0835	3.1331	5.1473	3.6143	-1.3875	-7.0496	-8.1685	2.7601	0.5669	1.9246	1.2197	3.2189	32.7264	-7.2845
-3.3607	0.9362	-0.0336	0	4.875	5.7888	5.3524	4.972	5.9231	6.1656	3.2898	5.2144	3.6926	-1.3577	-6.9862	-8.1312	2.7266	0.6602	2.1037	1.2644	3.3942	33.2411	-7.2361
-3.3271	1.0929	0.0597	0.041	5.0802	5.8896	5.386	5.1846	6.0425	6.229	3.4278	5.2778	3.7859	-1.3577	-6.8892	-8.0529	2.7042	0.746	2.2753	1.3129	3.5322	33.6962	-7.1801
-3.2376	1.2682	0.1604	0.1268	5.289	6.0313	5.4905	5.4009	6.1991	6.3371	3.6106	5.4009	3.8754	-1.3353	-6.7586	-7.9373	2.6445	0.8392	2.4394	1.3763	3.6852	34.0878	-7.1204
-3.1592	1.4025	0.276	0.2126	5.4718	6.1469	5.5613	5.58	6.3409	6.4117	3.7374	5.4942	3.9798	-1.3204	-6.6243	-7.7732	2.6072	0.9661	2.5923	1.4584	3.8418	34.3825	-7.0757
-3.0697	1.5628	0.3954	0.3282	5.6508	6.2924	5.6359	5.7441	6.4752	6.4901	3.8717	5.5651	4.0955	-1.2943	-6.4602	-7.6016	2.5662	1.0668	2.7378	1.533	3.9313	34.6137	-7.0048
-2.9653	1.6897	0.5371	0.4625	5.7963	6.4416	5.759	5.9231	6.5982	6.6094	4.0097	5.6993	4.1887	-1.2719	-6.2737	-7.3517	2.5363	1.1712	2.8795	1.6225	4.0768	34.7368	-6.9339
-2.8347	1.8277	0.6826	0.6527	5.9231	6.5647	5.8933	6.0798	6.7586	6.7027	4.1402	5.7702	4.3043	-1.2533	-6.0872	-7.0869	2.514	1.2794	3.0175	1.7344	4.1663	34.7853	-6.8332
-2.7079	1.9246	0.8206	0.8057	6.0462	6.7288	5.994	6.2327	6.8556	6.8444	4.2297	5.8672	4.4125	-1.257	-5.8597	-6.8481	2.4841	1.4062	3.1108	1.8612	4.2596	34.7629	-6.7624
-2.596	2.0552	0.9623	1.0108	6.1506	6.8593	6.1283	6.3222	6.9787	6.9675	4.2969	5.9418	4.5319	-1.2495	-5.662	-6.5609	2.4767	1.5516	3.2189	1.9769	4.3416	34.692	-6.7027
-2.4767	2.1522	1.1115	1.201	6.2327	6.9973	6.2849	6.4229	7.0869	7.1242	4.4162	6.0238	4.6661	-1.2309	-5.4643	-6.2961	2.4543	1.7307	3.3047	2.141	4.3864	34.6286	-6.6206
-2.3573	2.2417	1.2346	1.4099	6.2812	7.1279	6.4677	6.5162	7.2025	7.2323	4.4834	6.091	4.7892	-1.2383	-5.3189	-6.0686	2.4655	1.8724	3.383	2.2939	4.4349	34.569	-6.5721
-2.2641	2.3424	1.3838	1.63	6.3073	7.251	6.5982	6.5274	7.2883	7.3778	4.5319	6.1208	4.9086	-1.2421	-5.1883	-5.8224	2.4506	2.0067	3.4502	2.4133	4.461	34.5466	-6.5274
-2.1559	2.3909	1.4994	1.8575	6.3185	7.3554	6.7735	6.5721	7.3442	7.4897	4.558	6.2029	5.0652	-1.2309	-5.0652	-5.6061	2.4282	2.1596	3.4912	2.5625	4.5058	34.5652	-6.5013
-2.0589	2.4095	1.5852	2.0515	6.2887	7.43	6.9227	6.5572	7.4002	7.624	4.5729	6.2141	5.1361	-1.2085	-4.9869	-5.3748	2.4021	2.2678	3.4838	2.7191	4.5058	34.6324	-6.464
-1.9881	2.4245	1.6934	2.2529	6.2588	7.5121	7.0943	6.5348	7.4002	7.7471	4.5617	6.2178	5.2368	-1.201	-4.9272	-5.1995	2.376	2.4282	3.5173	2.8385	4.5207	34.7443	-6.4453
-1.9284	2.3797	1.7531	2.458	6.1842	7.5531	7.2398	6.4714	7.4226	7.8291	4.5654	6.2252	5.3487	-1.1898	-4.9086	-5.0056	2.3461	2.5438	3.4875	2.9653	4.5244	34.8972	-6.4341
-1.85	2.3797	1.8053	2.6706	6.1395	7.6165	7.4002	6.4453	7.4337	7.9746	4.5617	6.2215	5.4308	-1.1563	-4.8787	-4.834	2.2939	2.6781	3.4688	3.1145	4.4983	35.065	-6.4677
-1.8277	2.3275	1.8687	2.831	6.0649	7.6352	7.5307	6.3558	7.4188	8.0902	4.4983	6.2029	5.524	-1.1451	-4.875	-4.6922	2.2603	2.7863	3.4092	3.2077	4.5095	35.2627	-6.4752
-1.768	2.2902	1.9135	2.9839	6.0052	7.6725	7.624	6.2812	7.3927	8.1685	4.4685	6.1768	5.5912	-1.1115	-4.8825	-4.5692	2.2081	2.8982	3.3793	3.3569	4.4685	35.4455	-6.4938
-1.712	2.2342	1.9433	3.0996	5.9119	7.6725	7.7135	6.173	7.3293	8.2096	4.42	6.1506	5.6658	-1.1003	-4.8862	-4.502	2.1671	2.9989	3.3457	3.4875	4.4685	35.6618	-6.5274
-1.727	2.1596	1.9135	3.1928	5.8112	7.6277	7.7396	6.0947	7.2696	8.2692	4.3566	6.0537	5.6769	-1.0854	-4.9123	-4.4349	2.1261	3.0138	3.301	3.5472	4.4498	35.8521	-6.5348
-1.7531	2.0962	1.8799	3.245	5.7142	7.6053	7.7732	5.9642	7.2137	8.2842	4.3043	6.0015	5.6956	-1.0444	-4.9049	-4.4088	2.0776	3.1108	3.2562	3.6516	4.4535	36.046	-6.5423
-1.7866	2.003	1.8277	3.2823	5.5762	7.5419	7.7582	5.8411	7.0943	8.2282	4.2148	5.8933	5.6881	-1.0183	-4.9384	-4.4573	2.0328	3.1667	3.2115	3.756	4.4162	36.2474	-6.5348
-1.85	1.906	1.7643	3.26	5.442	7.4673	7.7172	5.6993	7.0085	8.2245	4.1216	5.7963	5.6508	-1.0034	-4.9459	-4.5169	1.9731	3.2077	3.1891	3.8344	4.4162	36.46	-6.5087
-1.9582	1.7456	1.671	3.1592	5.2555	7.3517	7.6165	5.5166	6.8631	8.135	4.0134	5.6695	5.5651	-0.9735	-4.9944	-4.6288	1.9358	3.2189	3.1443	3.8717	4.3752	36.7025	-6.5013
-2.0365	1.6337	1.5106	3.0809	5.0802	7.2323	7.4972	5.3674	6.7027	8.0193	3.9052	5.5427	5.4755	-0.9474	-5.0429	-4.7333	1.8724	3.2227	3.1219	3.9649	4.3603	36.9673	-6.4453
-2.1708	1.4435	1.354	2.9355	4.9086	7.0906	7.3442	5.2032	6.5609	7.9224	3.8418	5.4159	5.4196	-0.9213	-5.1025	-4.8676	1.8165	3.2711	3.0958	3.991	4.3342	37.2993	-6.3968
-2.3387	1.2868	1.1749	2.7452	4.7445	6.9004	7.1503	5.013	6.3968	7.7844	3.7411	5.289	5.304	-0.8952	-5.1697	-5.0354	1.7531	3.26	3.0996	4.0395	4.3081	37.6461	-6.3558
-2.5028	1.0779	0.9511	2.5252	4.5393	6.7549	6.9675	4.875	6.2215	7.6501	3.6665	5.1436	5.2144	-0.8467	-5.2294	-5.1846	1.6822	3.2637	3.1033	4.0917	4.3304	38.049	-6.3222
-2.7005	0.8803	0.7199	2.3014	4.3491	6.5423	6.7661	4.7258	6.0649	7.4785	3.5807	4.9757	5.0764	-0.8318	-5.3077	-5.3748	1.6188	3.2376	3.1108	4.1066	4.3193	38.4891	-6.27
-2.8982	0.5856	0.4588	2.0253	4.1141	6.2961	6.4975	4.5617	5.8634	7.2957	3.4651	4.8265	4.9384	-0.787	-5.4159	-5.5352	1.5628	3.2338	3.0735	4.129	4.3193	38.9553	-6.2364
-3.1294	0.3581	0.1865	1.7232	3.853	6.0611	6.2476	4.3491	5.662	7.0645	3.3569	4.6549	4.7743	-0.7758	-5.4532	-5.6919	1.5293	3.1704	3.0138	4.1253	4.3006	39.4029	-6.2327
-3.3756	0.0895	-0.0821	1.4286	3.5994	5.7888	5.9903	4.1439	5.4084	6.8407	3.2189	4.4423	4.5803	-0.7758	-5.5315	-5.8672	1.4957	3.1108	2.9429	4.1141	4.2185	39.8841	-6.2252
-3.6255	-0.2014	-0.414	1.1451	3.3457	5.5464	5.7142	3.9313	5.1921	6.6132	3.0735	4.2931	4.4013	-0.7348	-5.5837	-6.0238	1.4584	3.0772	2.8497	4.1477	4.1775	40.3317	-6.1954
-3.8381	-0.4886	-0.6751	0.8094	3.0697	5.2667	5.4233	3.6889	4.9496	6.3707	2.9355	4.0843	4.2335	-0.7311	-5.662	-6.1917	1.4323	2.9802	2.7452	4.1029	4.0843	40.783	-6.1879
-4.0619	-0.7534	-0.9735	0.5035	2.7974	5.0354	5.1771	3.4987	4.7333	6.132	2.79	3.894	4.0283	-0.7161	-5.7404	-6.3521	1.4025	2.9056	2.6333	4.0768	4.0321	41.2194	-6.1693
-4.2782	-0.9922	-1.2309	0.2126	2.5513	4.7892	4.9123	3.2749	4.4983	5.9007	2.6296	3.7001	3.8194	-0.7087	-5.7553	-6.5162	1.3838	2.8124	2.5363	4.0321	3.9239	41.6372	-6.1395
-4.4983	-1.2309	-1.5032	-0.0597	2.2976	4.5132	4.6549	3.0473	4.282	5.6508	2.4879	3.5173	3.618	-0.6975	-5.8523	-6.6878	1.395	2.7415	2.4282	4.0171	3.8083	42.0437	-6.1208
-4.6699	-1.4286	-1.7456	-0.2909	2.1037	4.3193	4.4423	2.8907	4.0693	5.4308	2.3685	3.3532	3.4465	-0.7012	-5.856	-6.8444	1.3838	2.6482	2.3237	4.0134	3.7187	42.4354	-6.0947
-4.8377	-1.6225	-1.9321	-0.4812	1.9358	4.1178	4.2484	2.7415	3.8866	5.2741	2.2454	3.1779	3.2786	-0.6938	-5.8523	-6.9824	1.3689	2.6109	2.2118	4.0059	3.5994	42.7823	-6.0686
-4.9757	-1.7605	-2.1223	-0.6453	1.7941	3.9761	4.1104	2.5736	3.7411	5.1025	2.141	3.0846	3.163	-0.6863	-5.815	-7.1055	1.354	2.5699	2.1186	4.0171	3.5099	43.103	-6.0201
-5.0764	-1.9023	-2.2864	-0.7982	1.6262	3.812	3.9761	2.3983	3.5956	4.9683	2.0179	2.9243	3.0063	-0.6788	-5.7553	-7.1577	1.3577	2.5326	2.0403	4.0022	3.4054	43.3604	-6.0201
-5.1622	-2.0067	-2.3872	-0.843	1.5106	3.7337	3.9351	2.3088	3.4912	4.8601	1.9619	2.8198	2.9019	-0.6677	-5.6658	-7.1838	1.3279	2.5363	1.9582	4.0209	3.3308	43.5842	-6.0089
-5.2182	-2.1074	-2.4991	-0.8952	1.4248	3.6367	3.8642	2.1596	3.3868	4.7892	1.8575	2.7005	2.8236	-0.6714	-5.5539	-7.2249	1.3353	2.5438	1.8389	4.0134	3.2189	43.7297	-5.9753
-5.2629	-2.2268	-2.5625	-0.9176	1.298	3.5807	3.8754	2.0776	3.3047	4.7482	1.7941	2.6371	2.7266	-0.6565	-5.4196	-7.2025	1.3129	2.5438	1.7568	4.0358	3.1108	43.8863	-6.0164
-5.2405	-2.2641	-2.6072	-0.8392	1.2122	3.5695	3.9351	1.9918	3.245	4.7295	1.7083	2.5662	2.6594	-0.6453	-5.289	-7.1726	1.2906	2.6072	1.671	4.0582	3.0101	43.9796	-6.0574
-5.2032	-2.3275	-2.5886	-0.7124	1.1861	3.5695	4.047	1.9209	3.2301	4.7631	1.6971	2.5177	2.6371	-0.6565	-5.1175	-7.1428	1.2906	2.6706	1.574	4.0917	2.9168	44.0765	-6.1283
-5.151	-2.3536	-2.5736	-0.5558	1.1115	3.5919	4.1812	1.865	3.1928	4.8228	1.6151	2.458	2.6109	-0.649	-4.9906	-7.0533	1.2682	2.7154	1.4882	4.1439	2.8273	44.1996	-6.2178
-5.1063	-2.3983	-2.555	-0.4401	1.0444	3.5919	4.3006	1.8165	3.1555	4.8303	1.5516	2.4095	2.5998	-0.6565	-4.8638	-6.9712	1.2794	2.7713	1.3652	4.1589	2.7191	44.3376	-6.311
-5.0279	-2.4058	-2.4953	-0.2387	1.0518	3.6628	4.4647	1.7568	3.1667	4.8899	1.4882	2.3685	2.5923	-0.6415	-4.7445	-6.8929	1.257	2.8459	1.2421	4.2484	2.6296	44.5726	-6.3894
-4.916	-2.3834	-2.4356	-0.0298	1.0295	3.7486	4.6251	1.7307	3.1369	4.9571	1.4584	2.3237	2.5736	-0.6192	-4.6251	-6.8034	1.2383	2.9243	1.1414	4.2745	2.5401	44.8412	-6.464
-4.834	-2.3722	-2.3461	0.1044	1.0257	3.8008	4.7855	1.671	3.1443	4.9832	1.3614	2.2902	2.5513	-0.6117	-4.5692	-6.7213	1.2197	3.0026	1.0257	4.2969	2.4207	45.1955	-6.5423
-4.7519	-2.3088	-2.2715	0.2797	1.0668	3.8829	4.8862	1.7046	3.1443	5.0503	1.3279	2.2603	2.5438	-0.5968	-4.5095	-6.6691	1.1861	3.0735	0.9101	4.3267	2.3126	45.6133	-6.6467
-4.6661	-2.2715	-2.1895	0.3991	1.0891	3.9463	5.0018	1.6673	3.1369	5.069	1.2644	2.2156	2.5177	-0.5893	-4.4908	-6.6057	1.1637	3.0809	0.7758	4.3416	2.1932	46.0571	-6.7139
-4.6102	-2.2118	-2.1111	0.4774	1.1488	3.9686	5.0988	1.6561	3.1182	5.0652	1.16	2.1447	2.4879	-0.5707	-4.4983	-6.5087	1.1376	3.1331	0.6453	4.3416	2.0701	46.5681	-6.7997
-4.5766	-2.1634	-2.0626	0.552	1.1973	4.0582	5.1473	1.6337	3.0884	5.0839	1.1152	2.0999	2.4506	-0.552	-4.5319	-6.3968	1.1041	3.2003	0.5558	4.3379	1.9619	47.1202	-6.837
-4.5281	-2.0813	-1.9881	0.6304	1.2644	4.0582	5.1846	1.6151	3.0697	5.0615	1.0183	2.0328	2.3946	-0.5408	-4.5766	-6.2737	1.0817	3.2189	0.4924	4.3267	1.8426	47.6871	-6.8966
-4.5281	-2.0142	-1.9246	0.6751	1.3353	4.1066	5.1809	1.6262	3.025	5.0391	0.8989	1.9284	2.3387	-0.5334	-4.6326	-6.173	1.0593	3.2525	0.4327	4.2894	1.7232	48.2802	-6.975
-4.4647	-1.8799	-1.8575	0.7385	1.3987	4.1253	5.2107	1.6262	2.9578	5.0168	0.8169	1.85	2.2753	-0.5185	-4.7034	-5.9977	1.022	3.2488	0.4178	4.2633	1.6225	48.8173	-7.0197
-4.4796	-1.8202	-1.809	0.7423	1.4659	4.1439	5.1995	1.5815	2.8758	4.9459	0.7087	1.7307	2.182	-0.5185	-4.7631	-5.8746	1.0108	3.245	0.3655	4.2372	1.492	49.3357	-7.1353
-4.4573	-1.7605	-1.7904	0.746	1.4808	4.1253	5.1734	1.5144	2.8049	4.8825	0.5483	1.6337	2.0776	-0.4849	-4.7743	-5.6881	0.9698	3.2338	0.3282	4.1887	1.3428	49.7982	-7.195
-4.405	-1.7158	-1.7344	0.7236	1.5144	4.1216	5.1212	1.4323	2.7154	4.7855	0.3954	1.5069	2.003	-0.4513	-4.7445	-5.4681	0.9138	3.2227	0.2648	4.1589	1.1824	50.2123	-7.2845
-4.4088	-1.6598	-1.712	0.6565	1.5069	4.0917	5.054	1.3577	2.6333	4.7258	0.2051	1.3614	1.8575	-0.4476	-4.7034	-5.289	0.8989	3.1816	0.1567	4.0731	1.0369	50.5629	-7.3629
