"FZ"	"FC3"	"FCZ"	"FC4"	"C3"	"CZ"	"C4"	"CP3"	"CPZ"	"CP4"	"P3"	"PZ"	"P4"	"OZ"	"FP1"	"FP2"	"A2"	"P8"	"TP7"	"TP8"	"P7"
1.8559	2.2731	1.5154	0.7913	2.3019	1.29	0.9304	2.5177	1.7456	0.5323	2.0429	1.1749	0.0767	-0.1103	1.4339	1.8511	0.2302	-0.844	2.4649	-0.0336	1.947
1.8847	2.3115	1.549	0.7673	2.3115	1.338	0.9591	2.5417	1.8319	0.5899	2.1388	1.2517	0.2014	-0.0959	1.4483	1.9518	0.1966	-0.8009	2.5177	0.0336	2.019
1.9087	2.3355	1.5586	0.7241	2.3211	1.3572	0.9495	2.5657	1.8463	0.6426	2.1628	1.314	0.3069	-0.0767	1.4339	2.0046	0.1583	-0.7529	2.5273	0.0623	2.0238
1.9182	2.3403	1.5682	0.7098	2.3355	1.3715	0.9687	2.5657	1.8751	0.7193	2.2012	1.3476	0.3884	-0.048	1.4339	2.0621	0.1295	-0.7481	2.4793	0.1343	2.0333
1.8751	2.3019	1.5442	0.6666	2.3259	1.3236	0.9543	2.5609	1.8223	0.7098	2.1964	1.3428	0.4172	-0.0336	1.3715	2.0717	0.0959	-0.7241	2.4122	0.1295	2.0477
1.8223	2.2443	1.4866	0.5803	2.3067	1.2996	0.9208	2.5561	1.7936	0.705	2.2491	1.3332	0.4652	-0.0192	1.3188	2.0142	0.0528	-0.7337	2.3882	0.0959	2.0381
1.7312	2.1436	1.4003	0.5179	2.2443	1.2085	0.8632	2.4841	1.7072	0.681	2.1628	1.3044	0.4748	-0.0048	1.2373	1.8655	0.0288	-0.7577	2.3259	0.0863	2.0094
1.6209	2.0621	1.2948	0.4364	2.1868	1.1941	0.8057	2.4122	1.6161	0.6282	2.1197	1.2181	0.4508	0	1.1318	1.6593	-0.0048	-0.8009	2.23	0.0384	1.9614
1.4818	1.9374	1.1701	0.3309	2.1484	1.0934	0.7241	2.3738	1.5154	0.5851	2.0381	1.1318	0.422	0.024	1.0263	1.4627	-0.0432	-0.844	2.1101	0.0048	1.8895
1.362	1.8271	1.0263	0.211	2.0669	0.9687	0.6042	2.2683	1.3907	0.4748	1.9854	1.0167	0.3645	0.048	0.892	1.1701	-0.0719	-0.9064	1.9998	-0.0767	1.8319
1.2037	1.6785	0.9304	0.0815	2.0238	0.868	0.4939	2.1772	1.2565	0.3789	1.8943	0.8824	0.259	0.0623	0.7289	0.8536	-0.0863	-0.9495	1.9039	-0.1439	1.7744
1.0502	1.5634	0.8057	-0.0575	1.9758	0.7481	0.3549	2.1245	1.1126	0.2734	1.8655	0.7481	0.1726	0.0767	0.5947	0.5179	-0.1103	-1.0071	1.8319	-0.2062	1.7504
0.9208	1.4483	0.6954	-0.1247	1.923	0.6282	0.2302	2.0621	0.9591	0.1678	1.7552	0.6138	0.0623	0.0719	0.4364	0.1535	-0.1151	-1.0359	1.7408	-0.2973	1.6881
0.8009	1.3668	0.5803	-0.2542	1.8799	0.5371	0.1247	1.9758	0.8057	0.0911	1.6689	0.4844	0.024	0.0815	0.3069	-0.1487	-0.1343	-1.055	1.6257	-0.3405	1.6545
0.6234	1.2469	0.47	-0.398	1.7984	0.4316	-0.0096	1.923	0.657	-0.0144	1.6161	0.3405	-0.0719	0.0575	0.1343	-0.4268	-0.1007	-1.1126	1.549	-0.4172	1.5921
0.5035	1.1653	0.3357	-0.4987	1.7792	0.3261	-0.0767	1.8607	0.5323	-0.0959	1.5346	0.2014	-0.1535	0.048	-0.0096	-0.6906	-0.048	-1.1126	1.4771	-0.4892	1.5442
0.4028	1.0598	0.3069	-0.5323	1.7072	0.2494	-0.1343	1.784	0.4316	-0.1678	1.4291	0.0863	-0.2494	0.0288	-0.1199	-0.8824	-0.0144	-1.1222	1.4099	-0.5083	1.5154
0.2638	1.0119	0.2158	-0.5659	1.6689	0.1678	-0.1535	1.736	0.3021	-0.1822	1.3859	-0.0288	-0.2877	-0.0336	-0.211	-1.0215	0.0815	-1.0694	1.362	-0.5227	1.4771
0.2014	0.8776	0.1583	-0.5323	1.6497	0.0911	-0.1055	1.6785	0.2206	-0.1487	1.2852	-0.1678	-0.2925	-0.0959	-0.2686	-1.0454	0.2014	-1.0215	1.3092	-0.4987	1.4675
0.1822	0.8632	0.1535	-0.4268	1.6113	0.0863	-0.0192	1.6545	0.1678	-0.0863	1.2612	-0.2158	-0.2494	-0.1439	-0.2686	-0.9927	0.3069	-0.9064	1.2708	-0.3932	1.4483
0.1678	0.8632	0.187	-0.3165	1.5874	0.0719	0.1199	1.5921	0.1343	-0.0096	1.1989	-0.2781	-0.2302	-0.1918	-0.2062	-0.8153	0.422	-0.8057	1.2229	-0.3405	1.4051
0.211	0.8968	0.2158	-0.1822	1.5586	0.1199	0.2302	1.5921	0.0911	0.0959	1.1462	-0.3309	-0.2014	-0.259	-0.1439	-0.5563	0.5323	-0.6714	1.1941	-0.235	1.3907
0.211	0.8488	0.2302	-0.048	1.4818	0.1055	0.3453	1.4914	0.0432	0.1343	1.0694	-0.3932	-0.1583	-0.3117	-0.0384	-0.2542	0.6474	-0.5899	1.1078	-0.187	1.3188
0.2158	0.8105	0.2206	0.0623	1.4147	0.0671	0.4604	1.4147	-0.0096	0.2062	1.0263	-0.4556	-0.1295	-0.3597	0.024	0.0288	0.7289	-0.47	1.0598	-0.1487	1.3044
0.235	0.7625	0.2686	0.187	1.2996	0.0959	0.5755	1.3668	-0.0336	0.235	0.9447	-0.47	-0.1055	-0.3836	0.1007	0.2734	0.7913	-0.398	1.0119	-0.0911	1.2852
0.235	0.7289	0.2734	0.2829	1.2133	0.0384	0.633	1.2804	-0.0959	0.2925	0.892	-0.5371	-0.0623	-0.4124	0.1822	0.4796	0.844	-0.3021	0.8968	-0.048	1.1797
0.2302	0.6282	0.2398	0.3357	1.0934	0.0288	0.657	1.1989	-0.1247	0.3165	0.7961	-0.5995	-0.0528	-0.4268	0.2254	0.6282	0.8872	-0.2062	0.8296	0.0048	1.1318
0.1726	0.4939	0.1966	0.3453	0.9208	-0.0144	0.6858	1.079	-0.2158	0.3021	0.6954	-0.6618	-0.0911	-0.4508	0.2638	0.6618	0.9112	-0.1678	0.7193	0.0048	1.0263
0.1822	0.4556	0.1774	0.4124	0.8105	-0.0384	0.7002	0.9879	-0.259	0.2638	0.6234	-0.7145	-0.0863	-0.446	0.3165	0.6858	0.8872	-0.1103	0.5947	0.0767	0.916
0.1774	0.3741	0.1678	0.3932	0.7289	-0.048	0.7241	0.892	-0.3213	0.2781	0.5563	-0.7289	-0.0815	-0.4412	0.3789	0.6186	0.8728	-0.0575	0.5083	0.0959	0.8584
0.1631	0.3453	0.1487	0.4364	0.6282	-0.0863	0.6858	0.8392	-0.3693	0.2734	0.5035	-0.7817	-0.0959	-0.4028	0.4508	0.5467	0.8248	0.0144	0.4124	0.1391	0.7481
0.1774	0.3021	0.1343	0.4508	0.5851	-0.1007	0.7433	0.7529	-0.4028	0.2973	0.4604	-0.8009	-0.0959	-0.3836	0.47	0.446	0.7913	0.0623	0.3693	0.2206	0.681
0.1774	0.2686	0.1199	0.4987	0.5467	-0.1391	0.7337	0.7481	-0.4364	0.3069	0.422	-0.8057	-0.0863	-0.3453	0.5083	0.3645	0.7193	0.1103	0.2781	0.2781	0.6138
0.1774	0.2686	0.1247	0.5083	0.4892	-0.1678	0.705	0.6762	-0.4748	0.2542	0.3741	-0.8344	-0.1151	-0.3117	0.5707	0.2877	0.6474	0.1391	0.2014	0.2829	0.5131
0.1631	0.2877	0.1247	0.4987	0.4604	-0.1822	0.705	0.657	-0.5179	0.2686	0.3501	-0.8248	-0.1055	-0.2829	0.633	0.235	0.5851	0.2014	0.1151	0.3405	0.4316
0.1487	0.2686	0.1103	0.4604	0.4028	-0.2158	0.6378	0.5899	-0.5611	0.2158	0.2925	-0.8728	-0.1535	-0.259	0.6234	0.1439	0.5371	0.2062	0.0048	0.3117	0.3213
0.1295	0.2734	0.0959	0.4124	0.3789	-0.2829	0.5851	0.5227	-0.5755	0.187	0.2734	-0.8632	-0.1726	-0.2158	0.6954	0.1151	0.4364	0.235	-0.0719	0.2973	0.259
0.1007	0.2446	0.0959	0.3693	0.3117	-0.3405	0.5035	0.4508	-0.6666	0.0959	0.1822	-0.9016	-0.2302	-0.187	0.7337	0.1007	0.3836	0.2062	-0.1391	0.2062	0.1343
0.1103	0.235	0.0384	0.2686	0.259	-0.3693	0.4364	0.398	-0.7002	0.0384	0.1726	-0.8968	-0.2734	-0.1583	0.7289	0.1055	0.3117	0.2062	-0.2446	0.187	0.0432
0.0815	0.2302	0.0288	0.2206	0.2062	-0.4364	0.3357	0.3309	-0.7577	-0.0336	0.0911	-0.9447	-0.3453	-0.1199	0.7913	0.1535	0.2494	0.1583	-0.3261	0.0767	-0.0671
0.1151	0.2638	0.0528	0.1439	0.1726	-0.4508	0.2494	0.3069	-0.7961	-0.1007	0.0623	-0.916	-0.3693	-0.0767	0.844	0.187	0.1583	0.1439	-0.398	0.0048	-0.1631
0.0863	0.2494	0.0144	0.0719	0.1535	-0.4939	0.1391	0.2254	-0.8392	-0.1966	0.0432	-0.9304	-0.4364	-0.0432	0.8584	0.2638	0.1007	0.1151	-0.4412	-0.0671	-0.235
0.0959	0.2734	0.0336	0.0288	0.1391	-0.5035	0.0863	0.2302	-0.8392	-0.2638	0.048	-0.9112	-0.4796	-0.0096	0.9639	0.3453	0.0288	0.0767	-0.4844	-0.1391	-0.2877
0.1151	0.3069	0.0575	-0.0432	0.1199	-0.5179	0.0192	0.1918	-0.8584	-0.3213	0.0096	-0.9064	-0.5131	0.0288	0.9879	0.4268	-0.0575	0.0048	-0.4939	-0.1918	-0.3453
0.1391	0.3501	0.048	-0.0767	0.1295	-0.4939	-0.0671	0.1822	-0.8488	-0.3549	0.0432	-0.8872	-0.5227	0.0959	1.079	0.5467	-0.1535	-0.024	-0.5275	-0.2398	-0.3645
0.1391	0.4028	0.0575	-0.1247	0.1295	-0.5275	-0.1631	0.1343	-0.8776	-0.446	0	-0.892	-0.6042	0.1343	1.0838	0.5611	-0.2494	-0.0671	-0.4508	-0.2973	-0.3549
0.1295	0.4028	0.0911	-0.1583	0.1678	-0.47	-0.2446	0.1391	-0.8488	-0.5275	0.0288	-0.8584	-0.6138	0.187	1.0502	0.5515	-0.3453	-0.1007	-0.4412	-0.3165	-0.3645
0.1151	0.446	0.1295	-0.1774	0.1583	-0.446	-0.2638	0.1295	-0.8153	-0.5275	0.0288	-0.8584	-0.6186	0.2494	1.0598	0.5323	-0.4892	-0.1199	-0.398	-0.3213	-0.3357
0.1055	0.4124	0.1343	-0.187	0.1295	-0.422	-0.3357	0.0863	-0.8057	-0.5323	0.0144	-0.8009	-0.6282	0.3213	1.0071	0.4556	-0.6042	-0.1583	-0.3789	-0.2877	-0.3501
0.0384	0.3932	0.1103	-0.2062	0.0959	-0.4172	-0.3741	0.0048	-0.7769	-0.5515	-0.0096	-0.7913	-0.6282	0.3741	0.9064	0.3213	-0.7145	-0.1343	-0.3741	-0.2542	-0.3836
-0.0384	0.3213	0.0671	-0.2494	-0.0096	-0.4172	-0.3932	-0.0911	-0.7529	-0.5563	-0.0528	-0.8105	-0.6186	0.4172	0.7913	0.1678	-0.8153	-0.1295	-0.3836	-0.2638	-0.4076
-0.1726	0.1726	0.0144	-0.2734	-0.1247	-0.4172	-0.47	-0.1774	-0.7625	-0.5659	-0.0911	-0.7721	-0.6282	0.47	0.6186	-0.0719	-0.8776	-0.1295	-0.4508	-0.2062	-0.47
-0.3213	0.0336	-0.0671	-0.3357	-0.2925	-0.4316	-0.5131	-0.3405	-0.7817	-0.6042	-0.1774	-0.7769	-0.657	0.4892	0.4028	-0.3117	-0.9304	-0.1487	-0.4987	-0.2014	-0.5275
-0.4316	-0.1247	-0.1487	-0.4412	-0.4844	-0.4652	-0.5707	-0.4796	-0.8009	-0.6138	-0.2925	-0.7961	-0.6666	0.4939	0.1774	-0.5947	-0.9543	-0.1631	-0.5563	-0.1822	-0.5851
-0.609	-0.3069	-0.2925	-0.5371	-0.6714	-0.5419	-0.681	-0.657	-0.868	-0.6426	-0.4268	-0.8824	-0.7098	0.5083	-0.1103	-0.9064	-0.9831	-0.1583	-0.6426	-0.1774	-0.657
-0.7817	-0.5563	-0.4028	-0.6618	-0.8728	-0.5899	-0.7481	-0.8488	-0.916	-0.6618	-0.5371	-0.9016	-0.7433	0.5035	-0.422	-1.1989	-0.9783	-0.1774	-0.7145	-0.211	-0.7529
-0.9783	-0.7673	-0.5467	-0.8009	-1.1318	-0.6714	-0.8488	-1.0502	-0.9927	-0.7193	-0.6954	-0.9735	-0.7913	0.5035	-0.7577	-1.5346	-0.9543	-0.1774	-0.8153	-0.1966	-0.8632
-1.1318	-0.9591	-0.6954	-0.9064	-1.3476	-0.7337	-0.9351	-1.2469	-1.0646	-0.7673	-0.8344	-1.0454	-0.8153	0.4939	-1.079	-1.8079	-0.9256	-0.2062	-0.8872	-0.2062	-0.9735
-1.2708	-1.1366	-0.8153	-0.9543	-1.5298	-0.7769	-0.9399	-1.4051	-1.0934	-0.7721	-0.9783	-1.103	-0.844	0.4748	-1.314	-2.0429	-0.8872	-0.1678	-0.9447	-0.211	-1.0215
-1.3955	-1.3236	-0.9304	-1.0359	-1.7168	-0.8105	-0.9879	-1.5586	-1.1845	-0.7913	-1.103	-1.1845	-0.8728	0.4124	-1.5586	-2.2396	-0.8009	-0.1199	-1.0167	-0.2158	-1.1078
-1.5346	-1.5154	-1.055	-1.0359	-1.8799	-0.9016	-0.9591	-1.7408	-1.2325	-0.7913	-1.2133	-1.2229	-0.8536	0.3741	-1.8175	-2.4218	-0.7433	-0.1295	-1.103	-0.187	-1.1749
-1.6017	-1.6353	-1.1414	-1.0406	-2.019	-0.9447	-0.9639	-1.8511	-1.2469	-0.7721	-1.3572	-1.2804	-0.8968	0.3453	-1.9902	-2.5752	-0.6666	-0.0719	-1.1222	-0.1918	-1.2181
-1.6497	-1.7408	-1.2181	-1.0742	-2.1388	-0.9687	-0.9208	-2.0094	-1.2948	-0.7913	-1.4723	-1.314	-0.8632	0.3261	-2.0813	-2.604	-0.609	-0.0144	-1.1797	-0.1631	-1.2565
-1.7024	-1.8415	-1.2948	-1.055	-2.2635	-1.0359	-0.9543	-2.1388	-1.3428	-0.7721	-1.5874	-1.3428	-0.8776	0.2686	-2.1916	-2.652	-0.5035	0.0096	-1.2373	-0.1487	-1.2948
-1.6833	-1.8943	-1.338	-1.0502	-2.3163	-1.0263	-0.9064	-2.2348	-1.3476	-0.7817	-1.7024	-1.3859	-0.8584	0.2254	-2.2348	-2.652	-0.4172	0.0863	-1.2756	-0.0959	-1.3572
-1.6545	-1.9182	-1.3332	-0.9399	-2.3546	-1.0598	-0.8488	-2.3067	-1.3476	-0.7241	-1.7696	-1.3428	-0.7961	0.187	-2.2204	-2.6328	-0.3357	0.1918	-1.3236	0.0144	-1.4099
-1.6113	-1.9278	-1.362	-0.9447	-2.3978	-1.0406	-0.844	-2.3834	-1.3332	-0.7145	-1.8559	-1.362	-0.7769	0.1247	-2.1916	-2.4793	-0.235	0.2734	-1.338	0.0863	-1.4579
-1.573	-1.9135	-1.3572	-0.8872	-2.3978	-1.0359	-0.8296	-2.4362	-1.3044	-0.7002	-1.8991	-1.3715	-0.7481	0.0959	-2.1149	-2.3738	-0.1535	0.3549	-1.3476	0.1583	-1.4435
-1.4914	-1.8895	-1.3428	-0.8488	-2.3978	-1.0406	-0.8201	-2.4889	-1.3092	-0.6762	-1.9662	-1.338	-0.7241	0.0384	-2.0285	-2.206	-0.0719	0.422	-1.338	0.2446	-1.4866
-1.4051	-1.8271	-1.314	-0.7865	-2.369	-1.0071	-0.7913	-2.5033	-1.2852	-0.6858	-2.019	-1.3188	-0.681	0.0048	-1.8559	-2.0381	-0.0096	0.4892	-1.3284	0.3069	-1.4866
-1.3236	-1.8127	-1.2996	-0.705	-2.3259	-0.9975	-0.8057	-2.4889	-1.2277	-0.657	-2.0525	-1.2517	-0.6426	0	-1.6881	-1.8175	0.048	0.5323	-1.3332	0.3884	-1.4962
-1.2181	-1.736	-1.2421	-0.6282	-2.2396	-0.9495	-0.7961	-2.4985	-1.2133	-0.6954	-2.1005	-1.2085	-0.6282	-0.0384	-1.4579	-1.6209	0.0959	0.5563	-1.2948	0.4076	-1.5058
-1.0598	-1.6689	-1.127	-0.5035	-2.1628	-0.8632	-0.7433	-2.4649	-1.1222	-0.6186	-2.0717	-1.0982	-0.5035	-0.0432	-1.2085	-1.3859	0.1247	0.5995	-1.2708	0.4652	-1.4818
-0.9399	-1.5778	-1.0646	-0.4172	-2.1197	-0.8105	-0.7193	-2.4554	-1.0646	-0.6522	-2.0813	-1.0359	-0.4796	-0.0623	-0.9112	-1.1318	0.1726	0.5995	-1.2517	0.4844	-1.4914
-0.7721	-1.4627	-0.9735	-0.2638	-1.995	-0.7241	-0.6714	-2.393	-0.9735	-0.609	-2.0381	-0.8824	-0.4028	-0.0863	-0.609	-0.8296	0.1918	0.6138	-1.2325	0.5227	-1.4243
-0.6426	-1.3332	-0.8392	-0.1103	-1.8415	-0.6378	-0.6138	-2.3019	-0.868	-0.5515	-1.9806	-0.7529	-0.3309	-0.0911	-0.2829	-0.5611	0.1918	0.6378	-1.2085	0.5371	-1.4579
-0.4556	-1.1941	-0.7002	0.0384	-1.7168	-0.5083	-0.4987	-2.206	-0.7145	-0.4508	-1.9039	-0.5611	-0.2398	-0.0863	0.024	-0.2158	0.187	0.6618	-1.1509	0.5419	-1.3811
-0.3069	-1.0694	-0.5995	0.1822	-1.5826	-0.3932	-0.4604	-2.0621	-0.5659	-0.3789	-1.8127	-0.3836	-0.1151	-0.0863	0.3117	0.0575	0.1774	0.681	-1.1222	0.5275	-1.3572
-0.1726	-0.9351	-0.4748	0.3453	-1.4195	-0.2925	-0.3693	-1.9374	-0.4508	-0.3309	-1.6929	-0.2254	-0.0192	-0.0575	0.5707	0.3693	0.1487	0.6378	-1.0646	0.5035	-1.2756
-0.0336	-0.7769	-0.3309	0.4316	-1.2325	-0.1583	-0.3069	-1.7696	-0.2734	-0.2446	-1.5394	-0.0288	0.0911	-0.0336	0.7577	0.6426	0.1007	0.6666	-0.9927	0.4844	-1.2037
0.0863	-0.657	-0.2398	0.5323	-1.079	-0.0288	-0.2254	-1.6017	-0.1343	-0.1487	-1.4051	0.1822	0.2206	-0.0192	0.8824	0.9112	0.0575	0.6378	-0.916	0.4556	-1.1174
0.1966	-0.5611	-0.1295	0.6042	-0.9447	0.0528	-0.1726	-1.4483	0.0432	-0.0863	-1.2517	0.398	0.3261	0.0096	0.9735	1.127	0.0048	0.657	-0.8776	0.4364	-1.0263
0.2446	-0.5035	-0.0671	0.657	-0.8344	0.1631	-0.1583	-1.3236	0.1678	-0.0144	-1.1222	0.5995	0.4124	0.0336	1.0119	1.3236	-0.0192	0.6378	-0.844	0.3741	-0.9591
0.2734	-0.4939	0.0048	0.6522	-0.7481	0.2254	-0.1631	-1.1845	0.2925	0.0432	-0.9831	0.7625	0.5035	0.0192	0.9495	1.4531	-0.0288	0.5995	-0.7865	0.2877	-0.868
0.3117	-0.4652	0.0048	0.633	-0.6426	0.2877	-0.1151	-1.0502	0.446	0.0863	-0.8632	0.9351	0.5995	0.0336	0.8344	1.5586	-0.024	0.5899	-0.7721	0.235	-0.8153
0.3021	-0.4604	0.0671	0.609	-0.6042	0.3645	-0.1007	-0.9351	0.5227	0.1678	-0.7289	1.127	0.705	0.0288	0.6954	1.6065	-0.0288	0.5467	-0.7673	0.1295	-0.7625
0.2542	-0.4652	0.0623	0.5707	-0.5563	0.422	-0.0863	-0.844	0.6858	0.2302	-0.6426	1.2852	0.7961	0.0048	0.5707	1.5969	-0.0048	0.5179	-0.7289	0.0623	-0.6954
0.2398	-0.4748	0.0959	0.5227	-0.5227	0.4844	-0.0528	-0.7577	0.8009	0.259	-0.5419	1.4723	0.9208	-0.0048	0.3549	1.5778	0.0288	0.5179	-0.7337	0.0144	-0.6762
0.2014	-0.4508	0.1391	0.47	-0.446	0.5707	-0.0192	-0.6618	0.916	0.3693	-0.398	1.6641	1.0071	0	0.1774	1.5394	0.0288	0.5275	-0.6762	-0.0048	-0.6138
0.1199	-0.5035	0.0863	0.3836	-0.4556	0.5995	0.0144	-0.6234	1.0167	0.4124	-0.3597	1.7888	1.1126	-0.0048	-0.0671	1.4579	0.0671	0.5275	-0.6762	-0.048	-0.609
0.0671	-0.5083	0.1151	0.3453	-0.422	0.6426	0.0671	-0.5275	1.1366	0.5083	-0.259	1.9374	1.2085	-0.0192	-0.2542	1.314	0.0575	0.5323	-0.6714	-0.0959	-0.5707
0	-0.5467	0.1247	0.2686	-0.4172	0.6906	0.0815	-0.47	1.1893	0.5467	-0.211	2.0621	1.2517	-0.0144	-0.47	1.1222	0.0623	0.5179	-0.6522	-0.1199	-0.5611
-0.0384	-0.5467	0.1247	0.2494	-0.3789	0.7193	0.1774	-0.4172	1.2948	0.657	-0.1247	2.2108	1.3524	-0.0144	-0.657	0.9543	0.0575	0.5467	-0.6858	-0.1151	-0.5515
-0.0911	-0.5563	0.1055	0.2494	-0.3501	0.7529	0.2781	-0.3213	1.3811	0.7385	-0.0528	2.3259	1.4483	-0.0144	-0.7913	0.7961	0.0432	0.5563	-0.6282	-0.1151	-0.4987
-0.0911	-0.5851	0.1439	0.2829	-0.3117	0.8536	0.3884	-0.2877	1.4866	0.8296	0.024	2.4602	1.5346	-0.0192	-0.9399	0.6234	0.0623	0.5899	-0.5851	-0.0959	-0.4364
-0.1343	-0.5419	0.1678	0.3117	-0.2302	0.8968	0.4796	-0.1822	1.5969	0.9208	0.1055	2.5417	1.5921	-0.0336	-1.0215	0.5035	0.0671	0.6234	-0.5563	-0.0911	-0.4124
-0.1391	-0.5371	0.1966	0.3405	-0.187	0.9351	0.5899	-0.0863	1.6737	1.0071	0.1583	2.6424	1.6976	-0.024	-1.1126	0.4412	0.0671	0.6858	-0.5035	-0.0575	-0.3836
-0.1103	-0.4844	0.2446	0.3836	-0.0863	0.9927	0.6522	0	1.7552	1.0886	0.2158	2.7335	1.7552	-0.0288	-1.1222	0.3741	0.0671	0.7145	-0.4412	-0.0575	-0.3309
-0.0767	-0.4268	0.2973	0.4316	0.0048	1.0359	0.7193	0.0623	1.7792	1.1509	0.2638	2.7863	1.784	-0.0144	-1.1126	0.3741	0.0671	0.7721	-0.4076	-0.0144	-0.3021
-0.0432	-0.3741	0.3261	0.4364	0.0863	1.0694	0.7481	0.1774	1.8559	1.1462	0.3501	2.8294	1.8175	-0.0144	-1.0838	0.3501	0.0575	0.7673	-0.3645	-0.0288	-0.2925
0.0048	-0.2877	0.3884	0.446	0.1822	1.0982	0.8105	0.259	1.8943	1.1845	0.4028	2.8822	1.8511	-0.0192	-1.0359	0.3693	0.0384	0.8296	-0.2829	-0.0096	-0.2158
0.0959	-0.1535	0.4604	0.5227	0.3309	1.127	0.8488	0.3357	1.947	1.1989	0.446	2.8918	1.8559	0.0096	-0.868	0.446	0.0192	0.868	-0.2494	0.0815	-0.2206
0.1391	-0.0623	0.5515	0.5659	0.398	1.1509	0.8872	0.422	1.9662	1.2037	0.5035	2.9253	1.8607	0.0048	-0.7721	0.5515	0.0192	0.9256	-0.1583	0.1055	-0.1726
0.2302	0.048	0.5947	0.6186	0.4748	1.1749	0.8824	0.4748	1.9758	1.1845	0.4939	2.8678	1.8415	0.0144	-0.5755	0.609	-0.0048	0.9447	-0.1007	0.1151	-0.1822
0.3213	0.1247	0.6522	0.6234	0.5419	1.2133	0.892	0.4844	1.9662	1.1414	0.4796	2.815	1.7792	0.0384	-0.422	0.681	-0.0432	1.0071	-0.0575	0.1487	-0.1631
0.4124	0.2158	0.7241	0.6618	0.5851	1.1941	0.8632	0.5083	1.9422	1.0886	0.4748	2.7623	1.7408	0.0528	-0.259	0.7913	-0.0959	1.0359	0.0048	0.1583	-0.1726
0.4604	0.259	0.7673	0.6858	0.6042	1.1845	0.8057	0.5179	1.8943	1.0071	0.4412	2.6808	1.6881	0.0959	-0.0623	0.8776	-0.1583	1.0694	0.0432	0.1631	-0.1774
0.4892	0.2542	0.7145	0.657	0.5515	1.1318	0.7673	0.4796	1.7984	0.9064	0.398	2.6136	1.5921	0.1247	0.0911	0.9831	-0.2014	1.0646	0.0336	0.1918	-0.2254
0.5371	0.2638	0.7193	0.6426	0.4939	1.055	0.6858	0.4124	1.7072	0.8105	0.3213	2.4649	1.4866	0.1535	0.2446	1.079	-0.2638	1.0598	0.0384	0.1583	-0.2829
0.5323	0.2062	0.6522	0.5995	0.3789	0.9495	0.5947	0.3357	1.5921	0.6714	0.2302	2.3019	1.3715	0.1726	0.3932	1.1893	-0.3213	1.0119	0.0048	0.1439	-0.3405
0.4748	0.1199	0.609	0.5371	0.2494	0.8344	0.4556	0.1918	1.4818	0.5371	0.1151	2.1724	1.266	0.1918	0.5131	1.2756	-0.3549	1.0263	-0.0528	0.1103	-0.4748
0.4028	-0.024	0.4987	0.47	0.048	0.6954	0.3549	0.0575	1.3092	0.422	-0.0144	2.0142	1.0982	0.2062	0.5659	1.3092	-0.3789	0.9879	-0.1391	0.0767	-0.5371
0.3213	-0.1487	0.4172	0.3836	-0.1007	0.5659	0.211	-0.1055	1.1941	0.3165	-0.1151	1.8127	1.0406	0.2206	0.6282	1.3524	-0.422	0.9256	-0.2494	0.0144	-0.6522
0.2542	-0.2686	0.3021	0.3261	-0.2734	0.4604	0.1199	-0.2158	1.0694	0.1918	-0.2062	1.712	0.9304	0.2542	0.7241	1.4051	-0.4796	0.9304	-0.3165	-0.024	-0.7385
0.1247	-0.4076	0.1726	0.2014	-0.4604	0.2925	-0.0384	-0.3789	0.9399	0.0528	-0.3261	1.5778	0.8057	0.2877	0.7433	1.3955	-0.5275	0.8872	-0.4508	-0.048	-0.8296
-0.0288	-0.5851	0	0.1055	-0.6282	0.1391	-0.1439	-0.5419	0.7673	-0.0575	-0.4124	1.4579	0.7193	0.2973	0.7865	1.4003	-0.5659	0.8392	-0.5659	-0.0911	-0.916
-0.1583	-0.7145	-0.1199	-0.0192	-0.7769	-0.0192	-0.3117	-0.6474	0.6426	-0.1583	-0.4939	1.3236	0.6522	0.3309	0.7913	1.3715	-0.5995	0.7673	-0.705	-0.1439	-1.0311
-0.3213	-0.844	-0.2925	-0.1247	-0.9064	-0.1487	-0.4172	-0.7721	0.5227	-0.2542	-0.5947	1.1845	0.5227	0.3357	0.7241	1.3236	-0.6234	0.7145	-0.7961	-0.1822	-1.079
-0.4748	-0.9016	-0.4124	-0.2494	-0.9687	-0.2925	-0.5323	-0.8488	0.4124	-0.3645	-0.633	1.0886	0.4364	0.3501	0.6858	1.3092	-0.6618	0.6714	-0.8872	-0.2254	-1.1366
-0.5755	-0.9304	-0.4892	-0.3357	-0.9831	-0.4124	-0.6282	-0.8536	0.3213	-0.4412	-0.6618	1.0023	0.3645	0.3741	0.6858	1.29	-0.7098	0.6474	-0.9687	-0.2398	-1.1557
-0.6858	-0.9399	-0.5995	-0.4268	-0.9495	-0.5131	-0.7385	-0.8872	0.2398	-0.5467	-0.6762	0.9304	0.2925	0.3789	0.5899	1.2229	-0.7098	0.5659	-1.0215	-0.2925	-1.1893
-0.7577	-0.8776	-0.6522	-0.4987	-0.9112	-0.5899	-0.8344	-0.8488	0.1535	-0.6042	-0.6426	0.8536	0.2158	0.3741	0.5371	1.2085	-0.7289	0.5275	-1.0215	-0.2829	-1.1557
-0.8392	-0.8584	-0.7673	-0.5467	-0.8488	-0.6906	-0.9399	-0.8392	0.1007	-0.657	-0.6138	0.7577	0.1583	0.3645	0.4748	1.1414	-0.7002	0.4748	-1.0406	-0.2877	-1.1318
-0.892	-0.7817	-0.8248	-0.6234	-0.7817	-0.7577	-1.0263	-0.7961	0.0048	-0.7529	-0.6042	0.6858	0.0767	0.3501	0.4364	1.127	-0.6714	0.398	-1.0215	-0.3261	-1.103
-0.9351	-0.7241	-0.8584	-0.633	-0.705	-0.844	-1.0838	-0.7865	-0.0288	-0.8105	-0.5707	0.5995	0.0096	0.3261	0.3645	1.1366	-0.6282	0.2973	-0.9591	-0.3549	-1.0311
-0.9304	-0.633	-0.8872	-0.6762	-0.6618	-0.9016	-1.1509	-0.7337	-0.1055	-0.8584	-0.5419	0.5227	-0.0959	0.3117	0.3069	1.1078	-0.5659	0.2494	-0.9351	-0.3741	-0.9543
-0.8488	-0.5563	-0.892	-0.6666	-0.5899	-0.9208	-1.1653	-0.7145	-0.1487	-0.868	-0.4796	0.4364	-0.1199	0.259	0.2973	1.1509	-0.4939	0.1774	-0.8536	-0.3453	-0.868
-0.8201	-0.446	-0.8632	-0.5611	-0.5467	-0.9495	-1.1222	-0.6714	-0.2062	-0.8968	-0.4124	0.3884	-0.1487	0.2158	0.2877	1.1941	-0.398	0.1535	-0.8296	-0.2973	-0.7865
-0.7337	-0.3741	-0.8248	-0.4987	-0.4892	-0.9879	-1.0742	-0.633	-0.2494	-0.9064	-0.3741	0.3021	-0.2206	0.1487	0.3213	1.2133	-0.2925	0.0815	-0.7673	-0.2925	-0.6954
-0.6474	-0.3117	-0.8057	-0.3884	-0.47	-0.9975	-1.0311	-0.6186	-0.3021	-0.9016	-0.3501	0.2446	-0.259	0.1151	0.3117	1.2421	-0.1726	0.0288	-0.7673	-0.2734	-0.6282
-0.5275	-0.2062	-0.7577	-0.2638	-0.4268	-0.9735	-0.9064	-0.5851	-0.3357	-0.8488	-0.2638	0.1822	-0.2925	0.048	0.3645	1.3236	-0.0671	0	-0.7098	-0.2494	-0.5371
-0.4028	-0.1295	-0.7002	-0.1199	-0.4268	-0.9927	-0.8584	-0.5611	-0.3741	-0.8584	-0.2398	0.1247	-0.3549	-0.0144	0.4172	1.3572	0.048	-0.0815	-0.7002	-0.235	-0.5179
-0.3213	-0.0959	-0.6426	-0.0096	-0.4124	-0.9879	-0.7913	-0.5275	-0.4316	-0.8296	-0.2446	0.0432	-0.3932	-0.0623	0.4412	1.362	0.1535	-0.1774	-0.7193	-0.2494	-0.446
-0.2158	-0.0336	-0.6042	0.0671	-0.4124	-0.9831	-0.7337	-0.5659	-0.4939	-0.8009	-0.2254	-0.048	-0.47	-0.1295	0.5179	1.362	0.2781	-0.2734	-0.7193	-0.2734	-0.4604
-0.1583	-0.0048	-0.5515	0.1583	-0.4124	-0.9927	-0.7002	-0.5755	-0.5851	-0.8488	-0.2014	-0.1247	-0.5611	-0.1583	0.5659	1.3044	0.3645	-0.3645	-0.7337	-0.3165	-0.4268
-0.1535	-0.0096	-0.5659	0.187	-0.4412	-1.0454	-0.6906	-0.5467	-0.6522	-0.8488	-0.2494	-0.2158	-0.6042	-0.2062	0.5323	1.2085	0.4556	-0.47	-0.7577	-0.3836	-0.446
-0.1487	-0.0336	-0.5899	0.1631	-0.4748	-1.1174	-0.7098	-0.5803	-0.7529	-0.916	-0.2781	-0.3117	-0.7289	-0.2686	0.5611	1.0406	0.5515	-0.6042	-0.8009	-0.4364	-0.4652
-0.1726	-0.0719	-0.6474	0.1151	-0.5083	-1.1749	-0.7817	-0.6186	-0.8248	-0.9639	-0.3165	-0.3932	-0.8296	-0.3069	0.5227	0.8344	0.6282	-0.7193	-0.844	-0.5563	-0.5131
-0.235	-0.1247	-0.6954	0.0192	-0.5227	-1.2421	-0.844	-0.6234	-0.9495	-1.0598	-0.3693	-0.5323	-0.9351	-0.3693	0.4652	0.5995	0.7337	-0.8632	-0.8584	-0.6714	-0.5515
-0.3165	-0.211	-0.7913	-0.1007	-0.5659	-1.3332	-0.9351	-0.6186	-1.0359	-1.1126	-0.398	-0.6282	-1.0311	-0.4172	0.3645	0.3549	0.8153	-0.9687	-0.8776	-0.8153	-0.5851
-0.4028	-0.2398	-0.8728	-0.2446	-0.6042	-1.4003	-1.0071	-0.6522	-1.1318	-1.1653	-0.4604	-0.7385	-1.1414	-0.4508	0.3261	0.0863	0.9016	-1.0838	-0.8968	-0.9208	-0.6282
-0.47	-0.3021	-0.9351	-0.3741	-0.6618	-1.4627	-1.0934	-0.681	-1.2181	-1.2517	-0.4939	-0.7865	-1.2181	-0.47	0.2734	-0.0528	0.9783	-1.1797	-0.8872	-1.0215	-0.6474
-0.5323	-0.3309	-0.9783	-0.4556	-0.6426	-1.4866	-1.1557	-0.6714	-1.2421	-1.2469	-0.4652	-0.8248	-1.2804	-0.5035	0.2734	-0.1726	1.0263	-1.2421	-0.8728	-1.0742	-0.6426
-0.5707	-0.3501	-1.0311	-0.5851	-0.6378	-1.5298	-1.2229	-0.633	-1.2852	-1.2996	-0.422	-0.8536	-1.3044	-0.5275	0.2973	-0.2302	1.0646	-1.2708	-0.8344	-1.1509	-0.6618
-0.6762	-0.3932	-1.0838	-0.7002	-0.6618	-1.5634	-1.2565	-0.6234	-1.2804	-1.3188	-0.4268	-0.8824	-1.338	-0.5419	0.3261	-0.2302	1.1078	-1.3236	-0.8153	-1.2181	-0.6234
-0.7289	-0.4172	-1.1605	-0.7817	-0.6666	-1.6161	-1.3092	-0.6138	-1.314	-1.3188	-0.398	-0.868	-1.3428	-0.5419	0.4172	-0.1678	1.1126	-1.3284	-0.7817	-1.2852	-0.5851
-0.7673	-0.4316	-1.1605	-0.8632	-0.6666	-1.6113	-1.314	-0.5563	-1.3188	-1.29	-0.3501	-0.8201	-1.3236	-0.5467	0.5899	0.0192	1.1174	-1.314	-0.7385	-1.266	-0.5563
-0.7961	-0.4652	-1.1749	-0.9304	-0.6666	-1.6305	-1.3428	-0.5371	-1.3236	-1.29	-0.2734	-0.8248	-1.3188	-0.5611	0.6954	0.2062	1.127	-1.29	-0.7289	-1.266	-0.5419
-0.8872	-0.5227	-1.2469	-1.0023	-0.6954	-1.6449	-1.3284	-0.5371	-1.314	-1.266	-0.2638	-0.8296	-1.3044	-0.5515	0.8488	0.4124	1.1222	-1.2804	-0.7002	-1.2517	-0.5035
-0.9495	-0.5467	-1.2996	-1.1126	-0.705	-1.6881	-1.3811	-0.5419	-1.3044	-1.2804	-0.2254	-0.7769	-1.3044	-0.5275	1.0023	0.6426	1.0838	-1.2277	-0.657	-1.2517	-0.4412
-1.0167	-0.5707	-1.3428	-1.2037	-0.7577	-1.76	-1.4531	-0.5179	-1.314	-1.314	-0.2014	-0.7625	-1.2948	-0.4987	1.1222	0.9304	1.0406	-1.1941	-0.633	-1.2229	-0.4124
-1.103	-0.609	-1.4579	-1.3428	-0.7769	-1.7744	-1.5634	-0.5707	-1.362	-1.3524	-0.235	-0.7913	-1.3236	-0.4844	1.2181	1.1749	0.9975	-1.1941	-0.5947	-1.2565	-0.4316
-1.2517	-0.6714	-1.5346	-1.525	-0.8344	-1.8943	-1.6641	-0.6042	-1.3955	-1.4675	-0.1774	-0.8105	-1.362	-0.4604	1.266	1.3572	0.9447	-1.1797	-0.5371	-1.2708	-0.3693
-1.3572	-0.681	-1.6113	-1.6833	-0.868	-1.9614	-1.8223	-0.6234	-1.4579	-1.5634	-0.235	-0.8344	-1.4627	-0.4316	1.314	1.5921	0.9112	-1.1749	-0.4892	-1.2996	-0.3789
-1.4387	-0.6762	-1.6737	-1.8463	-0.8824	-2.0142	-1.9518	-0.657	-1.5154	-1.6497	-0.235	-0.8536	-1.501	-0.4076	1.3284	1.76	0.8392	-1.1605	-0.4268	-1.3524	-0.3597
-1.5586	-0.6858	-1.736	-2.019	-0.8872	-2.1149	-2.1005	-0.6474	-1.5874	-1.7984	-0.2638	-0.8728	-1.5586	-0.3741	1.3811	1.9278	0.7865	-1.1893	-0.3165	-1.4003	-0.3261
-1.6401	-0.6666	-1.8319	-2.1724	-0.8776	-2.2108	-2.2587	-0.7002	-1.7072	-1.9614	-0.2925	-0.9304	-1.6737	-0.3597	1.3332	2.0381	0.7481	-1.2565	-0.2446	-1.4675	-0.3549
-1.6689	-0.6138	-1.8703	-2.2875	-0.844	-2.2779	-2.4218	-0.7002	-1.7696	-2.1293	-0.3501	-1.0694	-1.7744	-0.3165	1.338	2.1532	0.6954	-1.3236	-0.2014	-1.6065	-0.3884
-1.7552	-0.5755	-1.9662	-2.4841	-0.844	-2.3594	-2.5513	-0.7673	-1.8415	-2.2827	-0.4556	-1.1414	-1.9135	-0.3261	1.2756	2.1724	0.6714	-1.4339	-0.211	-1.7168	-0.4412
-1.8175	-0.5563	-1.9902	-2.6328	-0.844	-2.4554	-2.7479	-0.8248	-1.995	-2.4458	-0.5563	-1.2373	-2.0094	-0.2973	1.1893	2.1628	0.6378	-1.5442	-0.2062	-1.8175	-0.5323
-1.8271	-0.5323	-2.0333	-2.7431	-0.8344	-2.5033	-2.8726	-0.9112	-2.0957	-2.6328	-0.6954	-1.3907	-2.1868	-0.2973	1.0934	2.1388	0.6186	-1.6545	-0.2973	-1.9758	-0.6474
-1.8319	-0.5083	-2.0573	-2.863	-0.8968	-2.6088	-3.05	-0.9879	-2.2252	-2.8246	-0.8392	-1.4771	-2.3786	-0.2925	0.9927	2.0285	0.6138	-1.8127	-0.3501	-2.0813	-0.7577
-1.8463	-0.5371	-2.1053	-3.0116	-0.9304	-2.6808	-3.1891	-1.1078	-2.3307	-3.0069	-0.9783	-1.6113	-2.5081	-0.3021	0.8344	1.8991	0.6042	-1.971	-0.3789	-2.2252	-0.8488
-1.8319	-0.5803	-2.0861	-3.0212	-0.9687	-2.7383	-3.2802	-1.2181	-2.4458	-3.1459	-1.1893	-1.7504	-2.6568	-0.2686	0.705	1.7552	0.5851	-2.0909	-0.4796	-2.3499	-1.0311
-1.8127	-0.5803	-2.0717	-3.1076	-1.0167	-2.7911	-3.4097	-1.3092	-2.5848	-3.3042	-1.3332	-1.8799	-2.8102	-0.2734	0.5659	1.5538	0.5851	-2.2396	-0.5947	-2.4841	-1.2277
-1.7984	-0.6282	-2.0765	-3.1747	-1.0934	-2.8294	-3.4816	-1.4723	-2.7095	-3.4385	-1.5346	-1.9998	-2.9397	-0.2829	0.4748	1.4003	0.5851	-2.3546	-0.7098	-2.5992	-1.4147
-1.7408	-0.657	-2.0573	-3.2035	-1.1941	-2.8582	-3.5631	-1.6017	-2.7719	-3.5344	-1.7264	-2.1245	-3.0788	-0.2781	0.3836	1.2181	0.5995	-2.4985	-0.8344	-2.7383	-1.6065
-1.6497	-0.6858	-2.0094	-3.2179	-1.2756	-2.8726	-3.6399	-1.784	-2.8534	-3.6591	-1.9039	-2.1772	-3.2179	-0.2877	0.3932	1.0694	0.5851	-2.6376	-1.0071	-2.8342	-1.8127
-1.6065	-0.7289	-1.9518	-3.2035	-1.4099	-2.8918	-3.683	-1.923	-2.9541	-3.7598	-2.1245	-2.3403	-3.3521	-0.2973	0.4268	0.9112	0.6234	-2.7623	-1.1653	-2.9877	-2.0477
-1.501	-0.7913	-1.8703	-3.1843	-1.5346	-2.8966	-3.7022	-2.1245	-3.0212	-3.8173	-2.3163	-2.4122	-3.4385	-0.3069	0.5323	0.844	0.6234	-2.8678	-1.3284	-3.0692	-2.2443
-1.3811	-0.8536	-1.784	-3.1603	-1.6593	-2.8774	-3.755	-2.2731	-3.0884	-3.918	-2.4937	-2.4793	-3.5344	-0.3117	0.6474	0.7577	0.6426	-2.9877	-1.4723	-3.1603	-2.4362
-1.2612	-0.8824	-1.7168	-3.1363	-1.7984	-2.8678	-3.7454	-2.4745	-3.2035	-3.99	-2.6951	-2.5609	-3.6159	-0.3405	0.8009	0.7098	0.6858	-3.0932	-1.6113	-3.2754	-2.5848
-1.1318	-0.9304	-1.6257	-3.05	-1.9326	-2.8918	-3.7502	-2.5848	-3.2418	-4.0331	-2.8294	-2.6184	-3.7118	-0.3405	0.9639	0.6714	0.6858	-3.1939	-1.7456	-3.3713	-2.7815
-1.0215	-1.0263	-1.5586	-3.0356	-2.0717	-2.8822	-3.7789	-2.7719	-3.333	-4.0859	-2.9829	-2.7143	-3.755	-0.3501	1.1414	0.6522	0.7145	-3.2754	-1.8799	-3.4337	-2.9253
-0.9064	-1.0215	-1.4627	-2.9637	-2.1676	-2.8582	-3.755	-2.887	-3.3761	-4.1386	-3.0836	-2.7239	-3.8029	-0.3549	1.2852	0.6522	0.7337	-3.3713	-1.9854	-3.4864	-3.0404
-0.8009	-1.0742	-1.3907	-2.9253	-2.2875	-2.8534	-3.7166	-3.0212	-3.4385	-4.1338	-3.2035	-2.7671	-3.8509	-0.3645	1.4675	0.6714	0.7385	-3.4289	-2.0861	-3.5536	-3.1459
-0.6858	-1.1222	-1.338	-2.8438	-2.4026	-2.8486	-3.6926	-3.1363	-3.4624	-4.1626	-3.2802	-2.7863	-3.8749	-0.3836	1.6449	0.7481	0.8009	-3.4816	-2.1724	-3.6111	-3.2514
-0.657	-1.1414	-1.3044	-2.8054	-2.5033	-2.8246	-3.6111	-3.2035	-3.4768	-4.129	-3.3473	-2.7623	-3.894	-0.3932	1.6737	0.7913	0.8248	-3.544	-2.2587	-3.6111	-3.309
-0.5947	-1.1893	-1.2756	-2.7623	-2.5752	-2.8198	-3.5871	-3.285	-3.4768	-4.1003	-3.3809	-2.7671	-3.8509	-0.422	1.7888	0.8728	0.8776	-3.5631	-2.3403	-3.6255	-3.3665
-0.6042	-1.266	-1.2996	-2.7383	-2.6712	-2.8582	-3.544	-3.3473	-3.4864	-4.0523	-3.4145	-2.7335	-3.8125	-0.4556	1.8032	0.9975	0.9208	-3.5967	-2.441	-3.6782	-3.4193
-0.6426	-1.3763	-1.3476	-2.7719	-2.7479	-2.8582	-3.52	-3.3761	-3.5008	-3.9995	-3.4337	-2.6999	-3.7789	-0.4796	1.7312	1.0694	0.9879	-3.6399	-2.5177	-3.6926	-3.4289
-0.7385	-1.5058	-1.4243	-2.8054	-2.8342	-2.9301	-3.4768	-3.4385	-3.4672	-3.9276	-3.4337	-2.6664	-3.7214	-0.4987	1.6401	1.1701	1.0263	-3.6255	-2.604	-3.707	-3.4528
-0.9064	-1.6833	-1.5538	-2.9061	-2.9589	-2.9877	-3.496	-3.4816	-3.4433	-3.9036	-3.4193	-2.5848	-3.6782	-0.5467	1.4339	1.1845	1.0838	-3.6399	-2.652	-3.7406	-3.4768
-1.0454	-1.8463	-1.6976	-2.9829	-3.0404	-3.0308	-3.4337	-3.5152	-3.4481	-3.8365	-3.4433	-2.5609	-3.6159	-0.5707	1.2565	1.2852	1.1318	-3.6159	-2.7527	-3.7406	-3.496
-1.2612	-2.0046	-1.8415	-3.0788	-3.1315	-3.0932	-3.4049	-3.5392	-3.4337	-3.7646	-3.3857	-2.4793	-3.496	-0.5803	1.0454	1.3524	1.1605	-3.5727	-2.7671	-3.731	-3.5008
-1.4771	-2.1676	-2.0285	-3.1699	-3.1843	-3.1411	-3.3665	-3.5248	-3.4097	-3.6878	-3.309	-2.3834	-3.4145	-0.5899	0.7961	1.4003	1.1941	-3.5104	-2.8342	-3.7262	-3.4864
-1.6401	-2.2731	-2.1724	-3.2754	-3.2131	-3.1843	-3.3425	-3.4576	-3.3282	-3.5631	-3.2275	-2.2779	-3.2802	-0.609	0.5611	1.4339	1.2133	-3.4337	-2.7958	-3.7358	-3.3857
-1.8559	-2.4602	-2.3211	-3.3761	-3.2131	-3.2035	-3.3186	-3.3905	-3.2802	-3.4816	-3.1267	-2.1676	-3.1843	-0.609	0.3501	1.4579	1.2277	-3.3761	-2.8294	-3.7358	-3.3665
-2.0333	-2.5561	-2.4793	-3.4672	-3.2083	-3.237	-3.3378	-3.3282	-3.1939	-3.4097	-3.0212	-2.0429	-3.0644	-0.6138	0.1391	1.5442	1.2373	-3.3042	-2.815	-3.6734	-3.2802
-2.2204	-2.6568	-2.6328	-3.6111	-3.1891	-3.2514	-3.3569	-3.2227	-3.0788	-3.333	-2.8822	-1.8847	-2.9541	-0.5995	-0.0671	1.5538	1.2229	-3.1747	-2.7431	-3.6734	-3.1795
-2.3882	-2.6951	-2.7239	-3.6926	-3.1267	-3.2035	-3.3138	-3.1267	-2.9829	-3.2514	-2.7335	-1.7168	-2.8102	-0.5899	-0.1966	1.6113	1.1893	-3.074	-2.6903	-3.6303	-3.0596
-2.4745	-2.7431	-2.8246	-3.7789	-3.0692	-3.2035	-3.3234	-2.9685	-2.8534	-3.1555	-2.5321	-1.5442	-2.6616	-0.5659	-0.3741	1.6209	1.1605	-2.9109	-2.5465	-3.5344	-2.8774
-2.5944	-2.7335	-2.8918	-3.8653	-3.0212	-3.1699	-3.3234	-2.8294	-2.7095	-3.0836	-2.3355	-1.3524	-2.5033	-0.5467	-0.4939	1.6065	1.0982	-2.7287	-2.4506	-3.496	-2.6855
-2.6951	-2.7767	-3.0021	-3.9324	-2.9397	-3.1363	-3.3425	-2.6712	-2.5944	-2.9973	-2.1101	-1.1509	-2.3355	-0.5275	-0.6234	1.5298	1.0598	-2.5896	-2.3259	-3.4433	-2.4937
-2.7479	-2.8006	-3.0644	-3.9708	-2.9013	-3.098	-3.3569	-2.5465	-2.4362	-2.9061	-1.8943	-0.9304	-2.1388	-0.4987	-0.7241	1.3907	1.0071	-2.3786	-2.1676	-3.3713	-2.3067
-2.815	-2.8438	-3.1076	-3.9852	-2.863	-3.074	-3.4049	-2.4266	-2.3211	-2.839	-1.712	-0.7145	-1.9806	-0.47	-0.8392	1.2133	0.9591	-2.2012	-2.0909	-3.2802	-2.1436
-2.8966	-2.8246	-3.1363	-4.0331	-2.815	-3.0069	-3.4289	-2.2731	-2.182	-2.7527	-1.4771	-0.5035	-1.8032	-0.4316	-0.9064	0.9975	0.8968	-1.9758	-1.9662	-3.1987	-1.923
-2.9877	-2.8726	-3.1891	-4.0667	-2.7911	-2.9781	-3.472	-2.1532	-2.0573	-2.7191	-1.2852	-0.3261	-1.6113	-0.422	-1.0502	0.681	0.8584	-1.7888	-1.8559	-3.1411	-1.7552
-3.0836	-2.8678	-3.2322	-4.0283	-2.7767	-2.9445	-3.5104	-2.0381	-1.9662	-2.6616	-1.0598	-0.0911	-1.4195	-0.3789	-1.1557	0.3693	0.7865	-1.525	-1.7456	-3.05	-1.5634
-3.1651	-2.9109	-3.2514	-4.0715	-2.7575	-2.9253	-3.5727	-1.9326	-1.8559	-2.5944	-0.8872	0.1343	-1.2229	-0.3645	-1.2852	-0.0048	0.7385	-1.2948	-1.7024	-2.9493	-1.3907
-3.2658	-2.9397	-3.309	-4.0379	-2.7575	-2.9253	-3.5823	-1.8463	-1.7408	-2.5417	-0.6954	0.3309	-1.0023	-0.3261	-1.4675	-0.4796	0.6762	-1.0023	-1.5921	-2.8102	-1.2085
-3.3473	-2.9733	-3.3282	-4.0379	-2.7527	-2.9061	-3.6207	-1.76	-1.6593	-2.5081	-0.5227	0.5563	-0.8009	-0.2973	-1.6689	-0.9495	0.6234	-0.7098	-1.5586	-2.676	-1.0742
-3.496	-3.0452	-3.4097	-4.0475	-2.7623	-2.9349	-3.6734	-1.7168	-1.6257	-2.4649	-0.3309	0.7433	-0.6186	-0.2638	-1.8607	-1.4291	0.5371	-0.398	-1.4675	-2.5705	-0.8968
-3.6159	-3.0788	-3.4768	-4.0331	-2.7863	-2.9301	-3.6591	-1.6257	-1.525	-2.417	-0.1487	0.916	-0.4028	-0.2158	-2.0861	-1.9758	0.4556	-0.0767	-1.4003	-2.4362	-0.7433
-3.7646	-3.1651	-3.544	-4.0571	-2.8678	-2.9781	-3.7598	-1.5874	-1.5154	-2.3834	-0.0144	1.0886	-0.2062	-0.2062	-2.3211	-2.4362	0.4076	0.2302	-1.3715	-2.3451	-0.6282
-3.9132	-3.2418	-3.6447	-4.0331	-2.9109	-3.0212	-3.7789	-1.5778	-1.4627	-2.3211	0.1199	1.2517	-0.0096	-0.1439	-2.5033	-2.9349	0.3213	0.4892	-1.2852	-2.2204	-0.4796
-4.0187	-3.285	-3.7358	-4.0091	-2.9589	-3.0644	-3.8077	-1.5394	-1.4483	-2.3019	0.2542	1.362	0.1583	-0.1103	-2.6903	-3.3186	0.2398	0.8057	-1.2421	-2.1293	-0.3597
-4.1626	-3.3521	-3.7981	-4.0283	-2.9733	-3.1219	-3.8221	-1.4771	-1.4627	-2.2635	0.398	1.5298	0.3693	-0.0767	-2.8294	-3.6543	0.1774	1.0838	-1.2277	-2.0238	-0.2494
-4.2729	-3.3953	-3.8845	-3.9948	-2.9829	-3.1411	-3.8077	-1.4339	-1.4531	-2.1628	0.5275	1.6593	0.5419	-0.0432	-2.9541	-3.942	0.0959	1.4051	-1.1989	-1.923	-0.1007
-4.364	-3.4001	-3.9084	-3.9564	-2.9733	-3.1843	-3.7598	-1.3907	-1.4339	-2.0765	0.6858	1.8175	0.7289	-0.0144	-3.0069	-4.1146	0.0288	1.6593	-1.1605	-1.8032	0
-4.4455	-3.4337	-4.0139	-3.9468	-2.9925	-3.2179	-3.7406	-1.3476	-1.4387	-1.9998	0.7961	1.8943	0.9304	0.0288	-3.0212	-4.2585	-0.024	1.9326	-1.1414	-1.6976	0.1199
-4.5079	-3.4576	-4.0619	-3.9708	-3.0069	-3.2658	-3.7358	-1.29	-1.4339	-1.923	0.9256	2.0142	1.0934	0.0575	-3.0164	-4.3304	-0.1055	2.1772	-1.1414	-1.5586	0.1918
-4.599	-3.5536	-4.153	-3.9804	-3.074	-3.3282	-3.7118	-1.2852	-1.4387	-1.8607	0.9831	2.0717	1.2517	0.0959	-2.9637	-4.364	-0.1487	2.4266	-1.1893	-1.4483	0.2877
-4.6757	-3.6063	-4.2297	-4.0523	-3.1172	-3.3905	-3.707	-1.2469	-1.4771	-1.8079	1.0694	2.1341	1.3811	0.1247	-2.9397	-4.3352	-0.211	2.6232	-1.1557	-1.3524	0.3741
-4.8148	-3.7358	-4.3496	-4.1242	-3.2179	-3.4816	-3.6926	-1.2852	-1.525	-1.7744	1.127	2.1676	1.4675	0.1295	-2.9493	-4.2825	-0.259	2.7911	-1.1174	-1.2708	0.4508
-4.9107	-3.8892	-4.4647	-4.2249	-3.309	-3.5583	-3.7262	-1.3044	-1.5826	-1.7072	1.1797	2.1964	1.5298	0.1535	-2.9733	-4.2249	-0.2638	2.9253	-1.1749	-1.2229	0.4844
-5.0834	-4.0331	-4.5654	-4.2825	-3.4481	-3.6782	-3.7454	-1.3428	-1.6689	-1.7024	1.1797	2.1772	1.5874	0.1678	-3.0069	-4.1626	-0.2829	3.0164	-1.1701	-1.1366	0.5227
-5.2032	-4.1962	-4.7045	-4.364	-3.5631	-3.755	-3.7358	-1.3763	-1.7168	-1.6737	1.1797	2.158	1.6161	0.187	-3.0644	-4.0475	-0.3069	3.1219	-1.1941	-1.0694	0.5563
-5.3663	-4.3592	-4.8148	-4.4887	-3.7022	-3.8509	-3.707	-1.4243	-1.7792	-1.6305	1.1557	2.1149	1.6641	0.1774	-3.1699	-3.9468	-0.3117	3.1891	-1.2181	-1.0023	0.5755
-5.5341	-4.5271	-4.9347	-4.5462	-3.8509	-3.9564	-3.7406	-1.525	-1.8607	-1.6113	1.1078	2.0333	1.6497	0.1774	-3.3425	-3.8845	-0.3021	3.1987	-1.2517	-0.9975	0.5659
-5.6205	-4.6518	-5.0498	-4.5942	-3.9852	-4.0043	-3.7214	-1.573	-1.9326	-1.5874	1.0119	1.9566	1.6497	0.1822	-3.4768	-3.7406	-0.3117	3.2131	-1.3044	-0.9112	0.5275
-5.7595	-4.7429	-5.1313	-4.6949	-4.0475	-4.0427	-3.6734	-1.6833	-1.9806	-1.5442	0.9495	1.8847	1.6449	0.1678	-3.6591	-3.6495	-0.2877	3.2083	-1.3907	-0.8776	0.4796
-5.8602	-4.8388	-5.1937	-4.7381	-4.1434	-4.1146	-3.6686	-1.7264	-2.0477	-1.5106	0.8968	1.7984	1.6401	0.1583	-3.8269	-3.5727	-0.2829	3.1795	-1.4339	-0.892	0.4364
-5.9274	-4.9107	-5.2224	-4.7237	-4.201	-4.1194	-3.6159	-1.7648	-2.0717	-1.4866	0.8344	1.7456	1.6113	0.1535	-3.9468	-3.5056	-0.2638	3.1315	-1.5106	-0.8536	0.3741
-5.9514	-4.9491	-5.2032	-4.7381	-4.2153	-4.0907	-3.544	-1.8032	-2.1005	-1.4243	0.7385	1.6401	1.6113	0.1295	-4.0859	-3.4433	-0.2206	3.0884	-1.5394	-0.8344	0.3405
-5.9705	-4.9491	-5.1601	-4.7621	-4.2201	-4.0715	-3.4624	-1.8271	-2.0957	-1.3524	0.6762	1.549	1.5969	0.1007	-4.1674	-3.4097	-0.1774	3.0164	-1.5778	-0.8488	0.3309
-5.9466	-4.9587	-5.1601	-4.7093	-4.2106	-4.0427	-3.3857	-1.8367	-2.1005	-1.338	0.5995	1.4435	1.6113	0.0528	-4.2345	-3.3665	-0.0911	2.9301	-1.6257	-0.8296	0.2542
-5.913	-4.9299	-5.0546	-4.6757	-4.1818	-3.9468	-3.285	-1.8559	-2.1101	-1.2469	0.5227	1.3907	1.5298	-0.0096	-4.2825	-3.3234	0.0096	2.8486	-1.6545	-0.7817	0.235
-5.8123	-4.8771	-4.9539	-4.5702	-4.1578	-3.8605	-3.1507	-1.8607	-2.0765	-1.2085	0.4508	1.3092	1.5154	-0.0575	-4.2825	-3.2466	0.1295	2.7287	-1.6929	-0.7289	0.1774
-5.678	-4.8004	-4.8004	-4.4407	-4.1051	-3.731	-2.9925	-1.8415	-2.0429	-1.1174	0.3597	1.1941	1.501	-0.1055	-4.2585	-3.1267	0.259	2.628	-1.7168	-0.7098	0.1199
-5.5773	-4.7621	-4.6613	-4.3448	-4.0475	-3.6303	-2.863	-1.8415	-2.0142	-1.0838	0.2925	1.1222	1.4387	-0.2158	-4.2633	-3.0788	0.4124	2.4506	-1.7072	-0.6762	0.0623
-5.3999	-4.6518	-4.4887	-4.1818	-3.9324	-3.4864	-2.7047	-1.8079	-1.9806	-0.9879	0.2062	1.0263	1.3907	-0.2686	-4.153	-2.9637	0.5515	2.2923	-1.6833	-0.657	0.048
-5.2128	-4.5462	-4.3113	-4.0523	-3.8317	-3.309	-2.58	-1.7744	-1.8943	-0.9399	0.1678	0.9543	1.338	-0.3501	-4.0619	-2.7863	0.705	2.1053	-1.6353	-0.6474	0.0384
-5.0066	-4.412	-4.1003	-3.8797	-3.6974	-3.1795	-2.4362	-1.6881	-1.8463	-0.8824	0.1007	0.8728	1.2708	-0.4172	-3.894	-2.5896	0.8296	1.8943	-1.5826	-0.6714	-0.0192
-4.7237	-4.2297	-3.8749	-3.7022	-3.5392	-2.9973	-2.2539	-1.5921	-1.736	-0.8201	0.0623	0.844	1.2181	-0.4748	-3.7358	-2.3403	0.9591	1.6593	-1.4914	-0.6378	-0.024
-4.4551	-4.0091	-3.6159	-3.4864	-3.3857	-2.7767	-2.1005	-1.5106	-1.6545	-0.7673	0.0384	0.7529	1.1462	-0.5323	-3.4912	-2.0381	1.0742	1.4675	-1.4147	-0.6954	-0.0384
-4.201	-3.8269	-3.3521	-3.285	-3.1843	-2.5752	-1.9518	-1.4243	-1.5682	-0.7433	0.0096	0.6762	1.079	-0.5851	-3.2562	-1.7024	1.1893	1.2181	-1.2852	-0.7241	-0.0863
-3.8509	-3.5631	-3.0548	-3.0452	-2.9829	-2.3594	-1.8079	-1.29	-1.4675	-0.7002	-0.0144	0.6426	0.9735	-0.6522	-2.9349	-1.3044	1.29	0.9304	-1.1462	-0.7769	-0.048
-3.52	-3.2658	-2.8054	-2.863	-2.7431	-2.1484	-1.7024	-1.1797	-1.3763	-0.6762	-0.048	0.5611	0.8776	-0.7098	-2.6376	-0.9112	1.4003	0.6234	-0.9639	-0.8632	-0.0528
-3.1747	-2.9589	-2.441	-2.5896	-2.4793	-1.8991	-1.5154	-0.9975	-1.2517	-0.6426	0	0.5275	0.7865	-0.7337	-2.2396	-0.4268	1.4675	0.3261	-0.8009	-0.9016	-0.0528
-2.8006	-2.5992	-2.1341	-2.3546	-2.2012	-1.6641	-1.3955	-0.8248	-1.127	-0.6234	-0.0048	0.5179	0.6714	-0.7625	-1.8703	0.0432	1.5394	0.048	-0.5707	-0.9687	-0.0144
-2.3978	-2.206	-1.8271	-2.0957	-1.8847	-1.4099	-1.2325	-0.6378	-0.9591	-0.5707	0.0192	0.4556	0.5563	-0.7913	-1.5154	0.4844	1.6161	-0.3117	-0.3645	-1.0598	-0.0048
-2.0238	-1.8367	-1.5106	-1.8463	-1.573	-1.1653	-1.1509	-0.4748	-0.844	-0.5755	0.0288	0.4076	0.3836	-0.8344	-1.127	0.9879	1.6641	-0.633	-0.1822	-1.1797	0.0192
-1.6785	-1.4675	-1.1701	-1.6065	-1.2565	-0.9447	-0.9927	-0.2877	-0.705	-0.5515	0.0336	0.3884	0.2877	-0.8584	-0.7577	1.3668	1.7264	-0.9975	-0.0528	-1.2708	0.0048
-1.3332	-1.0742	-0.9064	-1.3811	-0.9591	-0.7098	-0.9112	-0.1343	-0.6186	-0.5803	0.0336	0.3261	0.0863	-0.8968	-0.4748	1.7072	1.7936	-1.3907	0.1055	-1.3715	0.0144
-1.0119	-0.7289	-0.5899	-1.1509	-0.6666	-0.5275	-0.7961	0.024	-0.5035	-0.5851	0.0575	0.2829	-0.024	-0.9112	-0.1822	2.019	1.8367	-1.7216	0.211	-1.4818	-0.0192
-0.7145	-0.422	-0.3789	-0.9735	-0.398	-0.3357	-0.7002	0.2014	-0.4268	-0.6138	0.0384	0.2302	-0.2254	-0.9543	0.0528	2.2396	1.923	-2.1293	0.3261	-1.6401	-0.0623
-0.446	-0.0959	-0.1487	-0.7913	-0.1103	-0.187	-0.6186	0.3357	-0.3405	-0.6282	0.0432	0.1247	-0.3932	-0.9831	0.2925	2.4314	1.9806	-2.5081	0.422	-1.7936	-0.1007
-0.2302	0.187	0.0336	-0.6618	0.1487	-0.0288	-0.5611	0.4844	-0.2686	-0.6474	0.0432	0.0767	-0.5851	-1.0263	0.4748	2.5513	2.0669	-2.9109	0.4604	-1.9326	-0.1439
-0.048	0.4316	0.211	-0.5083	0.3261	0.0432	-0.5467	0.5467	-0.2638	-0.7193	0.0096	-0.0144	-0.7913	-1.0598	0.609	2.6184	2.1532	-3.2994	0.5179	-2.0717	-0.1966
0.1343	0.6714	0.3357	-0.4268	0.5419	0.1535	-0.5227	0.6666	-0.2398	-0.7817	-0.048	-0.0959	-0.9975	-1.1318	0.7577	2.6616	2.2779	-3.6447	0.5515	-2.2635	-0.2734
0.2638	0.8584	0.446	-0.3693	0.7098	0.2206	-0.5131	0.7481	-0.1822	-0.8536	-0.0336	-0.1774	-1.2085	-1.1989	0.8728	2.6855	2.4026	-4.0475	0.6234	-2.4122	-0.3165
0.398	1.0215	0.5035	-0.3069	0.8248	0.2829	-0.5563	0.8201	-0.1678	-0.9112	-0.0623	-0.2638	-1.3907	-1.2852	1.0263	2.6855	2.5513	-4.3928	0.6618	-2.5848	-0.3453
0.5083	1.1749	0.5707	-0.2494	0.9256	0.3357	-0.5611	0.868	-0.1439	-0.9975	-0.1103	-0.3213	-1.5874	-1.3428	1.1462	2.6903	2.7095	-4.7237	0.6666	-2.6999	-0.4172
0.5515	1.2708	0.6282	-0.2206	1.0215	0.3597	-0.5899	0.8968	-0.1007	-1.0502	-0.1199	-0.3645	-1.7504	-1.4147	1.3188	2.7095	2.8438	-5.0498	0.681	-2.8006	-0.446
0.6234	1.3859	0.6618	-0.187	1.1222	0.3884	-0.6522	0.916	-0.0815	-1.1078	-0.1487	-0.4412	-1.9326	-1.501	1.4627	2.6568	2.9925	-5.3327	0.6906	-2.9157	-0.4796
0.7529	1.5394	0.7193	-0.1535	1.2085	0.4412	-0.6474	0.9687	-0.0671	-1.1701	-0.1535	-0.4796	-2.0621	-1.5778	1.6785	2.6376	3.1363	-5.6205	0.7002	-3.0164	-0.5131
0.7961	1.6353	0.7673	-0.1247	1.2469	0.4748	-0.6762	0.9783	-0.0528	-1.2229	-0.1726	-0.5227	-2.206	-1.6449	1.8463	2.6472	3.285	-5.8698	0.7289	-3.1076	-0.5323
0.9064	1.76	0.7913	-0.0767	1.338	0.4939	-0.705	1.0263	-0.0048	-1.2756	-0.1631	-0.5275	-2.3067	-1.7024	2.0717	2.6808	3.3809	-6.1	0.7769	-3.1651	-0.5419
0.9495	1.8799	0.8248	-0.0719	1.3715	0.5083	-0.7433	1.0071	0.0096	-1.3044	-0.1966	-0.5755	-2.4362	-1.7648	2.2875	2.7335	3.5104	-6.311	0.8201	-3.2658	-0.5563
1.0359	1.9854	0.8968	0	1.4387	0.5323	-0.7337	1.0311	0.0528	-1.2996	-0.1631	-0.5323	-2.4985	-1.8032	2.5273	2.8342	3.5967	-6.5029	0.8776	-3.2994	-0.5419
1.103	2.0381	0.9016	-0.0144	1.4483	0.5323	-0.7625	1.0263	0.0767	-1.3188	-0.1774	-0.5707	-2.5848	-1.8463	2.7143	2.8678	3.6926	-6.6803	0.8872	-3.3521	-0.5515
1.1414	2.1149	0.9256	0	1.4531	0.5803	-0.8153	1.0406	0.0719	-1.3572	-0.1966	-0.5563	-2.652	-1.9087	2.9109	2.9013	3.7837	-6.8386	0.9399	-3.4241	-0.5179
1.1941	2.1436	0.9256	-0.0288	1.4579	0.5323	-0.8153	1.0263	0.1199	-1.3524	-0.1822	-0.5515	-2.6903	-1.9182	3.026	2.9733	3.8317	-6.9728	1.0071	-3.4672	-0.4796
1.2277	2.1101	0.8776	-0.0528	1.4099	0.5467	-0.8728	0.9783	0.1343	-1.3524	-0.2014	-0.5179	-2.6903	-1.947	3.1651	3.0308	3.8845	-7.1215	1.0598	-3.52	-0.4556
1.1557	2.0525	0.8392	-0.1199	1.314	0.4796	-0.9447	0.9112	0.1007	-1.4195	-0.2254	-0.5179	-2.7479	-1.9902	3.261	2.9925	3.9276	-7.2366	1.1174	-3.5919	-0.4508
1.0886	1.9422	0.7337	-0.2254	1.1989	0.3789	-1.0311	0.8248	0.0432	-1.4627	-0.2494	-0.5419	-2.8198	-1.9902	3.2946	2.9541	3.966	-7.3181	1.1462	-3.6639	-0.4604
1.0215	1.8175	0.6138	-0.3309	1.0694	0.3165	-1.1318	0.7385	0.0719	-1.4531	-0.2973	-0.5755	-2.8534	-1.9854	3.333	2.9061	3.9612	-7.4476	1.1893	-3.7646	-0.4028
0.8824	1.6689	0.4652	-0.5131	0.8872	0.1966	-1.2756	0.6186	-0.0432	-1.5969	-0.3453	-0.5803	-2.9205	-2.0094	3.2898	2.7719	3.99	-7.5483	1.1941	-3.8749	-0.4172
0.7002	1.4723	0.3213	-0.7529	0.7337	0.0767	-1.4387	0.4987	-0.1007	-1.6833	-0.422	-0.5899	-2.9733	-2.0094	3.2227	2.6568	4.0043	-7.6059	1.1749	-4.0139	-0.4412
0.5515	1.314	0.1391	-0.9304	0.5275	-0.0815	-1.6065	0.398	-0.1822	-1.7792	-0.4364	-0.5851	-2.9973	-2.0094	3.074	2.4985	3.9995	-7.7066	1.1509	-4.1051	-0.4316
0.3549	1.1174	-0.0192	-1.1701	0.3884	-0.1774	-1.8032	0.2542	-0.2542	-1.8799	-0.4796	-0.6042	-3.0308	-2.0142	2.9541	2.23	4.0139	-7.7545	1.1174	-4.2441	-0.4316
0.1583	0.9543	-0.211	-1.3859	0.2014	-0.3597	-1.971	0.1583	-0.3117	-1.9566	-0.5227	-0.5899	-3.0548	-2.0142	2.8054	1.9566	4.0043	-7.8265	1.0646	-4.3448	-0.4556
-0.0384	0.7961	-0.3789	-1.5634	0.0623	-0.4748	-2.1197	0.0528	-0.398	-2.0238	-0.4987	-0.5467	-3.0548	-2.0046	2.6472	1.6737	3.9995	-7.8073	1.0215	-4.4503	-0.4508
-0.1774	0.6426	-0.5371	-1.7504	-0.0671	-0.5419	-2.2635	0	-0.422	-2.0861	-0.4844	-0.5131	-3.0452	-1.995	2.4841	1.3907	3.9804	-7.8073	1.0023	-4.5319	-0.4268
-0.3645	0.5131	-0.6858	-1.8895	-0.1439	-0.6906	-2.3642	-0.0623	-0.47	-2.1293	-0.4412	-0.4556	-2.9781	-1.9902	2.3546	1.1318	3.9612	-7.7785	0.9351	-4.5846	-0.3693
-0.4892	0.398	-0.7913	-2.0573	-0.259	-0.7913	-2.4937	-0.1007	-0.4939	-2.2108	-0.4268	-0.3501	-2.9637	-1.9854	2.1964	0.844	3.966	-7.7737	0.8584	-4.6565	-0.4172
-0.5995	0.3261	-0.8968	-2.1101	-0.2638	-0.8584	-2.5465	-0.0863	-0.4939	-2.1964	-0.3549	-0.2781	-2.8774	-1.9758	2.0573	0.6138	3.918	-7.697	0.8824	-4.6997	-0.2925
-0.6858	0.2302	-0.9687	-2.2348	-0.3165	-0.9064	-2.5944	-0.0671	-0.5227	-2.206	-0.2014	-0.1774	-2.7863	-1.9566	1.947	0.4652	3.8749	-7.6011	0.8296	-4.7093	-0.2494
-0.7529	0.1678	-1.0263	-2.3067	-0.3213	-0.9927	-2.6712	-0.0336	-0.5515	-2.1964	-0.1439	-0.1055	-2.7047	-1.9326	1.8655	0.2877	3.8317	-7.5291	0.8057	-4.6853	-0.1535
-0.8153	0.1295	-1.0886	-2.393	-0.3117	-1.0502	-2.7335	-0.0096	-0.5515	-2.1724	-0.024	0.048	-2.5992	-1.8895	1.7072	0.1822	3.7694	-7.4188	0.7961	-4.6661	-0.0671
-0.868	0.0911	-1.1366	-2.4266	-0.3261	-1.1126	-2.7671	0.0528	-0.5659	-2.182	0.0815	0.1439	-2.4889	-1.8607	1.6161	0.1151	3.707	-7.275	0.7529	-4.6422	0.0144
-0.9064	0.0432	-1.1509	-2.4841	-0.3213	-1.1941	-2.7815	0.1007	-0.5995	-2.1484	0.2398	0.2734	-2.3882	-1.8319	1.5394	0.0863	3.6495	-7.1599	0.7865	-4.5894	0.1439
-0.916	0	-1.2085	-2.5129	-0.3453	-1.2565	-2.7767	0.1439	-0.6522	-2.1197	0.3309	0.3597	-2.2683	-1.7984	1.4339	0.1055	3.6063	-7.0208	0.7673	-4.551	0.2206
-0.9543	-0.0192	-1.1989	-2.5081	-0.3213	-1.3188	-2.7671	0.2014	-0.6426	-2.0525	0.4987	0.5131	-2.0813	-1.7792	1.3524	0.1631	3.5536	-6.8386	0.7913	-4.4551	0.3117
-0.9783	-0.048	-1.2229	-2.4793	-0.3261	-1.3715	-2.7095	0.2446	-0.6714	-1.9758	0.6042	0.6138	-1.9422	-1.7696	1.2708	0.2254	3.5296	-6.6947	0.8009	-4.4264	0.422
-0.9639	-0.0528	-1.2373	-2.4602	-0.2829	-1.4291	-2.6328	0.3213	-0.7145	-1.8943	0.7577	0.7241	-1.7888	-1.7648	1.2181	0.3021	3.496	-6.5125	0.8632	-4.3113	0.5659
-1.0023	-0.0719	-1.2325	-2.4026	-0.2925	-1.5058	-2.5609	0.3741	-0.7193	-1.7552	0.9399	0.868	-1.5921	-1.7696	1.1701	0.398	3.496	-6.3062	0.9112	-4.1866	0.681
-1.0023	-0.0623	-1.2469	-2.3882	-0.2158	-1.5442	-2.4745	0.4652	-0.7002	-1.5921	1.0982	1.0023	-1.4051	-1.76	1.1414	0.5515	3.496	-6.0665	0.9879	-4.0907	0.8248
-0.9975	-0.0575	-1.2756	-2.3499	-0.2062	-1.5826	-2.3642	0.5467	-0.7433	-1.4627	1.2133	1.1222	-1.1701	-1.76	1.1318	0.7145	3.5008	-5.7979	1.0742	-3.9372	0.9735
-0.9975	-0.0623	-1.2469	-2.2731	-0.1583	-1.6161	-2.2731	0.6666	-0.7289	-1.2996	1.4435	1.2996	-0.9304	-1.7456	1.1941	0.9351	3.4816	-5.5054	1.1509	-3.7598	1.1318
-0.9591	-0.048	-1.2421	-2.2156	-0.1343	-1.6689	-2.1532	0.7145	-0.7529	-1.1414	1.5826	1.4195	-0.7481	-1.7696	1.2229	1.1557	3.5056	-5.2656	1.2756	-3.6351	1.3044
-0.892	-0.0288	-1.1989	-2.1053	-0.0719	-1.6881	-1.971	0.8201	-0.7193	-0.9016	1.784	1.5921	-0.5179	-1.7648	1.3092	1.4675	3.5056	-4.9635	1.362	-3.4337	1.4675
-0.8248	-0.0096	-1.1701	-1.9614	-0.0432	-1.7312	-1.8223	0.9495	-0.7337	-0.7481	1.9662	1.7744	-0.2398	-1.76	1.3763	1.7984	3.5104	-4.6709	1.4962	-3.2418	1.6641
-0.7769	0.0144	-1.1845	-1.8847	-0.0096	-1.7744	-1.7216	1.0167	-0.6858	-0.5515	2.1628	1.8607	-0.0048	-1.7792	1.4003	2.1101	3.5296	-4.4072	1.6161	-3.074	1.8463
-0.7145	0.0432	-1.1366	-1.7696	0.024	-1.7744	-1.5442	1.1366	-0.6714	-0.3549	2.3499	2.0094	0.235	-1.7744	1.4866	2.4554	3.5248	-4.0811	1.8175	-2.8726	2.0813
-0.6666	0.0719	-1.1222	-1.6641	0.048	-1.8127	-1.4195	1.2181	-0.6954	-0.2158	2.4745	2.0957	0.422	-1.7744	1.5346	2.7671	3.5248	-3.7789	1.9422	-2.6808	2.2587
-0.6042	0.0575	-1.1509	-1.6017	0.0719	-1.8655	-1.314	1.29	-0.6858	-0.0815	2.652	2.182	0.6522	-1.7696	1.573	3.0452	3.5056	-3.4672	2.1053	-2.5081	2.4266
-0.5275	0.0815	-1.1797	-1.4962	0.1103	-1.9087	-1.2037	1.3715	-0.6714	0.0815	2.7575	2.2875	0.8344	-1.7552	1.6209	3.3282	3.4864	-3.2083	2.2635	-2.2923	2.5848
-0.5035	0.024	-1.1893	-1.4627	0.0719	-1.947	-1.1414	1.3955	-0.6858	0.1678	2.8678	2.3259	1.0215	-1.7408	1.6785	3.5823	3.4576	-2.9061	2.3594	-2.1101	2.7335
-0.5131	0.0096	-1.2133	-1.4195	0.024	-2.0238	-1.1078	1.4003	-0.7433	0.2446	2.9205	2.3403	1.1509	-1.736	1.7024	3.755	3.4576	-2.6328	2.4697	-1.971	2.8534
-0.4748	-0.0528	-1.2565	-1.3907	-0.024	-2.0621	-1.0406	1.3763	-0.7625	0.3597	2.9925	2.3834	1.3044	-1.7168	1.76	3.9948	3.4049	-2.3067	2.5417	-1.7792	2.9493
-0.4604	-0.1151	-1.2948	-1.4003	-0.1007	-2.1484	-1.0023	1.3763	-0.7769	0.4316	3.0069	2.3594	1.4339	-1.6929	1.8271	4.1146	3.3761	-2.0381	2.5752	-1.5969	3.0212
-0.4412	-0.1583	-1.3859	-1.3428	-0.1583	-2.2252	-0.9831	1.338	-0.8248	0.4844	3.05	2.3786	1.6113	-1.6785	1.8655	4.1962	3.3282	-1.712	2.5944	-1.4291	3.0836
-0.4556	-0.1822	-1.4195	-1.314	-0.2014	-2.3115	-0.9687	1.2852	-0.8584	0.5467	3.074	2.3594	1.712	-1.6497	1.9326	4.2729	3.2658	-1.4195	2.5992	-1.266	3.1459
-0.47	-0.235	-1.4962	-1.29	-0.2638	-2.3403	-0.9256	1.2756	-0.868	0.6234	3.1124	2.3355	1.8655	-1.6065	1.995	4.2585	3.1843	-1.079	2.628	-1.0934	3.2035
-0.5083	-0.2686	-1.6113	-1.2996	-0.3309	-2.4266	-0.8776	1.2325	-0.892	0.6714	3.1124	2.3499	1.9758	-1.5778	2.019	4.1818	3.1363	-0.7817	2.6184	-0.9591	3.2418
-0.5419	-0.2734	-1.6593	-1.2565	-0.3501	-2.4745	-0.8824	1.2325	-0.9495	0.7385	3.1124	2.3067	2.1053	-1.525	2.0765	4.0859	3.0404	-0.4268	2.5992	-0.8248	3.2658
-0.5707	-0.2686	-1.736	-1.2612	-0.3165	-2.5417	-0.8392	1.2612	-0.9495	0.7865	3.1459	2.3211	2.2252	-1.4771	2.0669	3.9372	2.9349	-0.1007	2.6136	-0.6954	3.333
-0.6618	-0.3213	-1.8751	-1.2565	-0.3213	-2.6568	-0.868	1.2469	-1.0119	0.8057	3.1747	2.2875	2.3355	-1.4435	1.9854	3.6734	2.8534	0.2014	2.5609	-0.5851	3.3282
-0.7289	-0.3549	-1.9998	-1.3236	-0.3165	-2.7335	-0.8728	1.2517	-1.103	0.844	3.1411	2.2108	2.4122	-1.3859	1.9135	3.3953	2.7575	0.4939	2.5273	-0.4939	3.3521
-0.8153	-0.4172	-2.1245	-1.3715	-0.3405	-2.8726	-0.9112	1.2469	-1.1605	0.8057	3.1459	2.1436	2.4649	-1.3332	1.76	3.0932	2.6472	0.7721	2.5417	-0.3884	3.3761
-0.9831	-0.5227	-2.2779	-1.4339	-0.3693	-3.026	-1.0119	1.2229	-1.2948	0.7961	3.0836	2.0381	2.5225	-1.2948	1.6833	2.7287	2.5417	1.0502	2.5177	-0.3213	3.3953
-1.1366	-0.657	-2.5417	-1.5826	-0.4796	-3.2227	-1.1797	1.1462	-1.4291	0.7145	3.0308	1.9422	2.5081	-1.2469	1.4675	2.3642	2.4602	1.2852	2.4649	-0.2446	3.3521
-1.3476	-0.8584	-2.7767	-1.7648	-0.6234	-3.4528	-1.3092	1.0167	-1.6065	0.6186	2.8918	1.7648	2.4985	-1.1941	1.3188	1.9806	2.3642	1.5106	2.369	-0.2446	3.3138
-1.5538	-1.1174	-3.026	-1.9614	-0.8105	-3.7214	-1.5154	0.8968	-1.8223	0.4844	2.7767	1.6161	2.4554	-1.1462	1.1509	1.5921	2.2827	1.7264	2.2443	-0.2254	3.2035
-1.8032	-1.3763	-3.3425	-2.1628	-1.0167	-3.9756	-1.7216	0.7673	-2.0333	0.3357	2.6376	1.4435	2.3738	-1.1126	0.9399	1.1653	2.206	1.8655	2.1628	-0.1918	3.1555
-2.0813	-1.6833	-3.6447	-2.4122	-1.2469	-4.2633	-1.9806	0.6186	-2.2779	0.1631	2.4554	1.2421	2.2827	-1.0694	0.7289	0.7577	2.1388	2.0525	2.0285	-0.1822	3.0836
-2.369	-2.0333	-3.9756	-2.6568	-1.5394	-4.5654	-2.23	0.422	-2.4985	0	2.2779	1.0406	2.2156	-1.0502	0.5227	0.3836	2.0669	2.23	1.9087	-0.1918	2.9493
-2.6999	-2.3594	-4.3113	-2.9253	-1.8079	-4.8532	-2.4745	0.2014	-2.7671	-0.1487	2.0957	0.844	2.0957	-0.9975	0.3117	0.0671	2.0046	2.369	1.736	-0.1966	2.8534
-2.9925	-2.7383	-4.5894	-3.1411	-2.1101	-5.1361	-2.6855	0.0288	-2.9877	-0.3309	1.9566	0.6906	2.0621	-0.9495	0.1007	-0.2494	1.9087	2.5752	1.6353	-0.1678	2.7719
-3.2562	-3.1028	-4.8963	-3.333	-2.3642	-5.3759	-2.863	-0.1295	-3.1747	-0.422	1.8319	0.5419	2.019	-0.9064	-0.0336	-0.4748	1.8175	2.7191	1.5346	-0.1247	2.6999
-3.5392	-3.4385	-5.2032	-3.52	-2.5896	-5.6253	-3.0069	-0.235	-3.3569	-0.4892	1.7264	0.4364	2.0333	-0.8632	-0.1726	-0.657	1.6976	2.9733	1.4531	-0.0336	2.6951
-3.7885	-3.7406	-5.4382	-3.6974	-2.7911	-5.8219	-3.1219	-0.3549	-3.5008	-0.5611	1.6497	0.3405	2.0429	-0.7913	-0.2494	-0.7625	1.5921	3.2131	1.3859	0.0432	2.6568
-4.0379	-4.0475	-5.678	-3.8605	-3.0116	-6.0377	-3.2514	-0.4844	-3.6063	-0.6042	1.573	0.2925	2.0669	-0.7481	-0.3501	-0.844	1.501	3.4433	1.3092	0.1439	2.6664
-4.2729	-4.3448	-5.9034	-3.9852	-3.1891	-6.1959	-3.3378	-0.5467	-3.707	-0.6234	1.5394	0.2302	2.1149	-0.681	-0.4028	-0.8488	1.3811	3.7214	1.2181	0.3213	2.6855
-4.4503	-4.6374	-6.1144	-4.1003	-3.3569	-6.3446	-3.4385	-0.5899	-3.7742	-0.6426	1.5346	0.2398	2.206	-0.6522	-0.4796	-0.8344	1.2756	4.0283	1.1893	0.5131	2.7287
-4.6134	-4.834	-6.2919	-4.2297	-3.4576	-6.4693	-3.5008	-0.6186	-3.7981	-0.6138	1.5202	0.2302	2.2923	-0.5611	-0.5227	-0.7721	1.1366	4.3448	1.1174	0.705	2.7575
-4.8004	-5.0834	-6.4741	-4.3736	-3.5871	-6.594	-3.5871	-0.681	-3.8653	-0.5995	1.5298	0.235	2.3642	-0.4796	-0.5851	-0.6762	0.9831	4.6422	1.0167	0.8632	2.7479
-4.9683	-5.2848	-6.6467	-4.551	-3.7022	-6.6995	-3.7262	-0.6762	-3.8749	-0.6234	1.501	0.2206	2.4266	-0.4124	-0.6282	-0.5323	0.8344	4.9155	0.9543	1.0263	2.7958
-5.0882	-5.4382	-6.805	-4.7333	-3.7837	-6.805	-3.8221	-0.7098	-3.9132	-0.681	1.4866	0.235	2.4697	-0.3357	-0.7002	-0.4652	0.6906	5.1601	0.8824	1.1414	2.8246
-5.2464	-5.6396	-6.9345	-4.9059	-3.8845	-6.9009	-3.9324	-0.7289	-3.942	-0.6858	1.501	0.2638	2.5321	-0.259	-0.7721	-0.3117	0.5515	5.4095	0.7817	1.2612	2.815
-5.3567	-5.7787	-7.0687	-5.0594	-3.966	-7.0064	-4.0475	-0.7721	-3.9324	-0.705	1.4962	0.2542	2.5705	-0.1774	-0.8248	-0.1391	0.4028	5.6205	0.6522	1.3428	2.8198
-5.5006	-5.9418	-7.1886	-5.2272	-4.1003	-7.0975	-4.1866	-0.8105	-3.942	-0.7529	1.4771	0.2829	2.5992	-0.1247	-0.892	-0.0192	0.2686	5.8267	0.5419	1.4339	2.7911
-5.5725	-6.0377	-7.3037	-5.3375	-4.129	-7.1359	-4.1866	-0.8344	-3.9468	-0.7337	1.4723	0.3117	2.6472	-0.0528	-0.9304	0.187	0.1247	6.0233	0.4412	1.4962	2.7767
-5.6301	-6.1432	-7.3661	-5.4334	-4.2058	-7.2222	-4.2153	-0.8488	-3.894	-0.7241	1.4531	0.3309	2.7143	0.0144	-0.9783	0.3597	-0.0096	6.2199	0.3309	1.5969	2.7671
-5.6876	-6.1863	-7.438	-5.4862	-4.1914	-7.2366	-4.153	-0.8296	-3.8605	-0.633	1.5058	0.422	2.8246	0.0719	-1.055	0.5563	-0.1247	6.4213	0.2734	1.7168	2.7575
-5.726	-6.2103	-7.4716	-5.5006	-4.2106	-7.227	-4.1242	-0.8009	-3.8077	-0.6186	1.5058	0.4892	2.8966	0.1343	-1.1414	0.7481	-0.2254	6.594	0.1918	1.7936	2.7527
-5.7068	-6.1863	-7.4764	-5.4766	-4.177	-7.203	-4.0475	-0.7769	-3.683	-0.5035	1.5538	0.5851	2.9829	0.1631	-1.1941	0.916	-0.3117	6.757	0.1583	1.8943	2.7527
-5.7595	-6.148	-7.4572	-5.4718	-4.1146	-7.1982	-3.9995	-0.7241	-3.5871	-0.4748	1.6401	0.6906	3.0836	0.1918	-1.2469	1.0934	-0.3741	6.968	0.1343	2.0142	2.7863
-5.7308	-6.1144	-7.486	-5.4766	-4.0715	-7.1647	-3.9276	-0.7002	-3.4768	-0.4124	1.6785	0.8248	3.1747	0.2158	-1.2804	1.2037	-0.422	7.0639	0.1343	2.0621	2.8102
-5.7212	-6.0713	-7.4188	-5.4766	-4.0331	-7.1407	-3.9084	-0.6426	-3.3857	-0.3836	1.7552	0.9208	3.2131	0.2398	-1.314	1.2708	-0.4652	7.203	0.1199	2.1197	2.8294
-5.702	-6.0233	-7.3948	-5.4574	-3.9804	-7.0735	-3.8557	-0.5803	-3.2562	-0.3165	1.8607	1.0886	3.3282	0.2734	-1.3044	1.3524	-0.5131	7.2845	0.1199	2.1772	2.8774
-5.6492	-5.9466	-7.3661	-5.4143	-3.894	-7.0352	-3.8317	-0.5227	-3.1363	-0.2734	1.9278	1.2181	3.3905	0.3117	-1.2708	1.3763	-0.5851	7.3853	0.1391	2.1964	2.9301
-5.6396	-5.8746	-7.3373	-5.4238	-3.8221	-6.9584	-3.8029	-0.4508	-3.0356	-0.2638	2.0525	1.3524	3.4576	0.3261	-1.2373	1.3236	-0.6474	7.438	0.1678	2.1772	2.9829
-5.5965	-5.8123	-7.2893	-5.4143	-3.755	-6.9249	-3.7742	-0.3884	-2.9061	-0.2206	2.1676	1.4962	3.5104	0.3597	-1.1893	1.2708	-0.7098	7.5099	0.2062	2.1484	3.0548
-5.5581	-5.7547	-7.2318	-5.4143	-3.6974	-6.8865	-3.8029	-0.3501	-2.815	-0.211	2.23	1.6017	3.5631	0.4076	-1.1414	1.2037	-0.7865	7.5531	0.2398	2.0957	3.098
-5.5629	-5.7499	-7.203	-5.419	-3.6782	-6.8433	-3.7981	-0.3309	-2.7335	-0.2158	2.3259	1.736	3.6015	0.4412	-1.0982	1.0359	-0.8632	7.5579	0.2829	2.0285	3.1747
-5.5869	-5.7164	-7.1934	-5.443	-3.683	-6.8242	-3.8557	-0.3261	-2.6808	-0.2686	2.3834	1.8367	3.5967	0.4844	-1.0694	0.868	-0.9399	7.5723	0.2829	1.947	3.1843
-5.5917	-5.7499	-7.179	-5.4238	-3.6926	-6.8433	-3.8845	-0.3357	-2.5944	-0.2302	2.4841	1.9758	3.6399	0.4939	-1.0694	0.633	-0.9927	7.5723	0.2877	1.8751	3.2322
-5.6013	-5.7547	-7.2078	-5.4334	-3.7742	-6.829	-3.9612	-0.3405	-2.5705	-0.259	2.5225	2.0477	3.6926	0.5227	-1.1174	0.3836	-1.0406	7.5819	0.3117	1.7984	3.2898
-5.6205	-5.7979	-7.179	-5.4047	-3.8077	-6.805	-3.9228	-0.3405	-2.4841	-0.2734	2.6136	2.1772	3.7406	0.5611	-1.1414	0.1151	-1.0886	7.6011	0.3309	1.736	3.3282
-5.6588	-5.8363	-7.1934	-5.3567	-3.8317	-6.8002	-3.8605	-0.3597	-2.4362	-0.2014	2.6951	2.3019	3.7837	0.5803	-1.2133	-0.2062	-1.1126	7.5915	0.3741	1.6976	3.3857
-5.7116	-5.8555	-7.1742	-5.2896	-3.8509	-6.7666	-3.8461	-0.3261	-2.369	-0.1726	2.8198	2.417	3.8317	0.5755	-1.3572	-0.5371	-1.1366	7.5627	0.4556	1.6545	3.4481
-5.6972	-5.865	-7.1742	-5.1793	-3.8749	-6.7378	-3.7694	-0.3021	-2.2635	-0.0911	2.9301	2.5705	3.8988	0.6186	-1.4675	-0.8344	-1.1605	7.6059	0.4892	1.6497	3.5152
-5.7212	-5.8459	-7.1263	-5.0786	-3.8605	-6.6659	-3.6926	-0.2877	-2.206	-0.0432	3.026	2.6903	3.99	0.6186	-1.6305	-1.1701	-1.1701	7.5915	0.5371	1.6209	3.5631
-5.7595	-5.8602	-7.1119	-5.0306	-3.8653	-6.6132	-3.6207	-0.2686	-2.1149	0.0815	3.1028	2.8006	4.0907	0.5851	-1.8511	-1.4962	-1.1557	7.6202	0.5803	1.6401	3.6063
-5.7499	-5.865	-7.0879	-4.9059	-3.9084	-6.5604	-3.472	-0.2302	-2.0573	0.1487	3.2179	2.9445	4.1866	0.5755	-2.0813	-1.8367	-1.127	7.6298	0.6042	1.6401	3.6639
-5.7787	-5.8459	-7.0687	-4.7956	-3.8749	-6.4885	-3.3186	-0.1966	-1.9662	0.3021	3.2706	3.074	4.3209	0.5755	-2.2587	-2.1676	-1.1078	7.7066	0.6762	1.7312	3.731
-5.7547	-5.8315	-7.0448	-4.6709	-3.8605	-6.4165	-3.1747	-0.1535	-1.8559	0.4124	3.4049	3.2179	4.4503	0.5467	-2.5273	-2.5321	-1.0502	7.7593	0.705	1.7888	3.7885
-5.7787	-5.8315	-7.0016	-4.575	-3.8653	-6.3734	-3.074	-0.1631	-1.7984	0.5659	3.4768	3.3234	4.5319	0.5419	-2.7383	-2.8678	-1.0071	7.7929	0.7145	1.8223	3.8509
-5.8075	-5.8219	-7.0112	-4.5654	-3.8557	-6.3494	-3.0116	-0.1535	-1.7888	0.6234	3.544	3.4193	4.6182	0.5035	-2.9781	-3.2179	-0.9447	7.8169	0.7098	1.8607	3.8892
-5.8938	-5.8507	-6.992	-4.551	-3.8557	-6.3158	-2.9445	-0.1247	-1.7552	0.6858	3.5775	3.5008	4.7189	0.4604	-3.1891	-3.5871	-0.8872	7.8217	0.7481	1.9518	3.9372
-5.961	-5.8938	-7.0639	-4.5606	-3.8605	-6.335	-2.8966	-0.1535	-1.7408	0.7625	3.6303	3.5536	4.7429	0.4028	-3.4145	-3.8749	-0.7817	7.8073	0.7673	1.971	3.99
-5.9945	-5.8602	-7.0735	-4.5894	-3.8221	-6.2871	-2.8678	-0.0959	-1.6976	0.8057	3.6878	3.6111	4.786	0.3645	-3.6111	-4.1386	-0.7145	7.8312	0.7961	2.0142	4.0523
-6.0569	-5.8555	-7.0735	-4.5894	-3.7742	-6.2679	-2.839	-0.0575	-1.6545	0.8632	3.7358	3.6543	4.834	0.3261	-3.7837	-4.3784	-0.6186	7.8408	0.8584	2.0429	4.1146
-6.1144	-5.8459	-7.1167	-4.623	-3.7358	-6.2823	-2.8342	-0.0384	-1.6689	0.8824	3.8029	3.707	4.858	0.2734	-3.9564	-4.5223	-0.5131	7.8312	0.9351	2.0813	4.1962
-6.1528	-5.8363	-7.1503	-4.6853	-3.6878	-6.2487	-2.8774	0.0144	-1.6689	0.8872	3.8413	3.7262	4.8867	0.211	-4.1051	-4.623	-0.4124	7.7881	0.9639	2.1005	4.2393
-6.2439	-5.889	-7.1934	-4.7716	-3.6447	-6.311	-2.9685	0.0432	-1.6881	0.8824	3.8845	3.6974	4.8867	0.1535	-4.2537	-4.647	-0.2973	7.7401	1.0311	2.0717	4.2825
-6.2823	-5.8986	-7.2366	-4.8676	-3.6591	-6.335	-3.0308	0.0336	-1.6785	0.8488	3.9036	3.731	4.8676	0.1199	-4.3544	-4.6134	-0.2014	7.673	1.0742	2.0477	4.34
-6.3062	-5.9082	-7.2893	-4.9874	-3.6495	-6.3638	-3.1219	0.0575	-1.6881	0.8153	3.942	3.7022	4.8196	0.0959	-4.412	-4.4647	-0.1391	7.6106	1.1509	2.0285	4.4168
-6.335	-5.9322	-7.3565	-5.0977	-3.6591	-6.359	-3.2322	0.0432	-1.7264	0.7673	3.9708	3.6878	4.8004	0.0336	-4.4407	-4.3065	-0.0384	7.4956	1.1797	1.9854	4.4551
-6.3542	-5.9418	-7.3757	-5.1745	-3.6543	-6.4117	-3.3234	0.0432	-1.7312	0.705	3.99	3.683	4.7285	0.0192	-4.4264	-4.0571	0.0048	7.39	1.1989	1.9566	4.4791
-6.3398	-5.9178	-7.3948	-5.2752	-3.6255	-6.4069	-3.4576	0.0911	-1.7408	0.6186	4.0331	3.6782	4.6757	-0.0048	-4.3496	-3.7358	0.0623	7.2654	1.2181	1.8847	4.5175
-6.2919	-5.8938	-7.4092	-5.3903	-3.6063	-6.4213	-3.5823	0.0767	-1.736	0.5371	4.0619	3.6495	4.6182	-0.0336	-4.201	-3.3713	0.1007	7.1263	1.29	1.8175	4.5894
-6.2871	-5.9082	-7.462	-5.4958	-3.6015	-6.4501	-3.7118	0.0863	-1.7648	0.446	4.0619	3.6447	4.4935	-0.0623	-4.0907	-3.0164	0.1583	6.9872	1.2852	1.7216	4.6182
-6.2487	-5.913	-7.5099	-5.6253	-3.6351	-6.4789	-3.8413	0.0767	-1.7744	0.3549	4.0715	3.5919	4.4599	-0.0719	-3.9564	-2.5944	0.187	6.8673	1.3332	1.6353	4.6326
-6.1863	-5.9322	-7.5483	-5.7452	-3.7022	-6.5077	-3.9995	0.0671	-1.784	0.2686	4.0763	3.5775	4.364	-0.0959	-3.755	-2.1676	0.211	6.7091	1.2852	1.5969	4.6565
-6.1624	-5.9897	-7.6011	-5.8315	-3.7598	-6.594	-4.1578	-0.0336	-1.8415	0.1726	4.0187	3.496	4.2345	-0.1151	-3.5631	-1.7168	0.2398	6.5412	1.1989	1.4818	4.6038
-6.1336	-6.0521	-7.6634	-5.9466	-3.8557	-6.6515	-4.2873	-0.1295	-1.9039	0.0623	3.9708	3.4289	4.153	-0.1151	-3.333	-1.2469	0.2542	6.3542	1.1414	1.3955	4.5846
-6.1192	-6.1096	-7.7833	-6.0665	-3.9995	-6.7714	-4.3976	-0.2446	-1.971	-0.0288	3.8605	3.3569	4.0427	-0.1295	-3.1172	-0.7433	0.2734	6.2007	1.0119	1.3188	4.4887
-6.124	-6.1863	-7.8312	-6.124	-4.1818	-6.7954	-4.4695	-0.4076	-2.0525	-0.1007	3.7646	3.261	3.9372	-0.1487	-2.9109	-0.3117	0.3357	6.0233	0.8728	1.2277	4.3352
-6.1384	-6.3062	-7.9224	-6.1911	-4.3448	-6.9105	-4.5558	-0.5611	-2.1293	-0.1918	3.6495	3.1843	3.7837	-0.1918	-2.7191	0.1439	0.3741	5.8363	0.7337	1.1366	4.2489
-6.1384	-6.3926	-8.047	-6.2151	-4.4935	-7.0016	-4.5846	-0.6666	-2.2108	-0.2398	3.5344	3.0836	3.7022	-0.211	-2.5081	0.5707	0.4412	5.6492	0.6186	1.0742	4.1242
-6.1816	-6.4981	-8.1573	-6.2391	-4.6661	-7.1167	-4.6422	-0.8201	-2.2683	-0.2829	3.4337	3.0404	3.6159	-0.2494	-2.3115	0.9447	0.4939	5.4766	0.5035	0.9975	4.0091
-6.2295	-6.618	-8.2581	-6.3254	-4.8484	-7.2462	-4.6709	-0.9687	-2.3451	-0.3309	3.3138	2.9685	3.5296	-0.2686	-2.158	1.266	0.5707	5.3088	0.3884	0.9208	3.8701
-6.3302	-6.7426	-8.4115	-6.4309	-5.0354	-7.3469	-4.786	-1.0934	-2.4697	-0.4652	3.2131	2.8822	3.3857	-0.3117	-1.9902	1.5058	0.633	5.1169	0.2781	0.7913	3.7406
-6.4069	-6.8673	-8.5602	-6.522	-5.1985	-7.462	-4.8867	-1.2469	-2.5465	-0.5467	3.0932	2.8102	3.2802	-0.3357	-1.8511	1.7408	0.6954	4.8915	0.1678	0.6474	3.5871
-6.5268	-6.9968	-8.7184	-6.618	-5.3519	-7.6298	-5.0162	-1.4147	-2.6232	-0.6762	2.9973	2.7623	3.1363	-0.3741	-1.7216	1.8319	0.7577	4.6805	0.0767	0.5275	3.4481
-6.6515	-7.1071	-8.8719	-6.7762	-5.5293	-7.7737	-5.1601	-1.525	-2.7191	-0.7913	2.8438	2.6855	3.0164	-0.3932	-1.6689	1.8271	0.7913	4.4695	-0.0288	0.3836	3.2994
-6.8338	-7.2989	-9.0589	-6.9105	-5.6828	-7.9415	-5.3088	-1.6785	-2.839	-0.8824	2.7383	2.6328	2.9109	-0.4124	-1.6689	1.7216	0.8344	4.2633	-0.1583	0.2398	3.1124
-6.9968	-7.4044	-9.2412	-7.0735	-5.8363	-8.0566	-5.4095	-1.7408	-2.9205	-1.0071	2.6232	2.5896	2.8054	-0.4172	-1.6497	1.5442	0.8488	4.1003	-0.2446	0.1247	3.0069
-7.1455	-7.5147	-9.4042	-7.1982	-5.9466	-8.1957	-5.5533	-1.8319	-2.9973	-1.103	2.5465	2.5465	2.7143	-0.4268	-1.7312	1.2517	0.8632	3.8701	-0.3549	0	2.8774
-7.3421	-7.673	-9.596	-7.3517	-6.0665	-8.354	-5.6924	-1.9326	-3.1028	-1.2085	2.4554	2.5177	2.5944	-0.4316	-1.8703	0.8248	0.8824	3.7022	-0.4316	-0.1103	2.7575
-7.486	-7.7833	-9.7543	-7.462	-6.1672	-8.4451	-5.7883	-1.9998	-3.1603	-1.3044	2.3978	2.4937	2.4889	-0.4364	-2.0142	0.3693	0.8776	3.5248	-0.5371	-0.1966	2.6616
-7.6826	-7.9128	-9.9413	-7.6011	-6.2535	-8.5985	-5.8746	-2.0477	-3.2275	-1.338	2.3451	2.4889	2.4793	-0.422	-2.2204	-0.1487	0.868	3.3857	-0.5851	-0.2829	2.5992
-7.8456	-8.0183	-10.0948	-7.7353	-6.2966	-8.7088	-6.0089	-2.0573	-3.2514	-1.4147	2.2971	2.5081	2.4122	-0.4268	-2.4362	-0.6858	0.8632	3.2754	-0.657	-0.3597	2.5225
-7.9799	-8.1046	-10.2722	-7.7977	-6.3638	-8.7904	-6.0473	-2.0669	-3.2898	-1.4627	2.2635	2.4841	2.369	-0.4316	-2.7143	-1.2565	0.8584	3.1843	-0.7289	-0.4076	2.4074
-8.1382	-8.1957	-10.3729	-7.8648	-6.3686	-8.8383	-6.0521	-2.0909	-3.2946	-1.4435	2.2252	2.5033	2.3499	-0.4316	-2.9829	-1.7696	0.8488	3.0836	-0.7817	-0.4364	2.3115
-8.2581	-8.2676	-10.4976	-7.8984	-6.3974	-8.8767	-6.0473	-2.0765	-3.2898	-1.4291	2.1964	2.5321	2.3834	-0.4028	-3.2706	-2.2827	0.8248	3.0164	-0.8248	-0.4076	2.2635
-8.4019	-8.3396	-10.5935	-7.9032	-6.4357	-8.9103	-6.0137	-2.0621	-3.3042	-1.4003	2.1964	2.5513	2.3786	-0.398	-3.52	-2.8102	0.8009	2.9637	-0.8296	-0.4028	2.2108
-8.4835	-8.4163	-10.7086	-7.908	-6.4837	-8.9199	-5.9801	-2.0525	-3.2898	-1.4003	2.1628	2.5896	2.4074	-0.3741	-3.7454	-3.2466	0.7625	2.9733	-0.8872	-0.3741	2.1484
-8.5938	-8.4643	-10.7758	-7.8504	-6.4837	-8.939	-5.913	-2.0333	-3.2514	-1.3476	2.1628	2.6328	2.4362	-0.3309	-3.9564	-3.6686	0.681	2.9541	-0.8968	-0.3069	2.0909
-8.6849	-8.5218	-10.8621	-7.8744	-6.522	-8.9151	-5.8746	-2.0381	-3.2514	-1.338	2.1149	2.6232	2.4506	-0.3213	-4.1386	-4.0763	0.6378	2.9109	-0.9495	-0.3165	1.9806
-8.7904	-8.6177	-10.9196	-7.8456	-6.5316	-8.8863	-5.8219	-2.0573	-3.2179	-1.29	2.0717	2.6712	2.4697	-0.2734	-4.2873	-4.3976	0.5707	2.8918	-1.0263	-0.2877	1.8991
-8.8671	-8.6465	-10.9532	-7.7929	-6.5556	-8.8527	-5.7499	-2.0621	-3.1699	-1.2373	2.0142	2.6664	2.5081	-0.2398	-4.4072	-4.6757	0.5179	2.8774	-1.079	-0.2829	1.784
-8.9055	-8.6897	-11.0059	-7.7066	-6.5652	-8.7856	-5.6205	-2.0621	-3.1267	-1.1414	2.0094	2.7095	2.5561	-0.211	-4.4935	-4.8628	0.446	2.9157	-1.1174	-0.1966	1.7216
-8.9438	-8.7376	-10.9916	-7.625	-6.5748	-8.704	-5.515	-2.0477	-3.026	-1.0119	1.9326	2.7527	2.6184	-0.187	-4.5558	-5.0354	0.3884	2.9205	-1.1893	-0.1055	1.6017
-8.9294	-8.7232	-10.9724	-7.4524	-6.5172	-8.5842	-5.304	-2.0333	-2.9349	-0.8728	1.9039	2.7719	2.7287	-0.1439	-4.5702	-5.1265	0.3021	2.9925	-1.2756	-0.0048	1.5442
-8.9438	-8.7712	-10.9676	-7.4044	-6.5172	-8.4978	-5.1745	-2.0525	-2.839	-0.7769	1.8415	2.8198	2.8198	-0.1199	-4.5558	-5.1841	0.2542	3.0404	-1.3572	0.1007	1.4387
-8.9774	-8.8527	-10.934	-7.3565	-6.5316	-8.4019	-5.069	-2.1005	-2.7623	-0.6618	1.7792	2.8294	2.8678	-0.0863	-4.5606	-5.2176	0.1918	3.1028	-1.4818	0.1678	1.3332
-8.987	-8.8959	-10.9196	-7.2941	-6.5556	-8.3012	-4.9635	-2.1005	-2.7047	-0.5755	1.6881	2.8486	2.9157	-0.0671	-4.5319	-5.1985	0.1535	3.098	-1.5874	0.211	1.2517
-9.0014	-8.9966	-10.9244	-7.2845	-6.5604	-8.2053	-4.8723	-2.1676	-2.6376	-0.4796	1.5969	2.8438	2.9733	-0.024	-4.5079	-5.1505	0.0863	3.1507	-1.7552	0.2877	1.103
-9.0445	-9.0637	-10.9436	-7.2989	-6.6419	-8.1286	-4.8292	-2.2348	-2.58	-0.4268	1.4962	2.8054	2.9973	0.0096	-4.4887	-5.0882	0.0192	3.1363	-1.9326	0.2638	0.9831
-9.0397	-9.1405	-10.9292	-7.3277	-6.6659	-8.071	-4.7716	-2.3163	-2.5177	-0.3645	1.3668	2.7719	3.0069	0.024	-4.4743	-4.9683	-0.0432	3.1459	-2.1053	0.211	0.8584
-9.1117	-9.2699	-10.9484	-7.3709	-6.7187	-8.0231	-4.7525	-2.3834	-2.4889	-0.3117	1.2852	2.7479	3.0548	0.0623	-4.4599	-4.834	-0.1295	3.1219	-2.2827	0.1822	0.7385
-9.1884	-9.3898	-10.9964	-7.4476	-6.781	-8.0039	-4.7764	-2.4649	-2.4889	-0.3213	1.1653	2.6999	3.0404	0.1007	-4.551	-4.7189	-0.1918	3.1076	-2.4745	0.0863	0.6138
-9.2747	-9.4809	-11.0155	-7.5627	-6.8338	-7.9559	-4.7908	-2.5609	-2.4745	-0.3501	1.0598	2.6664	3.0069	0.1391	-4.5942	-4.5606	-0.2638	3.0596	-2.6184	0.0192	0.47
-9.4042	-9.6296	-11.0875	-7.697	-6.9345	-7.9511	-4.8628	-2.676	-2.4985	-0.3884	0.9208	2.5705	2.9397	0.1774	-4.6853	-4.4551	-0.3357	3.0164	-2.7911	-0.0671	0.3213
-9.5097	-9.7591	-11.1594	-7.8504	-7.0208	-7.9415	-4.9539	-2.7767	-2.5369	-0.446	0.7625	2.4889	2.9061	0.2254	-4.786	-4.3209	-0.4124	2.9445	-2.9493	-0.1535	0.1774
-9.6488	-9.903	-11.2265	-7.9895	-7.1119	-7.9751	-5.045	-2.9205	-2.5848	-0.5179	0.5947	2.3882	2.8246	0.2494	-4.8484	-4.1818	-0.47	2.863	-3.1172	-0.2829	0.0288
-9.7591	-10.0468	-11.3081	-8.1909	-7.227	-8.0039	-5.1697	-3.0644	-2.628	-0.5899	0.446	2.3163	2.7671	0.2925	-4.9826	-4.0427	-0.5275	2.8006	-3.2994	-0.3693	-0.1487
-9.879	-10.1619	-11.38	-8.3252	-7.3085	-8.0375	-5.2416	-3.1939	-2.652	-0.657	0.3309	2.2204	2.6951	0.3165	-5.0738	-3.8988	-0.5755	2.7047	-3.4576	-0.446	-0.3165
-9.9749	-10.2578	-11.4471	-8.4259	-7.4188	-8.0423	-5.3183	-3.333	-2.7239	-0.7385	0.1583	2.1101	2.628	0.3261	-5.1121	-3.7358	-0.6042	2.6328	-3.6111	-0.5659	-0.4748
-10.0516	-10.3202	-11.4663	-8.517	-7.4908	-8.0423	-5.3903	-3.4433	-2.7383	-0.7769	0.048	2.0621	2.6136	0.3261	-5.0929	-3.5488	-0.6378	2.5561	-3.7502	-0.6186	-0.6138
-10.0948	-10.3585	-11.4711	-8.565	-7.5195	-8.0375	-5.4143	-3.544	-2.7719	-0.7913	-0.0575	1.9758	2.5752	0.3501	-5.0546	-3.3713	-0.6666	2.5129	-3.8269	-0.7193	-0.705
-10.1379	-10.3825	-11.4711	-8.6609	-7.5771	-8.0327	-5.4622	-3.6447	-2.7815	-0.8392	-0.1678	1.9182	2.5177	0.3501	-5.0114	-3.1699	-0.681	2.4458	-3.9276	-0.7913	-0.8105
-10.1331	-10.3777	-11.4663	-8.6705	-7.5867	-7.9991	-5.491	-3.731	-2.815	-0.8392	-0.2398	1.8703	2.5033	0.3597	-4.9683	-3.0164	-0.6858	2.3882	-4.0043	-0.8344	-0.8872
-10.1044	-10.3777	-11.4471	-8.6897	-7.6011	-7.9703	-5.4814	-3.7502	-2.7815	-0.8584	-0.3117	1.784	2.4889	0.3741	-4.8723	-2.8294	-0.6906	2.3499	-4.0907	-0.8968	-0.9591
-10.0804	-10.3873	-11.4088	-8.6801	-7.5915	-7.9128	-5.443	-3.7933	-2.7767	-0.8392	-0.3741	1.7648	2.4602	0.3549	-4.7668	-2.676	-0.681	2.3211	-4.1482	-0.892	-1.0215
-10.0324	-10.3346	-11.3512	-8.6657	-7.5963	-7.8696	-5.4478	-3.8269	-2.7767	-0.8248	-0.4412	1.7168	2.441	0.3597	-4.6182	-2.4937	-0.6858	2.2971	-4.153	-0.9304	-1.0502
-10.0133	-10.325	-11.3081	-8.6225	-7.5771	-7.8312	-5.419	-3.8653	-2.7719	-0.7865	-0.4844	1.6929	2.4458	0.3549	-4.5462	-2.4074	-0.6666	2.2731	-4.2106	-0.9256	-1.1078
-9.9365	-10.2195	-11.2361	-8.5554	-7.4812	-7.7833	-5.3519	-3.8413	-2.7431	-0.7769	-0.5179	1.6641	2.417	0.3357	-4.4072	-2.3067	-0.6474	2.23	-4.2106	-0.9399	-1.1222
-9.9173	-10.1619	-11.2074	-8.5218	-7.4476	-7.7114	-5.304	-3.8413	-2.7047	-0.7193	-0.5515	1.6209	2.4362	0.3165	-4.2873	-2.1964	-0.6186	2.2012	-4.2153	-0.9639	-1.1366
-9.8214	-10.0468	-11.0875	-8.3971	-7.3373	-7.625	-5.2128	-3.8173	-2.6424	-0.6282	-0.5707	1.6161	2.441	0.3069	-4.1242	-2.0717	-0.5707	2.1724	-4.1626	-0.9399	-1.1078
-9.7639	-9.9461	-11.0299	-8.2868	-7.2174	-7.5195	-5.0498	-3.755	-2.5896	-0.5371	-0.5803	1.6257	2.4745	0.2925	-3.9756	-1.9614	-0.5419	2.1724	-4.129	-0.892	-1.103
-9.7303	-9.807	-10.9388	-8.1621	-7.1071	-7.3948	-4.9203	-3.6878	-2.5129	-0.4268	-0.5467	1.6545	2.5177	0.2542	-3.8653	-1.8943	-0.4748	2.1245	-4.0475	-0.8968	-1.0934
-9.6488	-9.6536	-10.8477	-7.9847	-6.9249	-7.2558	-4.7141	-3.6063	-2.4074	-0.2877	-0.5083	1.6881	2.5609	0.235	-3.6974	-1.8223	-0.4268	2.1388	-3.9228	-0.8201	-1.0454
-9.596	-9.4809	-10.7662	-7.86	-6.7378	-7.0831	-4.551	-3.4672	-2.2779	-0.1535	-0.4748	1.7408	2.6472	0.2014	-3.6015	-1.7648	-0.3405	2.0909	-3.7598	-0.7769	-0.9735
-9.4809	-9.2651	-10.5887	-7.6682	-6.5077	-6.8721	-4.3065	-3.2946	-2.1053	0.0528	-0.3836	1.8799	2.7623	0.1535	-3.4672	-1.712	-0.2877	2.1245	-3.5344	-0.6906	-0.8584
-9.385	-9.0493	-10.4832	-7.4812	-6.2679	-6.7043	-4.0763	-3.1315	-1.8895	0.2686	-0.2686	1.9758	2.8822	0.1343	-3.4337	-1.6881	-0.2302	2.1676	-3.3857	-0.5659	-0.7529
-9.2891	-8.8335	-10.3058	-7.251	-6.0329	-6.3926	-3.8461	-2.9157	-1.6833	0.4987	-0.1295	2.1628	3.0164	0.1103	-3.3617	-1.6353	-0.1726	2.2156	-3.1891	-0.422	-0.6138
-9.1644	-8.5554	-10.0804	-7.0352	-5.7308	-6.1192	-3.5392	-2.7047	-1.4147	0.7913	0.0144	2.3546	3.1987	0.0911	-3.3042	-1.5826	-0.1151	2.3115	-3.0021	-0.2973	-0.4748
-9.0541	-8.282	-9.8742	-6.805	-5.4478	-5.8459	-3.2562	-2.4697	-1.1605	1.0694	0.1631	2.5417	3.4049	0.0528	-3.3042	-1.573	-0.0575	2.3642	-2.8006	-0.1583	-0.2877
-8.9103	-8.0087	-9.6776	-6.57	-5.1505	-5.5533	-2.9973	-2.2348	-0.868	1.3859	0.3597	2.7863	3.6111	0.0144	-3.2994	-1.5346	0.0192	2.5033	-2.6616	0.024	-0.1583
-8.7808	-7.7257	-9.4426	-6.3926	-4.8628	-5.232	-2.6855	-1.971	-0.5659	1.6976	0.5275	3.0212	3.8173	-0.0336	-3.3042	-1.5586	0.0959	2.58	-2.4889	0.1631	0.0096
-8.6369	-7.4476	-9.222	-6.1768	-4.5942	-4.9395	-2.4122	-1.76	-0.2877	1.947	0.6714	3.1843	4.0139	-0.0815	-3.3809	-1.6449	0.1678	2.7287	-2.3546	0.2829	0.1295
-8.4882	-7.1647	-8.9582	-5.9897	-4.3065	-4.5942	-2.1293	-1.5346	0.0192	2.2539	0.844	3.4672	4.2441	-0.1151	-3.4528	-1.6881	0.2542	2.8342	-2.2396	0.398	0.2542
-8.3252	-6.8721	-8.6897	-5.7691	-4.0571	-4.2441	-1.8511	-1.3236	0.3309	2.5752	0.9975	3.683	4.4743	-0.1391	-3.5056	-1.784	0.3213	2.9397	-2.1484	0.5275	0.3453
-8.1957	-6.6275	-8.4115	-5.5725	-3.7933	-3.942	-1.5826	-1.079	0.5899	2.863	1.1749	3.9084	4.6901	-0.1822	-3.5919	-1.9087	0.3932	3.0692	-2.0333	0.6138	0.4556
-8.0183	-6.3398	-8.1334	-5.3519	-3.5296	-3.5727	-1.2517	-0.8728	0.9447	3.1651	1.3572	4.1434	4.9011	-0.2254	-3.731	-2.0525	0.47	3.1795	-1.9374	0.7098	0.5851
-7.9128	-6.0952	-7.8696	-5.1025	-3.2658	-3.237	-0.9399	-0.6282	1.2756	3.4912	1.549	4.4407	5.1313	-0.2446	-3.8509	-2.2252	0.5227	3.2802	-1.8223	0.8488	0.681
-7.7785	-5.8267	-7.5675	-4.9059	-3.0644	-2.9061	-0.6762	-0.4076	1.5778	3.7742	1.6833	4.6565	5.3327	-0.2781	-3.9852	-2.369	0.5803	3.3569	-1.7456	0.9351	0.7865
-7.6442	-5.5869	-7.2989	-4.6949	-2.815	-2.5657	-0.4076	-0.2158	1.8847	4.0763	1.9135	4.9155	5.5581	-0.3069	-4.1674	-2.5273	0.633	3.4481	-1.6785	1.055	0.844
-7.5003	-5.3279	-6.9968	-4.4599	-2.5896	-2.2491	-0.0671	0	2.2396	4.3592	2.0621	5.1745	5.7452	-0.3069	-4.34	-2.6903	0.6378	3.5296	-1.5538	1.1701	0.9399
-7.3805	-5.1025	-6.7187	-4.2441	-2.3499	-1.8943	0.1918	0.2014	2.5321	4.6613	2.2635	5.419	5.9562	-0.3261	-4.5031	-2.8534	0.6714	3.6399	-1.4675	1.2421	1.055
-7.2606	-4.8867	-6.4357	-4.0331	-2.1436	-1.5969	0.4412	0.4076	2.8342	4.9107	2.4266	5.654	6.1672	-0.3501	-4.6805	-3.0404	0.7145	3.7022	-1.3668	1.314	1.1222
-7.1263	-4.6326	-6.1576	-3.8173	-1.947	-1.266	0.7002	0.609	3.1076	5.1313	2.6184	5.913	6.3398	-0.3789	-4.8532	-3.1987	0.7481	3.8029	-1.2565	1.4147	1.2229
-6.9968	-4.412	-5.8698	-3.6207	-1.712	-0.9831	0.9639	0.7865	3.4097	5.3759	2.8102	6.1384	6.5508	-0.3932	-5.0498	-3.3473	0.8009	3.8797	-1.1509	1.4771	1.2996
-6.8242	-4.1482	-5.5917	-3.3761	-1.4771	-0.6858	1.2229	1.0646	3.6686	5.654	3.0692	6.4117	6.7378	-0.4268	-5.1841	-3.4241	0.8488	3.9756	-0.9975	1.6209	1.4866
-6.6659	-3.8988	-5.28	-3.1459	-1.2085	-0.4124	1.4291	1.2708	3.9228	5.865	3.2706	6.6563	6.9728	-0.446	-5.3471	-3.5583	0.8968	4.0187	-0.9447	1.6833	1.573
-6.5172	-3.7262	-5.0594	-2.9877	-1.0311	-0.1535	1.6545	1.501	4.1578	6.0856	3.4912	6.8721	7.1263	-0.4604	-5.443	-3.6015	0.9256	4.1482	-0.8153	1.7648	1.7168
-6.383	-3.5056	-4.7764	-2.7527	-0.7961	0.1247	1.8607	1.76	4.4312	6.2775	3.7118	7.0783	7.3037	-0.47	-5.5293	-3.683	0.9399	4.2297	-0.6762	1.8367	1.8703
-6.2535	-3.3665	-4.5415	-2.5609	-0.5803	0.3213	2.019	1.947	4.6086	6.4309	3.9516	7.3037	7.438	-0.4796	-5.6301	-3.7262	0.9735	4.3209	-0.6138	1.9135	1.9902
-6.1336	-3.2227	-4.2969	-2.3882	-0.4172	0.5371	2.1916	2.1916	4.8436	6.6084	4.177	7.4956	7.6346	-0.4748	-5.7164	-3.755	0.9687	4.4024	-0.4939	1.971	2.1053
-5.9945	-3.098	-4.0859	-2.2252	-0.211	0.7433	2.3546	2.4314	5.0306	6.7762	4.4024	7.7162	7.7929	-0.4652	-5.7739	-3.7885	0.9639	4.4983	-0.4124	2.0525	2.2683
-5.889	-2.9829	-3.8892	-2.0142	0	0.9399	2.5465	2.6472	5.256	6.9441	4.6518	7.9176	7.9703	-0.4508	-5.7883	-3.7598	0.9399	4.599	-0.2638	2.1388	2.4314
-5.7883	-2.8678	-3.6974	-1.8415	0.1487	1.1174	2.6664	2.8582	5.3807	7.0639	4.8771	8.1094	8.1334	-0.4604	-5.8123	-3.755	0.9399	4.647	-0.2062	2.2012	2.5369
-5.6636	-2.7719	-3.4912	-1.6881	0.3357	1.3236	2.8342	3.0836	5.5821	7.2222	5.1025	8.3348	8.282	-0.4604	-5.8171	-3.7358	0.916	4.7285	-0.1055	2.2827	2.676
-5.5821	-2.7191	-3.3186	-1.5346	0.5179	1.4866	2.9685	3.285	5.7404	7.3373	5.3088	8.5122	8.4643	-0.4412	-5.8075	-3.7022	0.8968	4.81	-0.0144	2.3499	2.8054
-5.515	-2.5944	-3.1747	-1.4243	0.6714	1.6785	3.098	3.496	5.8986	7.438	5.5246	8.6897	8.5602	-0.422	-5.7835	-3.6543	0.8728	4.8628	0.0671	2.417	2.9013
-5.4478	-2.5273	-3.0069	-1.2852	0.8248	1.8271	3.2227	3.6734	6.0425	7.5579	5.7116	8.8383	8.7088	-0.4172	-5.7979	-3.6495	0.8392	4.9107	0.1055	2.4362	2.9877
-5.3711	-2.4649	-2.8582	-1.2037	0.9879	2.0238	3.309	3.8797	6.1959	7.6394	5.9034	9.0062	8.8287	-0.3789	-5.8075	-3.6255	0.7817	4.9587	0.1774	2.4937	3.1172
-5.2752	-2.3594	-2.6951	-1.0502	1.1749	2.1916	3.4289	4.0427	6.3494	7.7257	6.0952	9.1405	8.9151	-0.3597	-5.8219	-3.6159	0.7481	4.9922	0.2542	2.5465	3.1939
-5.1985	-2.2875	-2.5609	-0.9351	1.2996	2.3546	3.5152	4.2489	6.4837	7.8121	6.2679	9.3323	9.0302	-0.3549	-5.9082	-3.6207	0.7098	5.0498	0.3309	2.604	3.3042
-5.0882	-2.1676	-2.4074	-0.8296	1.4435	2.5513	3.6543	4.4168	6.6419	7.8936	6.4549	9.4809	9.174	-0.3261	-5.9178	-3.6351	0.6426	5.1361	0.4076	2.6568	3.3569
-5.0066	-2.1101	-2.2587	-0.7002	1.5921	2.6808	3.7598	4.5606	6.7906	7.9559	6.6036	9.5721	9.2412	-0.2973	-6.0185	-3.6878	0.5851	5.1985	0.5275	2.6616	3.4816
-4.8963	-2.0333	-2.158	-0.5563	1.7312	2.8726	3.8845	4.7333	6.9536	8.0854	6.757	9.7639	9.3706	-0.2494	-6.0713	-3.7022	0.5179	5.28	0.6234	2.7671	3.5536
-4.7764	-1.9614	-1.9806	-0.4508	1.8463	3.0452	3.9708	4.8676	7.0735	8.1478	6.8865	9.879	9.4666	-0.2062	-6.0856	-3.7022	0.446	5.3759	0.7145	2.8342	3.6351
-4.6613	-1.8751	-1.8847	-0.3453	1.9422	3.1699	4.1003	5.0162	7.2318	8.2485	7.0256	10.0037	9.5625	-0.1726	-6.1	-3.6782	0.3693	5.4526	0.7721	2.9061	3.7454
-4.5558	-1.8223	-1.8032	-0.2206	2.0238	3.2898	4.1818	5.1265	7.3517	8.3156	7.1407	10.1571	9.6872	-0.1487	-6.1048	-3.683	0.3117	5.5725	0.8105	2.9685	3.7933
-4.4695	-1.7216	-1.7216	-0.1822	2.1053	3.4193	4.2441	5.2032	7.4332	8.3923	7.2702	10.277	9.8022	-0.1439	-6.0617	-3.7118	0.259	5.7068	0.868	3.0596	3.8892
-4.3928	-1.6593	-1.6449	-0.1055	2.2108	3.5344	4.3113	5.3183	7.5771	8.4835	7.4044	10.3969	9.903	-0.0911	-6.0808	-3.731	0.2158	5.8219	0.916	3.1172	3.9708
-4.3544	-1.549	-1.6017	-0.0863	2.3115	3.6351	4.3976	5.4238	7.6634	8.5746	7.5147	10.5168	10.0228	-0.0863	-6.0329	-3.7646	0.1726	5.9753	0.9735	3.2083	4.0523
-4.2537	-1.4339	-1.5346	-0.048	2.417	3.7262	4.4599	5.5629	7.8025	8.6801	7.6442	10.6463	10.1619	-0.0623	-6.0041	-3.8221	0.1391	6.1096	0.9687	3.285	4.129
-4.2777	-1.3476	-1.5778	-0.0432	2.4649	3.7933	4.5271	5.6396	7.836	8.7424	7.7689	10.771	10.2578	-0.048	-5.9993	-3.918	0.1151	6.2151	1.055	3.3425	4.2585
-4.2681	-1.2756	-1.5874	-0.0671	2.5896	3.8557	4.5846	5.7212	7.9799	8.8383	7.8936	10.8861	10.3921	-0.0384	-5.9801	-3.9948	0.1103	6.359	1.0934	3.4001	4.3161
-4.3161	-1.2229	-1.6209	-0.1007	2.6424	3.894	4.6374	5.8219	8.0183	8.8815	8.0231	11.0012	10.4497	-0.048	-5.9705	-4.0859	0.1151	6.4549	1.1557	3.4433	4.4072
-4.3592	-1.1414	-1.6353	-0.1007	2.7575	3.966	4.7285	5.9418	8.1286	8.9774	8.1382	11.0827	10.5695	-0.0384	-5.9753	-4.1914	0.1007	6.5364	1.1941	3.4576	4.4983
-4.4599	-1.1509	-1.736	-0.1199	2.7671	3.9708	4.7621	5.9705	8.1765	9.0541	8.2533	11.1978	10.6463	-0.0336	-6.0089	-4.2873	0.1007	6.6275	1.2373	3.4624	4.5223
-4.5654	-1.2085	-1.8751	-0.1966	2.7575	3.9804	4.8148	6.0185	8.2101	9.1021	8.3156	11.2745	10.6703	-0.0336	-6.0233	-4.3592	0.0911	6.6851	1.2085	3.52	4.599
-4.7093	-1.2708	-2.0046	-0.3069	2.7047	3.9564	4.7908	6.0281	8.2149	9.0829	8.3444	11.3177	10.6942	-0.0288	-6.0281	-4.4312	0.0575	6.6803	1.1605	3.4528	4.5654
-4.8771	-1.3859	-2.1532	-0.422	2.6424	3.8845	4.8004	6.0281	8.2389	9.1165	8.3732	11.332	10.6798	-0.0048	-6.0473	-4.4935	0.024	6.7091	1.1222	3.4001	4.5894
-5.0786	-1.5346	-2.3642	-0.5515	2.5417	3.8509	4.7477	5.9945	8.2101	9.0925	8.3779	11.3177	10.6415	0.0336	-6.0856	-4.5127	-0.024	6.6803	1.0311	3.333	4.5367
-5.2944	-1.7408	-2.58	-0.7098	2.3882	3.7406	4.7189	5.9082	8.1717	9.0541	8.3204	11.2793	10.5552	0.048	-6.1336	-4.5127	-0.0575	6.6228	0.9399	3.285	4.5079
-5.5293	-1.9614	-2.7911	-0.8584	2.2156	3.6255	4.623	5.7739	8.0327	8.9342	8.2341	11.1978	10.4449	0.0623	-6.2007	-4.5415	-0.0815	6.546	0.8057	3.1267	4.4455
-5.726	-2.1916	-3.0356	-1.0023	1.9902	3.472	4.4983	5.6253	7.9607	8.8431	8.1573	11.0923	10.3058	0.0815	-6.2487	-4.5223	-0.1103	6.4645	0.6522	3.0452	4.3544
-5.9274	-2.417	-3.2418	-1.1653	1.8607	3.3569	4.3832	5.5006	7.8408	8.7328	8.0662	11.0012	10.1619	0.0671	-6.3254	-4.4983	-0.1295	6.3782	0.5707	2.9301	4.2825
-6.1768	-2.6712	-3.4576	-1.3284	1.6209	3.1987	4.2489	5.3663	7.7018	8.5842	7.9463	10.8813	9.9845	0.0815	-6.3926	-4.4168	-0.1439	6.2727	0.47	2.7911	4.2441
-6.4165	-2.9781	-3.7502	-1.5394	1.3715	2.9925	4.0667	5.1361	7.5243	8.3875	7.8025	10.7182	9.8118	0.0767	-6.5077	-4.3976	-0.1247	6.1576	0.3357	2.6712	4.1482
-6.6228	-3.2275	-3.966	-1.6737	1.1174	2.8198	3.9228	4.9491	7.3661	8.2533	7.6586	10.5935	9.6056	0.0863	-6.6036	-4.364	-0.1295	6.0617	0.211	2.5657	4.0475
-6.8433	-3.4672	-4.1626	-1.8175	0.8968	2.6568	3.7598	4.7812	7.179	8.0662	7.4956	10.3969	9.4138	0.0719	-6.7043	-4.3688	-0.1247	5.9945	0.1055	2.4266	3.9612
-7.0592	-3.7022	-4.3736	-2.0238	0.657	2.4506	3.5679	4.5415	7.0256	7.9032	7.3805	10.2482	9.2555	0.0575	-6.8433	-4.412	-0.0863	5.8986	0.0144	2.3259	3.8988
-7.251	-3.9372	-4.5846	-2.1724	0.4796	2.2683	3.4097	4.4024	6.8386	7.7257	7.2606	10.1044	9.0781	0.048	-6.9584	-4.4503	-0.0671	5.8507	-0.0528	2.2443	3.8605
-7.4716	-4.1626	-4.7764	-2.3403	0.2973	2.0285	3.2275	4.2297	6.6515	7.5051	7.1167	9.9125	8.8815	0.024	-7.1742	-4.6134	-0.0048	5.7835	-0.1343	2.1436	3.7742
-7.6394	-4.3304	-4.9731	-2.4793	0.1199	1.8895	3.0884	4.0955	6.4981	7.3517	7.0016	9.7591	8.752	0.0384	-7.3181	-4.7525	-0.0144	5.7739	-0.1535	2.0525	3.7742
-7.8025	-4.4407	-5.1121	-2.6472	-0.0336	1.7216	2.9205	3.9612	6.311	7.1455	6.9057	9.5864	8.541	0.0048	-7.5003	-4.9395	0.0144	5.7164	-0.1774	1.971	3.7166
-7.9751	-4.5702	-5.28	-2.8054	-0.1295	1.573	2.7383	3.8509	6.1624	6.9489	6.8002	9.4234	8.3732	0	-7.673	-5.1457	0.0144	5.7068	-0.2206	1.8943	3.7406
-8.1238	-4.7237	-5.3951	-2.9637	-0.2398	1.4147	2.5561	3.7214	6.0281	6.7762	6.6899	9.2843	8.2341	-0.0048	-7.8888	-5.3375	0.048	5.6972	-0.2494	1.8367	3.7022
-8.2389	-4.7668	-5.5246	-3.1028	-0.3069	1.3188	2.4266	3.6351	5.9514	6.6611	6.6275	9.1405	8.1046	-0.024	-8.0758	-5.5246	0.0432	5.6972	-0.2446	1.7984	3.7358
-8.33	-4.7908	-5.6157	-3.2322	-0.3693	1.2037	2.2587	3.5488	5.7979	6.4357	6.5316	8.9726	7.9751	-0.024	-8.2676	-5.7116	0.0528	5.6972	-0.2734	1.7552	3.7118
-8.3588	-4.7908	-5.654	-3.309	-0.3693	1.1462	2.158	3.5344	5.702	6.3062	6.4981	8.8767	7.8552	-0.0144	-8.4211	-5.9082	0.048	5.7212	-0.259	1.7408	3.7454
-8.3779	-4.7189	-5.6732	-3.4001	-0.3261	1.1414	2.0717	3.5152	5.6444	6.1768	6.4597	8.7232	7.7785	-0.0384	-8.541	-6.0521	0.0528	5.7308	-0.2062	1.7456	3.8029
-8.3971	-4.6901	-5.6588	-3.4337	-0.2877	1.079	1.9758	3.496	5.5437	6.0281	6.4117	8.5794	7.649	-0.0288	-8.6465	-6.1336	0.0719	5.7404	-0.187	1.7072	3.8221
-8.3827	-4.647	-5.6588	-3.472	-0.2398	1.1126	1.923	3.4864	5.5198	5.9418	6.335	8.4643	7.5723	-0.048	-8.7472	-6.1863	0.1151	5.7547	-0.1487	1.712	3.8892
-8.3588	-4.5606	-5.6301	-3.4672	-0.211	1.1222	1.8895	3.496	5.4958	5.8171	6.3494	8.3779	7.5195	-0.048	-8.7616	-6.1816	0.1295	5.7595	-0.0623	1.7168	3.9756
-8.3396	-4.5175	-5.5821	-3.4337	-0.1678	1.1749	1.8511	3.52	5.491	5.7595	6.3062	8.2437	7.4332	-0.0863	-8.776	-6.1624	0.1966	5.7691	0	1.6785	4.0379
-8.2916	-4.4839	-5.5773	-3.4289	-0.1439	1.1845	1.8511	3.5056	5.4766	5.678	6.2439	8.1286	7.3517	-0.1295	-8.728	-6.1192	0.259	5.726	0.0911	1.6881	4.1003
-8.2581	-4.4647	-5.515	-3.3617	-0.1247	1.2469	1.8751	3.5248	5.4622	5.6349	6.2439	8.071	7.3133	-0.1535	-8.6321	-6.0089	0.3165	5.6924	0.1583	1.6785	4.1962
-8.2389	-4.4791	-5.515	-3.3425	-0.1774	1.2565	1.8799	3.4768	5.4047	5.5389	6.1528	7.9415	7.2174	-0.187	-8.5074	-5.9226	0.4028	5.6349	0.1678	1.6113	4.201
-8.2293	-4.4791	-5.4766	-3.2754	-0.187	1.2996	1.8655	3.4528	5.4047	5.5054	6.1096	7.8265	7.1407	-0.2158	-8.354	-5.7931	0.4556	5.6061	0.2302	1.5586	4.2489
-8.2149	-4.5223	-5.467	-3.2322	-0.2062	1.362	1.8847	3.4001	5.3615	5.4238	6.0425	7.7209	7.0448	-0.2542	-8.2053	-5.6924	0.5227	5.467	0.2686	1.5346	4.2777
-8.2053	-4.5415	-5.4574	-3.1987	-0.2494	1.4003	1.947	3.3617	5.3327	5.3711	5.9178	7.5771	6.9584	-0.2734	-8.0614	-5.5917	0.5803	5.3615	0.2973	1.4675	4.2681
-8.2005	-4.599	-5.4862	-3.2083	-0.3213	1.3811	1.9326	3.2994	5.256	5.2848	5.8171	7.4332	6.8146	-0.3165	-7.9559	-5.4862	0.6426	5.1985	0.2925	1.4387	4.2537
-8.2101	-4.6565	-5.5054	-3.2035	-0.3741	1.4051	1.9087	3.2083	5.2128	5.2128	5.6588	7.2654	6.7187	-0.3357	-7.8744	-5.4334	0.6906	5.0546	0.2734	1.3284	4.2106
-8.2533	-4.7429	-5.5533	-3.2514	-0.4172	1.3715	1.8559	3.1267	5.1361	5.1217	5.515	7.1119	6.57	-0.3693	-7.8408	-5.3999	0.7529	4.858	0.2542	1.2565	4.1242
-8.2868	-4.786	-5.5629	-3.285	-0.4556	1.3955	1.8703	3.0788	5.0354	5.0546	5.4047	6.9393	6.4213	-0.4124	-7.8312	-5.443	0.8153	4.647	0.235	1.1749	4.1003
-8.2964	-4.8723	-5.6061	-3.3234	-0.5083	1.3763	1.784	3.0164	4.9587	4.9587	5.232	6.7666	6.2966	-0.4076	-7.8456	-5.491	0.8584	4.4599	0.1726	1.1318	4.0091
-8.3108	-4.858	-5.6396	-3.3569	-0.4892	1.3859	1.76	2.9205	4.9011	4.8915	5.1025	6.6228	6.1048	-0.446	-7.8936	-5.5869	0.916	4.2201	0.1295	1.0502	3.9276
-8.2964	-4.834	-5.6157	-3.4097	-0.47	1.3572	1.712	2.8966	4.8292	4.8148	4.9683	6.4597	5.9753	-0.4796	-7.9367	-5.7547	0.9735	4.0235	0.0815	1.0023	3.8701
-8.2964	-4.7812	-5.5821	-3.4481	-0.3884	1.4003	1.6833	2.8918	4.7812	4.7381	4.8484	6.3494	5.7979	-0.4892	-7.9847	-5.889	1.0023	3.8125	0.0623	0.9064	3.7981
-8.282	-4.7045	-5.5198	-3.4768	-0.259	1.4723	1.6785	2.887	4.7477	4.647	4.7285	6.2007	5.6588	-0.5227	-7.9847	-6.0569	1.055	3.5631	0.0528	0.8296	3.7502
-8.2676	-4.6038	-5.4574	-3.5104	-0.2158	1.4579	1.6449	2.9157	4.7189	4.575	4.6038	6.0808	5.4718	-0.5275	-7.9703	-6.1768	1.0982	3.285	0.0144	0.6906	3.6734
-8.2149	-4.4599	-5.3903	-3.5344	-0.0719	1.5346	1.6065	2.9109	4.6997	4.4935	4.5031	5.9562	5.2656	-0.5659	-7.9367	-6.3062	1.1462	3.0308	0	0.5851	3.6591
-8.1046	-4.3017	-5.2752	-3.5008	0.0671	1.6161	1.6401	2.9925	4.7237	4.4407	4.4312	5.889	5.1265	-0.5947	-7.8744	-6.335	1.2037	2.8054	0.0288	0.5227	3.5919
-8.0662	-4.1338	-5.1697	-3.5583	0.2206	1.7024	1.6065	3.0212	4.7573	4.388	4.3448	5.7835	4.9443	-0.633	-7.7977	-6.4213	1.2612	2.5321	0.0144	0.3836	3.5631
-7.9847	-3.942	-5.0018	-3.5296	0.4124	1.8271	1.6449	3.0836	4.7908	4.3448	4.2729	5.7308	4.7812	-0.657	-7.7066	-6.3926	1.3236	2.2875	0.0528	0.2925	3.5344
-7.836	-3.6974	-4.8196	-3.496	0.5611	1.9278	1.6593	3.1555	4.8723	4.3113	4.2249	5.678	4.6278	-0.7098	-7.6394	-6.4453	1.3955	2.0238	0.0815	0.1583	3.4912
-7.7162	-3.52	-4.647	-3.4433	0.7577	2.0765	1.7216	3.2131	4.9059	4.2969	4.153	5.6396	4.4647	-0.7145	-7.5531	-6.4022	1.4531	1.8127	0.0911	0.0288	3.4528
-7.5963	-3.2946	-4.4695	-3.4097	0.9304	2.2156	1.7696	3.2754	4.9826	4.2489	4.1146	5.6253	4.3352	-0.7673	-7.5003	-6.4501	1.5346	1.5394	0.1343	-0.0719	3.4049
-7.4428	-3.0788	-4.2969	-3.3665	1.103	2.3738	1.8367	3.3665	5.0786	4.2585	4.0955	5.6157	4.2153	-0.7913	-7.4812	-6.5077	1.5969	1.314	0.1774	-0.1678	3.3809
-7.3085	-2.8438	-4.0907	-3.309	1.3044	2.5369	1.9374	3.472	5.2032	4.2729	4.0715	5.6109	4.1003	-0.844	-7.3613	-6.5268	1.6689	1.0886	0.2781	-0.2829	3.3809
-7.0927	-2.5896	-3.894	-3.2131	1.4962	2.6903	2.0142	3.5488	5.2992	4.3113	4.0139	5.6061	3.99	-0.8584	-7.2989	-6.5364	1.7408	0.8728	0.3645	-0.3884	3.3617
-6.9105	-2.3403	-3.6159	-3.0692	1.7216	2.9061	2.1964	3.6639	5.443	4.3832	4.0619	5.6684	3.9132	-0.892	-7.203	-6.5077	1.7936	0.6666	0.4364	-0.446	3.3713
-6.7043	-2.0909	-3.3761	-2.8966	1.9278	3.0692	2.3067	3.7694	5.5629	4.4359	4.0235	5.6972	3.8221	-0.9447	-7.1167	-6.4597	1.8847	0.4604	0.5083	-0.5419	3.333
-6.4213	-1.7744	-3.0932	-2.7095	2.1532	3.2994	2.4841	3.9228	5.7547	4.5319	4.0667	5.7643	3.7837	-0.9783	-6.9776	-6.3398	1.9422	0.2925	0.6042	-0.6042	3.3425
-6.1576	-1.4387	-2.7719	-2.441	2.4218	3.5583	2.6568	4.0475	5.937	4.6613	4.0811	5.8363	3.7406	-0.9975	-6.8481	-6.1768	1.9902	0.1247	0.7098	-0.6138	3.3761
-5.8842	-1.1605	-2.5081	-2.2396	2.6568	3.7598	2.8678	4.1722	6.0952	4.7621	4.1098	5.913	3.7454	-1.0359	-6.7474	-5.9993	2.0717	-0.0528	0.7721	-0.6666	3.3665
-5.6157	-0.8296	-2.1772	-1.9806	2.9253	4.0379	3.0884	4.3304	6.2775	4.9107	4.1674	6.0089	3.7118	-1.0646	-6.6371	-5.7835	2.1101	-0.1918	0.8728	-0.7098	3.3953
-5.3615	-0.5083	-1.9039	-1.7168	3.1267	4.2585	3.285	4.4743	6.4309	5.021	4.2153	6.0904	3.731	-1.0982	-6.5844	-5.5437	2.182	-0.3453	0.9639	-0.7817	3.4049
-5.1313	-0.1966	-1.6257	-1.4291	3.3473	4.4839	3.4528	4.5798	6.6228	5.1505	4.2873	6.2103	3.731	-1.127	-6.5748	-5.3183	2.2348	-0.5131	1.0694	-0.8009	3.4145
-4.9347	0.0815	-1.362	-1.2565	3.5536	4.6949	3.6447	4.7429	6.7906	5.2608	4.364	6.3158	3.7454	-1.1605	-6.5604	-5.1697	2.3019	-0.6186	1.1653	-0.8536	3.4624
-4.7333	0.3261	-1.1701	-1.0454	3.707	4.858	3.7406	4.8484	6.9584	5.3471	4.4264	6.4501	3.7454	-1.1941	-6.6275	-5.0162	2.3738	-0.8153	1.2565	-0.8872	3.5152
-4.575	0.5563	-0.9687	-0.9112	3.8701	5.0306	3.8845	4.9731	7.0831	5.4382	4.5031	6.5077	3.7694	-1.2133	-6.7091	-4.8771	2.4218	-0.9591	1.4195	-1.0071	3.5823
-4.5031	0.7002	-0.8105	-0.7961	3.9948	5.1889	3.9804	5.0977	7.2126	5.4766	4.5942	6.6467	3.7646	-1.266	-6.8002	-4.9107	2.5081	-1.1462	1.5682	-1.079	3.6303
-4.412	0.8201	-0.6522	-0.657	4.0955	5.3375	4.0283	5.1793	7.3613	5.5341	4.6997	6.7426	3.7598	-1.3044	-6.9584	-4.9107	2.5848	-1.2708	1.7216	-1.1893	3.707
-4.3736	0.868	-0.5419	-0.5995	4.1722	5.4478	4.0715	5.2944	7.4188	5.5869	4.7908	6.8577	3.7789	-1.338	-7.1215	-4.9635	2.6664	-1.3811	1.9135	-1.2852	3.7933
-4.364	0.8824	-0.4939	-0.5467	4.1626	5.5054	4.1146	5.3423	7.5291	5.5821	4.8723	6.968	3.7789	-1.4003	-7.3133	-5.1025	2.7719	-1.5634	2.0477	-1.4099	3.8509
-4.364	0.8728	-0.4268	-0.5227	4.177	5.5965	4.0859	5.4238	7.6346	5.5917	4.9731	7.0687	3.7742	-1.4195	-7.4716	-5.2464	2.8438	-1.7024	2.1868	-1.4962	3.942
-4.388	0.8392	-0.3836	-0.47	4.201	5.6444	4.0907	5.5198	7.6922	5.5965	5.1073	7.1934	3.7694	-1.4723	-7.6634	-5.4286	2.9301	-1.8463	2.3115	-1.6065	4.0235
-4.3976	0.7961	-0.3117	-0.398	4.2201	5.7499	4.1194	5.6157	7.8121	5.6301	5.2176	7.3085	3.8077	-1.5058	-7.8169	-5.6253	2.9973	-1.9566	2.4218	-1.7216	4.129
-4.388	0.7337	-0.2494	-0.3309	4.2345	5.8219	4.1338	5.7116	7.9128	5.6588	5.3423	7.4332	3.8173	-1.5394	-7.932	-5.8315	3.074	-2.0573	2.5177	-1.8271	4.1914
-4.364	0.7145	-0.1583	-0.235	4.2729	5.9226	4.1914	5.8123	8.0279	5.726	5.4766	7.5675	3.8892	-1.5682	-8.0279	-5.9801	3.1267	-2.1436	2.6232	-1.8847	4.2681
-4.3256	0.7002	-0.1103	-0.1822	4.3352	6.0329	4.2441	5.9178	8.1478	5.7883	5.6253	7.7066	3.9564	-1.6017	-8.0806	-6.1576	3.2131	-2.182	2.7047	-1.9854	4.3736
-4.2345	0.7193	0.0048	-0.0432	4.4455	6.1288	4.3304	6.1048	8.2964	5.8842	5.7787	7.8312	4.0379	-1.6209	-8.0614	-6.2535	3.237	-2.2443	2.8294	-2.1053	4.5319
-4.1434	0.7769	0.1199	0.0719	4.5846	6.2775	4.4072	6.2679	8.4259	5.9705	5.9418	7.9799	4.1051	-1.6545	-7.9991	-6.311	3.2898	-2.2635	2.9637	-2.1676	4.6134
-4.0091	0.8344	0.2973	0.2158	4.7381	6.4357	4.5127	6.4213	8.5698	6.0713	6.1336	8.1238	4.1722	-1.6593	-7.908	-6.3206	3.309	-2.3211	3.0932	-2.1916	4.7716
-3.8509	0.9064	0.4508	0.3501	4.8676	6.5268	4.6086	6.6323	8.7136	6.1672	6.3158	8.2533	4.2729	-1.6833	-7.7497	-6.335	3.3521	-2.3307	3.2179	-2.2396	4.8963
-3.6782	1.0215	0.5899	0.4987	5.0498	6.6899	4.7093	6.8194	8.8719	6.2727	6.5268	8.4115	4.3688	-1.6929	-7.5771	-6.335	3.4049	-2.3355	3.3617	-2.2683	5.0738
-3.4193	1.1701	0.8201	0.705	5.2176	6.8913	4.8723	7.0304	9.0589	6.4165	6.7426	8.5746	4.5175	-1.7312	-7.3373	-6.311	3.4481	-2.3307	3.544	-2.2539	5.2512
-3.1747	1.3763	1.0454	0.9112	5.4238	7.0064	5.0066	7.227	9.1788	6.5316	6.9297	8.6753	4.6038	-1.7648	-7.0639	-6.2871	3.5248	-2.2875	3.7022	-2.2539	5.3711
-2.8678	1.6017	1.2852	1.1557	5.6684	7.2126	5.232	7.4668	9.3658	6.7378	7.1599	8.8911	4.7621	-1.7888	-6.7043	-6.2199	3.5583	-2.2252	3.894	-2.1532	5.6013
-2.5992	1.8127	1.525	1.3715	5.8507	7.3613	5.3807	7.6442	9.5049	6.8242	7.3421	9.0158	4.8723	-1.8223	-6.4309	-6.1768	3.6447	-2.1772	4.0907	-2.1149	5.7787
-2.3115	2.0621	1.7504	1.549	6.076	7.5387	5.5293	7.8984	9.668	6.9824	7.5579	9.1309	4.9874	-1.8655	-6.0569	-6.1048	3.707	-2.1388	4.3065	-2.0429	5.9418
-2.0333	2.3403	1.9854	1.7264	6.3206	7.7066	5.726	8.0854	9.7975	7.1359	7.7305	9.2795	5.1313	-1.8847	-5.6924	-6.0233	3.7646	-2.1005	4.5079	-1.9806	6.124
-1.7504	2.5944	2.2012	1.9135	6.5508	7.8312	5.8363	8.2676	9.903	7.2462	7.9032	9.3706	5.2032	-1.9039	-5.3663	-5.913	3.8125	-2.0621	4.6661	-1.9278	6.2583
-1.501	2.8918	2.4074	2.0621	6.7906	7.9751	5.9562	8.4547	10.0037	7.3421	8.095	9.4618	5.3183	-1.923	-5.0402	-5.8171	3.8461	-1.995	4.8532	-1.8319	6.4309
-1.2421	3.1747	2.6136	2.1964	7.0735	8.0998	6.0665	8.6465	10.1092	7.4476	8.2485	9.5145	5.4095	-1.9662	-4.6997	-5.6588	3.8988	-1.9518	5.045	-1.7744	6.5844
-1.0263	3.472	2.8054	2.3115	7.3229	8.2149	6.1959	8.8527	10.2003	7.5339	8.4163	9.6296	5.4814	-1.947	-4.4072	-5.467	3.918	-1.8847	5.2224	-1.6497	6.7474
-0.7913	3.731	2.9301	2.369	7.5291	8.306	6.2151	9.0014	10.2626	7.5531	8.541	9.6488	5.5246	-1.9806	-4.153	-5.2848	3.9756	-1.8463	5.4143	-1.5634	6.8961
-0.6378	3.9948	3.0932	2.4266	7.7785	8.3971	6.2631	9.1405	10.3442	7.6394	8.6609	9.7207	5.5629	-1.995	-3.918	-5.0882	4.0091	-1.7744	5.5965	-1.4195	7.0208
-0.4844	4.1674	3.2035	2.4554	7.9559	8.4451	6.2966	9.2603	10.3585	7.6778	8.7568	9.7111	5.6253	-2.0333	-3.8029	-4.8963	4.0715	-1.7216	5.7164	-1.3476	7.1071
-0.4124	4.3928	3.2898	2.417	8.1142	8.5026	6.3254	9.3658	10.4017	7.697	8.8191	9.7015	5.5965	-2.0525	-3.6734	-4.7333	4.1194	-1.6593	5.8698	-1.2181	7.203
-0.3501	4.5654	3.3713	2.3882	8.2676	8.4978	6.2775	9.4138	10.3729	7.6442	8.8911	9.6632	5.5917	-2.0717	-3.6399	-4.5942	4.1482	-1.6305	5.9801	-1.1078	7.2845
-0.3165	4.7189	3.3665	2.2827	8.3971	8.517	6.2007	9.457	10.325	7.5771	8.8815	9.6008	5.4958	-2.1005	-3.6111	-4.5558	4.1914	-1.5874	6.0617	-1.0071	7.3181
-0.2686	4.8676	3.4289	2.1772	8.5458	8.5074	6.1048	9.5049	10.3202	7.5339	8.9007	9.5289	5.4526	-2.1149	-3.6495	-4.4839	4.2058	-1.5778	6.148	-0.9064	7.3661
-0.2638	5.0066	3.4145	2.0669	8.6369	8.4403	5.9562	9.5049	10.2339	7.4044	8.8623	9.3946	5.3279	-2.1053	-3.7454	-4.4935	4.2201	-1.6257	6.1959	-0.8584	7.3325
-0.2781	5.1121	3.3713	1.9135	8.7088	8.3923	5.8219	9.5049	10.1092	7.2462	8.8239	9.2651	5.2272	-2.1101	-3.8509	-4.5127	4.2345	-1.6353	6.2439	-0.7577	7.3325
-0.2973	5.1745	3.3473	1.7648	8.7616	8.3156	5.6828	9.4761	10.0085	7.0639	8.7568	9.1021	5.069	-2.1101	-3.9948	-4.5606	4.2489	-1.7072	6.2535	-0.7577	7.2941
-0.3261	5.2416	3.2418	1.6209	8.7616	8.2437	5.5102	9.3946	9.8646	6.9009	8.6417	8.9294	4.9107	-2.1245	-4.1146	-4.5846	4.2537	-1.7552	6.2295	-0.7289	7.2366
-0.3357	5.2608	3.2322	1.4627	8.7616	8.1573	5.3375	9.3419	9.7495	6.7043	8.5794	8.752	4.7429	-2.1293	-4.2153	-4.5702	4.2441	-1.8463	6.1911	-0.7625	7.1599
-0.3789	5.2176	3.1363	1.3236	8.7136	8.0566	5.1601	9.2172	9.6056	6.522	8.3779	8.5554	4.5367	-2.1245	-4.3736	-4.5606	4.2393	-1.947	6.1192	-0.8009	7.0496
-0.3693	5.1601	3.05	1.1605	8.5938	7.9128	4.9683	9.0589	9.4282	6.3014	8.2533	8.3396	4.3161	-2.1149	-4.4887	-4.5175	4.2393	-2.0573	6.0185	-0.844	6.9489
-0.3836	5.069	2.9637	1.0406	8.4499	7.8025	4.8052	8.8863	9.2699	6.1384	8.1334	8.1334	4.1482	-2.1197	-4.6182	-4.4551	4.2345	-2.1005	5.9178	-0.8584	6.8242
-0.3597	5.0162	2.9205	0.9304	8.3396	7.7018	4.6901	8.7088	9.0973	5.9753	7.9463	7.9463	3.9516	-2.1245	-4.6565	-4.3209	4.2153	-2.1724	5.8171	-0.8824	6.7091
-0.3549	4.9491	2.8582	0.9064	8.1717	7.6202	4.623	8.5506	8.9294	5.7931	7.8217	7.7737	3.7837	-2.1149	-4.7093	-4.1434	4.2058	-2.2587	5.702	-0.8824	6.594
-0.3021	4.8484	2.8294	0.892	8.0327	7.4908	4.5319	8.3827	8.7904	5.6349	7.649	7.5579	3.6303	-2.1149	-4.6997	-3.9516	4.2106	-2.3211	5.5917	-0.9256	6.5029
-0.2206	4.8052	2.8246	0.9208	7.884	7.4572	4.5031	8.2437	8.6801	5.5533	7.5147	7.4284	3.5104	-2.1101	-4.7045	-3.7118	4.1962	-2.3307	5.4862	-0.8632	6.359
-0.1199	4.7477	2.8438	0.9831	7.7545	7.3948	4.5031	8.095	8.5362	5.4862	7.3709	7.2845	3.3905	-2.0813	-4.575	-3.4528	4.1674	-2.3451	5.4143	-0.8584	6.2535
-0.0144	4.6805	2.8534	1.055	7.6106	7.3373	4.5079	7.932	8.4163	5.4143	7.2366	7.1311	3.2754	-2.0621	-4.4695	-3.1699	4.1194	-2.3499	5.3088	-0.7673	6.172
0.1055	4.6374	2.9061	1.1701	7.4764	7.3085	4.6134	7.8265	8.2916	5.4095	7.0975	7.0016	3.1843	-2.0621	-4.34	-2.8678	4.1051	-2.3355	5.256	-0.7098	6.0856
0.2494	4.6086	2.9685	1.3236	7.3996	7.2893	4.6661	7.6778	8.1909	5.3663	7.0064	6.9009	3.1267	-2.0573	-4.1338	-2.5321	4.0667	-2.2827	5.1265	-0.609	5.9753
0.4268	4.6422	3.0788	1.501	7.3373	7.3133	4.8148	7.5771	8.1142	5.3903	6.9297	6.829	3.0884	-2.0142	-3.8605	-2.1484	4.0187	-2.2252	5.045	-0.4796	5.889
0.657	4.6565	3.1891	1.6737	7.2941	7.3421	4.9395	7.5051	8.0758	5.4718	6.8817	6.757	3.098	-1.9998	-3.6255	-1.7504	3.9756	-2.1341	4.9443	-0.3741	5.7883
0.8584	4.6997	3.3569	1.8991	7.227	7.39	5.1025	7.4668	8.047	5.5341	6.8146	6.733	3.1076	-1.9758	-3.3282	-1.3476	3.9132	-2.0621	4.8867	-0.2446	5.7547
1.0359	4.6949	3.4768	2.0957	7.1982	7.4524	5.2464	7.414	8.0183	5.6061	6.7762	6.7283	3.0836	-1.9326	-3.0404	-0.9639	3.8509	-1.9758	4.7764	-0.1391	5.6636
1.2469	4.6997	3.6063	2.2539	7.1263	7.4812	5.3663	7.3421	8.0183	5.6684	6.7091	6.6899	3.1267	-1.8991	-2.7527	-0.6186	3.8077	-1.8703	4.6853	-0.0575	5.6013
1.4435	4.6853	3.683	2.3882	7.0783	7.5387	5.5054	7.2702	7.9991	5.7164	6.6947	6.7091	3.1267	-1.8799	-2.4889	-0.3453	3.7502	-1.8079	4.5654	0	5.5341
1.6065	4.6661	3.8077	2.5225	7.0064	7.5771	5.6109	7.2462	7.9895	5.7835	6.6515	6.7283	3.1555	-1.8415	-2.2491	-0.0863	3.6734	-1.76	4.4503	0.0432	5.4286
1.7648	4.623	3.8605	2.6328	6.9057	7.5771	5.702	7.1503	7.9463	5.8411	6.5796	6.7187	3.1891	-1.8032	-2.0621	0.0623	3.6111	-1.712	4.2777	0.0671	5.3183
1.8655	4.5367	3.9372	2.7479	6.8481	7.673	5.8219	7.0927	7.9799	5.9466	6.5796	6.7762	3.261	-1.7696	-1.9326	0.1774	3.5248	-1.6353	4.0907	0.1007	5.2656
1.9422	4.4647	3.966	2.839	6.781	7.697	5.8986	7.0448	7.9991	6.0281	6.5412	6.7858	3.2946	-1.7456	-1.8319	0.1822	3.4624	-1.5826	3.9084	0.1055	5.1313
2.0238	4.3784	3.9995	2.887	6.6851	7.7641	6.0233	7.0064	8.0423	6.1336	6.5172	6.8769	3.4001	-1.6929	-1.7648	0.1487	3.4001	-1.4723	3.731	0.1487	5.0258
2.0333	4.2969	3.99	2.9205	6.6132	7.7593	6.0952	6.9824	8.0614	6.2295	6.4885	6.9297	3.4816	-1.6833	-1.7648	0.0432	3.3521	-1.4099	3.52	0.1343	4.9011
2.0094	4.1674	3.99	2.9301	6.5652	7.8169	6.1959	6.9536	8.1286	6.359	6.5029	7.0304	3.5679	-1.6497	-1.8079	-0.1439	3.2946	-1.2852	3.3617	0.1631	4.8196
2.0046	4.0955	3.966	2.9205	6.5172	7.8936	6.2199	6.9536	8.2293	6.4549	6.5316	7.1455	3.6878	-1.6401	-1.8463	-0.422	3.2466	-1.1941	3.2418	0.1583	4.7381
1.9326	3.9324	3.9324	2.8726	6.4453	7.9032	6.2823	6.9536	8.2724	6.5508	6.5316	7.2414	3.7598	-1.6209	-1.971	-0.7098	3.2322	-1.1222	3.0644	0.1583	4.6661
1.8559	3.8125	3.894	2.8198	6.4261	7.9751	6.3158	6.9489	8.3875	6.6611	6.5556	7.3565	3.9228	-1.5921	-2.0621	-1.0263	3.1891	-0.9927	2.9781	0.1535	4.6134
1.7312	3.6686	3.8461	2.7383	6.3446	8.0279	6.3302	6.9536	8.5122	6.7762	6.6228	7.5147	4.0427	-1.5826	-2.1724	-1.4099	3.1651	-0.8824	2.8678	0.1343	4.5846
1.5778	3.5344	3.7406	2.6328	6.3206	8.071	6.3062	7.0112	8.5842	6.8242	6.6899	7.649	4.1626	-1.573	-2.3211	-1.8703	3.1699	-0.8057	2.8102	0.1103	4.5558
1.4243	3.4193	3.683	2.5465	6.2919	8.1334	6.3206	7.0208	8.7328	6.9249	6.7187	7.7833	4.2969	-1.5921	-2.4554	-2.2731	3.1795	-0.6522	2.7335	0.0767	4.5223
1.29	3.3282	3.5919	2.4649	6.2823	8.1861	6.3254	7.0879	8.8575	7.0016	6.8338	7.9559	4.4216	-1.5969	-2.6088	-2.6616	3.1987	-0.5419	2.7527	0.0336	4.5606
1.1174	3.2802	3.5392	2.3978	6.359	8.282	6.3446	7.1982	9.011	7.0783	6.9489	8.1238	4.599	-1.6209	-2.7575	-3.0692	3.2227	-0.4364	2.7863	0.0288	4.623
0.9735	3.2418	3.5056	2.2683	6.4741	8.3588	6.3158	7.3037	9.1644	7.1503	7.0639	8.306	4.7477	-1.6401	-2.9445	-3.496	3.2802	-0.3309	2.8294	0.024	4.6709
0.8344	3.2898	3.4672	2.206	6.6084	8.4451	6.3062	7.5099	9.3658	7.2318	7.2318	8.5122	4.8915	-1.6593	-3.1124	-3.7981	3.309	-0.211	2.9349	-0.0288	4.7621
0.6762	3.3186	3.4385	2.1149	6.7762	8.5458	6.3062	7.6922	9.5145	7.2989	7.39	8.7424	5.069	-1.6737	-3.309	-4.1434	3.3521	-0.0911	3.0021	-0.0336	4.9059
0.5371	3.333	3.3569	2.0573	6.9632	8.6321	6.2631	7.8984	9.7015	7.3661	7.5723	8.9151	5.2176	-1.7216	-3.5008	-4.4455	3.4145	0.0384	3.1555	-0.1007	5.045
0.3884	3.3425	3.3042	1.947	7.0831	8.6801	6.2343	8.0327	9.855	7.438	7.7305	9.0925	5.3615	-1.76	-3.7214	-4.7285	3.4768	0.1439	3.2514	-0.1103	5.1841
0.211	3.3186	3.2083	1.8319	7.203	8.7088	6.1672	8.1669	9.9317	7.4428	7.8984	9.2699	5.5054	-1.7936	-3.8365	-4.9587	3.544	0.2494	3.3665	-0.1535	5.3088
0.0096	3.2802	3.1267	1.7408	7.275	8.7424	6.1384	8.3156	10.0852	7.5147	8.0087	9.4234	5.6444	-1.8319	-4.0235	-5.2272	3.6063	0.3836	3.4528	-0.1678	5.4286
-0.1583	3.1987	3.026	1.5826	7.3181	8.7616	6.0521	8.3636	10.1475	7.5291	8.0998	9.5337	5.7308	-1.8463	-4.0955	-5.3903	3.6782	0.5035	3.5488	-0.1918	5.5629
-0.3501	3.1699	2.9589	1.4387	7.3469	8.728	5.9658	8.4355	10.2195	7.5291	8.1813	9.6392	5.8363	-1.8703	-4.177	-5.5054	3.7214	0.633	3.6591	-0.1966	5.6636
-0.4844	3.074	2.8342	1.2804	7.3565	8.704	5.9034	8.5026	10.2386	7.4956	8.2341	9.7207	5.937	-1.8799	-4.2106	-5.5677	3.755	0.7817	3.755	-0.1918	5.7835
-0.6906	2.9253	2.6903	1.1509	7.2893	8.6465	5.7643	8.4691	10.2626	7.486	8.2293	9.7543	5.9897	-1.9135	-4.2345	-5.5965	3.8077	0.8488	3.7454	-0.235	5.8507
-0.8632	2.8102	2.5561	1.0167	7.2462	8.5698	5.6636	8.4403	10.2291	7.4668	8.2341	9.7927	6.0377	-1.9182	-4.2153	-5.5293	3.8221	0.9351	3.7933	-0.187	5.913
-1.0598	2.6232	2.4026	0.8296	7.1023	8.4547	5.5246	8.3779	10.1427	7.3613	8.2005	9.7735	6.0377	-1.9278	-4.1674	-5.4526	3.8413	1.0167	3.7502	-0.1918	5.9178
-1.2133	2.4362	2.2443	0.6858	7.0016	8.354	5.4143	8.2868	10.0756	7.3037	8.1334	9.7207	5.9945	-1.9422	-4.1194	-5.3375	3.8605	1.1078	3.7742	-0.211	5.9658
-1.4003	2.2875	2.1388	0.5323	6.9009	8.2533	5.2992	8.2197	10.018	7.2414	8.047	9.6824	6.0425	-1.9374	-4.1003	-5.2032	3.8413	1.1845	3.7502	-0.1726	5.9658
-1.5586	2.1197	2.0046	0.3789	6.7474	8.1286	5.1313	8.119	9.879	7.1359	7.9751	9.6344	5.9658	-1.8943	-4.0475	-5.0402	3.8029	1.2133	3.7118	-0.1678	5.9658
-1.7456	1.9614	1.8655	0.2398	6.6084	8.0039	5.0258	7.9799	9.7687	7.0304	7.8408	9.5193	5.8794	-1.8847	-4.0763	-4.9395	3.7598	1.2469	3.6543	-0.1631	5.9226
-1.9374	1.7696	1.7216	0.1103	6.4501	7.884	4.8915	7.836	9.6536	6.9297	7.7401	9.433	5.8267	-1.8655	-4.1386	-4.8436	3.6974	1.2852	3.6111	-0.1631	5.913
-2.0765	1.5442	1.5346	-0.024	6.2583	7.7305	4.7764	7.673	9.5049	6.8338	7.5675	9.2603	5.7116	-1.8223	-4.1722	-4.7668	3.6543	1.3092	3.52	-0.1583	5.8459
-2.2252	1.362	1.4195	-0.1007	6.0856	7.6202	4.7093	7.5243	9.3563	6.7187	7.4044	9.1357	5.6301	-1.7936	-4.1866	-4.7093	3.5679	1.3332	3.4241	-0.1583	5.7787
-2.3786	1.1366	1.3236	-0.211	5.8555	7.486	4.6086	7.3469	9.1932	6.6228	7.2318	8.987	5.5198	-1.7648	-4.2441	-4.647	3.5056	1.3332	3.3042	-0.1199	5.7068
-2.4697	1.0023	1.2325	-0.235	5.7116	7.4044	4.5558	7.1742	9.0349	6.5077	7.0639	8.8575	5.4286	-1.712	-4.2489	-4.6182	3.4193	1.3524	3.2179	-0.0815	5.6492
-2.5896	0.8584	1.1509	-0.3213	5.5677	7.2941	4.4743	6.9968	8.8863	6.4405	6.8817	8.6657	5.2944	-1.6785	-4.2489	-4.6134	3.3186	1.362	3.1219	-0.0432	5.5869
-2.6328	0.7433	1.0982	-0.3165	5.4478	7.2318	4.4312	6.8529	8.7568	6.335	6.7283	8.5266	5.1937	-1.6161	-4.2345	-4.5606	3.2227	1.3572	3.0116	0.0192	5.5006
-2.6855	0.6618	1.0359	-0.3549	5.3519	7.1407	4.3688	6.7426	8.6033	6.2439	6.5172	8.3684	5.0402	-1.573	-4.2201	-4.5271	3.1315	1.314	2.9013	0.0288	5.4143
-2.7239	0.6378	0.9975	-0.3836	5.2752	7.0879	4.34	6.6323	8.493	6.1624	6.3782	8.1909	4.8963	-1.501	-4.1434	-4.5319	3.0212	1.3428	2.815	0.0719	5.3279
-2.7143	0.6282	0.9543	-0.3741	5.232	7.0256	4.2873	6.5268	8.3636	6.0665	6.2199	8.0327	4.7477	-1.4627	-4.1098	-4.4935	2.9109	1.3236	2.7623	0.1391	5.256
-2.7527	0.6186	0.9256	-0.3836	5.1745	6.9776	4.2441	6.3638	8.2005	5.9849	6.0521	7.8504	4.6326	-1.4099	-4.0571	-4.4599	2.8342	1.29	2.6136	0.1439	5.1409
-2.7335	0.6474	0.9304	-0.4076	5.1217	6.9201	4.1818	6.2439	8.0518	5.8842	5.889	7.6346	4.4791	-1.362	-4.0139	-4.4072	2.7335	1.3044	2.5705	0.1487	5.0258
-2.7383	0.6762	0.9256	-0.4028	5.0977	6.8625	4.1674	6.1096	7.9655	5.8555	5.6972	7.4524	4.3592	-1.3188	-3.966	-4.3496	2.6472	1.2325	2.441	0.187	4.9059
-2.7287	0.7002	0.8728	-0.3789	5.069	6.7954	4.1386	5.9801	7.7881	5.7356	5.491	7.251	4.1866	-1.2948	-3.9804	-4.34	2.5752	1.2037	2.3259	0.1535	4.7237
-2.7047	0.7433	0.8584	-0.3453	5.0258	6.757	4.129	5.8746	7.6682	5.678	5.3135	7.04	4.0811	-1.2373	-3.99	-4.2825	2.4649	1.1749	2.2348	0.1535	4.6038
-2.6999	0.8009	0.8632	-0.3261	4.9826	6.7283	4.1003	5.726	7.5099	5.6157	5.1409	6.8529	3.9324	-1.2037	-4.0619	-4.2393	2.393	1.0982	2.1005	0.1295	4.4072
-2.6568	0.8296	0.892	-0.2734	4.9251	6.6803	4.1003	5.6444	7.39	5.5341	4.9683	6.6611	3.8125	-1.1605	-4.0619	-4.2201	2.3115	1.055	1.9758	0.0911	4.2489
-2.6184	0.8872	0.892	-0.2398	4.8963	6.6659	4.0859	5.5341	7.2606	5.4766	4.8148	6.4645	3.6686	-1.127	-4.153	-4.2153	2.2443	1.0071	1.8559	0.0911	4.1146
-2.5513	0.9304	0.9016	-0.1918	4.8723	6.6036	4.1003	5.3999	7.1407	5.419	4.647	6.2966	3.5536	-1.1078	-4.1962	-4.2249	2.1868	0.916	1.712	0.0863	3.9228
-2.5225	0.9399	0.916	-0.1103	4.8388	6.5892	4.0859	5.2992	7.0256	5.3855	4.5031	6.1144	3.4672	-1.0742	-4.2441	-4.2345	2.1341	0.8728	1.6257	0.0384	3.7981
-2.4266	0.9639	0.9687	-0.0528	4.8148	6.5796	4.1146	5.2128	6.9105	5.3327	4.3592	5.961	3.3809	-1.0502	-4.2393	-4.2345	2.0957	0.8248	1.549	0.0288	3.6734
-2.3594	0.9735	0.9879	0.0192	4.7573	6.5172	4.1098	5.1361	6.8002	5.2944	4.2441	5.7835	3.2514	-1.0263	-4.201	-4.2873	2.0669	0.7673	1.4818	-0.0096	3.5823
-2.3163	0.9495	0.9495	0.0144	4.6709	6.4981	4.0715	5.0546	6.6851	5.232	4.1338	5.6061	3.1795	-1.0311	-4.2106	-4.3017	2.0669	0.7002	1.4339	-0.0336	3.4528
-2.23	0.9399	0.9927	0.0911	4.6518	6.4645	4.0763	4.9587	6.5892	5.208	4.0235	5.4574	3.098	-1.0263	-4.1482	-4.3256	2.0477	0.6762	1.4339	-0.0623	3.4624
-2.1245	0.9304	0.9831	0.1151	4.5846	6.4453	4.0571	4.9059	6.4837	5.1553	3.9468	5.3088	3.05	-1.0215	-4.0811	-4.2825	2.0621	0.6426	1.4099	-0.0432	3.4337
-2.1005	0.8776	0.9927	0.1247	4.5223	6.3926	4.0283	4.8148	6.3878	5.1409	3.8461	5.1985	2.9781	-1.0359	-4.0427	-4.3256	2.0909	0.6282	1.4195	-0.0528	3.4097
-2.0765	0.8392	0.9927	0.1151	4.4551	6.359	3.9995	4.7668	6.2487	5.0882	3.7694	5.0066	2.9061	-1.0454	-3.9852	-4.2969	2.1101	0.6234	1.4627	-0.0671	3.4433
-2.0765	0.7913	0.9543	0.1103	4.3544	6.311	3.9995	4.6949	6.1576	5.0929	3.731	4.9059	2.863	-1.079	-3.9612	-4.2873	2.1436	0.6282	1.501	-0.0192	3.4193
-2.0717	0.705	0.9495	0.1343	4.3496	6.2583	3.99	4.6565	6.0377	5.0546	3.6878	4.7668	2.8486	-1.0838	-3.9084	-4.2921	2.1676	0.6426	1.5682	0.0048	3.52
-2.0669	0.6474	0.8968	0.0959	4.2393	6.1863	3.9708	4.6038	5.9034	5.0498	3.6351	4.6182	2.7719	-1.0934	-3.8892	-4.3113	2.182	0.6714	1.6257	0.048	3.5631
-2.0765	0.5563	0.8632	0.0815	4.1722	6.1048	3.9132	4.551	5.7931	4.9874	3.5919	4.4551	2.7575	-1.103	-3.8845	-4.34	2.2012	0.6618	1.6976	0.0671	3.6207
-2.1053	0.5131	0.8201	0.048	4.0955	6.0185	3.8892	4.4935	5.6828	4.9443	3.5344	4.3256	2.7239	-1.1126	-3.9324	-4.388	2.206	0.7241	1.7792	0.1151	3.731
-2.1532	0.446	0.7721	0.0048	4.0475	5.961	3.8557	4.4551	5.5437	4.9107	3.5248	4.1818	2.7095	-1.0982	-3.9564	-4.4503	2.1964	0.7481	1.8703	0.1822	3.8461
-2.1964	0.3789	0.6906	-0.0528	3.9708	5.8507	3.7837	4.3976	5.3951	4.8292	3.4816	4.0187	2.628	-1.103	-4.0139	-4.4695	2.2108	0.7529	1.9182	0.211	3.9276
-2.2012	0.3549	0.6666	-0.0575	3.9228	5.7499	3.7694	4.3688	5.2656	4.786	3.4672	3.8892	2.5657	-1.103	-4.0667	-4.4935	2.2204	0.8009	1.9902	0.2877	4.0475
-2.2156	0.2877	0.5995	-0.1055	3.894	5.6301	3.683	4.3448	5.1169	4.6805	3.4672	3.7598	2.5177	-1.1078	-4.1578	-4.4839	2.2156	0.8201	2.0429	0.3261	4.1722
-2.2348	0.2494	0.5467	-0.1774	3.7981	5.5198	3.6303	4.2729	4.9683	4.5942	3.4145	3.5871	2.4745	-1.1078	-4.2297	-4.4599	2.2348	0.8488	2.0909	0.4028	4.2729
-2.2683	0.2206	0.4844	-0.235	3.7742	5.4143	3.5296	4.2393	4.8052	4.4983	3.3953	3.4241	2.3786	-1.127	-4.3113	-4.4695	2.2539	0.8776	2.1484	0.4508	4.3976
-2.2731	0.2254	0.4076	-0.2829	3.7454	5.2656	3.4385	4.1626	4.6518	4.4072	3.3569	3.261	2.3163	-1.1366	-4.4024	-4.4264	2.2731	0.9064	2.1964	0.4892	4.5079
-2.3642	0.2014	0.3741	-0.3741	3.6878	5.1121	3.3378	4.0859	4.4791	4.2441	3.309	3.1028	2.2204	-1.1462	-4.5079	-4.4072	2.2827	0.9447	2.2348	0.5323	4.5894
-2.417	0.1822	0.2686	-0.47	3.6351	4.9491	3.1987	4.0187	4.2969	4.1051	3.2466	2.9013	2.1005	-1.1653	-4.6422	-4.4551	2.3115	0.9399	2.2827	0.5467	4.6901
-2.4841	0.1487	0.1535	-0.5947	3.5488	4.8004	3.026	3.8845	4.0859	3.9228	3.1603	2.7143	1.9998	-1.1797	-4.6949	-4.4264	2.3307	0.9591	2.3067	0.5467	4.7668
-2.5273	0.1199	0.0432	-0.681	3.4672	4.6038	2.8918	3.7694	3.9132	3.755	3.0884	2.5273	1.9039	-1.1653	-4.7477	-4.3592	2.3403	0.9927	2.3307	0.5611	4.8292
-2.652	0.0528	-0.0671	-0.7769	3.3809	4.4455	2.7719	3.6543	3.6926	3.6063	2.9781	2.3115	1.784	-1.1749	-4.8052	-4.3113	2.3451	0.9399	2.3786	0.5131	4.8771
-2.7671	0.0048	-0.1726	-0.9064	3.237	4.2249	2.5992	3.4864	3.4624	3.3857	2.8582	2.0861	1.6497	-1.1845	-4.786	-4.1722	2.3738	0.9399	2.3451	0.4892	4.8915
-2.8342	-0.0863	-0.2925	-0.9975	3.1459	4.0523	2.4889	3.3378	3.2754	3.2754	2.7383	1.923	1.5298	-1.1845	-4.8196	-4.0571	2.393	0.9399	2.3451	0.4987	4.8963
-2.9445	-0.1343	-0.422	-1.1414	3.0116	3.8557	2.3403	3.1795	3.0788	3.0788	2.5944	1.7168	1.3955	-1.1797	-4.8292	-3.9372	2.3882	0.9256	2.3546	0.4652	4.8963
-3.0788	-0.1726	-0.5755	-1.2421	2.9109	3.683	2.1964	3.0404	2.8534	2.8822	2.4554	1.5106	1.2756	-1.1989	-4.8052	-3.7885	2.4122	0.8824	2.3211	0.4364	4.8819
-3.1555	-0.211	-0.6618	-1.2948	2.8198	3.5536	2.0861	2.9301	2.6808	2.7527	2.3499	1.3188	1.1797	-1.1845	-4.7333	-3.5823	2.3786	0.916	2.3403	0.4412	4.8676
-3.2131	-0.211	-0.7481	-1.3811	2.7767	3.4241	1.9998	2.839	2.4793	2.6376	2.2587	1.1893	1.0694	-1.1749	-4.6326	-3.3809	2.3499	0.9016	2.3546	0.422	4.8532
-3.2514	-0.2206	-0.8153	-1.4051	2.7575	3.2898	1.9039	2.7383	2.3834	2.5033	2.1724	1.0598	1.0023	-1.1462	-4.5223	-3.1699	2.3019	0.9064	2.3594	0.4268	4.8244
-3.3186	-0.235	-0.9016	-1.4914	2.6855	3.1315	1.7936	2.6232	2.1964	2.3403	2.0525	0.8728	0.8968	-1.127	-4.4264	-2.9397	2.2443	0.8632	2.4074	0.4124	4.8052
-3.333	-0.2494	-0.9735	-1.5298	2.5896	3.0404	1.7168	2.5417	2.019	2.1868	1.9758	0.7481	0.7961	-1.0934	-4.3017	-2.7095	2.1772	0.8392	2.4074	0.4268	4.7812
-3.3713	-0.2686	-1.0646	-1.6257	2.5321	2.8774	1.5538	2.3978	1.8655	2.0238	1.8607	0.6282	0.6906	-1.055	-4.1962	-2.5129	2.1101	0.8153	2.3882	0.4412	4.6949
-3.4049	-0.2781	-1.1414	-1.6737	2.4266	2.7335	1.4339	2.2539	1.6353	1.8127	1.736	0.4412	0.5515	-1.0119	-4.1146	-2.3546	2.0381	0.7769	2.3499	0.398	4.6278
-3.4241	-0.2973	-1.2421	-1.7648	2.3403	2.5609	1.2852	2.1101	1.4387	1.6161	1.5874	0.2686	0.3884	-0.9687	-4.0379	-2.2156	1.947	0.7098	2.3642	0.3693	4.5846
-3.4864	-0.3597	-1.3715	-1.8655	2.2108	2.4458	1.1126	1.9854	1.2517	1.4147	1.4818	0.1103	0.2158	-0.9256	-3.966	-2.1293	1.8655	0.6378	2.3451	0.3309	4.4983
-3.5488	-0.4172	-1.5154	-1.9902	2.1245	2.2252	0.9208	1.8367	1.0119	1.1605	1.3284	-0.1103	0.0288	-0.892	-3.9564	-2.1245	1.8032	0.5515	2.2587	0.235	4.412
-3.6159	-0.47	-1.6449	-2.1197	2.0238	2.019	0.7673	1.6881	0.7721	0.9208	1.1941	-0.2734	-0.1103	-0.8488	-3.942	-2.1197	1.7168	0.4844	2.2443	0.2062	4.3304
-3.6782	-0.5563	-1.7744	-2.2348	1.8847	1.8079	0.5467	1.5106	0.5563	0.6906	1.0598	-0.4987	-0.3213	-0.8153	-4.0331	-2.1772	1.6641	0.3693	2.1868	0.0911	4.2585
-3.7837	-0.6378	-1.9278	-2.3451	1.736	1.6353	0.3884	1.3668	0.2638	0.4556	0.8968	-0.7241	-0.5371	-0.7913	-4.0571	-2.3019	1.5921	0.2302	2.1149	-0.0384	4.1146
-3.9324	-0.7385	-2.0957	-2.4697	1.6065	1.4003	0.2014	1.2133	0.0048	0.2206	0.7577	-0.9591	-0.7529	-0.7625	-4.1242	-2.4026	1.549	0.1199	2.0621	-0.1583	4.0043
-4.0235	-0.8824	-2.2635	-2.6184	1.4435	1.1462	-0.0192	1.0646	-0.2925	-0.0192	0.6042	-1.2037	-0.9927	-0.7721	-4.1482	-2.5369	1.5346	-0.024	2.0477	-0.3069	3.9228
-4.129	-1.0359	-2.4314	-2.7143	1.2996	0.916	-0.187	0.9016	-0.5563	-0.2781	0.4508	-1.4147	-1.2133	-0.7385	-4.2249	-2.7047	1.5202	-0.1535	2.0046	-0.4268	3.8077
-4.2681	-1.1941	-2.6088	-2.8294	1.0982	0.681	-0.3597	0.7241	-0.8105	-0.4892	0.3069	-1.6305	-1.3955	-0.7481	-4.2777	-2.8486	1.501	-0.2494	1.947	-0.5371	3.6926
-4.3832	-1.4003	-2.8054	-2.9205	0.8968	0.4508	-0.5131	0.5467	-1.1078	-0.7289	0.1343	-1.8799	-1.6497	-0.7577	-4.2825	-3.0596	1.5298	-0.4124	1.923	-0.6858	3.5536
-4.5175	-1.6161	-3.0116	-2.9925	0.6666	0.2062	-0.6858	0.3309	-1.3907	-0.9399	-0.048	-2.1197	-1.8799	-0.7673	-4.3017	-3.237	1.5538	-0.5515	1.8367	-0.8057	3.4241
-4.6709	-1.8415	-3.2035	-3.1315	0.446	-0.0671	-0.844	0.1487	-1.6737	-1.2133	-0.2542	-2.3786	-2.1149	-0.7913	-4.2633	-3.4481	1.6113	-0.7337	1.7264	-0.9783	3.2562
-4.7573	-2.0573	-3.3809	-3.2562	0.2254	-0.2686	-0.9927	0.0192	-1.9039	-1.3763	-0.3693	-2.5992	-2.3211	-0.8248	-4.2058	-3.5919	1.6449	-0.8392	1.6113	-1.1222	3.1076
-4.8723	-2.2348	-3.5296	-3.3473	0.0288	-0.4412	-1.1797	-0.1726	-2.1676	-1.5538	-0.5371	-2.7958	-2.5129	-0.844	-4.1051	-3.8029	1.7024	-0.9975	1.4962	-1.2373	2.9541
-4.9347	-2.4026	-3.6591	-3.4385	-0.1295	-0.657	-1.3284	-0.3309	-2.3642	-1.736	-0.7145	-2.9829	-2.6616	-0.8776	-4.0043	-3.9132	1.7552	-1.1653	1.4291	-1.3524	2.7671
-5.0162	-2.5992	-3.7789	-3.5583	-0.3021	-0.7913	-1.4483	-0.446	-2.5561	-1.8703	-0.844	-3.1555	-2.8294	-0.916	-3.8749	-4.0379	1.8319	-1.2804	1.2565	-1.4531	2.5896
-5.0594	-2.7815	-3.8797	-3.6543	-0.4412	-0.9447	-1.5586	-0.5755	-2.7383	-2.0142	-0.9975	-3.3234	-2.9781	-0.9495	-3.7406	-4.177	1.8991	-1.3859	1.1318	-1.5202	2.4074
-5.0834	-2.8774	-3.9708	-3.6878	-0.5323	-1.055	-1.6353	-0.6762	-2.8774	-2.1101	-1.0982	-3.472	-3.1124	-0.9639	-3.6015	-4.2969	1.9374	-1.4914	0.9927	-1.5874	2.2348
-5.069	-2.9205	-3.9756	-3.707	-0.6426	-1.1462	-1.6641	-0.7385	-2.9781	-2.158	-1.2325	-3.5823	-3.1939	-0.9927	-3.4433	-4.364	1.9806	-1.5969	0.8968	-1.6209	2.1005
-5.0306	-3.0069	-4.0283	-3.7118	-0.6618	-1.2037	-1.6689	-0.7721	-3.0596	-2.1964	-1.2948	-3.6782	-3.2562	-1.0263	-3.3521	-4.5079	2.0381	-1.6689	0.7769	-1.5969	1.947
-4.9539	-2.9781	-3.9756	-3.5823	-0.6906	-1.2181	-1.5921	-0.7961	-3.1172	-2.158	-1.3811	-3.7789	-3.2994	-1.0167	-3.2131	-4.5175	2.0573	-1.7024	0.6666	-1.5634	1.7744
-4.9011	-2.9685	-3.894	-3.5104	-0.633	-1.2181	-1.525	-0.8201	-3.1939	-2.1484	-1.4483	-3.8365	-3.3857	-1.0406	-3.0884	-4.551	2.0669	-1.7696	0.5755	-1.5154	1.5634
-4.7764	-2.863	-3.8413	-3.3809	-0.5467	-1.1749	-1.3955	-0.7577	-3.1651	-2.0765	-1.501	-3.8845	-3.3857	-1.0119	-2.9253	-4.5031	2.0381	-1.784	0.5131	-1.4675	1.4675
-4.6278	-2.7431	-3.731	-3.2179	-0.47	-1.1366	-1.2996	-0.6714	-3.1843	-2.0333	-1.5586	-3.942	-3.4001	-0.9879	-2.7575	-4.4264	1.9854	-1.8127	0.4508	-1.3907	1.3044
-4.4455	-2.5465	-3.5967	-3.0692	-0.2638	-1.0454	-1.1941	-0.5803	-3.1267	-1.9135	-1.6113	-3.9612	-3.4049	-0.9543	-2.5657	-4.3017	1.9087	-1.8319	0.4076	-1.314	1.1797
-4.2873	-2.3546	-3.4576	-2.9157	-0.0575	-0.9543	-1.0502	-0.4076	-3.0356	-1.8463	-1.5682	-3.966	-3.3905	-0.9016	-2.4362	-4.1722	1.8175	-1.8655	0.3597	-1.2037	1.0502
-4.1051	-2.0765	-3.2562	-2.7479	0.211	-0.7961	-0.9351	-0.2781	-2.9973	-1.736	-1.5682	-3.9564	-3.3713	-0.8488	-2.2396	-3.9228	1.6929	-1.8655	0.3357	-1.103	0.9399
-3.8892	-1.8463	-3.0836	-2.6472	0.4076	-0.7145	-0.8488	-0.1487	-2.8918	-1.712	-1.5874	-3.9852	-3.3905	-0.7625	-2.0429	-3.7214	1.549	-1.9087	0.2638	-1.0646	0.7433
-3.7454	-1.6449	-2.9397	-2.5033	0.657	-0.5563	-0.7385	0.0096	-2.7958	-1.6113	-1.5586	-3.9564	-3.3665	-0.6858	-1.8847	-3.4241	1.3955	-1.8703	0.2638	-0.9783	0.6474
-3.5823	-1.4435	-2.8006	-2.4122	0.8584	-0.4412	-0.6618	0.1151	-2.7383	-1.5298	-1.5634	-3.9276	-3.3665	-0.6234	-1.7216	-3.1267	1.2565	-1.9135	0.2254	-0.9256	0.5035
-3.4001	-1.29	-2.6376	-2.2827	1.0023	-0.3117	-0.5803	0.235	-2.6184	-1.4579	-1.5682	-3.8892	-3.3282	-0.5419	-1.5634	-2.7479	1.103	-1.9182	0.1487	-0.868	0.3261
-3.2754	-1.1701	-2.4937	-2.182	1.1557	-0.1918	-0.5035	0.3165	-2.5321	-1.4051	-1.6353	-3.8845	-3.3186	-0.4748	-1.4627	-2.4506	0.9591	-1.9087	0.0623	-0.7865	0.1583
-3.1411	-1.0694	-2.3786	-2.0957	1.2373	-0.0767	-0.4364	0.3501	-2.4266	-1.3428	-1.6497	-3.8557	-3.2994	-0.4028	-1.3572	-2.1197	0.8344	-1.9039	-0.0575	-0.7337	-0.0096
-3.026	-1.0167	-2.2923	-2.0381	1.2948	0.0096	-0.398	0.3741	-2.369	-1.29	-1.6737	-3.8173	-3.2322	-0.3405	-1.2517	-1.7456	0.7002	-1.8559	-0.1822	-0.657	-0.1918
-2.8918	-0.9735	-2.158	-1.9518	1.3524	0.1199	-0.3741	0.3884	-2.2923	-1.2708	-1.736	-3.7885	-3.2322	-0.2925	-1.1749	-1.4531	0.6138	-1.9039	-0.3069	-0.6186	-0.3932
-2.7911	-0.9447	-2.0525	-1.8751	1.3476	0.2014	-0.3069	0.3693	-2.2156	-1.1749	-1.7936	-3.707	-3.1699	-0.235	-1.0934	-1.1462	0.5083	-1.8367	-0.422	-0.5227	-0.5707
-2.7335	-0.9208	-1.9854	-1.7984	1.3668	0.3261	-0.2829	0.3405	-2.1149	-1.1174	-1.8319	-3.6207	-3.1172	-0.211	-1.0215	-0.9016	0.4364	-1.8079	-0.4748	-0.4652	-0.705
-2.6616	-0.9064	-1.8703	-1.6929	1.4003	0.4556	-0.235	0.3549	-1.995	-1.0406	-1.8463	-3.5488	-3.0308	-0.1726	-0.9591	-0.7002	0.3789	-1.7408	-0.5755	-0.4268	-0.8392
-2.58	-0.8584	-1.7648	-1.6257	1.4243	0.5515	-0.187	0.4172	-1.8943	-0.9687	-1.8223	-3.4576	-2.9541	-0.1535	-0.8968	-0.5083	0.3261	-1.6593	-0.6042	-0.3453	-0.9399
-2.4841	-0.8201	-1.6929	-1.549	1.4435	0.6618	-0.1343	0.4028	-1.7264	-0.8248	-1.8175	-3.3186	-2.839	-0.1247	-0.8824	-0.3645	0.2925	-1.6113	-0.6474	-0.2973	-1.0167
-2.4122	-0.7337	-1.5826	-1.4483	1.5202	0.8009	-0.0096	0.4604	-1.5826	-0.6906	-1.7696	-3.1507	-2.6472	-0.1103	-0.8344	-0.2829	0.2734	-1.4771	-0.6714	-0.1583	-1.1126
-2.3067	-0.609	-1.3955	-1.2852	1.5778	0.9687	0.1151	0.5227	-1.4051	-0.5515	-1.7024	-2.9493	-2.4985	-0.1199	-0.7721	-0.2638	0.2638	-1.3715	-0.6762	-0.0671	-1.1653
-2.2252	-0.4748	-1.2948	-1.1174	1.6833	1.1653	0.2925	0.6138	-1.1893	-0.3357	-1.6305	-2.7431	-2.3067	-0.1007	-0.7529	-0.2638	0.2542	-1.2181	-0.6666	0.0384	-1.1941
-2.1197	-0.3789	-1.1318	-0.9927	1.76	1.3524	0.3836	0.657	-1.0023	-0.1678	-1.5442	-2.5033	-2.1341	-0.1151	-0.7241	-0.3309	0.2734	-1.1462	-0.6714	0.1391	-1.2229
-1.9854	-0.2254	-0.9687	-0.8344	1.8991	1.5586	0.5755	0.7865	-0.7337	0.0336	-1.4003	-2.2348	-1.8847	-0.1199	-0.6858	-0.4124	0.2829	-0.9783	-0.6906	0.2877	-1.2373
-1.8463	-0.0815	-0.7769	-0.6714	1.971	1.7744	0.7241	0.8632	-0.4939	0.2446	-1.2804	-1.9902	-1.6689	-0.1391	-0.6522	-0.5323	0.3165	-0.8296	-0.6954	0.4364	-1.2469
-1.7312	0.0719	-0.6282	-0.5323	2.1245	2.019	0.8968	0.9831	-0.2542	0.4508	-1.1414	-1.7024	-1.4051	-0.1535	-0.6042	-0.6138	0.3597	-0.6282	-0.7241	0.5755	-1.2517
-1.5778	0.2494	-0.4076	-0.4076	2.2012	2.2491	1.0646	1.0598	0.0336	0.705	-1.0023	-1.4051	-1.1893	-0.1822	-0.5323	-0.6522	0.398	-0.5275	-0.7145	0.681	-1.2133
-1.3811	0.4076	-0.1822	-0.259	2.3067	2.5321	1.2325	1.1941	0.3357	0.9639	-0.8153	-1.103	-0.8968	-0.2062	-0.4028	-0.6186	0.446	-0.3453	-0.7481	0.8153	-1.1941
-1.2085	0.5851	0.048	-0.0767	2.4506	2.7815	1.4291	1.314	0.6426	1.1989	-0.6522	-0.7865	-0.6186	-0.235	-0.3405	-0.5611	0.5131	-0.1726	-0.7337	0.9591	-1.127
-1.0119	0.7817	0.2734	0.0144	2.5561	3.0836	1.573	1.4435	0.9399	1.4291	-0.4604	-0.4748	-0.3741	-0.2781	-0.235	-0.4652	0.6042	0	-0.7385	1.079	-1.0598
-0.8248	0.9256	0.5227	0.1535	2.6808	3.3713	1.7648	1.5778	1.1941	1.7168	-0.2734	-0.1583	-0.0863	-0.3213	-0.1295	-0.3261	0.6906	0.1583	-0.7481	1.2181	-0.9543
-0.6138	1.1174	0.7721	0.2925	2.8438	3.6303	1.9566	1.7408	1.4866	1.971	-0.0384	0.1678	0.1822	-0.3645	0	-0.1535	0.7673	0.3357	-0.6762	1.3715	-0.8536
-0.3932	1.2996	1.055	0.4364	2.9781	3.9372	2.1053	1.8847	1.7744	2.182	0.1535	0.4748	0.446	-0.4076	0.1583	0.024	0.8344	0.5131	-0.6042	1.5106	-0.7193
-0.2254	1.4435	1.2804	0.5275	3.1267	4.1818	2.2204	2.019	2.0094	2.3882	0.3597	0.7145	0.6282	-0.4556	0.2829	0.2206	0.9208	0.6426	-0.5227	1.5778	-0.5995
0.0384	1.6401	1.5346	0.6282	3.3186	4.4503	2.3978	2.182	2.2683	2.6376	0.609	1.0023	0.9064	-0.4652	0.4076	0.422	0.9879	0.7913	-0.4124	1.7264	-0.4364
0.2446	1.8079	1.7792	0.705	3.4289	4.7093	2.4793	2.3403	2.5369	2.7958	0.8057	1.2612	1.0838	-0.5083	0.5659	0.6186	1.0406	0.9208	-0.2925	1.76	-0.2638
0.4412	1.9854	2.0142	0.7769	3.5631	4.9587	2.5896	2.4985	2.7191	2.9493	1.0263	1.4818	1.2421	-0.5227	0.6954	0.7673	1.0886	1.0406	-0.1487	1.8511	-0.0959
0.6474	2.158	2.2252	0.8728	3.7262	5.1793	2.6808	2.6232	2.9445	3.1219	1.2421	1.6833	1.4099	-0.5563	0.8488	0.9016	1.1126	1.1174	-0.0432	1.8847	0.0623
0.8201	2.3355	2.4554	0.9495	3.8557	5.3999	2.7623	2.7719	3.1363	3.2754	1.4051	1.8751	1.573	-0.5707	0.9975	1.0311	1.1509	1.2133	0.0863	1.923	0.2206
0.9735	2.4602	2.6136	0.9927	3.9324	5.5773	2.8582	2.887	3.2946	3.3665	1.6017	2.0142	1.6785	-0.5899	1.1557	1.0934	1.1989	1.29	0.1726	1.947	0.3789
1.1126	2.5848	2.815	1.0311	4.0427	5.726	2.9013	2.9877	3.4193	3.4816	1.7408	2.158	1.7648	-0.5899	1.3332	1.1462	1.2325	1.3524	0.2829	1.9374	0.5083
1.2229	2.6808	2.8966	1.0406	4.1194	5.8411	2.9109	3.0596	3.52	3.5152	1.8943	2.2683	1.8271	-0.6426	1.4771	1.079	1.2948	1.362	0.3405	1.8751	0.6474
1.3428	2.8054	3.0356	1.0406	4.1866	5.9658	2.9445	3.1699	3.5967	3.5488	1.9998	2.3163	1.8463	-0.6474	1.6641	1.079	1.3092	1.3715	0.3549	1.7984	0.7433
1.3955	2.8822	3.0932	1.0119	4.2153	6.0185	2.8966	3.1651	3.6447	3.5296	2.0765	2.3355	1.8175	-0.6618	1.784	0.9879	1.3476	1.3092	0.398	1.6833	0.8105
1.4627	2.9733	3.1843	0.9927	4.2489	6.0713	2.8342	3.2275	3.6015	3.4624	2.1676	2.3307	1.7216	-0.6666	1.9374	0.9351	1.362	1.2612	0.4268	1.573	0.9016
1.5058	2.9829	3.2131	0.9591	4.2393	6.0713	2.7575	3.285	3.5871	3.3905	2.2156	2.2875	1.6689	-0.681	2.0861	0.8344	1.3859	1.2181	0.4316	1.4483	0.9927
1.501	3.0692	3.2131	0.8776	4.3065	6.0521	2.7047	3.3042	3.5536	3.285	2.2683	2.2252	1.573	-0.681	2.2012	0.7337	1.3907	1.079	0.4508	1.2804	1.0934
1.5202	3.1219	3.2035	0.8392	4.364	6.0473	2.652	3.3809	3.5008	3.1795	2.2875	2.182	1.4675	-0.681	2.3163	0.6282	1.4051	1.0263	0.4796	1.1414	1.1701
1.4914	3.1603	3.2083	0.8248	4.4072	6.0041	2.6232	3.4672	3.4576	3.0884	2.3786	2.0765	1.3332	-0.6858	2.3882	0.5323	1.4099	0.9304	0.5563	1.0311	1.2996
1.4771	3.2514	3.1795	0.916	4.5319	5.9849	2.6328	3.5727	3.4097	3.0788	2.4649	2.019	1.2612	-0.6906	2.4314	0.4268	1.4051	0.8824	0.6906	0.9256	1.4579
1.4387	3.3617	3.2131	1.0071	4.6997	5.9849	2.7239	3.731	3.3953	3.0548	2.5465	1.9758	1.2037	-0.6954	2.4889	0.3021	1.4051	0.8872	0.8344	0.8728	1.6449
1.4435	3.4816	3.1939	1.127	4.8915	5.9753	2.7958	3.8557	3.3282	3.0308	2.6328	1.9039	1.1318	-0.7002	2.5177	0.2062	1.4147	0.8392	0.9687	0.7913	1.7888
