"FZ"	"FC3"	"FCZ"	"FC4"	"C3"	"CZ"	"C4"	"CP3"	"CPZ"	"CP4"	"P3"	"PZ"	"P4"	"OZ"	"FP1"	"FP2"	"A2"	"P8"	"TP7"	"TP8"	"P7"	"VEOG"	"HEOG"
-1.1225	-0.6854	-1.4547	-0.1643	-0.7413	-1.1085	-0.2588	-0.9651	-0.9721	-0.1574	-1.112	-0.7099	0.0559	0.2063	-1.5736	-1.8113	-0.4231	1.668	0.3846	0.9721	-0.0594	-0.7168	-0.007
-1.07	-0.7099	-1.4302	-0.0979	-0.7658	-1.1015	-0.2378	-0.9686	-0.9966	-0.1049	-1.091	-0.7099	0.0629	0.2343	-1.5176	-1.8183	-0.4616	1.605	0.3147	0.9476	-0.0769	-0.542	-0.0874
-0.9791	-0.6924	-1.3638	-0.0035	-0.7623	-1.1015	-0.1818	-0.9756	-0.9896	-0.0699	-1.084	-0.7343	0.0525	0.2518	-1.4617	-1.8323	-0.493	1.5456	0.2902	0.9127	-0.1084	-0.3881	-0.1469
-0.8987	-0.7099	-1.3253	0.1154	-0.7483	-1.0805	-0.1469	-0.9651	-0.9966	-0.035	-1.0386	-0.7518	0.0245	0.2553	-1.4022	-1.8463	-0.514	1.4861	0.2378	0.8812	-0.0909	-0.2378	-0.2308
-0.8113	-0.6889	-1.2449	0.2273	-0.7099	-1.0141	-0.0664	-0.9232	-0.9686	0.028	-1.0211	-0.7658	0.0245	0.2553	-1.3288	-1.7939	-0.521	1.4092	0.2028	0.8392	-0.0525	-0.1539	-0.3217
-0.7168	-0.6364	-1.1539	0.3777	-0.6644	-0.9756	0.0315	-0.9092	-0.9756	0.0839	-0.9581	-0.7553	0.021	0.2553	-1.2134	-1.7659	-0.5105	1.3323	0.2308	0.8113	-0.0594	-0.0804	-0.3951
-0.598	-0.591	-1.0735	0.4896	-0.6189	-0.9267	0.1014	-0.8567	-0.9581	0.1399	-0.9022	-0.7553	-0.014	0.2378	-1.1539	-1.7764	-0.4686	1.2728	0.2378	0.7798	0.0035	-0.0175	-0.4791
-0.528	-0.57	-0.9966	0.591	-0.5665	-0.8777	0.1574	-0.7903	-0.9162	0.1504	-0.8287	-0.7483	-0.0385	0.1993	-1.056	-1.7344	-0.3951	1.1714	0.2762	0.7168	0.0559	0.035	-0.5665
-0.4756	-0.5245	-0.9022	0.7064	-0.493	-0.8183	0.2273	-0.7623	-0.9092	0.1678	-0.7553	-0.7273	-0.014	0.1678	-1.0071	-1.7239	-0.3252	1.098	0.2902	0.6819	0.1294	0.0944	-0.6119
-0.3986	-0.4965	-0.8357	0.7483	-0.4686	-0.7833	0.2483	-0.7064	-0.8742	0.2063	-0.6924	-0.7553	-0.0944	0.1189	-0.9162	-1.696	-0.2308	1.0036	0.3007	0.6119	0.1643	0.1329	-0.6504
-0.3427	-0.4441	-0.7448	0.8252	-0.3812	-0.7273	0.2797	-0.6329	-0.8392	0.2063	-0.6084	-0.7518	-0.1399	0.0629	-0.8602	-1.7099	-0.1469	0.8952	0.3497	0.549	0.2413	0.1993	-0.6994
-0.2867	-0.4021	-0.6714	0.8462	-0.3112	-0.6679	0.3077	-0.5665	-0.8252	0.1818	-0.5315	-0.7273	-0.1713	0.014	-0.8392	-1.689	-0.035	0.7938	0.3777	0.4721	0.3042	0.2728	-0.7553
-0.2378	-0.3707	-0.6049	0.8672	-0.2728	-0.6154	0.3042	-0.514	-0.7938	0.1609	-0.4231	-0.7099	-0.2063	-0.028	-0.7973	-1.6994	0.0525	0.6994	0.4231	0.3846	0.3672	0.3427	-0.7868
-0.2028	-0.3392	-0.542	0.8637	-0.2413	-0.5665	0.3147	-0.4266	-0.7483	0.1923	-0.3497	-0.6854	-0.2238	-0.0629	-0.7763	-1.6505	0.1364	0.6084	0.4651	0.2902	0.4476	0.4126	-0.7973
-0.1609	-0.3567	-0.4756	0.8427	-0.2028	-0.535	0.2623	-0.3602	-0.7133	0.1713	-0.2762	-0.6924	-0.2902	-0.1189	-0.7343	-1.591	0.2238	0.4896	0.4651	0.2098	0.5245	0.4826	-0.8322
-0.1154	-0.3252	-0.3916	0.8043	-0.1574	-0.4721	0.2658	-0.3007	-0.6924	0.1154	-0.1748	-0.6574	-0.3147	-0.1329	-0.6959	-1.5071	0.2902	0.4021	0.5385	0.1084	0.6015	0.5385	-0.8148
-0.0455	-0.3042	-0.3287	0.7728	-0.1189	-0.4336	0.2343	-0.2308	-0.6469	0.1154	-0.1084	-0.6609	-0.3846	-0.1853	-0.6994	-1.4022	0.3602	0.2832	0.563	0.014	0.6574	0.6119	-0.8252
-0.0105	-0.3077	-0.2518	0.7483	-0.0839	-0.3602	0.2308	-0.1539	-0.6189	0.1084	-0.014	-0.6259	-0.3846	-0.2063	-0.6539	-1.3323	0.4056	0.1853	0.6154	-0.0629	0.7448	0.6889	-0.8287
0.028	-0.3182	-0.1853	0.7133	-0.0594	-0.2937	0.2028	-0.1224	-0.6015	0.0559	0.0629	-0.5945	-0.4126	-0.2343	-0.6119	-1.2274	0.4616	0.0804	0.6224	-0.1504	0.7763	0.7518	-0.8392
0.0664	-0.2797	-0.1119	0.6854	-0.0385	-0.2378	0.1923	-0.0629	-0.535	0.0525	0.1539	-0.5595	-0.4581	-0.2483	-0.6049	-1.133	0.5175	-0.021	0.6574	-0.2098	0.8392	0.7868	-0.8217
0.0839	-0.2902	-0.0664	0.6644	-0.014	-0.2063	0.1888	-0.021	-0.4896	0.0175	0.2168	-0.563	-0.4896	-0.2902	-0.5875	-1.056	0.584	-0.1189	0.6784	-0.2693	0.8812	0.8392	-0.8148
0.1049	-0.2937	0.021	0.6294	-0.007	-0.1469	0.1713	0.0175	-0.4861	-0.021	0.2762	-0.542	-0.528	-0.3077	-0.542	-0.9651	0.6119	-0.2378	0.6889	-0.3182	0.9302	0.8637	-0.7973
0.1259	-0.3042	0.1084	0.5945	-0.0035	-0.1084	0.1364	0.0559	-0.4686	-0.0455	0.3532	-0.549	-0.5595	-0.3322	-0.521	-0.8917	0.6539	-0.3287	0.6959	-0.3637	0.9371	0.8882	-0.7833
0.1224	-0.2937	0.1224	0.5455	-0.0175	-0.0769	0.0874	0.0664	-0.4581	-0.0874	0.3986	-0.556	-0.6189	-0.3602	-0.5	-0.8148	0.7029	-0.4231	0.7029	-0.4301	1.0071	0.8847	-0.7483
0.1224	-0.3637	0.1189	0.4441	-0.0769	-0.0804	0.0455	0.0804	-0.4336	-0.1259	0.4091	-0.57	-0.6434	-0.3672	-0.4861	-0.7693	0.7378	-0.535	0.6679	-0.493	0.9861	0.8987	-0.7378
0.0699	-0.4056	0.1329	0.3881	-0.1294	-0.0629	0.0105	0.0804	-0.4651	-0.1504	0.4161	-0.5875	-0.6959	-0.4056	-0.4791	-0.6924	0.7973	-0.6294	0.6154	-0.5595	0.9861	0.8812	-0.6924
0.028	-0.4231	0.1399	0.3427	-0.1643	-0.0559	-0.014	0.0664	-0.4756	-0.2203	0.4406	-0.6084	-0.7378	-0.4126	-0.4511	-0.6224	0.8183	-0.7168	0.5945	-0.591	0.9686	0.8882	-0.6434
0.0175	-0.4616	0.1574	0.3357	-0.2343	-0.0525	-0.0385	0.0455	-0.4756	-0.2308	0.4581	-0.6119	-0.7588	-0.4126	-0.4266	-0.528	0.8287	-0.7938	0.549	-0.6504	0.9721	0.8777	-0.5945
0.007	-0.514	0.1993	0.2972	-0.2658	-0.0559	-0.0664	0.0315	-0.4861	-0.2658	0.4476	-0.6189	-0.8078	-0.4161	-0.4021	-0.4441	0.8217	-0.8637	0.5	-0.7168	0.9092	0.8707	-0.563
-0.0175	-0.5385	0.1993	0.2937	-0.3182	-0.035	-0.1014	0.0105	-0.4861	-0.3077	0.4161	-0.6399	-0.8532	-0.4161	-0.3532	-0.3147	0.8113	-0.9511	0.4091	-0.7518	0.8777	0.8637	-0.4896
0.0105	-0.5315	0.2063	0.2658	-0.3357	-0.0385	-0.0909	-0.0035	-0.493	-0.3252	0.4266	-0.6504	-0.8987	-0.3986	-0.2867	-0.1818	0.7868	-1.0351	0.3637	-0.8148	0.8217	0.8707	-0.4266
0.014	-0.5385	0.2168	0.2273	-0.3322	-0.021	-0.1469	0	-0.5105	-0.3567	0.4406	-0.6469	-0.9022	-0.3812	-0.2483	-0.0594	0.7553	-1.105	0.3217	-0.8497	0.8148	0.8917	-0.3462
0.0455	-0.5	0.2623	0.2378	-0.3182	-0.0105	-0.1609	-0.014	-0.4826	-0.3986	0.4336	-0.6749	-0.9336	-0.3602	-0.2168	0.0804	0.7168	-1.1714	0.2937	-0.8882	0.7833	0.9022	-0.2588
0.0769	-0.4441	0.3147	0.2413	-0.2902	0.042	-0.1678	0.007	-0.4581	-0.3951	0.4301	-0.6819	-0.9721	-0.3427	-0.1469	0.1783	0.6784	-1.2064	0.2203	-0.9162	0.7133	0.9267	-0.1539
0.1049	-0.3986	0.3532	0.2203	-0.2623	0.0594	-0.1748	0.042	-0.4581	-0.4336	0.4371	-0.6504	-0.9581	-0.3322	-0.0874	0.3322	0.6434	-1.2379	0.2028	-0.9371	0.6959	0.9441	-0.0315
0.1748	-0.2832	0.4126	0.2308	-0.1678	0.0909	-0.1713	0.1014	-0.4196	-0.4196	0.4581	-0.6434	-0.9581	-0.3077	-0.042	0.4476	0.6015	-1.2938	0.1713	-0.9232	0.6679	0.9511	0.042
0.2203	-0.2273	0.4371	0.2133	-0.1119	0.1259	-0.1643	0.0874	-0.3986	-0.4651	0.4441	-0.6259	-0.9721	-0.2937	0	0.5315	0.5805	-1.2903	0.1259	-0.9511	0.6015	0.9791	0.1469
0.2553	-0.1259	0.4476	0.1713	-0.0874	0.1469	-0.2168	0.1504	-0.3777	-0.4511	0.4476	-0.6259	-0.9791	-0.2728	0.0594	0.6819	0.535	-1.2833	0.0909	-0.9371	0.57	0.9721	0.2063
0.2762	-0.0455	0.4965	0.1469	-0.028	0.1434	-0.2343	0.1643	-0.3392	-0.4826	0.4616	-0.584	-0.9756	-0.2693	0.1154	0.7833	0.5105	-1.3078	0.0769	-0.9197	0.514	0.9267	0.2797
0.3007	0.0315	0.4965	0.0525	0.0455	0.1329	-0.2902	0.1923	-0.3182	-0.528	0.4511	-0.5875	-0.9756	-0.2553	0.1259	0.8742	0.4791	-1.3148	0.042	-0.9022	0.4791	0.8777	0.3672
0.2937	0.1014	0.4826	-0.028	0.0909	0.1364	-0.3322	0.2308	-0.3322	-0.549	0.4371	-0.591	-0.9826	-0.2378	0.1504	0.9406	0.4616	-1.3148	0.021	-0.9092	0.4266	0.8322	0.4371
0.3182	0.1713	0.4336	-0.1119	0.1364	0.1154	-0.3742	0.2588	-0.2972	-0.57	0.4266	-0.5525	-0.9546	-0.2028	0.2063	1.0176	0.4021	-1.2833	-0.0035	-0.8672	0.3881	0.7623	0.5105
0.3287	0.2623	0.4266	-0.2028	0.2028	0.0769	-0.4371	0.2867	-0.2797	-0.6049	0.4301	-0.5385	-0.9721	-0.1993	0.2238	1.0455	0.3812	-1.2589	-0.028	-0.8462	0.3567	0.6784	0.598
0.3112	0.3392	0.4371	-0.2623	0.2623	0.0559	-0.4581	0.3042	-0.2623	-0.591	0.4581	-0.4721	-0.9267	-0.1643	0.2308	1.091	0.3217	-1.2099	-0.0385	-0.8008	0.2937	0.598	0.6819
0.3392	0.3951	0.3846	-0.3497	0.3252	0.042	-0.507	0.3567	-0.2203	-0.5945	0.4336	-0.4476	-0.8987	-0.1434	0.2553	1.126	0.2797	-1.2029	-0.0525	-0.7553	0.2518	0.4965	0.7168
0.3217	0.4756	0.3672	-0.4371	0.3532	0.0175	-0.549	0.3637	-0.1783	-0.6015	0.4301	-0.4161	-0.8497	-0.0979	0.2658	1.1295	0.2028	-1.1504	-0.021	-0.7029	0.2133	0.4301	0.7833
0.3077	0.5105	0.3497	-0.5	0.4231	0.0245	-0.584	0.3916	-0.1539	-0.5945	0.4721	-0.3182	-0.7833	-0.0629	0.2867	1.14	0.1154	-1.084	-0.021	-0.6434	0.1958	0.3497	0.8148
0.3602	0.6015	0.3287	-0.535	0.5105	0.0245	-0.6084	0.4686	-0.0699	-0.556	0.5035	-0.2553	-0.7308	0	0.3112	1.1749	0.007	-0.9966	0.014	-0.584	0.1713	0.2693	0.8637
0.3777	0.6504	0.3532	-0.563	0.5805	0.028	-0.5945	0.535	-0.014	-0.514	0.5315	-0.1574	-0.6539	0.0699	0.3322	1.1539	-0.1084	-0.8812	0.0455	-0.4896	0.1853	0.2343	0.9022
0.4091	0.6819	0.3287	-0.577	0.6434	0.0455	-0.5875	0.584	0.0455	-0.4546	0.57	-0.0664	-0.5595	0.1084	0.3637	1.1609	-0.2238	-0.7903	0.1049	-0.4196	0.1818	0.1818	0.9267
0.4756	0.7658	0.3637	-0.556	0.7553	0.0839	-0.5385	0.6819	0.1643	-0.3742	0.6119	0.0699	-0.4301	0.1748	0.4091	1.1679	-0.3567	-0.6854	0.1609	-0.3392	0.2203	0.1574	0.9302
0.507	0.7938	0.4021	-0.5105	0.8287	0.1434	-0.493	0.7064	0.2168	-0.2902	0.6784	0.1923	-0.3007	0.2308	0.4406	1.1749	-0.4616	-0.57	0.1993	-0.2658	0.2238	0.1189	0.9336
0.57	0.8287	0.4196	-0.4441	0.8672	0.1888	-0.4336	0.7973	0.3287	-0.2168	0.7168	0.3322	-0.1853	0.2762	0.4791	1.1539	-0.556	-0.4686	0.2588	-0.1783	0.2448	0.0979	0.9406
0.6189	0.8637	0.4371	-0.3707	0.9371	0.2448	-0.3287	0.8602	0.4511	-0.1014	0.7553	0.4476	-0.0664	0.3217	0.535	1.1225	-0.6329	-0.3532	0.3077	-0.1154	0.2343	0.0909	0.9232
0.6434	0.8637	0.493	-0.3252	0.9651	0.2972	-0.2623	0.9162	0.5595	-0.0105	0.8148	0.57	0.0734	0.3637	0.5525	1.07	-0.7273	-0.2343	0.3287	-0.049	0.2483	0.0909	0.9162
0.6784	0.8812	0.5035	-0.2448	0.9756	0.3742	-0.1713	0.9546	0.6574	0.0944	0.8777	0.6679	0.1993	0.3951	0.563	0.9896	-0.7833	-0.1364	0.3707	0.0245	0.2797	0.0979	0.9162
0.7133	0.8882	0.514	-0.1853	1.0001	0.3951	-0.1014	0.9826	0.7413	0.1818	0.8847	0.7973	0.3217	0.4126	0.584	0.9232	-0.8287	-0.0175	0.3672	0.0909	0.2588	0.0944	0.9127
0.7133	0.8707	0.542	-0.1189	0.9931	0.4546	0	0.9896	0.8043	0.2797	0.9162	0.8987	0.4336	0.4371	0.6294	0.8078	-0.8707	0.0734	0.3567	0.1364	0.2413	0.1189	0.8847
0.6819	0.8183	0.5245	-0.0804	0.9616	0.5035	0.0734	1.0001	0.8812	0.3707	0.9371	0.9756	0.542	0.4336	0.6119	0.7378	-0.8882	0.1713	0.3252	0.1678	0.2378	0.1154	0.8707
0.6644	0.7833	0.5735	-0.0105	0.9022	0.5595	0.1574	1.0141	0.9651	0.4686	0.9406	1.0805	0.6539	0.4441	0.6049	0.6224	-0.9162	0.2797	0.3007	0.2378	0.1993	0.1084	0.8322
0.6749	0.7518	0.5665	0.035	0.8637	0.5805	0.2413	0.9581	1.0001	0.521	0.9162	1.14	0.7308	0.4756	0.6189	0.5525	-0.9336	0.3322	0.2902	0.2762	0.1748	0.0909	0.8043
0.6364	0.7099	0.5525	0.0944	0.8148	0.6224	0.3042	0.9057	1.0281	0.6015	0.8847	1.1539	0.7938	0.4721	0.6399	0.521	-0.9616	0.4441	0.2693	0.2972	0.1434	0.0699	0.7798
0.6434	0.6504	0.5595	0.1259	0.7588	0.6539	0.3602	0.8812	1.0805	0.6574	0.8532	1.2134	0.8602	0.4756	0.6469	0.4756	-0.9651	0.535	0.2028	0.3147	0.1119	0.035	0.7308
0.6294	0.6154	0.5455	0.1399	0.6994	0.6714	0.3846	0.8008	1.0875	0.6924	0.7973	1.2274	0.9057	0.4756	0.6819	0.4896	-0.9756	0.5735	0.1609	0.3357	0.0525	-0.0245	0.7099
0.6224	0.5665	0.57	0.1853	0.6504	0.6959	0.4196	0.7588	1.1365	0.7308	0.7728	1.2623	0.9302	0.4965	0.7133	0.5245	-0.9826	0.6224	0.1329	0.3497	0.0175	-0.0874	0.6784
0.6259	0.514	0.556	0.1853	0.577	0.6959	0.4161	0.6854	1.1085	0.7308	0.6924	1.2414	0.9581	0.4861	0.7203	0.57	-0.9826	0.6294	0.0664	0.3392	-0.0245	-0.1504	0.6504
0.6189	0.4756	0.5665	0.2098	0.521	0.6994	0.4336	0.5875	1.098	0.7308	0.6084	1.2134	0.9302	0.4791	0.7308	0.6259	-0.9511	0.6294	0.028	0.3392	-0.0874	-0.2098	0.6084
0.5875	0.4336	0.542	0.1678	0.4511	0.6924	0.3986	0.521	1.049	0.6714	0.514	1.1504	0.9092	0.4511	0.7413	0.7064	-0.9197	0.6015	-0.0315	0.3147	-0.1574	-0.2832	0.5385
0.5665	0.3812	0.5175	0.1609	0.3742	0.6539	0.3881	0.4371	1.0071	0.6469	0.4056	1.1015	0.8777	0.4336	0.7588	0.8043	-0.8847	0.57	-0.0944	0.3007	-0.1958	-0.3462	0.5
0.5245	0.3462	0.4861	0.0769	0.3042	0.6294	0.3182	0.3532	0.9267	0.5665	0.2902	1.0246	0.8252	0.4196	0.7763	0.8567	-0.8392	0.577	-0.1469	0.2728	-0.2728	-0.4056	0.4371
0.4546	0.2658	0.4196	-0.0105	0.1818	0.563	0.2028	0.1888	0.8008	0.4406	0.1643	0.8917	0.7273	0.3707	0.7064	0.8742	-0.7588	0.493	-0.2273	0.2413	-0.3777	-0.4371	0.3707
0.3846	0.1888	0.3567	-0.1189	0.0944	0.4441	0.0909	0.0734	0.7029	0.3357	0.0105	0.7763	0.6154	0.3497	0.7133	0.9686	-0.7099	0.4441	-0.3007	0.1888	-0.4686	-0.4686	0.3112
0.3147	0.1224	0.2937	-0.2133	-0.0035	0.3742	-0.0035	-0.049	0.598	0.2343	-0.1259	0.6749	0.535	0.3112	0.6574	0.9756	-0.6504	0.3672	-0.3951	0.1713	-0.5455	-0.4756	0.2238
0.2168	0.0699	0.1958	-0.3497	-0.0909	0.2867	-0.1259	-0.1888	0.4616	0.1364	-0.2658	0.5455	0.4686	0.2867	0.6049	0.9756	-0.5735	0.3042	-0.493	0.1504	-0.6574	-0.5	0.1539
0.1014	-0.0035	0.1399	-0.4336	-0.1783	0.2168	-0.2203	-0.2972	0.3637	-0.0105	-0.4091	0.4196	0.3602	0.2483	0.549	0.9022	-0.507	0.2413	-0.6049	0.1154	-0.7448	-0.514	0.1329
0	-0.0839	0.0385	-0.556	-0.2797	0.0839	-0.3147	-0.4056	0.2308	-0.1294	-0.5525	0.3077	0.2762	0.2063	0.5	0.8952	-0.4336	0.1958	-0.6994	0.0804	-0.8287	-0.5315	0.1154
-0.0909	-0.1434	-0.028	-0.6189	-0.3112	0.0035	-0.3672	-0.507	0.1294	-0.1993	-0.6434	0.2028	0.2238	0.1888	0.4336	0.7798	-0.3846	0.1888	-0.7588	0.0874	-0.8777	-0.528	0.0979
-0.1748	-0.1993	-0.1084	-0.6924	-0.4091	-0.0804	-0.4196	-0.6329	0	-0.2937	-0.7728	0.0979	0.1609	0.1399	0.3777	0.6959	-0.3042	0.1294	-0.8637	0.0944	-0.9791	-0.5525	0.0909
-0.2728	-0.2413	-0.1713	-0.7064	-0.4756	-0.1329	-0.4371	-0.6889	-0.0455	-0.3392	-0.8567	0.0594	0.1574	0.1259	0.3392	0.6154	-0.2553	0.1154	-0.9336	0.0944	-1.0176	-0.549	0.0629
-0.3637	-0.2658	-0.2098	-0.7099	-0.5105	-0.1748	-0.4546	-0.7238	-0.1049	-0.3497	-0.8847	0	0.1539	0.0909	0.2902	0.4965	-0.1923	0.1399	-0.9861	0.1049	-1.077	-0.563	0.049
-0.3951	-0.2972	-0.2343	-0.7168	-0.5385	-0.1748	-0.4231	-0.7728	-0.1678	-0.3846	-0.9336	-0.0245	0.1609	0.0664	0.2553	0.4301	-0.1399	0.1329	-1.0525	0.1434	-1.112	-0.5595	0.035
-0.4231	-0.2867	-0.2553	-0.6329	-0.5315	-0.1993	-0.3881	-0.7378	-0.1609	-0.3497	-0.9476	-0.035	0.1783	0.0455	0.2588	0.3462	-0.0979	0.1539	-1.0735	0.1643	-1.1155	-0.556	0.0175
-0.4336	-0.3077	-0.2518	-0.584	-0.5175	-0.1923	-0.3252	-0.7308	-0.1259	-0.3392	-0.9756	-0.0175	0.2168	0.028	0.2588	0.2797	-0.0699	0.1783	-1.056	0.2028	-1.119	-0.5455	0.0035
-0.4581	-0.2867	-0.2623	-0.5455	-0.5035	-0.1713	-0.2797	-0.7378	-0.1154	-0.2832	-0.9581	0	0.2588	0	0.2553	0.2168	-0.014	0.1958	-1.0525	0.2343	-1.1295	-0.549	-0.0245
-0.4441	-0.2588	-0.2728	-0.5035	-0.4581	-0.1434	-0.2028	-0.7099	-0.0664	-0.2518	-0.9302	0.0629	0.3077	-0.028	0.2553	0.1958	0.0315	0.1923	-1.0106	0.2937	-1.1225	-0.5455	-0.0385
-0.4581	-0.2728	-0.2413	-0.4371	-0.4616	-0.0909	-0.1294	-0.6504	0	-0.1818	-0.8637	0.1259	0.3777	-0.028	0.2308	0.1154	0.0664	0.2203	-1.0036	0.3322	-1.105	-0.549	-0.0944
-0.4651	-0.2623	-0.2308	-0.3742	-0.4126	-0.0594	-0.042	-0.5945	0.0525	-0.1434	-0.8462	0.1643	0.4301	-0.0734	0.2553	0.0559	0.1224	0.2448	-0.9511	0.3707	-1.0945	-0.577	-0.1224
-0.4441	-0.2343	-0.2133	-0.3497	-0.3986	-0.021	0.014	-0.535	0.1364	-0.0629	-0.7728	0.2343	0.5105	-0.0839	0.2658	0.0105	0.1643	0.2553	-0.8987	0.4021	-1.056	-0.6469	-0.1678
-0.4826	-0.2168	-0.2308	-0.3357	-0.3812	0.0105	0.049	-0.5035	0.1853	-0.0315	-0.7203	0.2867	0.5525	-0.1294	0.2308	-0.0664	0.2483	0.2762	-0.8462	0.3916	-1.0595	-0.6924	-0.2028
-0.5035	-0.2028	-0.2343	-0.3322	-0.3567	0.0175	0.1049	-0.4791	0.2518	0.0315	-0.6819	0.3287	0.6049	-0.1713	0.2063	-0.1119	0.3287	0.2588	-0.7868	0.4231	-1.0455	-0.7833	-0.2588
-0.5175	-0.1539	-0.2308	-0.3252	-0.3007	0.0559	0.1678	-0.3916	0.3182	0.1154	-0.6294	0.3672	0.6434	-0.2063	0.2098	-0.1259	0.4056	0.2623	-0.7238	0.4091	-1.0246	-0.8882	-0.2972
-0.507	-0.0804	-0.2168	-0.3077	-0.2588	0.0909	0.2343	-0.3357	0.4056	0.1748	-0.556	0.4441	0.7238	-0.2448	0.2203	-0.1014	0.4756	0.2658	-0.6504	0.4021	-0.9651	-1.0001	-0.3252
-0.5105	-0.042	-0.2028	-0.2588	-0.1923	0.1469	0.3217	-0.2448	0.4861	0.2308	-0.493	0.528	0.7693	-0.2832	0.2343	-0.0979	0.5595	0.2972	-0.5735	0.3986	-0.9267	-1.112	-0.3672
-0.4861	0.021	-0.1923	-0.2308	-0.1434	0.1993	0.3602	-0.1748	0.563	0.3252	-0.4371	0.5735	0.8217	-0.3322	0.2273	-0.0769	0.6539	0.3007	-0.4721	0.3637	-0.8777	-1.2204	-0.3846
-0.5035	0.0629	-0.1434	-0.1818	-0.0804	0.2273	0.4511	-0.1049	0.6399	0.4021	-0.3672	0.6364	0.8917	-0.3637	0.2343	-0.014	0.7133	0.2867	-0.3532	0.3672	-0.8148	-1.3078	-0.4091
-0.4546	0.1713	-0.1189	-0.1539	-0.0175	0.2867	0.5175	-0.0559	0.7308	0.4616	-0.2762	0.7099	0.9441	-0.3916	0.2413	0	0.7868	0.2693	-0.2658	0.3532	-0.7518	-1.3673	-0.4301
-0.4336	0.2448	-0.1014	-0.1084	0.0559	0.3287	0.5385	0.007	0.7728	0.5175	-0.2203	0.7448	0.9616	-0.4161	0.2308	0.014	0.8287	0.2588	-0.1539	0.3322	-0.7029	-1.4092	-0.4476
-0.4161	0.2937	-0.0979	-0.0699	0.1189	0.3742	0.5875	0.0629	0.8322	0.5875	-0.1399	0.8113	1.0246	-0.4406	0.2553	0.014	0.8497	0.2273	-0.0315	0.3462	-0.5945	-1.4547	-0.4756
-0.3777	0.3986	-0.0385	-0.049	0.2168	0.4231	0.6364	0.1748	0.8917	0.6224	-0.0944	0.8113	1.0281	-0.4371	0.2343	-0.014	0.8462	0.2028	0.0664	0.3077	-0.521	-1.4617	-0.4511
-0.3322	0.4616	-0.014	-0.014	0.2972	0.4791	0.6399	0.2203	0.9441	0.6679	-0.0385	0.8427	1.042	-0.4476	0.2553	-0.0315	0.8567	0.1399	0.1958	0.2902	-0.4371	-1.4791	-0.4476
-0.2972	0.5385	0.0315	0.0455	0.3742	0.5315	0.7308	0.2972	0.9791	0.7308	0.014	0.8742	1.049	-0.4161	0.2623	-0.0175	0.8252	0.1259	0.2972	0.2797	-0.3462	-1.5001	-0.4581
-0.2658	0.6119	0.0455	0.0909	0.4126	0.535	0.7483	0.3322	1.0001	0.7413	0.0385	0.8742	1.0141	-0.4056	0.2658	0.014	0.8148	0.0769	0.3846	0.2553	-0.2902	-1.4966	-0.4581
-0.2518	0.6399	0.0804	0.1399	0.4965	0.563	0.7833	0.3497	1.0036	0.7448	0.0455	0.8392	0.9861	-0.4021	0.2902	0.007	0.7938	-0.0315	0.4651	0.2378	-0.2098	-1.4826	-0.4686
-0.2203	0.7029	0.0979	0.2133	0.5035	0.577	0.8462	0.3707	1.0036	0.7658	0.0455	0.8078	0.9616	-0.3916	0.3147	0.028	0.7728	-0.0909	0.5315	0.2063	-0.1539	-1.5036	-0.5035
-0.1923	0.7133	0.1049	0.2658	0.5595	0.5875	0.8672	0.3602	0.9721	0.7693	0.0385	0.7168	0.8812	-0.4021	0.3462	0.042	0.7693	-0.1853	0.591	0.1783	-0.1014	-1.5141	-0.5455
-0.2028	0.7343	0.0944	0.3112	0.5525	0.584	0.9127	0.3532	0.9057	0.7413	-0.0105	0.6469	0.7938	-0.3846	0.3427	0.0559	0.7623	-0.2623	0.6259	0.1434	-0.0734	-1.5211	-0.6119
-0.1993	0.7378	0.0769	0.3287	0.5315	0.542	0.8987	0.2972	0.8392	0.7099	-0.0385	0.563	0.7238	-0.4021	0.3637	0.0559	0.7728	-0.3637	0.6609	0.0979	-0.0385	-1.5561	-0.6714
-0.2308	0.7099	0.0455	0.3672	0.507	0.4896	0.8882	0.2378	0.7553	0.6015	-0.1014	0.4266	0.598	-0.3846	0.3742	0.049	0.7833	-0.4336	0.6889	0.0455	-0.014	-1.5771	-0.7483
-0.2343	0.6924	-0.0035	0.3777	0.4476	0.4336	0.8217	0.1993	0.6259	0.549	-0.2063	0.2658	0.4476	-0.4266	0.3672	0.049	0.8217	-0.591	0.7273	-0.0105	0.0315	-1.619	-0.7833
-0.2413	0.6714	-0.014	0.3497	0.4021	0.3637	0.7658	0.1364	0.5245	0.4651	-0.2658	0.1294	0.3182	-0.4231	0.3497	0.0594	0.8427	-0.6714	0.7588	-0.0594	0.0629	-1.668	-0.8462
-0.2797	0.6504	-0.042	0.3532	0.3916	0.2972	0.7343	0.1014	0.4091	0.3846	-0.2937	-0.0035	0.1993	-0.4301	0.3707	0.1014	0.8602	-0.7973	0.8008	-0.1049	0.1049	-1.696	-0.8742
-0.3147	0.6329	-0.0979	0.3812	0.3672	0.2448	0.7064	0.0594	0.3217	0.2902	-0.3357	-0.1539	0.0769	-0.4371	0.3567	0.1294	0.8672	-0.9092	0.8392	-0.1574	0.1574	-1.7169	-0.8987
-0.3252	0.6189	-0.1189	0.3497	0.3392	0.1678	0.6399	0.0245	0.2063	0.2273	-0.3846	-0.2832	-0.0629	-0.4476	0.3462	0.1748	0.8742	-1.0036	0.8742	-0.1888	0.2098	-1.7239	-0.9371
-0.3567	0.6224	-0.1678	0.3357	0.3532	0.1364	0.591	0.0105	0.0839	0.1364	-0.4266	-0.4161	-0.1888	-0.4406	0.3147	0.2133	0.8777	-1.1295	0.9302	-0.2273	0.2623	-1.7064	-0.9302
-0.4056	0.5665	-0.2238	0.3392	0.2832	0.0734	0.521	-0.0455	-0.0455	0.035	-0.4686	-0.57	-0.3147	-0.4336	0.2448	0.2308	0.8637	-1.1854	0.9406	-0.2797	0.3147	-1.6785	-0.9336
-0.4371	0.5525	-0.2553	0.3252	0.2867	0.021	0.4965	-0.0699	-0.1504	-0.028	-0.521	-0.6959	-0.4511	-0.4196	0.2308	0.2518	0.8252	-1.2519	1.0141	-0.3217	0.3672	-1.6295	-0.9197
-0.4546	0.4791	-0.3287	0.2832	0.2273	-0.0664	0.3986	-0.1049	-0.2658	-0.1189	-0.542	-0.8183	-0.5735	-0.4021	0.1748	0.2553	0.8148	-1.2973	1.0351	-0.3742	0.4266	-1.6015	-0.9197
-0.542	0.4021	-0.4161	0.2518	0.1748	-0.1294	0.3322	-0.1504	-0.3846	-0.1993	-0.5735	-0.9441	-0.6924	-0.3986	0.1259	0.2203	0.7903	-1.3777	1.0595	-0.3881	0.5035	-1.5526	-0.9302
-0.598	0.3042	-0.5175	0.2238	0.1154	-0.1853	0.2623	-0.2098	-0.535	-0.2797	-0.6224	-1.0875	-0.8008	-0.3846	0.0385	0.2028	0.7658	-1.4477	1.0595	-0.4371	0.5245	-1.4861	-0.9022
-0.6994	0.2168	-0.598	0.1783	0.0455	-0.2867	0.1923	-0.2728	-0.6644	-0.4161	-0.6644	-1.2309	-0.9267	-0.3777	-0.0455	0.1259	0.7553	-1.4931	1.0805	-0.4756	0.5525	-1.4302	-0.9232
-0.7903	0.1014	-0.7133	0.1119	-0.0245	-0.3846	0.1014	-0.3357	-0.8252	-0.521	-0.7064	-1.3777	-1.0525	-0.3742	-0.1259	0.042	0.7413	-1.5736	1.0805	-0.514	0.598	-1.3463	-0.8812
-0.9162	0.0035	-0.8183	0.0525	-0.1049	-0.5105	-0.0035	-0.4126	-0.9651	-0.6189	-0.7693	-1.5246	-1.1539	-0.3881	-0.1574	-0.0175	0.7448	-1.6155	1.0665	-0.5735	0.6329	-1.2973	-0.8987
-1.0106	-0.0874	-0.9476	-0.021	-0.2028	-0.577	-0.0629	-0.4441	-1.098	-0.6959	-0.8008	-1.6645	-1.2693	-0.3707	-0.2623	-0.1084	0.7413	-1.6715	1.063	-0.6224	0.6399	-1.2169	-0.8637
-1.1365	-0.2028	-1.049	-0.0629	-0.2658	-0.6959	-0.1364	-0.5315	-1.2449	-0.8043	-0.8462	-1.8044	-1.3952	-0.3777	-0.3392	-0.1678	0.7413	-1.7169	1.0875	-0.6399	0.6819	-1.1714	-0.8532
-1.2798	-0.2867	-1.1574	-0.1364	-0.3497	-0.8078	-0.2098	-0.5805	-1.3498	-0.8847	-0.8847	-1.9093	-1.4757	-0.3846	-0.3951	-0.2238	0.7483	-1.7274	1.0735	-0.6714	0.7133	-1.105	-0.8008
-1.3428	-0.3777	-1.2519	-0.1818	-0.4126	-0.9162	-0.2553	-0.6294	-1.4722	-0.9651	-0.8812	-2.0247	-1.5421	-0.3846	-0.4441	-0.2553	0.7728	-1.7379	1.077	-0.6924	0.7343	-1.0525	-0.7658
-1.4791	-0.4791	-1.3638	-0.2483	-0.4651	-0.9686	-0.2797	-0.6714	-1.5631	-1.0281	-0.9197	-2.1365	-1.633	-0.4056	-0.4721	-0.3077	0.7973	-1.7659	1.063	-0.7099	0.7623	-0.9931	-0.7308
-1.5631	-0.549	-1.4372	-0.2623	-0.5035	-1.056	-0.2623	-0.6784	-1.654	-1.0665	-0.8952	-2.1925	-1.6785	-0.4196	-0.4965	-0.3112	0.8148	-1.7484	1.0665	-0.7029	0.8078	-0.9511	-0.7413
-1.64	-0.6224	-1.4931	-0.2937	-0.549	-1.119	-0.2588	-0.7238	-1.7239	-1.091	-0.9022	-2.2415	-1.6925	-0.4266	-0.5105	-0.3077	0.8427	-1.7204	1.049	-0.6889	0.8462	-0.9162	-0.7029
-1.654	-0.6749	-1.5141	-0.2937	-0.5735	-1.1435	-0.2623	-0.7308	-1.7659	-1.0735	-0.8987	-2.3079	-1.7239	-0.4406	-0.5	-0.3147	0.8427	-1.682	1.056	-0.6749	0.8952	-0.8707	-0.6924
-1.7169	-0.7308	-1.5561	-0.3042	-0.6084	-1.1679	-0.2168	-0.7413	-1.7904	-1.07	-0.8637	-2.3044	-1.7099	-0.4231	-0.507	-0.2972	0.8602	-1.605	1.0141	-0.6224	0.9022	-0.8148	-0.6889
-1.7344	-0.7833	-1.5806	-0.3217	-0.6434	-1.1994	-0.1923	-0.7413	-1.7939	-1.0665	-0.8567	-2.3219	-1.7204	-0.4441	-0.4861	-0.2797	0.8672	-1.5561	0.9476	-0.6015	0.9162	-0.7833	-0.6854
-1.696	-0.8043	-1.5841	-0.3042	-0.6609	-1.1994	-0.1259	-0.7448	-1.8044	-1.0351	-0.8043	-2.3114	-1.6575	-0.4266	-0.4441	-0.2902	0.8567	-1.4791	0.9267	-0.5175	0.9162	-0.7343	-0.6959
-1.6785	-0.8217	-1.5561	-0.2867	-0.6434	-1.1679	-0.0699	-0.7308	-1.8009	-1.0071	-0.7763	-2.2834	-1.64	-0.4196	-0.3951	-0.2832	0.8427	-1.4162	0.8777	-0.4581	0.9267	-0.6784	-0.6889
-1.675	-0.8392	-1.5596	-0.2832	-0.6574	-1.1504	-0.035	-0.7029	-1.7624	-0.9616	-0.7378	-2.2554	-1.5841	-0.4021	-0.3427	-0.2797	0.8043	-1.3393	0.8462	-0.4021	0.9302	-0.6224	-0.6854
-1.647	-0.8602	-1.5386	-0.2588	-0.6574	-1.1225	0.014	-0.7029	-1.7449	-0.9232	-0.6854	-2.2135	-1.5316	-0.4021	-0.3112	-0.2937	0.7798	-1.2763	0.8113	-0.3322	0.8917	-0.57	-0.7099
-1.6225	-0.8567	-1.5001	-0.2378	-0.6679	-1.1225	0.0664	-0.6714	-1.7239	-0.8567	-0.6364	-2.1715	-1.4896	-0.3742	-0.2902	-0.3252	0.7378	-1.1854	0.7413	-0.2728	0.8567	-0.5175	-0.7203
-1.5806	-0.8567	-1.4617	-0.1993	-0.6504	-1.0805	0.1574	-0.6539	-1.6925	-0.8252	-0.6084	-2.14	-1.4337	-0.3322	-0.2448	-0.3287	0.6749	-1.105	0.6959	-0.1853	0.8322	-0.4826	-0.7483
-1.5386	-0.8322	-1.4232	-0.1504	-0.6119	-1.0316	0.2028	-0.6609	-1.668	-0.7448	-0.591	-2.0736	-1.3568	-0.3112	-0.1539	-0.3112	0.6224	-1.07	0.6259	-0.1189	0.7693	-0.4756	-0.7798
-1.5141	-0.8287	-1.3812	-0.1189	-0.5945	-1.0001	0.2728	-0.6364	-1.619	-0.7099	-0.577	-2.0142	-1.3008	-0.2937	-0.1084	-0.3112	0.57	-0.9966	0.5595	-0.042	0.7343	-0.4756	-0.8113
-1.4442	-0.8078	-1.3428	-0.0455	-0.6049	-0.9651	0.3567	-0.6154	-1.5875	-0.6574	-0.5455	-1.9722	-1.2519	-0.2518	-0.0525	-0.2553	0.4965	-0.9197	0.4581	0.0245	0.6434	-0.493	-0.8427
-1.4022	-0.7798	-1.3043	-0.0175	-0.57	-0.9197	0.4126	-0.6119	-1.5491	-0.577	-0.5665	-1.9337	-1.1819	-0.2273	-0.028	-0.2168	0.4441	-0.8602	0.3567	0.1084	0.5595	-0.5385	-0.8707
-1.3603	-0.7448	-1.2344	0.0664	-0.556	-0.8952	0.4686	-0.6015	-1.5071	-0.5	-0.528	-1.8673	-1.119	-0.1818	0.0559	-0.1259	0.3567	-0.7658	0.2588	0.2308	0.4476	-0.584	-0.8707
-1.3043	-0.7133	-1.1854	0.1084	-0.5525	-0.8742	0.4965	-0.6084	-1.4687	-0.4616	-0.5455	-1.8428	-1.056	-0.1574	0.0979	-0.0455	0.2937	-0.7064	0.1818	0.3077	0.3462	-0.6399	-0.8777
-1.2484	-0.6609	-1.1504	0.1469	-0.556	-0.8427	0.5315	-0.6469	-1.4407	-0.4161	-0.5735	-1.7974	-0.9861	-0.1224	0.1574	0.0594	0.2343	-0.6399	0.0804	0.3672	0.2658	-0.6819	-0.8847
-1.1679	-0.6189	-1.063	0.2308	-0.528	-0.8113	0.563	-0.6224	-1.4197	-0.3532	-0.577	-1.7134	-0.9302	-0.0804	0.2553	0.1678	0.1469	-0.563	-0.0105	0.4686	0.1748	-0.7203	-0.8602
-1.126	-0.577	-1.0176	0.2693	-0.521	-0.7693	0.591	-0.6084	-1.3812	-0.2937	-0.598	-1.6435	-0.8252	-0.035	0.3077	0.2378	0.0664	-0.507	-0.0839	0.5595	0.0909	-0.7413	-0.8217
-1.056	-0.5385	-0.9686	0.3077	-0.5	-0.7413	0.6224	-0.6434	-1.3498	-0.2343	-0.6154	-1.6225	-0.7623	0.0035	0.3812	0.3602	-0.021	-0.4336	-0.1783	0.6469	0.007	-0.7378	-0.7693
-0.9651	-0.507	-0.9092	0.3672	-0.4896	-0.7133	0.6259	-0.598	-1.2903	-0.1504	-0.6504	-1.5316	-0.6714	0.0594	0.4546	0.4756	-0.1119	-0.3497	-0.2832	0.7099	-0.0909	-0.7308	-0.7168
-0.9197	-0.493	-0.8882	0.3986	-0.507	-0.6959	0.6434	-0.6714	-1.2623	-0.1119	-0.6994	-1.4722	-0.5805	0.0839	0.493	0.5665	-0.1783	-0.3217	-0.3742	0.7518	-0.1958	-0.6889	-0.6434
-0.8497	-0.4546	-0.8567	0.4056	-0.521	-0.6714	0.6399	-0.6819	-1.2239	-0.0594	-0.7553	-1.4022	-0.549	0.1294	0.5945	0.7029	-0.2797	-0.2588	-0.5245	0.8148	-0.3112	-0.6399	-0.5875
-0.8287	-0.4546	-0.7833	0.4476	-0.535	-0.6679	0.6644	-0.7064	-1.1749	0.0315	-0.8148	-1.3428	-0.4546	0.1783	0.6119	0.7938	-0.3427	-0.1993	-0.6434	0.8497	-0.4161	-0.5525	-0.521
-0.7483	-0.4651	-0.7693	0.4791	-0.5805	-0.6469	0.6679	-0.7448	-1.1295	0.0909	-0.8987	-1.3008	-0.3567	0.2133	0.6854	0.9546	-0.4336	-0.1294	-0.8113	0.9127	-0.5665	-0.4616	-0.4161
-0.7133	-0.4756	-0.7658	0.4896	-0.6259	-0.6469	0.6539	-0.8183	-1.1155	0.1259	-1.0106	-1.2623	-0.2972	0.2553	0.7728	1.1015	-0.5035	-0.0664	-0.9441	0.9302	-0.7133	-0.3707	-0.3637
-0.7133	-0.4756	-0.7238	0.4581	-0.7064	-0.6539	0.6364	-0.9057	-1.1015	0.1748	-1.1155	-1.2554	-0.2273	0.2972	0.8357	1.2763	-0.5805	-0.0105	-1.1225	0.9686	-0.8707	-0.2658	-0.3077
-0.7029	-0.4965	-0.7658	0.4406	-0.7728	-0.6749	0.6259	-0.9931	-1.0875	0.2168	-1.2309	-1.2134	-0.1574	0.3077	0.9651	1.4302	-0.6294	0.049	-1.2833	0.9791	-1.0211	-0.1748	-0.2203
-0.6994	-0.549	-0.7973	0.3777	-0.8602	-0.7064	0.5875	-1.112	-1.105	0.2203	-1.3847	-1.2274	-0.1119	0.3252	1.0036	1.619	-0.6644	0.0944	-1.4652	1.0036	-1.1959	-0.0909	-0.1504
-0.7378	-0.5945	-0.7973	0.3252	-0.9371	-0.7448	0.514	-1.1924	-1.112	0.2238	-1.5351	-1.2134	-0.0804	0.3462	1.091	1.7519	-0.7029	0.1294	-1.626	0.9651	-1.3917	0.014	-0.0699
-0.7553	-0.6154	-0.8113	0.2203	-1.0351	-0.7903	0.4686	-1.3113	-1.147	0.2238	-1.675	-1.2169	-0.0525	0.3567	1.1574	1.9128	-0.7308	0.1609	-1.7729	0.9651	-1.5316	0.0804	0.0035
-0.7553	-0.6504	-0.8567	0.1399	-1.126	-0.8427	0.3916	-1.4162	-1.1609	0.2203	-1.8323	-1.2274	-0.021	0.3637	1.2274	2.0596	-0.7343	0.1504	-1.9232	0.9336	-1.7134	0.1434	0.0594
-0.7623	-0.6889	-0.8777	0.049	-1.2134	-0.8812	0.3147	-1.5176	-1.1819	0.1888	-1.9827	-1.2484	0.007	0.3637	1.2589	2.182	-0.7378	0.1888	-2.0771	0.9022	-1.8673	0.1818	0.1189
-0.7938	-0.7238	-0.9162	-0.0664	-1.2763	-0.9267	0.2343	-1.626	-1.1924	0.1748	-2.1156	-1.2728	-0.014	0.3602	1.3288	2.2974	-0.7203	0.1783	-2.189	0.8427	-2.0351	0.2168	0.1713
-0.7833	-0.7413	-0.9232	-0.1748	-1.3323	-0.9581	0.1818	-1.689	-1.1819	0.1643	-2.224	-1.2484	0.0315	0.3637	1.3777	2.3568	-0.7133	0.1923	-2.2729	0.7728	-2.1296	0.2658	0.2028
-0.7833	-0.7693	-0.9267	-0.2378	-1.4022	-0.9966	0.0944	-1.7869	-1.2099	0.1364	-2.3394	-1.2589	0.0455	0.3532	1.4197	2.4373	-0.6924	0.1678	-2.3813	0.7378	-2.2484	0.3112	0.2098
-0.7658	-0.7658	-0.9267	-0.3147	-1.4267	-1.0211	0.028	-1.8463	-1.1854	0.1154	-2.4128	-1.2204	0.0804	0.3427	1.4861	2.4932	-0.6749	0.1609	-2.4338	0.6749	-2.3603	0.3392	0.2168
-0.7763	-0.7868	-0.9197	-0.3881	-1.4407	-1.042	-0.035	-1.8568	-1.1609	0.0944	-2.4862	-1.1889	0.0839	0.3252	1.4826	2.5177	-0.6539	0.1259	-2.4932	0.584	-2.4722	0.3812	0.2028
-0.7518	-0.7518	-0.9476	-0.4546	-1.4791	-1.077	-0.0909	-1.8988	-1.1574	0.0594	-2.5562	-1.1784	0.0979	0.3112	1.5001	2.5457	-0.6294	0.1154	-2.5177	0.528	-2.5107	0.4301	0.1678
-0.7378	-0.7413	-0.9267	-0.493	-1.4617	-1.063	-0.1119	-1.9023	-1.098	0.0664	-2.5352	-1.1085	0.1574	0.3147	1.5141	2.5771	-0.6119	0.0874	-2.5142	0.4511	-2.5562	0.4686	0.1259
-0.7133	-0.6854	-0.9022	-0.5	-1.4197	-1.0455	-0.1748	-1.8988	-1.0595	0.035	-2.5562	-1.0595	0.1783	0.2937	1.5246	2.5282	-0.5875	0.0804	-2.4792	0.3951	-2.5771	0.4896	0.0839
-0.6889	-0.6679	-0.8672	-0.563	-1.3777	-1.049	-0.2413	-1.8568	-1.0071	0.0035	-2.5282	-1.0071	0.2448	0.2762	1.5001	2.5002	-0.563	0.0315	-2.4478	0.3147	-2.5492	0.5105	0.0245
-0.6784	-0.6154	-0.8637	-0.5945	-1.3568	-1.0211	-0.2483	-1.8218	-0.9476	0	-2.5072	-0.9546	0.2343	0.2693	1.5071	2.4652	-0.542	-0.007	-2.3988	0.2658	-2.5282	0.4826	-0.042
-0.6714	-0.5805	-0.8392	-0.6399	-1.2903	-1.0036	-0.3147	-1.8044	-0.9057	-0.0455	-2.4967	-0.8917	0.2623	0.2448	1.4826	2.4338	-0.5	-0.0245	-2.3184	0.1818	-2.5282	0.4406	-0.0909
-0.6469	-0.5105	-0.8078	-0.6749	-1.2134	-1.0001	-0.3602	-1.7519	-0.8707	-0.0664	-2.4478	-0.8462	0.2693	0.2343	1.5071	2.4303	-0.4651	-0.0455	-2.238	0.1189	-2.4583	0.3462	-0.1923
-0.6329	-0.4721	-0.7798	-0.7308	-1.1539	-0.9546	-0.4406	-1.6994	-0.8287	-0.1119	-2.3813	-0.7763	0.2658	0.1958	1.4966	2.4128	-0.4021	-0.0804	-2.154	0.028	-2.3883	0.2553	-0.2762
-0.6294	-0.4196	-0.7658	-0.7658	-1.084	-0.9371	-0.4686	-1.6365	-0.7938	-0.1748	-2.3394	-0.7588	0.2413	0.1399	1.4722	2.3534	-0.3252	-0.1434	-2.0247	-0.0734	-2.3324	0.1364	-0.3567
-0.5595	-0.3077	-0.6854	-0.7518	-0.9616	-0.8567	-0.4826	-1.5456	-0.7133	-0.1783	-2.2345	-0.6714	0.2762	0.1224	1.5281	2.3464	-0.2588	-0.1643	-1.8813	-0.1364	-2.217	0.014	-0.4161
-0.563	-0.2448	-0.6714	-0.7483	-0.8672	-0.8113	-0.5175	-1.4512	-0.6644	-0.2098	-2.1365	-0.6154	0.2483	0.0769	1.5071	2.3603	-0.1469	-0.2483	-1.7484	-0.2378	-2.1121	-0.1084	-0.493
-0.5	-0.1189	-0.549	-0.7168	-0.7378	-0.7413	-0.5245	-1.3043	-0.542	-0.2273	-2.0037	-0.514	0.2658	0.0455	1.5211	2.4163	-0.0979	-0.2728	-1.5701	-0.3007	-1.9617	-0.2203	-0.549
-0.4266	-0.0315	-0.5245	-0.7238	-0.6154	-0.6784	-0.5315	-1.2064	-0.4756	-0.2623	-1.8708	-0.4441	0.2483	-0.014	1.5456	2.4198	0.0035	-0.3567	-1.4267	-0.3846	-1.8498	-0.3147	-0.5945
-0.3707	0.0594	-0.4511	-0.7064	-0.4616	-0.5945	-0.5175	-1.063	-0.3777	-0.2797	-1.7414	-0.3427	0.2518	-0.0455	1.5736	2.5212	0.0559	-0.3881	-1.2134	-0.4546	-1.6925	-0.3742	-0.6154
-0.2902	0.1748	-0.3637	-0.6819	-0.3007	-0.4965	-0.5245	-0.9302	-0.2588	-0.2378	-1.5806	-0.2518	0.2413	-0.0769	1.5841	2.6121	0.1294	-0.4371	-1.0351	-0.4965	-1.5316	-0.4126	-0.6434
-0.2168	0.2693	-0.2623	-0.6609	-0.1643	-0.4056	-0.4965	-0.7833	-0.1643	-0.2693	-1.4127	-0.1224	0.2693	-0.1084	1.605	2.6646	0.1993	-0.507	-0.8287	-0.5525	-1.3847	-0.3777	-0.6469
-0.1119	0.3777	-0.1678	-0.6084	-0.028	-0.3182	-0.4965	-0.6504	-0.0664	-0.2553	-1.2728	-0.049	0.2553	-0.1504	1.6295	2.78	0.2588	-0.542	-0.6784	-0.5875	-1.2239	-0.3182	-0.6609
0.0035	0.5105	-0.0559	-0.584	0.1399	-0.1958	-0.4651	-0.4721	0.0909	-0.2238	-1.1015	0.0944	0.2518	-0.1748	1.661	2.8709	0.3112	-0.6084	-0.4371	-0.6224	-1.049	-0.2238	-0.6679
0.0839	0.5805	0.0105	-0.563	0.2553	-0.1154	-0.4126	-0.3357	0.1853	-0.2378	-0.9232	0.2133	0.2728	-0.1958	1.696	2.9828	0.3707	-0.6539	-0.2693	-0.6504	-0.8742	-0.1014	-0.6959
0.1958	0.6539	0.1049	-0.4965	0.3707	-0.0035	-0.3742	-0.1923	0.3112	-0.1888	-0.7273	0.3462	0.3077	-0.2133	1.7169	3.1122	0.4091	-0.6994	-0.0769	-0.6504	-0.6924	0.028	-0.6784
0.2797	0.7099	0.1993	-0.4476	0.4791	0.1119	-0.3252	-0.0559	0.4511	-0.1504	-0.5805	0.4581	0.3112	-0.2413	1.7799	3.2136	0.4546	-0.7588	0.0664	-0.6714	-0.5245	0.1783	-0.6889
0.3392	0.7693	0.2518	-0.4231	0.577	0.1713	-0.2832	0.0699	0.521	-0.1574	-0.4126	0.57	0.3077	-0.2693	1.7974	3.3255	0.507	-0.8043	0.2413	-0.7029	-0.3322	0.3322	-0.6819
0.4126	0.8113	0.3077	-0.4126	0.6574	0.2378	-0.2623	0.1783	0.6189	-0.1574	-0.2728	0.6469	0.2762	-0.2867	1.8288	3.4513	0.5595	-0.8812	0.3986	-0.6959	-0.1678	0.4721	-0.6609
0.4126	0.8392	0.3252	-0.3986	0.7168	0.2832	-0.2518	0.2867	0.7029	-0.1643	-0.1224	0.7168	0.2518	-0.3077	1.8603	3.6087	0.6154	-0.9406	0.5595	-0.7168	-0.0315	0.591	-0.6679
0.4476	0.8567	0.3497	-0.4196	0.7658	0.3252	-0.2518	0.3742	0.7518	-0.1958	0	0.7833	0.1783	-0.3427	1.9023	3.7556	0.6819	-1.0176	0.6889	-0.7308	0.1469	0.6924	-0.6434
0.4546	0.8637	0.3672	-0.4371	0.7973	0.3567	-0.2832	0.4441	0.8183	-0.2378	0.1469	0.8322	0.1259	-0.3846	1.9232	3.8954	0.7448	-1.0665	0.8637	-0.7413	0.3427	0.7623	-0.6259
0.4476	0.8427	0.3637	-0.4511	0.8287	0.3357	-0.2972	0.521	0.8427	-0.2937	0.2168	0.8322	0.0385	-0.4231	1.9687	4.0388	0.8148	-1.1539	0.9931	-0.7728	0.5	0.8113	-0.598
0.4336	0.8462	0.3672	-0.4406	0.8742	0.3602	-0.3042	0.5875	0.8462	-0.3567	0.3637	0.8672	-0.0035	-0.4371	1.9722	4.1612	0.8707	-1.2134	1.126	-0.7903	0.6854	0.8567	-0.6084
0.4196	0.7938	0.3567	-0.4581	0.8462	0.3182	-0.3322	0.6259	0.8637	-0.4161	0.4406	0.8497	-0.0979	-0.4721	2.0142	4.2451	0.9267	-1.2833	1.2693	-0.7938	0.8427	0.8917	-0.5875
0.3881	0.7798	0.3182	-0.4896	0.8392	0.3007	-0.3637	0.6364	0.8392	-0.4965	0.5035	0.8462	-0.2098	-0.493	2.0072	4.3395	0.9581	-1.3603	1.3742	-0.8252	0.9791	0.8917	-0.5665
0.3672	0.7203	0.2972	-0.5525	0.7868	0.2378	-0.4406	0.6399	0.7798	-0.6049	0.5595	0.7798	-0.3322	-0.5105	2.0072	4.385	1.0001	-1.4477	1.4896	-0.8462	1.1295	0.8882	-0.5525
0.3357	0.6819	0.2553	-0.577	0.7343	0.1783	-0.4791	0.6364	0.7413	-0.6994	0.57	0.6784	-0.4371	-0.521	1.9967	4.4479	1.0211	-1.5141	1.5841	-0.8777	1.2519	0.8812	-0.521
0.2972	0.598	0.1713	-0.6434	0.6819	0.1084	-0.563	0.6015	0.6539	-0.8183	0.6189	0.6399	-0.584	-0.528	1.9897	4.4619	1.042	-1.598	1.661	-0.8987	1.3533	0.8532	-0.507
0.2308	0.549	0.1049	-0.7238	0.6329	0.014	-0.6259	0.57	0.57	-0.9406	0.6364	0.5595	-0.7029	-0.535	1.9757	4.4829	1.0525	-1.6925	1.7449	-0.9197	1.4826	0.8183	-0.4791
0.1923	0.4616	0.028	-0.8008	0.5455	-0.0664	-0.7238	0.5455	0.4826	-1.042	0.6539	0.4791	-0.8113	-0.5455	1.9337	4.4794	1.0595	-1.7694	1.8358	-0.9686	1.6015	0.7623	-0.4861
0.1399	0.4056	-0.0315	-0.8567	0.4896	-0.1748	-0.8602	0.528	0.3916	-1.1504	0.6854	0.4021	-0.9197	-0.535	1.8988	4.4374	1.0735	-1.8288	1.8848	-0.9756	1.7134	0.6959	-0.4476
0.0909	0.3322	-0.1189	-0.9721	0.4546	-0.2378	-0.9267	0.5	0.3147	-1.2693	0.7238	0.3497	-1.0141	-0.57	1.8848	4.3885	1.0945	-1.8953	1.9862	-1.0071	1.8778	0.6084	-0.4231
0	0.2553	-0.2448	-1.0595	0.3497	-0.3742	-1.0735	0.4721	0.2203	-1.3987	0.7343	0.2623	-1.1015	-0.577	1.8113	4.3221	1.1155	-1.9232	2.0596	-1.0386	1.9687	0.4826	-0.4231
-0.0734	0.1539	-0.3462	-1.1854	0.3147	-0.4826	-1.1854	0.4721	0.1154	-1.4896	0.8008	0.2273	-1.1539	-0.5805	1.7484	4.1997	1.14	-1.9617	2.161	-1.0735	2.1086	0.3742	-0.3916
-0.2133	0.0664	-0.5	-1.3498	0.2273	-0.6224	-1.3148	0.4336	0.0175	-1.605	0.8707	0.1643	-1.2449	-0.6084	1.64	4.0668	1.1994	-1.9862	2.2415	-1.1225	2.217	0.2797	-0.4196
-0.3182	-0.0455	-0.6609	-1.5071	0.1609	-0.7448	-1.4861	0.4266	-0.0804	-1.7134	0.9232	0.1469	-1.2798	-0.6224	1.5421	3.9199	1.2484	-1.9897	2.3079	-1.1504	2.3673	0.1539	-0.4021
-0.507	-0.1748	-0.8462	-1.7274	0.0769	-0.9127	-1.6575	0.3916	-0.1888	-1.8568	0.9861	0.1014	-1.3288	-0.6749	1.4127	3.7556	1.3148	-2.0107	2.3603	-1.1749	2.4897	0.0245	-0.4021
-0.6539	-0.2553	-1.0246	-1.8953	0	-1.0316	-1.8183	0.4441	-0.2518	-1.9162	1.1225	0.1364	-1.3428	-0.6994	1.2973	3.5632	1.3777	-1.9827	2.4687	-1.2029	2.6786	-0.0909	-0.4161
-0.8532	-0.3672	-1.2274	-2.1191	-0.0559	-1.1924	-1.9932	0.4091	-0.3812	-2.0421	1.2134	0.1049	-1.3533	-0.7448	1.1435	3.3814	1.4617	-1.9582	2.5457	-1.2519	2.8394	-0.2238	-0.4336
-1.0001	-0.4476	-1.3812	-2.3219	-0.0839	-1.3533	-2.1505	0.4441	-0.4336	-2.147	1.3393	0.1224	-1.3533	-0.7693	1.0455	3.1926	1.5281	-1.9093	2.6156	-1.2763	3.0177	-0.3707	-0.4511
-1.2204	-0.5665	-1.5945	-2.5387	-0.1574	-1.5106	-2.3359	0.4651	-0.563	-2.2484	1.4442	0.1189	-1.3463	-0.8008	0.8742	2.9863	1.591	-1.8463	2.6925	-1.2728	3.1751	-0.4965	-0.4756
-1.3812	-0.7099	-1.7834	-2.7485	-0.2203	-1.654	-2.5072	0.4441	-0.6434	-2.3499	1.5701	0.1189	-1.3533	-0.8357	0.7518	2.8324	1.654	-1.7589	2.7345	-1.3078	3.3464	-0.6504	-0.5035
-1.6085	-0.8602	-2.0177	-2.9653	-0.3077	-1.8393	-2.6716	0.4301	-0.7448	-2.4827	1.6645	0.1189	-1.3673	-0.8672	0.5735	2.6541	1.7239	-1.6994	2.8184	-1.3148	3.5178	-0.7728	-0.535
-1.7904	-1.0036	-2.238	-3.2031	-0.4301	-2.0351	-2.8814	0.3881	-0.8987	-2.6016	1.7764	0.1049	-1.3393	-0.9022	0.4721	2.4932	1.7764	-1.6295	2.8359	-1.3428	3.6716	-0.8952	-0.5875
-1.9932	-1.1994	-2.4792	-3.4024	-0.549	-2.224	-3.0667	0.3357	-1.0246	-2.738	1.8358	0.0525	-1.4022	-0.9267	0.3252	2.3743	1.8288	-1.5596	2.8429	-1.3533	3.8115	-1.0211	-0.6189
-2.238	-1.3987	-2.724	-3.6437	-0.6819	-2.4058	-3.2765	0.2867	-1.1644	-2.8569	1.8568	-0.021	-1.4477	-0.9406	0.2028	2.2065	1.8568	-1.4722	2.8254	-1.3638	3.9199	-1.1015	-0.6504
-2.4757	-1.612	-2.9688	-3.8465	-0.8427	-2.6471	-3.4583	0.1853	-1.3568	-3.0317	1.8708	-0.1084	-1.4931	-0.9406	0.049	2.0946	1.8673	-1.4162	2.7765	-1.3603	4.0073	-1.1749	-0.6749
-2.6995	-1.8533	-3.2136	-4.0563	-1.0351	-2.8849	-3.6786	0.0734	-1.5386	-3.1856	1.8673	-0.2168	-1.5841	-0.9511	-0.1084	1.9862	1.8708	-1.3498	2.724	-1.3707	4.0913	-1.2414	-0.6994
-2.9618	-2.0841	-3.4723	-4.2836	-1.2204	-3.1087	-3.8605	-0.049	-1.7659	-3.3464	1.8253	-0.3357	-1.668	-0.9336	-0.2588	1.8953	1.8673	-1.2973	2.6261	-1.3707	4.1087	-1.2903	-0.6889
-3.2031	-2.3464	-3.7381	-4.4899	-1.4022	-3.322	-4.0598	-0.1923	-2.0002	-3.5388	1.7589	-0.5	-1.7624	-0.9232	-0.3916	1.7799	1.8428	-1.2239	2.5492	-1.3673	4.1297	-1.2938	-0.6854
-3.4513	-2.5736	-3.9968	-4.6822	-1.605	-3.5807	-4.2276	-0.3462	-2.217	-3.7101	1.6994	-0.6399	-1.8603	-0.9197	-0.5595	1.6994	1.8253	-1.1539	2.4303	-1.3638	4.1507	-1.3008	-0.6259
-3.6926	-2.8149	-4.2661	-4.8711	-1.8463	-3.815	-4.427	-0.5315	-2.4687	-3.8745	1.598	-0.8427	-1.9617	-0.9267	-0.6994	1.661	1.8113	-1.119	2.3079	-1.4022	4.1018	-1.3008	-0.6294
-3.9584	-3.0527	-4.5214	-5.0319	-2.0561	-4.0108	-4.5668	-0.7133	-2.6855	-4.0143	1.4442	-1.0316	-2.0596	-0.8987	-0.8742	1.5631	1.7834	-1.0351	2.161	-1.3777	4.0318	-1.2589	-0.5805
-4.1857	-3.259	-4.7347	-5.1683	-2.2659	-4.2067	-4.6857	-0.8917	-2.8884	-4.1542	1.3603	-1.1924	-2.168	-0.8882	-1.0071	1.5666	1.7414	-0.9476	2.0002	-1.3847	3.9654	-1.2344	-0.5385
-4.399	-3.4863	-4.9445	-5.2942	-2.4583	-4.385	-4.7766	-1.0875	-3.0807	-4.2731	1.1959	-1.3707	-2.238	-0.8777	-1.105	1.5631	1.7274	-0.8882	1.8393	-1.3952	3.843	-1.2064	-0.5
-4.5808	-3.7101	-5.1508	-5.3571	-2.6995	-4.5843	-4.878	-1.2728	-3.2975	-4.3745	1.0386	-1.5421	-2.3149	-0.8602	-1.2728	1.5421	1.7099	-0.8183	1.6295	-1.3673	3.7206	-1.147	-0.4441
-4.7626	-3.9129	-5.3012	-5.4026	-2.8919	-4.7382	-4.92	-1.4337	-3.4304	-4.4409	0.9022	-1.654	-2.3289	-0.8427	-1.3288	1.5421	1.661	-0.7133	1.4547	-1.3358	3.5807	-1.1015	-0.3602
-4.941	-4.1122	-5.4935	-5.455	-3.0807	-4.8676	-4.962	-1.647	-3.6122	-4.5109	0.7343	-1.8358	-2.3918	-0.8252	-1.4547	1.5491	1.6365	-0.6119	1.2519	-1.3183	3.3919	-1.0455	-0.2588
-5.0739	-4.2976	-5.5984	-5.441	-3.2835	-4.9795	-4.969	-1.7939	-3.7136	-4.5109	0.5315	-1.9652	-2.4128	-0.7973	-1.4931	1.5701	1.5736	-0.4965	1.0386	-1.2658	3.2171	-1.0106	-0.1574
-5.1718	-4.4549	-5.7173	-5.42	-3.4583	-5.0564	-4.969	-1.9862	-3.843	-4.5179	0.3532	-2.0946	-2.4058	-0.7658	-1.5561	1.6155	1.5071	-0.3986	0.8357	-1.2064	3.0247	-0.9826	-0.0629
-5.2452	-4.6368	-5.7872	-5.3886	-3.6332	-5.1508	-4.9165	-2.168	-3.9164	-4.5249	0.1434	-2.203	-2.4023	-0.7203	-1.5561	1.6994	1.4127	-0.2623	0.6015	-1.133	2.8114	-0.9686	0.0175
-5.3047	-4.7801	-5.8537	-5.3116	-3.7835	-5.1613	-4.8571	-2.3429	-4.0213	-4.4969	-0.0525	-2.3324	-2.3743	-0.6749	-1.5806	1.8183	1.3288	-0.1434	0.3742	-1.049	2.5667	-0.9546	0.1399
-5.3571	-4.92	-5.9096	-5.2277	-3.9689	-5.1788	-4.7836	-2.5247	-4.0738	-4.4339	-0.2518	-2.3918	-2.3149	-0.6224	-1.5701	1.9407	1.2379	-0.0105	0.1329	-0.9721	2.3079	-0.9721	0.2028
-5.3501	-5.0599	-5.9236	-5.1193	-4.1332	-5.1858	-4.6997	-2.703	-4.1122	-4.3745	-0.4651	-2.4932	-2.2764	-0.5805	-1.5316	2.1261	1.1435	0.1259	-0.1119	-0.8567	2.0596	-1.0141	0.2762
-5.3571	-5.1473	-5.8956	-5.0004	-4.2626	-5.1718	-4.5948	-2.8289	-4.1402	-4.2521	-0.6469	-2.5597	-2.1715	-0.542	-1.4966	2.2939	1.056	0.2972	-0.3637	-0.7693	1.7764	-1.049	0.3672
-5.3326	-5.2172	-5.9061	-4.9165	-4.392	-5.1438	-4.4934	-2.9828	-4.1542	-4.1647	-0.8707	-2.6086	-2.0806	-0.4965	-1.4652	2.4583	0.9616	0.4546	-0.6154	-0.6504	1.4896	-1.091	0.4406
-5.2907	-5.2942	-5.8781	-4.8221	-4.4864	-5.1088	-4.385	-3.1331	-4.1612	-4.0563	-1.07	-2.6751	-1.9827	-0.4511	-1.4337	2.6156	0.8882	0.6434	-0.8847	-0.542	1.2204	-1.1539	0.507
-5.2592	-5.3466	-5.8257	-4.7277	-4.5913	-5.0634	-4.2766	-3.266	-4.1507	-3.9059	-1.2449	-2.6995	-1.8393	-0.3986	-1.4127	2.7974	0.7833	0.8462	-1.119	-0.3846	0.9441	-1.2064	0.5595
-5.2137	-5.3781	-5.7592	-4.6682	-4.6612	-4.9725	-4.1822	-3.3779	-4.1192	-3.7626	-1.4442	-2.7135	-1.7134	-0.3462	-1.3742	2.8989	0.6854	1.0176	-1.3498	-0.2378	0.6854	-1.2344	0.6399
-5.1718	-5.4096	-5.6823	-4.5878	-4.7592	-4.934	-4.0598	-3.5178	-4.1052	-3.6052	-1.64	-2.738	-1.5841	-0.3112	-1.3358	3.0247	0.6084	1.1924	-1.6365	-0.1119	0.3637	-1.2798	0.7133
-5.0739	-5.4026	-5.5984	-4.5144	-4.8361	-4.8151	-3.9409	-3.6367	-4.0738	-3.4444	-1.8183	-2.7625	-1.4477	-0.2588	-1.3253	3.1331	0.521	1.3638	-1.8848	0.0455	0.0769	-1.3113	0.7693
-4.976	-5.3921	-5.469	-4.3955	-4.8745	-4.7067	-3.8185	-3.7276	-3.9968	-3.2765	-2.0002	-2.773	-1.2589	-0.2133	-1.2484	3.1856	0.4301	1.5596	-2.1435	0.1853	-0.2168	-1.3078	0.8637
-4.8571	-5.3816	-5.3151	-4.2941	-4.9235	-4.5773	-3.6716	-3.794	-3.9269	-3.0562	-2.147	-2.745	-1.091	-0.1923	-1.147	3.329	0.3602	1.7659	-2.4268	0.3287	-0.5	-1.3323	0.9232
-4.7172	-5.2977	-5.1368	-4.1787	-4.913	-4.406	-3.4968	-3.85	-3.815	-2.8534	-2.2764	-2.724	-0.9022	-0.1399	-1.0316	3.4513	0.2658	1.9442	-2.6716	0.4896	-0.7938	-1.3253	0.9721
-4.4794	-5.2242	-4.9095	-3.9829	-4.8955	-4.2032	-3.2905	-3.8815	-3.6681	-2.6156	-2.4058	-2.682	-0.6784	-0.0909	-0.8882	3.5702	0.1748	2.14	-2.9058	0.6434	-1.0281	-1.2728	1.0316
-4.3011	-5.1193	-4.7137	-3.8115	-4.8745	-4.0178	-3.0807	-3.9094	-3.5563	-2.3848	-2.5317	-2.6051	-0.5175	-0.0455	-0.7378	3.6856	0.0944	2.3044	-3.1506	0.8043	-1.2868	-1.2099	1.0735
-4.0808	-4.9795	-4.4689	-3.6332	-4.8221	-3.808	-2.8639	-3.9199	-3.3989	-2.14	-2.5946	-2.5317	-0.2762	0.007	-0.5735	3.787	-0.007	2.4548	-3.3464	0.9406	-1.5351	-1.091	1.133
-3.829	-4.8466	-4.1717	-3.3989	-4.7382	-3.5772	-2.6576	-3.8919	-3.2206	-1.8778	-2.6681	-2.4198	-0.0525	0.049	-0.4161	3.843	-0.1084	2.6086	-3.5458	1.1085	-1.7309	-0.9127	1.1994
-3.5667	-4.6717	-3.9129	-3.1821	-4.6123	-3.3464	-2.4338	-3.85	-3.0282	-1.626	-2.7065	-2.3464	0.1329	0.0979	-0.2518	3.9129	-0.2028	2.7275	-3.6821	1.2484	-1.9267	-0.7099	1.2589
-3.2835	-4.4794	-3.6227	-2.9688	-4.4969	-3.0562	-2.2205	-3.794	-2.8289	-1.3533	-2.717	-2.2065	0.3707	0.1539	-0.0839	3.9549	-0.3042	2.8534	-3.871	1.3742	-2.0911	-0.4546	1.3183
-3.0003	-4.2556	-3.3255	-2.731	-4.329	-2.7974	-1.9372	-3.7066	-2.6051	-1.1015	-2.7345	-2.0806	0.5665	0.1993	0.0944	3.9968	-0.4056	2.9443	-3.9724	1.5001	-2.2484	-0.1853	1.3673
-2.7275	-4.0458	-3.0282	-2.5002	-4.1542	-2.5422	-1.7344	-3.6157	-2.4128	-0.8392	-2.7275	-1.9477	0.7938	0.2553	0.2623	4.0353	-0.5	3.0282	-4.1052	1.6015	-2.3813	0.1014	1.4442
-2.4757	-3.815	-2.752	-2.2764	-3.9934	-2.3044	-1.4966	-3.5458	-2.2415	-0.6364	-2.7485	-1.8218	0.9651	0.2867	0.4056	4.0808	-0.5665	3.0667	-4.2137	1.689	-2.5387	0.4056	1.5281
-2.2415	-3.5877	-2.5072	-2.0316	-3.8185	-2.0351	-1.2868	-3.4513	-2.0491	-0.4196	-2.766	-1.7309	1.1155	0.2902	0.563	4.1927	-0.6084	3.0842	-4.3221	1.7764	-2.6925	0.6644	1.5841
-2.0142	-3.3709	-2.238	-1.8323	-3.6402	-1.8183	-1.056	-3.3534	-1.8638	-0.2098	-2.7275	-1.5945	1.2903	0.3112	0.7343	4.3081	-0.6469	3.0947	-4.392	1.8358	-2.7625	0.9546	1.654
-1.7869	-3.1541	-2.0316	-1.6085	-3.4653	-1.5945	-0.8532	-3.2695	-1.682	-0.007	-2.724	-1.4687	1.4477	0.3252	0.8567	4.427	-0.6854	3.0562	-4.4829	1.8708	-2.8884	1.2309	1.7029
-1.5771	-2.9163	-1.7729	-1.3428	-3.287	-1.3812	-0.6399	-3.1506	-1.4931	0.1993	-2.696	-1.3463	1.5841	0.3497	1.0351	4.6473	-0.7133	3.0422	-4.5389	1.9302	-2.9793	1.4722	1.7274
-1.3603	-2.71	-1.5666	-1.1539	-3.1157	-1.1679	-0.4581	-3.0737	-1.3323	0.3637	-2.71	-1.2728	1.682	0.3567	1.1714	4.8116	-0.7168	3.0003	-4.5948	1.9372	-3.0737	1.7064	1.7799
-1.1889	-2.5247	-1.3603	-0.9546	-2.9828	-1.0036	-0.2797	-3.0107	-1.1889	0.5175	-2.703	-1.1435	1.8148	0.3602	1.3288	5.0913	-0.7238	2.9373	-4.6508	1.9372	-3.1856	1.8918	1.7939
-1.0176	-2.3254	-1.1924	-0.7798	-2.8184	-0.8357	-0.1014	-2.9128	-1.0595	0.6294	-2.6925	-1.0665	1.8918	0.3707	1.4477	5.2977	-0.7518	2.8674	-4.7032	1.9722	-3.245	2.1086	1.7869
-0.8392	-2.1226	-0.9861	-0.5665	-2.682	-0.6434	0.0734	-2.8149	-0.9057	0.7693	-2.6681	-0.9581	2.0072	0.3881	1.5806	5.5215	-0.7868	2.8079	-4.7522	1.9827	-3.3569	2.2869	1.8183
-0.6819	-1.9407	-0.8183	-0.4231	-2.5457	-0.4861	0.1748	-2.724	-0.7938	0.8602	-2.6541	-0.8742	2.0386	0.4021	1.7064	5.7592	-0.8113	2.7205	-4.7661	1.9652	-3.4374	2.4268	1.8148
-0.4721	-1.7904	-0.6469	-0.2413	-2.4268	-0.3427	0.3042	-2.6296	-0.6504	0.9651	-2.6191	-0.7868	2.0981	0.4266	1.8603	5.9795	-0.8672	2.6331	-4.7871	1.9512	-3.4968	2.5527	1.8078
-0.3497	-1.6085	-0.4826	-0.0909	-2.2799	-0.2028	0.4231	-2.5562	-0.528	1.056	-2.5667	-0.6609	2.161	0.4511	1.9687	6.1858	-0.9092	2.5492	-4.7801	1.9267	-3.5597	2.6401	1.8253
-0.1713	-1.4652	-0.3287	0.028	-2.161	-0.0455	0.5315	-2.4478	-0.4336	1.1155	-2.5282	-0.584	2.1995	0.4651	2.1016	6.3747	-0.9441	2.4338	-4.8011	1.9162	-3.6192	2.7555	1.8113
0.021	-1.2833	-0.1888	0.1643	-2.0212	0.0944	0.6399	-2.3568	-0.3042	1.2029	-2.4652	-0.493	2.2415	0.493	2.2624	6.5845	-1.0036	2.3568	-4.7801	1.8988	-3.6542	2.8324	1.8078
0.1853	-1.1539	-0.028	0.2902	-1.8883	0.2413	0.7728	-2.2415	-0.1748	1.2903	-2.3953	-0.3777	2.2939	0.5175	2.3673	6.7908	-1.0386	2.2694	-4.7592	1.9093	-3.6821	2.8779	1.7589
0.3322	-0.9896	0.1119	0.4021	-1.7484	0.3497	0.8427	-2.1505	-0.0664	1.3533	-2.3324	-0.2797	2.3114	0.542	2.4827	6.9831	-1.0805	2.1925	-4.7347	1.9023	-3.7171	2.9303	1.7239
0.4791	-0.8427	0.2553	0.5	-1.6505	0.4651	0.9162	-2.0491	0.0594	1.4267	-2.2799	-0.1783	2.3534	0.556	2.6331	7.165	-1.119	2.1226	-4.7207	1.8953	-3.7661	2.9338	1.6435
0.6224	-0.7273	0.3602	0.57	-1.5316	0.5735	1.0071	-1.9617	0.1539	1.4687	-2.217	-0.0629	2.3708	0.563	2.78	7.3328	-1.1365	2.0701	-4.6962	1.8953	-3.801	2.9548	1.591
0.7588	-0.5805	0.4756	0.6609	-1.4232	0.6749	1.0875	-1.8743	0.2308	1.5246	-2.1575	0.028	2.3988	0.5805	2.9128	7.5286	-1.1749	1.9932	-4.6857	1.9162	-3.8185	2.9548	1.5316
0.8392	-0.493	0.5525	0.6889	-1.3882	0.7238	1.1085	-1.8393	0.2623	1.5386	-2.1226	0.0559	2.3743	0.5875	3.0212	7.6125	-1.1819	1.9197	-4.7067	1.8848	-3.878	2.9933	1.4896
0.9651	-0.3497	0.6504	0.7273	-1.2938	0.7763	1.147	-1.7869	0.3077	1.5491	-2.1226	0.1084	2.3743	0.5945	3.1821	7.7979	-1.1994	1.8428	-4.6962	1.8883	-3.9479	2.9758	1.4267
1.0176	-0.2518	0.7238	0.7483	-1.2274	0.7973	1.1749	-1.7484	0.3357	1.5281	-2.0981	0.1574	2.3359	0.5875	3.273	7.8923	-1.1924	1.7484	-4.6962	1.8428	-3.9968	3.0142	1.3463
1.0665	-0.1713	0.7553	0.7238	-1.1574	0.8357	1.1784	-1.7379	0.3217	1.5001	-2.1226	0.1609	2.2974	0.5805	3.4094	7.9797	-1.1679	1.64	-4.7207	1.8148	-4.1262	3.0527	1.2973
1.133	-0.0594	0.8148	0.7168	-1.112	0.8462	1.1714	-1.7064	0.3252	1.4826	-2.1261	0.1609	2.2345	0.577	3.5667	8.1056	-1.1644	1.5386	-4.7277	1.7904	-4.1892	3.1122	1.2693
1.1644	0.035	0.8322	0.6679	-1.1015	0.8183	1.119	-1.7344	0.2762	1.3812	-2.203	0.0944	2.14	0.5595	3.6402	8.1301	-1.126	1.4022	-4.7522	1.7239	-4.3011	3.1961	1.1889
1.2239	0.1049	0.8637	0.6015	-1.0455	0.7798	1.0735	-1.7589	0.1993	1.3008	-2.2659	0.0559	2.0107	0.5455	3.7661	8.1895	-1.105	1.2833	-4.7696	1.6645	-4.4095	3.3045	1.1155
1.2309	0.1539	0.8707	0.549	-1.0455	0.7693	1.0036	-1.8009	0.1399	1.1819	-2.3289	-0.0175	1.9093	0.521	3.836	8.1615	-1.0525	1.1365	-4.7871	1.5701	-4.5109	3.4444	1.0351
1.2274	0.2063	0.8357	0.4336	-1.0036	0.6924	0.8882	-1.8183	0.049	1.0386	-2.4618	-0.1469	1.7274	0.514	3.8989	8.186	-1.0455	0.9931	-4.8116	1.4442	-4.6123	3.6262	0.9581
1.2099	0.2448	0.8357	0.3392	-1.0106	0.6469	0.7833	-1.8743	-0.049	0.8917	-2.5562	-0.2378	1.5491	0.4896	3.9479	8.1441	-0.9966	0.8392	-4.8676	1.3533	-4.7312	3.8115	0.8917
1.2239	0.2623	0.8217	0.2413	-1.0351	0.57	0.6609	-1.9302	-0.1469	0.7413	-2.6681	-0.3497	1.3742	0.4861	4.0353	8.1161	-0.9791	0.6819	-4.9025	1.2134	-4.8186	4.0143	0.8078
1.2344	0.3217	0.7903	0.1119	-1.0246	0.514	0.5385	-1.9722	-0.1958	0.584	-2.766	-0.4511	1.2064	0.4721	4.0353	8.0252	-0.9511	0.5315	-4.899	1.0735	-4.892	4.2556	0.7203
1.1924	0.3147	0.7623	-0.021	-1.0106	0.4581	0.4126	-2.0247	-0.3042	0.4371	-2.8604	-0.5665	1.0001	0.4476	4.0388	7.9482	-0.9127	0.3357	-4.927	0.9267	-4.9969	4.4864	0.6679
1.1784	0.3462	0.7238	-0.1364	-1.0246	0.4056	0.2797	-2.0561	-0.3846	0.2588	-2.9443	-0.6504	0.8322	0.4301	4.0598	7.8224	-0.8637	0.1818	-4.9165	0.7833	-5.0039	4.7382	0.549
1.1644	0.3637	0.7029	-0.2588	-1.0176	0.3462	0.1189	-2.0771	-0.4301	0.0804	-3.0107	-0.7483	0.6539	0.3986	4.0493	7.6965	-0.8217	-0.0245	-4.9025	0.5805	-5.0284	5.0004	0.4756
1.1749	0.3742	0.6889	-0.3672	-0.9791	0.3287	0.042	-2.0596	-0.4301	-0.014	-3.0597	-0.7973	0.5035	0.3812	4.0353	7.6195	-0.7728	-0.1504	-4.8676	0.4056	-5.0179	5.2277	0.3846
1.1749	0.4196	0.7029	-0.4581	-0.9336	0.3007	-0.0315	-2.0491	-0.4756	-0.1434	-3.0772	-0.8637	0.3602	0.3532	4.0283	7.5531	-0.7168	-0.3112	-4.7906	0.2378	-4.955	5.4375	0.3182
1.1365	0.4266	0.6749	-0.57	-0.9022	0.2588	-0.1678	-2.0281	-0.5	-0.2693	-3.0737	-0.8672	0.2028	0.3357	4.0108	7.4237	-0.6539	-0.4266	-4.7242	0.0699	-4.892	5.6508	0.2168
1.1155	0.4861	0.6644	-0.6574	-0.8532	0.2832	-0.2658	-1.9792	-0.4791	-0.3672	-3.0492	-0.8812	0.0979	0.2867	3.9899	7.3398	-0.5665	-0.584	-4.6333	-0.0839	-4.8221	5.7907	0.1259
1.098	0.4756	0.6644	-0.7238	-0.8008	0.2518	-0.3427	-1.9128	-0.4511	-0.4686	-2.9688	-0.8917	-0.0175	0.2448	3.9829	7.3293	-0.4826	-0.7029	-4.5004	-0.2378	-4.6787	5.9026	0.049
1.0805	0.5525	0.6644	-0.8148	-0.7448	0.2728	-0.3986	-1.8323	-0.4441	-0.5595	-2.8814	-0.8812	-0.1119	0.2133	3.9304	7.2769	-0.4231	-0.8148	-4.364	-0.3812	-4.5668	6.018	-0.028
1.056	0.5875	0.6609	-0.8462	-0.6644	0.2588	-0.4616	-1.7099	-0.4231	-0.6259	-2.8079	-0.8777	-0.1888	0.1713	3.8989	7.3153	-0.3427	-0.9232	-4.2346	-0.5035	-4.413	6.0495	-0.1329
1.0386	0.6154	0.6819	-0.8777	-0.563	0.2728	-0.493	-1.591	-0.3392	-0.6819	-2.6716	-0.8392	-0.2483	0.1224	3.9199	7.3083	-0.2693	-1.0211	-4.0808	-0.6434	-4.2346	6.0635	-0.2238
1.0281	0.6644	0.6644	-0.9022	-0.4826	0.2797	-0.535	-1.4582	-0.3077	-0.7483	-2.5527	-0.7938	-0.3182	0.0839	3.8954	7.3573	-0.1993	-1.126	-3.8745	-0.7588	-4.0493	6.0565	-0.3532
1.0036	0.7168	0.6784	-0.9371	-0.4126	0.3007	-0.5805	-1.3148	-0.2378	-0.7938	-2.3953	-0.7448	-0.3672	0.0525	3.8675	7.3992	-0.1224	-1.1959	-3.7171	-0.9057	-3.8675	6.018	-0.4581
1.0106	0.7308	0.6889	-0.9546	-0.3112	0.3077	-0.6049	-1.1714	-0.1783	-0.8322	-2.2205	-0.6959	-0.4231	0.028	3.8465	7.4482	-0.0769	-1.3183	-3.5248	-1.0106	-3.6542	5.9725	-0.57
1.0071	0.7868	0.6784	-0.9336	-0.2098	0.3357	-0.6154	-1.0176	-0.0944	-0.8357	-2.0212	-0.591	-0.4056	0.021	3.8605	7.4727	-0.0315	-1.3358	-3.322	-1.1155	-3.3884	5.9166	-0.6819
0.9721	0.8322	0.6469	-0.9406	-0.1014	0.3322	-0.6644	-0.8672	-0.0245	-0.8532	-1.8463	-0.521	-0.4301	-0.014	3.8325	7.5321	0.0175	-1.3847	-3.1017	-1.2204	-3.1261	5.8397	-0.7693
0.9721	0.8672	0.6749	-0.9336	0.0035	0.3707	-0.6889	-0.6819	0.0804	-0.8357	-1.5841	-0.3916	-0.3846	-0.049	3.8465	7.6056	0.0769	-1.4092	-2.8674	-1.2868	-2.8429	5.7697	-0.8252
0.9791	0.9022	0.6644	-0.8952	0.1469	0.4231	-0.6854	-0.4861	0.2028	-0.8043	-1.3288	-0.2553	-0.3112	-0.0699	3.8745	7.6545	0.1294	-1.3847	-2.6016	-1.3603	-2.5282	5.6893	-0.9057
0.9581	0.9476	0.6574	-0.8777	0.2483	0.4651	-0.6434	-0.2832	0.3252	-0.7588	-1.0735	-0.1154	-0.2483	-0.0944	3.9234	7.7559	0.1993	-1.3323	-2.3673	-1.3847	-2.238	5.6159	-0.9756
0.9966	1.042	0.6749	-0.8322	0.3986	0.5385	-0.6364	-0.0559	0.5	-0.6644	-0.7693	0.0664	-0.0839	-0.1294	3.9444	7.8468	0.2658	-1.2379	-2.0666	-1.4162	-1.8883	5.5354	-1.042
1.0106	1.1225	0.6889	-0.7693	0.5735	0.6189	-0.577	0.1853	0.6364	-0.5665	-0.4511	0.2797	0.0559	-0.1783	3.9654	7.9797	0.3392	-1.1225	-1.7799	-1.4302	-1.5561	5.455	-1.119
1.0455	1.2064	0.7168	-0.6959	0.7448	0.7203	-0.4896	0.4301	0.8287	-0.4511	-0.1259	0.5105	0.2728	-0.2063	4.0248	8.1056	0.4056	-0.9616	-1.5036	-1.3603	-1.1994	5.3991	-1.1609
1.056	1.3043	0.7588	-0.6224	0.9197	0.7903	-0.3986	0.6784	1.0386	-0.2693	0.2133	0.7448	0.4826	-0.2448	4.0493	8.207	0.4861	-0.7868	-1.1749	-1.3323	-0.8008	5.3676	-1.2309
1.0805	1.3952	0.8113	-0.542	1.077	0.9197	-0.3077	0.9127	1.2379	-0.0944	0.5735	1.0211	0.7658	-0.2693	4.0948	8.3224	0.5385	-0.5805	-0.9057	-1.2728	-0.4091	5.3606	-1.2623
1.0735	1.4582	0.8252	-0.4336	1.2239	1.0036	-0.1748	1.1435	1.4232	0.0839	0.9197	1.2658	1.0036	-0.3147	4.1018	8.4273	0.6154	-0.3497	-0.5735	-1.2064	-0.007	5.3886	-1.3148
1.098	1.5631	0.8987	-0.3357	1.3777	1.112	-0.035	1.4057	1.654	0.3042	1.2728	1.5421	1.3008	-0.3322	4.1402	8.5392	0.6574	-0.0455	-0.2867	-1.0945	0.3951	5.441	-1.3603
1.1225	1.6505	0.9302	-0.2238	1.5141	1.2064	0.0734	1.6225	1.8463	0.5035	1.605	1.8009	1.5875	-0.3567	4.1472	8.6196	0.6959	0.1993	-0.0035	-0.9861	0.7553	5.5564	-1.3603
1.14	1.7099	1.0036	-0.1399	1.6505	1.2798	0.1993	1.8498	2.0421	0.7133	1.9337	2.0736	1.8883	-0.3707	4.1927	8.6966	0.7378	0.4965	0.3007	-0.8462	1.1609	5.6473	-1.3987
1.1644	1.8009	1.0455	-0.0559	1.7729	1.4022	0.3182	2.0701	2.231	0.9127	2.2694	2.3184	2.182	-0.3777	4.1717	8.7385	0.7483	0.8322	0.577	-0.7064	1.5806	5.8117	-1.3882
1.1504	1.8498	1.105	-0.0035	1.8988	1.4652	0.4371	2.2729	2.3743	1.1085	2.5946	2.5702	2.4548	-0.3812	4.1682	8.7805	0.7483	1.0875	0.8497	-0.5665	1.9617	5.9621	-1.4372
1.1889	1.9058	1.1539	0.0664	2.0247	1.5841	0.5315	2.4792	2.5387	1.2938	2.8884	2.773	2.745	-0.3567	4.1367	8.77	0.7378	1.3917	1.1085	-0.4301	2.3149	6.1194	-1.4162
1.1854	1.9617	1.1574	0.0734	2.1191	1.633	0.6224	2.6261	2.6751	1.4372	3.1611	3.0038	2.9758	-0.3637	4.1262	8.7665	0.7064	1.668	1.3777	-0.3042	2.6751	6.2873	-1.4302
1.1994	1.9722	1.2029	0.1154	2.2065	1.668	0.6714	2.766	2.7625	1.5875	3.3884	3.1611	3.2171	-0.3672	4.0703	8.742	0.6959	1.9407	1.5875	-0.1574	3.0212	6.4376	-1.4477
1.2169	2.0281	1.2309	0.1294	2.2589	1.6994	0.7448	2.9128	2.8534	1.7484	3.6332	3.3569	3.4513	-0.3357	4.0773	8.6931	0.6644	2.2205	1.8009	-0.0385	3.3255	6.56	-1.4372
1.1959	2.0247	1.2484	0.1049	2.3184	1.7554	0.7938	3.0282	2.9128	1.8568	3.843	3.5178	3.6507	-0.3357	3.9829	8.5847	0.6434	2.4583	2.0037	0.0664	3.6122	6.6719	-1.4232
1.2134	2.0386	1.2623	0.0979	2.3778	1.7554	0.8252	3.1192	2.9933	1.9792	4.0388	3.6612	3.871	-0.3042	3.9724	8.5182	0.6084	2.7275	2.1645	0.2238	3.8884	6.7523	-1.3882
1.1819	2.0421	1.2763	0.0769	2.4093	1.7764	0.8672	3.2066	3.0317	2.0946	4.1997	3.822	4.0738	-0.2937	3.9129	8.4413	0.5875	2.9618	2.3324	0.3322	4.1507	6.7978	-1.3568
1.1854	2.0037	1.2519	0.028	2.4023	1.7589	0.8882	3.273	3.0877	2.1785	4.3605	3.9444	4.2591	-0.2797	3.8325	8.3364	0.549	3.1926	2.4338	0.4441	4.3535	6.8467	-1.3393
1.1539	1.9652	1.2693	-0.014	2.4058	1.7904	0.8952	3.3115	3.1052	2.2659	4.4899	4.0493	4.4339	-0.2693	3.7731	8.256	0.5175	3.4164	2.5247	0.563	4.6018	6.8502	-1.3113
1.1225	1.9372	1.2379	-0.0699	2.3848	1.7729	0.9022	3.3429	3.1401	2.3359	4.6298	4.1507	4.6018	-0.2448	3.7031	8.1476	0.4686	3.6577	2.6086	0.7099	4.8011	6.8677	-1.2763
1.063	1.8708	1.2029	-0.1504	2.3079	1.7064	0.8847	3.3115	3.0912	2.3708	4.6962	4.2206	4.7277	-0.2343	3.6157	8.0427	0.4336	3.864	2.6401	0.8357	4.906	6.8502	-1.2204
1.0386	1.8218	1.1714	-0.2413	2.2449	1.675	0.8602	3.3115	3.1122	2.4338	4.7906	4.3151	4.885	-0.2028	3.5353	7.9203	0.3916	4.0913	2.6925	0.9511	5.0599	6.8328	-1.14
0.9756	1.7309	1.1155	-0.3147	2.1855	1.6435	0.8427	3.238	3.0772	2.4583	4.8081	4.336	4.962	-0.1818	3.3954	7.7909	0.3567	4.2626	2.6786	1.0945	5.1543	6.8188	-1.0665
0.9127	1.6155	1.0665	-0.4126	2.0981	1.5945	0.8113	3.2031	3.0387	2.4827	4.8396	4.3885	5.0494	-0.1609	3.3185	7.686	0.3112	4.4619	2.6366	1.1924	5.2452	6.7873	-0.9721
0.8532	1.5141	1.0211	-0.4756	1.9512	1.5071	0.7693	3.0772	2.9968	2.4862	4.8501	4.371	5.1053	-0.1504	3.2555	7.5531	0.2832	4.6473	2.6401	1.2903	5.3186	6.7348	-0.8987
0.8183	1.4162	0.9791	-0.5105	1.8463	1.4547	0.7903	3.0422	2.9338	2.5177	4.8501	4.385	5.1963	-0.1224	3.2171	7.4622	0.2378	4.8361	2.5946	1.4197	5.3851	6.6754	-0.8567
0.7658	1.2763	0.9162	-0.528	1.7239	1.3603	0.7588	2.9233	2.8884	2.5317	4.8221	4.385	5.2347	-0.1049	3.1611	7.3853	0.1888	5.0214	2.5352	1.4931	5.3956	6.602	-0.7798
0.7448	1.1574	0.8602	-0.5245	1.5806	1.2903	0.7868	2.8254	2.8149	2.5072	4.7801	4.3535	5.2802	-0.0769	3.1261	7.3258	0.1399	5.1823	2.4967	1.605	5.4235	6.5215	-0.7203
0.6924	1.0001	0.7623	-0.5455	1.3882	1.1854	0.7833	2.6786	2.6995	2.4897	4.7207	4.3325	5.2907	-0.0594	3.0842	7.2699	0.1084	5.3501	2.4023	1.661	5.3886	6.4656	-0.6854
0.6364	0.8672	0.7273	-0.542	1.2379	1.1015	0.7763	2.5527	2.6191	2.5072	4.6508	4.2661	5.3082	-0.021	3.0702	7.2664	0.049	5.5319	2.3114	1.7834	5.3571	6.4096	-0.6434
0.598	0.7273	0.6329	-0.528	1.063	0.9791	0.7763	2.4058	2.5072	2.5002	4.5598	4.1997	5.3116	0.0035	3.0737	7.2908	0.0105	5.6788	2.1855	1.8708	5.3012	6.3467	-0.6049
0.5525	0.5665	0.5455	-0.542	0.9057	0.8742	0.7763	2.2694	2.4023	2.4687	4.4759	4.1612	5.3151	0.028	3.0912	7.3363	-0.0525	5.8222	2.0981	1.9792	5.2802	6.3012	-0.563
0.5385	0.4056	0.4721	-0.507	0.6994	0.7553	0.7833	2.1226	2.3009	2.4548	4.3885	4.1192	5.3396	0.0594	3.0667	7.3573	-0.1049	5.9621	1.9722	2.0561	5.1788	6.2768	-0.5525
0.4581	0.2308	0.3742	-0.507	0.4965	0.6259	0.7483	1.9128	2.1505	2.3883	4.2661	4.0073	5.3012	0.0664	3.1017	7.4202	-0.1364	6.0425	1.8183	2.1365	5.0739	6.2558	-0.521
0.3812	0.042	0.2623	-0.5175	0.2902	0.5035	0.7448	1.7274	2.0247	2.3464	4.1332	3.9129	5.2697	0.0839	3.1192	7.5076	-0.1748	6.1369	1.6505	2.21	4.969	6.2418	-0.4826
0.3427	-0.0979	0.1853	-0.4546	0.0804	0.3637	0.7448	1.5701	1.8988	2.3114	4.0108	3.8395	5.2802	0.1224	3.1192	7.623	-0.2308	6.2523	1.4896	2.2939	4.8466	6.1998	-0.4616
0.2483	-0.2937	0.0769	-0.4021	-0.1504	0.2133	0.7168	1.3603	1.7449	2.224	3.8815	3.7381	5.2312	0.1574	3.0877	7.7035	-0.2867	6.3257	1.2938	2.3568	4.7487	6.1998	-0.4091
0.1678	-0.4616	-0.0455	-0.3951	-0.3602	0.0594	0.6959	1.1679	1.5945	2.1855	3.6681	3.5947	5.1578	0.1748	3.0772	7.7909	-0.3357	6.3607	1.084	2.4303	4.5668	6.1754	-0.3497
0.1119	-0.6469	-0.1434	-0.3916	-0.584	-0.0839	0.6434	0.9511	1.3917	2.0981	3.4723	3.4129	5.0669	0.2028	3.0352	7.8608	-0.3881	6.4027	0.8637	2.4687	4.392	6.1649	-0.2448
0.0455	-0.7833	-0.2448	-0.3392	-0.7728	-0.2203	0.6189	0.7448	1.2623	2.0212	3.294	3.2975	4.9934	0.2343	3.0212	7.9168	-0.4791	6.4271	0.6399	2.5562	4.1892	6.1754	-0.1923
0.0035	-0.8987	-0.3112	-0.3007	-0.9476	-0.3427	0.6049	0.598	1.084	1.9372	3.1436	3.1681	4.9235	0.3007	3.0177	7.9867	-0.5945	6.4761	0.4511	2.6121	4.0528	6.1824	-0.1014
-0.0315	-1.0525	-0.3672	-0.2623	-1.105	-0.4826	0.549	0.4056	0.9302	1.8568	2.9303	3.0107	4.8186	0.3532	2.9653	8.0252	-0.6819	6.4971	0.2483	2.6611	3.8745	6.2033	-0.0245
-0.0804	-1.147	-0.4231	-0.2343	-1.2693	-0.556	0.493	0.2133	0.7973	1.7659	2.7485	2.8709	4.7312	0.4056	2.9443	8.1021	-0.7903	6.5425	0.0559	2.7275	3.6681	6.2068	0.0629
-0.0734	-1.2239	-0.4546	-0.1678	-1.3847	-0.6434	0.4826	0.0699	0.6574	1.7029	2.5806	2.7205	4.6368	0.4686	2.9548	8.1825	-0.9057	6.5425	-0.1049	2.7835	3.4968	6.2138	0.1783
-0.042	-1.2973	-0.4546	-0.1154	-1.4931	-0.7064	0.4651	-0.0699	0.528	1.64	2.3953	2.6016	4.5249	0.5175	2.9548	8.3049	-1.0281	6.5355	-0.2553	2.8184	3.315	6.2173	0.2693
-0.0035	-1.3498	-0.4406	-0.049	-1.5806	-0.7623	0.4686	-0.1783	0.4301	1.5806	2.2415	2.4757	4.4409	0.591	2.9688	8.4553	-1.1539	6.546	-0.4056	2.8744	3.1541	6.2208	0.3567
0.0699	-1.3673	-0.3916	0.0594	-1.612	-0.7693	0.4686	-0.2728	0.3497	1.5176	2.1226	2.3778	4.3605	0.6434	3.0142	8.6266	-1.2763	6.567	-0.4756	2.9443	3.0177	6.1998	0.4616
0.1154	-1.3917	-0.3742	0.1259	-1.654	-0.8008	0.4721	-0.3217	0.3112	1.4931	2.0037	2.3009	4.2836	0.6819	3.0038	8.791	-1.3638	6.5635	-0.577	2.9863	2.8744	6.1858	0.521
0.1853	-1.3707	-0.2867	0.2413	-1.64	-0.7693	0.4826	-0.3637	0.2518	1.4127	1.9232	2.2449	4.2241	0.7378	3.0772	9.0392	-1.4582	6.546	-0.6224	3.0422	2.8009	6.1544	0.598
0.2448	-1.3707	-0.2448	0.3287	-1.633	-0.7763	0.5245	-0.3916	0.2518	1.3742	1.8463	2.168	4.1542	0.7728	3.1122	9.2386	-1.5351	6.56	-0.6574	3.0842	2.696	6.1229	0.6644
0.3007	-1.3568	-0.1923	0.4301	-1.619	-0.7518	0.5735	-0.3777	0.2553	1.3847	1.8078	2.1505	4.1367	0.8113	3.1646	9.4519	-1.6085	6.5635	-0.6749	3.1366	2.6051	6.0809	0.7448
0.3742	-1.3603	-0.1119	0.5245	-1.5945	-0.7203	0.5945	-0.3777	0.2553	1.3707	1.7519	2.1086	4.0878	0.8427	3.1821	9.6547	-1.6785	6.567	-0.6889	3.1856	2.5562	6.0495	0.8148
0.4406	-1.3183	-0.0664	0.5805	-1.5421	-0.6854	0.6294	-0.3322	0.2588	1.3568	1.7414	2.0841	4.0563	0.8847	3.252	9.8295	-1.7274	6.5985	-0.6889	3.2555	2.5002	6.018	0.9127
0.4721	-1.2833	-0.007	0.6644	-1.4896	-0.6469	0.6679	-0.2693	0.3042	1.3673	1.7449	2.0876	4.0353	0.9162	3.2695	10.0149	-1.7974	6.5985	-0.6749	3.3464	2.4233	5.976	0.9931
0.514	-1.2728	0.0245	0.7203	-1.4337	-0.6259	0.6924	-0.2728	0.3042	1.3673	1.7344	2.0911	4.0318	0.9232	3.3255	10.1302	-1.8428	6.616	-0.6819	3.3709	2.3953	5.9411	1.1015
0.5595	-1.2484	0.0944	0.7868	-1.4197	-0.6015	0.7518	-0.2273	0.3287	1.3673	1.7064	2.0666	4.0073	0.9511	3.3744	10.2072	-1.8953	6.6195	-0.6749	3.4304	2.3079	5.9096	1.1924
0.563	-1.2658	0.1014	0.8287	-1.3742	-0.556	0.7588	-0.2273	0.3497	1.3323	1.6925	2.0631	3.9654	0.9791	3.4059	10.2631	-1.9337	6.6195	-0.7238	3.5283	2.2484	5.8816	1.2868
0.5805	-1.2728	0.1154	0.9022	-1.3638	-0.577	0.8008	-0.2133	0.3602	1.3603	1.6645	2.0142	3.9339	1.0036	3.4793	10.3226	-1.9862	6.6369	-0.7448	3.6052	2.1855	5.8362	1.4057
0.5665	-1.2868	0.1364	0.9371	-1.3812	-0.5735	0.8287	-0.2098	0.3777	1.3568	1.612	1.9757	3.9234	1.0211	3.5248	10.3121	-2.0247	6.6509	-0.8217	3.6751	2.0631	5.8292	1.5176
0.5665	-1.2833	0.1469	1.0071	-1.3638	-0.542	0.8567	-0.2063	0.3777	1.3707	1.5875	1.9722	3.8989	1.0525	3.5563	10.2806	-2.0981	6.6894	-0.8427	3.7416	1.9897	5.8327	1.654
0.598	-1.3148	0.1609	1.0525	-1.3812	-0.535	0.9092	-0.2378	0.3951	1.3498	1.5281	1.9162	3.857	1.0875	3.6647	10.2421	-2.168	6.6999	-0.9092	3.801	1.8918	5.8397	1.7764
0.584	-1.3742	0.1259	1.07	-1.3987	-0.5385	0.9302	-0.2762	0.3532	1.3463	1.4791	1.8883	3.843	1.1225	3.6996	10.1792	-2.2449	6.7523	-0.9826	3.878	1.7764	5.8711	1.8988
0.57	-1.4022	0.1084	1.105	-1.3987	-0.556	0.9511	-0.2832	0.3846	1.3742	1.4337	1.8463	3.8185	1.1819	3.7556	10.1302	-2.3324	6.7628	-1.0281	3.9444	1.6925	5.9131	2.0107
0.5665	-1.4372	0.0525	1.119	-1.4652	-0.5735	0.9511	-0.3602	0.3427	1.3323	1.3638	1.7904	3.7905	1.1994	3.787	10.0953	-2.4023	6.7733	-1.147	3.9899	1.5561	5.9446	2.1191
0.5315	-1.4896	0.028	1.112	-1.5106	-0.584	0.9371	-0.3986	0.3357	1.3218	1.3043	1.7344	3.7346	1.2379	3.829	10.0533	-2.4757	6.7628	-1.2099	4.0178	1.4512	6.0145	2.217
0.5105	-1.5596	-0.0315	1.1085	-1.5456	-0.6015	0.9406	-0.4511	0.2972	1.2973	1.2519	1.7134	3.7136	1.2763	3.885	10.0568	-2.5632	6.7873	-1.2903	4.0843	1.3358	6.0705	2.3673
0.4441	-1.6085	-0.0699	1.105	-1.612	-0.6084	0.9057	-0.507	0.2832	1.2693	1.2064	1.689	3.6821	1.3358	3.8954	10.0358	-2.6436	6.8013	-1.3707	4.1157	1.2274	6.1544	2.4967
0.4021	-1.64	-0.0979	1.07	-1.675	-0.6364	0.8742	-0.556	0.2378	1.2449	1.133	1.6085	3.6577	1.3673	3.9129	10.0428	-2.724	6.7943	-1.4826	4.1227	1.1015	6.2068	2.5946
0.3427	-1.6785	-0.1609	1.056	-1.7239	-0.6714	0.8322	-0.6294	0.2483	1.2239	1.0735	1.5666	3.6157	1.3882	3.9129	10.0673	-2.7765	6.7698	-1.5736	4.1402	1.0141	6.2488	2.717
0.2972	-1.7309	-0.2413	1.0176	-1.7834	-0.6679	0.8287	-0.6784	0.1818	1.1749	1.0386	1.5491	3.6262	1.4127	3.9479	10.0988	-2.8324	6.7314	-1.6645	4.1507	0.9092	6.3012	2.8079
0.2588	-1.7589	-0.2797	0.9931	-1.8323	-0.6959	0.8217	-0.7413	0.1678	1.1435	0.9791	1.5141	3.5947	1.4442	3.9479	10.1442	-2.8814	6.7139	-1.7624	4.1717	0.7868	6.3467	2.9198
0.2203	-1.7834	-0.3077	0.9651	-1.8743	-0.6959	0.7798	-0.7798	0.1539	1.1155	0.9336	1.4861	3.5737	1.4791	3.9479	10.1792	-2.9268	6.6649	-1.8253	4.1542	0.6819	6.3957	3.0142
0.1853	-1.8009	-0.3532	0.9371	-1.9337	-0.7168	0.7518	-0.8148	0.1224	1.077	0.8777	1.4512	3.5388	1.4791	3.9304	10.2212	-2.9513	6.6369	-1.9128	4.1262	0.6154	6.4411	3.0772
0.1853	-1.7694	-0.3497	0.9651	-1.9442	-0.7238	0.7518	-0.8672	0.0909	1.056	0.8707	1.4162	3.5143	1.4966	3.9199	10.2701	-2.9723	6.56	-2.0002	4.1087	0.535	6.4936	3.1471
0.1643	-1.7344	-0.3672	0.9546	-1.9617	-0.6994	0.7203	-0.8952	0.0734	0.9966	0.8183	1.3777	3.4618	1.5036	3.9129	10.3331	-2.9828	6.5041	-2.0386	4.0598	0.4546	6.5355	3.1856
0.1469	-1.7169	-0.3916	0.9861	-1.9827	-0.7413	0.7064	-0.9267	0.049	0.9651	0.7903	1.3498	3.4199	1.5106	3.9199	10.354	-2.9968	6.4411	-2.0841	4.0178	0.4021	6.602	3.2241
0.1748	-1.6645	-0.3916	0.9931	-1.9932	-0.7308	0.6644	-0.9581	0.0105	0.9162	0.7763	1.3078	3.3569	1.5141	3.8989	10.4135	-3.0212	6.3327	-2.1435	3.9654	0.3287	6.6649	3.2555
0.1609	-1.633	-0.4021	1.0036	-1.9932	-0.7518	0.6084	-0.9791	-0.0315	0.8462	0.7413	1.2658	3.2835	1.5246	3.8989	10.438	-3.0317	6.2418	-2.175	3.9269	0.2972	6.7174	3.2905
0.1154	-1.647	-0.4616	0.9511	-2.0177	-0.8113	0.514	-1.0246	-0.1049	0.7413	0.7238	1.1959	3.2241	1.5316	3.864	10.4799	-3.0352	6.1439	-2.2205	3.8675	0.2658	6.7908	3.308
0.1609	-1.6225	-0.4546	0.9336	-1.9967	-0.7938	0.4581	-1.0246	-0.1049	0.6714	0.7099	1.1574	3.1471	1.5281	3.8605	10.5254	-3.0457	6.046	-2.2275	3.8045	0.2413	6.8607	3.3185
0.1434	-1.598	-0.5035	0.9092	-2.0037	-0.8672	0.3707	-1.0141	-0.1469	0.6294	0.7168	1.1504	3.0982	1.5246	3.8535	10.5499	-3.0387	5.969	-2.2449	3.7556	0.2728	6.9132	3.3464
0.1119	-1.5875	-0.5525	0.8427	-2.0072	-0.8917	0.2693	-1.0351	-0.2098	0.521	0.6994	1.0805	3.0107	1.5176	3.85	10.6198	-3.0282	5.8676	-2.2415	3.6996	0.2832	6.9586	3.3744
0.0769	-1.605	-0.6154	0.7973	-2.0212	-0.9511	0.1713	-1.0316	-0.2448	0.4406	0.7483	1.0525	2.9793	1.5001	3.829	10.6408	-2.9933	5.7732	-2.217	3.6472	0.2972	6.9936	3.3954
0.0455	-1.6155	-0.6714	0.7343	-2.0491	-0.9861	0.0699	-1.042	-0.2728	0.3707	0.7413	1.0351	2.9093	1.4896	3.822	10.6513	-2.9758	5.6823	-2.189	3.6052	0.3532	7.0251	3.4269
-0.0245	-1.6435	-0.7378	0.7029	-2.0281	-1.0316	-0.0245	-1.049	-0.3112	0.3112	0.7763	1.063	2.8779	1.4791	3.815	10.6792	-2.9303	5.6194	-2.1785	3.5702	0.3951	7.0321	3.4094
-0.1259	-1.689	-0.8532	0.6329	-2.0841	-1.1015	-0.1189	-1.0281	-0.3392	0.2203	0.8113	1.063	2.8639	1.4547	3.7661	10.6653	-2.8884	5.5494	-2.14	3.5423	0.4301	7.0321	3.4199
-0.1713	-1.7239	-0.9267	0.5875	-2.1051	-1.1819	-0.1923	-1.0141	-0.3462	0.1958	0.8532	1.0595	2.8359	1.4232	3.7136	10.6198	-2.8324	5.469	-2.1365	3.4968	0.4791	7.0426	3.4164
-0.2867	-1.7834	-1.0071	0.535	-2.1505	-1.2239	-0.2658	-1.0141	-0.3707	0.1189	0.8917	1.0805	2.8184	1.3987	3.6751	10.6128	-2.78	5.3921	-2.147	3.4444	0.521	7.0111	3.4374
-0.3462	-1.8148	-1.0945	0.4721	-2.1925	-1.3008	-0.3252	-1.0351	-0.4021	0.0769	0.9057	1.077	2.78	1.3603	3.6297	10.5778	-2.7205	5.3116	-2.0946	3.4024	0.5455	6.9936	3.4409
-0.4896	-1.9058	-1.2029	0.4161	-2.2484	-1.3777	-0.4056	-1.0246	-0.4196	0.021	0.9302	1.077	2.7625	1.3288	3.5458	10.5009	-2.6401	5.2417	-2.0526	3.3674	0.6084	7.0076	3.4269
-0.57	-1.9582	-1.2973	0.3846	-2.2694	-1.4162	-0.4406	-1.0141	-0.4196	0	0.9896	1.112	2.7695	1.2973	3.4618	10.438	-2.5702	5.1788	-2.0386	3.329	0.6889	7.0111	3.4374
-0.6539	-2.0142	-1.4302	0.3182	-2.3114	-1.5141	-0.5105	-1.0001	-0.4231	-0.0175	1.0386	1.1435	2.7939	1.2519	3.3989	10.3785	-2.4967	5.1403	-2.0072	3.301	0.7413	7.0426	3.4513
-0.7273	-2.0631	-1.4687	0.2658	-2.3464	-1.5386	-0.549	-0.9721	-0.4126	-0.0315	1.0875	1.1819	2.7835	1.2169	3.3394	10.368	-2.4198	5.1193	-1.9652	3.273	0.8183	7.067	3.4513
-0.8183	-2.0876	-1.5561	0.2098	-2.3429	-1.5841	-0.6119	-0.9441	-0.4056	-0.042	1.133	1.2204	2.7974	1.1714	3.2555	10.3575	-2.3534	5.0529	-1.9128	3.2276	0.8672	7.123	3.4793
-0.8637	-2.14	-1.6015	0.1504	-2.3499	-1.5736	-0.6434	-0.9022	-0.3532	-0.021	1.2169	1.2763	2.8394	1.1504	3.1961	10.3436	-2.2974	5.0459	-1.8498	3.2136	0.9686	7.1545	3.5003
-0.9092	-2.1296	-1.6855	0.0734	-2.3184	-1.619	-0.6644	-0.8462	-0.3147	0.0105	1.3183	1.3707	2.9023	1.1225	3.1331	10.3226	-2.2449	5.0459	-1.7799	3.1716	1.0595	7.2209	3.5318
-0.9581	-2.1365	-1.7204	0.007	-2.2659	-1.6155	-0.6819	-0.7518	-0.2238	0.0594	1.4442	1.4861	2.9723	1.0945	3.0772	10.2806	-2.196	5.0424	-1.6645	3.1751	1.1539	7.2978	3.5597
-0.9511	-2.1296	-1.7379	-0.049	-2.203	-1.5875	-0.6889	-0.6714	-0.1434	0.0874	1.5491	1.5806	3.0422	1.0595	3.0562	10.2771	-2.147	5.0354	-1.591	3.1786	1.2309	7.3503	3.5563
-0.9581	-2.0981	-1.7449	-0.0839	-2.1226	-1.5666	-0.6749	-0.5525	-0.0385	0.1923	1.7064	1.7169	3.1401	1.063	2.9898	10.2561	-2.1296	5.0774	-1.4582	3.1821	1.3987	7.4552	3.5877
-0.9756	-2.0316	-1.7449	-0.1224	-2.0561	-1.5036	-0.6854	-0.4091	0.0874	0.2728	1.8743	1.8673	3.266	1.056	2.9478	10.2317	-2.0981	5.1438	-1.3533	3.1926	1.5316	7.5671	3.6367
-0.9371	-1.9792	-1.7344	-0.1504	-1.9162	-1.4197	-0.6259	-0.2623	0.2483	0.3742	2.0596	2.0701	3.4269	1.0455	2.9303	10.2526	-2.0771	5.1788	-1.2099	3.231	1.675	7.6685	3.6472
-0.8987	-1.8638	-1.661	-0.1643	-1.7834	-1.3288	-0.5525	-0.0909	0.4161	0.5175	2.2415	2.2659	3.5737	1.0211	2.9128	10.2596	-2.0596	5.2767	-1.049	3.252	1.8358	7.7979	3.7066
-0.8672	-1.7519	-1.605	-0.1399	-1.619	-1.1889	-0.493	0.1154	0.6189	0.6784	2.4618	2.4827	3.7661	1.0351	2.9233	10.2666	-2.0526	5.3466	-0.9022	3.315	2.0002	7.9412	3.7451
-0.8113	-1.633	-1.5421	-0.1084	-1.4757	-1.098	-0.3881	0.2832	0.8252	0.8497	2.6506	2.7065	3.9689	1.0106	2.8989	10.2981	-2.0212	5.42	-0.7518	3.3674	2.147	8.0741	3.7766
-0.7903	-1.5386	-1.4547	-0.0909	-1.3183	-0.9651	-0.3112	0.4756	1.0176	0.9826	2.8849	2.9233	4.1542	1.0071	2.8779	10.2771	-2.0002	5.476	-0.6294	3.4234	2.3394	8.242	3.808
-0.7343	-1.4092	-1.3638	-0.021	-1.1504	-0.8392	-0.2098	0.6399	1.1994	1.14	3.0772	3.1087	4.3255	0.9826	2.8184	10.2806	-1.9687	5.5494	-0.514	3.4723	2.4792	8.4238	3.8325
-0.6609	-1.3183	-1.2693	0.0629	-1.0211	-0.7029	-0.0734	0.8183	1.3952	1.2938	3.2835	3.3255	4.4899	0.9686	2.8254	10.3051	-1.9372	5.6019	-0.3602	3.5213	2.6156	8.5847	3.829
-0.6224	-1.1994	-1.1749	0.1469	-0.8707	-0.563	0.0594	1.0106	1.598	1.4687	3.4444	3.5178	4.6717	0.9511	2.8009	10.3016	-1.8848	5.6264	-0.2762	3.5667	2.731	8.735	3.8045
-0.5455	-1.084	-1.0665	0.2098	-0.7483	-0.4231	0.1678	1.147	1.7694	1.5771	3.6367	3.7276	4.8186	0.9232	2.8184	10.2806	-1.8428	5.6543	-0.1923	3.6227	2.8639	8.9238	3.7661
-0.4965	-0.9826	-0.9721	0.3112	-0.6364	-0.3217	0.2728	1.2868	1.9372	1.7029	3.7731	3.9024	4.955	0.8882	2.8114	10.2596	-1.7764	5.6683	-0.1049	3.6332	2.9688	9.0882	3.7101
-0.3846	-0.8462	-0.8252	0.4476	-0.4791	-0.1469	0.4336	1.4652	2.1435	1.8778	3.9654	4.0913	5.1123	0.8777	2.8079	10.2806	-1.7414	5.6963	-0.014	3.6926	3.1017	9.2595	3.6716
-0.2797	-0.7308	-0.7168	0.591	-0.3427	-0.0105	0.6015	1.591	2.3184	2.0212	4.1157	4.2696	5.2522	0.8427	2.8464	10.2736	-1.6925	5.7208	0.0769	3.7101	3.2136	9.4169	3.6402
-0.1678	-0.5875	-0.549	0.7308	-0.2098	0.1504	0.7553	1.7554	2.5282	2.168	4.2766	4.4829	5.4131	0.8113	2.8324	10.2456	-1.6435	5.7068	0.1783	3.7451	3.336	9.5708	3.5842
-0.0664	-0.4861	-0.4021	0.8987	-0.0804	0.3112	0.9406	1.9093	2.717	2.3149	4.4339	4.6752	5.5354	0.8043	2.8534	10.2317	-1.6085	5.7348	0.2413	3.7731	3.4339	9.6966	3.5038
0.049	-0.3497	-0.2518	1.07	0.0804	0.4861	1.126	2.0596	2.9443	2.4757	4.6088	4.9025	5.7103	0.7833	2.8849	10.2142	-1.5666	5.7872	0.3392	3.8325	3.5528	9.8295	3.4269
0.1748	-0.2273	-0.0979	1.2169	0.2273	0.6539	1.3253	2.238	3.1436	2.6436	4.7801	5.0913	5.8851	0.7553	2.9163	10.1827	-1.5281	5.8362	0.4511	3.8745	3.6821	9.9239	3.3534
0.2623	-0.1224	0.0664	1.3638	0.3252	0.8043	1.4722	2.3778	3.336	2.8114	4.9375	5.3012	6.046	0.7448	2.9163	10.1337	-1.4757	5.8641	0.514	3.9549	3.7766	10.0114	3.308
0.3672	0.007	0.1888	1.4931	0.4651	0.9791	1.6505	2.5527	3.5213	2.9758	5.0913	5.511	6.1998	0.7133	2.9443	10.0918	-1.4442	5.9341	0.6434	4.0003	3.9374	10.0813	3.252
0.4861	0.1189	0.3707	1.6365	0.6119	1.147	1.8288	2.717	3.7556	3.1611	5.2732	5.7243	6.3922	0.6889	2.9758	10.0463	-1.3952	6.0075	0.7588	4.0528	4.0668	10.1198	3.2276
0.577	0.2413	0.542	1.7799	0.7833	1.3078	1.9897	2.8884	3.9374	3.3115	5.4305	5.9621	6.553	0.6644	2.9793	10.0009	-1.3463	6.0705	0.8672	4.1227	4.2032	10.1582	3.2066
0.6469	0.3881	0.6889	1.9232	0.9336	1.4582	2.175	3.0387	4.1507	3.5003	5.6019	6.1544	6.7244	0.6574	2.9863	9.9379	-1.3183	6.1719	1.0106	4.2276	4.3395	10.1792	3.1821
0.7553	0.514	0.8462	2.0876	1.091	1.6155	2.3254	3.2031	4.3465	3.6577	5.7522	6.3362	6.9062	0.6434	3.0003	9.903	-1.2833	6.2873	1.133	4.329	4.4759	10.1722	3.1506
0.8148	0.6189	0.9651	2.1855	1.2134	1.7134	2.4862	3.3185	4.4899	3.8255	5.8746	6.5145	7.0601	0.6294	2.9793	9.8365	-1.2484	6.3747	1.2449	4.4095	4.5738	10.1652	3.1366
0.8917	0.6819	1.084	2.3044	1.3428	1.8603	2.6576	3.4409	4.6193	3.9619	5.997	6.6719	7.1685	0.6189	2.9443	9.7701	-1.2414	6.4341	1.3568	4.4759	4.6857	10.1302	3.1087
0.9406	0.7798	1.1854	2.4338	1.4372	1.9582	2.7695	3.5737	4.7557	4.1018	6.0809	6.7943	7.2908	0.6259	2.9408	9.7141	-1.2484	6.5215	1.4302	4.5948	4.7696	10.0988	3.0947
0.9406	0.8217	1.2623	2.5107	1.5036	2.0386	2.8429	3.6297	4.8291	4.2032	6.1474	6.8747	7.3748	0.6224	2.8954	9.6862	-1.2623	6.5705	1.5001	4.6752	4.8501	10.0708	3.0772
0.9756	0.8742	1.3428	2.5946	1.5806	2.0981	2.9478	3.6716	4.8815	4.2731	6.1719	6.9342	7.4272	0.6399	2.8464	9.6687	-1.2973	6.616	1.5701	4.7312	4.9095	10.0149	3.0492
1.0106	0.8917	1.3917	2.6296	1.6015	2.1365	2.9933	3.7031	4.934	4.3535	6.1824	7.0006	7.5006	0.6574	2.8324	9.6652	-1.3323	6.7034	1.612	4.8326	4.9795	9.9729	3.0597
0.9896	0.9022	1.4197	2.6716	1.647	2.1855	3.0387	3.6856	4.934	4.385	6.1928	7.0076	7.5146	0.6714	2.7625	9.6232	-1.3638	6.7139	1.619	4.892	4.962	9.9344	3.0702
0.9581	0.8462	1.4232	2.6261	1.6085	2.168	3.0387	3.6507	4.892	4.3955	6.1299	6.9971	7.5006	0.7029	2.7275	9.6197	-1.3952	6.7418	1.633	4.962	4.9864	9.8925	3.0667
0.9371	0.8392	1.4302	2.6191	1.6295	2.1505	3.0562	3.6577	4.878	4.4235	6.0984	6.9901	7.5076	0.7133	2.6576	9.6372	-1.4197	6.7978	1.668	5.0004	4.9829	9.847	3.0737
0.9092	0.8287	1.3847	2.5806	1.6295	2.1435	3.0107	3.6087	4.8431	4.42	6.039	6.9482	7.4832	0.7099	2.6471	9.6582	-1.4477	6.8083	1.675	5.0669	4.9795	9.7841	3.0982
0.8672	0.7903	1.3673	2.5352	1.5945	2.0701	2.9793	3.5667	4.8046	4.4305	5.9865	6.9167	7.4937	0.7483	2.5981	9.6931	-1.4791	6.8467	1.668	5.1123	4.976	9.7106	3.0842
0.8078	0.7693	1.3218	2.5037	1.5771	2.0421	2.9758	3.4793	4.7382	4.42	5.8991	6.8747	7.4587	0.7658	2.5457	9.7631	-1.5001	6.8607	1.668	5.1683	4.9235	9.6337	3.0982
0.7973	0.7378	1.2833	2.4338	1.5526	1.9932	2.9233	3.4094	4.6508	4.371	5.8222	6.7838	7.4202	0.7588	2.5212	9.8225	-1.5246	6.8887	1.6365	5.1893	4.9025	9.5568	3.1192
0.7343	0.7518	1.2344	2.3918	1.5316	1.9687	2.8954	3.3429	4.5773	4.357	5.7208	6.7139	7.3468	0.7833	2.4652	9.9204	-1.5456	6.9027	1.633	5.2382	4.8571	9.4728	3.1541
0.6714	0.7168	1.1784	2.3044	1.4826	1.9197	2.8429	3.259	4.4864	4.3116	5.6159	6.5985	7.2873	0.7903	2.4478	9.9974	-1.5736	6.8817	1.591	5.2557	4.8221	9.4064	3.1576
0.6399	0.7483	1.147	2.2834	1.4617	1.8533	2.8289	3.1681	4.3885	4.2626	5.4935	6.4691	7.2139	0.7868	2.4023	10.0848	-1.5841	6.8537	1.5631	5.2662	4.7731	9.319	3.2031
0.6119	0.7483	1.1085	2.217	1.4442	1.8078	2.7974	3.0842	4.2836	4.2241	5.3921	6.3782	7.1335	0.8078	2.3883	10.1932	-1.598	6.8537	1.5666	5.2627	4.6997	9.256	3.252
0.556	0.7903	1.0805	2.1855	1.4197	1.7554	2.731	2.9828	4.1577	4.1262	5.2277	6.1998	6.9691	0.7973	2.3184	10.2771	-1.5945	6.7768	1.5456	5.2382	4.6647	9.2001	3.322
0.5595	0.8427	1.049	2.175	1.4267	1.7204	2.724	2.8884	4.0493	4.0493	5.1088	6.0285	6.8607	0.8078	2.2729	10.3715	-1.619	6.7418	1.5281	5.2347	4.6228	9.1721	3.3989
0.5455	0.8987	1.056	2.1645	1.4162	1.6715	2.6541	2.8394	3.9409	3.9584	4.9515	5.8781	6.7069	0.8078	2.2449	10.4729	-1.6225	6.6544	1.5316	5.2382	4.5668	9.1441	3.4723
0.5525	0.9791	1.056	2.147	1.4267	1.654	2.5771	2.7625	3.8325	3.8675	4.8151	5.7033	6.5215	0.8183	2.182	10.5813	-1.6435	6.553	1.5526	5.1753	4.5354	9.1441	3.5213
0.556	1.049	1.077	2.1925	1.4512	1.6435	2.5771	2.6925	3.7206	3.7626	4.6892	5.5215	6.3922	0.8322	2.1575	10.6548	-1.6715	6.4726	1.5806	5.1438	4.5179	9.1686	3.5632
0.5945	1.1504	1.0875	2.21	1.4826	1.605	2.5247	2.6541	3.5947	3.6647	4.5773	5.3711	6.2033	0.8322	2.1051	10.7457	-1.6925	6.3852	1.591	5.1228	4.5214	9.2176	3.6017
0.6049	1.2134	1.091	2.2415	1.5211	1.598	2.4618	2.5597	3.4618	3.5318	4.4339	5.1928	6.004	0.8567	2.0351	10.7737	-1.696	6.3012	1.5771	5.0669	4.4829	9.305	3.6332
0.6329	1.2623	1.098	2.2449	1.5141	1.5841	2.4163	2.4932	3.3604	3.4129	4.3221	4.9969	5.8047	0.8602	1.9967	10.8296	-1.7169	6.2068	1.6015	5.0039	4.4969	9.4064	3.6402
0.6469	1.3113	1.1295	2.2869	1.5211	1.5526	2.3534	2.4618	3.273	3.28	4.2067	4.8361	5.6299	0.8637	1.9792	10.8296	-1.7239	6.1019	1.64	4.969	4.4829	9.5288	3.6437
0.6644	1.3498	1.1295	2.2624	1.5386	1.5526	2.2974	2.3988	3.1296	3.0982	4.1052	4.6508	5.4515	0.8672	1.9372	10.8261	-1.7134	6.0075	1.626	4.899	4.4899	9.6687	3.6367
0.6959	1.3707	1.14	2.2519	1.5351	1.5036	2.2205	2.3499	3.0177	2.9723	4.0143	4.5004	5.2627	0.8497	1.8743	10.7387	-1.7099	5.8956	1.6365	4.8186	4.4864	9.8435	3.6157
0.6609	1.3777	1.126	2.203	1.5001	1.4477	2.1296	2.2659	2.8989	2.8009	3.8919	4.3046	5.0494	0.8427	1.8288	10.6198	-1.6785	5.8222	1.591	4.7592	4.4584	10.0183	3.5667
0.6644	1.4057	1.1435	2.203	1.5176	1.4302	2.0561	2.2449	2.773	2.6401	3.8255	4.1507	4.906	0.8217	1.8044	10.5324	-1.654	5.7487	1.626	4.6962	4.4724	10.1617	3.5318
0.6224	1.4197	1.1015	2.1296	1.4931	1.3603	1.9477	2.168	2.6716	2.4792	3.7101	3.9619	4.6822	0.7938	1.7344	10.3401	-1.6085	5.6578	1.6225	4.6298	4.4794	10.3156	3.4968
0.6154	1.4512	1.112	2.1051	1.4861	1.3183	1.8813	2.1261	2.5632	2.3429	3.6507	3.822	4.5493	0.7763	1.6855	10.2072	-1.5631	5.5844	1.6085	4.5633	4.4689	10.4589	3.5003
0.5875	1.4687	1.112	2.0526	1.5176	1.2833	1.8148	2.0841	2.4478	2.217	3.5982	3.6961	4.413	0.7518	1.682	10.0883	-1.4966	5.518	1.6015	4.5249	4.4864	10.5639	3.4793
0.57	1.4722	1.105	2.0142	1.4896	1.2274	1.7064	2.0561	2.3394	2.0701	3.5248	3.5807	4.2556	0.7064	1.6225	9.9309	-1.4302	5.448	1.6085	4.4444	4.4549	10.6688	3.4758
0.5805	1.5141	1.1085	1.9757	1.5176	1.1994	1.654	2.0526	2.2834	1.9687	3.4863	3.4653	4.1647	0.6854	1.5945	9.819	-1.3742	5.3921	1.6015	4.4374	4.4619	10.7527	3.4653
0.5735	1.5421	1.1225	1.9547	1.5351	1.1959	1.598	2.0037	2.196	1.8638	3.4409	3.3639	4.0563	0.6644	1.5701	9.7421	-1.3218	5.3431	1.6085	4.3815	4.4514	10.8086	3.5003
0.584	1.5561	1.1609	1.9302	1.5596	1.1854	1.5456	2.0177	2.1261	1.7974	3.4269	3.3325	3.9968	0.6329	1.5421	9.6267	-1.2728	5.3116	1.633	4.357	4.4444	10.8471	3.5073
0.6189	1.5875	1.1819	1.8953	1.5945	1.1609	1.4931	2.0107	2.0736	1.7099	3.3919	3.259	3.9409	0.6084	1.5106	9.5323	-1.2169	5.2732	1.6295	4.3325	4.4235	10.903	3.5388
0.6609	1.6225	1.2519	1.8918	1.6225	1.1749	1.4617	2.0281	2.0561	1.654	3.3989	3.2206	3.8884	0.5945	1.4791	9.4798	-1.1924	5.2522	1.6365	4.3081	4.4235	10.952	3.5702
0.7133	1.6505	1.3253	1.8883	1.6785	1.2204	1.4162	2.0736	2.0561	1.6365	3.4269	3.245	3.9059	0.577	1.4861	9.4274	-1.1644	5.2382	1.689	4.3186	4.413	10.987	3.6192
0.8113	1.7239	1.4267	1.9267	1.7659	1.2693	1.4372	2.1191	2.0771	1.647	3.5073	3.2835	3.9059	0.57	1.4652	9.3784	-1.14	5.2627	1.7099	4.35	4.427	11.0254	3.6577
0.8917	1.8078	1.5386	1.9267	1.8323	1.3253	1.4442	2.1785	2.0736	1.605	3.5388	3.294	3.9444	0.549	1.4372	9.3644	-1.126	5.2522	1.7554	4.3535	4.4374	11.0919	3.7136
0.9686	1.8323	1.6365	1.9932	1.9302	1.3742	1.4477	2.231	2.147	1.647	3.5912	3.3709	4.0073	0.57	1.4232	9.3225	-1.133	5.2557	1.8218	4.3815	4.4339	11.1478	3.7696
1.0805	1.9302	1.7834	2.0316	2.0281	1.4826	1.4931	2.3394	2.2345	1.7239	3.7241	3.4723	4.1052	0.5735	1.4162	9.3015	-1.14	5.2837	1.8708	4.3885	4.4864	11.2003	3.8395
1.1854	1.9827	1.8918	2.0666	2.1331	1.5666	1.5316	2.4408	2.3149	1.7554	3.815	3.5702	4.1927	0.5665	1.4127	9.319	-1.1365	5.2942	1.8953	4.399	4.5039	11.2527	3.8954
1.2798	2.0771	2.0072	2.1121	2.1855	1.6715	1.5456	2.5072	2.3918	1.8044	3.9024	3.6716	4.2766	0.563	1.3847	9.3225	-1.1435	5.3256	1.9337	4.427	4.5389	11.3052	3.9584
1.3812	2.14	2.1575	2.1715	2.2939	1.7484	1.591	2.5946	2.4967	1.8848	4.0423	3.815	4.4305	0.5665	1.3358	9.3365	-1.1435	5.3746	1.9617	4.427	4.5668	11.3751	4.0213
1.4722	2.2205	2.2764	2.2345	2.3603	1.8463	1.675	2.6995	2.5876	1.9792	4.1472	3.9549	4.5598	0.57	1.3673	9.3924	-1.119	5.3781	1.9897	4.4479	4.6193	11.4171	4.0598
1.5806	2.3254	2.3673	2.2834	2.4722	1.9687	1.7309	2.8009	2.6925	2.0876	4.3011	4.0948	4.7032	0.5525	1.3777	9.4484	-1.1015	5.42	2.0107	4.4549	4.6542	11.459	4.1297
1.6575	2.3953	2.4967	2.3743	2.5527	2.0631	1.7904	2.9058	2.8289	2.1785	4.4584	4.2521	4.8536	0.5455	1.3987	9.5638	-1.063	5.483	2.0386	4.4619	4.6962	11.4835	4.1927
1.7379	2.4792	2.6191	2.4408	2.6261	2.1855	1.8673	3.0282	2.9478	2.3219	4.5913	4.4374	5.0319	0.5105	1.4092	9.6966	-1.0141	5.5389	2.0281	4.4689	4.7801	11.515	4.2381
1.8218	2.5841	2.724	2.5072	2.7205	2.2974	1.9267	3.1366	3.0877	2.4233	4.7696	4.6088	5.2137	0.4791	1.4407	9.8225	-0.9686	5.5914	2.0177	4.4969	4.8326	11.5465	4.2871
1.9023	2.6855	2.8499	2.5806	2.8254	2.4058	2.0212	3.2485	3.231	2.5562	4.906	4.7696	5.3781	0.4686	1.4966	9.9624	-0.9197	5.7033	2.0561	4.5109	4.9165	11.5744	4.329
2.0037	2.78	2.9653	2.6576	2.9128	2.5247	2.0876	3.3569	3.3674	2.6786	5.0948	4.9725	5.5739	0.4406	1.5561	10.1512	-0.8812	5.7802	2.0701	4.5389	5.0179	11.5884	4.364
2.1121	2.9093	3.1296	2.738	3.0527	2.682	2.1925	3.5178	3.5423	2.8394	5.2557	5.1508	5.7487	0.4196	1.612	10.3051	-0.8532	5.8467	2.1121	4.5493	5.1193	11.6479	4.4095
2.2345	2.9968	3.238	2.8464	3.1681	2.8219	2.3079	3.6542	3.6891	2.9898	5.4305	5.3641	5.9656	0.4021	1.6715	10.452	-0.8148	5.9061	2.1505	4.5983	5.2137	11.7213	4.4514
2.3394	3.1611	3.3884	2.9408	3.3325	2.9793	2.4128	3.8255	3.8954	3.1331	5.6369	5.5529	6.1474	0.3777	1.7169	10.5778	-0.7903	5.997	2.2205	4.5983	5.3641	11.8262	4.4724
2.4687	3.287	3.5283	3.0632	3.4758	3.1506	2.5562	3.9549	4.0633	3.308	5.8467	5.7627	6.3712	0.3707	1.7764	10.6897	-0.7728	6.0914	2.2729	4.5983	5.5145	11.9556	4.5214
2.5457	3.3954	3.6262	3.1471	3.6087	3.3255	2.6925	4.1192	4.2626	3.5143	6.0355	5.976	6.567	0.3707	1.8463	10.7876	-0.7413	6.1998	2.3359	4.6333	5.6229	12.1024	4.5354
2.6261	3.5003	3.7661	3.2625	3.7696	3.4618	2.8324	4.3116	4.4829	3.6856	6.2523	6.2103	6.7978	0.3532	1.8358	10.8716	-0.7133	6.3152	2.4058	4.6647	5.7627	12.2633	4.5493
2.7415	3.6192	3.885	3.3604	3.9584	3.6507	2.9758	4.4724	4.6787	3.871	6.4621	6.4516	7.0111	0.3322	1.9023	10.966	-0.6889	6.3887	2.4792	4.6822	5.9026	12.4381	4.5493
2.8254	3.7311	4.0178	3.4513	4.1192	3.8115	3.1017	4.6577	4.906	4.0773	6.6859	6.6859	7.2524	0.3392	1.9407	11.0569	-0.6784	6.5006	2.5352	4.7452	6.0355	12.5815	4.5389
2.9023	3.85	4.1122	3.5248	4.2836	3.9549	3.2241	4.8396	5.0913	4.2451	6.8817	6.9342	7.4867	0.3287	1.9862	11.1373	-0.6539	6.5775	2.6016	4.7592	6.1474	12.7039	4.5319
2.9618	3.9444	4.2206	3.5353	4.4165	4.1332	3.336	5.0144	5.3186	4.42	7.095	7.1685	7.672	0.3042	2.0072	11.1863	-0.6224	6.6579	2.696	4.8046	6.3152	12.8123	4.5319
3.0038	4.0318	4.2941	3.5737	4.5633	4.2591	3.4094	5.1718	5.5354	4.5703	7.3048	7.3922	7.8888	0.2972	2.0561	11.2282	-0.5945	6.7279	2.738	4.8571	6.4306	12.9067	4.5319
3.0212	4.0913	4.378	3.5807	4.6927	4.3815	3.4583	5.3326	5.7103	4.7172	7.4867	7.5986	8.0846	0.2762	2.0631	11.1898	-0.556	6.8013	2.8254	4.8745	6.5705	13.0046	4.5214
3.0177	4.1402	4.3955	3.5737	4.7766	4.5039	3.5353	5.4655	5.8886	4.878	7.672	7.8224	8.263	0.2553	2.0456	11.1933	-0.5035	6.8887	2.8744	4.9305	6.6789	13.0571	4.5424
3.0247	4.1857	4.4969	3.5947	4.9095	4.6438	3.5982	5.6334	6.0635	5.0004	7.8608	8.0462	8.4553	0.2448	2.0491	11.1233	-0.4861	6.9342	2.9513	4.969	6.7733	13.1025	4.5528
2.9968	4.2451	4.5354	3.5807	4.9899	4.7347	3.6157	5.7557	6.2383	5.1158	8.0287	8.242	8.6021	0.2203	2.0386	11.0744	-0.4511	6.9796	2.9653	4.9934	6.8712	13.155	4.5319
2.9793	4.2521	4.5738	3.5807	5.0704	4.8361	3.6716	5.8746	6.4027	5.2277	8.1685	8.4203	8.749	0.2098	2.0107	10.98	-0.4301	7.0006	3.0177	5.0494	6.9586	13.19	4.5319
2.9723	4.2766	4.5773	3.5842	5.1403	4.941	3.7066	6.004	6.5425	5.3536	8.3259	8.6301	8.9134	0.2063	2.0072	10.8716	-0.4161	7.067	3.0492	5.1018	7.0601	13.2354	4.5109
2.9583	4.2871	4.6298	3.5982	5.2172	5.0144	3.7486	6.1299	6.7104	5.4725	8.4588	8.8085	9.0602	0.2098	1.9722	10.7387	-0.4196	7.0705	3.0982	5.1403	7.1475	13.2704	4.4829
2.9478	4.3011	4.6682	3.6192	5.2942	5.1298	3.7975	6.2313	6.8747	5.5844	8.6056	9.0078	9.2071	0.2063	1.9128	10.6023	-0.4161	7.13	3.1192	5.1893	7.2279	13.3018	4.4619
2.9408	4.3081	4.6508	3.6507	5.3641	5.2207	3.8605	6.3607	7.0181	5.7348	8.7315	9.1966	9.3854	0.2203	1.8743	10.438	-0.4301	7.1789	3.1751	5.2452	7.3118	13.3508	4.4479
2.9408	4.3465	4.7102	3.6821	5.4445	5.3606	3.9619	6.5215	7.2349	5.8851	8.9029	9.4274	9.5778	0.2203	1.8428	10.2806	-0.4546	7.2104	3.2241	5.3291	7.3888	13.3858	4.427
2.9688	4.3955	4.7592	3.7276	5.5879	5.476	4.0458	6.6579	7.4447	6.046	9.0357	9.6232	9.7526	0.2483	1.7799	10.1407	-0.4861	7.2838	3.2905	5.3921	7.4762	13.4312	4.427
2.9723	4.4479	4.7731	3.7241	5.6823	5.5634	4.0808	6.7873	7.5846	6.1754	9.2071	9.833	9.9204	0.2308	1.7484	9.9449	-0.493	7.3468	3.3569	5.441	7.5496	13.5047	4.364
2.9583	4.4899	4.8186	3.7451	5.7802	5.6858	4.1542	6.9482	7.8119	6.3047	9.3575	10.0743	10.1163	0.2483	1.689	9.7771	-0.5175	7.4062	3.4479	5.518	7.6405	13.5536	4.3465
2.9688	4.5528	4.8501	3.7766	5.8886	5.8292	4.2241	7.0985	8.0217	6.4761	9.5288	10.3051	10.3051	0.2693	1.654	9.6477	-0.521	7.4622	3.4793	5.5844	7.6895	13.6096	4.3221
2.9443	4.5948	4.8815	3.7626	5.983	5.9271	4.2696	7.2419	8.207	6.602	9.6302	10.4939	10.438	0.2588	1.591	9.5043	-0.5245	7.4727	3.5528	5.6334	7.7629	13.655	4.3011
2.9618	4.6612	4.885	3.7486	6.0774	6.032	4.3046	7.3888	8.3783	6.7314	9.7701	10.6792	10.5918	0.2623	1.5106	9.3609	-0.5315	7.5111	3.6087	5.6718	7.8293	13.7215	4.2696
2.9443	4.6787	4.892	3.7171	6.1684	6.1194	4.3465	7.4937	8.5427	6.8293	9.9065	10.8751	10.7282	0.2588	1.5001	9.284	-0.514	7.5006	3.6681	5.6963	7.8259	13.7809	4.2137
2.8919	4.7172	4.906	3.6507	6.2558	6.1719	4.3535	7.5986	8.6861	6.9132	9.9974	11.0149	10.8086	0.2623	1.4407	9.2141	-0.521	7.4902	3.7136	5.6998	7.8468	13.8229	4.1997
2.8744	4.7382	4.8815	3.5807	6.3012	6.2173	4.3675	7.6965	8.8259	6.9621	10.0708	11.1583	10.8891	0.2553	1.3847	9.1616	-0.5105	7.4482	3.7276	5.7103	7.8573	13.8718	4.1402
2.8254	4.7626	4.8711	3.4793	6.3607	6.2523	4.3535	7.7559	8.9204	7.0041	10.1163	11.2492	10.9065	0.2448	1.3358	9.1232	-0.493	7.3748	3.78	5.6998	7.8608	13.9453	4.1122
2.7765	4.7731	4.8396	3.3919	6.4131	6.2977	4.3186	7.8084	8.9938	7.0496	10.1722	11.3192	10.9065	0.2378	1.2693	9.1337	-0.4721	7.2769	3.8115	5.6369	7.8293	14.0222	4.0458
2.738	4.8011	4.8326	3.3045	6.4481	6.3047	4.3081	7.8818	9.0777	7.0461	10.1757	11.3681	10.8751	0.2238	1.2623	9.1546	-0.4756	7.1894	3.843	5.6194	7.7874	14.0921	3.9968
2.696	4.7941	4.7836	3.252	6.4831	6.3187	4.3011	7.8713	9.0917	7.0356	10.1477	11.3786	10.8016	0.2133	1.2239	9.2106	-0.4406	7.0496	3.829	5.5634	7.7105	14.1761	3.9339
2.682	4.7941	4.7801	3.1786	6.4971	6.2943	4.3011	7.8993	9.1162	7.0146	10.1442	11.3961	10.7457	0.2273	1.2449	9.2665	-0.4651	6.9342	3.857	5.497	7.6475	14.2635	3.8815
2.6541	4.8081	4.7452	3.1261	6.5215	6.2803	4.3151	7.8958	9.1232	6.9726	10.0953	11.3576	10.6198	0.2308	1.2204	9.3435	-0.4686	6.7698	3.857	5.441	7.5671	14.3649	3.8045
2.6121	4.7696	4.7102	3.0597	6.4901	6.2663	4.2696	7.8888	9.1127	6.9342	10.0149	11.3157	10.4939	0.2133	1.2379	9.4274	-0.4476	6.602	3.8115	5.3606	7.4202	14.4453	3.7136
2.5946	4.7731	4.6822	3.0317	6.4796	6.2488	4.2451	7.8608	9.0812	6.8677	9.9274	11.2282	10.3191	0.2168	1.2519	9.5463	-0.4616	6.4061	3.7731	5.3116	7.2978	14.5222	3.6227
2.5492	4.7207	4.6193	2.9373	6.4726	6.1754	4.2067	7.8084	9.0357	6.7803	9.7876	11.1198	10.1302	0.2063	1.2484	9.6722	-0.4336	6.1824	3.7381	5.1858	7.144	14.5922	3.5423
2.5736	4.7102	4.6088	2.9128	6.4586	6.1789	4.2276	7.7454	9.0043	6.7174	9.7071	11.0429	9.9869	0.2133	1.2833	9.7946	-0.4301	5.9935	3.6856	5.1368	6.9936	14.6376	3.4269
2.5422	4.7207	4.5563	2.8604	6.4341	6.1264	4.1892	7.686	8.9518	6.616	9.5917	10.931	9.7911	0.2028	1.2903	9.9065	-0.3986	5.8082	3.6297	5.0494	6.7803	14.6761	3.3499
2.5422	4.6577	4.5354	2.8044	6.3887	6.0879	4.1752	7.63	8.9029	6.5145	9.4728	10.8156	9.6232	0.1923	1.3393	10.0323	-0.3777	5.5879	3.5632	4.9375	6.5985	14.7006	3.2485
2.5387	4.6473	4.5284	2.773	6.3572	6.018	4.1507	7.5531	8.8469	6.4236	9.347	10.7212	9.4169	0.1643	1.3533	10.1267	-0.3462	5.3746	3.5143	4.8291	6.3992	14.6971	3.1891
2.5317	4.6717	4.4899	2.738	6.3362	5.997	4.0983	7.4902	8.7385	6.3152	9.1896	10.5883	9.2106	0.1469	1.3742	10.2386	-0.3077	5.1543	3.4409	4.7207	6.1998	14.6796	3.1681
2.5212	4.6508	4.4689	2.6786	6.2943	5.9656	4.0668	7.3888	8.6791	6.2243	9.0148	10.438	9.0218	0.1294	1.4092	10.347	-0.2553	4.9375	3.3569	4.6193	5.9621	14.6271	3.1296
2.5212	4.6158	4.4549	2.6296	6.2383	5.8886	4.0178	7.2803	8.5951	6.0844	8.8294	10.2806	8.7665	0.0909	1.4477	10.403	-0.2063	4.7347	3.2345	4.5319	5.7138	14.5397	3.0912
2.5317	4.6193	4.4339	2.6051	6.2033	5.8432	3.9724	7.1719	8.4867	5.9656	8.6616	10.1058	8.5602	0.0769	1.4372	10.4974	-0.1643	4.5284	3.1261	4.4339	5.4515	14.4768	3.0632
2.5317	4.6088	4.3815	2.6051	6.1824	5.8257	3.9199	7.0601	8.3958	5.8606	8.4413	9.9484	8.3329	0.0559	1.4512	10.5044	-0.1259	4.343	2.9758	4.343	5.1823	14.4138	3.0422
2.5282	4.5878	4.378	2.5702	6.1089	5.7872	3.8884	6.9097	8.2664	5.7103	8.193	9.7596	8.0846	0.028	1.4512	10.5009	-0.0944	4.1402	2.8219	4.2276	4.913	14.3579	3.0247
2.5562	4.5913	4.385	2.6296	6.067	5.7348	3.8745	6.8328	8.179	5.5984	7.9797	9.5638	7.8713	0.0315	1.4407	10.5289	-0.0804	3.9584	2.6855	4.1472	4.6542	14.2949	3.0107
2.5597	4.5773	4.357	2.6611	6.0215	5.6928	3.8465	6.6824	8.0566	5.476	7.7524	9.3575	7.6615	0.0035	1.4197	10.5219	-0.035	3.808	2.5352	4.0668	4.336	14.26	2.9968
2.5911	4.5773	4.3605	2.7135	5.983	5.6753	3.8465	6.553	7.9308	5.3641	7.5251	9.1756	7.4237	0.014	1.3777	10.4904	-0.0385	3.6297	2.3918	3.9794	4.0738	14.2215	3.0212
2.6226	4.5424	4.371	2.7905	5.9411	5.6753	3.8675	6.4516	7.8433	5.2557	7.2978	8.9973	7.2139	0.014	1.3812	10.4834	-0.042	3.5283	2.2694	3.9304	3.808	14.2075	3.0107
2.6611	4.5493	4.399	2.8779	5.8921	5.6438	3.8954	6.3607	7.7489	5.1473	7.0845	8.8329	7.0426	0.0175	1.3463	10.5009	-0.049	3.3989	2.1575	3.8954	3.6052	14.1865	3.0457
2.696	4.5319	4.399	2.9233	5.8606	5.6369	3.9269	6.2523	7.679	5.0948	6.8817	8.6581	6.8677	0.0105	1.2763	10.4904	-0.049	3.2835	2.0142	3.8465	3.3674	14.197	3.0667
2.7345	4.4864	4.4165	3.0457	5.8502	5.6508	3.9934	6.1719	7.5986	5.0459	6.7104	8.5182	6.7244	0.0385	1.2239	10.5184	-0.0769	3.2101	1.8988	3.8535	3.1786	14.1761	3.1052
2.7415	4.4549	4.4235	3.1192	5.7942	5.6403	4.0073	6.0914	7.5426	4.9829	6.553	8.3853	6.5985	0.0385	1.1784	10.4939	-0.0804	3.1471	1.7869	3.864	3.0247	14.1551	3.1611
2.7555	4.4584	4.4549	3.2415	5.8327	5.6753	4.0738	6.0495	7.5076	4.9899	6.4446	8.3434	6.539	0.0629	1.1644	10.4974	-0.1154	3.1192	1.7204	3.871	2.9198	14.1201	3.2136
2.7695	4.4444	4.4759	3.329	5.8187	5.7138	4.1332	6.0285	7.5286	5.0004	6.3257	8.2525	6.4866	0.0629	1.105	10.5044	-0.1329	3.0912	1.689	3.9129	2.8254	14.0816	3.2765
2.7939	4.4444	4.5214	3.4094	5.8397	5.7313	4.1892	6.039	7.5111	4.9934	6.2488	8.2315	6.4236	0.0734	1.07	10.4624	-0.1399	3.0667	1.647	3.9584	2.7835	14.0327	3.3325
2.787	4.4305	4.5354	3.4898	5.8537	5.7697	4.2556	6.0495	7.5531	5.0214	6.2453	8.235	6.4411	0.0559	0.9896	10.403	-0.1399	3.0877	1.6365	4.0178	2.766	14.0117	3.3744
2.759	4.427	4.5458	3.5283	5.8886	5.7907	4.2626	6.0565	7.5881	5.0389	6.2173	8.2455	6.4481	0.0629	0.9371	10.3156	-0.1294	3.0772	1.668	4.0668	2.759	13.9697	3.4513
2.7485	4.427	4.5563	3.5597	5.9656	5.8816	4.2941	6.0984	7.651	5.0879	6.2558	8.2944	6.4831	0.0699	0.8812	10.2596	-0.1434	3.1192	1.689	4.1227	2.8114	13.9418	3.5108
2.7205	4.4165	4.5808	3.5702	5.976	5.9306	4.3011	6.1229	7.679	5.0983	6.2943	8.3399	6.518	0.0594	0.7903	10.2037	-0.1224	3.1366	1.7519	4.1717	2.8604	13.9348	3.6017
2.6436	4.3955	4.5458	3.5423	6.0075	5.9481	4.2626	6.1754	7.707	5.1263	6.3292	8.3749	6.5565	0.0455	0.7273	10.0848	-0.1294	3.1331	1.8148	4.1647	2.9443	13.9488	3.6577
2.5841	4.343	4.4969	3.4898	6.018	5.9621	4.2696	6.1928	7.7209	5.1368	6.3572	8.4133	6.5775	0.0455	0.6504	9.9974	-0.1119	3.1471	1.8463	4.1892	3.0177	13.9732	3.7031
2.5037	4.336	4.4759	3.4618	6.046	5.99	4.2346	6.2278	7.7489	5.1613	6.4201	8.4518	6.623	0.0559	0.556	9.8995	-0.1224	3.1856	1.9023	4.2241	3.1122	14.0292	3.7696
2.4268	4.2906	4.4025	3.3709	6.0495	5.9551	4.1717	6.2768	7.7874	5.1438	6.4586	8.4833	6.5985	0.0594	0.4616	9.8085	-0.1154	3.1401	1.9757	4.1997	3.2031	14.1026	3.815
2.3464	4.2556	4.364	3.308	6.067	5.9725	4.1472	6.3047	7.7979	5.1473	6.5076	8.4833	6.609	0.049	0.3846	9.7316	-0.1189	3.1261	2.0247	4.2102	3.322	14.1691	3.822
2.238	4.1787	4.2976	3.1996	6.0355	5.9516	4.0738	6.3187	7.7909	5.0879	6.553	8.4937	6.609	0.0385	0.2797	9.5987	-0.1049	3.1087	2.0631	4.1927	3.4199	14.274	3.857
2.1331	4.1122	4.1962	3.1052	6.06	5.9236	4.0178	6.3117	7.7699	5.0809	6.5985	8.5007	6.602	0.0455	0.1853	9.5673	-0.1014	3.0982	2.1016	4.1647	3.5493	14.3649	3.8535
2.0631	4.1018	4.1577	3.0387	6.046	5.9061	3.9479	6.3362	7.7629	5.0634	6.6369	8.5077	6.588	0.049	0.1364	9.4973	-0.1049	3.0632	2.168	4.1402	3.6507	14.4418	3.843
1.9757	4.0528	4.0983	2.9338	6.06	5.8746	3.8989	6.3642	7.7664	5.0704	6.6964	8.4623	6.588	0.0455	0.0804	9.4763	-0.0909	3.0527	2.2205	4.0948	3.7521	14.5327	3.8185
1.8883	4.0388	4.0108	2.8604	6.0635	5.8676	3.8745	6.4131	7.7734	5.0634	6.7873	8.4867	6.609	0.0315	0.0315	9.4728	-0.0839	3.0737	2.2799	4.1087	3.871	14.6271	3.7905
1.8078	4.0318	3.9829	2.787	6.0914	5.8432	3.85	6.4516	7.7629	5.0774	6.8223	8.4588	6.5985	0.028	-0.007	9.4728	-0.0594	3.0632	2.3254	4.0598	4.0108	14.7076	3.7766
1.7449	4.0703	3.9444	2.745	6.1404	5.8816	3.8675	6.525	7.7524	5.1018	6.9307	8.4728	6.6439	0.028	-0.042	9.5218	-0.0629	3.0982	2.4128	4.0913	4.1472	14.816	3.7696
1.6575	4.0878	3.8919	2.6716	6.1858	5.8502	3.8535	6.5565	7.7699	5.1123	6.9796	8.4413	6.6369	0.014	-0.0594	9.5673	-0.035	3.0877	2.5107	4.0948	4.2416	14.9034	3.7905
1.5945	4.1018	3.8605	2.6296	6.2243	5.8641	3.8535	6.6264	7.7874	5.1368	7.0566	8.4693	6.6509	0	-0.0909	9.6092	-0.014	3.1157	2.5702	4.0668	4.3325	14.9768	3.8115
1.5176	4.1542	3.8115	2.5492	6.2943	5.8746	3.85	6.6719	7.7944	5.1438	7.13	8.4483	6.6544	-0.0035	-0.0944	9.6617	-0.007	3.1296	2.6471	4.0738	4.4095	15.0537	3.8185
1.4896	4.2102	3.836	2.5282	6.3642	5.9131	3.885	6.7558	7.8154	5.2137	7.1754	8.4343	6.6929	-0.0105	-0.0455	9.7631	0.0035	3.1261	2.7555	4.0913	4.5179	15.1237	3.8255
1.4407	4.3081	3.8535	2.5107	6.4726	5.9271	3.9129	6.8572	7.8573	5.2487	7.2838	8.4518	6.7209	-0.0105	-0.0629	9.826	0	3.1576	2.8604	4.1192	4.6158	15.2076	3.85
1.4477	4.385	3.8605	2.5002	6.5565	5.997	3.9374	6.9412	7.9203	5.3047	7.3223	8.4588	6.7523	-0.0105	-0.0245	9.9274	0.0175	3.1751	2.9373	4.1682	4.6438	15.2636	3.871
1.4372	4.4584	3.8884	2.5107	6.6474	6.0705	4.0003	7.0146	7.9692	5.3641	7.4342	8.4658	6.7978	0.0035	-0.035	9.9939	0.007	3.2206	3.0352	4.2137	4.7067	15.337	3.9024
1.4477	4.6053	3.9409	2.5457	6.7838	6.1719	4.0878	7.1335	8.0496	5.448	7.5041	8.5007	6.8572	0.0035	-0.014	10.1128	0	3.2485	3.1436	4.2661	4.7487	15.3964	3.9199
1.4931	4.7557	4.0563	2.6261	6.9482	6.2873	4.1717	7.2559	8.1266	5.5459	7.5706	8.5077	6.9202	0.0035	0.0385	10.2037	-0.028	3.294	3.231	4.3325	4.7906	15.4559	3.9689
1.5526	4.8885	4.1787	2.6716	7.0775	6.3922	4.2906	7.3818	8.2315	5.6718	7.665	8.5672	7.0006	0.007	0.1154	10.3261	-0.042	3.329	3.336	4.4095	4.8291	15.5188	4.0248
1.6225	5.0844	4.3011	2.7939	7.2734	6.5495	4.406	7.5356	8.3504	5.8117	7.7559	8.6196	7.0845	0.0455	0.1818	10.438	-0.0909	3.3884	3.4339	4.5214	4.8745	15.5678	4.0808
1.7554	5.2417	4.4374	2.8954	7.4272	6.6824	4.5563	7.679	8.4588	5.9306	7.8503	8.6651	7.1685	0.0629	0.2483	10.5534	-0.1329	3.4513	3.5213	4.5948	4.9025	15.6692	4.1367
1.8568	5.4305	4.6018	3.0492	7.6021	6.8537	4.6927	7.7979	8.5707	6.0879	7.9238	8.7455	7.2873	0.0979	0.3077	10.6688	-0.1888	3.5038	3.6087	4.7172	4.9165	15.7391	4.2171
1.9897	5.6124	4.7557	3.1646	7.7909	7.0321	4.8361	7.9482	8.742	6.2523	8.0217	8.812	7.3748	0.1154	0.3951	10.7492	-0.2483	3.5597	3.6891	4.8466	4.906	15.8405	4.2906
2.1051	5.7907	4.934	3.3185	7.9832	7.1964	5.0004	8.1161	8.8819	6.4306	8.0881	8.8994	7.4972	0.1469	0.4686	10.8331	-0.3147	3.6192	3.7905	4.9445	4.913	15.9454	4.3745
2.2729	6.0005	5.1263	3.5003	8.1825	7.3783	5.1613	8.2455	9.0218	6.5915	8.1825	9.0043	7.6545	0.1888	0.584	10.9625	-0.3742	3.6891	3.836	5.0913	4.9235	16.0468	4.4479
2.4163	6.2138	5.3012	3.6786	8.3818	7.5741	5.3396	8.4063	9.1861	6.7698	8.2769	9.0987	7.7874	0.2133	0.6644	11.0639	-0.4301	3.7626	3.9374	5.2032	4.9585	16.1343	4.5598
2.5876	6.4446	5.5075	3.871	8.5672	7.7874	5.5529	8.5847	9.3749	6.9761	8.3993	9.2141	7.9447	0.2448	0.8113	11.1863	-0.493	3.822	4.0213	5.3361	4.9445	16.2007	4.6298
2.7625	6.6439	5.7138	4.0843	8.7735	7.9797	5.7942	8.763	9.5638	7.1929	8.4972	9.3575	8.0986	0.2762	0.9267	11.2982	-0.549	3.8745	4.0703	5.4935	4.9655	16.2846	4.6997
2.9303	6.8398	5.9131	4.2626	8.9623	8.1685	5.9725	8.9169	9.7106	7.3608	8.5882	9.4728	8.256	0.2902	1.0281	11.4101	-0.5875	3.9304	4.1507	5.6229	4.9795	16.3651	4.7871
3.0702	7.0601	6.0984	4.5039	9.1372	8.3749	6.1928	9.0742	9.882	7.5846	8.6826	9.5917	8.3574	0.3112	1.1504	11.5499	-0.6329	3.9514	4.2311	5.7522	5.0144	16.442	4.8815
3.2485	7.2629	6.3082	4.6997	9.333	8.5567	6.4201	9.2421	10.0463	7.7839	8.8154	9.7106	8.5077	0.3462	1.3043	11.6863	-0.6889	3.9968	4.2976	5.8886	5.0529	16.5049	4.941
3.4548	7.4692	6.4796	4.9235	9.5113	8.7315	6.623	9.3784	10.1932	7.9762	8.8924	9.8085	8.6056	0.3672	1.4057	11.8262	-0.7413	3.9864	4.3745	5.99	5.0634	16.5993	5.0179
3.6402	7.6755	6.6754	5.1893	9.6896	8.9064	6.8677	9.5463	10.361	8.1511	9.0043	9.9414	8.7385	0.3916	1.5211	11.9871	-0.8008	4.0038	4.4514	6.1159	5.1018	16.6833	5.0774
3.8325	7.8538	6.8677	5.455	9.8575	9.0777	7.116	9.6827	10.4939	8.3504	9.0847	10.0393	8.8294	0.4161	1.6505	12.1479	-0.8497	4.0003	4.5109	6.2138	5.1228	16.7987	5.1123
4.0598	8.0392	7.0216	5.7138	10.0288	9.256	7.3503	9.854	10.6688	8.5427	9.2071	10.1407	8.9413	0.4301	1.7869	12.3682	-0.8812	4.0003	4.6158	6.3047	5.1508	16.8966	5.1648
4.2556	8.228	7.2279	5.983	10.1827	9.4204	7.5636	10.0288	10.7981	8.707	9.305	10.2456	9.0218	0.4721	1.9162	12.5395	-0.9406	3.9479	4.6787	6.3677	5.2172	17.012	5.1963
4.4759	8.3714	7.3992	6.2278	10.3191	9.5638	7.7979	10.1477	10.9065	8.8854	9.4274	10.3366	9.0987	0.4861	2.0596	12.7074	-1.0036	3.8954	4.7661	6.4551	5.2417	17.1623	5.2452
4.6822	8.5357	7.5916	6.4761	10.4869	9.7071	8.0217	10.2981	11.0499	9.0427	9.5113	10.438	9.1651	0.5315	2.154	12.8333	-1.056	3.857	4.8501	6.4796	5.2487	17.3162	5.2942
4.92	8.7105	7.7105	6.7034	10.6058	9.8505	8.2315	10.3995	11.1583	9.1756	9.6057	10.5009	9.2106	0.542	2.2904	12.9836	-1.0875	3.7696	4.913	6.525	5.3012	17.4805	5.3676
5.0948	8.8609	7.8783	6.9272	10.7562	9.9764	8.4168	10.5429	11.2702	9.3365	9.6931	10.5918	9.284	0.563	2.4128	13.0641	-1.1295	3.7171	4.9655	6.56	5.2872	17.6449	5.441
5.2697	8.9938	8.0182	7.13	10.8681	10.0848	8.6161	10.6757	11.3821	9.4589	9.7771	10.6688	9.3295	0.577	2.5317	13.0746	-1.1609	3.6332	5.0109	6.574	5.3151	17.8442	5.504
5.462	9.1407	8.1546	7.3153	10.9975	10.2002	8.749	10.7841	11.4695	9.5882	9.8645	10.7317	9.4029	0.584	2.6226	13.1375	-1.1784	3.5528	5.0774	6.623	5.3047	18.047	5.5774
5.6438	9.2945	8.2909	7.4972	11.1163	10.2911	8.9169	10.896	11.5674	9.7141	9.9519	10.8261	9.4693	0.6015	2.71	13.1235	-1.1924	3.5248	5.1088	6.6439	5.3186	18.2673	5.6543
5.7942	9.4309	8.4308	7.679	11.2282	10.3715	9.0777	11.0149	11.6688	9.8295	10.0288	10.8891	9.5288	0.5875	2.7835	13.1235	-1.1889	3.4339	5.1543	6.6369	5.3012	18.4736	5.7522
5.9621	9.5743	8.5847	7.8363	11.3471	10.4799	9.2386	11.1373	11.7668	9.9729	10.1652	11.0114	9.6337	0.591	2.8674	13.099	-1.1924	3.4024	5.1718	6.6859	5.3151	18.7114	5.8257
6.0844	9.6862	8.6931	7.9552	11.466	10.5534	9.3749	11.2282	11.8157	10.1302	10.2142	11.0849	9.7071	0.6015	2.9093	13.0711	-1.1924	3.3954	5.2172	6.7279	5.3012	18.9352	5.9166
6.2348	9.8015	8.805	8.1161	11.5744	10.6478	9.5288	11.3227	11.9031	10.2806	10.3086	11.2073	9.8155	0.5875	2.9828	13.0571	-1.1714	3.3744	5.2347	6.7698	5.2907	19.152	6.004
6.3677	9.9065	8.9238	8.2245	11.6584	10.7072	9.6757	11.4276	12.001	10.417	10.375	11.2982	9.9065	0.5665	2.9968	13.0186	-1.1574	3.3849	5.2452	6.8013	5.2732	19.3723	6.0809
6.5041	9.9834	9.0357	8.3574	11.7318	10.7772	9.8365	11.494	12.0885	10.5639	10.445	11.3856	10.0253	0.57	3.0667	13.0256	-1.1539	3.4234	5.2417	6.8502	5.2697	19.5751	6.1474
6.6544	10.0708	9.1407	8.4553	11.8017	10.8541	9.9659	11.5744	12.1514	10.6827	10.5114	11.452	10.1198	0.5805	3.1331	13.0186	-1.1609	3.4688	5.2382	6.8782	5.2382	19.7639	6.1998
6.7383	10.1302	9.1791	8.5497	11.8577	10.8576	10.0743	11.5989	12.1934	10.8086	10.5639	11.5185	10.2177	0.563	3.1506	12.9836	-1.1644	3.4793	5.2207	6.9237	5.2137	19.9598	6.2453
6.8258	10.1862	9.2351	8.6266	11.8856	10.8821	10.1512	11.6339	12.2283	10.896	10.6303	11.5954	10.3156	0.577	3.1821	12.9766	-1.1714	3.5143	5.2137	6.9342	5.1823	20.1311	6.2803
6.9202	10.1757	9.2805	8.6791	11.8996	10.9205	10.2596	11.6409	12.2388	10.9695	10.6618	11.6549	10.3855	0.5805	3.2101	12.9976	-1.1784	3.5493	5.1823	6.9621	5.1508	20.2675	6.3362
6.9761	10.1687	9.312	8.6931	11.9066	10.9065	10.3261	11.6549	12.2493	11.0464	10.6862	11.6828	10.438	0.591	3.231	13.0046	-1.1854	3.6087	5.1613	6.9971	5.1158	20.4074	6.3502
7.0531	10.1477	9.326	8.749	11.8961	10.903	10.389	11.6479	12.2808	11.1059	10.7177	11.7598	10.5639	0.591	3.259	13.0116	-1.1854	3.6647	5.1333	7.0111	5.1018	20.5053	6.3607
7.074	10.1023	9.326	8.7385	11.8367	10.8611	10.424	11.6234	12.2318	11.1723	10.7422	11.7842	10.6268	0.577	3.3115	13.0431	-1.2029	3.7136	5.0948	7.0321	5.0879	20.5717	6.3607
7.116	10.0813	9.3085	8.77	11.8017	10.8366	10.452	11.6024	12.2283	11.1933	10.7527	11.8262	10.6688	0.6049	3.3639	13.0816	-1.2029	3.794	5.0879	7.0496	5.0774	20.5927	6.3327
7.102	9.9974	9.27	8.714	11.7178	10.7911	10.4554	11.5395	12.1829	11.2247	10.7632	11.8507	10.7457	0.6049	3.3919	13.155	-1.2204	3.8605	5.0354	7.081	5.1053	20.5997	6.3222
7.0775	9.8925	9.2106	8.6721	11.6234	10.7247	10.4345	11.5255	12.1794	11.2422	10.8016	11.8752	10.7981	0.5945	3.4374	13.2284	-1.2169	3.9199	5.0109	7.088	5.1123	20.5647	6.2977
7.0531	9.7561	9.1057	8.6126	11.5255	10.6408	10.389	11.4381	12.0989	11.1863	10.7772	11.8856	10.8366	0.6084	3.5038	13.3403	-1.2204	3.9689	4.962	7.0775	5.1368	20.4948	6.2943
6.9726	9.6582	9.0253	8.5357	11.4101	10.5324	10.3575	11.3786	12.029	11.1968	10.8086	11.9206	10.91	0.6084	3.5178	13.3928	-1.2204	4.0003	4.913	7.0915	5.1473	20.4144	6.2488
6.8782	9.5393	8.9238	8.4378	11.2912	10.4205	10.3086	11.3262	11.9696	11.1618	10.8191	11.9206	10.9205	0.6084	3.5667	13.5082	-1.2169	4.0353	4.9095	7.067	5.1753	20.3129	6.2348
6.8013	9.4134	8.805	8.3434	11.1478	10.3016	10.2526	11.2317	11.8856	11.1408	10.8191	11.9346	10.9345	0.598	3.6052	13.5991	-1.2029	4.0388	4.8815	7.0566	5.2032	20.1906	6.2383
6.6754	9.2421	8.6651	8.2	11.0079	10.1547	10.1687	11.1303	11.8087	11.0639	10.8156	11.9311	10.924	0.591	3.5772	13.6515	-1.1679	4.0703	4.8256	7.0426	5.2592	20.1066	6.2243
6.56	9.1476	8.5287	8.0881	10.91	10.0253	10.1233	11.0674	11.7563	11.0079	10.8366	11.9241	10.9415	0.584	3.5912	13.7669	-1.1609	4.0703	4.8326	7.0356	5.3047	20.0052	6.2033
6.4201	8.9728	8.3574	7.9098	10.7562	9.8715	9.9869	10.987	11.6339	10.9135	10.7911	11.8507	10.8576	0.5525	3.5737	13.8299	-1.1155	4.0213	4.7661	6.9621	5.3326	19.9248	6.1998
6.3117	8.8399	8.2245	7.8224	10.6338	9.7386	9.9134	10.8891	11.5465	10.8436	10.7946	11.8402	10.8366	0.5525	3.5772	13.9208	-1.1015	4.0248	4.7871	6.9097	5.4026	19.8444	6.1789
6.1928	8.7001	8.0601	7.7	10.5324	9.6092	9.8575	10.8646	11.445	10.7667	10.8226	11.8052	10.7946	0.528	3.5248	13.9662	-1.063	3.9864	4.7976	6.8887	5.469	19.8024	6.1369
6.0705	8.5847	7.9377	7.616	10.4554	9.4798	9.8015	10.7667	11.3716	10.6757	10.8051	11.7842	10.7492	0.521	3.5178	14.0222	-1.0386	3.9199	4.8011	6.8328	5.5319	19.7779	6.0984
5.9551	8.4763	7.7664	7.5006	10.3505	9.333	9.7211	10.7317	11.2912	10.6338	10.8051	11.7668	10.6653	0.507	3.4583	14.0117	-1.0211	3.8605	4.8011	6.7698	5.5704	19.7919	6.053
5.8327	8.3434	7.5986	7.3853	10.2596	9.2211	9.6722	10.6408	11.2143	10.5464	10.7946	11.7038	10.5883	0.4965	3.3954	13.9872	-0.9966	3.787	4.8116	6.6894	5.6543	19.8374	6.032
5.6998	8.207	7.4727	7.2838	10.1687	9.0567	9.5743	10.5918	11.1163	10.4205	10.7597	11.6444	10.4869	0.493	3.3255	13.8753	-0.9791	3.7136	4.7976	6.609	5.6613	19.9318	5.9935
5.5389	8.0496	7.2803	7.137	10.0708	8.9273	9.5078	10.5114	11.0114	10.3296	10.7387	11.5779	10.4205	0.4826	3.2136	13.7459	-0.9651	3.6192	4.8081	6.518	5.6998	20.0437	5.9656
5.3571	7.9238	7.123	7.0076	10.0009	8.784	9.3924	10.4694	10.938	10.2456	10.7072	11.5395	10.3051	0.4756	3.1017	13.5466	-0.9581	3.5178	4.8011	6.4201	5.7522	20.1906	5.9376
5.2242	7.7839	6.9237	6.8677	9.9204	8.6791	9.3085	10.403	10.8751	10.1512	10.6897	11.501	10.2282	0.4756	3.0073	13.3648	-0.9581	3.4653	4.7801	6.3397	5.7837	20.3899	5.9586
5.0494	7.616	6.7453	6.7209	9.8155	8.5427	9.1966	10.3261	10.7772	10.0463	10.6583	11.4136	10.1582	0.4651	2.8534	13.106	-0.9197	3.3709	4.7801	6.2488	5.7872	20.6067	5.9341
4.8955	7.4727	6.6125	6.5775	9.7001	8.4203	9.1232	10.2456	10.7177	9.9484	10.6023	11.3821	10.0813	0.4511	2.7135	12.8333	-0.8952	3.3045	4.7626	6.1579	5.7837	20.8619	5.9481
4.7312	7.2838	6.4376	6.4551	9.5743	8.2909	9.0427	10.1302	10.6338	9.8715	10.5429	11.3262	9.9974	0.4161	2.5806	12.5605	-0.8637	3.2276	4.7207	6.0635	5.7732	21.1487	5.9551
4.5738	7.137	6.2803	6.3817	9.4693	8.172	8.9728	10.0568	10.5429	9.7911	10.4764	11.2772	9.9484	0.4161	2.4513	12.2598	-0.8427	3.2066	4.7067	5.997	5.7592	21.4669	5.9516
4.3955	6.9621	6.1474	6.2663	9.354	8.0671	8.9343	9.9834	10.4869	9.7351	10.3925	11.2073	9.847	0.4021	2.3568	12.001	-0.8043	3.1681	4.6542	5.9166	5.7662	21.7956	5.9725
4.2766	6.7803	5.99	6.2068	9.2281	7.9657	8.8504	9.8575	10.41	9.6757	10.2946	11.1128	9.7771	0.3916	2.238	11.7423	-0.7763	3.1506	4.6228	5.8746	5.6893	22.1523	5.983
4.1507	6.616	5.8502	6.0879	9.1092	7.8503	8.77	9.7666	10.3331	9.5987	10.1757	11.0429	9.6722	0.3742	2.1575	11.487	-0.7553	3.0982	4.5773	5.8082	5.6578	22.5019	5.9865
4.0108	6.4621	5.7383	6.0285	9.0008	7.7664	8.6931	9.6547	10.2596	9.5568	10.0953	10.966	9.6057	0.3742	2.0561	11.2807	-0.7553	3.0842	4.5354	5.7522	5.6264	22.8656	5.997
3.9269	6.2908	5.6194	5.9446	8.8504	7.679	8.5986	9.5393	10.1792	9.5043	9.9379	10.8681	9.5148	0.3707	1.9932	11.0919	-0.7238	3.0912	4.4829	5.7173	5.5669	23.1908	5.997
3.843	6.1544	5.5145	5.8746	8.7245	7.5776	8.5427	9.3959	10.0883	9.4414	9.8295	10.7702	9.4274	0.3602	1.9547	10.987	-0.7343	3.0597	4.4514	5.6928	5.4935	23.488	5.9935
3.7696	5.99	5.4131	5.7697	8.5847	7.4762	8.4693	9.284	9.9624	9.3505	9.6827	10.6548	9.3155	0.3567	1.9302	10.924	-0.7203	3.0422	4.413	5.6438	5.3921	23.7398	5.969
3.7241	5.8641	5.3047	5.7138	8.4483	7.3818	8.3749	9.1686	9.861	9.2595	9.5533	10.5149	9.2036	0.3532	1.9267	10.917	-0.7273	3.0317	4.3605	5.6334	5.3186	23.9671	5.9411
3.6507	5.7033	5.2277	5.6403	8.3154	7.2873	8.2595	9.0078	9.7561	9.1581	9.3644	10.368	9.0952	0.3637	1.9337	10.959	-0.7413	2.9863	4.3011	5.5914	5.2277	24.128	5.9131
3.6192	5.6019	5.1543	5.6299	8.2105	7.2349	8.2385	8.8924	9.6477	9.1022	9.2036	10.2317	8.9798	0.3707	1.9722	11.0639	-0.7658	2.9968	4.2521	5.5844	5.1473	24.2573	5.8851
3.5947	5.4445	5.0669	5.5774	8.0636	7.1125	8.1266	8.707	9.5148	8.9833	8.9938	10.0463	8.8329	0.3567	1.9757	11.2038	-0.7273	2.9408	4.1857	5.5704	5.0109	24.3518	5.8641
3.5528	5.3431	5.0004	5.5599	7.9412	7.0251	8.0741	8.5392	9.3679	8.8959	8.7945	9.8785	8.7245	0.3567	2.0281	11.4031	-0.7203	2.9408	4.1018	5.5459	4.8711	24.3797	5.8117
3.5632	5.2137	4.9235	5.5424	7.7769	6.9551	7.9797	8.3923	9.2316	8.805	8.5882	9.6931	8.5707	0.3252	2.0806	11.5674	-0.6714	2.8989	4.0213	5.5389	4.7382	24.4077	5.7732
3.5143	5.1018	4.8711	5.5145	7.672	6.8782	7.9133	8.2035	9.1092	8.7105	8.3923	9.5463	8.4378	0.3182	2.1191	11.8052	-0.6329	2.8849	3.9059	5.5005	4.6018	24.4147	5.7487
3.4863	5.0214	4.8116	5.5075	7.5531	6.7908	7.8433	8.0811	8.9798	8.6021	8.186	9.3924	8.3434	0.2797	2.1365	11.9975	-0.5735	2.8674	3.836	5.4795	4.4514	24.4322	5.7138
3.4339	4.934	4.7626	5.4655	7.4062	6.7209	7.7909	7.9098	8.8224	8.4867	7.9902	9.2176	8.1895	0.2343	2.1855	12.2178	-0.5	2.8079	3.7276	5.455	4.2836	24.4217	5.7173
3.4059	4.8745	4.7137	5.4585	7.3188	6.6719	7.7454	7.7524	8.6826	8.4063	7.7804	9.0637	8.0741	0.2028	2.2275	12.4242	-0.4301	2.7939	3.6332	5.427	4.1262	24.4287	5.6578
3.4164	4.8186	4.6682	5.49	7.2104	6.6055	7.693	7.6125	8.5777	8.2979	7.5811	8.8749	7.9482	0.1643	2.2345	12.6235	-0.3532	2.7555	3.5667	5.448	3.9689	24.4427	5.6438
3.3954	4.8011	4.6647	5.4865	7.151	6.5845	7.672	7.4762	8.4658	8.2245	7.4062	8.7525	7.8189	0.1434	2.2519	12.8053	-0.2902	2.7345	3.4898	5.4235	3.8045	24.4706	5.6124
3.4024	4.7696	4.6438	5.518	7.0845	6.539	7.651	7.3573	8.3539	8.1231	7.1754	8.5532	7.693	0.1119	2.3184	12.9277	-0.2273	2.6786	3.4199	5.3886	3.6192	24.5301	5.5879
3.3709	4.7382	4.6263	5.504	6.9901	6.4866	7.5846	7.2454	8.2455	8.0322	6.9901	8.3783	7.5461	0.0629	2.3429	13.0536	-0.1504	2.6051	3.336	5.3641	3.4479	24.6035	5.5424
3.4024	4.7032	4.6333	5.5285	6.9062	6.4656	7.5636	7.0985	8.1126	7.9447	6.8013	8.2315	7.4237	0.0559	2.3708	13.1235	-0.1294	2.5597	3.2555	5.3501	3.252	24.6909	5.5215
3.4059	4.6892	4.6053	5.511	6.8572	6.4131	7.4972	6.9796	8.0042	7.8573	6.5985	8.0671	7.2734	0.035	2.3918	13.1445	-0.0944	2.4792	3.1821	5.3151	3.0702	24.8133	5.4865
3.4059	4.6577	4.6018	5.5389	6.7803	6.4027	7.4867	6.8642	7.8713	7.7489	6.4096	7.8608	7.158	0.0315	2.3918	13.1375	-0.0769	2.4303	3.1052	5.2802	2.8884	24.9812	5.462
3.4129	4.6473	4.5563	5.5215	6.7034	6.3782	7.4587	6.7523	7.7769	7.6685	6.2068	7.6895	6.9971	0.0105	2.4163	13.0641	-0.0664	2.3149	3.0038	5.2627	2.6995	25.156	5.4166
3.4094	4.6193	4.5389	5.5459	6.6579	6.3397	7.4237	6.6544	7.6545	7.5811	6.032	7.5251	6.8817	0.0315	2.4303	12.9766	-0.0769	2.2729	2.9443	5.2592	2.5107	25.3658	5.3711
3.4548	4.6193	4.5808	5.5564	6.6369	6.3362	7.3888	6.5425	7.5811	7.5041	5.8502	7.3643	6.7453	0.042	2.4443	12.8403	-0.1084	2.189	2.8779	5.2172	2.3499	25.5826	5.3501
3.4269	4.6088	4.5528	5.5424	6.588	6.2628	7.3538	6.4621	7.4482	7.4202	5.6718	7.1894	6.6369	0.049	2.4583	12.7004	-0.1259	2.1226	2.8149	5.2277	2.1715	25.7924	5.3186
3.4513	4.5948	4.5284	5.5389	6.546	6.2628	7.3013	6.3572	7.3433	7.3573	5.518	7.0601	6.5425	0.0699	2.4792	12.5256	-0.1574	2.0631	2.7485	5.2172	2.0107	26.0547	5.2732
3.4409	4.5878	4.5179	5.5529	6.5076	6.2208	7.2908	6.2873	7.2489	7.3013	5.3571	6.8922	6.4236	0.0909	2.4618	12.3332	-0.1993	1.9827	2.6611	5.2277	1.8603	26.3135	5.2242
3.4444	4.6053	4.5214	5.5494	6.4796	6.1858	7.2629	6.2068	7.1685	7.2699	5.2172	6.7803	6.3537	0.1189	2.5247	12.1899	-0.2378	1.9407	2.5911	5.2312	1.6925	26.5443	5.2172
3.4583	4.5913	4.4934	5.5529	6.4481	6.1579	7.2384	6.1334	7.0985	7.1964	5.0774	6.6334	6.2523	0.1329	2.5527	12.029	-0.2797	1.8708	2.4757	5.2557	1.5106	26.7715	5.1928
3.4339	4.5808	4.4969	5.525	6.3922	6.1194	7.2104	6.0705	7.0391	7.1475	4.941	6.5145	6.1684	0.1469	2.5702	11.8961	-0.3287	1.8148	2.3953	5.2592	1.3498	27.0093	5.1613
3.3849	4.5633	4.4409	5.4935	6.3852	6.0949	7.1859	6.004	6.9656	7.0845	4.8151	6.4096	6.0949	0.1678	2.5667	11.7737	-0.3637	1.7589	2.3009	5.2592	1.2064	27.2261	5.1508
3.3954	4.5389	4.4409	5.504	6.3677	6.0495	7.158	5.9376	6.8922	7.0635	4.6892	6.2977	6.0215	0.1748	2.6506	11.7143	-0.3951	1.696	2.189	5.2417	1.0246	27.4394	5.1263
3.3744	4.5528	4.4479	5.469	6.3257	6.018	7.137	5.9026	6.8258	7.0146	4.5878	6.1893	5.9551	0.2133	2.6436	11.6688	-0.4371	1.654	2.1086	5.2662	0.8952	27.6423	5.1123
3.3604	4.5284	4.406	5.4445	6.3222	5.969	7.1125	5.8467	6.7593	6.9691	4.4934	6.1124	5.8606	0.2238	2.738	11.6584	-0.4756	1.5841	2.0247	5.2662	0.7238	27.8066	5.1193
3.3499	4.5179	4.392	5.4061	6.2733	5.9446	7.0426	5.8187	6.6999	6.8922	4.3745	5.9865	5.7487	0.2483	2.752	11.6444	-0.5035	1.5036	1.9128	5.2452	0.6084	27.9744	5.1158
3.294	4.4794	4.3325	5.3431	6.2593	5.9061	7.0041	5.7383	6.623	6.8153	4.2521	5.8397	5.6264	0.2588	2.7939	11.6444	-0.535	1.4162	1.8078	5.2102	0.4441	28.1073	5.1018
3.2765	4.4479	4.329	5.3116	6.2278	5.8571	6.9447	5.6928	6.5285	6.7558	4.1507	5.7348	5.49	0.2832	2.8324	11.6933	-0.577	1.3253	1.7414	5.1928	0.3112	28.2262	5.0948
3.2485	4.4025	4.2696	5.2557	6.1754	5.8152	6.8992	5.6334	6.4761	6.6369	4.0598	5.6194	5.3781	0.3042	2.8954	11.7563	-0.6189	1.2064	1.661	5.1438	0.1888	28.3346	5.0704
3.2066	4.364	4.2171	5.2067	6.1404	5.7208	6.8188	5.5704	6.3712	6.5285	3.9444	5.4795	5.2207	0.3077	2.9443	11.8367	-0.6469	1.0875	1.5771	5.0704	0.0594	28.3976	5.0424
3.1261	4.2871	4.1787	5.1403	6.0879	5.6858	6.7978	5.511	6.2733	6.4236	3.8535	5.3466	5.0704	0.3147	2.9688	11.9416	-0.6679	0.9791	1.4931	4.9934	-0.0385	28.478	5.0319
3.0947	4.2416	4.1297	5.0809	6.046	5.6578	6.7348	5.462	6.2103	6.3117	3.7835	5.2452	4.9655	0.3392	2.9618	12.0605	-0.6854	0.8917	1.4722	4.955	-0.1259	28.5339	5.0039
3.0212	4.1612	4.0423	5.0284	5.9865	5.5914	6.6754	5.4026	6.1089	6.2138	3.7311	5.1298	4.8186	0.3567	2.9793	12.1689	-0.7203	0.7938	1.4022	4.8711	-0.2133	28.5724	4.9655
2.9303	4.0738	4.0038	4.9829	5.9306	5.5319	6.6369	5.3676	6.053	6.1299	3.6856	5.0459	4.6997	0.3602	2.9898	12.3158	-0.7343	0.7203	1.3673	4.8501	-0.2448	28.6039	4.9305
2.8604	4.0283	3.9339	4.934	5.9061	5.4725	6.574	5.3431	5.9795	6.039	3.6542	4.976	4.6088	0.3567	2.9793	12.4451	-0.7273	0.6609	1.3288	4.7557	-0.2972	28.6214	4.8711
2.7275	3.9304	3.8395	4.8571	5.8187	5.4096	6.4936	5.3151	5.9131	5.9201	3.6367	4.9095	4.5074	0.3427	2.9233	12.571	-0.6994	0.5665	1.2763	4.6892	-0.3532	28.6423	4.8396
2.6541	3.8745	3.7975	4.8151	5.7942	5.3781	6.4796	5.3047	5.8886	5.8991	3.6472	4.899	4.4724	0.3357	2.9128	12.7249	-0.6819	0.528	1.2868	4.6577	-0.3357	28.6179	4.7941
2.5876	3.85	3.7311	4.7941	5.7907	5.3466	6.4691	5.3082	5.8502	5.8432	3.6786	4.8885	4.4339	0.3112	2.8849	12.8438	-0.6644	0.521	1.2903	4.6158	-0.3077	28.5899	4.7417
2.4827	3.7556	3.6961	4.7626	5.7627	5.3116	6.4376	5.3186	5.8537	5.7802	3.7136	4.8641	4.4025	0.3077	2.8359	12.9592	-0.6329	0.493	1.2833	4.5598	-0.2937	28.5864	4.7347
2.3883	3.7171	3.6332	4.7557	5.7348	5.3012	6.4061	5.3396	5.8641	5.7522	3.7416	4.878	4.3745	0.2972	2.78	13.0326	-0.6259	0.4756	1.2623	4.5633	-0.2308	28.6039	4.7137
2.3044	3.6577	3.5912	4.7277	5.7208	5.2942	6.4166	5.3571	5.8641	5.7313	3.808	4.8815	4.3465	0.2937	2.703	13.12	-0.6224	0.4476	1.3078	4.5389	-0.1748	28.6214	4.6962
2.2345	3.6262	3.5632	4.7592	5.6963	5.2837	6.4341	5.3851	5.8781	5.7243	3.878	4.9165	4.3675	0.3112	2.6261	13.092	-0.6434	0.4441	1.3358	4.4829	-0.1748	28.6948	4.7102
2.161	3.5353	3.5353	4.7731	5.6998	5.2347	6.4306	5.4096	5.9026	5.7068	3.9199	4.941	4.35	0.3217	2.5282	13.0641	-0.6504	0.4406	1.3673	4.42	-0.1014	28.7927	4.7032
2.0946	3.5318	3.5003	4.8046	5.7243	5.2802	6.4796	5.441	5.9131	5.7103	4.0073	4.962	4.3535	0.3357	2.4408	13.0151	-0.6889	0.4266	1.4197	4.427	-0.0525	28.9011	4.7382
2.0631	3.4933	3.4968	4.8326	5.7313	5.2802	6.4971	5.469	5.9201	5.6858	4.0563	4.9969	4.35	0.3567	2.3568	12.9452	-0.7308	0.4196	1.4826	4.357	0.0105	29.02	4.7557
2.0002	3.4793	3.4758	4.8606	5.7487	5.2767	6.5145	5.525	5.9516	5.7068	4.1367	5.0004	4.3395	0.3602	2.2519	12.8333	-0.7588	0.3777	1.5351	4.3046	0.0874	29.1669	4.7766
1.9792	3.4688	3.4723	4.899	5.7557	5.3012	6.56	5.5984	6.0145	5.7313	4.2102	5.0564	4.3465	0.3986	2.1785	12.7459	-0.7903	0.3707	1.619	4.3046	0.1923	29.3067	4.8046
1.9337	3.4409	3.4409	4.9375	5.7837	5.3012	6.5845	5.6334	6.018	5.7103	4.2906	5.0983	4.35	0.3986	2.1156	12.6025	-0.8183	0.3427	1.6785	4.2661	0.2308	29.4501	4.8151
1.9197	3.4513	3.4234	4.9655	5.8012	5.3082	6.616	5.6963	6.0495	5.7173	4.3605	5.1088	4.343	0.4231	2.0631	12.4906	-0.8532	0.3252	1.7554	4.2311	0.3147	29.597	4.8326
1.8708	3.4339	3.3779	4.9515	5.8152	5.2942	6.6195	5.7348	6.0565	5.7208	4.4305	5.1438	4.378	0.4371	1.9652	12.3262	-0.8777	0.3077	1.8218	4.2067	0.3986	29.7438	4.8396
1.8148	3.4444	3.3569	4.9969	5.8676	5.2942	6.623	5.8152	6.0879	5.7522	4.5249	5.1648	4.378	0.4301	1.9372	12.1864	-0.8707	0.3077	1.8918	4.2102	0.4686	29.8522	4.8431
1.7799	3.4479	3.3394	5.0039	5.8641	5.2907	6.609	5.8362	6.1194	5.7557	4.5948	5.2032	4.3955	0.4196	1.8743	12.036	-0.8707	0.3112	1.9093	4.1612	0.535	29.9362	4.8501
1.7379	3.4339	3.3115	5.0214	5.8886	5.2907	6.6125	5.9131	6.1334	5.7522	4.7067	5.2452	4.4305	0.4196	1.8218	11.9171	-0.8462	0.3077	1.9687	4.1647	0.6015	30.0236	4.8536
1.654	3.4024	3.259	4.9829	5.8537	5.2417	6.574	5.9131	6.1369	5.7348	4.7452	5.3047	4.4165	0.4056	1.7834	11.7877	-0.8183	0.3042	1.9862	4.1542	0.6644	30.0725	4.8711
1.591	3.3744	3.2031	4.9899	5.8432	5.1893	6.5355	5.9341	6.1124	5.7208	4.8011	5.3501	4.4339	0.3707	1.7484	11.6793	-0.7868	0.2693	1.9897	4.1507	0.6819	30.1285	4.8676
1.5491	3.3569	3.1541	4.941	5.8187	5.1648	6.4761	5.9725	6.1054	5.7173	4.8676	5.3711	4.4479	0.3707	1.7099	11.6199	-0.7553	0.2658	2.0037	4.1647	0.7308	30.1634	4.8536
1.4687	3.3325	3.0912	4.92	5.8082	5.1053	6.4446	5.9656	6.0844	5.6998	4.92	5.42	4.4584	0.3567	1.689	11.5709	-0.7273	0.2448	2.0107	4.1612	0.7658	30.2229	4.8536
1.4057	3.3115	3.0562	4.8641	5.7872	5.0354	6.3712	5.983	6.067	5.6613	4.9515	5.4166	4.4339	0.3287	1.647	11.6024	-0.6959	0.2273	2.0037	4.1472	0.7763	30.2509	4.8571
1.3742	3.2485	2.9933	4.8326	5.7418	4.976	6.3187	5.99	6.067	5.6194	5.0179	5.4515	4.4374	0.3252	1.64	11.6758	-0.6644	0.2133	2.0037	4.1262	0.8148	30.2998	4.8571
1.3148	3.2415	2.9513	4.7661	5.7278	4.913	6.2523	5.9865	6.0075	5.5809	5.0284	5.476	4.4025	0.3042	1.6295	11.7563	-0.6294	0.1818	2.0107	4.1682	0.8777	30.3383	4.8571
1.2833	3.2345	2.8814	4.6997	5.7103	4.8571	6.1928	6.0075	5.976	5.5529	5.0739	5.497	4.3815	0.2972	1.633	11.8856	-0.6154	0.1399	2.0386	4.1577	0.8987	30.3558	4.8501
1.2693	3.2345	2.8569	4.6647	5.7138	4.8326	6.1579	5.9865	5.9481	5.504	5.1088	5.49	4.392	0.2902	1.654	12.085	-0.6049	0.1084	2.0701	4.1612	0.9651	30.3802	4.8431
1.2554	3.231	2.8219	4.6508	5.7208	4.7801	6.1019	6.011	5.9201	5.469	5.1648	5.5145	4.3605	0.2937	1.6575	12.2458	-0.5945	0.0874	2.1191	4.1227	1.0211	30.4187	4.7836
1.2449	3.2276	2.8254	4.6053	5.7138	4.7277	6.046	6.0355	5.8886	5.42	5.1858	5.4935	4.3186	0.2867	1.6785	12.4766	-0.5805	0.007	2.1331	4.1122	1.0525	30.4397	4.7382
1.2449	3.2276	2.78	4.5773	5.7103	4.6612	6.0005	6.018	5.8187	5.3466	5.1718	5.4725	4.2731	0.2588	1.7309	12.6899	-0.542	0	2.154	4.0878	1.0665	30.4537	4.7172
1.2169	3.1961	2.7625	4.4864	5.7068	4.5983	5.9236	5.9865	5.7662	5.3151	5.1893	5.441	4.2171	0.2518	1.7274	12.8543	-0.5245	-0.042	2.189	4.0563	1.119	30.4817	4.6333
1.2029	3.1856	2.7135	4.4549	5.7033	4.5493	5.8921	5.9586	5.7033	5.2557	5.1998	5.4445	4.1682	0.2378	1.7309	13.0361	-0.4965	-0.0839	2.2484	4.0318	1.1679	30.5166	4.6123
1.2064	3.1821	2.682	4.4165	5.6438	4.4794	5.8117	5.9271	5.6369	5.1893	5.1788	5.4235	4.1542	0.2133	1.7274	13.127	-0.4406	-0.1014	2.2729	3.9864	1.1924	30.5691	4.5738
1.1819	3.1541	2.6471	4.336	5.6334	4.413	5.7837	5.8886	5.5634	5.1508	5.1753	5.3956	4.1332	0.1958	1.7204	13.2529	-0.4126	-0.1014	2.2974	3.9899	1.2379	30.6005	4.5144
1.126	3.1017	2.5736	4.2626	5.5704	4.3186	5.7453	5.8467	5.497	5.1088	5.1578	5.3676	4.0948	0.1713	1.689	13.2879	-0.3602	-0.1049	2.3044	3.9549	1.2658	30.6495	4.4654
1.1015	3.0702	2.5282	4.1787	5.5145	4.2171	5.6928	5.8012	5.4305	5.0774	5.1368	5.3396	4.0983	0.1643	1.6785	13.3298	-0.3357	-0.1014	2.2974	3.9479	1.2728	30.6845	4.42
1.042	2.9793	2.4198	4.0948	5.4235	4.1332	5.6299	5.7103	5.3431	5.0039	5.0844	5.2907	4.0598	0.1469	1.605	13.3508	-0.3042	-0.0944	2.2939	3.9304	1.2693	30.7334	4.3885
0.9826	2.9373	2.3324	4.0003	5.3396	4.0108	5.5809	5.6194	5.2557	4.948	5.0144	5.2277	4.0073	0.1434	1.5631	13.3018	-0.3007	-0.0594	2.2659	3.9269	1.2449	30.7684	4.336
0.9022	2.8674	2.2449	3.8989	5.2347	3.9024	5.4935	5.5319	5.1613	4.892	4.9375	5.1648	3.9724	0.1469	1.5596	13.2704	-0.3147	-0.028	2.2449	3.9199	1.2169	30.8069	4.3081
0.9197	2.8009	2.175	3.7731	5.1508	3.8115	5.3956	5.4445	5.0529	4.8256	4.878	5.0948	3.9514	0.1678	1.4931	13.1969	-0.3497	0.007	2.1995	3.9374	1.1924	30.8838	4.2766
0.8497	2.7065	2.0771	3.6821	5.0494	3.6891	5.3221	5.3256	4.9235	4.7801	4.7906	5.0284	3.8989	0.1818	1.4896	13.1095	-0.4056	0.021	2.1785	3.9234	1.147	30.9572	4.2486
0.7833	2.5946	1.9652	3.5493	4.9235	3.5528	5.2312	5.1928	4.8221	4.6612	4.6577	4.927	3.8115	0.2168	1.4197	12.9557	-0.4511	0.035	2.0701	3.8989	1.0351	31.0586	4.2311
0.7413	2.5142	1.8603	3.4339	4.7976	3.4374	5.1228	5.0739	4.7067	4.5738	4.5389	4.8256	3.7416	0.2728	1.3812	12.8053	-0.5455	0.0525	2.0456	3.8954	0.9896	31.181	4.2067
0.6679	2.4268	1.7484	3.3429	4.6822	3.3185	5.0389	4.9165	4.5493	4.5179	4.3815	4.6857	3.6402	0.3147	1.3183	12.6445	-0.6539	0.049	1.9687	3.8954	0.8742	31.3629	4.1857
0.6189	2.2974	1.654	3.1996	4.5319	3.1961	4.9445	4.7557	4.4025	4.427	4.2137	4.5354	3.5178	0.3637	1.2484	12.3927	-0.7343	0.0175	1.8743	3.85	0.7728	31.5517	4.2067
0.5455	2.1925	1.5316	3.1331	4.399	3.0667	4.8711	4.5878	4.2661	4.2941	4.0318	4.371	3.4094	0.4021	1.1889	12.1864	-0.8148	-0.035	1.7729	3.829	0.6294	31.73	4.1647
