"FZ"	"FC3"	"FCZ"	"FC4"	"C3"	"CZ"	"C4"	"CP3"	"CPZ"	"CP4"	"P3"	"PZ"	"P4"	"OZ"	"FP1"	"FP2"	"A2"	"P8"	"TP7"	"TP8"	"P7"
0.7148	0.1534	1.0476	-0.6367	-0.0347	0.5325	-1.1055	-0.5469	-0.1852	-1.7537	-0.7842	-0.709	-1.8897	-0.6193	-0.5846	-1.3717	1.2183	-1.5077	0.0752	-1.2531	0.0781
0.6569	0.1736	0.981	-0.7148	-0.0116	0.5122	-1.172	-0.5151	-0.1678	-1.7913	-0.7061	-0.6888	-1.8897	-0.6482	-0.5614	-1.3341	1.2704	-1.554	0.11	-1.3428	0.1505
0.6367	0.1997	0.9029	-0.8016	0.0058	0.4543	-1.2299	-0.5006	-0.1823	-1.8232	-0.6511	-0.6482	-1.9042	-0.6743	-0.5441	-1.2791	1.3023	-1.6177	0.1418	-1.4093	0.2026
0.5614	0.1765	0.8653	-0.8595	-0.0434	0.3791	-1.3254	-0.5122	-0.1968	-1.8608	-0.6077	-0.628	-1.91	-0.7003	-0.518	-1.2097	1.3543	-1.6582	0.1244	-1.5048	0.2344
0.5064	0.191	0.7814	-0.9492	-0.055	0.3212	-1.4007	-0.492	-0.2055	-1.8695	-0.5788	-0.6048	-1.9158	-0.709	-0.4601	-1.1315	1.3891	-1.7132	0.1418	-1.5685	0.2662
0.463	0.2228	0.6945	-1.0071	-0.081	0.2576	-1.4238	-0.5093	-0.2373	-1.8926	-0.5151	-0.6077	-1.9187	-0.7177	-0.4457	-1.0534	1.4035	-1.7624	0.1476	-1.638	0.2952
0.4109	0.217	0.6251	-1.0187	-0.0955	0.2055	-1.4267	-0.5006	-0.2344	-1.8666	-0.4775	-0.5846	-1.8753	-0.7293	-0.3849	-0.9839	1.4151	-1.7682	0.1534	-1.6814	0.356
0.3588	0.1997	0.5469	-1.0852	-0.1621	0.1389	-1.4412	-0.5325	-0.2807	-1.8695	-0.4457	-0.5846	-1.8579	-0.7264	-0.3617	-0.9521	1.4151	-1.8145	0.1563	-1.719	0.382
0.2923	0.1939	0.4717	-1.0852	-0.2055	0.0897	-1.447	-0.5614	-0.301	-1.8579	-0.4138	-0.5527	-1.8261	-0.7177	-0.3588	-0.9608	1.4209	-1.8087	0.1302	-1.7248	0.4138
0.2518	0.2141	0.4023	-1.091	-0.2402	0.0058	-1.447	-0.5354	-0.3154	-1.7971	-0.3907	-0.5441	-1.7508	-0.7119	-0.2778	-0.9318	1.3891	-1.8145	0.1331	-1.7016	0.4543
0.2141	0.2141	0.3473	-1.091	-0.2662	-0.0145	-1.3775	-0.5209	-0.327	-1.7277	-0.3241	-0.5006	-1.6785	-0.7061	-0.2489	-0.9579	1.3775	-1.7769	0.1418	-1.6727	0.4833
0.1447	0.2026	0.2576	-1.1199	-0.3386	-0.0839	-1.3891	-0.5469	-0.3357	-1.6843	-0.3212	-0.4833	-1.5916	-0.6888	-0.2547	-0.9868	1.3515	-1.7595	0.1042	-1.6495	0.4659
0.1013	0.1678	0.191	-1.0794	-0.356	-0.1187	-1.3023	-0.5643	-0.3299	-1.583	-0.2749	-0.4399	-1.4962	-0.6656	-0.2315	-1.0215	1.2994	-1.6756	0.1042	-1.6032	0.4804
0.0608	0.1563	0.1273	-1.0534	-0.3907	-0.1505	-1.2502	-0.5383	-0.3154	-1.473	-0.2518	-0.408	-1.3949	-0.6309	-0.2576	-1.0881	1.2444	-1.6119	0.0666	-1.5222	0.463
0.0029	0.1158	0.0376	-1.0447	-0.4486	-0.2084	-1.1981	-0.5672	-0.3212	-1.3978	-0.2199	-0.3588	-1.2849	-0.6048	-0.2605	-1.1518	1.1865	-1.528	0.0463	-1.447	0.4746
-0.0781	0.0926	-0.0579	-1.0331	-0.4833	-0.246	-1.1547	-0.573	-0.3415	-1.3052	-0.1823	-0.3039	-1.1576	-0.5672	-0.2981	-1.2125	1.1055	-1.4238	0.0174	-1.3746	0.4486
-0.1534	0.0695	-0.1273	-1.0158	-0.5093	-0.2981	-1.0707	-0.5296	-0.3299	-1.201	-0.1476	-0.2576	-1.0389	-0.5064	-0.2894	-1.2357	0.9984	-1.3312	0.0116	-1.3109	0.4399
-0.2691	0.0116	-0.2431	-1.0129	-0.5412	-0.327	-1.036	-0.5469	-0.3299	-1.146	-0.1273	-0.2113	-0.9376	-0.463	-0.356	-1.3052	0.9087	-1.2444	-0.0289	-1.2415	0.4109
-0.3096	0.0029	-0.3125	-0.9955	-0.5469	-0.3675	-0.981	-0.5354	-0.2894	-1.0331	-0.1013	-0.1505	-0.8277	-0.408	-0.3588	-1.3486	0.8132	-1.1315	-0.0492	-1.146	0.3733
-0.3646	-0.026	-0.3878	-0.9897	-0.5498	-0.3791	-0.9232	-0.4891	-0.2662	-0.9521	-0.0492	-0.081	-0.7148	-0.3646	-0.3907	-1.337	0.7408	-1.0447	-0.0955	-1.0707	0.3415
-0.4688	-0.0868	-0.5064	-1.0042	-0.5585	-0.4428	-0.8855	-0.4891	-0.272	-0.8797	-0.0289	-0.0232	-0.628	-0.356	-0.4428	-1.3862	0.6888	-0.9781	-0.136	-1.0187	0.2778
-0.5585	-0.0897	-0.573	-0.9752	-0.5759	-0.4746	-0.8508	-0.4312	-0.2518	-0.8074	0.0029	0.0492	-0.5151	-0.327	-0.4717	-1.3543	0.628	-0.8711	-0.1244	-0.9376	0.2778
-0.6743	-0.1707	-0.6859	-1.0331	-0.5904	-0.5122	-0.8306	-0.4138	-0.2373	-0.7495	0.0289	0.0666	-0.4543	-0.3212	-0.4862	-1.3572	0.6222	-0.819	-0.1707	-0.8971	0.2315
-0.7524	-0.2373	-0.7842	-1.0447	-0.6251	-0.5412	-0.7987	-0.3733	-0.2141	-0.6888	0.0579	0.11	-0.4023	-0.3183	-0.5035	-1.3254	0.6193	-0.764	-0.1736	-0.8566	0.191
-0.8595	-0.3039	-0.9	-1.0707	-0.6424	-0.5875	-0.79	-0.3502	-0.2113	-0.628	0.0666	0.1273	-0.356	-0.3212	-0.5238	-1.2646	0.6164	-0.7293	-0.2315	-0.8306	0.1389
-0.9492	-0.3791	-0.9839	-1.1084	-0.654	-0.654	-0.7958	-0.3675	-0.2373	-0.6077	0.081	0.1447	-0.327	-0.3183	-0.5296	-1.201	0.6106	-0.6916	-0.2228	-0.8016	0.0897
-1.0794	-0.492	-1.117	-1.1605	-0.7148	-0.6888	-0.79	-0.3675	-0.272	-0.5933	0.0637	0.1244	-0.3154	-0.3357	-0.5643	-1.1431	0.6453	-0.6859	-0.272	-0.8132	0.0318
-1.1807	-0.6019	-1.2154	-1.1807	-0.7611	-0.7553	-0.7785	-0.382	-0.2894	-0.573	0.0405	0.1187	-0.2981	-0.3415	-0.5469	-1.0476	0.6598	-0.6859	-0.3241	-0.8045	-0.0203
-1.2617	-0.6974	-1.2994	-1.201	-0.8074	-0.8132	-0.7842	-0.3907	-0.3212	-0.5354	0.0116	0.0984	-0.2981	-0.3675	-0.5614	-0.981	0.7032	-0.6685	-0.3502	-0.7871	-0.0723
-1.3862	-0.8248	-1.4209	-1.2357	-0.8421	-0.874	-0.7582	-0.3762	-0.356	-0.518	-0.0058	0.0723	-0.2865	-0.3646	-0.5527	-0.8653	0.7148	-0.6511	-0.382	-0.7727	-0.1013
-1.4412	-0.8942	-1.4759	-1.256	-0.8624	-0.8769	-0.709	-0.3849	-0.3502	-0.4428	-0.0376	0.0637	-0.272	-0.3704	-0.5556	-0.7698	0.7264	-0.6453	-0.3994	-0.7379	-0.1476
-1.5222	-0.9752	-1.5627	-1.2444	-0.8769	-0.9116	-0.683	-0.3849	-0.3675	-0.4109	-0.0405	0.0318	-0.2547	-0.3878	-0.5846	-0.6743	0.7437	-0.6396	-0.3994	-0.7351	-0.165
-1.5714	-1.0042	-1.5743	-1.2183	-0.8884	-0.9029	-0.6135	-0.3936	-0.3791	-0.3328	-0.0318	0.0695	-0.191	-0.382	-0.5788	-0.6019	0.7351	-0.6135	-0.3965	-0.683	-0.1736
-1.6437	-1.0505	-1.6466	-1.2097	-0.8711	-0.8884	-0.5614	-0.3704	-0.3617	-0.2749	-0.0492	0.0492	-0.1621	-0.3791	-0.6106	-0.492	0.7379	-0.5701	-0.3936	-0.6251	-0.1823
-1.6611	-1.0881	-1.6756	-1.1952	-0.8566	-0.8942	-0.4978	-0.3415	-0.3386	-0.2026	-0.0492	0.0868	-0.1187	-0.3704	-0.628	-0.4051	0.709	-0.5209	-0.3675	-0.5759	-0.1331
-1.6698	-1.1199	-1.6698	-1.1344	-0.8653	-0.8653	-0.4254	-0.3241	-0.3039	-0.1302	-0.0145	0.1013	-0.0637	-0.3646	-0.6193	-0.2865	0.6916	-0.4688	-0.3328	-0.5267	-0.1071
-1.6871	-1.1344	-1.6785	-1.1055	-0.8595	-0.8421	-0.3444	-0.3096	-0.301	-0.0318	0.0116	0.1013	0.0174	-0.3328	-0.6367	-0.191	0.6482	-0.4167	-0.3039	-0.4746	-0.0434
-1.7074	-1.1778	-1.7045	-1.065	-0.8479	-0.8277	-0.301	-0.2923	-0.272	0.0145	-0.0174	0.1302	0.0203	-0.3299	-0.6482	-0.1187	0.6309	-0.3646	-0.272	-0.4283	-0.0347
-1.69	-1.1981	-1.6929	-1.01	-0.8306	-0.79	-0.2286	-0.3068	-0.2547	0.0637	0.0029	0.1302	0.0723	-0.3039	-0.6511	-0.0145	0.6222	-0.3357	-0.2286	-0.3646	0
-1.7132	-1.2299	-1.6437	-0.9289	-0.8161	-0.7466	-0.1505	-0.2691	-0.2228	0.1244	0.0174	0.1389	0.1215	-0.3096	-0.6367	0.0781	0.6019	-0.2865	-0.1823	-0.3212	0.0318
-1.69	-1.2097	-1.6322	-0.8653	-0.8016	-0.7061	-0.0695	-0.2199	-0.1678	0.2084	0.0637	0.1794	0.2026	-0.2952	-0.6396	0.1273	0.5788	-0.2257	-0.1389	-0.2749	0.0868
-1.6351	-1.201	-1.6032	-0.7611	-0.7785	-0.6511	0.0029	-0.1939	-0.1129	0.2633	0.0897	0.1968	0.2344	-0.2865	-0.6019	0.2199	0.5614	-0.1997	-0.1129	-0.2518	0.1215
-1.609	-1.1952	-1.554	-0.6772	-0.7495	-0.6164	0.0463	-0.1534	-0.0955	0.2923	0.1071	0.2257	0.2633	-0.2894	-0.6135	0.2691	0.5672	-0.165	-0.0579	-0.2257	0.1302
-1.5685	-1.1576	-1.4904	-0.5759	-0.7032	-0.5643	0.1244	-0.1042	-0.0434	0.3212	0.1389	0.217	0.3125	-0.2778	-0.5817	0.2865	0.5643	-0.1563	-0.0637	-0.2257	0.1563
-1.5135	-1.1055	-1.4325	-0.4746	-0.6367	-0.5325	0.1592	-0.0608	-0.0174	0.3502	0.1592	0.2402	0.3212	-0.2923	-0.5904	0.2981	0.5614	-0.1215	-0.0145	-0.1852	0.1823
-1.4556	-1.0418	-1.337	-0.3733	-0.5701	-0.4659	0.2402	0.0029	0.0232	0.382	0.217	0.2633	0.3588	-0.2865	-0.5585	0.2807	0.5527	-0.0955	0.0318	-0.1389	0.2286
-1.3891	-0.9521	-1.256	-0.2952	-0.5035	-0.4138	0.2865	0.0463	0.055	0.408	0.2547	0.2662	0.3878	-0.2749	-0.5498	0.2373	0.5325	-0.0666	0.0521	-0.1071	0.2489
-1.3312	-0.9203	-1.1836	-0.1939	-0.4196	-0.3502	0.3415	0.1042	0.1129	0.408	0.301	0.2807	0.3907	-0.2662	-0.5527	0.191	0.5122	-0.0492	0.0897	-0.1129	0.2749
-1.2357	-0.8363	-1.0852	-0.0521	-0.3183	-0.2836	0.3965	0.1968	0.1592	0.4399	0.3617	0.327	0.4399	-0.2286	-0.5209	0.1273	0.4601	0.0087	0.1476	-0.0434	0.2865
-1.1691	-0.7814	-1.0215	0.0145	-0.2373	-0.2402	0.4109	0.2865	0.1852	0.4543	0.4399	0.3675	0.4399	-0.2228	-0.5093	0.0752	0.4167	0.0347	0.1678	-0.0318	0.3444
-1.0592	-0.6945	-0.8913	0.11	-0.1331	-0.1678	0.463	0.3704	0.2431	0.4775	0.5035	0.3878	0.4775	-0.1794	-0.5006	-0.0058	0.3386	0.0752	0.2055	0.0232	0.3675
-1.0129	-0.6193	-0.819	0.217	-0.0145	-0.0955	0.5122	0.4514	0.272	0.4775	0.5354	0.4023	0.4862	-0.1505	-0.4949	-0.0637	0.2778	0.1129	0.2547	0.055	0.3762
-0.9145	-0.5498	-0.7582	0.2923	0.0752	-0.0608	0.5267	0.5354	0.2778	0.4688	0.5933	0.4399	0.4949	-0.11	-0.4688	-0.1042	0.1881	0.165	0.2894	0.1187	0.4051
-0.8479	-0.4659	-0.6482	0.3646	0.1968	-0.0087	0.5527	0.6309	0.3473	0.5035	0.6743	0.463	0.4978	-0.0666	-0.4486	-0.1505	0.1042	0.2373	0.3444	0.1621	0.408
-0.7379	-0.3646	-0.5469	0.4514	0.3299	0.0608	0.6135	0.7408	0.4051	0.5093	0.7235	0.4775	0.5296	-0.0058	-0.382	-0.1794	0.0203	0.2749	0.4051	0.2402	0.4428
-0.6309	-0.2633	-0.4486	0.5701	0.4428	0.1302	0.6367	0.8421	0.4572	0.5325	0.819	0.5238	0.5672	0.0289	-0.3386	-0.2141	-0.0752	0.356	0.4891	0.2952	0.4949
-0.5643	-0.1997	-0.356	0.6338	0.5469	0.1823	0.6453	0.9261	0.4862	0.5441	0.8797	0.5469	0.5961	0.0666	-0.2981	-0.2315	-0.1447	0.4225	0.5296	0.3357	0.5064
-0.4804	-0.0897	-0.2691	0.6974	0.6309	0.2315	0.6859	1.0071	0.5238	0.5672	0.9289	0.599	0.6019	0.1042	-0.2373	-0.246	-0.2286	0.4486	0.599	0.3849	0.5441
-0.3646	-0.0058	-0.1736	0.7698	0.7495	0.2778	0.6945	1.0765	0.573	0.5788	0.9637	0.6338	0.6338	0.1331	-0.1621	-0.2547	-0.2923	0.518	0.6251	0.4601	0.5672
-0.272	0.0926	-0.0781	0.8248	0.8653	0.3328	0.7293	1.1373	0.6164	0.6135	0.9984	0.6482	0.6685	0.165	-0.1042	-0.2141	-0.3531	0.5701	0.6482	0.4949	0.5759
-0.1534	0.2026	0.0145	0.8913	0.9318	0.3936	0.7524	1.2039	0.6338	0.6193	1.01	0.6685	0.6801	0.1881	-0.0289	-0.1968	-0.4051	0.599	0.6685	0.5556	0.5759
-0.081	0.2923	0.0868	0.9116	0.9868	0.4196	0.7582	1.2212	0.6482	0.628	1.0215	0.683	0.709	0.2199	0.0318	-0.1852	-0.4399	0.6309	0.6801	0.599	0.5585
0.0087	0.3791	0.1476	0.9261	1.0563	0.437	0.7524	1.2444	0.6656	0.6048	1.0244	0.683	0.6888	0.2257	0.1187	-0.1331	-0.4659	0.6338	0.6714	0.6396	0.5469
0.0897	0.463	0.2026	0.9608	1.1084	0.4717	0.7698	1.2415	0.6627	0.6511	0.981	0.6801	0.7032	0.2257	0.1563	-0.1013	-0.4717	0.6656	0.6569	0.654	0.492
0.191	0.5296	0.2749	0.9463	1.1373	0.5093	0.7727	1.2386	0.6656	0.6627	0.981	0.7148	0.7437	0.2315	0.2691	-0.0289	-0.4891	0.683	0.6338	0.6945	0.4428
0.2431	0.5961	0.327	0.9521	1.146	0.4949	0.7582	1.2183	0.6685	0.6916	0.9637	0.6945	0.7669	0.2402	0.2952	0.0058	-0.4804	0.7003	0.6193	0.7524	0.3994
0.327	0.6424	0.3704	0.9347	1.1576	0.5064	0.764	1.1923	0.6888	0.7206	0.9203	0.7206	0.7785	0.2373	0.3878	0.1013	-0.4775	0.7351	0.5672	0.7929	0.3328
0.3849	0.6945	0.3936	0.9347	1.1315	0.5209	0.7437	1.1489	0.6916	0.7582	0.8826	0.7003	0.8016	0.2547	0.4514	0.1939	-0.5035	0.7785	0.5325	0.8537	0.2923
0.4341	0.7119	0.437	0.9116	1.1344	0.5209	0.7524	1.117	0.6945	0.7929	0.8421	0.7206	0.845	0.2489	0.5122	0.3039	-0.5064	0.8074	0.4949	0.8653	0.2431
0.4775	0.7264	0.4833	0.9116	1.0939	0.5209	0.7669	1.0505	0.6627	0.8219	0.8045	0.6945	0.8682	0.2691	0.5238	0.4051	-0.5441	0.8682	0.4283	0.9289	0.2055
0.5556	0.7698	0.5093	0.9	1.065	0.5325	0.7669	1.0187	0.6598	0.8508	0.7756	0.7032	0.9116	0.2807	0.5846	0.5035	-0.5788	0.9376	0.3965	0.9463	0.1765
0.5875	0.7871	0.5469	0.9087	1.0071	0.518	0.7814	0.9434	0.6482	0.9232	0.709	0.7032	0.9637	0.3183	0.6106	0.6077	-0.6482	1.0013	0.382	1.0042	0.1244
0.6222	0.7698	0.5325	0.8682	0.9463	0.5238	0.7929	0.8769	0.628	0.9347	0.6685	0.6888	1.0071	0.3444	0.6193	0.7003	-0.7119	1.0852	0.327	1.036	0.1013
0.6888	0.7987	0.5904	0.8769	0.9261	0.5238	0.8219	0.819	0.628	0.9897	0.6164	0.6888	1.0534	0.3994	0.628	0.7611	-0.8045	1.1749	0.2865	1.0939	0.055
0.7003	0.7785	0.599	0.8884	0.845	0.5064	0.8421	0.7524	0.5904	1.0447	0.5585	0.6859	1.1315	0.4486	0.628	0.8248	-0.8913	1.2733	0.2576	1.146	0.0116
0.7264	0.7264	0.6222	0.8711	0.7756	0.5209	0.8479	0.683	0.5846	1.0968	0.5209	0.6685	1.1807	0.4862	0.6309	0.8682	-0.9897	1.3457	0.1968	1.1952	-0.0318
0.7611	0.7003	0.6424	0.8913	0.7206	0.4978	0.8624	0.6135	0.5556	1.146	0.4399	0.6164	1.2125	0.5383	0.6453	0.9058	-1.0794	1.4151	0.165	1.2241	-0.0781
0.7871	0.683	0.6627	0.9058	0.6714	0.5035	0.9058	0.573	0.5441	1.1778	0.4023	0.599	1.2531	0.5933	0.6453	0.9232	-1.1923	1.4875	0.1244	1.2589	-0.11
0.8016	0.654	0.6743	0.9116	0.5875	0.4978	0.9058	0.4949	0.5006	1.1923	0.3154	0.5614	1.2704	0.6222	0.6338	0.9724	-1.2473	1.5396	0.0666	1.2791	-0.1707
0.845	0.6424	0.7061	0.9232	0.5383	0.492	0.9232	0.4225	0.463	1.2241	0.2547	0.5238	1.2849	0.654	0.6453	0.9897	-1.3167	1.6119	0.0232	1.3023	-0.2257
0.9	0.6309	0.7524	0.9781	0.5064	0.4891	0.955	0.3704	0.437	1.227	0.1852	0.463	1.3167	0.6916	0.6396	1.036	-1.3833	1.6351	-0.0318	1.3196	-0.2691
0.9232	0.6077	0.7871	1.0129	0.4659	0.4833	0.9434	0.2894	0.382	1.2415	0.0752	0.3617	1.282	0.7177	0.6309	1.091	-1.4383	1.6351	-0.081	1.3312	-0.327
0.9492	0.5817	0.8248	1.0158	0.3907	0.4543	0.9376	0.1939	0.3386	1.2241	-0.0232	0.2431	1.2386	0.7553	0.628	1.0968	-1.4933	1.6235	-0.1389	1.3225	-0.3907
0.9984	0.5498	0.8392	1.0273	0.356	0.4399	0.9029	0.11	0.2605	1.1807	-0.1302	0.136	1.1749	0.7871	0.6222	1.1228	-1.5482	1.6148	-0.2141	1.3399	-0.4486
1.0679	0.5325	0.8855	1.0505	0.301	0.4167	0.8653	0.0232	0.165	1.1344	-0.2373	0.0463	1.1084	0.7929	0.6338	1.1547	-1.5945	1.5714	-0.2402	1.3399	-0.5064
1.1084	0.5064	0.9261	1.0707	0.2344	0.3849	0.8277	-0.0695	0.081	1.0881	-0.3444	-0.0955	1.0215	0.819	0.6367	1.1865	-1.6322	1.5164	-0.2836	1.3283	-0.5788
1.1778	0.4572	0.9608	1.0881	0.1823	0.3617	0.7958	-0.1736	-0.0116	0.9984	-0.4949	-0.2286	0.9145	0.8306	0.6135	1.1836	-1.6495	1.4527	-0.3675	1.3225	-0.6598
1.2415	0.4254	1.0013	1.0939	0.1042	0.3473	0.7351	-0.2865	-0.1273	0.9029	-0.6482	-0.4023	0.7987	0.8248	0.6453	1.2212	-1.6524	1.3515	-0.4254	1.2733	-0.764
1.3109	0.4023	1.0447	1.0852	0.0434	0.2836	0.6627	-0.4023	-0.2373	0.7958	-0.7842	-0.5759	0.6367	0.8392	0.6569	1.2299	-1.6495	1.2704	-0.5122	1.2183	-0.8508
1.4209	0.3936	1.1055	1.0997	0.0029	0.272	0.6193	-0.4891	-0.3183	0.6772	-0.9058	-0.7148	0.4862	0.8334	0.709	1.2936	-1.6466	1.1778	-0.5412	1.1952	-0.9347
1.5164	0.408	1.1778	1.1113	-0.0087	0.2518	0.5556	-0.5614	-0.4428	0.6019	-1.0244	-0.8624	0.3531	0.8016	0.7495	1.3428	-1.6061	1.0592	-0.5585	1.1576	-0.981
1.6061	0.437	1.2299	1.1373	-0.0434	0.2691	0.5325	-0.6309	-0.5151	0.4862	-1.1026	-0.9839	0.2199	0.7958	0.8132	1.3891	-1.5656	0.9579	-0.599	1.1286	-1.0505
1.7335	0.4775	1.3717	1.1807	-0.0174	0.2923	0.5035	-0.6743	-0.5759	0.4051	-1.1778	-1.091	0.1187	0.7611	0.9058	1.4527	-1.5251	0.8711	-0.5701	1.0968	-1.0621
1.8347	0.4833	1.4267	1.2039	-0.0347	0.2923	0.437	-0.7408	-0.6627	0.301	-1.2531	-1.1836	-0.0289	0.7264	1.0071	1.5309	-1.4441	0.7698	-0.5875	1.0505	-1.0939
1.9708	0.5441	1.528	1.2097	-0.0318	0.3212	0.437	-0.7756	-0.7148	0.2402	-1.2878	-1.2791	-0.1273	0.7061	1.0707	1.5945	-1.392	0.7148	-0.5556	1.0447	-1.1228
2.0749	0.6077	1.638	1.2531	0.0145	0.3386	0.4051	-0.7929	-0.7495	0.1621	-1.337	-1.3399	-0.2315	0.6482	1.1634	1.6495	-1.2965	0.599	-0.5325	1.0129	-1.1634
2.2109	0.6974	1.719	1.2762	0.055	0.3502	0.3907	-0.8132	-0.7756	0.1244	-1.3601	-1.4064	-0.3068	0.6164	1.2328	1.7074	-1.2183	0.5527	-0.5209	1.0013	-1.1518
2.3383	0.79	1.855	1.3341	0.1158	0.3965	0.3849	-0.7987	-0.7958	0.0637	-1.3601	-1.4383	-0.4167	0.5585	1.3052	1.7566	-1.1257	0.4659	-0.492	0.9781	-1.1605
2.4598	0.9058	1.965	1.3775	0.1563	0.463	0.4225	-0.7669	-0.7814	0.0376	-1.3341	-1.4296	-0.4775	0.5238	1.4064	1.7913	-1.0447	0.4283	-0.4717	0.9752	-1.1402
2.5756	1.0042	2.0894	1.4296	0.2344	0.5209	0.437	-0.7495	-0.7727	0.0058	-1.3023	-1.4412	-0.5296	0.4833	1.473	1.8116	-0.9492	0.3762	-0.4659	0.9463	-1.1228
2.7029	1.0679	2.1762	1.4672	0.3212	0.5788	0.4804	-0.7235	-0.7379	0.0087	-1.2762	-1.4151	-0.5527	0.4341	1.528	1.8347	-0.8624	0.3299	-0.437	0.9116	-1.1026
2.8389	1.2039	2.3093	1.5309	0.3965	0.6627	0.5325	-0.654	-0.6801	0.0116	-1.2125	-1.3601	-0.5643	0.3907	1.6003	1.8666	-0.7611	0.2981	-0.4167	0.9	-1.0592
2.9663	1.3312	2.4425	1.5945	0.4891	0.764	0.6164	-0.5875	-0.6251	0.0521	-1.1634	-1.2849	-0.573	0.3386	1.69	1.8839	-0.6685	0.2315	-0.3907	0.8913	-1.0042
3.0878	1.4585	2.5785	1.6785	0.573	0.8537	0.6945	-0.4862	-0.5209	0.0868	-1.0707	-1.1865	-0.5585	0.2981	1.8087	1.936	-0.5904	0.1736	-0.3473	0.8392	-0.9492
3.1949	1.5627	2.6913	1.7508	0.6569	0.9608	0.7582	-0.3936	-0.4514	0.11	-0.9868	-1.1142	-0.5672	0.2518	1.8753	1.9621	-0.5035	0.1187	-0.3096	0.7987	-0.8971
3.3454	1.6871	2.8158	1.8521	0.7437	1.0736	0.8508	-0.327	-0.3646	0.1592	-0.9029	-1.0273	-0.5354	0.217	1.9939	2.0142	-0.4283	0.0608	-0.2662	0.7669	-0.8537
3.4351	1.7682	2.9286	1.9129	0.8392	1.1749	0.9492	-0.2431	-0.272	0.2228	-0.8103	-0.9318	-0.518	0.1823	2.0923	2.0373	-0.3386	-0.0029	-0.2373	0.709	-0.7785
3.5392	1.8492	3.0502	1.9968	0.8971	1.2473	1.0244	-0.1823	-0.1852	0.2431	-0.7148	-0.8219	-0.4891	0.136	2.182	2.0894	-0.2807	-0.0579	-0.1997	0.6482	-0.7322
3.6695	1.9187	3.1688	2.0952	0.9781	1.3399	1.1257	-0.0897	-0.0637	0.301	-0.6222	-0.7264	-0.463	0.1187	2.2544	2.1183	-0.2315	-0.1273	-0.1563	0.5875	-0.6511
3.736	1.9852	3.2643	2.1733	1.0244	1.4238	1.1836	-0.0174	0.0232	0.356	-0.5267	-0.6077	-0.4514	0.0926	2.3585	2.1241	-0.1997	-0.2113	-0.1129	0.5238	-0.5788
3.8142	2.0228	3.3714	2.2341	1.0621	1.5338	1.2589	0.0579	0.1302	0.4023	-0.4514	-0.518	-0.4167	0.081	2.4251	2.1241	-0.1678	-0.2662	-0.0897	0.4601	-0.5412
3.8865	2.0605	3.4843	2.3093	1.1142	1.583	1.308	0.1187	0.2489	0.4312	-0.3588	-0.3907	-0.3907	0.0637	2.4656	2.127	-0.1389	-0.3531	-0.081	0.3733	-0.492
3.9589	2.0691	3.545	2.3325	1.1518	1.6466	1.3601	0.1823	0.3241	0.4601	-0.2749	-0.3183	-0.356	0.0579	2.5032	2.1154	-0.1187	-0.4023	-0.0405	0.2923	-0.4486
4.0428	2.0981	3.6347	2.3788	1.1923	1.7306	1.4064	0.2633	0.4341	0.5122	-0.165	-0.191	-0.2952	0.0608	2.5553	2.1328	-0.1158	-0.4167	-0.0405	0.2113	-0.3588
4.0949	2.0981	3.6868	2.4193	1.2299	1.8058	1.4643	0.3646	0.5383	0.5498	-0.0723	-0.0723	-0.2489	0.0579	2.5987	2.1328	-0.1244	-0.4746	0.0029	0.1389	-0.3125
4.1412	2.1357	3.7794	2.4714	1.282	1.8753	1.5164	0.4283	0.6656	0.6048	0.0232	0.0579	-0.1621	0.0695	2.6508	2.1733	-0.1273	-0.492	0.0174	0.0897	-0.2431
4.2106	2.1473	3.8576	2.4917	1.3457	1.9447	1.5425	0.5093	0.7727	0.6511	0.136	0.1621	-0.0984	0.0637	2.6855	2.2109	-0.136	-0.492	0.0463	0.0666	-0.1592
4.2685	2.2254	3.9126	2.5524	1.4007	2.0084	1.5685	0.6048	0.8971	0.7032	0.2373	0.3096	-0.0289	0.055	2.729	2.2341	-0.1418	-0.4978	0.0926	0.0347	-0.1187
4.3495	2.3093	4.0225	2.6016	1.473	2.0807	1.6032	0.6974	0.9984	0.7785	0.3502	0.4688	0.0608	0.0752	2.7868	2.3064	-0.1621	-0.4659	0.1389	0.0145	-0.0318
4.393	2.3383	4.0486	2.6103	1.5482	2.1444	1.6119	0.7756	1.1055	0.7958	0.4572	0.5672	0.1302	0.0695	2.8013	2.3383	-0.1534	-0.437	0.1852	-0.0376	0.0405
4.393	2.4106	4.0833	2.5958	1.609	2.2109	1.6351	0.8595	1.2212	0.819	0.5701	0.7061	0.2113	0.0723	2.8331	2.3759	-0.1563	-0.3965	0.2228	-0.0376	0.1129
4.4132	2.4569	4.1325	2.6132	1.6698	2.2717	1.6206	0.955	1.3283	0.8855	0.6627	0.7871	0.2894	0.0752	2.8563	2.3701	-0.1736	-0.3646	0.2865	-0.0434	0.1881
4.3901	2.4714	4.1209	2.5814	1.6698	2.2949	1.6148	1.0071	1.4238	0.9	0.7322	0.8913	0.3878	0.0897	2.8129	2.3354	-0.1736	-0.3154	0.3183	-0.026	0.2633
4.3727	2.4945	4.1151	2.5611	1.69	2.3441	1.5916	1.0707	1.5106	0.9261	0.8103	0.9955	0.463	0.0839	2.8042	2.2949	-0.1765	-0.2691	0.3849	-0.0318	0.327
4.3351	2.4685	4.0804	2.5351	1.7248	2.3614	1.5888	1.1373	1.6206	0.9839	0.9145	1.0823	0.5556	0.1042	2.7695	2.237	-0.1823	-0.2228	0.4283	-0.0058	0.4341
4.2859	2.4598	4.0515	2.5206	1.719	2.3817	1.583	1.1807	1.7103	1.0187	0.9868	1.1691	0.6396	0.1013	2.7376	2.1357	-0.2026	-0.1563	0.5006	0.0347	0.518
4.2309	2.4106	3.9994	2.483	1.7074	2.4106	1.5627	1.2328	1.7653	1.0273	1.0592	1.2733	0.7206	0.11	2.6942	2.0865	-0.2026	-0.0984	0.5614	0.0608	0.6193
4.1557	2.3383	3.9328	2.4656	1.6756	2.3962	1.5569	1.2328	1.8203	1.036	1.0997	1.3283	0.7929	0.0897	2.6219	1.9881	-0.191	-0.0492	0.6048	0.1187	0.6859
4.0717	2.2659	3.8142	2.4627	1.6351	2.3933	1.5338	1.2878	1.8955	1.0794	1.1691	1.3949	0.8537	0.0955	2.5727	1.9302	-0.1939	0.026	0.6888	0.1621	0.8074
3.982	2.1762	3.7708	2.4309	1.6206	2.4019	1.5367	1.308	1.9534	1.1113	1.2212	1.4817	0.9174	0.0984	2.5495	1.8781	-0.1997	0.1215	0.7408	0.2084	0.8769
3.8778	2.0576	3.6521	2.4222	1.5656	2.3875	1.5338	1.3138	1.9852	1.1084	1.2646	1.5135	0.9637	0.0984	2.4859	1.8318	-0.2084	0.191	0.7756	0.2576	0.9752
3.7881	1.9563	3.574	2.4222	1.528	2.3643	1.4904	1.3283	2.0286	1.1344	1.3109	1.5367	1.0071	0.1042	2.4135	1.7653	-0.2228	0.2199	0.845	0.3183	1.0563
3.6984	1.8984	3.4958	2.4511	1.499	2.3759	1.528	1.3572	2.0749	1.1749	1.3746	1.6322	1.091	0.1215	2.3817	1.7479	-0.2605	0.3068	0.8826	0.4023	1.1634
3.574	1.7826	3.4003	2.4309	1.4412	2.3672	1.528	1.3515	2.101	1.1894	1.3891	1.6524	1.1344	0.1534	2.3238	1.7219	-0.3068	0.3704	0.9058	0.4514	1.2039
3.5016	1.6871	3.3106	2.4222	1.3804	2.3412	1.5135	1.363	2.127	1.201	1.4238	1.6958	1.1489	0.1707	2.2341	1.664	-0.356	0.4196	0.9376	0.5035	1.2646
3.3859	1.583	3.1862	2.4367	1.3283	2.3036	1.5019	1.3341	2.1299	1.1807	1.4209	1.7016	1.1634	0.1968	2.1907	1.6553	-0.4138	0.4514	0.9434	0.5354	1.2878
3.2933	1.4817	3.1023	2.4222	1.2791	2.2833	1.5106	1.337	2.1415	1.2068	1.4151	1.7219	1.172	0.2315	2.1386	1.6119	-0.4688	0.5035	0.9289	0.5875	1.3023
3.2007	1.3659	3.0299	2.4135	1.227	2.2746	1.5019	1.3167	2.1589	1.2097	1.3862	1.7103	1.172	0.2402	2.0634	1.6003	-0.5035	0.5006	0.8884	0.5875	1.2704
3.1167	1.3109	2.9286	2.4019	1.201	2.2804	1.5077	1.3196	2.1589	1.2299	1.3862	1.7045	1.1634	0.2576	2.0257	1.6061	-0.5469	0.5209	0.8595	0.6106	1.2531
3.027	1.2097	2.8621	2.3759	1.1605	2.2544	1.5077	1.2936	2.1357	1.2039	1.3399	1.6843	1.1576	0.2633	1.9794	1.583	-0.5527	0.5238	0.8074	0.5875	1.2154
2.9894	1.1634	2.8216	2.3701	1.1518	2.2688	1.5135	1.2704	2.1589	1.2241	1.3457	1.6437	1.1634	0.2865	1.965	1.5916	-0.5846	0.5354	0.8132	0.6338	1.2097
2.9171	1.1547	2.7492	2.3412	1.1518	2.2659	1.5135	1.2704	2.1531	1.1981	1.3312	1.6524	1.1518	0.2923	2.0055	1.6582	-0.5846	0.5354	0.7495	0.6309	1.146
2.8765	1.1257	2.7058	2.3325	1.1431	2.3064	1.5193	1.2675	2.182	1.1923	1.3225	1.6177	1.1113	0.2865	2.0084	1.69	-0.5759	0.5527	0.7003	0.599	1.1142
2.8563	1.1315	2.6942	2.3036	1.172	2.3209	1.5164	1.2531	2.1762	1.1923	1.2878	1.5888	1.1055	0.2778	2.0576	1.774	-0.5585	0.5238	0.6396	0.5961	1.0273
2.8273	1.1344	2.6798	2.2804	1.1807	2.3354	1.5251	1.256	2.1936	1.1836	1.2675	1.5714	1.0765	0.272	2.101	1.8405	-0.5325	0.5296	0.6135	0.5788	0.9637
2.7926	1.1489	2.6711	2.2688	1.2097	2.3643	1.5222	1.256	2.2023	1.2125	1.2502	1.5714	1.0736	0.2547	2.1675	1.9447	-0.5064	0.5093	0.5469	0.5759	0.9145
2.7955	1.1923	2.6769	2.2341	1.227	2.3933	1.5164	1.2733	2.2254	1.2154	1.2328	1.5425	1.0418	0.2286	2.2341	2.0634	-0.4659	0.4804	0.5064	0.5441	0.845
2.7868	1.2039	2.6566	2.2081	1.2936	2.4367	1.5222	1.3052	2.2428	1.2097	1.2241	1.5396	1.0447	0.1968	2.3007	2.2052	-0.4138	0.463	0.4891	0.5267	0.7727
2.7868	1.2589	2.6624	2.1589	1.3457	2.4714	1.5396	1.3196	2.2457	1.2097	1.2039	1.5251	1.036	0.1823	2.399	2.3614	-0.3675	0.4428	0.4428	0.5151	0.709
2.8071	1.2878	2.674	2.1328	1.3949	2.5061	1.5396	1.3312	2.2659	1.1952	1.2068	1.499	1.0215	0.1476	2.509	2.5322	-0.3039	0.437	0.4167	0.5064	0.654
2.7926	1.3052	2.6624	2.0923	1.4412	2.5061	1.5251	1.3428	2.263	1.1691	1.1807	1.4672	0.9724	0.1042	2.6045	2.6711	-0.2199	0.3994	0.3733	0.4978	0.5788
2.8158	1.3225	2.6566	2.0547	1.528	2.5264	1.5222	1.3891	2.2746	1.1634	1.1634	1.4498	0.9637	0.0608	2.6855	2.8476	-0.1418	0.382	0.3473	0.4978	0.5296
2.8013	1.3283	2.6421	2.0199	1.5801	2.5119	1.499	1.3862	2.2486	1.1489	1.1315	1.4383	0.9289	0.0174	2.7521	2.9749	-0.0434	0.3704	0.3241	0.4978	0.4601
2.7782	1.337	2.6103	1.9736	1.6032	2.5206	1.4962	1.3978	2.2341	1.1286	1.0997	1.3659	0.9029	-0.026	2.8158	3.0618	0.0608	0.3415	0.3241	0.5006	0.3878
2.7376	1.3138	2.5843	1.9476	1.6119	2.4974	1.4962	1.3891	2.2225	1.0939	1.0418	1.308	0.8711	-0.0984	2.8708	3.1457	0.1765	0.2981	0.301	0.4804	0.3444
2.6855	1.3283	2.5235	1.8897	1.6408	2.454	1.4441	1.3862	2.1502	1.0476	0.9724	1.2241	0.8219	-0.1389	2.8939	3.1688	0.2981	0.2605	0.2894	0.4891	0.2981
2.6364	1.3052	2.4859	1.8579	1.6843	2.4106	1.4354	1.3949	2.1154	1.0215	0.9289	1.1576	0.7785	-0.2026	2.9142	3.1891	0.4138	0.2199	0.2981	0.4543	0.2489
2.59	1.2994	2.4164	1.8347	1.7045	2.3788	1.4354	1.3862	2.0402	0.9839	0.8682	1.0621	0.6945	-0.2662	2.9315	3.1399	0.5209	0.1968	0.2807	0.4659	0.1823
2.5177	1.282	2.3383	1.8029	1.664	2.318	1.418	1.3399	1.9592	0.955	0.7582	0.9666	0.6251	-0.3212	2.8794	3.0965	0.628	0.1534	0.2605	0.4514	0.136
2.4569	1.2907	2.2804	1.8174	1.7045	2.2717	1.4412	1.337	1.9216	0.9203	0.6888	0.8913	0.5846	-0.3386	2.8708	3.001	0.6772	0.165	0.2807	0.4775	0.1129
2.3846	1.2936	2.2081	1.8376	1.7016	2.2196	1.4296	1.3023	1.8347	0.9029	0.5846	0.7842	0.5412	-0.3588	2.7984	2.9055	0.7177	0.1418	0.2807	0.4833	0.0376
2.3209	1.3052	2.1473	1.855	1.6987	2.1675	1.4759	1.2646	1.7653	0.9087	0.5006	0.6945	0.5064	-0.3675	2.7666	2.7984	0.7206	0.1244	0.246	0.5035	0.0029
2.1965	1.308	2.0691	1.8521	1.6929	2.1039	1.4614	1.2183	1.6756	0.8855	0.3994	0.5875	0.4543	-0.3617	2.6653	2.6421	0.7148	0.1244	0.2373	0.5122	-0.0579
2.0981	1.2965	1.9736	1.8666	1.6611	2.0634	1.4788	1.172	1.5945	0.8797	0.3125	0.4978	0.4254	-0.3473	2.5437	2.4888	0.6801	0.1389	0.191	0.5006	-0.11
1.9852	1.308	1.8839	1.8839	1.6466	2.0199	1.4875	1.1228	1.5367	0.8682	0.2113	0.4254	0.3907	-0.3299	2.4019	2.2833	0.6309	0.1621	0.1534	0.5209	-0.1534
1.8724	1.308	1.7971	1.9071	1.6264	1.9823	1.5106	1.0765	1.4672	0.8913	0.1476	0.3531	0.4109	-0.2923	2.2688	2.1039	0.5788	0.2344	0.1187	0.5527	-0.1823
1.7653	1.3196	1.6929	1.9418	1.5859	1.9273	1.5135	1.0389	1.4093	0.9	0.0637	0.2662	0.3965	-0.272	2.1154	1.8955	0.5238	0.3096	0.0752	0.5701	-0.246
1.6553	1.3254	1.609	1.9505	1.5685	1.8839	1.5048	0.9752	1.3486	0.9289	-0.0029	0.2257	0.4167	-0.2315	1.9244	1.6524	0.4399	0.408	0.0347	0.5933	-0.2865
1.5367	1.2762	1.5482	1.9679	1.5164	1.8405	1.528	0.9376	1.2762	0.9608	-0.0723	0.1621	0.4341	-0.1939	1.745	1.4325	0.3617	0.5209	-0.0058	0.6309	-0.2923
1.4325	1.282	1.4556	1.9621	1.4817	1.8058	1.5482	0.9087	1.2097	0.9752	-0.1302	0.1071	0.4572	-0.1302	1.554	1.2183	0.2662	0.6685	-0.0405	0.6801	-0.2576
1.3428	1.2415	1.3978	1.9534	1.4412	1.7682	1.5164	0.8595	1.1605	1.0187	-0.1447	0.081	0.5209	-0.0839	1.3775	1.0042	0.1736	0.8537	-0.0839	0.7553	-0.246
1.2125	1.2212	1.2878	1.9534	1.392	1.7306	1.5367	0.8421	1.1286	1.0476	-0.1765	0.0752	0.6135	-0.0405	1.2125	0.8248	0.055	1.0331	-0.1042	0.8248	-0.1939
1.1199	1.1402	1.2125	1.9476	1.3254	1.6871	1.5309	0.7958	1.0823	1.1026	-0.1794	0.0608	0.6888	0.0347	1.0534	0.5904	-0.0666	1.2328	-0.1389	0.9145	-0.1302
0.9955	1.0707	1.1257	1.9216	1.2183	1.6351	1.473	0.7235	1.0071	1.1026	-0.217	0.0289	0.7611	0.0868	0.8855	0.4312	-0.1823	1.4498	-0.1939	1.0042	-0.0637
0.8624	0.9434	0.9955	1.8521	1.0707	1.5598	1.4354	0.6424	0.9463	1.1228	-0.2489	-0.0087	0.8074	0.1505	0.7148	0.2518	-0.3154	1.6727	-0.2489	1.0823	-0.0232
0.7032	0.7987	0.8797	1.7913	0.9405	1.5077	1.3833	0.573	0.8942	1.1662	-0.2605	-0.026	0.8971	0.2228	0.5759	0.0926	-0.4572	1.9273	-0.3241	1.1807	0.0492
0.5788	0.6164	0.7437	1.7335	0.764	1.3862	1.3486	0.4833	0.8161	1.1662	-0.2836	-0.0405	0.9752	0.3039	0.3936	-0.055	-0.6048	2.1849	-0.3762	1.2704	0.1013
0.4283	0.4428	0.5904	1.6437	0.6193	1.3312	1.2878	0.4138	0.7206	1.172	-0.2894	-0.0608	1.0563	0.3675	0.2662	-0.1852	-0.7495	2.4309	-0.463	1.3833	0.1563
0.2141	0.191	0.4167	1.5019	0.4109	1.1807	1.1778	0.3039	0.6251	1.1431	-0.3096	-0.0608	1.1142	0.4312	0.0492	-0.3212	-0.874	2.6942	-0.5556	1.4672	0.1997
-0.0116	-0.0434	0.2026	1.3775	0.1968	1.0823	1.1055	0.1939	0.5614	1.1084	-0.301	-0.0666	1.1894	0.5035	-0.1505	-0.4514	-0.9984	2.946	-0.6569	1.5627	0.246
-0.1852	-0.2836	0.0058	1.2386	-0.0058	0.9579	1.0158	0.1013	0.4891	1.1142	-0.2518	-0.0347	1.2589	0.5469	-0.3357	-0.5759	-1.1142	3.2151	-0.7264	1.6408	0.327
-0.4196	-0.5585	-0.1968	1.0736	-0.2141	0.8363	0.9145	0.0174	0.4225	1.0968	-0.2113	-0.0116	1.3543	0.6164	-0.5412	-0.683	-1.2039	3.4843	-0.8074	1.7479	0.4023
-0.6859	-0.8682	-0.4486	0.9203	-0.4109	0.7061	0.8392	-0.026	0.3617	1.0707	-0.1476	0.0289	1.4354	0.6367	-0.7293	-0.8045	-1.2878	3.7505	-0.8682	1.8232	0.4572
-0.9174	-1.1402	-0.6743	0.7785	-0.6193	0.5672	0.7148	-0.1215	0.2749	1.0563	-0.0984	0.0492	1.5135	0.6859	-0.9203	-0.9116	-1.3457	3.9994	-0.9232	1.9216	0.5383
-1.1286	-1.4093	-0.8971	0.6193	-0.8016	0.4543	0.6338	-0.1678	0.2518	1.0476	0.0087	0.1563	1.6119	0.7119	-1.0852	-0.9724	-1.4238	4.2483	-0.955	2.0315	0.6164
-1.392	-1.7132	-1.1228	0.437	-0.9492	0.3183	0.5614	-0.2141	0.1852	1.01	0.081	0.2199	1.6843	0.7408	-1.2617	-1.0505	-1.4759	4.4798	-1.0129	2.1328	0.6916
-1.6235	-2.0055	-1.3659	0.2836	-1.1489	0.1939	0.4775	-0.2402	0.1505	1.01	0.2055	0.3068	1.7855	0.7698	-1.3891	-1.0881	-1.5222	4.6823	-1.0447	2.1965	0.7351
-1.8984	-2.2515	-1.6235	0.0897	-1.3254	0.0463	0.3588	-0.2923	0.1013	0.9781	0.3096	0.3878	1.8695	0.7929	-1.5598	-1.1402	-1.5569	4.8762	-1.0707	2.2891	0.8074
-2.0981	-2.483	-1.8232	-0.0666	-1.4643	-0.0434	0.2981	-0.2865	0.0926	0.9897	0.4457	0.5209	1.9794	0.819	-1.6843	-1.1662	-1.6119	5.102	-1.0563	2.3933	0.9145
-2.3064	-2.7232	-2.0286	-0.2228	-1.5916	-0.1707	0.2199	-0.2749	0.0434	0.9695	0.5643	0.6222	2.0836	0.8219	-1.8116	-1.1865	-1.6177	5.2698	-1.0563	2.4598	0.9752
-2.4685	-2.8968	-2.2109	-0.3762	-1.6698	-0.2489	0.1505	-0.2315	0.0637	0.9752	0.7495	0.7582	2.2138	0.8334	-1.8868	-1.1836	-1.6495	5.4492	-1.0187	2.5495	1.0881
-2.6682	-3.056	-2.3962	-0.5093	-1.7653	-0.3762	0.0868	-0.2199	0.0347	0.955	0.8769	0.8826	2.3064	0.8219	-1.9852	-1.2154	-1.6351	5.6055	-0.9666	2.6132	1.1894
-2.8042	-3.1601	-2.5293	-0.6077	-1.8174	-0.4572	0.0232	-0.1621	0.0232	0.981	1.0679	1.0013	2.428	0.8161	-2.046	-1.2068	-1.6235	5.7705	-0.8884	2.6624	1.3341
-2.9026	-3.2296	-2.6277	-0.6772	-1.8087	-0.5672	-0.0463	-0.1042	-0.0058	0.9666	1.2357	1.1344	2.5495	0.8016	-2.101	-1.2212	-1.5772	5.8804	-0.8045	2.7145	1.4441
-3.0155	-3.2933	-2.7724	-0.7669	-1.8724	-0.683	-0.1129	-0.0579	-0.0492	0.9608	1.3486	1.227	2.6335	0.7466	-2.1415	-1.2415	-1.499	6.0164	-0.7177	2.7405	1.5945
-3.056	-3.3222	-2.836	-0.8103	-1.8753	-0.7611	-0.1418	0.026	-0.0695	0.981	1.5251	1.3515	2.7521	0.7119	-2.1791	-1.2531	-1.4209	6.1438	-0.6077	2.7839	1.7508
-3.0936	-3.3135	-2.8679	-0.819	-1.8753	-0.8855	-0.2055	0.0955	-0.1215	0.9666	1.6495	1.4238	2.8331	0.6569	-2.2138	-1.3023	-1.3109	6.2537	-0.4833	2.8013	1.8926
-3.0502	-3.2614	-2.9315	-0.7958	-1.8637	-0.9955	-0.2402	0.136	-0.1621	0.9839	1.774	1.5048	2.9373	0.6106	-2.2052	-1.3138	-1.2097	6.3521	-0.3531	2.8534	2.0605
-2.9952	-3.1949	-2.9605	-0.764	-1.8521	-1.1373	-0.2981	0.1823	-0.217	0.9955	1.8897	1.5598	3.0415	0.5527	-2.2023	-1.3486	-1.091	6.4361	-0.2141	2.8881	2.2399
-2.9402	-3.1052	-2.9605	-0.7177	-1.8174	-1.256	-0.3502	0.217	-0.2894	0.9926	1.9997	1.6235	3.0994	0.4978	-2.1994	-1.3746	-0.9724	6.5344	-0.0984	2.8997	2.399
-2.8187	-3.001	-2.9431	-0.6309	-1.7971	-1.3978	-0.3531	0.2749	-0.3733	1.0071	2.0923	1.6698	3.2036	0.4283	-2.1502	-1.3775	-0.8595	6.6386	0.055	2.9142	2.5872
-2.6711	-2.8534	-2.8939	-0.5093	-1.7508	-1.4759	-0.3415	0.301	-0.4341	1.0447	2.2023	1.719	3.2933	0.3878	-2.0691	-1.337	-0.7785	6.7081	0.217	2.9576	2.81
-2.5177	-2.6769	-2.8534	-0.3588	-1.7132	-1.5743	-0.3299	0.3444	-0.5006	1.0997	2.3122	1.7682	3.4119	0.327	-2.0286	-1.3196	-0.6714	6.818	0.3965	3.001	3.0039
-2.3412	-2.5409	-2.7984	-0.1997	-1.6582	-1.7045	-0.3241	0.4109	-0.5961	1.1286	2.4106	1.8116	3.5103	0.2952	-1.9216	-1.2299	-0.5961	6.902	0.5846	3.0415	3.2325
-2.127	-2.373	-2.7145	-0.0058	-1.6437	-1.8203	-0.301	0.4283	-0.6801	1.1778	2.4714	1.8203	3.5769	0.2576	-1.8116	-1.1344	-0.492	6.9743	0.7437	3.0878	3.4293
-1.9071	-2.2109	-2.6392	0.1794	-1.6177	-1.9216	-0.2749	0.4572	-0.7698	1.1981	2.5553	1.8347	3.6463	0.2084	-1.6814	-1.0158	-0.4167	7.0351	0.9434	3.111	3.6434
-1.69	-2.0489	-2.5466	0.3646	-1.5945	-2.0171	-0.2286	0.463	-0.8624	1.2328	2.5987	1.829	3.7158	0.1592	-1.5367	-0.8942	-0.3357	7.0843	1.0939	3.1196	3.8634
-1.4962	-1.9505	-2.4627	0.5556	-1.6264	-2.1444	-0.2113	0.463	-0.9868	1.2502	2.6624	1.8087	3.7563	0.1273	-1.4093	-0.7698	-0.2605	7.0988	1.2675	3.1225	4.0515
-1.282	-1.8203	-2.3875	0.7466	-1.6177	-2.2399	-0.1794	0.4312	-1.0939	1.2733	2.6769	1.7595	3.8055	0.1013	-1.2415	-0.5961	-0.2026	7.119	1.4093	3.1283	4.2454
-1.1026	-1.7016	-2.3238	0.9145	-1.638	-2.3267	-0.1534	0.3849	-1.2241	1.2733	2.6884	1.7363	3.8286	0.0723	-1.1431	-0.5209	-0.1447	7.093	1.528	3.1023	4.4045
-0.9029	-1.5685	-2.2023	1.0968	-1.6351	-2.4193	-0.1244	0.3588	-1.3167	1.2617	2.6971	1.6669	3.8229	0.0608	-0.981	-0.3878	-0.1042	7.0727	1.6437	3.0849	4.5492
-0.6916	-1.447	-2.0836	1.2675	-1.6466	-2.4743	-0.0955	0.301	-1.4383	1.2473	2.6769	1.6003	3.7997	0.0318	-0.8479	-0.2778	-0.0637	7.0148	1.7103	3.0328	4.6997
-0.5527	-1.3746	-1.9823	1.3862	-1.6871	-2.5495	-0.0752	0.2373	-1.5888	1.2241	2.645	1.5077	3.7708	0.0058	-0.7437	-0.191	-0.0116	6.9425	1.7653	2.9836	4.8039
-0.3704	-1.2704	-1.8261	1.528	-1.6756	-2.5466	-0.0232	0.1678	-1.6698	1.201	2.6132	1.3978	3.7129	-0.0289	-0.6222	-0.1042	0.0376	6.8615	1.7855	2.9344	4.8936
-0.217	-1.1952	-1.6871	1.6553	-1.69	-2.5814	0.0232	0.1187	-1.7711	1.1778	2.5669	1.3254	3.655	-0.0492	-0.5325	-0.0174	0.0926	6.7775	1.7624	2.8823	4.9602
-0.0376	-1.0592	-1.5164	1.7913	-1.6611	-2.538	0.1187	0.0897	-1.8116	1.1865	2.5495	1.2646	3.6203	-0.0723	-0.3965	0.0347	0.1302	6.6849	1.774	2.81	5.0007
0.1158	-0.9232	-1.3225	1.9129	-1.6119	-2.4511	0.1881	0.0666	-1.8116	1.1691	2.5003	1.2328	3.5653	-0.0897	-0.2865	0.1158	0.1765	6.575	1.7537	2.7753	5.0296
0.2836	-0.7698	-1.1026	2.0402	-1.5425	-2.3325	0.3183	0.0637	-1.7798	1.2125	2.483	1.2039	3.5392	-0.1302	-0.1997	0.2055	0.2431	6.4708	1.7248	2.7608	5.0528
0.4862	-0.5817	-0.8306	2.1791	-1.4122	-2.1357	0.4978	0.1013	-1.6814	1.2733	2.5177	1.2097	3.5074	-0.1592	-0.055	0.2952	0.2952	6.3753	1.7016	2.7087	5.0933
0.6772	-0.4051	-0.5325	2.3151	-1.2704	-1.8955	0.6656	0.165	-1.5453	1.3486	2.5351	1.2473	3.4929	-0.191	0.0521	0.3936	0.3762	6.274	1.6582	2.6624	5.1164
0.9087	-0.1621	-0.2141	2.5119	-1.065	-1.5772	0.8971	0.2923	-1.3486	1.4904	2.6103	1.3486	3.5421	-0.2257	0.191	0.4804	0.4428	6.1553	1.6582	2.6248	5.1685
1.1547	0.1013	0.1592	2.674	-0.8074	-1.2299	1.1402	0.463	-1.0418	1.6293	2.7174	1.5019	3.5856	-0.2662	0.3154	0.6135	0.5267	6.0598	1.6814	2.6161	5.1743
1.418	0.3936	0.5961	2.9084	-0.5064	-0.7756	1.4383	0.6945	-0.6859	1.855	2.8737	1.7277	3.6984	-0.3154	0.4862	0.7379	0.6077	5.9528	1.7363	2.6248	5.2177
1.719	0.7437	1.0823	3.1486	-0.1505	-0.272	1.7913	0.955	-0.2518	2.0952	3.0415	1.9852	3.8778	-0.3531	0.6656	0.8682	0.6772	5.8688	1.8	2.6306	5.2669
2.0489	1.1257	1.5801	3.4235	0.2547	0.301	2.1704	1.282	0.2489	2.3788	3.2585	2.292	4.0573	-0.4138	0.8479	1.0042	0.7727	5.7907	1.8637	2.6277	5.2872
2.3904	1.5453	2.1039	3.7302	0.7061	0.9232	2.5524	1.6322	0.8334	2.7116	3.4987	2.6711	4.2656	-0.4514	1.0476	1.1807	0.8682	5.7299	1.9939	2.6769	5.3248
2.7492	1.9592	2.6884	4.0196	1.2039	1.6032	2.9836	2.0142	1.4527	3.0675	3.7418	3.0386	4.4885	-0.4891	1.2502	1.3746	0.9637	5.675	2.0952	2.7203	5.3422
3.163	2.4569	3.2962	4.3206	1.7595	2.3296	3.464	2.4569	2.127	3.4756	4.0167	3.4814	4.7518	-0.5527	1.4614	1.5453	1.0707	5.6142	2.2572	2.7782	5.3537
3.5798	2.946	3.9386	4.6852	2.3122	3.0849	3.927	2.9055	2.8273	3.8692	4.3206	3.9444	5.047	-0.6077	1.6814	1.7277	1.172	5.5795	2.4367	2.8592	5.3624
4.011	3.4409	4.5521	5.0036	2.8939	3.8634	4.4016	3.3801	3.5682	4.3061	4.5984	4.4132	5.3306	-0.6482	1.9302	1.8868	1.2791	5.51	2.6016	2.9142	5.3624
4.445	3.982	5.2061	5.3364	3.4872	4.6563	4.856	3.846	4.3148	4.7171	4.9023	4.8907	5.5939	-0.7148	2.1646	2.0344	1.3949	5.3971	2.7897	2.9634	5.3422
4.856	4.4769	5.8457	5.6518	4.0717	5.4203	5.2959	4.2946	5.0614	5.1077	5.1454	5.3508	5.8515	-0.7814	2.399	2.1907	1.5367	5.293	2.972	2.9952	5.293
5.3045	4.9775	6.4968	5.9875	4.6794	6.2248	5.756	4.746	5.8196	5.5274	5.4174	5.8196	6.1206	-0.8392	2.619	2.3209	1.6553	5.1656	3.1862	3.056	5.2467
5.756	5.5129	7.1711	6.3116	5.264	6.983	6.1756	5.1946	6.5344	5.9094	5.6721	6.2624	6.3492	-0.9058	2.8794	2.4627	1.7826	5.0209	3.3859	3.0936	5.1512
6.2132	6.0396	7.8251	6.6676	5.8688	7.7672	6.6097	5.6547	7.2869	6.3058	5.892	6.7052	6.6068	-0.9724	3.1167	2.619	1.9013	4.8762	3.6145	3.1544	5.047
6.6878	6.5807	8.4589	6.9541	6.4679	8.5226	7.0119	6.1119	7.993	6.6762	6.1148	7.1537	6.8441	-1.036	3.409	2.81	2.0286	4.7315	3.8315	3.2209	4.9544
7.1537	7.0698	9.0637	7.2782	7.0525	9.2518	7.4026	6.5489	8.6817	7.0177	6.3463	7.5705	7.0553	-1.0823	3.6753	2.9807	2.1357	4.529	4.037	3.2528	4.8415
7.6312	7.5878	9.6859	7.5965	7.611	9.955	7.7759	6.9396	9.3531	7.3476	6.546	7.9843	7.2492	-1.1547	3.9502	3.2065	2.2428	4.3409	4.2425	3.2962	4.6881
8.1261	8.0914	10.2994	7.9091	8.1753	10.6409	8.1087	7.3332	9.9898	7.6631	6.7312	8.3837	7.4576	-1.1865	4.2367	3.3917	2.3209	4.1614	4.4508	3.3367	4.5434
8.5746	8.5602	10.8782	8.239	8.6962	11.2776	8.4473	7.7354	10.5917	7.9409	6.902	8.728	7.6312	-1.2183	4.4798	3.574	2.3962	3.9675	4.6476	3.409	4.3785
9.0521	9.055	11.4338	8.5544	9.2142	11.92	8.7743	8.129	11.1763	8.2042	7.0843	9.0811	7.7933	-1.2415	4.7634	3.791	2.4425	3.765	4.8531	3.4524	4.2222
9.4949	9.5181	11.9432	8.8669	9.6772	12.4496	9.0348	8.4618	11.6827	8.4386	7.2406	9.3907	7.9177	-1.2675	5.0065	3.9357	2.483	3.5595	5.0296	3.5132	4.0573
9.9377	9.9435	12.438	9.1795	10.1229	12.9821	9.3097	8.7772	12.166	8.6673	7.3563	9.683	8.0451	-1.2589	5.2467	4.092	2.5003	3.3483	5.1917	3.5479	3.8836
10.366	10.3399	12.8866	9.4891	10.5483	13.4422	9.5383	9.084	12.6001	8.8669	7.4923	9.9464	8.1319	-1.2791	5.4753	4.2077	2.5148	3.1457	5.3653	3.5827	3.7389
10.7393	10.7132	13.2888	9.7467	10.9274	13.8618	9.7496	9.3415	12.985	8.9885	7.5907	10.1634	8.2129	-1.2791	5.6518	4.2888	2.5032	2.9315	5.51	3.5913	3.5711
11.1126	11.0605	13.6592	10.0071	11.2399	14.1946	9.8914	9.5673	13.3033	9.0782	7.6515	10.366	8.2274	-1.2617	5.8515	4.4074	2.4945	2.7145	5.6287	3.5711	3.409
11.4425	11.3528	13.9805	10.2502	11.5409	14.5014	10.0274	9.738	13.5811	9.1592	7.7238	10.5165	8.2679	-1.2473	5.9991	4.474	2.4598	2.5032	5.7357	3.5827	3.2383
11.7174	11.6451	14.2641	10.447	11.7869	14.7531	10.1142	9.8972	13.7924	9.1882	7.7557	10.6496	8.2592	-1.2386	6.1206	4.529	2.4309	2.292	5.8428	3.5161	3.0531
11.9721	11.8766	14.4464	10.6177	11.9981	14.9441	10.1634	10.0245	13.9602	9.1968	7.7615	10.7161	8.1984	-1.2241	6.2479	4.6042	2.3904	2.0778	5.9065	3.4409	2.8765
12.1949	12.056	14.649	10.7682	12.1428	15.0946	10.2155	10.0737	14.0673	9.1737	7.7267	10.7451	8.1174	-1.2068	6.3348	4.6216	2.3441	1.8405	5.9151	3.3511	2.7087
12.3541	12.221	14.7618	10.8724	12.2528	15.1728	10.2155	10.12	14.1049	9.1303	7.6891	10.7567	8.0074	-1.1634	6.4042	4.6852	2.2804	1.6264	5.9151	3.2556	2.5003
12.5075	12.3367	14.8544	10.965	12.3252	15.193	10.2155	10.1431	14.1367	9.0406	7.6428	10.7364	7.9033	-1.1315	6.491	4.7489	2.2167	1.4325	5.9296	3.1515	2.3412
12.6117	12.4409	14.8978	11.0229	12.3483	15.1959	10.1634	10.1287	14.1049	8.9509	7.5647	10.7161	7.7499	-1.1026	6.5344	4.8184	2.1617	1.2646	5.9209	3.056	2.2052
12.6551	12.4785	14.9152	11.0547	12.3599	15.1554	10.1055	10.1026	14.0557	8.8496	7.5155	10.6727	7.6573	-1.0679	6.6039	4.882	2.0923	1.1315	5.8891	2.9547	2.046
12.6666	12.4988	14.8602	11.0663	12.3309	15.083	10.0216	10.0505	13.9718	8.7396	7.4576	10.6091	7.5242	-1.0331	6.6357	4.9081	2.0402	0.9926	5.8428	2.8389	1.9447
12.6637	12.4525	14.785	11.0055	12.2615	14.9673	9.9232	9.9782	13.8271	8.621	7.3997	10.5078	7.3853	-1.01	6.6357	4.9891	1.9794	0.9232	5.7878	2.7405	1.8781
12.6174	12.4033	14.6895	10.939	12.1602	14.84	9.819	9.8856	13.7345	8.5139	7.3447	10.4296	7.2579	-0.9752	6.6849	5.0441	1.9273	0.8392	5.7299	2.6653	1.7884
12.5335	12.3223	14.5708	10.884	12.0676	14.7213	9.7091	9.8103	13.6187	8.3837	7.2782	10.3544	7.1624	-0.9434	6.6705	5.0933	1.855	0.8392	5.6692	2.5669	1.7363
12.4351	12.192	14.4146	10.7422	11.9055	14.5564	9.602	9.7235	13.4509	8.2853	7.2319	10.2531	7.038	-0.9203	6.6531	5.1483	1.8058	0.8392	5.5795	2.4888	1.69
12.276	12.0271	14.238	10.5801	11.7377	14.3856	9.5007	9.6367	13.2657	8.1811	7.1769	10.1547	6.957	-0.8884	6.6386	5.1888	1.7306	0.9087	5.484	2.4569	1.6669
12.111	11.8448	14.0383	10.4152	11.5756	14.1715	9.3531	9.5007	13.0776	8.0566	7.119	10.0679	6.873	-0.8595	6.601	5.2409	1.6756	0.9608	5.3769	2.3962	1.6466
11.9287	11.6509	13.8068	10.2589	11.3702	13.966	9.2576	9.3994	12.9213	7.9467	7.0843	9.9695	6.7862	-0.8363	6.5576	5.2785	1.6119	1.0592	5.2553	2.3817	1.6235
11.6827	11.4078	13.5522	10.0361	11.1444	13.72	9.1042	9.2402	12.7072	7.8599	7.009	9.8393	6.6936	-0.79	6.5142	5.2987	1.5598	1.1286	5.1049	2.347	1.6206
11.4309	11.1155	13.283	9.8017	10.9014	13.5088	8.9682	9.1303	12.4959	7.7904	6.9338	9.7004	6.6184	-0.7785	6.4245	5.319	1.5019	1.256	4.9659	2.3007	1.583
11.1387	10.8059	12.9792	9.5094	10.6438	13.2309	8.8235	8.9538	12.2412	7.6544	6.8354	9.5528	6.5402	-0.7408	6.329	5.319	1.4441	1.3717	4.7923	2.292	1.5569
10.8435	10.4991	12.6522	9.246	10.3891	12.9502	8.6788	8.7859	12.0213	7.5791	6.7602	9.437	6.4766	-0.7177	6.1901	5.2669	1.3891	1.5164	4.6187	2.2891	1.5251
10.5425	10.1634	12.3194	8.9624	10.12	12.684	8.5197	8.6094	11.7695	7.4981	6.6791	9.2837	6.4042	-0.6888	6.057	5.2264	1.337	1.6814	4.4364	2.292	1.4788
10.2039	9.8046	11.9721	8.6441	9.8364	12.383	8.3345	8.456	11.5091	7.4142	6.5894	9.1419	6.3463	-0.6424	5.9065	5.1454	1.2762	1.8521	4.2396	2.2775	1.4325
9.8711	9.4862	11.6104	8.32	9.5788	12.1023	8.2042	8.2968	11.2805	7.3447	6.5258	9.0087	6.3058	-0.6222	5.7444	5.0557	1.2125	2.0402	4.0602	2.3036	1.3833
9.5123	9.1042	11.266	7.9872	9.2808	11.784	8.0335	8.1406	11.0345	7.2782	6.4389	8.864	6.2682	-0.573	5.5563	4.9341	1.1344	2.2515	3.8952	2.318	1.3254
9.1939	8.7888	10.9187	7.6833	9.029	11.4975	7.8599	8.0045	10.8001	7.229	6.3926	8.7599	6.2624	-0.5325	5.3856	4.8357	1.0447	2.4338	3.7158	2.3672	1.282
8.8611	8.4213	10.583	7.3303	8.7772	11.211	7.7354	7.8917	10.5628	7.1537	6.3492	8.6615	6.2711	-0.4891	5.1888	4.6823	0.9666	2.6479	3.5364	2.3875	1.2646
8.5081	8.0711	10.1981	7.0206	8.5226	10.9361	7.5734	7.7788	10.3544	7.1045	6.3087	8.5602	6.2624	-0.4428	4.9862	4.5174	0.8797	2.865	3.3598	2.4106	1.2328
8.1811	7.773	9.8827	6.6936	8.2824	10.6554	7.4316	7.6978	10.1808	7.0582	6.3261	8.5081	6.3	-0.4023	4.7634	4.3611	0.7958	3.0849	3.2325	2.4801	1.2039
7.8599	7.4547	9.5615	6.384	8.0653	10.3891	7.2811	7.6226	10.0187	7.0496	6.3261	8.4473	6.3058	-0.3704	4.6042	4.173	0.7264	3.2875	3.0965	2.509	1.2212
7.5734	7.148	9.2258	6.0946	7.8714	10.1171	7.1422	7.5647	9.8567	7.0322	6.3492	8.4328	6.3579	-0.3328	4.364	3.9473	0.6482	3.5045	2.9663	2.564	1.2183
7.2521	6.8817	8.9103	5.7994	7.6804	9.8567	7.0004	7.5068	9.6685	6.9888	6.3637	8.3894	6.41	-0.2981	4.1759	3.7418	0.5817	3.7245	2.8389	2.6074	1.2589
6.9656	6.601	8.5891	5.5274	7.4981	9.5702	6.847	7.446	9.5152	6.957	6.4129	8.3721	6.4592	-0.2691	3.9415	3.4987	0.518	3.9299	2.7463	2.6537	1.3138
6.6647	6.3319	8.2853	5.2553	7.3216	9.3068	6.6936	7.3737	9.3618	6.9135	6.4071	8.3431	6.4824	-0.2373	3.7679	3.2875	0.4486	4.1122	2.6624	2.6682	1.3341
6.3463	6.0454	7.9235	4.9746	7.0872	8.974	6.4824	7.2782	9.1476	6.8412	6.3811	8.2679	6.5026	-0.1997	3.5421	3.0299	0.3762	4.2743	2.5409	2.6798	1.337
6.0222	5.7589	7.5878	4.6708	6.8528	8.6788	6.3087	7.174	8.9682	6.7573	6.3261	8.1869	6.4852	-0.1852	3.2933	2.7839	0.3096	4.4393	2.4135	2.6798	1.3428
5.6894	5.4637	7.1971	4.393	6.5981	8.3142	6.0888	7.038	8.6991	6.6126	6.2508	8.0393	6.4187	-0.1331	3.0589	2.5148	0.2286	4.5666	2.2775	2.6855	1.3225
5.3422	5.1251	6.8036	4.1267	6.329	7.938	5.8486	6.8644	8.4155	6.4824	6.1496	7.8801	6.3319	-0.0839	2.8389	2.2717	0.1534	4.6476	2.1502	2.674	1.2791
5.0007	4.8241	6.4158	3.8634	6.057	7.5357	5.5795	6.6589	8.1435	6.3261	6.002	7.7007	6.2219	-0.0318	2.6132	2.0373	0.0521	4.7836	2.0228	2.6711	1.2357
4.6592	4.5058	5.9962	3.5827	5.7184	7.1017	5.319	6.4332	7.7933	6.1351	5.8139	7.4663	6.109	0.0174	2.3904	1.7913	-0.0405	4.8386	1.8637	2.6827	1.1749
4.3177	4.1904	5.5823	3.3135	5.3942	6.682	5.0499	6.1669	7.4634	5.9354	5.6518	7.2492	5.9904	0.0868	2.2023	1.6003	-0.1678	4.9312	1.7045	2.6827	1.0939
3.9299	3.846	5.1193	3.056	5.047	6.2161	4.7518	5.8862	7.093	5.7068	5.4232	7.0033	5.8573	0.1389	1.9968	1.3804	-0.2778	5.0036	1.5193	2.6595	0.9868
3.5682	3.5132	4.6737	2.8071	4.6968	5.7647	4.4566	5.5968	6.711	5.4926	5.1917	6.7283	5.701	0.2113	1.829	1.1923	-0.4023	5.0586	1.3312	2.6682	0.9
3.2065	3.1544	4.228	2.5524	4.3148	5.2814	4.173	5.264	6.3116	5.2495	4.9167	6.4245	5.5389	0.2662	1.6437	1.0215	-0.5209	5.128	1.1547	2.6508	0.7842
2.8476	2.8158	3.7708	2.3151	3.9386	4.8213	3.8547	4.9573	5.9267	5.0267	4.6679	6.1669	5.3798	0.3328	1.4672	0.8334	-0.6482	5.1888	0.9405	2.6537	0.6627
2.509	2.4888	3.3164	2.0865	3.574	4.3669	3.5769	4.6274	5.5389	4.7778	4.4132	5.8717	5.2409	0.3994	1.2965	0.6569	-0.7785	5.2959	0.7437	2.6537	0.5788
2.1704	2.182	2.9084	1.8897	3.218	3.9473	3.354	4.3206	5.1917	4.6013	4.173	5.6084	5.1251	0.463	1.1634	0.4862	-0.9116	5.3914	0.5933	2.6855	0.5151
1.8434	1.8637	2.5003	1.6929	2.8737	3.545	3.0849	3.9907	4.827	4.3698	3.9415	5.3566	5.0065	0.518	1.0042	0.3212	-1.0302	5.4926	0.4312	2.7087	0.4486
1.5453	1.5511	2.1212	1.5222	2.5032	3.1399	2.8563	3.7042	4.4798	4.1904	3.7187	5.1106	4.8733	0.573	0.845	0.1447	-1.146	5.6287	0.2923	2.7347	0.4196
1.2646	1.2849	1.7711	1.3862	2.1791	2.7695	2.6566	3.3946	4.1557	4.0254	3.5132	4.8907	4.7836	0.6396	0.7293	-0.026	-1.2704	5.7647	0.1331	2.8013	0.3878
0.9839	0.9724	1.4007	1.2473	1.8116	2.3962	2.4598	3.1081	3.82	3.8229	3.2846	4.6563	4.665	0.6888	0.5412	-0.1852	-1.3515	5.892	-0.026	2.8331	0.3588
0.6859	0.6685	1.0244	1.1084	1.4498	2.0373	2.237	2.8013	3.4958	3.6203	3.0473	4.3843	4.5782	0.7264	0.4023	-0.3675	-1.4441	6.0309	-0.1765	2.865	0.3444
0.4399	0.3791	0.6945	0.9897	1.1199	1.6843	2.0489	2.4859	3.1688	3.464	2.8302	4.1354	4.4566	0.7814	0.2547	-0.5006	-1.528	6.1611	-0.3357	2.9026	0.3183
0.191	0.081	0.3762	0.8797	0.7842	1.3688	1.8984	2.1704	2.8708	3.2904	2.5929	3.8778	4.338	0.8103	0.0752	-0.654	-1.5888	6.2914	-0.5006	2.9171	0.3096
-0.0405	-0.1968	0.0579	0.7929	0.4746	1.0244	1.6958	1.8637	2.5553	3.0994	2.3643	3.6261	4.2135	0.8421	-0.0723	-0.7958	-1.664	6.4129	-0.6338	2.9576	0.2807
-0.2691	-0.4601	-0.2228	0.6945	0.1244	0.709	1.5222	1.5714	2.2428	2.9228	2.1357	3.3917	4.0804	0.8826	-0.1968	-0.8797	-1.745	6.5402	-0.7871	2.9663	0.2749
-0.4891	-0.7669	-0.5325	0.5933	-0.2199	0.4167	1.3717	1.2531	1.936	2.7434	1.91	3.1283	3.9473	0.9087	-0.3617	-1.0158	-1.8	6.6705	-0.9724	2.9952	0.2402
-0.6772	-1.0331	-0.8074	0.518	-0.5354	0.1187	1.2097	0.9492	1.6264	2.5843	1.6843	2.8592	3.8113	0.9289	-0.5064	-1.0968	-1.8463	6.7978	-1.146	2.9894	0.246
-0.8826	-1.3109	-1.1113	0.4399	-0.8508	-0.1592	1.0592	0.6656	1.3486	2.4367	1.4498	2.5958	3.6839	0.9608	-0.6569	-1.2125	-1.8926	6.9309	-1.3052	3.001	0.2315
-1.0823	-1.5569	-1.3659	0.3444	-1.146	-0.4167	0.9289	0.4051	1.0621	2.2775	1.2531	2.3672	3.5798	0.9781	-0.7727	-1.2965	-1.9302	7.0206	-1.4383	3.0183	0.2576
-1.256	-1.8203	-1.638	0.272	-1.4383	-0.6801	0.7814	0.1302	0.8132	2.1415	1.0592	2.1502	3.4582	0.9868	-0.9347	-1.3775	-1.9418	7.1508	-1.5945	3.0473	0.2489
-1.4093	-2.0663	-1.8666	0.1852	-1.6669	-0.8769	0.6772	-0.0868	0.6164	2.0286	0.9145	1.9563	3.3714	0.9897	-1.0736	-1.4383	-1.9708	7.2406	-1.7103	3.0415	0.3154
-1.5193	-2.2486	-2.072	0.1331	-1.9013	-1.0679	0.5759	-0.272	0.4399	1.9273	0.7814	1.8318	3.2875	1.0129	-1.1952	-1.473	-2.0026	7.3737	-1.8203	3.0849	0.3849
-1.6524	-2.4425	-2.2717	0.0781	-2.0981	-1.2502	0.4862	-0.4514	0.2633	1.8347	0.6743	1.6929	3.2122	1.0273	-1.3167	-1.5164	-2.0344	7.4634	-1.8926	3.111	0.4428
-1.7711	-2.6248	-2.4396	0.0232	-2.2572	-1.3717	0.4283	-0.5846	0.1418	1.774	0.5933	1.5859	3.1891	1.0563	-1.4354	-1.5425	-2.0836	7.5705	-1.9418	3.1601	0.518
-1.881	-2.7579	-2.5958	-0.0203	-2.399	-1.4904	0.3762	-0.683	0.0434	1.719	0.5441	1.4904	3.1312	1.0765	-1.5164	-1.5396	-2.1357	7.6457	-1.9823	3.1833	0.599
-1.9852	-2.8939	-2.7579	-0.0608	-2.5264	-1.6148	0.3241	-0.7958	-0.026	1.6843	0.4659	1.4209	3.0907	1.1142	-1.5916	-1.5106	-2.2109	7.7209	-2.0257	3.247	0.6627
-2.0807	-3.0183	-2.8939	-0.1215	-2.619	-1.7161	0.246	-0.8769	-0.1042	1.6177	0.4399	1.3341	3.0415	1.1605	-1.6843	-1.5309	-2.3036	7.7615	-2.0749	3.2904	0.7553
-2.2225	-3.137	-3.0791	-0.1939	-2.7203	-1.8232	0.1852	-0.9492	-0.1881	1.5569	0.3936	1.256	2.9663	1.1981	-1.7653	-1.5396	-2.3904	7.7875	-2.101	3.3164	0.7727
-2.3238	-3.2614	-3.2643	-0.2344	-2.8129	-1.9447	0.1042	-1.0187	-0.2402	1.4875	0.3212	1.1576	2.8765	1.2589	-1.829	-1.5193	-2.5061	7.7991	-2.1154	3.3714	0.8161
-2.4656	-3.3714	-3.4061	-0.3386	-2.9142	-2.0663	0.0087	-1.0881	-0.3039	1.4122	0.2662	1.0823	2.7695	1.3254	-1.9042	-1.5482	-2.6277	7.7788	-2.1617	3.4148	0.8103
-2.5814	-3.5103	-3.5798	-0.408	-3.0155	-2.1878	-0.1013	-1.1778	-0.3878	1.3254	0.1881	0.9781	2.6653	1.3804	-1.9418	-1.5338	-2.7492	7.7354	-2.2225	3.4119	0.7987
-2.7376	-3.6261	-3.7592	-0.5151	-3.1081	-2.3383	-0.2113	-1.2733	-0.4717	1.2212	0.0897	0.8537	2.564	1.4412	-2.0142	-1.5396	-2.8563	7.6775	-2.318	3.4264	0.7379
-2.865	-3.7389	-3.9126	-0.6019	-3.2007	-2.454	-0.3328	-1.3659	-0.5672	1.1286	-0.0058	0.7466	2.4425	1.4962	-2.0634	-1.5888	-2.9634	7.5936	-2.373	3.4177	0.6772
-3.027	-3.8315	-4.0978	-0.6945	-3.2701	-2.5814	-0.4486	-1.4498	-0.6367	1.0013	-0.0926	0.654	2.3441	1.5425	-2.1183	-1.6206	-3.0589	7.501	-2.4569	3.4061	0.6106
-3.1457	-3.9068	-4.2222	-0.7293	-3.354	-2.6508	-0.5209	-1.499	-0.6772	0.9405	-0.1621	0.5904	2.263	1.5888	-2.1154	-1.6148	-3.1601	7.4402	-2.5293	3.3974	0.5238
-3.2788	-4.0052	-4.3756	-0.7929	-3.4177	-2.7753	-0.6251	-1.554	-0.7466	0.8392	-0.2344	0.5122	2.2052	1.6264	-2.1386	-1.6322	-3.2412	7.3447	-2.6045	3.3598	0.4254
-3.3917	-4.0775	-4.4798	-0.8219	-3.4524	-2.8621	-0.7003	-1.5945	-0.7611	0.7929	-0.272	0.4688	2.1502	1.6871	-2.1415	-1.6524	-3.3338	7.31	-2.6624	3.3569	0.3444
-3.4843	-4.1296	-4.5868	-0.845	-3.4727	-2.9315	-0.7582	-1.6235	-0.7842	0.7264	-0.301	0.4601	2.127	1.7103	-2.127	-1.6437	-3.3946	7.2377	-2.7261	3.3077	0.2576
-3.5653	-4.1528	-4.665	-0.8653	-3.5045	-2.9865	-0.8277	-1.6206	-0.8074	0.6974	-0.3096	0.4601	2.1154	1.7335	-2.0807	-1.609	-3.4438	7.1943	-2.7839	3.3019	0.1765
-3.6579	-4.1962	-4.7489	-0.874	-3.5277	-3.0415	-0.8826	-1.6264	-0.8045	0.6482	-0.3183	0.4572	2.0836	1.7421	-2.0518	-1.5888	-3.4843	7.1508	-2.8331	3.2643	0.0752
-3.736	-4.2222	-4.8184	-0.845	-3.5421	-3.1167	-0.9087	-1.6119	-0.7842	0.6453	-0.3096	0.4862	2.1183	1.774	-2.0113	-1.528	-3.5219	7.1566	-2.8939	3.3019	-0.026
-3.8055	-4.228	-4.8531	-0.8363	-3.5392	-3.1312	-0.9261	-1.5511	-0.7842	0.6482	-0.2981	0.5151	2.1212	1.7884	-1.9418	-1.5019	-3.5392	7.1422	-2.9286	3.3135	-0.0781
-3.8518	-4.2106	-4.8733	-0.819	-3.5103	-3.1457	-0.9318	-1.5309	-0.7611	0.6164	-0.2981	0.4978	2.1357	1.7798	-1.8492	-1.4007	-3.5421	7.0988	-2.9865	3.2933	-0.1678
-3.9357	-4.228	-4.9283	-0.8306	-3.5045	-3.2151	-1.0013	-1.5309	-0.7929	0.599	-0.2836	0.5151	2.1415	1.7913	-1.8174	-1.3515	-3.5306	7.0814	-3.0328	3.2817	-0.2489
-3.9849	-4.2367	-4.9573	-0.7929	-3.4785	-3.2383	-1.0042	-1.4933	-0.7987	0.5846	-0.2633	0.5151	2.1212	1.7913	-1.7219	-1.2791	-3.5306	7.0611	-3.056	3.2759	-0.3096
-4.0428	-4.2396	-5.0209	-0.8248	-3.4929	-3.2904	-1.0563	-1.4904	-0.8421	0.5238	-0.301	0.4862	2.101	1.7711	-1.6814	-1.2241	-3.5016	6.9917	-3.1167	3.2441	-0.4023
-4.1209	-4.2454	-5.047	-0.8711	-3.5103	-3.3598	-1.1055	-1.4962	-0.9087	0.4601	-0.327	0.4196	2.0315	1.7566	-1.6322	-1.1894	-3.4611	6.9309	-3.1283	3.2122	-0.4688
-4.1817	-4.254	-5.102	-0.9145	-3.5045	-3.4264	-1.1749	-1.5019	-0.9839	0.3878	-0.3704	0.3531	1.9592	1.7421	-1.5772	-1.1142	-3.4466	6.8499	-3.1254	3.1891	-0.5296
-4.3061	-4.3119	-5.2148	-0.9897	-3.5595	-3.5306	-1.2762	-1.5338	-1.0997	0.2865	-0.437	0.2749	1.8781	1.7161	-1.5367	-1.1228	-3.3946	6.7631	-3.1659	3.1428	-0.6048
-4.3872	-4.3467	-5.2872	-1.0476	-3.5595	-3.6376	-1.3457	-1.5714	-1.201	0.1881	-0.4949	0.1881	1.7537	1.7045	-1.5106	-1.0939	-3.3714	6.6618	-3.1659	3.1312	-0.6685
-4.4769	-4.3843	-5.3711	-1.1518	-3.6145	-3.7302	-1.4498	-1.6119	-1.3196	0.081	-0.5556	0.0839	1.664	1.6929	-1.4962	-1.0968	-3.3396	6.5518	-3.1833	3.0907	-0.7379
-4.5753	-4.4219	-5.4724	-1.256	-3.6376	-3.8344	-1.5106	-1.6495	-1.4672	0.0029	-0.6222	-0.0087	1.5656	1.6756	-1.4441	-1.091	-3.3309	6.4766	-3.163	3.0704	-0.7727
-4.6708	-4.4711	-5.5505	-1.3428	-3.6839	-3.9328	-1.5974	-1.6814	-1.5888	-0.0695	-0.683	-0.0984	1.5251	1.6669	-1.4035	-1.1228	-3.2991	6.3782	-3.1486	3.056	-0.7958
-4.7605	-4.5116	-5.646	-1.4585	-3.6955	-4.0341	-1.6669	-1.6843	-1.69	-0.1505	-0.709	-0.1592	1.4788	1.6437	-1.3601	-1.1228	-3.273	6.3145	-3.1081	3.0444	-0.8016
-4.8184	-4.5608	-5.7531	-1.5569	-3.7187	-4.1007	-1.7132	-1.6785	-1.774	-0.1736	-0.7293	-0.217	1.4383	1.6408	-1.337	-1.1576	-3.2412	6.2537	-3.0646	3.0473	-0.7698
-4.8878	-4.5868	-5.8312	-1.6871	-3.7129	-4.1962	-1.7826	-1.664	-1.8492	-0.2113	-0.7322	-0.2489	1.4209	1.6119	-1.282	-1.227	-3.1891	6.1901	-2.9952	3.0357	-0.7495
-4.9659	-4.6158	-5.9325	-1.8318	-3.7071	-4.2512	-1.855	-1.6148	-1.9187	-0.2199	-0.6974	-0.2749	1.4267	1.5859	-1.2299	-1.2444	-3.1399	6.1524	-2.9431	3.027	-0.6945
-5.0499	-4.636	-6.0164	-1.9505	-3.7013	-4.3293	-1.8897	-1.6003	-1.991	-0.2373	-0.6656	-0.2691	1.447	1.5569	-1.2097	-1.3167	-3.082	6.1322	-2.8708	3.0183	-0.6222
-5.1077	-4.6534	-6.0888	-2.0923	-3.6695	-4.3727	-1.9273	-1.554	-2.0402	-0.2402	-0.5817	-0.2778	1.4875	1.5251	-1.1691	-1.3833	-3.0299	6.109	-2.7753	3.0212	-0.5325
-5.1772	-4.6766	-6.1901	-2.2428	-3.6434	-4.4161	-1.9765	-1.5048	-2.0865	-0.2402	-0.5412	-0.272	1.5193	1.4875	-1.1634	-1.4904	-2.9547	6.0627	-2.6884	2.9981	-0.4399
-5.2524	-4.6997	-6.2943	-2.3614	-3.6347	-4.4913	-2.0228	-1.4585	-2.1444	-0.246	-0.4746	-0.2691	1.5569	1.447	-1.1373	-1.5598	-2.891	6.0483	-2.6016	2.9836	-0.3502
-5.3277	-4.7807	-6.3897	-2.5206	-3.629	-4.5666	-2.0894	-1.4151	-2.2138	-0.2315	-0.4312	-0.2865	1.5685	1.4093	-1.1634	-1.6669	-2.81	6.0106	-2.538	2.9402	-0.2431
-5.4232	-4.8213	-6.5084	-2.6971	-3.6434	-4.6505	-2.1531	-1.3833	-2.2775	-0.2257	-0.3733	-0.2952	1.5801	1.3775	-1.1518	-1.7537	-2.7203	5.9557	-2.4627	2.891	-0.1621
-5.4897	-4.9023	-6.6242	-2.8302	-3.6868	-4.7344	-2.2196	-1.3717	-2.3585	-0.2344	-0.3386	-0.3125	1.583	1.3399	-1.1662	-1.8666	-2.6335	5.9065	-2.4048	2.8302	-0.081
-5.5939	-4.9775	-6.7833	-3.0155	-3.7389	-4.8502	-2.3209	-1.3891	-2.4396	-0.2431	-0.3183	-0.3473	1.5772	1.2965	-1.1894	-1.9852	-2.5466	5.8341	-2.3585	2.7521	-0.0232
-5.6894	-5.0354	-6.8759	-3.1341	-3.7592	-4.9428	-2.3904	-1.392	-2.5119	-0.2576	-0.301	-0.3791	1.5627	1.2386	-1.1923	-2.0952	-2.4656	5.7618	-2.2978	2.6595	0.026
-5.7762	-5.1367	-7.009	-3.2904	-3.7881	-5.0325	-2.4482	-1.4007	-2.5785	-0.2547	-0.2952	-0.4023	1.5714	1.2097	-1.227	-2.2138	-2.3788	5.6894	-2.3036	2.6074	0.0434
-5.8515	-5.183	-7.093	-3.3917	-3.8315	-5.1309	-2.5061	-1.3862	-2.6219	-0.2431	-0.2431	-0.3994	1.6119	1.1691	-1.2212	-2.3151	-2.3209	5.6287	-2.2572	2.5293	0.0579
-5.892	-5.2148	-7.2029	-3.5016	-3.846	-5.1801	-2.5466	-1.3688	-2.6421	-0.2113	-0.2084	-0.3675	1.6553	1.1402	-1.2502	-2.4222	-2.2572	5.5823	-2.2544	2.4598	0.0781
-5.9672	-5.2322	-7.3013	-3.6232	-3.8749	-5.2553	-2.5929	-1.3543	-2.674	-0.191	-0.1534	-0.3328	1.7074	1.1142	-1.256	-2.5032	-2.1994	5.5303	-2.2399	2.4106	0.0666
-5.9701	-5.2351	-7.31	-3.6521	-3.8489	-5.2698	-2.59	-1.282	-2.6277	-0.1013	-0.0637	-0.2489	1.8087	1.0881	-1.256	-2.5814	-2.1386	5.5274	-2.1878	2.373	0.0955
-5.9557	-5.2004	-7.3505	-3.7042	-3.791	-5.2669	-2.5495	-1.1807	-2.5524	-0.0029	0.0637	-0.1013	1.9505	1.0447	-1.2328	-2.6335	-2.072	5.5245	-2.1473	2.3585	0.1215
-5.918	-5.1049	-7.2926	-3.7158	-3.7129	-5.1888	-2.4974	-1.0534	-2.4569	0.1273	0.2257	0.0781	2.1386	1.0244	-1.1923	-2.6277	-2.0344	5.565	-2.0605	2.3585	0.1794
-5.837	-4.9862	-7.255	-3.6753	-3.5971	-5.1193	-2.4367	-0.8653	-2.3093	0.3096	0.4254	0.2952	2.3093	1.0013	-1.1402	-2.6103	-1.991	5.6287	-1.9736	2.3759	0.246
-5.7473	-4.8531	-7.1595	-3.6521	-3.4206	-5.0122	-2.3499	-0.7003	-2.101	0.5006	0.6598	0.5527	2.5437	0.9781	-1.0707	-2.5814	-1.9418	5.7039	-1.8753	2.4106	0.3125
-5.6431	-4.6737	-7.0351	-3.574	-3.247	-4.8878	-2.2457	-0.4978	-1.8781	0.6888	0.8797	0.7987	2.7492	0.9608	-1.01	-2.5003	-1.9071	5.7936	-1.7884	2.4627	0.3907
-5.5158	-4.5058	-6.9251	-3.4872	-3.0907	-4.7402	-2.1357	-0.2894	-1.664	0.8769	1.1113	1.0389	2.9836	0.9174	-0.9637	-2.428	-1.8347	5.8949	-1.6727	2.4974	0.4833
-5.3653	-4.2946	-6.7312	-3.3598	-2.8621	-4.5811	-1.9997	-0.0637	-1.4325	1.0823	1.3515	1.337	3.2383	0.9058	-0.874	-2.3209	-1.7913	5.9672	-1.5627	2.5553	0.5933
-5.2495	-4.0862	-6.5721	-3.2788	-2.6335	-4.3958	-1.8492	0.1852	-1.1749	1.2878	1.6206	1.6264	3.4785	0.8913	-0.819	-2.2457	-1.7537	6.0917	-1.4441	2.6537	0.7119
-5.0875	-3.8431	-6.3753	-3.1486	-2.3817	-4.1846	-1.7335	0.4254	-0.9087	1.5106	1.8521	1.9071	3.6926	0.8595	-0.7582	-2.1212	-1.7045	6.1756	-1.3341	2.7058	0.8103
-4.9631	-3.655	-6.2277	-3.0444	-2.1791	-3.9849	-1.5859	0.6482	-0.6656	1.6958	2.0981	2.1589	3.8923	0.845	-0.7322	-2.0431	-1.6466	6.2682	-1.2473	2.7376	0.8913
-4.8097	-3.438	-6.0164	-2.8997	-1.9389	-3.791	-1.4441	0.9	-0.3965	1.8695	2.3585	2.4164	4.0659	0.8045	-0.6685	-1.9418	-1.5916	6.3521	-1.1344	2.8129	1.0071
-4.6621	-3.2209	-5.8196	-2.7608	-1.664	-3.5971	-1.3225	1.1228	-0.1534	2.0373	2.5814	2.6479	4.2251	0.7785	-0.6367	-1.8376	-1.5396	6.4158	-1.0592	2.8592	1.1026
-4.5058	-2.9836	-5.62	-2.619	-1.4296	-3.3974	-1.1981	1.3833	0.0955	2.1849	2.8013	2.8765	4.4074	0.764	-0.6135	-1.7421	-1.5077	6.491	-0.9434	2.92	1.172
-4.3524	-2.7984	-5.3914	-2.4367	-1.1894	-3.1717	-1.0331	1.6177	0.3675	2.3527	3.0299	3.1312	4.5579	0.7466	-0.5643	-1.6148	-1.4788	6.5518	-0.874	2.9634	1.2646
-4.2048	-2.5611	-5.1772	-2.2862	-0.9376	-2.9171	-0.8942	1.8753	0.6598	2.5061	3.2383	3.3511	4.72	0.7351	-0.5093	-1.499	-1.4527	6.5952	-0.7698	3.0097	1.3399
-4.0312	-2.347	-4.937	-2.0778	-0.6801	-2.6855	-0.7582	2.1415	0.9347	2.6711	3.4495	3.6	4.8762	0.7264	-0.4486	-1.3457	-1.4354	6.6502	-0.6714	3.0646	1.4122
-3.8634	-2.127	-4.7055	-1.8868	-0.4051	-2.4048	-0.599	2.3875	1.2125	2.8216	3.6984	3.8489	5.0441	0.7235	-0.4023	-1.2183	-1.4267	6.7081	-0.5701	3.1167	1.4875
-3.6405	-1.91	-4.4421	-1.6553	-0.1215	-2.1415	-0.4312	2.6653	1.5048	2.9691	3.9212	4.1354	5.2148	0.7206	-0.3068	-1.0592	-1.418	6.7775	-0.4514	3.2007	1.5656
-3.4524	-1.6698	-4.1643	-1.4354	0.1736	-1.8347	-0.2402	2.946	1.8261	3.1399	4.1759	4.4161	5.4058	0.7148	-0.2576	-0.9463	-1.4093	6.8412	-0.3386	3.2788	1.6553
-3.2585	-1.4498	-3.8836	-1.1662	0.4428	-1.5251	-0.0492	3.2267	2.1762	3.3454	4.4306	4.7113	5.6026	0.7379	-0.1939	-0.8074	-1.447	6.9309	-0.2055	3.3714	1.7566
-3.0531	-1.227	-3.6058	-0.9261	0.7351	-1.2386	0.1158	3.5219	2.4772	3.5248	4.7026	4.9833	5.8052	0.7437	-0.0868	-0.6714	-1.4701	7.038	-0.0695	3.4669	1.8839
-2.8505	-0.9839	-3.3048	-0.6743	1.0129	-0.8942	0.3212	3.7939	2.8013	3.7216	4.9457	5.2669	6.0078	0.7611	-0.0029	-0.573	-1.4962	7.1364	0.0579	3.5392	2.0026
-2.6479	-0.7785	-3.0357	-0.4428	1.2704	-0.599	0.4949	4.0399	3.0907	3.8663	5.1743	5.5042	6.1756	0.7756	0.0666	-0.4804	-1.5222	7.2492	0.1997	3.6666	2.1241
-2.4511	-0.6019	-2.7463	-0.217	1.5193	-0.2778	0.6656	4.309	3.4003	4.037	5.3885	5.7328	6.3319	0.7785	0.1158	-0.4023	-1.5396	7.3476	0.3328	3.7505	2.2225
-2.2891	-0.4254	-2.5119	-0.0347	1.7306	-0.0203	0.7958	4.5087	3.629	4.1441	5.5563	5.9065	6.4389	0.7785	0.1534	-0.3588	-1.5309	7.4026	0.4399	3.8286	2.347
-2.0807	-0.2431	-2.2572	0.1794	1.9621	0.2923	0.9666	4.7055	3.9155	4.2598	5.7386	6.0888	6.5692	0.7785	0.2084	-0.3154	-1.5511	7.4923	0.5961	3.9415	2.4569
-1.9158	-0.0752	-2.0026	0.3502	2.1531	0.5412	1.0881	4.8849	4.1585	4.3872	5.8862	6.2479	6.6936	0.764	0.2141	-0.2749	-1.5338	7.5734	0.7148	4.0283	2.5727
-1.7392	0.0666	-1.7711	0.5209	2.3209	0.8074	1.201	5.0701	4.3495	4.4856	6.0106	6.3811	6.7891	0.7524	0.2576	-0.2547	-1.5164	7.6168	0.8334	4.1296	2.6711
-1.5367	0.2257	-1.5511	0.6772	2.4743	1.0418	1.3399	5.1888	4.5348	4.5811	6.0975	6.4708	6.8383	0.7206	0.2923	-0.2431	-1.4614	7.6718	0.9608	4.2222	2.7724
-1.3746	0.3646	-1.2965	0.845	2.6219	1.2704	1.4672	5.3277	4.7258	4.6621	6.1959	6.5518	6.9049	0.7032	0.3299	-0.2199	-1.4035	7.6862	1.0418	4.3235	2.8592
-1.1923	0.5064	-1.0563	1.0215	2.755	1.5106	1.5945	5.4695	4.9196	4.7605	6.2682	6.6502	6.9656	0.6801	0.3965	-0.1939	-1.3428	7.7383	1.146	4.4074	2.9547
-1.0042	0.6569	-0.8248	1.1923	2.9084	1.7826	1.7595	5.5505	5.0875	4.8618	6.3608	6.7312	7.0467	0.628	0.4399	-0.1505	-1.2733	7.7788	1.256	4.4885	3.0386
-0.8045	0.8277	-0.5904	1.3543	3.0733	2.0228	1.9013	5.6605	5.2756	4.9746	6.4418	6.8354	7.1277	0.6019	0.4949	-0.11	-1.1952	7.828	1.337	4.5782	3.1486
-0.6222	0.9608	-0.3531	1.5193	3.2007	2.2891	2.0778	5.7676	5.429	5.0701	6.5113	6.8991	7.2	0.5527	0.5672	-0.0781	-1.1026	7.8107	1.4122	4.6303	3.2093
-0.4023	1.117	-0.0723	1.6843	3.3714	2.5437	2.237	5.8688	5.6344	5.1917	6.5865	6.9946	7.2926	0.5093	0.6251	-0.0232	-1.01	7.8454	1.5193	4.7258	3.3164
-0.191	1.3023	0.1823	1.8897	3.4901	2.7926	2.4077	5.9615	5.7907	5.3219	6.6531	7.0959	7.3824	0.4746	0.7119	0.0781	-0.9463	7.8656	1.6032	4.8184	3.4293
0.0926	1.4875	0.4949	2.0981	3.6782	3.0936	2.6132	6.0743	5.9962	5.4869	6.7197	7.2058	7.5126	0.4399	0.8219	0.1563	-0.8711	7.8946	1.6929	4.9341	3.5392
0.3357	1.7016	0.7814	2.3036	3.8229	3.3338	2.8013	6.138	6.1553	5.6142	6.7602	7.2898	7.6023	0.4023	0.9174	0.272	-0.7929	7.9177	1.7682	4.9688	3.6116
0.6164	1.8984	1.0592	2.5032	3.9936	3.6319	3.0126	6.2045	6.3434	5.7618	6.7978	7.3679	7.6949	0.3531	1.0244	0.3646	-0.709	7.9554	1.8405	5.1077	3.7042
0.874	2.1097	1.3775	2.7434	4.1354	3.8807	3.2036	6.2827	6.5084	5.8862	6.818	7.4229	7.7644	0.3241	1.1373	0.4862	-0.6251	7.938	1.91	5.1685	3.7187
1.1402	2.3209	1.6524	2.9749	4.2801	4.1557	3.4235	6.2971	6.6357	6.0135	6.792	7.4547	7.8251	0.2778	1.2473	0.5875	-0.5441	7.938	1.8984	5.2293	3.7534
1.3891	2.5293	1.9447	3.1746	4.3987	4.393	3.6058	6.3377	6.7746	6.1409	6.7833	7.4721	7.8627	0.246	1.3543	0.7235	-0.4775	7.9467	1.9331	5.2959	3.7331
1.638	2.7405	2.2399	3.4148	4.5232	4.6245	3.7823	6.3203	6.8615	6.2306	6.7225	7.4402	7.8917	0.2026	1.4441	0.8277	-0.3965	7.9293	1.8897	5.3508	3.6782
1.91	2.9402	2.5206	3.6203	4.6505	4.8531	3.9647	6.3087	6.9541	6.2971	6.6444	7.4026	7.9033	0.1881	1.5367	0.9318	-0.356	7.9062	1.8608	5.3827	3.6261
2.1531	3.1601	2.7955	3.8315	4.7663	5.0643	4.1441	6.2624	7.0235	6.3579	6.546	7.3824	7.8859	0.1765	1.6235	1.0071	-0.3357	7.857	1.8203	5.4174	3.5306
2.3817	3.3164	3.0212	4.0341	4.8213	5.2409	4.2598	6.1959	7.0525	6.3984	6.3926	7.2579	7.8338	0.1476	1.7074	1.0679	-0.2981	7.7788	1.7248	5.4029	3.4119
2.619	3.4843	3.2846	4.2309	4.911	5.4521	4.3958	6.1061	7.0872	6.4013	6.2422	7.1537	7.7701	0.1563	1.7624	1.1199	-0.2952	7.6891	1.638	5.3856	3.2846
2.8129	3.6811	3.5479	4.4306	4.9659	5.6258	4.5376	6.0251	7.0901	6.4158	6.0801	7.0409	7.6949	0.1534	1.8434	1.1923	-0.2952	7.5936	1.5714	5.3508	3.1573
3.0299	3.8142	3.7679	4.5897	5.0065	5.7762	4.6129	5.9007	7.0959	6.3897	5.9209	6.9107	7.5705	0.1505	1.8753	1.2183	-0.301	7.4721	1.4643	5.3074	2.9952
3.2151	3.9704	3.9936	4.7605	5.0759	5.9412	4.7026	5.8168	7.0901	6.355	5.7473	6.7631	7.4489	0.1621	1.9418	1.2589	-0.3212	7.3274	1.3775	5.2524	2.836
3.4293	4.1238	4.2396	4.9283	5.1338	6.1004	4.7865	5.7386	7.0872	6.3319	5.6026	6.6357	7.3158	0.1765	1.9736	1.2386	-0.3531	7.2261	1.2936	5.2032	2.7087
3.6116	4.2454	4.419	5.0933	5.1483	6.2595	4.8473	5.6315	7.0814	6.2682	5.429	6.5113	7.1971	0.2084	2.0084	1.2502	-0.3907	7.093	1.2212	5.1338	2.6016
3.7794	4.3843	4.6708	5.2582	5.183	6.3897	4.9254	5.5679	7.0582	6.2277	5.293	6.4013	7.1045	0.2344	2.046	1.2183	-0.4514	6.9743	1.1749	5.0788	2.5032
3.9328	4.5145	4.8299	5.3711	5.2322	6.52	4.9717	5.4897	7.038	6.164	5.1743	6.2885	6.9714	0.272	2.0691	1.1865	-0.5412	6.873	1.0852	5.0007	2.3788
4.0949	4.636	5.0412	5.51	5.2959	6.6676	5.047	5.4434	7.0351	6.1322	5.0557	6.1727	6.8672	0.3299	2.0865	1.1807	-0.6482	6.7862	1.0563	4.9457	2.2978
4.2598	4.7576	5.2553	5.6692	5.3479	6.8325	5.1049	5.374	7.0004	6.0946	4.9399	6.0512	6.737	0.3907	2.101	1.1518	-0.7611	6.7023	0.9955	4.9167	2.2109
4.419	4.8994	5.4405	5.7907	5.4	6.9743	5.1743	5.3219	6.9917	6.0425	4.8502	5.9412	6.627	0.4543	2.0952	1.1605	-0.9116	6.6386	0.9347	4.8878	2.1415
4.5348	5.0007	5.62	5.9007	5.429	7.0582	5.1743	5.2322	6.9656	5.9788	4.7229	5.8168	6.5026	0.5325	2.0634	1.172	-1.0534	6.5721	0.8884	4.8502	2.0836
4.6794	5.1106	5.7936	6.002	5.4348	7.1682	5.2119	5.1685	6.9338	5.9094	4.6158	5.7242	6.3724	0.6019	2.0518	1.1865	-1.1923	6.5113	0.8508	4.8531	2.0026
4.7663	5.1656	5.9325	6.0714	5.4348	7.2406	5.2148	5.0788	6.8499	5.8225	4.4798	5.5881	6.2103	0.6656	1.9794	1.172	-1.3052	6.4447	0.7785	4.801	1.9158
4.8704	5.2119	6.0598	6.1553	5.4232	7.2898	5.2235	4.9804	6.7746	5.7242	4.3698	5.4145	6.0483	0.7206	1.9418	1.1865	-1.4151	6.3695	0.7061	4.7807	1.8463
4.9746	5.2727	6.2016	6.219	5.4116	7.3476	5.2206	4.8965	6.6878	5.6113	4.2454	5.2727	5.9123	0.7669	1.9505	1.1836	-1.499	6.3029	0.6453	4.7692	1.7798
5.0701	5.319	6.3	6.2335	5.3914	7.3737	5.2061	4.8068	6.5952	5.5129	4.118	5.0933	5.7299	0.79	1.9187	1.2068	-1.5743	6.2422	0.5701	4.7286	1.7161
5.1483	5.3132	6.3926	6.2769	5.3769	7.3997	5.1859	4.7402	6.4968	5.4203	4.0196	4.9631	5.5997	0.8277	1.9071	1.1952	-1.6351	6.1988	0.5296	4.7402	1.6814
5.2322	5.374	6.4737	6.3203	5.3422	7.4316	5.1627	4.6563	6.4274	5.3074	3.9531	4.8415	5.4521	0.845	1.9331	1.2212	-1.6698	6.1264	0.4978	4.7258	1.6785
5.319	5.4116	6.5836	6.3463	5.3537	7.4721	5.1656	4.6216	6.3753	5.2553	3.901	4.746	5.3798	0.8508	1.965	1.2733	-1.6929	6.1293	0.4949	4.7489	1.7248
5.4463	5.4753	6.6791	6.3926	5.3711	7.5184	5.1569	4.6158	6.3029	5.1888	3.8952	4.6737	5.2959	0.8479	2.0315	1.3341	-1.7045	6.1033	0.492	4.7692	1.7826
5.536	5.51	6.7862	6.4361	5.4	7.5705	5.1685	4.6187	6.2943	5.1656	3.9068	4.6331	5.2611	0.8508	2.0981	1.392	-1.6929	6.1264	0.5064	4.8039	1.855
5.6402	5.5534	6.9107	6.4361	5.4174	7.6283	5.1801	4.665	6.2856	5.1743	3.9531	4.6245	5.2438	0.8566	2.1589	1.4296	-1.69	6.1698	0.5469	4.8357	1.9997
5.7328	5.6113	7.0322	6.4708	5.484	7.7007	5.2032	4.7258	6.3	5.1801	4.0341	4.6447	5.2582	0.8392	2.2341	1.528	-1.6756	6.2074	0.6077	4.8733	2.1241
5.8486	5.6807	7.1508	6.5026	5.5245	7.8078	5.2698	4.7778	6.3926	5.2553	4.1585	4.7344	5.3595	0.8479	2.3354	1.609	-1.6871	6.3058	0.6859	4.9457	2.2804
5.9615	5.756	7.2637	6.5344	5.5939	7.8454	5.2959	4.8589	6.4013	5.293	4.2367	4.7605	5.4145	0.845	2.3875	1.6669	-1.6727	6.3897	0.7437	5.0094	2.4135
6.0483	5.8081	7.365	6.5229	5.6315	7.9235	5.345	4.8994	6.4303	5.345	4.3322	4.8184	5.4869	0.8421	2.4164	1.719	-1.6871	6.4592	0.8161	5.0557	2.5669
6.1235	5.8283	7.4431	6.5258	5.6721	7.9669	5.3624	4.9688	6.4505	5.4174	4.4132	4.8704	5.5476	0.8566	2.4511	1.7711	-1.7132	6.5547	0.8653	5.1309	2.6913
6.1901	5.8804	7.5039	6.5113	5.7068	8.0074	5.3856	5.0007	6.4795	5.4637	4.5029	4.9283	5.6084	0.8797	2.4685	1.8029	-1.7508	6.6415	0.9174	5.183	2.7984
6.2508	5.8862	7.5676	6.4708	5.701	8.0132	5.3827	5.0094	6.4679	5.4955	4.5319	4.9399	5.6344	0.8942	2.4569	1.8116	-1.7769	6.6849	0.9434	5.2004	2.8852
6.2711	5.8804	7.582	6.4216	5.6807	7.9988	5.3856	5.018	6.4708	5.5389	4.5782	4.9399	5.675	0.9261	2.4222	1.774	-1.829	6.737	0.9521	5.2467	2.972
6.2943	5.8544	7.5849	6.3579	5.6287	7.9525	5.3219	5.0007	6.4071	5.5129	4.5753	4.9139	5.6576	0.9434	2.3701	1.7363	-1.881	6.7457	0.9174	5.2293	3.0212
6.2711	5.811	7.556	6.2566	5.5708	7.8743	5.2814	4.9399	6.3753	5.5071	4.5811	4.8676	5.6402	0.9781	2.2688	1.6669	-1.9273	6.7515	0.8826	5.2351	3.0531
6.2393	5.7618	7.5502	6.1872	5.5071	7.8309	5.2409	4.9052	6.3058	5.5042	4.5666	4.8618	5.6402	0.9955	2.1704	1.6264	-1.9823	6.7399	0.845	5.2351	3.1052
6.193	5.7068	7.4779	6.1119	5.4087	7.7528	5.1946	4.8502	6.2248	5.5013	4.555	4.8155	5.646	1.0158	2.0691	1.5482	-2.0286	6.7254	0.8103	5.1859	3.1399
6.1669	5.646	7.4721	6.0338	5.3306	7.7094	5.1627	4.8357	6.1496	5.5071	4.5666	4.8155	5.6547	1.0476	1.9476	1.4933	-2.0749	6.7197	0.7698	5.1598	3.2151
6.1206	5.5997	7.42	5.9557	5.2872	7.6457	5.1135	4.8097	6.1235	5.5216	4.584	4.8213	5.6547	1.0505	1.8521	1.4788	-2.1068	6.7312	0.7177	5.1309	3.2904
6.0888	5.5563	7.4142	5.8949	5.2409	7.6226	5.1135	4.8126	6.1206	5.5823	4.6274	4.8676	5.7126	1.0939	1.7421	1.4151	-2.1473	6.7457	0.6974	5.1049	3.3772
6.0656	5.5418	7.4055	5.8631	5.2148	7.6197	5.1222	4.8386	6.138	5.6287	4.7142	4.9457	5.7791	1.0881	1.664	1.3659	-2.156	6.7978	0.7061	5.0991	3.5074
6.0454	5.5447	7.4258	5.8515	5.2177	7.6486	5.1598	4.8849	6.1785	5.727	4.8155	5.0383	5.866	1.0794	1.5714	1.3254	-2.1617	6.8441	0.7032	5.0904	3.6174
6.0598	5.5795	7.4808	5.866	5.2582	7.7007	5.2409	4.9746	6.3058	5.8602	4.9717	5.1946	5.9991	1.1055	1.4788	1.2675	-2.1762	6.9454	0.709	5.102	3.7794
6.0743	5.6113	7.5357	5.9209	5.3393	7.7759	5.3306	5.0759	6.4332	6.028	5.128	5.3422	6.1785	1.0968	1.3833	1.2531	-2.1675	7.0525	0.764	5.1801	3.9328
6.0685	5.7068	7.6197	5.9962	5.4174	7.8946	5.484	5.2004	6.5634	6.1843	5.2959	5.536	6.3579	1.091	1.3052	1.172	-2.1617	7.1653	0.8161	5.238	4.0978
6.0946	5.7733	7.7238	6.0685	5.5187	8.019	5.5997	5.3277	6.7399	6.3811	5.4377	5.727	6.5431	1.0707	1.2444	1.1257	-2.1328	7.2869	0.8624	5.2872	4.2512
6.0975	5.8573	7.8136	6.1496	5.6229	8.1464	5.756	5.4637	6.9193	6.5807	5.5997	5.9151	6.7515	1.0592	1.146	1.0158	-2.101	7.4142	0.9	5.3711	4.3843
6.0917	5.9325	7.9119	6.2219	5.7126	8.291	5.9238	5.5881	7.093	6.7949	5.7328	6.0743	6.9309	1.0273	1.0187	0.9261	-2.0373	7.5502	0.9318	5.4319	4.5174
6.0917	6.0222	8.019	6.3406	5.837	8.4502	6.1004	5.7242	7.2869	7.0004	5.8862	6.2451	7.1306	1.0273	0.9579	0.8306	-2.0199	7.6718	0.9463	5.4782	4.6447
6.1033	6.1061	8.1261	6.465	5.9528	8.6065	6.2653	5.8341	7.475	7.2087	6.002	6.4245	7.31	1.0042	0.8595	0.7351	-1.9881	7.7672	0.9839	5.5274	4.7402
6.0946	6.1988	8.2013	6.5836	6.083	8.7512	6.4563	5.9557	7.6486	7.4055	6.1119	6.5923	7.475	0.9984	0.7756	0.6135	-1.9708	7.8801	0.9781	5.6055	4.8241
6.0975	6.2827	8.2795	6.6791	6.193	8.9074	6.6299	6.0656	7.8338	7.5965	6.2161	6.7399	7.637	0.9752	0.709	0.518	-1.9418	7.9901	0.9984	5.6663	4.9283
6.057	6.3	8.32	6.7631	6.2827	9.0058	6.7891	6.1727	7.9843	7.7586	6.3029	6.8528	7.7615	0.9695	0.6019	0.4023	-1.9244	8.0653	0.9781	5.7328	5.0151
6.0222	6.3782	8.3894	6.8788	6.3811	9.1129	6.9425	6.2653	8.1319	7.9119	6.4042	7.0004	7.9119	0.9724	0.5238	0.2952	-1.9129	8.1637	0.9839	5.7791	5.0991
5.9904	6.41	8.4415	6.9454	6.4592	9.2374	7.0988	6.3753	8.2621	8.0711	6.4852	7.0988	8.0306	0.9608	0.4514	0.1678	-1.91	8.2361	0.9868	5.8196	5.1975
5.9325	6.4621	8.482	7.0467	6.5287	9.3155	7.2463	6.4824	8.3923	8.2274	6.5807	7.2203	8.1927	0.9695	0.3994	0.1013	-1.9216	8.3316	0.9926	5.866	5.3045
5.9065	6.5026	8.5197	7.093	6.6126	9.4197	7.3592	6.5865	8.5399	8.3923	6.6878	7.3361	8.3142	0.981	0.3183	-0.0434	-1.9244	8.4184	1.0187	5.9267	5.3856
5.8804	6.5634	8.5573	7.1914	6.7023	9.5036	7.501	6.7341	8.6846	8.5283	6.8267	7.475	8.4878	0.9926	0.2633	-0.1505	-1.9708	8.5341	1.0736	5.9991	5.5274
5.7936	6.5779	8.5544	7.2319	6.7689	9.5673	7.6197	6.8701	8.8062	8.6817	6.9338	7.5965	8.6181	1.0129	0.1852	-0.2662	-1.9852	8.6354	1.1199	6.0627	5.6431
5.7531	6.6039	8.5949	7.2666	6.8788	9.6338	7.7354	7.0293	8.9306	8.8322	7.1132	7.7354	8.7483	1.0129	0.1244	-0.3791	-2.0257	8.7367	1.1923	6.1264	5.7965
5.701	6.6994	8.6238	7.3303	7.0033	9.7235	7.857	7.2116	9.1013	8.9711	7.2926	7.8888	8.9103	1.0389	0.0752	-0.492	-2.0634	8.9017	1.3052	6.2248	5.9701
5.6778	6.7486	8.6354	7.3708	7.1132	9.7785	7.938	7.3853	9.22	9.1013	7.475	8.0422	9.0811	1.0476	0.0029	-0.6222	-2.0865	9.0203	1.4122	6.3145	6.1524
5.646	6.8007	8.6383	7.4026	7.2608	9.8422	8.0306	7.5849	9.3705	9.2634	7.6746	8.2071	9.2518	1.0563	-0.0752	-0.7611	-2.1039	9.2113	1.5222	6.4158	6.3811
5.5708	6.8528	8.6296	7.4171	7.4055	9.903	8.1174	7.7759	9.521	9.4023	7.883	8.3808	9.4312	1.0679	-0.1765	-0.9261	-2.1126	9.3878	1.6408	6.5373	6.575
5.5332	6.9396	8.6528	7.4489	7.5531	9.9753	8.2071	8.0017	9.6743	9.5239	8.1058	8.5862	9.5933	1.0563	-0.2431	-1.0765	-2.1039	9.5817	1.7711	6.6589	6.7804
5.4926	6.9656	8.6238	7.4518	7.6804	10.0042	8.2853	8.1898	9.8046	9.6541	8.2939	8.7193	9.7554	1.0389	-0.3675	-1.2097	-2.0749	9.7438	1.8781	6.7689	6.9541
5.3942	7.009	8.5949	7.4345	7.7933	10.0129	8.3113	8.346	9.9203	9.7727	8.4792	8.8727	9.903	1.0273	-0.4804	-1.3833	-2.0547	9.929	1.9881	6.9135	7.119
5.3277	7.0582	8.5573	7.4113	7.9206	10.0361	8.3547	8.5197	10.039	9.8711	8.6296	9.0203	10.0505	1.0013	-0.6019	-1.5251	-2.0113	10.12	2.0894	7.0351	7.2666
5.2727	7.064	8.4907	7.391	8.0103	10.039	8.401	8.6586	10.1142	9.9464	8.7917	9.1448	10.201	0.9926	-0.7322	-1.6322	-1.9736	10.3023	2.1762	7.1335	7.365
5.183	7.0785	8.4184	7.339	8.0885	10.0187	8.4242	8.7859	10.1981	10.0448	8.9219	9.2518	10.3255	0.955	-0.8074	-1.745	-1.9244	10.4788	2.2717	7.2579	7.4634
5.1135	7.0843	8.3721	7.3216	8.1955	10.0303	8.4763	8.9595	10.2618	10.1287	9.0695	9.3502	10.4615	0.9463	-0.9232	-1.8116	-1.8897	10.6641	2.3643	7.3853	7.5618
5.0557	7.0785	8.2997	7.2869	8.2853	10.0187	8.4878	9.0753	10.3486	10.2039	9.1939	9.4718	10.6149	0.9289	-1.01	-1.8781	-1.8434	10.8637	2.4888	7.5184	7.6254
4.9659	7.0496	8.2361	7.2695	8.3692	10.0158	8.5081	9.22	10.447	10.311	9.3126	9.5846	10.7509	0.9174	-1.0794	-1.91	-1.8261	11.075	2.6306	7.6775	7.7094
4.8994	7.0177	8.1579	7.1914	8.4039	9.9666	8.511	9.3184	10.5049	10.3631	9.411	9.6657	10.9071	0.8913	-1.1952	-1.9592	-1.7942	11.2862	2.7463	7.8251	7.7528
4.7952	6.9685	8.0827	7.1537	8.4531	9.9464	8.5341	9.4052	10.557	10.447	9.5065	9.7843	11.0692	0.8826	-1.2704	-1.9736	-1.7798	11.5149	2.8418	7.9698	7.8193
4.7113	6.9193	7.9554	7.1161	8.482	9.903	8.5399	9.4862	10.5888	10.5251	9.5875	9.8885	11.211	0.8826	-1.3515	-1.9881	-1.7971	11.7724	2.9634	8.1261	7.8656
4.6274	6.8586	7.8888	7.0611	8.5139	9.8624	8.566	9.5759	10.6525	10.6033	9.6859	9.9927	11.3875	0.9203	-1.4035	-1.9852	-1.8405	12.0358	3.082	8.291	7.9033
4.5376	6.7862	7.7904	6.9975	8.5457	9.819	8.5515	9.6396	10.6814	10.6785	9.7669	10.1084	11.5756	0.9347	-1.499	-2.0315	-1.8695	12.3165	3.1891	8.4589	7.9525
4.4248	6.6705	7.6718	6.9367	8.5081	9.738	8.5168	9.6801	10.6988	10.7393	9.8219	10.1837	11.7493	0.9695	-1.5511	-2.0113	-1.936	12.5914	3.273	8.6181	7.9785
4.3495	6.546	7.5531	6.8759	8.4878	9.6541	8.4878	9.7091	10.6959	10.7798	9.8856	10.256	11.9345	1.0187	-1.6351	-2.0171	-2.0171	12.8924	3.3511	8.7599	8.0364
4.2569	6.4505	7.4634	6.8152	8.4502	9.5933	8.4502	9.738	10.693	10.829	9.9579	10.3486	12.1023	1.0621	-1.6727	-1.9939	-2.1068	13.1962	3.4206	8.8988	8.0856
4.1528	6.329	7.3621	6.7457	8.3894	9.4862	8.4155	9.7206	10.6583	10.8406	9.9898	10.392	12.2586	1.1199	-1.7161	-1.9852	-2.2023	13.4769	3.4901	9.0319	8.1232
4.0515	6.2103	7.2145	6.6589	8.3055	9.3705	8.3489	9.7062	10.6235	10.8608	10.0303	10.4731	12.4467	1.1749	-1.7884	-2.0113	-2.3122	13.7692	3.5161	9.1737	8.155
3.9733	6.0772	7.093	6.5894	8.2187	9.2518	8.2882	9.6801	10.5946	10.91	10.0592	10.5223	12.6001	1.2039	-1.7942	-1.9708	-2.4135	14.0702	3.5595	9.2779	8.2013
3.8807	5.9412	6.9888	6.5489	8.1203	9.1476	8.2505	9.6425	10.557	10.9679	10.0997	10.5946	12.7882	1.2646	-1.8347	-1.965	-2.5148	14.374	3.6029	9.3936	8.2679
3.8113	5.8052	6.8701	6.4824	8.0422	9.0493	8.2042	9.6194	10.5194	10.9853	10.1663	10.6612	12.9502	1.308	-1.8781	-1.9679	-2.59	14.675	3.6232	9.5036	8.3287
3.7187	5.6489	6.7139	6.4187	7.9206	8.9335	8.1492	9.5673	10.4759	10.9911	10.1866	10.693	13.1123	1.3312	-1.936	-1.991	-2.6364	14.9673	3.6434	9.5875	8.3923
3.6434	5.5042	6.6068	6.3463	7.7586	8.8033	8.0682	9.5065	10.4325	11.0026	10.2329	10.7596	13.2888	1.3457	-1.9679	-1.9997	-2.6682	15.2422	3.6434	9.6859	8.4473
3.5769	5.3653	6.4505	6.2827	7.6486	8.6962	8.0103	9.4602	10.3689	11.02	10.2821	10.803	13.4306	1.3659	-1.9823	-1.9852	-2.7029	15.5258	3.629	9.7583	8.5168
3.5016	5.2669	6.3521	6.2306	7.5502	8.6007	7.964	9.3994	10.3139	11.0489	10.3197	10.8522	13.5927	1.3746	-1.9736	-1.9939	-2.7434	15.7718	3.6116	9.8046	8.5775
3.4409	5.1512	6.2364	6.2074	7.4402	8.5139	7.9148	9.3444	10.2907	11.046	10.3689	10.8927	13.7663	1.4064	-1.9852	-1.9852	-2.7839	16.0265	3.5913	9.8653	8.6586
3.3917	5.0528	6.1206	6.1727	7.3187	8.4213	7.8801	9.2808	10.2126	11.0374	10.421	10.9245	13.8763	1.4267	-2.0113	-1.9708	-2.8187	16.229	3.5827	9.9001	8.7078
3.3309	4.9457	6.0193	6.1235	7.2145	8.3084	7.802	9.2026	10.1258	11.0229	10.4181	10.9274	13.9631	1.4296	-2.046	-2.0026	-2.836	16.3766	3.5508	9.9319	8.7685
3.3135	4.8994	5.9383	6.1235	7.0872	8.2419	7.7644	9.1274	10.0419	11.0084	10.4181	10.9274	14.0383	1.447	-2.046	-1.9794	-2.8823	16.5184	3.519	9.9608	8.7917
3.2556	4.8155	5.8688	6.0801	6.9917	8.1435	7.7065	9.029	9.9637	10.9766	10.4065	10.8869	14.076	1.4498	-2.0807	-1.991	-2.8939	16.585	3.4524	9.9435	8.8033
3.1949	4.7229	5.7791	6.0512	6.8615	8.0653	7.6486	8.9248	9.8335	10.9187	10.3399	10.7769	14.047	1.4643	-2.1212	-2.0402	-2.9142	16.6139	3.3627	9.9203	8.812
3.1688	4.636	5.7068	6.0164	6.7341	7.9756	7.5878	8.8033	9.7235	10.8522	10.2763	10.7132	14.0065	1.4817	-2.1444	-2.0402	-2.9431	16.585	3.2817	9.8856	8.8062
3.1138	4.5753	5.62	5.9991	6.6126	7.8975	7.5155	8.6875	9.5933	10.748	10.201	10.5801	13.9081	1.4962	-2.1646	-2.0952	-2.972	16.504	3.1775	9.8103	8.7714
3.0878	4.5492	5.5737	6.0049	6.5055	7.8309	7.4721	8.5689	9.4631	10.6525	10.12	10.4644	13.7895	1.5077	-2.2052	-2.1068	-2.9807	16.3911	3.0791	9.712	8.7425
3.0444	4.4942	5.5505	5.9586	6.4042	7.7701	7.42	8.4155	9.301	10.5396	10.0187	10.3081	13.6506	1.5048	-2.2428	-2.1589	-2.9749	16.1943	2.9894	9.602	8.6875
3.0241	4.4711	5.5013	5.9296	6.3377	7.7412	7.3737	8.3229	9.2084	10.4239	9.9116	10.1663	13.4682	1.4962	-2.2544	-2.1994	-2.9663	15.9946	2.891	9.4804	8.6123
3.0299	4.4595	5.5129	5.9354	6.2798	7.7181	7.3476	8.2216	9.0782	10.3052	9.7843	9.9985	13.2599	1.4701	-2.2659	-2.2196	-2.9315	15.7371	2.7955	9.3415	8.5023
3.0473	4.4682	5.5389	5.9615	6.2451	7.7152	7.3129	8.1348	9.0203	10.1981	9.6714	9.8538	13.0747	1.4556	-2.2804	-2.2746	-2.8852	15.4737	2.6971	9.1997	8.3837
3.0791	4.5116	5.6026	5.9759	6.2451	7.7672	7.3274	8.0972	8.9798	10.0968	9.573	9.7496	12.8779	1.4296	-2.2601	-2.2746	-2.8389	15.1988	2.6392	9.0579	8.2824
3.1312	4.5926	5.7039	6.0049	6.2971	7.8512	7.3332	8.0682	8.974	10.0448	9.4978	9.6628	12.71	1.3978	-2.2659	-2.2949	-2.7724	14.8892	2.5698	8.919	8.1492
3.2267	4.6881	5.8254	6.0454	6.3724	7.9467	7.3621	8.0711	8.9885	9.9522	9.4428	9.5817	12.5075	1.3746	-2.2312	-2.292	-2.7232	14.5911	2.5177	8.7743	8.0451
3.3251	4.7894	5.9846	6.0946	6.4737	8.0885	7.4171	8.0856	9.0232	9.903	9.3878	9.5441	12.3483	1.3399	-2.1704	-2.3007	-2.6479	14.2756	2.4454	8.647	7.8975
3.4293	4.9399	6.1611	6.1872	6.6299	8.2824	7.5184	8.1724	9.1592	9.903	9.3965	9.5296	12.2094	1.308	-2.1444	-2.3267	-2.5958	13.9978	2.4482	8.5341	7.7759
3.5624	5.0846	6.3637	6.2479	6.7515	8.4734	7.5878	8.2447	9.2489	9.8509	9.3415	9.4891	12.0271	1.2617	-2.0807	-2.3122	-2.509	13.6564	2.428	8.3923	7.6168
3.736	5.2438	6.5605	6.329	6.9049	8.673	7.6775	8.3316	9.3821	9.8219	9.3155	9.492	11.8679	1.2328	-2.0084	-2.3122	-2.4569	13.3409	2.3962	8.2708	7.4605
3.8836	5.4232	6.792	6.3955	7.0988	8.8988	7.7701	8.4328	9.5354	9.819	9.3329	9.5007	11.7203	1.2039	-1.936	-2.2862	-2.3962	13.0342	2.399	8.1406	7.3505
4.0717	5.5997	7.0611	6.4968	7.2984	9.1476	7.883	8.5515	9.7091	9.8161	9.3242	9.5267	11.5785	1.1836	-1.8608	-2.2717	-2.3614	12.739	2.4251	8.0306	7.2029
4.2685	5.7676	7.2811	6.5779	7.5039	9.3965	7.9988	8.6325	9.8711	9.8075	9.2894	9.5354	11.4194	1.1576	-1.7769	-2.2544	-2.3122	12.4207	2.4135	7.9206	7.0611
4.4335	5.9499	7.5299	6.6676	7.7065	9.6483	8.0914	8.7483	10.0448	9.7872	9.2952	9.5383	11.2602	1.1402	-1.6987	-2.2254	-2.2659	12.1023	2.4396	7.8078	6.8991
4.5897	6.1033	7.7615	6.7168	7.8946	9.8509	8.1492	8.8554	10.1808	9.7438	9.2692	9.5325	11.1126	1.1228	-1.6408	-2.1849	-2.2254	11.81	2.4656	7.7152	6.7486
4.7605	6.2508	7.9872	6.7717	8.048	10.0534	8.1984	8.9277	10.2907	9.6917	9.2345	9.5007	10.9129	1.0823	-1.5801	-2.1617	-2.1733	11.5004	2.4714	7.6168	6.5865
4.9081	6.3637	8.1869	6.8209	8.1927	10.2184	8.2303	9.0058	10.4065	9.628	9.1911	9.4862	10.7306	1.0679	-1.5077	-2.127	-2.127	11.1994	2.4714	7.5184	6.4245
5.073	6.4852	8.3865	6.8672	8.3345	10.4152	8.2795	9.0521	10.502	9.5673	9.1245	9.4399	10.5512	1.0418	-1.4672	-2.0923	-2.0894	10.9014	2.4974	7.4287	6.2769
5.2004	6.5547	8.537	6.8846	8.4473	10.5628	8.2795	9.0984	10.5859	9.5094	9.0811	9.4226	10.3689	1.0418	-1.4296	-2.0431	-2.0605	10.638	2.5061	7.3592	6.1293
5.3074	6.6502	8.6933	6.9049	8.5255	10.6756	8.32	9.1274	10.6872	9.4226	9.0464	9.4197	10.2386	1.0273	-1.4035	-2.0228	-2.0315	10.3776	2.5119	7.2984	5.9875
5.4116	6.711	8.8351	6.902	8.5862	10.7856	8.32	9.1303	10.7306	9.3705	9.0001	9.3792	10.0911	1.0013	-1.418	-2.0142	-1.9765	10.12	2.5351	7.2029	5.8602
5.5013	6.7428	8.9306	6.8991	8.6007	10.8579	8.2968	9.1274	10.7914	9.2923	8.9451	9.3705	9.9493	0.9724	-1.3833	-1.9244	-1.9273	9.8827	2.5553	7.1335	5.7386
5.5997	6.7746	9.0319	6.9049	8.6152	10.9505	8.2853	9.1274	10.8377	9.22	8.9132	9.3647	9.8219	0.9232	-1.3659	-1.9129	-1.8608	9.6743	2.5698	7.0553	5.6315
5.6865	6.7746	9.1448	6.9164	8.6354	11.0258	8.3026	9.1419	10.9014	9.1853	8.9248	9.4023	9.7698	0.9174	-1.3717	-1.855	-1.8116	9.5239	2.6103	7.0235	5.5563
5.7618	6.7775	9.2055	6.9222	8.6383	11.0981	8.3026	9.1419	11.0026	9.139	8.9277	9.4399	9.7293	0.8826	-1.3746	-1.8203	-1.7479	9.3763	2.6682	6.9975	5.5187
5.8312	6.7804	9.2547	6.9714	8.6181	11.1271	8.3026	9.1534	11.0316	9.1332	8.948	9.466	9.6685	0.8363	-1.4035	-1.8145	-1.6611	9.2489	2.6971	6.9743	5.4897
5.8602	6.7631	9.3213	6.9772	8.6094	11.1705	8.2968	9.1505	11.0605	9.0898	8.9798	9.5181	9.6049	0.7958	-1.4643	-1.8347	-1.5859	9.1216	2.755	6.9396	5.484
5.9267	6.7486	9.3676	7.0177	8.5775	11.2081	8.2997	9.1592	11.1126	9.0724	8.9827	9.5644	9.5817	0.7582	-1.528	-1.8463	-1.5048	9.0058	2.8187	6.9222	5.5042
5.9441	6.6965	9.3502	7.038	8.537	11.1965	8.2824	9.1361	11.1444	9.0261	9.0116	9.5904	9.5239	0.7264	-1.5888	-1.8955	-1.4527	8.8698	2.8679	6.8701	5.5129
5.9615	6.6531	9.3763	7.0438	8.4502	11.1907	8.2361	9.1274	11.1329	8.9682	9.0145	9.6078	9.4457	0.6916	-1.6495	-1.9302	-1.3833	8.702	2.8997	6.7891	5.536
5.9933	6.6126	9.3849	7.0959	8.3981	11.1589	8.1955	9.0869	11.1068	8.9074	8.9943	9.5904	9.3271	0.6656	-1.7508	-1.9968	-1.3225	8.5486	2.946	6.7168	5.5823
5.9817	6.5692	9.3531	7.1045	8.3142	11.101	8.1232	9.0348	11.0663	8.7888	8.9509	9.5094	9.2084	0.6251	-1.8405	-2.0605	-1.2646	8.3142	2.9865	6.6155	5.6315
5.9528	6.4824	9.2605	7.1074	8.1955	11.0171	8.0364	8.9624	10.9824	8.6673	8.8872	9.4081	9.0261	0.5817	-1.9534	-2.1733	-1.1894	8.0682	3.0183	6.4737	5.6287
5.9094	6.4013	9.2055	7.1103	8.0856	10.9477	7.9582	8.8727	10.91	8.5255	8.8351	9.3213	8.864	0.5614	-2.0431	-2.2515	-1.1142	7.8483	3.0328	6.3319	5.675
5.8688	6.3232	9.1187	7.0727	7.9814	10.8493	7.8599	8.7743	10.8059	8.3808	8.7396	9.2171	8.6644	0.518	-2.1097	-2.3354	-1.0273	7.5734	3.0299	6.1843	5.6923
5.8457	6.2653	9.0435	7.0785	7.8772	10.7451	7.747	8.6788	10.7017	8.2158	8.6238	9.0666	8.4502	0.4601	-2.2109	-2.4222	-0.9318	7.2955	3.0618	6.0193	5.7242
5.7965	6.2045	8.9509	7.0611	7.7962	10.6177	7.6312	8.5718	10.5975	8.0566	8.5283	8.9132	8.2419	0.4109	-2.2254	-2.4772	-0.8421	7.0004	3.0849	5.866	5.7705
5.7502	6.1843	8.8785	7.0438	7.7296	10.5223	7.5184	8.5139	10.5049	7.9119	8.456	8.8062	8.0364	0.382	-2.2833	-2.5495	-0.7524	6.7283	3.137	5.7386	5.8168
5.7473	6.1669	8.8148	7.0525	7.6602	10.4528	7.4373	8.4676	10.4152	7.7701	8.3837	8.6933	7.8396	0.3183	-2.292	-2.59	-0.6424	6.4679	3.1775	5.5997	5.8775
5.7502	6.1959	8.7917	7.0525	7.6544	10.4268	7.3881	8.4647	10.392	7.6862	8.3576	8.6441	7.7007	0.2633	-2.2659	-2.5727	-0.5296	6.2422	3.2701	5.484	5.9615
5.7444	6.2335	8.7599	7.0727	7.7094	10.3978	7.31	8.4936	10.3804	7.611	8.346	8.6065	7.5734	0.1852	-2.2515	-2.59	-0.3994	6.028	3.3454	5.3856	6.0598
5.811	6.3261	8.7888	7.119	7.7701	10.4296	7.3071	8.5631	10.4123	7.5676	8.401	8.6181	7.5097	0.1505	-2.1444	-2.5206	-0.2923	5.8631	3.4756	5.3248	6.2103
5.8544	6.3955	8.7743	7.1103	7.8685	10.447	7.2811	8.6267	10.4354	7.4981	8.4271	8.6094	7.4287	0.0608	-2.0778	-2.4714	-0.1534	5.6836	3.5971	5.2177	6.3116
5.9383	6.5344	8.8438	7.1451	8.0017	10.5165	7.2898	8.7656	10.5136	7.5097	8.5283	8.6991	7.3824	0.0116	-1.9592	-2.3788	-0.0434	5.5245	3.71	5.1569	6.4447
6.0251	6.6618	8.9132	7.1971	8.1869	10.5946	7.3303	8.8901	10.5975	7.4721	8.6238	8.7483	7.3505	-0.0347	-1.829	-2.2457	0.055	5.3856	3.8634	5.102	6.5663
6.1148	6.8152	9.0001	7.2261	8.3663	10.7046	7.3621	9.0521	10.7132	7.4894	8.7078	8.8091	7.3071	-0.0955	-1.7045	-2.1154	0.1563	5.2698	4.0081	5.047	6.7023
6.1843	6.9656	9.0927	7.2348	8.5399	10.8059	7.3881	9.1968	10.7885	7.475	8.8033	8.8901	7.2666	-0.1331	-1.5309	-1.9621	0.2576	5.0991	4.1325	4.9833	6.7486
6.3087	7.1393	9.1824	7.2435	8.7338	10.9448	7.4229	9.3473	10.8985	7.4894	8.8814	8.9566	7.2203	-0.191	-1.4035	-1.8116	0.3617	4.9659	4.254	4.9225	6.8267
6.4361	7.3187	9.3126	7.284	8.9711	11.0924	7.4923	9.5267	11.0432	7.4981	8.9856	9.0203	7.1885	-0.2344	-1.2589	-1.6756	0.4486	4.801	4.3814	4.8907	6.8933
6.5605	7.4692	9.4428	7.2955	9.1766	11.211	7.5415	9.683	11.1502	7.5184	9.0579	9.0666	7.1335	-0.2749	-1.0852	-1.5251	0.5238	4.6737	4.5029	4.8299	6.9078
6.6791	7.6515	9.5788	7.2955	9.4081	11.3788	7.6139	9.8277	11.2689	7.5357	9.1332	9.1303	7.0988	-0.3212	-0.9261	-1.3515	0.6135	4.5203	4.5955	4.7692	6.9193
6.8267	7.8425	9.7554	7.3361	9.6338	11.5641	7.7181	10.0071	11.3846	7.5734	9.1737	9.1592	7.0235	-0.3646	-0.7611	-1.1952	0.7032	4.3698	4.6968	4.7315	6.9164
6.9743	8.0306	9.9261	7.3766	9.8885	11.7551	7.8164	10.1837	11.5583	7.6197	9.2547	9.2316	7.0293	-0.3994	-0.5817	-0.9955	0.7871	4.2483	4.8097	4.7055	6.9135
7.1653	8.2563	10.1316	7.4489	10.1663	11.9895	7.9756	10.3862	11.7261	7.692	9.3676	9.301	7.038	-0.4457	-0.3965	-0.8103	0.8537	4.1296	4.9167	4.6852	6.9193
7.3476	8.4734	10.3718	7.5184	10.447	12.2615	8.1464	10.6033	11.9287	7.828	9.466	9.4255	7.0872	-0.4949	-0.2315	-0.6511	0.9463	4.0544	5.0412	4.6766	6.9801
7.5734	8.7251	10.6409	7.6254	10.7393	12.5596	8.3547	10.8377	12.1689	7.9727	9.6107	9.5702	7.1653	-0.5325	0.0029	-0.4283	1.0244	3.9907	5.1772	4.6968	7.0033
7.7817	8.9538	10.9187	7.7383	11.0345	12.849	8.5631	11.0924	12.4583	8.1637	9.7901	9.7091	7.284	-0.5672	0.1765	-0.2315	1.0997	3.956	5.3219	4.7171	7.0785
8.0306	9.2634	11.237	7.8599	11.3644	13.2194	8.8206	11.3644	12.7477	8.4068	9.9695	9.9493	7.4489	-0.5904	0.3762	0.0029	1.1662	3.9762	5.4926	4.8039	7.1711
8.3084	9.5152	11.5554	8.0045	11.6914	13.5464	9.0782	11.6393	13.0573	8.6528	10.2039	10.175	7.6399	-0.6396	0.5614	0.1823	1.2357	4.0283	5.6634	4.8994	7.2608
8.537	9.7756	11.8708	8.1579	12.0039	13.8994	9.3676	11.9229	13.367	8.9277	10.4181	10.4383	7.8627	-0.6627	0.7206	0.3502	1.3023	4.0515	5.8457	4.9804	7.3881
8.7801	10.0563	12.1805	8.2968	12.3194	14.2467	9.6338	12.2152	13.6911	9.1997	10.6525	10.6669	8.0711	-0.6888	0.8913	0.5412	1.3486	4.1093	6.002	5.0817	7.5155
8.9972	10.3139	12.4814	8.4444	12.6117	14.5853	9.9058	12.4699	14.0036	9.5007	10.8927	10.9216	8.3113	-0.7177	1.0129	0.6801	1.3833	4.1933	6.164	5.183	7.637
9.2026	10.5599	12.7592	8.621	12.8808	14.8978	10.1779	12.6898	14.2872	9.7785	11.0895	11.1271	8.537	-0.7293	1.1026	0.7553	1.4267	4.2627	6.3058	5.3132	7.7412
9.3821	10.7509	13.0226	8.7599	13.1181	15.1785	10.4383	12.8953	14.5535	10.0332	11.292	11.3268	8.7396	-0.7408	1.2125	0.8248	1.4441	4.3206	6.4332	5.4029	7.8656
9.5615	10.9679	13.2425	8.9335	13.3467	15.4477	10.6843	13.0834	14.7763	10.3023	11.4367	11.4946	8.9277	-0.7379	1.2849	0.8797	1.4498	4.419	6.5431	5.5158	7.9756
9.7091	11.156	13.474	9.0666	13.5232	15.6589	10.9187	13.2252	14.9876	10.5483	11.5698	11.6335	9.0984	-0.7437	1.3601	0.8769	1.4643	4.4682	6.656	5.6142	8.0509
9.8595	11.2833	13.639	9.2258	13.6795	15.8384	11.1155	13.3351	15.1496	10.7538	11.6625	11.7406	9.2345	-0.7466	1.4093	0.8624	1.4556	4.5	6.7717	5.7386	8.1406
9.984	11.4136	13.83	9.3589	13.7808	16.0149	11.2949	13.4133	15.2712	10.9911	11.7261	11.8043	9.4081	-0.7264	1.4527	0.8566	1.4412	4.5695	6.8267	5.8544	8.1898
10.0824	11.5293	13.9457	9.5036	13.8705	16.1422	11.4772	13.474	15.3638	11.2139	11.7695	11.8621	9.5441	-0.7177	1.4846	0.8334	1.4122	4.6274	6.9135	5.9499	8.2592
10.1923	11.6422	14.0875	9.657	13.9457	16.258	11.6393	13.5059	15.4593	11.4107	11.8274	11.9229	9.7033	-0.7061	1.5396	0.8132	1.3804	4.6968	6.9772	6.0541	8.291
10.285	11.7059	14.1888	9.7756	13.9776	16.3419	11.81	13.5001	15.4882	11.5814	11.8361	11.9345	9.8277	-0.6801	1.609	0.7987	1.3399	4.7749	7.0293	6.1611	8.32
10.3197	11.7493	14.2785	9.9116	14.0036	16.42	11.9634	13.5146	15.5605	11.7493	11.865	11.9779	9.9724	-0.6569	1.6669	0.7871	1.3023	4.8762	7.0988	6.2798	8.3547
10.3862	11.8071	14.3393	10.0534	13.9892	16.4519	12.1052	13.4885	15.5605	11.9171	11.8592	11.9779	10.1026	-0.654	1.7277	0.7756	1.282	4.9833	7.1508	6.3897	8.4039
10.4615	11.8592	14.4261	10.1663	14.0152	16.5126	12.2383	13.4596	15.6068	12.085	11.8708	12.0039	10.2965	-0.6396	1.7769	0.7553	1.2589	5.1106	7.1943	6.4881	8.4415
10.4788	11.8853	14.458	10.285	13.9978	16.5445	12.3338	13.4596	15.6155	12.2673	11.8969	12.0358	10.4615	-0.6569	1.8579	0.7669	1.2617	5.2553	7.2521	6.5779	8.5023
10.5136	11.9171	14.4869	10.4094	13.9892	16.5329	12.4583	13.4625	15.6329	12.4207	11.9403	12.1226	10.6438	-0.6453	1.9302	0.764	1.2675	5.4	7.3245	6.6994	8.5718
10.5541	11.9692	14.5361	10.5251	13.9978	16.5792	12.5625	13.4798	15.6763	12.6059	11.9924	12.192	10.8464	-0.6309	2.0026	0.7958	1.2415	5.5505	7.3824	6.8267	8.6615
10.5714	12.0039	14.5303	10.6091	13.9776	16.5358	12.6377	13.4509	15.6763	12.7303	12.0097	12.2123	10.9969	-0.628	2.0605	0.8074	1.2444	5.7068	7.4547	6.9338	8.7396
10.5801	12.0126	14.539	10.6988	13.9573	16.5069	12.7072	13.4451	15.6647	12.8461	12.0531	12.2673	11.1531	-0.6193	2.1328	0.8392	1.2212	5.8515	7.5097	7.0322	8.812
10.5686	11.9952	14.5072	10.7567	13.8965	16.4606	12.739	13.3872	15.6068	12.9242	12.0358	12.2528	11.2891	-0.6135	2.1444	0.8624	1.2068	5.9904	7.5328	7.1103	8.8264
10.5454	11.9866	14.4464	10.7827	13.8445	16.4114	12.7679	13.3699	15.5577	12.956	12.03	12.2962	11.3933	-0.5904	2.182	0.8884	1.1662	6.0946	7.5763	7.1653	8.8756
10.447	11.9113	14.3683	10.8001	13.7461	16.2782	12.7535	13.2599	15.4622	13.0052	12.0126	12.2441	11.4541	-0.5759	2.1936	0.9029	1.1315	6.1785	7.5936	7.2	8.8785
10.3776	11.8245	14.2554	10.803	13.6101	16.1393	12.684	13.1586	15.3232	13.0052	11.9374	12.1834	11.4859	-0.5556	2.1733	0.9029	1.0939	6.2508	7.5907	7.2174	8.8322
10.2792	11.7174	14.1541	10.7798	13.5001	16.0062	12.6348	13.0486	15.1699	12.9734	11.8679	12.1052	11.4946	-0.5412	2.1502	0.9261	1.0621	6.3145	7.5676	7.2087	8.8235
10.1692	11.5872	14.021	10.7538	13.3409	15.8384	12.574	12.9271	15.0512	12.9097	11.7724	11.9895	11.5033	-0.5296	2.1299	0.9608	1.0418	6.3637	7.5155	7.1885	8.7772
10.0824	11.4975	13.8618	10.6756	13.1904	15.6966	12.5133	12.7998	14.8776	12.8576	11.6682	11.8679	11.4917	-0.5267	2.0663	0.9695	1.036	6.41	7.4605	7.1769	8.7107
9.9753	11.3412	13.7316	10.6409	13.0284	15.5374	12.4583	12.6551	14.6895	12.7911	11.5525	11.7637	11.4715	-0.5325	2.0373	1.0187	1.0592	6.4361	7.4026	7.1451	8.6354
9.8451	11.2226	13.558	10.5657	12.8721	15.3811	12.3628	12.5104	14.539	12.7216	11.4599	11.6451	11.4309	-0.5614	1.9852	1.0621	1.0939	6.4708	7.3158	7.1219	8.5631
9.7351	11.0866	13.4219	10.528	12.739	15.248	12.3425	12.4033	14.3914	12.6724	11.3817	11.5612	11.4483	-0.5759	1.9389	1.1142	1.1402	6.5229	7.2608	7.1277	8.4965
9.6512	10.9824	13.2917	10.4933	12.6174	15.0975	12.3078	12.3194	14.2814	12.6493	11.3007	11.5062	11.4425	-0.6135	1.8926	1.1778	1.201	6.575	7.1856	7.1451	8.4415
9.6049	10.8956	13.2165	10.502	12.5162	15.031	12.3136	12.2789	14.212	12.684	11.2833	11.483	11.4975	-0.6453	1.855	1.2241	1.2675	6.6647	7.1624	7.1971	8.43
9.5239	10.7943	13.1094	10.502	12.4235	14.947	12.3425	12.2094	14.1454	12.6956	11.2805	11.4657	11.5409	-0.6974	1.8261	1.2965	1.3515	6.7254	7.1277	7.2406	8.3894
9.5036	10.7567	13.0544	10.5425	12.3715	14.8834	12.3801	12.2065	14.0991	12.7361	11.3094	11.4917	11.6075	-0.709	1.7913	1.3457	1.418	6.818	7.1074	7.3042	8.3923
9.4284	10.719	13.0023	10.5946	12.357	14.8573	12.4293	12.2326	14.0962	12.7911	11.3586	11.5467	11.6769	-0.7582	1.7624	1.4093	1.4846	6.8991	7.0959	7.3621	8.4242
9.4052	10.6698	12.9271	10.6264	12.3194	14.8342	12.4959	12.247	14.1194	12.8374	11.3933	11.5843	11.7406	-0.7871	1.7392	1.4701	1.5482	6.9714	7.0843	7.4055	8.4184
9.3618	10.6293	12.875	10.6641	12.2789	14.7994	12.5682	12.2499	14.102	12.8808	11.4078	11.6133	11.7753	-0.8277	1.6958	1.499	1.6293	6.9888	7.0843	7.4316	8.4271
9.2837	10.557	12.7766	10.693	12.2383	14.7445	12.5943	12.247	14.0615	12.8953	11.4223	11.6248	11.7579	-0.8624	1.6264	1.5251	1.6929	6.983	7.0553	7.4345	8.4126
9.2055	10.4875	12.6956	10.693	12.1776	14.6808	12.6117	12.2268	14.0499	12.8981	11.4194	11.6161	11.7319	-0.8855	1.5251	1.5048	1.7624	6.9425	7.0004	7.4113	8.3721
9.11	10.4036	12.5769	10.6727	12.1255	14.6171	12.6174	12.2094	13.9747	12.8432	11.3673	11.5785	11.6682	-0.9347	1.447	1.4701	1.8579	6.8441	6.9512	7.365	8.32
9.0029	10.2965	12.4583	10.6351	12.0242	14.4782	12.5538	12.1284	13.8937	12.7766	11.2949	11.4946	11.538	-0.9839	1.3428	1.4209	1.9331	6.7283	6.9078	7.2782	8.2303
8.8843	10.146	12.302	10.5657	11.9374	14.3827	12.5306	12.0589	13.801	12.6869	11.2052	11.4165	11.4194	-1.0013	1.2328	1.3515	1.9708	6.5923	6.8557	7.2087	8.1492
8.7425	10.0245	12.1515	10.4702	11.8477	14.2583	12.4727	11.9547	13.6795	12.5625	11.0779	11.2805	11.2081	-1.0215	1.1228	1.2849	2.0228	6.4245	6.7833	7.0988	8.0509
8.5949	9.8856	11.9837	10.3949	11.7319	14.1078	12.3917	11.8708	13.5493	12.4235	10.939	11.1415	11.046	-1.0418	1.0621	1.2154	2.046	6.2422	6.6994	7.0062	7.9235
8.4386	9.7409	11.7927	10.2763	11.6133	13.9457	12.3136	11.7637	13.4104	12.2904	10.7827	11.0055	10.8522	-1.0389	0.955	1.0968	2.0605	6.0367	6.6097	6.8962	7.8107
8.291	9.5991	11.6104	10.1605	11.5062	13.8039	12.2181	11.6596	13.2628	12.1313	10.6351	10.8695	10.6785	-1.0563	0.9608	1.0158	2.0691	5.8631	6.5344	6.7717	7.6891
8.0798	9.4428	11.4107	10.0476	11.3788	13.6361	12.1197	11.5698	13.1181	12.0097	10.502	10.748	10.4759	-1.0447	0.8855	0.9405	2.0634	5.6952	6.4592	6.6473	7.5936
7.9409	9.2923	11.2486	9.9319	11.2544	13.4798	12.0271	11.4686	12.9792	11.8592	10.3631	10.6062	10.2936	-1.0389	0.8508	0.8537	2.046	5.5187	6.3926	6.5518	7.5039
7.7846	9.1419	11.0316	9.819	11.1271	13.2946	11.8998	11.3528	12.8605	11.7174	10.2358	10.4991	10.1403	-1.0244	0.8566	0.8045	2.0315	5.374	6.329	6.4476	7.4345
7.6023	8.9682	10.8435	9.6975	11.0084	13.1326	11.7869	11.2602	12.7072	11.5959	10.1258	10.421	9.9869	-1.0215	0.845	0.7177	1.9968	5.2438	6.2595	6.3753	7.3563
7.391	8.8091	10.6409	9.5673	10.9158	12.9589	11.6972	11.1734	12.6203	11.4772	10.0419	10.3428	9.8422	-0.9955	0.8479	0.6569	1.9505	5.0962	6.2074	6.2914	7.3158
7.2174	8.6644	10.4615	9.4631	10.8001	12.8142	11.6133	11.0895	12.5017	11.3731	9.9493	10.2647	9.6975	-0.981	0.8624	0.6135	1.9187	4.9891	6.1524	6.2132	7.255
7.0235	8.5226	10.2589	9.2981	10.6901	12.6377	11.4888	10.9853	12.3859	11.2573	9.8364	10.1837	9.5441	-0.9637	0.8161	0.5817	1.881	4.8444	6.0946	6.1351	7.174
6.8094	8.3576	10.0216	9.1795	10.5657	12.4467	11.3702	10.8956	12.247	11.1213	9.7409	10.065	9.4023	-0.9463	0.8421	0.5498	1.8463	4.7258	6.0338	6.0656	7.119
6.627	8.2216	9.8364	9.0319	10.4325	12.2499	11.2428	10.8059	12.1168	11.0026	9.6367	9.9869	9.2576	-0.9289	0.8248	0.4746	1.8116	4.6071	5.9759	6.0049	7.0727
6.41	8.0509	9.6136	8.9046	10.3255	12.0618	11.1242	10.6872	11.9721	10.8666	9.5065	9.848	9.084	-0.9087	0.8219	0.4428	1.7798	4.4682	5.9151	5.9383	7.0206
6.2074	7.9177	9.3965	8.7685	10.1952	11.8708	10.9969	10.5714	11.8187	10.7306	9.4023	9.7496	8.9335	-0.9	0.8277	0.3994	1.7421	4.3322	5.9036	5.8602	6.983
6.0078	7.773	9.1997	8.6701	10.0708	11.674	10.8753	10.4759	11.6943	10.5946	9.2894	9.6194	8.7656	-0.8826	0.7871	0.3704	1.7132	4.2077	5.8746	5.8254	6.9685
5.8168	7.6486	8.9798	8.5428	9.9319	11.4975	10.7364	10.3573	11.5322	10.4644	9.1563	9.4833	8.5718	-0.874	0.7814	0.3357	1.6929	4.0804	5.837	5.7791	6.9512
5.6229	7.5155	8.8235	8.4531	9.8046	11.3181	10.6293	10.2531	11.402	10.3428	9.029	9.3647	8.4473	-0.8508	0.7351	0.2778	1.6698	3.9675	5.8139	5.7502	6.9396
5.4348	7.3939	8.6267	8.3576	9.683	11.1415	10.5338	10.1518	11.2428	10.2155	8.9132	9.2345	8.2824	-0.845	0.7206	0.2489	1.6495	3.8605	5.8023	5.7299	6.9309
5.2611	7.2811	8.4907	8.2824	9.5904	11.0055	10.4354	10.0563	11.1358	10.1258	8.8062	9.1303	8.1435	-0.8334	0.6916	0.2431	1.6322	3.7447	5.7762	5.7502	6.9164
5.0875	7.174	8.2997	8.2303	9.4747	10.8464	10.3602	9.9637	11.0084	10.01	8.702	9.0145	8.0422	-0.8161	0.6656	0.217	1.6061	3.6492	5.7733	5.7589	6.8962
4.9254	7.0611	8.1637	8.1666	9.3849	10.7104	10.2965	9.8827	10.91	9.9753	8.6181	8.9538	7.9351	-0.79	0.6424	0.2055	1.5656	3.6058	5.7357	5.7994	6.873
4.7807	6.9772	8.0248	8.1261	9.2952	10.6264	10.2415	9.7785	10.8232	9.9145	8.4994	8.838	7.8454	-0.7727	0.5875	0.2026	1.5309	3.5566	5.6894	5.8168	6.8123
4.6418	6.8846	7.9033	8.1	9.2026	10.4875	10.1692	9.6888	10.7335	9.8364	8.4068	8.7454	7.7846	-0.7437	0.5296	0.191	1.4933	3.5421	5.6287	5.8717	6.7689
4.4827	6.8094	7.7962	8.0537	9.139	10.421	10.1316	9.6367	10.6814	9.8103	8.3402	8.7165	7.7325	-0.7293	0.463	0.1736	1.4325	3.5335	5.5766	5.8949	6.7312
4.3756	6.7081	7.6862	8.0306	9.0724	10.3139	10.0737	9.5557	10.6235	9.7814	8.2447	8.6615	7.6746	-0.7061	0.3704	0.1505	1.392	3.5421	5.5158	5.9325	6.6415
4.2569	6.6531	7.6081	7.9959	9.0145	10.2705	10.065	9.5239	10.6062	9.7727	8.1984	8.6152	7.6544	-0.6801	0.2923	0.1244	1.3283	3.5624	5.4434	5.9933	6.5923
4.1441	6.5923	7.5184	7.9698	8.9451	10.175	10.0216	9.4486	10.5396	9.7554	8.1319	8.5891	7.6254	-0.6453	0.1852	0.0984	1.2791	3.5624	5.3508	6.028	6.5142
4.0312	6.5344	7.4547	7.9496	8.9161	10.1489	10.0129	9.4399	10.5165	9.738	8.0624	8.5341	7.5936	-0.6396	0.0723	0.0521	1.2473	3.5827	5.2756	6.057	6.4389
3.9647	6.491	7.42	7.9438	8.9017	10.0997	9.9898	9.437	10.4846	9.7322	8.0306	8.5023	7.5589	-0.6077	-0.0203	0.026	1.2068	3.5942	5.209	6.0946	6.384
3.9126	6.4563	7.3679	7.9409	8.8843	10.0592	9.9522	9.411	10.4586	9.7149	7.9872	8.4444	7.5213	-0.599	-0.0839	-0.0058	1.1807	3.5653	5.128	6.0975	6.3145
3.8547	6.4042	7.3071	7.938	8.8467	10.0187	9.9637	9.3734	10.421	9.6888	7.9177	8.3547	7.4663	-0.5933	-0.1505	-0.0463	1.1634	3.545	5.0094	6.1322	6.2161
3.8026	6.3608	7.2984	7.9409	8.8554	9.9956	9.9579	9.3444	10.3631	9.6541	7.8309	8.2563	7.3708	-0.5846	-0.191	-0.055	1.1489	3.5132	4.9283	6.1409	6.1235
3.7968	6.3724	7.2811	7.964	8.8525	9.9522	9.9406	9.2894	10.3052	9.6194	7.7499	8.1492	7.284	-0.5817	-0.2431	-0.055	1.1344	3.4611	4.8155	6.1264	5.9904
3.8142	6.3377	7.2608	7.964	8.838	9.8914	9.903	9.2605	10.2415	9.5441	7.6168	7.993	7.1798	-0.5904	-0.2633	-0.0521	1.1344	3.3772	4.72	6.1004	5.8399
3.82	6.2769	7.2521	7.9669	8.812	9.819	9.874	9.1939	10.1258	9.4544	7.4663	7.8338	7.0264	-0.5817	-0.2576	-0.0174	1.1344	3.2643	4.5984	6.0627	5.675
3.8315	6.2682	7.2521	7.993	8.8264	9.764	9.8595	9.139	10.0245	9.3936	7.3418	7.6746	6.8672	-0.5788	-0.2431	-0.0145	1.1489	3.1457	4.4885	5.9904	5.4926
3.8836	6.2711	7.2521	8.0161	8.8033	9.7235	9.8595	9.0956	9.9493	9.3271	7.2116	7.5184	6.7746	-0.5904	-0.1765	0.0723	1.1489	3.0646	4.3958	5.9441	5.345
3.9762	6.2914	7.3216	8.0537	8.8293	9.7322	9.8624	9.0464	9.8653	9.2663	7.1219	7.3968	6.6705	-0.5759	-0.0868	0.1418	1.1344	2.9923	4.3206	5.9123	5.1859
4.0688	6.3029	7.365	8.0943	8.8814	9.7206	9.8769	9.0348	9.8132	9.2287	7.0409	7.2724	6.5923	-0.5759	-0.0116	0.2141	1.1315	2.8939	4.2772	5.8428	5.0614
4.173	6.3637	7.4316	8.1377	8.9364	9.7351	9.9087	9.0579	9.7959	9.1911	6.9859	7.1653	6.5287	-0.5614	0.0521	0.2894	1.1055	2.8245	4.2454	5.8139	4.9688
4.3119	6.4447	7.5155	8.1927	9.0232	9.7293	9.929	9.084	9.7727	9.1708	6.9425	7.0785	6.4592	-0.5672	0.1621	0.3994	1.0852	2.7753	4.2714	5.7705	4.9081
4.4421	6.5344	7.6283	8.2447	9.1303	9.7872	9.9898	9.1332	9.7698	9.1534	6.9396	7.0264	6.4245	-0.5354	0.2778	0.5006	1.0476	2.7318	4.3235	5.7415	4.8647
4.5666	6.5807	7.7152	8.2737	9.1939	9.8248	10.0187	9.1621	9.7612	9.1071	6.902	6.9425	6.3724	-0.5296	0.3444	0.5846	1.0389	2.6566	4.3293	5.7097	4.8126
4.691	6.6531	7.802	8.3113	9.275	9.8393	10.039	9.1997	9.7583	9.0637	6.8557	6.9107	6.3232	-0.5093	0.4283	0.6656	1.0158	2.6074	4.3611	5.6634	4.7547
4.8184	6.711	7.8888	8.3229	9.3444	9.8856	10.0505	9.2518	9.7322	9.0174	6.8065	6.8238	6.2422	-0.5035	0.5006	0.7466	0.9897	2.5611	4.3987	5.5968	4.7258
4.9196	6.766	7.9785	8.3026	9.4139	9.9261	10.039	9.2374	9.7091	8.9509	6.7631	6.7197	6.1698	-0.4891	0.5759	0.8161	0.9608	2.4685	4.4508	5.5389	4.6881
5.018	6.7862	8.0451	8.3055	9.4399	9.9116	10.0187	9.2287	9.6454	8.8438	6.6791	6.6068	6.028	-0.4862	0.6164	0.8508	0.9521	2.3499	4.4827	5.4608	4.6447
5.1338	6.8065	8.1116	8.2679	9.466	9.9174	9.9782	9.2142	9.573	8.7309	6.6184	6.4766	5.9151	-0.4717	0.6309	0.8769	0.9318	2.2312	4.5029	5.3682	4.5926
5.2119	6.8065	8.1406	8.2216	9.4544	9.8711	9.9203	9.1679	9.5036	8.5631	6.491	6.3058	5.7097	-0.463	0.6656	0.9434	0.9058	2.0807	4.5174	5.2872	4.529
5.2727	6.7949	8.1782	8.1637	9.4631	9.8364	9.8277	9.0782	9.3994	8.4097	6.3782	6.1206	5.5418	-0.4543	0.7119	1.0013	0.8942	1.9679	4.5492	5.2119	4.4566
5.3566	6.7891	8.2332	8.1348	9.4139	9.8103	9.738	8.9914	9.275	8.2245	6.219	5.9123	5.345	-0.4514	0.7264	1.0215	0.8797	1.8087	4.6042	5.1193	4.3785
5.4174	6.7689	8.2592	8.0711	9.3792	9.7467	9.6251	8.9017	9.1274	8.0537	6.0627	5.6778	5.1396	-0.4486	0.7871	1.0592	0.8682	1.664	4.5753	5.0441	4.3003
5.455	6.7399	8.2592	8.0074	9.3213	9.6859	9.5383	8.757	8.9393	7.8454	5.8746	5.4377	4.9341	-0.4746	0.7987	1.0707	0.8971	1.4933	4.5897	4.9515	4.1817
5.5245	6.7139	8.2968	7.9756	9.2634	9.6454	9.4226	8.6499	8.8033	7.6718	5.7126	5.238	4.7315	-0.4601	0.8508	1.1199	0.9058	1.3804	4.5868	4.9052	4.0949
5.5852	6.7052	8.3605	7.9611	9.2287	9.5875	9.3531	8.5573	8.6701	7.5184	5.5621	5.0383	4.5695	-0.492	0.9347	1.1489	0.9261	1.2965	4.6303	4.8791	4.0167
5.6344	6.6936	8.3634	7.938	9.1795	9.5528	9.2923	8.4849	8.5457	7.3766	5.4492	4.8386	4.4016	-0.492	0.9839	1.1923	0.9463	1.2357	4.6505	4.8791	3.9531
5.7155	6.7168	8.4328	7.9582	9.1795	9.5239	9.2316	8.3981	8.456	7.2782	5.3364	4.6823	4.309	-0.4978	1.0563	1.2531	0.9781	1.2039	4.7026	4.8878	3.9126
5.7936	6.711	8.482	7.9582	9.1448	9.5296	9.1824	8.3171	8.3431	7.1682	5.2524	4.5637	4.2164	-0.518	1.1576	1.3023	1.0129	1.2154	4.7402	4.9139	3.8692
5.8486	6.7515	8.5168	7.9843	9.1245	9.492	9.1332	8.2882	8.2476	7.093	5.1917	4.4595	4.1441	-0.5412	1.2212	1.3167	1.0534	1.2299	4.8097	4.9688	3.8807
5.8833	6.7833	8.5602	8.0103	9.1303	9.5007	9.1187	8.2505	8.1927	7.0293	5.1222	4.3553	4.1122	-0.5527	1.2704	1.3486	1.0881	1.2849	4.8704	5.0325	3.8663
5.9586	6.8209	8.6325	8.0248	9.1361	9.4891	9.0927	8.1869	8.1174	6.9656	5.0643	4.2714	4.0717	-0.5759	1.3457	1.3688	1.1257	1.3543	4.9167	5.1049	3.8547
5.9904	6.8296	8.6296	8.0451	9.11	9.4573	9.0493	8.1406	8.0219	6.8904	5.0065	4.1672	4.0023	-0.5875	1.3659	1.363	1.1634	1.4035	4.9659	5.1627	3.8286
5.973	6.7949	8.6123	8.0306	9.0377	9.3965	8.9769	8.0566	7.9033	6.7804	4.8994	4.0457	3.9357	-0.6251	1.3804	1.3659	1.2183	1.4093	5.0122	5.1888	3.8026
5.9846	6.7775	8.6007	8.0132	8.9798	9.3473	8.9248	7.9467	7.7817	6.6791	4.8097	3.9184	3.8547	-0.6396	1.3688	1.3312	1.2444	1.4325	5.0412	5.2177	3.7592
5.9441	6.7515	8.5718	7.9988	8.8901	9.246	8.838	7.828	7.6197	6.5779	4.6852	3.7766	3.7621	-0.6424	1.3659	1.3109	1.2589	1.4441	5.0441	5.2467	3.7216
5.8833	6.6762	8.4878	7.9322	8.7628	9.1332	8.728	7.6746	7.4692	6.4389	4.5319	3.5913	3.6116	-0.6482	1.2994	1.2357	1.2791	1.418	5.0209	5.2467	3.6521
5.8312	6.6126	8.4097	7.8888	8.6238	9.029	8.6499	7.5328	7.3042	6.3	4.3901	3.4061	3.4756	-0.6338	1.2878	1.1981	1.2617	1.3978	5.0094	5.264	3.5913
5.782	6.5576	8.3431	7.8512	8.5081	8.9103	8.5457	7.365	7.1017	6.164	4.228	3.218	3.3193	-0.6338	1.227	1.1402	1.2502	1.3399	4.9862	5.2872	3.5219
5.727	6.4795	8.2679	7.8136	8.3489	8.8033	8.4647	7.2116	6.9338	6.057	4.0804	3.0126	3.1746	-0.6193	1.1894	1.0881	1.1981	1.2907	4.9428	5.3074	3.4553
5.6402	6.3869	8.1927	7.7701	8.2245	8.6962	8.3923	7.0553	6.7804	5.9528	3.9184	2.8476	3.0357	-0.5846	1.1228	1.0244	1.1634	1.2473	4.9196	5.3016	3.4003
5.5997	6.3492	8.1261	7.7557	8.1029	8.6296	8.3229	6.9251	6.6589	5.8312	3.8026	2.7058	2.9055	-0.5643	1.0997	0.9724	1.1142	1.1952	4.8647	5.2785	3.3627
5.5852	6.3087	8.0943	7.7615	8.0306	8.5718	8.3026	6.8354	6.5344	5.7676	3.7216	2.5872	2.8013	-0.5412	1.0852	0.9666	1.0505	1.1315	4.8502	5.2669	3.3598
5.5708	6.3	8.0769	7.7817	7.9698	8.5226	8.2621	6.766	6.4505	5.6981	3.655	2.5206	2.7174	-0.5006	1.0852	0.9752	0.981	1.0939	4.8213	5.2756	3.3193
5.5679	6.2769	8.0943	7.8049	7.9177	8.4965	8.2447	6.7023	6.4158	5.6663	3.6145	2.4743	2.674	-0.4775	1.0881	0.981	0.9405	1.0592	4.8039	5.2756	3.2788
5.6055	6.3261	8.1319	7.8396	7.8975	8.5197	8.2563	6.6676	6.4013	5.6344	3.6347	2.483	2.6306	-0.4572	1.1315	1.0331	0.9	1.0331	4.7894	5.293	3.2875
5.6431	6.3463	8.1637	7.8946	7.8946	8.5428	8.2766	6.6907	6.4158	5.6142	3.7071	2.5032	2.6219	-0.4543	1.1981	1.0997	0.8913	1.0244	4.7865	5.2669	3.2817
5.701	6.4505	8.2274	7.9669	7.9698	8.6152	8.3142	6.737	6.4592	5.6634	3.7823	2.5785	2.6421	-0.4486	1.2617	1.1315	0.8711	1.0244	4.7836	5.2756	3.3135
5.7589	6.52	8.3084	8.0364	8.0017	8.6586	8.346	6.8094	6.5171	5.6634	3.9039	2.6653	2.6508	-0.4514	1.3283	1.2241	0.8826	1.0331	4.7836	5.2698	3.328
5.8457	6.5894	8.3865	8.1174	8.0972	8.7541	8.4068	6.8933	6.6242	5.6981	4.0341	2.7955	2.6942	-0.4514	1.3891	1.2704	0.9	1.0476	4.801	5.2785	3.3772
5.9325	6.7168	8.4763	8.184	8.1464	8.8033	8.4242	6.9859	6.6936	5.7213	4.1643	2.9084	2.7203	-0.4746	1.5251	1.3717	0.9289	1.0187	4.7865	5.2264	3.4061
6.0106	6.8065	8.5689	8.2274	8.2129	8.8785	8.4734	7.0611	6.7746	5.7126	4.2627	3.0097	2.7174	-0.492	1.6003	1.4151	0.9666	0.981	4.7836	5.1975	3.4119
6.0801	6.8672	8.6528	8.2882	8.2534	8.9103	8.4676	7.1364	6.8296	5.7097	4.3495	3.0936	2.7	-0.518	1.6785	1.4962	1.0273	0.9232	4.7489	5.1164	3.3974
6.1669	6.9454	8.7107	8.3055	8.2968	8.9566	8.4763	7.1943	6.8875	5.6663	4.4335	3.1486	2.6537	-0.5614	1.7826	1.5511	1.0997	0.8508	4.7084	5.0325	3.3772
6.2479	7.0235	8.7541	8.3229	8.3663	8.9566	8.4415	7.2521	6.9049	5.6315	4.4942	3.1804	2.5958	-0.599	1.8753	1.5916	1.1778	0.7785	4.665	4.9428	3.3511
6.2971	7.0611	8.8091	8.3287	8.3663	8.9682	8.4328	7.2811	6.9078	5.5737	4.5319	3.1949	2.509	-0.6309	1.9389	1.6466	1.256	0.6685	4.6129	4.8473	3.2817
6.3608	7.1132	8.8322	8.3345	8.3894	8.9595	8.4039	7.3245	6.8904	5.4926	4.5666	3.192	2.4222	-0.6859	2.0228	1.6958	1.3457	0.5788	4.5463	4.7315	3.2499
6.4013	7.119	8.8814	8.3258	8.3923	8.9161	8.3634	7.3361	6.873	5.4261	4.5926	3.1804	2.3354	-0.7351	2.0749	1.7421	1.4354	0.4775	4.4798	4.6158	3.1775
6.4505	7.1624	8.9277	8.3402	8.43	8.9306	8.3576	7.3737	6.8701	5.3769	4.6129	3.1978	2.263	-0.7698	2.1675	1.8029	1.5077	0.3878	4.4364	4.5521	3.137
6.5026	7.148	8.9653	8.3316	8.43	8.9103	8.3258	7.4055	6.8615	5.3364	4.6187	3.1949	2.1965	-0.8016	2.2225	1.881	1.5888	0.3068	4.3611	4.4653	3.082
6.5721	7.1943	9.0261	8.3634	8.456	8.8959	8.346	7.4345	6.8644	5.3074	4.6476	3.2151	2.1473	-0.8306	2.292	1.9447	1.6495	0.2228	4.3611	4.4306	3.0386
6.6705	7.2261	9.0782	8.3981	8.4994	8.919	8.375	7.501	6.8904	5.2959	4.6679	3.2296	2.1154	-0.8595	2.347	2.0084	1.7045	0.1823	4.3351	4.4103	3.0183
6.7631	7.2637	9.1361	8.4531	8.537	8.9248	8.3952	7.5386	6.9049	5.3219	4.6997	3.2585	2.1097	-0.8826	2.4367	2.1068	1.7335	0.1534	4.3438	4.3987	3.0097
6.8354	7.2869	9.2113	8.5081	8.5718	8.9451	8.4473	7.5965	6.9309	5.3335	4.7258	3.3077	2.1241	-0.8971	2.4801	2.1878	1.7595	0.1187	4.3495	4.4277	3.0068
6.8875	7.2898	9.2518	8.5428	8.5833	8.9335	8.4792	7.6081	6.9396	5.3277	4.7315	3.3164	2.0923	-0.9029	2.5003	2.2544	1.7769	0.0926	4.3322	4.4682	2.9663
6.9656	7.3129	9.33	8.6065	8.5862	8.9248	8.5283	7.6428	6.9164	5.3479	4.7171	3.3338	2.0836	-0.8971	2.538	2.3151	1.7595	0.0434	4.3351	4.5203	2.9489
7.0004	7.2811	9.3415	8.6412	8.566	8.9277	8.5602	7.6168	6.8962	5.3682	4.6794	3.3193	2.0605	-0.8797	2.5409	2.3585	1.7161	0.0116	4.3293	4.584	2.92
7.0553	7.2348	9.3444	8.6644	8.511	8.8756	8.5718	7.5618	6.8354	5.3479	4.6013	3.2556	1.9939	-0.8566	2.5061	2.4135	1.6814	-0.055	4.3235	4.61	2.8765
7.064	7.1943	9.3415	8.6673	8.456	8.8091	8.5891	7.4894	6.7399	5.3161	4.4711	3.1399	1.91	-0.8363	2.4945	2.4685	1.6437	-0.1447	4.2917	4.6505	2.8505
7.1306	7.1219	9.3444	8.7049	8.375	8.7599	8.5862	7.4316	6.656	5.2872	4.338	3.027	1.8087	-0.7958	2.4859	2.5409	1.5627	-0.2402	4.2917	4.7026	2.8216
7.1277	7.0467	9.3039	8.6933	8.2621	8.6499	8.5718	7.284	6.5142	5.2235	4.1672	2.8563	1.6814	-0.7524	2.4367	2.5437	1.4846	-0.3415	4.2569	4.746	2.7203
7.1451	6.9685	9.2808	8.7251	8.155	8.5689	8.5833	7.1537	6.3637	5.1251	3.9675	2.6711	1.5511	-0.709	2.4309	2.6335	1.3833	-0.4804	4.2425	4.7836	2.6508
7.1335	6.8875	9.22	8.7165	8.0017	8.4126	8.5168	6.9743	6.193	5.0267	3.736	2.4511	1.3515	-0.6569	2.4135	2.6537	1.282	-0.6251	4.2135	4.8039	2.5524
7.1219	6.766	9.1476	8.6904	7.8309	8.2853	8.4647	6.7862	6.002	4.9139	3.4872	2.2109	1.1691	-0.6019	2.4077	2.7058	1.1836	-0.7871	4.1499	4.8155	2.4511
7.1161	6.656	9.0753	8.6557	7.6891	8.1521	8.4213	6.5865	5.8168	4.8068	3.2209	1.9621	1.0013	-0.5469	2.4019	2.7434	1.0823	-0.9318	4.118	4.8444	2.3412
7.0901	6.575	9.0001	8.647	7.5473	8.0248	8.3576	6.3897	5.6084	4.6563	2.9518	1.6843	0.7785	-0.518	2.4482	2.8071	1.0042	-1.0939	4.0515	4.8328	2.1878
7.0959	6.4939	8.9306	8.6007	7.3824	7.8917	8.2824	6.1843	5.4058	4.5463	2.6798	1.4296	0.5875	-0.4717	2.4454	2.8447	0.9232	-1.2762	4.0081	4.8386	2.0663
7.064	6.4071	8.8496	8.566	7.2087	7.7615	8.21	5.9991	5.2177	4.4016	2.4164	1.1981	0.4051	-0.4312	2.4859	2.9257	0.8537	-1.4093	3.927	4.8155	1.9476
7.0959	6.3695	8.8062	8.537	7.1248	7.6602	8.1608	5.8399	5.0759	4.3264	2.2023	0.9666	0.2605	-0.3907	2.5206	2.9865	0.7756	-1.5627	3.9155	4.8097	1.8347
7.0843	6.2943	8.728	8.4994	6.9888	7.5357	8.0972	5.6576	4.8936	4.1933	1.9679	0.7669	0.0984	-0.3675	2.5582	3.0386	0.7206	-1.7103	3.8489	4.7663	1.7306
7.0785	6.2682	8.6701	8.4676	6.8875	7.4431	8.0364	5.5071	4.7576	4.0804	1.7421	0.5325	-0.0579	-0.3299	2.5958	3.0704	0.6656	-1.8492	3.7939	4.746	1.6177
7.0959	6.2335	8.6181	8.4068	6.8209	7.3447	7.9496	5.3827	4.6274	3.9762	1.5396	0.3502	-0.2141	-0.3154	2.6392	3.1457	0.6019	-1.9679	3.7505	4.6939	1.528
7.0988	6.2219	8.5746	8.375	6.7515	7.2377	7.857	5.2322	4.4682	3.8605	1.3399	0.1736	-0.3531	-0.2836	2.729	3.2036	0.5441	-2.0865	3.7216	4.6476	1.4267
7.1132	6.2016	8.5399	8.3171	6.6676	7.1595	7.7817	5.0846	4.3119	3.7245	1.1518	-0.0203	-0.4891	-0.2576	2.7984	3.2354	0.492	-2.2283	3.6637	4.6129	1.3225
7.1451	6.2161	8.4878	8.291	6.5779	7.0351	7.6775	4.9283	4.1557	3.5942	0.9492	-0.2199	-0.654	-0.2373	2.891	3.2991	0.4457	-2.3672	3.6087	4.5434	1.2125
7.1508	6.219	8.4271	8.2419	6.4852	6.9135	7.5734	4.7981	3.9791	3.464	0.7351	-0.4341	-0.8421	-0.2199	2.9778	3.3425	0.3965	-2.5235	3.5508	4.4856	1.0997
7.1914	6.1756	8.3692	8.1955	6.384	6.7862	7.4547	4.6389	3.8257	3.2846	0.5151	-0.6859	-1.0505	-0.1997	3.0849	3.3743	0.3791	-2.6653	3.4872	4.3987	0.955
7.1769	6.1872	8.2882	8.1492	6.2943	6.6589	7.3361	4.4885	3.6405	3.1167	0.2749	-0.9116	-1.2473	-0.1881	3.1833	3.3598	0.356	-2.8071	3.4235	4.3351	0.8334
7.1624	6.1264	8.2071	8.0856	6.1872	6.5084	7.1769	4.3148	3.4409	2.9518	0.0695	-1.172	-1.4788	-0.1968	3.3019	3.3598	0.3646	-2.9865	3.3338	4.2048	0.7003
7.1595	6.1293	8.1174	8.048	6.0743	6.3348	7.0322	4.1354	3.2383	2.7579	-0.1765	-1.4383	-1.7074	-0.2113	3.4061	3.3454	0.3907	-3.1341	3.2643	4.0978	0.5672
7.1219	6.0859	8.0393	7.9756	5.9643	6.1872	6.9193	3.982	3.027	2.5611	-0.4051	-1.6987	-1.9216	-0.2199	3.4987	3.3251	0.408	-3.2817	3.1891	3.9936	0.4601
7.119	6.0714	7.9669	7.9525	5.8891	6.057	6.8065	3.846	2.8476	2.4048	-0.5817	-1.9244	-2.0836	-0.2228	3.6145	3.3222	0.4312	-3.3714	3.1312	3.9184	0.3646
7.0814	6.0309	7.883	7.9235	5.811	5.9123	6.6965	3.7216	2.6624	2.263	-0.7582	-2.1531	-2.263	-0.2431	3.736	3.3106	0.463	-3.464	3.0762	3.8026	0.2518
7.0727	6.0251	7.828	7.9206	5.7647	5.8341	6.6415	3.629	2.5351	2.1473	-0.8855	-2.3122	-2.3701	-0.2518	3.8229	3.2962	0.4862	-3.5248	3.0444	3.7563	0.2084
7.0582	6.0338	7.7528	7.9091	5.7444	5.727	6.5547	3.5884	2.4569	2.0691	-0.9579	-2.3875	-2.4396	-0.2605	3.9415	3.3222	0.5093	-3.5364	3.0415	3.7071	0.1678
7.0293	6.057	7.7267	7.9351	5.7473	5.6721	6.546	3.5682	2.399	2.0199	-0.9984	-2.4598	-2.4627	-0.2807	4.0544	3.328	0.5412	-3.5161	3.0212	3.6839	0.1592
7.0409	6.0975	7.7123	7.9814	5.8052	5.6518	6.546	3.6029	2.3904	2.0084	-0.9405	-2.4656	-2.4367	-0.2778	4.1643	3.3917	0.5527	-3.4495	3.0531	3.6695	0.2199
7.0525	6.1959	7.7036	8.0335	5.8775	5.6894	6.5721	3.6666	2.4367	2.0634	-0.845	-2.4077	-2.3556	-0.2807	4.2598	3.4698	0.5527	-3.3656	3.0936	3.6782	0.2865
7.0669	6.2364	7.7094	8.1	5.9586	5.7213	6.6039	3.7505	2.4859	2.1154	-0.7727	-2.3499	-2.2891	-0.2923	4.3524	3.5074	0.5585	-3.2585	3.1225	3.6782	0.3502
7.0756	6.2971	7.7412	8.1406	6.0541	5.756	6.6705	3.8692	2.5785	2.1762	-0.654	-2.2746	-2.1907	-0.2894	4.4682	3.5682	0.5614	-3.1573	3.1573	3.6926	0.4225
7.0727	6.3724	7.7441	8.1984	6.1409	5.7878	6.7312	3.9531	2.645	2.2515	-0.5441	-2.1762	-2.0749	-0.2749	4.5203	3.6174	0.5383	-3.0589	3.1891	3.7013	0.5151
7.0843	6.3984	7.7296	8.2853	6.2045	5.8573	6.7949	4.0312	2.7232	2.3093	-0.437	-2.0923	-1.9765	-0.2749	4.5897	3.6984	0.5325	-2.9865	3.192	3.7042	0.5498
7.0467	6.3869	7.6891	8.2882	6.2479	5.8631	6.8094	4.0891	2.7897	2.3585	-0.3444	-2.0228	-1.9187	-0.2662	4.6274	3.6868	0.5151	-2.9344	3.1659	3.6608	0.5875
6.9801	6.384	7.6544	8.3084	6.2798	5.8949	6.8412	4.1614	2.8505	2.3875	-0.2633	-1.9563	-1.8261	-0.2605	4.6679	3.7418	0.4978	-2.8765	3.1457	3.6608	0.6048
6.9396	6.3579	7.6168	8.3489	6.2885	5.8717	6.8644	4.1788	2.8621	2.4106	-0.217	-1.9273	-1.7971	-0.2547	4.7026	3.8055	0.4862	-2.8621	3.1196	3.6521	0.5788
6.8528	6.2827	7.5386	8.3171	6.2364	5.8515	6.8615	4.1904	2.8881	2.4251	-0.1678	-1.9302	-1.7682	-0.2402	4.72	3.8402	0.4746	-2.8505	3.0502	3.6261	0.518
6.766	6.2103	7.4605	8.3055	6.219	5.8341	6.8528	4.2048	2.8708	2.428	-0.1534	-1.9621	-1.7624	-0.2402	4.7547	3.8778	0.4572	-2.8302	2.9691	3.5971	0.4891
6.6936	6.1235	7.3679	8.2882	6.164	5.7965	6.8528	4.1846	2.8331	2.4019	-0.1302	-1.965	-1.7942	-0.2286	4.7518	3.9357	0.4312	-2.8158	2.8968	3.5682	0.4196
6.5865	5.9991	7.2724	8.239	6.0888	5.7473	6.8354	4.1585	2.7984	2.4222	-0.1302	-2.0055	-1.7711	-0.2199	4.7489	3.9791	0.4167	-2.8013	2.8129	3.545	0.3444
6.4505	5.892	7.148	8.1724	5.9962	5.6923	6.8123	4.1354	2.7695	2.3759	-0.136	-2.0373	-1.7653	-0.2084	4.7518	4.0312	0.3965	-2.7984	2.7463	3.5277	0.2894
6.3724	5.8168	7.0698	8.1464	5.9586	5.6576	6.8209	4.1151	2.7666	2.399	-0.0781	-2.0142	-1.7479	-0.1852	4.7894	4.1065	0.3473	-2.7347	2.7029	3.5479	0.2633
6.2769	5.7328	7.0033	8.1174	5.892	5.6171	6.818	4.1441	2.7521	2.4077	-0.0289	-1.9765	-1.6929	-0.1707	4.8241	4.1846	0.3212	-2.6913	2.6884	3.5624	0.2518
6.2074	5.646	6.9309	8.0972	5.8399	5.5795	6.8152	4.1296	2.7434	2.428	0.0174	-1.9447	-1.6466	-0.1592	4.7807	4.2425	0.2981	-2.6248	2.6566	3.5942	0.2373
6.164	5.6084	6.9135	8.1058	5.8341	5.5939	6.8672	4.1788	2.7839	2.5061	0.1244	-1.8637	-1.554	-0.1273	4.8213	4.3669	0.246	-2.5293	2.6913	3.6521	0.272
6.1322	5.565	6.8615	8.1174	5.7907	5.591	6.8991	4.202	2.7897	2.5148	0.2199	-1.8145	-1.4875	-0.1129	4.856	4.4942	0.2055	-2.4511	2.6855	3.6926	0.301
6.1033	5.5303	6.8557	8.129	5.7965	5.5592	6.9396	4.2338	2.8158	2.5785	0.3096	-1.7277	-1.4035	-0.0955	4.8965	4.5753	0.1678	-2.373	2.7232	3.7794	0.3357
6.0627	5.5013	6.8065	8.1637	5.7618	5.5679	6.9714	4.2569	2.8302	2.6219	0.382	-1.6843	-1.3688	-0.0695	4.9283	4.7055	0.1215	-2.3007	2.729	3.8113	0.356
6.0454	5.4579	6.7717	8.1492	5.7126	5.5418	6.9714	4.2251	2.8129	2.6421	0.4138	-1.6698	-1.3341	-0.0579	4.9544	4.8213	0.1071	-2.2283	2.7174	3.8692	0.3704
6.0309	5.4463	6.7602	8.1753	5.6692	5.4984	6.9772	4.2309	2.8042	2.6653	0.4572	-1.6553	-1.2878	-0.0405	4.9949	4.9428	0.0695	-2.1675	2.7087	3.9068	0.356
6.0338	5.3971	6.7139	8.1608	5.5795	5.429	6.9396	4.1296	2.7145	2.6074	0.4109	-1.6785	-1.2936	-0.0289	5.0151	5.073	0.0463	-2.156	2.6595	3.9386	0.2923
6.0078	5.3364	6.6734	8.1666	5.484	5.3422	6.8962	4.037	2.6277	2.5929	0.3473	-1.7421	-1.3457	-0.0318	5.0643	5.1888	0.026	-2.1589	2.6364	3.9704	0.2344
5.9643	5.2785	6.601	8.1492	5.3769	5.2669	6.8615	3.9212	2.4974	2.5119	0.2315	-1.8666	-1.4325	-0.0174	5.0846	5.2901	0.0289	-2.1878	2.5495	3.9212	0.1158
5.973	5.183	6.5547	8.1203	5.2495	5.1569	6.8007	3.765	2.3383	2.4077	0.0926	-2.0084	-1.5569	-0.0347	5.0991	5.3769	0.055	-2.2775	2.4627	3.8894	0.0087
5.9238	5.0962	6.4534	8.0914	5.1077	5.0065	6.682	3.5624	2.1357	2.2457	-0.0868	-2.2109	-1.7219	-0.0492	5.1222	5.4463	0.0984	-2.3846	2.3643	3.8576	-0.1244
5.9094	5.0325	6.3897	8.0653	4.9775	4.882	6.5836	3.4003	1.9592	2.1154	-0.2576	-2.3875	-1.8897	-0.081	5.1483	5.5534	0.1476	-2.4743	2.2572	3.8142	-0.2749
5.8717	5.0036	6.3116	8.0306	4.8531	4.7605	6.4881	3.2354	1.7653	1.9736	-0.4341	-2.5843	-2.0605	-0.0984	5.183	5.6344	0.1997	-2.59	2.1791	3.7389	-0.4225
5.8891	4.9428	6.219	8.0161	4.7373	4.6389	6.3869	3.0878	1.5945	1.8261	-0.6222	-2.7782	-2.2399	-0.1476	5.2669	5.7299	0.2778	-2.7405	2.1068	3.6695	-0.5556
5.892	4.9312	6.1872	7.9988	4.6563	4.5608	6.3116	2.946	1.4383	1.6958	-0.7582	-2.9315	-2.3904	-0.1939	5.2959	5.7647	0.3675	-2.8331	2.0576	3.6116	-0.6801
5.9094	4.9139	6.1322	7.9988	4.6013	4.4856	6.2364	2.8331	1.3225	1.5656	-0.9058	-3.0675	-2.5437	-0.2547	5.4029	5.8283	0.4746	-2.9489	2.0228	3.5508	-0.7785
5.9238	4.9225	6.1004	8.0045	4.5897	4.4248	6.1756	2.7376	1.2212	1.4585	-1.0042	-3.1978	-2.6827	-0.2807	5.455	5.9123	0.5469	-3.0502	2.0055	3.4785	-0.8508
5.9672	4.9544	6.1033	8.0306	4.5868	4.3987	6.1148	2.674	1.1315	1.3717	-1.0852	-3.3106	-2.7984	-0.3328	5.5158	5.9296	0.6569	-3.1601	2.0055	3.4235	-0.9029
6.0135	4.992	6.0946	8.0509	4.6042	4.3698	6.0598	2.6566	1.0852	1.2617	-1.1142	-3.3598	-2.9315	-0.382	5.5823	5.9933	0.7495	-3.2499	2.0171	3.3511	-0.9463
6.0425	5.018	6.0975	8.0798	4.6418	4.3553	6.0338	2.6306	1.0244	1.1952	-1.1662	-3.4351	-3.0183	-0.4051	5.6258	5.9615	0.819	-3.3714	2.0431	3.2788	-0.9666
6.1033	5.0557	6.1177	8.1116	4.6737	4.3409	6.0078	2.6392	1.0187	1.0939	-1.1691	-3.4785	-3.1254	-0.4486	5.7155	5.9701	0.8826	-3.4843	2.0981	3.2209	-0.9752
6.1524	5.0962	6.1438	8.129	4.7431	4.3409	5.9817	2.6537	1.0129	1.0302	-1.201	-3.5277	-3.2325	-0.4804	5.7502	5.9209	0.9289	-3.5971	2.1473	3.137	-0.9579
6.1814	5.1512	6.1264	8.1492	4.7952	4.3553	5.9267	2.6682	0.9897	0.9347	-1.2097	-3.5653	-3.3685	-0.4804	5.7965	5.866	0.9347	-3.736	2.2167	3.0618	-0.9289
6.2161	5.1598	6.1467	8.1406	4.8386	4.3148	5.8862	2.6711	0.955	0.8624	-1.2444	-3.6347	-3.4958	-0.4775	5.7994	5.782	0.9492	-3.8547	2.2862	2.9894	-0.9087
6.2393	5.1859	6.1611	8.1319	4.8936	4.3003	5.8168	2.6798	0.9232	0.7351	-1.282	-3.7013	-3.6579	-0.4775	5.8168	5.6923	0.9434	-4.0283	2.3643	2.8997	-0.8537
6.2682	5.2061	6.1351	8.1145	4.9428	4.2917	5.7733	2.6942	0.8942	0.6511	-1.3167	-3.8026	-3.8257	-0.4833	5.8023	5.6171	0.9434	-4.2425	2.4569	2.781	-0.8132
6.2653	5.1946	6.1148	8.0595	4.9717	4.2656	5.7039	2.7116	0.8363	0.5267	-1.3543	-3.8605	-4.0081	-0.4833	5.7705	5.5013	0.9434	-4.4045	2.5235	2.6769	-0.8016
6.2769	5.1801	6.1119	8.0219	5.0007	4.2396	5.6344	2.7203	0.8103	0.3965	-1.4064	-3.9444	-4.1933	-0.4978	5.7589	5.4174	0.9666	-4.6013	2.6103	2.5698	-0.7727
6.2566	5.1859	6.0917	7.964	5.0065	4.1991	5.5563	2.6942	0.7495	0.246	-1.4643	-4.0399	-4.3814	-0.5006	5.7733	5.3653	0.9868	-4.8126	2.6798	2.4714	-0.7756
6.2508	5.1743	6.0656	7.9148	5.047	4.1759	5.5071	2.7261	0.7322	0.1418	-1.4962	-4.0862	-4.5087	-0.5151	5.7444	5.3103	1.0158	-4.9717	2.7695	2.3759	-0.7669
6.2422	5.1743	6.057	7.8425	5.0875	4.1701	5.4492	2.7434	0.7206	0.055	-1.5453	-4.1383	-4.665	-0.5469	5.7589	5.2698	1.0707	-5.128	2.8563	2.2891	-0.7351
6.2769	5.2004	6.057	7.7759	5.1396	4.1817	5.3971	2.8129	0.7119	-0.0232	-1.5193	-4.1296	-4.7721	-0.5701	5.7444	5.2495	1.117	-5.2843	2.9402	2.2196	-0.7206
6.2537	5.238	6.0714	7.7788	5.2264	4.1991	5.3942	2.8939	0.7408	-0.0781	-1.4933	-4.0949	-4.8502	-0.5933	5.7444	5.2495	1.1605	-5.3827	3.0762	2.1675	-0.709
6.2798	5.2611	6.0859	7.747	5.3103	4.2396	5.3537	2.9778	0.7929	-0.0868	-1.4556	-4.037	-4.8994	-0.6019	5.7762	5.2756	1.1865	-5.4811	3.1978	2.1357	-0.6743
6.3116	5.2987	6.1206	7.7528	5.4116	4.2801	5.3508	3.1023	0.8884	-0.1013	-1.3949	-3.9444	-4.9341	-0.6251	5.811	5.3277	1.2241	-5.5621	3.3193	2.1241	-0.6424
6.3	5.3248	6.1206	7.7238	5.4869	4.3322	5.3508	3.1804	0.9666	-0.1013	-1.3399	-3.8663	-4.9746	-0.6338	5.7907	5.3132	1.2502	-5.6026	3.4438	2.0836	-0.6222
6.3174	5.374	6.1756	7.7181	5.591	4.3987	5.3827	3.3309	1.0997	-0.0839	-1.2531	-3.736	-4.9399	-0.6367	5.8139	5.345	1.2704	-5.6373	3.5653	2.0923	-0.5875
6.3029	5.3653	6.2132	7.7007	5.675	4.4248	5.374	3.4061	1.1547	-0.081	-1.2125	-3.6434	-4.9804	-0.6685	5.7647	5.3364	1.3109	-5.7039	3.6405	2.0518	-0.6019
6.3174	5.4087	6.2451	7.6891	5.7733	4.5261	5.4029	3.5277	1.2791	-0.0637	-1.1576	-3.5277	-4.9399	-0.6685	5.7647	5.3248	1.3109	-5.7155	3.7274	2.0634	-0.6222
6.3058	5.4087	6.2479	7.6486	5.8196	4.5319	5.374	3.5827	1.3949	-0.0405	-1.1199	-3.4119	-4.911	-0.6772	5.7589	5.2901	1.337	-5.7213	3.7881	2.0344	-0.6685
6.2798	5.4058	6.2914	7.6544	5.8486	4.5926	5.3942	3.6434	1.4585	-0.0492	-1.1199	-3.3425	-4.9341	-0.7003	5.7299	5.2409	1.3688	-5.782	3.8257	2.0257	-0.7235
6.2624	5.3798	6.2885	7.582	5.8544	4.6013	5.3624	3.6926	1.5251	-0.0376	-1.1489	-3.273	-4.911	-0.7061	5.7184	5.2177	1.3949	-5.7849	3.8286	1.991	-0.8277
6.2103	5.3248	6.2624	7.5473	5.8428	4.6303	5.3422	3.6839	1.5772	-0.0434	-1.1923	-3.218	-4.9341	-0.7322	5.6778	5.1569	1.4383	-5.8254	3.7997	1.9447	-0.9608
6.1322	5.2756	6.2595	7.4808	5.8052	4.6245	5.2959	3.6637	1.5974	-0.0579	-1.2675	-3.192	-4.9631	-0.7466	5.6344	5.0788	1.4614	-5.8746	3.7766	1.9158	-1.1142
6.1004	5.2061	6.2219	7.4345	5.7502	4.6303	5.2814	3.6058	1.6119	-0.0868	-1.3804	-3.2036	-5.0036	-0.7582	5.6287	5.0383	1.4875	-5.9151	3.6926	1.855	-1.2791
6.0078	5.0817	6.1698	7.3476	5.6778	4.6013	5.2148	3.5421	1.6003	-0.1071	-1.4643	-3.2093	-5.0209	-0.7785	5.5852	4.9659	1.5193	-5.9615	3.6319	1.7942	-1.4817
5.9441	5.0094	6.1148	7.2753	5.5679	4.584	5.1483	3.4785	1.6293	-0.1534	-1.6177	-3.2325	-5.0759	-0.8074	5.5389	4.8415	1.5743	-6.0164	3.5103	1.7219	-1.6669
5.8804	4.911	6.0598	7.2058	5.4782	4.5695	5.1193	3.3946	1.6408	-0.1736	-1.7132	-3.2238	-5.0701	-0.8074	5.5129	4.7518	1.6003	-6.0425	3.4293	1.69	-1.8347
