"FZ"	"FC3"	"FCZ"	"FC4"	"C3"	"CZ"	"C4"	"CP3"	"CPZ"	"CP4"	"P3"	"PZ"	"P4"	"OZ"	"FP1"	"FP2"	"A2"	"P8"	"TP7"	"TP8"	"P7"
-1.9825	-2.0902	-2.201	-2.011	-2.0997	-2.3214	-1.8305	-2.1693	-2.619	-1.9508	-2.2168	-2.3499	-1.3048	0.3135	-1.9382	-1.9825	-0.6207	-0.1362	-1.5265	-0.5352	-0.9944
-1.9572	-2.0047	-2.1092	-1.9793	-2.0173	-2.1978	-1.7576	-2.0743	-2.4987	-1.8431	-2.1345	-2.2675	-1.2256	0.3167	-1.9793	-1.9572	-0.6239	-0.0887	-1.5043	-0.4465	-0.9152
-1.8938	-1.935	-2.011	-1.9318	-1.9287	-2.1028	-1.6785	-1.9983	-2.3467	-1.7165	-2.0712	-2.1377	-1.1306	0.3167	-1.9888	-1.9382	-0.6334	0.0127	-1.4663	-0.4212	-0.8582
-1.859	-1.8938	-1.9635	-1.8843	-1.8558	-2.0078	-1.6088	-1.9255	-2.2358	-1.5993	-1.9793	-2.0585	-1.0641	0.304	-1.9983	-1.935	-0.608	0.057	-1.4504	-0.399	-0.8202
-1.8273	-1.8336	-1.9192	-1.8431	-1.7988	-1.9287	-1.5581	-1.859	-2.1472	-1.5455	-1.9192	-1.992	-1.0229	0.304	-2.0522	-1.9603	-0.5954	0.1013	-1.4124	-0.3674	-0.7981
-1.7861	-1.783	-1.8526	-1.7766	-1.7608	-1.8463	-1.4885	-1.7766	-2.03	-1.4409	-1.8336	-1.9223	-0.9406	0.2819	-2.087	-2.0015	-0.57	0.1362	-1.3903	-0.3325	-0.7221
-1.8083	-1.7386	-1.8178	-1.7323	-1.7323	-1.802	-1.4219	-1.745	-1.9445	-1.3554	-1.7798	-1.8653	-0.9152	0.2755	-2.1155	-2.0933	-0.5479	0.1742	-1.3776	-0.342	-0.6809
-1.7956	-1.7355	-1.802	-1.6816	-1.7038	-1.7386	-1.3966	-1.7165	-1.8748	-1.2889	-1.7165	-1.783	-0.9026	0.2597	-2.1567	-2.163	-0.5099	0.1932	-1.3491	-0.3325	-0.6429
-1.7861	-1.688	-1.783	-1.6056	-1.669	-1.6943	-1.3269	-1.6626	-1.7766	-1.2288	-1.669	-1.7481	-0.8772	0.2407	-2.1503	-2.2073	-0.4782	0.2027	-1.3079	-0.3452	-0.6017
-1.7893	-1.669	-1.7576	-1.5518	-1.65	-1.669	-1.2699	-1.612	-1.7101	-1.1749	-1.5993	-1.688	-0.8741	0.2154	-2.1883	-2.2865	-0.4402	0.1805	-1.2668	-0.342	-0.5289
-1.7766	-1.6341	-1.7513	-1.479	-1.6405	-1.6246	-1.2161	-1.5803	-1.6436	-1.1021	-1.5391	-1.6468	-0.8741	0.2058	-2.1852	-2.3404	-0.4117	0.1615	-1.2351	-0.3389	-0.4845
-1.7925	-1.612	-1.7133	-1.4219	-1.6151	-1.5708	-1.1781	-1.536	-1.5455	-1.0609	-1.4885	-1.5961	-0.8614	0.1837	-2.1947	-2.4259	-0.3769	0.1552	-1.1876	-0.3389	-0.4244
-1.7608	-1.5771	-1.6975	-1.3586	-1.6025	-1.5486	-1.1021	-1.4631	-1.4314	-1.0007	-1.3966	-1.5233	-0.8551	0.1773	-2.1662	-2.4829	-0.3579	0.1298	-1.1084	-0.3294	-0.361
-1.707	-1.5391	-1.65	-1.2889	-1.5645	-1.498	-1.0799	-1.4093	-1.3808	-0.9216	-1.2921	-1.4536	-0.8361	0.1615	-2.1408	-2.5209	-0.3484	0.1267	-1.0546	-0.3262	-0.2597
-1.7165	-1.5138	-1.6468	-1.2288	-1.5201	-1.4758	-1.0419	-1.3428	-1.2921	-0.8519	-1.2098	-1.3871	-0.8329	0.152	-2.0933	-2.5367	-0.3452	0.1077	-0.9786	-0.2819	-0.1805
-1.6595	-1.4536	-1.6278	-1.1813	-1.4916	-1.4346	-0.9596	-1.2699	-1.1908	-0.7791	-1.0989	-1.2921	-0.7981	0.1583	-2.0522	-2.5557	-0.342	0.1298	-0.9184	-0.2629	-0.1425
-1.6151	-1.4378	-1.6056	-1.1021	-1.4473	-1.3966	-0.8772	-1.1844	-1.0768	-0.6904	-1.0039	-1.2034	-0.7474	0.1742	-2.011	-2.543	-0.3547	0.1488	-0.8519	-0.1868	-0.0127
-1.5518	-1.3618	-1.5708	-1.0482	-1.4124	-1.3174	-0.8266	-1.1211	-1.0007	-0.5954	-0.8741	-1.0958	-0.7062	0.1773	-1.9223	-2.505	-0.3737	0.1615	-0.7664	-0.1678	0.0633
-1.5075	-1.3301	-1.536	-0.9786	-1.3459	-1.2636	-0.7664	-1.0356	-0.8867	-0.5352	-0.7727	-0.9976	-0.6682	0.1995	-1.84	-2.4354	-0.3927	0.1963	-0.7031	-0.0823	0.1425
-1.4314	-1.2889	-1.4948	-0.9374	-1.3174	-1.2034	-0.7189	-0.9627	-0.7886	-0.4624	-0.6587	-0.9057	-0.6239	0.1995	-1.7481	-2.3309	-0.4022	0.2122	-0.6207	-0.038	0.2122
-1.3998	-1.2794	-1.4821	-0.8804	-1.3111	-1.1654	-0.6492	-0.8677	-0.7316	-0.4022	-0.5827	-0.8107	-0.57	0.1963	-1.6785	-2.2643	-0.4149	0.2312	-0.5795	0.0158	0.2914
-1.3523	-1.2699	-1.479	-0.8551	-1.2794	-1.1686	-0.6175	-0.8519	-0.6651	-0.3325	-0.5067	-0.7506	-0.5574	0.2249	-1.5613	-2.1187	-0.4339	0.2439	-0.5257	0.0823	0.3547
-1.2763	-1.2319	-1.4156	-0.8171	-1.2478	-1.1179	-0.5574	-0.7791	-0.5764	-0.2565	-0.418	-0.6777	-0.513	0.228	-1.4726	-1.9667	-0.4497	0.2534	-0.5004	0.1298	0.3705
-1.2319	-1.1939	-1.4093	-0.7791	-1.2319	-1.0958	-0.5099	-0.7791	-0.5384	-0.2249	-0.3737	-0.6366	-0.513	0.2217	-1.3396	-1.8368	-0.4592	0.2565	-0.4624	0.1678	0.4117
-1.1939	-1.1908	-1.3934	-0.7442	-1.2351	-1.0514	-0.4814	-0.7221	-0.5067	-0.1647	-0.3072	-0.5859	-0.4877	0.2344	-1.2478	-1.688	-0.456	0.2534	-0.456	0.228	0.4149
-1.1433	-1.1749	-1.3776	-0.7316	-1.2256	-1.0451	-0.418	-0.6936	-0.4845	-0.1488	-0.2755	-0.5447	-0.494	0.2185	-1.1781	-1.5613	-0.4529	0.2154	-0.4497	0.2217	0.4054
-1.0736	-1.1401	-1.3301	-0.6904	-1.2003	-0.9881	-0.38	-0.6682	-0.4529	-0.0887	-0.2534	-0.5067	-0.4909	0.1995	-1.0546	-1.4346	-0.4275	0.1868	-0.4719	0.2692	0.4117
-1.0292	-1.0894	-1.2731	-0.6397	-1.1401	-0.9342	-0.3325	-0.5954	-0.3927	-0.0475	-0.19	-0.4719	-0.4782	0.2058	-0.9691	-1.3396	-0.4275	0.2027	-0.4244	0.2787	0.4022
-0.9691	-1.0039	-1.1813	-0.5637	-1.0736	-0.8772	-0.2439	-0.532	-0.3325	0.0032	-0.1108	-0.4149	-0.4655	0.209	-0.9026	-1.2509	-0.4149	0.1773	-0.3927	0.2945	0.3927
-0.8899	-0.9311	-1.1084	-0.4814	-1.0134	-0.8076	-0.1868	-0.5004	-0.3009	0.0317	-0.0918	-0.3737	-0.4434	0.1932	-0.8329	-1.1876	-0.399	0.152	-0.399	0.2945	0.3959
-0.8266	-0.8582	-1.0292	-0.399	-0.9311	-0.7316	-0.1013	-0.4244	-0.2375	0.133	-0.0285	-0.3104	-0.4085	0.1868	-0.7791	-1.1211	-0.3769	0.133	-0.3579	0.2945	0.4022
-0.7252	-0.7347	-0.9311	-0.3135	-0.8107	-0.6302	0.0063	-0.3262	-0.1647	0.1773	0.0317	-0.2407	-0.3864	0.171	-0.6872	-1.0768	-0.361	0.1457	-0.3072	0.2977	0.4117
-0.6175	-0.627	-0.8139	-0.1963	-0.6967	-0.5194	0.076	-0.2629	-0.095	0.247	0.1108	-0.1805	-0.3452	0.1742	-0.6524	-1.0736	-0.3484	0.1457	-0.2787	0.323	0.3959
-0.5225	-0.5289	-0.7252	-0.1267	-0.5605	-0.4117	0.1837	-0.1805	-0.0127	0.2977	0.1678	-0.1077	-0.3009	0.171	-0.6017	-1.0546	-0.3262	0.1267	-0.2407	0.3262	0.3769
-0.4402	-0.4275	-0.6175	-0.0538	-0.4782	-0.3104	0.2439	-0.0918	0.076	0.3294	0.2375	-0.0443	-0.2629	0.1488	-0.5479	-1.1053	-0.3199	0.1108	-0.1963	0.3199	0.3769
-0.3357	-0.3167	-0.5004	0.0127	-0.3484	-0.19	0.3484	-0.019	0.1362	0.4022	0.2882	0.0095	-0.266	0.1552	-0.5289	-1.1781	-0.3104	0.1013	-0.1647	0.285	0.3484
-0.247	-0.1995	-0.3674	0.095	-0.2407	-0.0538	0.4212	0.1013	0.2312	0.4655	0.3832	0.1013	-0.1805	0.1615	-0.4687	-1.2351	-0.3199	0.0982	-0.1013	0.2914	0.3515
-0.1615	-0.095	-0.2407	0.1678	-0.1045	0.0443	0.4909	0.1773	0.3167	0.4972	0.4307	0.152	-0.1457	0.1678	-0.399	-1.2858	-0.3167	0.0475	-0.0697	0.2597	0.342
-0.0602	0.0127	-0.1298	0.2185	0.0063	0.1647	0.551	0.247	0.4085	0.5479	0.4877	0.2249	-0.1045	0.152	-0.361	-1.3364	-0.3072	0.0317	-0.0443	0.2439	0.3452
0.0348	0.1425	-0.0127	0.3072	0.133	0.2787	0.6334	0.3325	0.4877	0.57	0.5415	0.2914	-0.057	0.1425	-0.3104	-1.3744	-0.2977	-0.019	0.0095	0.1995	0.3199
0.1235	0.247	0.1267	0.3927	0.2375	0.4149	0.7157	0.4339	0.5922	0.6207	0.6017	0.3547	-0.019	0.1298	-0.2692	-1.3903	-0.2565	-0.0538	0.0412	0.171	0.304
0.2217	0.3737	0.2502	0.4877	0.3579	0.5225	0.7854	0.551	0.7062	0.7094	0.6777	0.4307	0.0253	0.1108	-0.1837	-1.3998	-0.2154	-0.0918	0.0728	0.1267	0.2787
0.3072	0.4592	0.38	0.5954	0.494	0.6524	0.8677	0.6144	0.7981	0.7411	0.7252	0.4972	0.0538	0.0855	-0.095	-1.3364	-0.1678	-0.1742	0.114	0.1077	0.266
0.4117	0.5479	0.5004	0.6682	0.5985	0.7569	0.9532	0.7157	0.8804	0.7822	0.7759	0.57	0.0855	0.0665	0	-1.2636	-0.114	-0.2344	0.1615	0.0697	0.2534
0.5067	0.6492	0.6175	0.7632	0.7094	0.8867	1.0166	0.7981	0.9691	0.8329	0.8424	0.6334	0.1488	0.0348	0.095	-1.1274	-0.057	-0.2945	0.2185	0.019	0.2375
0.5954	0.7157	0.7189	0.8139	0.7981	0.9849	1.0514	0.8392	1.0419	0.8456	0.8899	0.6872	0.1583	-0.0158	0.1932	-0.9976	0.0063	-0.3674	0.2502	-0.0317	0.2185
0.6651	0.7949	0.8361	0.8709	0.8962	1.0736	1.1021	0.9311	1.1021	0.8551	0.9532	0.7537	0.209	-0.0158	0.2914	-0.7791	0.057	-0.4117	0.3135	-0.0887	0.2344
0.7696	0.8519	0.9342	0.9152	0.9184	1.1528	1.1084	0.9532	1.1686	0.8614	0.9691	0.7822	0.1932	-0.0697	0.4212	-0.589	0.1393	-0.4972	0.3452	-0.1235	0.2027
0.8487	0.8836	1.0197	0.9152	0.9976	1.2193	1.0989	1.0229	1.2256	0.8519	1.0007	0.8582	0.209	-0.1077	0.5099	-0.3484	0.2027	-0.5859	0.4054	-0.1583	0.1995
0.9089	0.9026	1.0831	0.9311	1.0514	1.2636	1.0863	1.0514	1.2446	0.8202	1.0419	0.8931	0.2122	-0.1298	0.627	-0.1298	0.266	-0.6492	0.4275	-0.1932	0.2058
1.0134	0.9469	1.1908	0.9722	1.1211	1.3523	1.0831	1.1053	1.3364	0.8329	1.0641	0.9596	0.247	-0.1583	0.7347	0.1615	0.304	-0.7157	0.4909	-0.2344	0.209
1.0799	1.0071	1.2731	0.9754	1.1654	1.4283	1.0578	1.1623	1.3744	0.8076	1.1179	1.0229	0.2724	-0.1647	0.8329	0.4085	0.3389	-0.7379	0.5099	-0.2502	0.2027
1.1306	1.0134	1.3238	0.9722	1.1654	1.4283	1.0229	1.1591	1.3903	0.7791	1.1433	1.0546	0.2819	-0.19	0.9596	0.7221	0.3705	-0.7664	0.5732	-0.2597	0.1868
1.1496	0.9976	1.3428	0.9564	1.1844	1.4441	0.9691	1.1623	1.3998	0.7791	1.1369	1.1148	0.2882	-0.2058	1.0609	0.9944	0.4054	-0.8044	0.5669	-0.2819	0.1742
1.1718	1.0007	1.3586	0.9121	1.1654	1.4473	0.8741	1.1559	1.4156	0.7221	1.1369	1.1274	0.3167	-0.2122	1.1464	1.2383	0.4244	-0.7917	0.5574	-0.3167	0.1393
1.1718	0.9754	1.3713	0.8614	1.1464	1.4473	0.8171	1.1433	1.4093	0.6999	1.1148	1.1464	0.342	-0.2185	1.2066	1.4695	0.4465	-0.8361	0.5637	-0.3135	0.1108
1.1528	0.9184	1.3333	0.8424	1.0958	1.3713	0.7126	1.0704	1.3554	0.6397	1.0704	1.1528	0.3072	-0.2439	1.2763	1.669	0.4814	-0.8171	0.551	-0.3515	0.0665
1.1116	0.8646	1.3016	0.7727	1.0102	1.3111	0.6461	1.0102	1.3079	0.5859	1.0229	1.1464	0.3325	-0.2597	1.3301	1.821	0.5067	-0.8139	0.5289	-0.3452	0.0095
1.0736	0.8139	1.2478	0.7094	0.9596	1.2604	0.5479	0.9532	1.2383	0.551	0.9754	1.1464	0.3072	-0.2755	1.3998	1.9255	0.5352	-0.8076	0.5162	-0.3642	-0.0443
1.0261	0.7474	1.1749	0.6556	0.8867	1.1749	0.4814	0.8962	1.1939	0.4782	0.8994	1.1306	0.3389	-0.2692	1.4124	2.0268	0.5447	-0.7664	0.4877	-0.3484	-0.1013
0.9596	0.6714	1.1211	0.6049	0.8044	1.0989	0.4117	0.8107	1.1306	0.418	0.8614	1.0926	0.3515	-0.2787	1.4283	2.0585	0.57	-0.7189	0.4624	-0.342	-0.1678
0.9216	0.6239	1.0482	0.5732	0.7221	0.9881	0.3389	0.7221	1.0609	0.3895	0.7696	1.0451	0.361	-0.2882	1.4188	2.0712	0.5764	-0.6904	0.4149	-0.3262	-0.2407
0.8487	0.5605	0.9532	0.5447	0.627	0.8994	0.2755	0.6397	0.9817	0.3642	0.6967	1.0451	0.3927	-0.2914	1.4378	2.0617	0.5827	-0.6239	0.3674	-0.3262	-0.3009
0.8076	0.4814	0.8962	0.4845	0.5605	0.8171	0.2439	0.5542	0.8899	0.3262	0.6112	1.0197	0.4085	-0.2914	1.4188	2.0522	0.5732	-0.5605	0.3135	-0.2755	-0.3769
0.7474	0.4592	0.7727	0.4402	0.4972	0.7411	0.1868	0.4814	0.8266	0.3294	0.5542	1.0166	0.4529	-0.2692	1.3903	2.0585	0.5352	-0.4719	0.2724	-0.209	-0.4212
0.6904	0.4054	0.7474	0.4275	0.4339	0.6461	0.1362	0.4212	0.7727	0.3167	0.5004	1.0039	0.5162	-0.2565	1.3554	2.0237	0.4972	-0.3832	0.2407	-0.1583	-0.4624
0.6556	0.3769	0.6651	0.3832	0.399	0.5985	0.1203	0.3642	0.7221	0.2914	0.4814	1.0197	0.5795	-0.2185	1.3111	1.9635	0.456	-0.2565	0.2154	-0.0918	-0.5067
0.6112	0.3547	0.627	0.3864	0.3547	0.5225	0.1298	0.3104	0.6777	0.3104	0.4085	0.9944	0.627	-0.1932	1.2731	1.9128	0.3927	-0.1298	0.1647	-0.0063	-0.5542
0.589	0.3705	0.5985	0.3674	0.3325	0.5099	0.1045	0.2724	0.6334	0.3294	0.3642	0.9944	0.7031	-0.1742	1.2224	1.8621	0.3294	-0.0348	0.1488	0.0823	-0.5605
0.5732	0.3452	0.551	0.342	0.304	0.4655	0.1108	0.2565	0.589	0.3294	0.342	1.0071	0.7759	-0.1457	1.1496	1.7545	0.2914	0.1172	0.152	0.1457	-0.5922
0.5732	0.3515	0.5479	0.3674	0.3135	0.4402	0.1235	0.2249	0.5827	0.3642	0.323	1.0166	0.8614	-0.1172	1.1274	1.6753	0.2154	0.2185	0.1267	0.2344	-0.5859
0.5954	0.3832	0.57	0.4022	0.3072	0.4497	0.1678	0.2249	0.5732	0.3927	0.2882	1.0197	0.9469	-0.0823	1.1021	1.5518	0.1773	0.3515	0.1045	0.3167	-0.5795
0.589	0.4085	0.5732	0.4877	0.3357	0.4529	0.228	0.2217	0.532	0.4655	0.2597	1.0261	1.0261	-0.0602	1.0799	1.4599	0.1298	0.4529	0.1172	0.3959	-0.589
0.5985	0.456	0.608	0.5035	0.3832	0.4275	0.2724	0.209	0.5415	0.4624	0.2312	1.0229	1.0609	-0.057	1.0102	1.3618	0.1045	0.57	0.095	0.4244	-0.5605
0.6144	0.494	0.6492	0.5732	0.4307	0.4782	0.3262	0.247	0.5415	0.5035	0.209	1.0197	1.1369	-0.0412	1.0039	1.2668	0.0792	0.6492	0.1298	0.5035	-0.5257
0.6461	0.551	0.6936	0.5985	0.4687	0.4909	0.3769	0.2312	0.5352	0.532	0.1868	1.0007	1.2034	-0.0317	0.9786	1.2193	0.0633	0.7474	0.1362	0.5574	-0.4909
0.6746	0.6239	0.7126	0.6397	0.5162	0.532	0.3769	0.2565	0.5225	0.5352	0.1805	1.0071	1.2319	-0.0285	0.9722	1.1971	0.0507	0.8202	0.1425	0.608	-0.4655
0.7316	0.6841	0.7664	0.6746	0.5764	0.57	0.4149	0.2629	0.513	0.5732	0.152	0.9817	1.2383	-0.019	0.9944	1.1971	0.0348	0.8519	0.1963	0.6207	-0.4275
0.7632	0.7316	0.8456	0.6872	0.6144	0.5922	0.4339	0.3104	0.5004	0.5415	0.1425	0.9532	1.2414	-0.0095	0.9849	1.1876	0.0348	0.8741	0.2154	0.6207	-0.3705
0.8171	0.7981	0.8646	0.6587	0.6682	0.6302	0.4307	0.323	0.4909	0.532	0.1203	0.9026	1.2034	-0.0127	0.9691	1.2478	0.0285	0.8836	0.2565	0.6207	-0.3325
0.8487	0.8741	0.9247	0.6651	0.7379	0.6556	0.4149	0.3895	0.4877	0.5067	0.1267	0.8456	1.1591	-0.0063	0.9279	1.3016	0.0253	0.8772	0.3009	0.608	-0.2629
0.8709	0.9057	0.9691	0.6366	0.7949	0.6619	0.4212	0.418	0.4719	0.4592	0.1108	0.7949	1.1306	-0.0127	0.9311	1.3839	0.038	0.8456	0.3769	0.608	-0.2249
0.8994	0.9691	0.9944	0.6049	0.8487	0.6777	0.38	0.4465	0.4402	0.4275	0.1172	0.7474	1.0863	-0.0127	0.9342	1.5075	0.0348	0.8202	0.4339	0.5542	-0.1932
0.9374	1.0166	1.0261	0.6175	0.9057	0.6967	0.3705	0.5004	0.4149	0.3864	0.1235	0.6714	1.0324	-0.0317	0.9596	1.5961	0.0538	0.7981	0.513	0.532	-0.1203
0.9374	1.0609	1.0356	0.5447	0.9627	0.6967	0.3357	0.5384	0.3927	0.3135	0.1393	0.6207	0.9437	-0.0507	1.0039	1.7386	0.0728	0.7031	0.5479	0.4655	-0.0538
1.0007	1.1179	1.0768	0.532	1.0324	0.7316	0.3294	0.5985	0.3737	0.2724	0.152	0.5542	0.8772	-0.038	0.9976	1.8558	0.0918	0.6682	0.6461	0.456	0.0285
1.0039	1.1401	1.0736	0.5035	1.0831	0.6777	0.2724	0.6144	0.3452	0.1995	0.1615	0.4972	0.7886	-0.0792	1.0229	1.9667	0.1425	0.6112	0.7094	0.3674	0.0982
1.0197	1.1654	1.0863	0.4655	1.1084	0.6777	0.2407	0.6524	0.285	0.1235	0.1615	0.3927	0.6651	-0.1013	1.0863	2.0775	0.1932	0.5067	0.7917	0.3135	0.171
1.0356	1.1749	1.0609	0.437	1.1528	0.6777	0.2122	0.6841	0.2407	0.0728	0.171	0.323	0.5764	-0.114	1.1116	2.1598	0.2344	0.4244	0.8392	0.209	0.2502
1.0134	1.1844	1.0673	0.4465	1.1464	0.6239	0.1678	0.7189	0.1773	-0.0158	0.1868	0.2407	0.4624	-0.152	1.1369	2.201	0.2945	0.2977	0.8994	0.114	0.3199
1.0102	1.1686	1.0197	0.4529	1.1369	0.5985	0.1457	0.7189	0.0918	-0.1013	0.1615	0.1393	0.323	-0.19	1.1591	2.2643	0.3642	0.2027	0.9216	0.0127	0.3579
1.0007	1.1876	1.0387	0.4877	1.1591	0.5859	0.1172	0.7094	0.0253	-0.2122	0.1773	0.0475	0.2154	-0.1995	1.1749	2.2865	0.3959	0.0918	1.0007	-0.0665	0.4339
0.9944	1.1623	1.0071	0.5004	1.1528	0.5289	0.1172	0.7601	-0.0095	-0.285	0.1647	-0.0507	0.0855	-0.2249	1.2129	2.2517	0.4434	-0.0063	1.0292	-0.1583	0.5162
0.9849	1.1401	0.9754	0.5162	1.1274	0.4719	0.0887	0.7284	-0.0855	-0.3452	0.152	-0.1805	-0.0475	-0.2344	1.2034	2.1947	0.4655	-0.0982	1.0482	-0.2534	0.5605
0.9501	1.1211	0.9406	0.551	1.1021	0.4212	0.0602	0.7126	-0.1552	-0.4149	0.133	-0.2724	-0.1773	-0.2502	1.1749	2.1123	0.4909	-0.2058	1.0451	-0.3357	0.5954
0.9501	1.0736	0.9279	0.627	1.0451	0.3959	0.076	0.7189	-0.2629	-0.4782	0.1362	-0.3864	-0.266	-0.2502	1.1654	2.0078	0.513	-0.285	1.0514	-0.399	0.6397
0.9406	1.0799	0.9089	0.6682	1.0229	0.3452	0.0412	0.6904	-0.3167	-0.5447	0.1013	-0.4909	-0.3864	-0.2692	1.1528	1.9065	0.5225	-0.3864	1.0229	-0.5035	0.6651
0.9279	1.0451	0.8582	0.6967	0.9849	0.2882	0.0602	0.6809	-0.4149	-0.5954	0.0633	-0.6144	-0.5099	-0.2755	1.1179	1.7355	0.5447	-0.4719	1.0102	-0.5542	0.6999
0.8899	1.0102	0.8392	0.7696	0.9849	0.2945	0.0538	0.6556	-0.4719	-0.6492	0.0633	-0.6936	-0.6049	-0.2787	1.1211	1.6088	0.5447	-0.5225	0.9564	-0.6175	0.7284
0.8582	0.9817	0.7696	0.8107	0.9216	0.2217	0.0507	0.627	-0.5289	-0.6841	0	-0.8171	-0.7031	-0.285	1.0768	1.4631	0.5637	-0.5732	0.9026	-0.6429	0.7126
0.8329	0.9374	0.7474	0.8234	0.8836	0.1837	0.0443	0.5859	-0.6239	-0.7221	-0.0285	-0.8994	-0.8234	-0.2882	1.0007	1.2858	0.57	-0.6334	0.8931	-0.6714	0.7157
0.8202	0.9247	0.6809	0.8772	0.8582	0.152	0.0507	0.5764	-0.6587	-0.6967	-0.038	-0.9564	-0.8392	-0.285	1.0197	1.2066	0.5415	-0.6619	0.8741	-0.6872	0.7664
0.7379	0.8741	0.6239	0.9184	0.8076	0.0918	0.0475	0.5415	-0.7252	-0.7379	-0.095	-1.0578	-0.9342	-0.2724	0.9817	1.1148	0.5352	-0.7062	0.8107	-0.7347	0.7157
0.7284	0.8709	0.5669	0.9279	0.7791	0.0412	0.076	0.513	-0.7537	-0.7316	-0.114	-1.1528	-0.9596	-0.2597	0.9469	1.0958	0.4972	-0.7062	0.7727	-0.7727	0.7094
0.6777	0.8392	0.4909	0.9437	0.7347	0.0095	0.0982	0.4687	-0.8171	-0.7474	-0.1552	-1.2161	-1.0482	-0.2375	0.9311	1.0799	0.4719	-0.7379	0.7189	-0.7727	0.6904
0.5985	0.7601	0.4022	0.9311	0.6524	-0.0855	0.0887	0.4149	-0.8962	-0.7411	-0.209	-1.3048	-1.0894	-0.2375	0.9121	1.1274	0.4592	-0.7379	0.6556	-0.7664	0.627
0.5225	0.7379	0.3515	0.9057	0.6112	-0.1235	0.0855	0.3579	-0.9596	-0.7221	-0.2375	-1.3744	-1.1274	-0.2249	0.8899	1.1749	0.4402	-0.7347	0.57	-0.7664	0.5764
0.4624	0.6682	0.2534	0.8741	0.5099	-0.19	0.0602	0.3072	-1.0102	-0.7157	-0.2882	-1.4283	-1.1528	-0.2217	0.8456	1.3079	0.4212	-0.7569	0.4877	-0.7506	0.532
0.4022	0.6175	0.1742	0.8329	0.4719	-0.2344	0.057	0.266	-1.0609	-0.7221	-0.3167	-1.4631	-1.1591	-0.2058	0.8297	1.4188	0.3895	-0.7252	0.437	-0.7094	0.5067
0.2882	0.5574	0.0697	0.7632	0.3832	-0.3167	0.0665	0.1932	-1.1369	-0.7031	-0.3769	-1.5391	-1.1876	-0.2185	0.8361	1.5581	0.4054	-0.7189	0.3547	-0.6746	0.4212
0.2217	0.5067	0.0127	0.7221	0.3294	-0.3737	0.0602	0.1172	-1.1591	-0.6587	-0.4117	-1.5645	-1.2034	-0.1995	0.8044	1.6816	0.3959	-0.6714	0.2914	-0.6175	0.3674
0.1425	0.4275	-0.0855	0.6587	0.2344	-0.4275	0.0222	0.0475	-1.2003	-0.6397	-0.4465	-1.5866	-1.2003	-0.2058	0.8202	1.8463	0.3959	-0.6366	0.1995	-0.5542	0.2914
0.0697	0.3737	-0.1393	0.6334	0.1805	-0.4719	0.0317	0.0063	-1.2256	-0.6239	-0.4497	-1.6056	-1.1844	-0.2217	0.8202	1.9762	0.4054	-0.5827	0.114	-0.4845	0.2375
-0.0253	0.2977	-0.2597	0.5605	0.095	-0.5257	0.0095	-0.0475	-1.2478	-0.5827	-0.4719	-1.6151	-1.2224	-0.2185	0.7981	2.0585	0.4085	-0.5415	0.0158	-0.4022	0.1742
-0.0918	0.2154	-0.3294	0.4909	0.0222	-0.5764	0.019	-0.1108	-1.2636	-0.5605	-0.494	-1.6056	-1.2034	-0.2217	0.8202	2.1598	0.4117	-0.5225	-0.076	-0.3515	0.0918
-0.1457	0.1647	-0.4054	0.418	-0.0475	-0.6017	0.0158	-0.1552	-1.2826	-0.5415	-0.5162	-1.6183	-1.1971	-0.2027	0.8139	2.2042	0.4054	-0.4655	-0.1773	-0.2724	0.0285
-0.2154	0.095	-0.4434	0.3769	-0.0918	-0.6334	0.0063	-0.209	-1.2604	-0.4909	-0.5067	-1.5771	-1.1781	-0.1932	0.8329	2.2042	0.3705	-0.4339	-0.2439	-0.2027	-0.0348
-0.2249	0.038	-0.4814	0.3452	-0.1425	-0.6524	0.0127	-0.2217	-1.2414	-0.4244	-0.4972	-1.5676	-1.1464	-0.1647	0.8012	2.2422	0.3199	-0.3705	-0.2724	-0.1425	-0.1013
-0.2787	-0.0063	-0.513	0.304	-0.1805	-0.6239	0.0317	-0.247	-1.1876	-0.3705	-0.4719	-1.4885	-1.1053	-0.1425	0.8234	2.2232	0.2724	-0.3167	-0.3515	-0.0728	-0.1552
-0.323	-0.0253	-0.5099	0.2724	-0.2122	-0.6429	0.0507	-0.2565	-1.1433	-0.323	-0.4307	-1.4283	-1.0799	-0.114	0.8171	2.2042	0.209	-0.2597	-0.4022	-0.0127	-0.19
-0.3484	-0.057	-0.5415	0.2312	-0.2502	-0.6334	0.0538	-0.2882	-1.1084	-0.2914	-0.4149	-1.3776	-1.0324	-0.095	0.7949	2.1567	0.1647	-0.2217	-0.4497	0.0475	-0.2597
-0.3547	-0.0918	-0.5479	0.1932	-0.247	-0.6207	0.095	-0.2629	-1.0229	-0.2407	-0.3737	-1.3143	-0.9722	-0.0538	0.8076	2.1472	0.0918	-0.1805	-0.4434	0.1077	-0.2819
-0.3484	-0.095	-0.5289	0.1678	-0.2122	-0.5795	0.1045	-0.2312	-0.9342	-0.1805	-0.2819	-1.2161	-0.8962	-0.0348	0.8171	2.1408	0.0475	-0.1235	-0.456	0.1837	-0.285
-0.342	-0.0982	-0.5099	0.0918	-0.2122	-0.532	0.1172	-0.2217	-0.8551	-0.1203	-0.2439	-1.1243	-0.8551	-0.0253	0.8107	2.0648	0.0285	-0.1077	-0.4845	0.228	-0.3167
-0.38	-0.1108	-0.5162	0.0253	-0.2122	-0.5352	0.1678	-0.2058	-0.7917	-0.0665	-0.2122	-1.0324	-0.7917	-0.0095	0.7917	2.0173	0.0032	-0.0697	-0.4687	0.2787	-0.3357
-0.3769	-0.0823	-0.4877	-0.0253	-0.228	-0.5067	0.1362	-0.1647	-0.7031	-0.019	-0.1298	-0.9279	-0.7506	0.0032	0.7917	1.9667	-0.0032	-0.0095	-0.4624	0.3325	-0.3389
-0.3547	-0.0855	-0.494	-0.1077	-0.1932	-0.4497	0.1425	-0.1425	-0.6144	0.0538	-0.0918	-0.8392	-0.6777	-0.0095	0.8076	1.9033	-0.0032	0.0127	-0.4529	0.3737	-0.342
-0.3737	-0.0982	-0.4592	-0.1583	-0.19	-0.4339	0.1488	-0.1108	-0.532	0.0697	-0.0412	-0.7601	-0.6556	-0.0158	0.8202	1.84	0.0095	0.0475	-0.4339	0.4054	-0.3642
-0.3737	-0.0855	-0.4402	-0.228	-0.1868	-0.3769	0.1235	-0.1267	-0.475	0.0728	-0.0158	-0.6841	-0.608	-0.0317	0.8012	1.7861	0.0412	0.0127	-0.4529	0.4212	-0.3579
-0.3579	-0.1013	-0.418	-0.3009	-0.2154	-0.3579	0.1172	-0.1108	-0.399	0.1267	0.0412	-0.5764	-0.5732	-0.038	0.8044	1.726	0.057	0.0285	-0.4402	0.4465	-0.3515
-0.3705	-0.076	-0.4054	-0.3737	-0.2185	-0.3104	0.0823	-0.095	-0.3389	0.1267	0.0697	-0.513	-0.5574	-0.057	0.7696	1.6563	0.0887	0.0127	-0.4434	0.4592	-0.3484
-0.3674	-0.095	-0.3832	-0.4244	-0.2375	-0.285	0.0633	-0.1045	-0.2819	0.1425	0.0728	-0.4402	-0.5257	-0.0633	0.7601	1.6151	0.114	0.0127	-0.4592	0.4814	-0.3579
-0.342	-0.0918	-0.3547	-0.4909	-0.2565	-0.266	0.0443	-0.0982	-0.2154	0.1647	0.1045	-0.3674	-0.5257	-0.0665	0.7379	1.5645	0.1267	0.019	-0.4782	0.4687	-0.3452
-0.3452	-0.1108	-0.361	-0.5194	-0.2787	-0.266	0.019	-0.1235	-0.1837	0.114	0.0982	-0.3547	-0.5194	-0.0823	0.7221	1.5423	0.1488	-0.0253	-0.4814	0.4719	-0.3705
-0.3135	-0.1045	-0.342	-0.57	-0.3104	-0.2344	-0.0032	-0.1362	-0.1425	0.1108	0.1393	-0.266	-0.494	-0.0697	0.6967	1.4916	0.1678	-0.0317	-0.4972	0.4402	-0.3737
-0.3294	-0.152	-0.3262	-0.5954	-0.3579	-0.2375	-0.038	-0.19	-0.152	0.0602	0.0792	-0.2724	-0.5289	-0.0982	0.6936	1.4695	0.1932	-0.1203	-0.4909	0.399	-0.4054
-0.3167	-0.1235	-0.3389	-0.6239	-0.4085	-0.2344	-0.0697	-0.1963	-0.1172	0.0538	0.076	-0.2787	-0.5542	-0.1077	0.6587	1.4536	0.209	-0.1647	-0.513	0.3547	-0.418
-0.3452	-0.2058	-0.3547	-0.6524	-0.4909	-0.2534	-0.1013	-0.266	-0.1742	-0.0222	0.038	-0.285	-0.5732	-0.1077	0.6524	1.4314	0.2312	-0.2375	-0.5225	0.2755	-0.4307
-0.3547	-0.2217	-0.361	-0.6619	-0.532	-0.2977	-0.114	-0.3135	-0.19	-0.0665	-0.0158	-0.3104	-0.6302	-0.1298	0.6556	1.4378	0.2565	-0.3072	-0.551	0.2058	-0.4592
-0.3642	-0.2629	-0.3769	-0.6936	-0.6239	-0.361	-0.1583	-0.418	-0.2439	-0.1425	-0.0982	-0.3674	-0.6746	-0.1488	0.6524	1.3934	0.2945	-0.4117	-0.5732	0.133	-0.5225
-0.4085	-0.3262	-0.4465	-0.6904	-0.7379	-0.4022	-0.1995	-0.475	-0.2945	-0.209	-0.152	-0.4117	-0.6999	-0.1615	0.6397	1.3998	0.323	-0.4814	-0.5985	0.0507	-0.5542
-0.4212	-0.3642	-0.475	-0.7347	-0.8234	-0.4592	-0.247	-0.5764	-0.3769	-0.285	-0.2058	-0.4624	-0.7664	-0.1868	0.6619	1.4346	0.3452	-0.5764	-0.6239	-0.0665	-0.627
-0.4497	-0.4339	-0.5035	-0.7442	-0.9342	-0.513	-0.2914	-0.6682	-0.4497	-0.3895	-0.2755	-0.5194	-0.8424	-0.1932	0.7094	1.4536	0.38	-0.7062	-0.6936	-0.171	-0.6746
-0.4845	-0.4845	-0.551	-0.7601	-1.0292	-0.5859	-0.3452	-0.7442	-0.5384	-0.4592	-0.3832	-0.608	-0.9089	-0.1995	0.7221	1.5296	0.399	-0.7981	-0.7506	-0.3009	-0.7284
-0.5099	-0.5415	-0.5827	-0.8139	-1.1211	-0.6239	-0.4022	-0.8392	-0.6017	-0.5574	-0.4402	-0.6492	-0.9501	-0.2122	0.7696	1.555	0.418	-0.8867	-0.7886	-0.4117	-0.7822
-0.532	-0.6017	-0.608	-0.8202	-1.2193	-0.7189	-0.4782	-0.9216	-0.7031	-0.6556	-0.5194	-0.7284	-0.9944	-0.2249	0.8107	1.6405	0.4307	-1.0324	-0.8297	-0.5162	-0.8456
-0.5542	-0.6492	-0.6556	-0.8836	-1.2858	-0.7442	-0.551	-0.9754	-0.7759	-0.7252	-0.589	-0.7791	-1.0641	-0.2154	0.8392	1.6943	0.4497	-1.1179	-0.8931	-0.6175	-0.9184
-0.5859	-0.6714	-0.6777	-0.9596	-1.3459	-0.7981	-0.6429	-1.0451	-0.8202	-0.8329	-0.6366	-0.8234	-1.0989	-0.228	0.8962	1.764	0.4624	-1.2288	-0.9437	-0.7347	-0.9817
-0.6017	-0.7094	-0.6967	-1.0007	-1.4156	-0.8582	-0.7284	-1.1116	-0.9152	-0.9026	-0.6777	-0.8424	-1.1401	-0.2375	0.9247	1.7956	0.4624	-1.3523	-0.9754	-0.8582	-1.0387
-0.6175	-0.6999	-0.7062	-1.0482	-1.4314	-0.8804	-0.8107	-1.1369	-0.9501	-1.0039	-0.7094	-0.8487	-1.1591	-0.2344	0.9849	1.8463	0.4592	-1.4346	-1.0166	-0.9437	-1.0514
-0.6302	-0.7189	-0.7157	-1.1369	-1.4599	-0.9152	-0.9152	-1.1496	-0.9722	-1.0578	-0.7347	-0.8836	-1.1844	-0.2312	1.0134	1.8463	0.4592	-1.517	-1.0261	-1.0451	-1.0768
-0.6239	-0.7189	-0.7062	-1.1781	-1.4568	-0.9089	-0.9817	-1.1654	-1.0166	-1.1211	-0.7442	-0.8677	-1.1749	-0.2439	1.0673	1.8685	0.4592	-1.5898	-1.0578	-1.1338	-1.0894
-0.6175	-0.6936	-0.6999	-1.2573	-1.4409	-0.9374	-1.0387	-1.1686	-1.0166	-1.1654	-0.7442	-0.8424	-1.1591	-0.2344	1.0704	1.821	0.4592	-1.6531	-1.0419	-1.2383	-1.1084
-0.6175	-0.6587	-0.6999	-1.3143	-1.4346	-0.9374	-1.1338	-1.1306	-1.0197	-1.2256	-0.7474	-0.8234	-1.1718	-0.2407	1.0863	1.7956	0.4655	-1.7386	-1.0387	-1.3396	-1.0768
-0.6239	-0.6017	-0.6809	-1.3428	-1.3776	-0.9057	-1.2003	-1.1179	-1.0166	-1.2889	-0.7189	-0.7854	-1.1211	-0.2344	1.1053	1.7355	0.4687	-1.7735	-1.0229	-1.4188	-1.0482
-0.6461	-0.6017	-0.6682	-1.4251	-1.3396	-0.9311	-1.2953	-1.1116	-1.0451	-1.3428	-0.7157	-0.7886	-1.1433	-0.2565	1.0736	1.6278	0.5067	-1.8526	-0.9976	-1.5138	-1.0419
-0.6366	-0.5257	-0.6524	-1.4726	-1.2763	-0.9089	-1.3364	-1.0768	-1.0356	-1.3934	-0.6872	-0.7569	-1.0863	-0.2629	1.0387	1.5075	0.5194	-1.8907	-0.9659	-1.5708	-1.0102
-0.6366	-0.4339	-0.6175	-1.4948	-1.2003	-0.8709	-1.4093	-0.9881	-1.0324	-1.4251	-0.6556	-0.7062	-1.0768	-0.2787	1.0451	1.4188	0.5384	-1.9445	-0.8836	-1.6468	-0.9342
-0.6112	-0.3579	-0.5795	-1.5423	-1.1243	-0.8867	-1.4441	-0.9501	-1.0197	-1.4663	-0.6334	-0.7031	-1.0641	-0.2914	1.0419	1.3554	0.5637	-1.9793	-0.8456	-1.7545	-0.9121
-0.5985	-0.2565	-0.5415	-1.5265	-1.0134	-0.8361	-1.4568	-0.8836	-0.9881	-1.4821	-0.5954	-0.6429	-1.0261	-0.2977	1.0166	1.2478	0.589	-1.9983	-0.7759	-1.7988	-0.8614
-0.5542	-0.1615	-0.5004	-1.5233	-0.9057	-0.8171	-1.4885	-0.8076	-0.9754	-1.4916	-0.5447	-0.5954	-0.9817	-0.304	1.0102	1.2066	0.6017	-1.9825	-0.6809	-1.8368	-0.7886
-0.5415	-0.0602	-0.4655	-1.5106	-0.7886	-0.7632	-1.4885	-0.7569	-0.9722	-1.5075	-0.4877	-0.5384	-0.9152	-0.3262	0.9817	1.1559	0.6366	-2.0078	-0.5827	-1.8907	-0.7221
-0.5099	0.0317	-0.3927	-1.4599	-0.6714	-0.7284	-1.4853	-0.6651	-0.9247	-1.5138	-0.4339	-0.4814	-0.8741	-0.3357	1.0007	1.1401	0.6556	-1.9603	-0.5004	-1.935	-0.6587
-0.4117	0.1678	-0.3262	-1.4219	-0.5542	-0.6366	-1.4853	-0.5447	-0.8646	-1.498	-0.3452	-0.3895	-0.7854	-0.3515	1.0387	1.2034	0.6746	-1.9572	-0.3674	-1.9572	-0.5605
-0.3452	0.2692	-0.2755	-1.3713	-0.4307	-0.5795	-1.4853	-0.4655	-0.8329	-1.4821	-0.2724	-0.323	-0.7442	-0.3737	1.0863	1.2446	0.7094	-1.9445	-0.2914	-1.9635	-0.4655
-0.285	0.399	-0.1995	-1.3143	-0.304	-0.5289	-1.4536	-0.3674	-0.7727	-1.4536	-0.1963	-0.2534	-0.6587	-0.3674	1.1306	1.3269	0.7379	-1.897	-0.1583	-1.9762	-0.3642
-0.2027	0.532	-0.1457	-1.2921	-0.1393	-0.4687	-1.4504	-0.2629	-0.7062	-1.4504	-0.1203	-0.171	-0.608	-0.38	1.2098	1.4314	0.7632	-1.859	0	-1.9952	-0.266
-0.114	0.6714	-0.0665	-1.2351	0	-0.4212	-1.4504	-0.1615	-0.6746	-1.4473	-0.057	-0.1203	-0.5542	-0.3959	1.2541	1.5708	0.8012	-1.8178	0.1298	-2.0237	-0.171
-0.038	0.7854	-0.0412	-1.2351	0.1045	-0.3864	-1.4441	-0.0823	-0.6366	-1.4061	0.0443	-0.0475	-0.4814	-0.418	1.3396	1.7386	0.8329	-1.7893	0.2977	-2.0617	-0.0602
0.0095	0.8931	0.0032	-1.2319	0.2312	-0.3547	-1.4631	0.0032	-0.6017	-1.4124	0.114	-0.0032	-0.4339	-0.4434	1.4251	1.8907	0.8772	-1.7798	0.4244	-2.0712	0.0285
0.076	1.0071	0.057	-1.2129	0.3547	-0.3325	-1.498	0.1045	-0.5795	-1.4536	0.1647	0.0317	-0.4054	-0.4687	1.5265	2.068	0.9247	-1.7893	0.5637	-2.144	0.114
0.1298	1.0894	0.0792	-1.2319	0.4497	-0.3167	-1.5328	0.1678	-0.5732	-1.4599	0.2217	0.0412	-0.4054	-0.494	1.6088	2.239	0.9786	-1.7766	0.7506	-2.1598	0.2122
0.1615	1.1813	0.0792	-1.2351	0.5289	-0.3325	-1.574	0.2217	-0.5732	-1.5043	0.228	0.0127	-0.4465	-0.532	1.6943	2.3752	1.0514	-1.8051	0.8582	-2.2073	0.2597
0.152	1.2414	0.0633	-1.2921	0.5985	-0.3357	-1.612	0.2597	-0.5954	-1.5423	0.2439	0	-0.456	-0.57	1.7545	2.505	1.1211	-1.8495	0.9912	-2.2675	0.3357
0.1267	1.2858	0.0285	-1.3238	0.6461	-0.361	-1.6753	0.2724	-0.6492	-1.6151	0.2344	-0.0602	-0.5004	-0.6239	1.8146	2.5589	1.2098	-1.8811	1.1084	-2.3055	0.3927
0.1235	1.3396	0.0032	-1.3681	0.6777	-0.4149	-1.7576	0.2819	-0.6619	-1.6721	0.2217	-0.1077	-0.5605	-0.6524	1.9097	2.6095	1.2889	-1.9318	1.2351	-2.3562	0.418
0.1267	1.3998	-0.038	-1.4283	0.7221	-0.456	-1.8146	0.2819	-0.7094	-1.726	0.1837	-0.1552	-0.6112	-0.6904	1.954	2.638	1.3871	-1.9825	1.3396	-2.429	0.456
0.0887	1.3903	-0.095	-1.4726	0.7379	-0.5099	-1.878	0.2629	-0.7886	-1.821	0.133	-0.2565	-0.7157	-0.7632	1.9888	2.6507	1.4948	-2.068	1.4536	-2.5019	0.4719
0.0412	1.3966	-0.1362	-1.536	0.7189	-0.5827	-1.9192	0.228	-0.8867	-1.878	0.0887	-0.3515	-0.8202	-0.8171	2.0268	2.6032	1.612	-2.1377	1.555	-2.5494	0.4909
0.0127	1.3681	-0.1868	-1.5676	0.7252	-0.6397	-2.0142	0.1963	-0.9342	-1.9572	-0.0032	-0.4624	-0.9374	-0.8741	2.0648	2.5494	1.7228	-2.2105	1.6088	-2.5747	0.4909
-0.0285	1.3586	-0.2502	-1.6373	0.6777	-0.7411	-2.0743	0.1362	-1.0007	-2.0553	-0.0633	-0.5605	-1.0641	-0.9279	2.125	2.5019	1.8368	-2.2992	1.6626	-2.6665	0.4655
-0.1045	1.3174	-0.323	-1.7355	0.6239	-0.8012	-2.1788	0.0697	-1.1116	-2.1377	-0.1583	-0.7094	-1.2003	-0.9849	2.1092	2.4227	1.9413	-2.4069	1.745	-2.7267	0.4529
-0.1457	1.2794	-0.38	-1.8336	0.5859	-0.8867	-2.2897	-0.0253	-1.2414	-2.2612	-0.285	-0.8804	-1.3776	-1.0387	2.144	2.3404	2.0553	-2.5145	1.764	-2.8154	0.3959
-0.2249	1.2034	-0.4814	-1.9603	0.4782	-0.9912	-2.3879	-0.1203	-1.3333	-2.3815	-0.399	-1.0071	-1.5233	-1.0863	2.1313	2.2422	2.1503	-2.6634	1.7608	-2.9009	0.3262
-0.2755	1.1211	-0.5447	-2.0522	0.4085	-1.0736	-2.4797	-0.228	-1.4599	-2.4987	-0.5289	-1.1813	-1.7165	-1.1306	2.1377	2.1567	2.2327	-2.7932	1.7576	-2.9896	0.2755
-0.3262	1.0799	-0.6049	-2.1662	0.3199	-1.1686	-2.6254	-0.3389	-1.6088	-2.6349	-0.6809	-1.3554	-1.935	-1.1686	2.1345	2.0363	2.3245	-2.9611	1.745	-3.1131	0.1837
-0.4117	0.9944	-0.6619	-2.2833	0.2058	-1.2604	-2.7394	-0.4402	-1.726	-2.7679	-0.8044	-1.5106	-2.1123	-1.2034	2.1313	1.935	2.3879	-3.1511	1.7038	-3.2144	0.0982
-0.475	0.8962	-0.7601	-2.3942	0.1045	-1.3618	-2.8502	-0.5574	-1.8621	-2.9199	-0.9501	-1.6785	-2.3214	-1.2478	2.1567	1.7893	2.4734	-3.3063	1.6721	-3.3063	0.0285
-0.5225	0.8171	-0.8266	-2.5209	-0.0348	-1.498	-2.9769	-0.6999	-2.0458	-3.1099	-1.0894	-1.8621	-2.5367	-1.3048	2.1535	1.7006	2.5589	-3.5121	1.5961	-3.4519	-0.095
-0.5732	0.7696	-0.8519	-2.5874	-0.1013	-1.5708	-3.0434	-0.7886	-2.1662	-3.2239	-1.2129	-2.0237	-2.7331	-1.3174	2.1535	1.6278	2.6095	-3.68	1.5613	-3.5438	-0.1393
-0.6112	0.7252	-0.9279	-2.6919	-0.2027	-1.6563	-3.1511	-0.9057	-2.2992	-3.3791	-1.3269	-2.1915	-2.9231	-1.3618	2.1472	1.5455	2.695	-3.8478	1.5201	-3.6768	-0.2154
-0.627	0.6682	-0.9469	-2.7774	-0.266	-1.7608	-3.2588	-1.0071	-2.4544	-3.5311	-1.4124	-2.353	-3.1289	-1.3966	2.1567	1.5518	2.7679	-4.0157	1.479	-3.7971	-0.266
-0.6746	0.6524	-0.9627	-2.8471	-0.3294	-1.8115	-3.3284	-1.0736	-2.5874	-3.6546	-1.5043	-2.4924	-3.3094	-1.4314	2.1693	1.5328	2.8281	-4.1772	1.4504	-3.889	-0.2819
-0.6587	0.6239	-0.9691	-2.8724	-0.3452	-1.8178	-3.3696	-1.0863	-2.657	-3.7781	-1.5106	-2.5715	-3.4424	-1.4473	2.1757	1.5518	2.8819	-4.3038	1.4378	-3.9808	-0.2819
-0.6651	0.6397	-0.9944	-2.9072	-0.3769	-1.8685	-3.4329	-1.1401	-2.7489	-3.8668	-1.5708	-2.6887	-3.5723	-1.4726	2.1915	1.5708	2.9136	-4.4052	1.4124	-4.0505	-0.2597
-0.6777	0.6302	-0.9627	-2.9611	-0.3515	-1.8907	-3.4931	-1.1559	-2.8122	-3.9776	-1.5961	-2.7869	-3.7116	-1.4885	2.1947	1.631	2.9642	-4.5097	1.3966	-4.1012	-0.2629
-0.6144	0.6936	-0.9437	-2.9769	-0.3579	-1.8907	-3.5374	-1.1464	-2.8787	-4.0378	-1.5645	-2.8376	-3.794	-1.4916	2.1883	1.6753	2.9706	-4.573	1.4346	-4.1835	-0.1932
-0.5985	0.6936	-0.9247	-2.9896	-0.361	-1.9097	-3.5818	-1.1496	-2.9484	-4.1075	-1.5771	-2.8946	-3.9016	-1.5075	2.1883	1.7228	3.0086	-4.6205	1.4061	-4.2247	-0.1742
-0.5637	0.7252	-0.9247	-3.0086	-0.3325	-1.9255	-3.6261	-1.1084	-2.9769	-4.1677	-1.5423	-2.9326	-3.9555	-1.536	2.1662	1.7576	3.0149	-4.6617	1.4314	-4.2563	-0.0823
-0.5352	0.7347	-0.8931	-3.0212	-0.3199	-1.9097	-3.6166	-1.0863	-3.0339	-4.2025	-1.479	-2.9484	-3.9872	-1.5328	2.1567	1.7925	3.0339	-4.6554	1.4346	-4.2785	-0.0222
-0.4972	0.7601	-0.8836	-2.9801	-0.2914	-1.8875	-3.6546	-1.0451	-3.0181	-4.2468	-1.4093	-2.9136	-4.0093	-1.5423	2.1313	1.821	3.0402	-4.6522	1.4378	-4.2722	0.0602
-0.4465	0.7537	-0.8899	-2.9801	-0.2755	-1.8843	-3.6831	-1.0039	-3.0181	-4.2658	-1.3301	-2.9041	-4.0093	-1.5486	2.0933	1.8273	3.0719	-4.6142	1.4219	-4.2722	0.1393
-0.4402	0.7632	-0.8487	-2.9642	-0.2344	-1.8431	-3.6768	-0.9184	-2.9991	-4.2627	-1.2256	-2.8661	-3.9935	-1.5613	2.0458	1.8431	3.0687	-4.573	1.4536	-4.2373	0.2375
-0.4275	0.7189	-0.8646	-2.9769	-0.2502	-1.8431	-3.6926	-0.8456	-2.9832	-4.2658	-1.1338	-2.8281	-3.9586	-1.5613	1.9983	1.8146	3.0782	-4.5287	1.4378	-4.2088	0.3547
-0.4022	0.7157	-0.8519	-2.9864	-0.2344	-1.8558	-3.7053	-0.7632	-2.9231	-4.2437	-0.9849	-2.7299	-3.8921	-1.5455	1.9413	1.821	3.0719	-4.4432	1.4441	-4.174	0.4719
-0.3927	0.7031	-0.8614	-2.9959	-0.2185	-1.8336	-3.7053	-0.6714	-2.9009	-4.231	-0.8582	-2.6412	-3.8035	-1.555	1.916	1.8431	3.0561	-4.3608	1.4378	-4.1328	0.6049
-0.4212	0.6587	-0.8994	-3.0276	-0.19	-1.8336	-3.7401	-0.589	-2.8661	-4.212	-0.6777	-2.5335	-3.7053	-1.5486	1.802	1.821	3.0624	-4.2817	1.4758	-4.0822	0.7506
-0.456	0.5922	-0.9501	-3.0561	-0.2058	-1.8653	-3.7496	-0.5257	-2.8281	-4.1867	-0.5067	-2.4227	-3.6293	-1.555	1.7323	1.8146	3.0782	-4.1898	1.4695	-4.041	0.8646
-0.4909	0.5605	-1.0166	-3.1036	-0.1995	-1.8748	-3.7465	-0.418	-2.7679	-4.136	-0.3135	-2.296	-3.5026	-1.5518	1.688	1.8241	3.0624	-4.0537	1.4948	-3.9681	1.0514
-0.5574	0.4877	-1.0641	-3.1448	-0.1932	-1.8907	-3.7781	-0.3009	-2.6855	-4.098	-0.0918	-2.1503	-3.3538	-1.5328	1.6183	1.8368	3.0434	-3.9238	1.5233	-3.8985	1.2478
-0.627	0.4339	-1.1591	-3.1986	-0.1805	-1.9128	-3.8066	-0.1932	-2.6285	-4.041	0.1108	-2.0332	-3.2366	-1.5391	1.5581	1.8463	3.0339	-3.7781	1.5708	-3.8383	1.4219
-0.7157	0.3484	-1.2351	-3.2429	-0.2027	-1.9762	-3.8256	-0.0982	-2.5905	-3.9872	0.3357	-1.8875	-3.0941	-1.5328	1.479	1.802	3.0212	-3.6515	1.5961	-3.775	1.6531
-0.8202	0.2344	-1.3713	-3.3158	-0.2058	-2.0047	-3.8256	0.0095	-2.5145	-3.9491	0.5795	-1.7418	-2.9357	-1.5233	1.3586	1.7893	3.0244	-3.4963	1.631	-3.7275	1.859
-0.9342	0.1425	-1.479	-3.3728	-0.2502	-2.0997	-3.8605	0.057	-2.505	-3.8921	0.8044	-1.6056	-2.8091	-1.517	1.2858	1.7766	2.9959	-3.3379	1.6721	-3.6705	2.0965
-1.0482	0.0158	-1.5803	-3.4329	-0.2755	-2.1598	-3.851	0.1552	-2.467	-3.8288	1.0134	-1.4948	-2.6729	-1.5043	1.1718	1.745	2.9769	-3.1796	1.7291	-3.5945	2.3182
-1.2003	-0.0855	-1.7355	-3.5058	-0.3135	-2.22	-3.8826	0.2122	-2.448	-3.8066	1.2224	-1.3871	-2.5557	-1.4853	1.0673	1.7165	2.9516	-2.9959	1.7766	-3.5089	2.5209
-1.3396	-0.2027	-1.8811	-3.5818	-0.3389	-2.2992	-3.9016	0.2882	-2.4132	-3.7243	1.4536	-1.2794	-2.4005	-1.4695	0.9596	1.6658	2.9294	-2.8122	1.8146	-3.4361	2.7267
-1.4726	-0.3389	-1.9952	-3.6451	-0.3769	-2.3467	-3.8605	0.3515	-2.3657	-3.661	1.6436	-1.1464	-2.2517	-1.4536	0.8804	1.6816	2.8629	-2.6285	1.8685	-3.3221	2.9706
-1.6088	-0.4339	-2.1313	-3.68	-0.399	-2.4164	-3.8541	0.4149	-2.3499	-3.5881	1.8305	-1.0641	-2.1313	-1.4124	0.8076	1.6626	2.7996	-2.4195	1.897	-3.2429	3.1574
-1.7165	-0.5732	-2.2485	-3.699	-0.4497	-2.4765	-3.8288	0.456	-2.3499	-3.5121	2.0015	-0.9659	-2.0142	-1.3649	0.7379	1.6721	2.7045	-2.2105	1.9635	-3.1226	3.3379
-1.8621	-0.6999	-2.3752	-3.7465	-0.4909	-2.5272	-3.775	0.4972	-2.3087	-3.4044	2.1883	-0.8487	-1.8431	-1.3048	0.6651	1.6658	2.6032	-1.9793	1.9762	-2.9769	3.5153
-1.992	-0.8329	-2.5145	-3.7845	-0.5637	-2.5937	-3.7781	0.5194	-2.2897	-3.3474	2.315	-0.7886	-1.7545	-1.2731	0.6017	1.5961	2.5399	-1.7925	2.011	-2.8787	3.6863
-2.1313	-0.9754	-2.6254	-3.8193	-0.6144	-2.6602	-3.7338	0.5225	-2.3087	-3.2588	2.4322	-0.7221	-1.6468	-1.2351	0.5225	1.5898	2.4544	-1.6025	2.0205	-2.7552	3.8161
-2.2928	-1.1274	-2.7426	-3.8415	-0.6904	-2.7077	-3.7021	0.5035	-2.3055	-3.1764	2.524	-0.6619	-1.5613	-1.2003	0.4434	1.5328	2.372	-1.4093	2.0363	-2.6032	3.9333
-2.3847	-1.2319	-2.8376	-3.8636	-0.7537	-2.7426	-3.6388	0.4972	-2.2897	-3.0624	2.6317	-0.6112	-1.4409	-1.1528	0.3864	1.498	2.2928	-1.2129	2.0237	-2.4765	4.0473
-2.5494	-1.4124	-2.9516	-3.889	-0.8329	-2.8154	-3.5913	0.4719	-2.296	-2.9896	2.6919	-0.6144	-1.3554	-1.0989	0.3199	1.4409	2.2105	-1.0356	1.9698	-2.3435	4.1075
-2.6697	-1.555	-3.0529	-3.908	-0.9374	-2.8661	-3.5755	0.4117	-2.3372	-2.9262	2.7172	-0.5954	-1.3269	-1.0736	0.2249	1.3713	2.1218	-0.8646	1.9477	-2.2327	4.155
-2.8091	-1.7038	-3.1669	-3.9175	-1.0324	-2.9421	-3.5216	0.3452	-2.3309	-2.8502	2.7267	-0.6049	-1.2446	-1.0324	0.1457	1.2953	2.0553	-0.7062	1.8811	-2.1092	4.1772
-2.9357	-1.859	-3.2746	-3.9175	-1.1749	-3.0117	-3.4678	0.2312	-2.41	-2.7806	2.7204	-0.6366	-1.2129	-0.9944	0.0507	1.1718	1.9603	-0.5985	1.7861	-1.9952	4.1835
-3.0371	-1.9825	-3.3601	-3.9333	-1.2604	-3.0371	-3.3918	0.1615	-2.4164	-2.7331	2.6887	-0.6461	-1.1686	-0.9532	-0.0538	1.0387	1.878	-0.4529	1.7133	-1.8875	4.1613
-3.1543	-2.1535	-3.4646	-3.927	-1.4029	-3.1226	-3.3791	0.0443	-2.4765	-2.6602	2.6539	-0.6587	-1.0989	-0.9026	-0.171	0.8456	1.7956	-0.3262	1.6151	-1.7893	4.1265
-3.2429	-2.3277	-3.5533	-3.9175	-1.5296	-3.1669	-3.3284	-0.0475	-2.505	-2.5842	2.5652	-0.7316	-1.0831	-0.8646	-0.2755	0.7094	1.7006	-0.1837	1.4948	-1.6848	4.0505
-3.2841	-2.4607	-3.623	-3.8921	-1.669	-3.2018	-3.2683	-0.1868	-2.543	-2.5209	2.4987	-0.7474	-1.0166	-0.8107	-0.38	0.57	1.5993	-0.057	1.3586	-1.5771	3.9745
-3.3538	-2.6159	-3.661	-3.8478	-1.7893	-3.2398	-3.1733	-0.2724	-2.5652	-2.4259	2.4259	-0.7822	-0.9501	-0.7474	-0.494	0.4275	1.4758	0.1013	1.2288	-1.4726	3.8731
-3.3949	-2.7267	-3.737	-3.8098	-1.8938	-3.2746	-3.1321	-0.4149	-2.5969	-2.3372	2.334	-0.8297	-0.9121	-0.6904	-0.5605	0.3262	1.3459	0.2692	1.0673	-1.3333	3.7433
-3.4013	-2.8376	-3.7591	-3.7686	-2.0078	-3.2841	-3.0466	-0.5384	-2.6127	-2.2485	2.2548	-0.8582	-0.8582	-0.6017	-0.627	0.2597	1.2034	0.4529	0.9627	-1.1971	3.604
-3.4266	-2.9674	-3.7655	-3.718	-2.1377	-3.2778	-2.9832	-0.6556	-2.6159	-2.1282	2.1313	-0.9026	-0.7822	-0.5415	-0.6777	0.2027	1.0673	0.6207	0.7854	-1.0926	3.4678
-3.4298	-3.0371	-3.7686	-3.6515	-2.2295	-3.2968	-2.9041	-0.7537	-2.6064	-2.03	2.0332	-0.8867	-0.6936	-0.4782	-0.7316	0.19	0.9342	0.8012	0.6334	-0.9152	3.2841
-3.4076	-3.1257	-3.7686	-3.6008	-2.3119	-3.2778	-2.8186	-0.8646	-2.5874	-1.8938	1.9128	-0.9121	-0.6049	-0.418	-0.7316	0.1963	0.8076	0.9722	0.5067	-0.8044	3.1099
-3.3918	-3.1923	-3.7465	-3.5279	-2.429	-3.2493	-2.7331	-0.9501	-2.5652	-1.7925	1.8305	-0.8899	-0.4877	-0.361	-0.7284	0.2565	0.6999	1.1464	0.304	-0.6556	2.9326
-3.3253	-3.2239	-3.7116	-3.4108	-2.486	-3.1701	-2.6254	-1.0356	-2.5082	-1.6658	1.688	-0.8994	-0.4085	-0.2914	-0.7031	0.3769	0.589	1.3111	0.152	-0.5035	2.7204
-3.2746	-3.2619	-3.6578	-3.3379	-2.5842	-3.1479	-2.5335	-1.1274	-2.4765	-1.5423	1.5993	-0.8994	-0.323	-0.2502	-0.6207	0.5289	0.5004	1.4695	-0.0253	-0.3959	2.505
-3.2144	-3.2968	-3.5913	-3.2144	-2.6507	-3.0497	-2.4132	-1.2003	-2.3942	-1.4156	1.498	-0.8741	-0.209	-0.1868	-0.5225	0.6999	0.3832	1.6246	-0.1805	-0.2154	2.315
-3.1194	-3.2968	-3.4836	-3.0909	-2.6824	-2.9801	-2.2802	-1.2478	-2.315	-1.2826	1.3808	-0.8297	-0.0855	-0.1425	-0.3895	0.9121	0.2882	1.7608	-0.3357	-0.0443	2.087
-3.0054	-3.2746	-3.4013	-3.0022	-2.714	-2.8629	-2.1852	-1.3238	-2.2327	-1.1338	1.3111	-0.7822	0.038	-0.114	-0.2534	1.0958	0.209	1.8653	-0.4814	0.0602	1.8431
-2.8819	-3.2429	-3.2873	-2.8851	-2.7489	-2.7521	-2.0585	-1.3428	-2.1028	-0.9849	1.2288	-0.7126	0.1615	-0.057	-0.0855	1.3333	0.114	2.011	-0.608	0.228	1.65
-2.7616	-3.2081	-3.1828	-2.7616	-2.7679	-2.6349	-1.935	-1.3618	-2.0015	-0.8234	1.1464	-0.6461	0.285	-0.0127	0.076	1.555	0.0253	2.1155	-0.7664	0.342	1.4188
-2.6444	-3.1859	-3.0402	-2.6634	-2.7996	-2.486	-1.8305	-1.3744	-1.8748	-0.7062	1.0831	-0.57	0.399	0.019	0.2344	1.7861	-0.0475	2.1693	-0.8994	0.4307	1.2066
-2.4734	-3.1194	-2.9009	-2.5272	-2.7964	-2.3404	-1.7038	-1.3523	-1.7481	-0.5289	1.0229	-0.4719	0.5257	0.0823	0.4149	2.0522	-0.152	2.2738	-1.0292	0.5479	0.9881
-2.353	-3.0846	-2.7996	-2.4544	-2.7616	-2.2295	-1.5676	-1.3586	-1.6246	-0.4117	0.9564	-0.4085	0.6239	0.1108	0.5637	2.2707	-0.2312	2.2928	-1.1464	0.6366	0.7949
-2.1788	-3.0117	-2.6539	-2.3182	-2.7647	-2.0838	-1.4695	-1.3269	-1.4599	-0.2787	0.9121	-0.2914	0.7854	0.1583	0.7316	2.543	-0.3135	2.3499	-1.2414	0.7189	0.5985
-2.087	-2.9199	-2.5272	-2.258	-2.6919	-1.9318	-1.3459	-1.2731	-1.3079	-0.114	0.8836	-0.1235	0.9374	0.209	0.9279	2.8249	-0.4149	2.3625	-1.3364	0.7854	0.4275
-1.935	-2.8439	-2.3942	-2.1535	-2.6285	-1.7703	-1.2509	-1.2256	-1.1369	0.0127	0.8677	0.0127	1.0958	0.2439	1.0514	3.0782	-0.475	2.3752	-1.4378	0.8487	0.2534
-1.7798	-2.7552	-2.2612	-2.0458	-2.5842	-1.6215	-1.1021	-1.1686	-0.9691	0.152	0.8487	0.1647	1.2699	0.266	1.2129	3.3728	-0.5384	2.3404	-1.5043	0.8836	0.0697
-1.6595	-2.6729	-2.1092	-1.973	-2.5177	-1.4599	-0.9817	-1.1148	-0.7981	0.323	0.8107	0.3262	1.4314	0.3072	1.3333	3.6673	-0.6049	2.3372	-1.5645	0.9247	-0.1013
-1.5866	-2.6032	-2.0332	-1.9413	-2.467	-1.3523	-0.8962	-1.0451	-0.6524	0.4307	0.8044	0.4687	1.5898	0.3262	1.4251	3.8921	-0.6366	2.2833	-1.6531	0.9659	-0.2629
-1.4948	-2.4924	-1.935	-1.8907	-2.3657	-1.2161	-0.8361	-0.9722	-0.4909	0.5479	0.7664	0.6017	1.7165	0.3357	1.5328	4.117	-0.6682	2.2327	-1.7038	0.9659	-0.3895
-1.4156	-2.4037	-1.8051	-1.8685	-2.2865	-1.0894	-0.7442	-0.9089	-0.3484	0.6524	0.7474	0.7632	1.8716	0.342	1.6056	4.3007	-0.6809	2.1915	-1.783	0.9469	-0.5447
-1.3174	-2.3562	-1.745	-1.8526	-2.22	-0.9881	-0.7062	-0.8266	-0.1995	0.7347	0.6872	0.8931	2.011	0.3579	1.6816	4.4527	-0.6841	2.1155	-1.8241	0.9406	-0.6746
-1.2288	-2.2168	-1.6531	-1.821	-2.1313	-0.8741	-0.6239	-0.7917	-0.076	0.8329	0.6556	1.0197	2.1313	0.3547	1.783	4.6205	-0.6967	2.0395	-1.8811	0.9469	-0.7949
-1.1749	-2.144	-1.5486	-1.783	-2.03	-0.7379	-0.5732	-0.7094	0.0507	0.9026	0.6334	1.1528	2.2675	0.3579	1.8273	4.7029	-0.6841	1.9793	-1.9287	0.9152	-0.9247
-1.1053	-2.049	-1.4631	-1.7956	-1.9477	-0.6556	-0.5447	-0.6714	0.1615	0.9659	0.5922	1.2794	2.353	0.3484	1.8811	4.7535	-0.6809	1.8748	-1.9635	0.8487	-1.0419
-1.0102	-1.9793	-1.3713	-1.7703	-1.8748	-0.5605	-0.5035	-0.6239	0.2629	1.0197	0.5479	1.3839	2.4829	0.3389	1.9413	4.8169	-0.6587	1.802	-2.011	0.7822	-1.1528
-0.9437	-1.8843	-1.2953	-1.7545	-1.7735	-0.4909	-0.4845	-0.6017	0.3452	1.0514	0.5257	1.4726	2.562	0.3135	1.9477	4.8359	-0.6397	1.6943	-2.0332	0.7157	-1.2636
-0.8962	-1.84	-1.2541	-1.764	-1.7101	-0.4085	-0.4624	-0.5827	0.4244	1.0641	0.4655	1.5613	2.6254	0.3104	2.0237	4.8676	-0.5985	1.6183	-2.0775	0.6619	-1.3459
-0.7917	-1.7418	-1.1338	-1.745	-1.6531	-0.3294	-0.4624	-0.5827	0.4687	1.0768	0.4339	1.612	2.7045	0.2914	2.0807	4.9499	-0.5859	1.5296	-2.1282	0.5985	-1.4504
-0.7157	-1.6975	-1.0641	-1.7038	-1.593	-0.2534	-0.4434	-0.5194	0.551	1.1148	0.3895	1.7038	2.7616	0.2724	2.144	4.9721	-0.5415	1.4409	-2.1472	0.513	-1.5201
-0.6556	-1.6341	-0.9849	-1.7006	-1.536	-0.2122	-0.4529	-0.532	0.608	1.1116	0.3484	1.7481	2.8059	0.247	2.1693	5.0291	-0.4814	1.3428	-2.2137	0.4085	-1.5961
-0.5637	-1.5455	-0.9152	-1.6785	-1.4536	-0.133	-0.4624	-0.513	0.6587	1.0894	0.2882	1.7988	2.8344	0.2217	2.2327	5.1114	-0.4244	1.2573	-2.239	0.3199	-1.6943
-0.4877	-1.4663	-0.8424	-1.6816	-1.4156	-0.0887	-0.4814	-0.5225	0.6936	1.0609	0.2249	1.8273	2.8597	0.1868	2.2897	5.2032	-0.3484	1.1464	-2.2707	0.2249	-1.7608
-0.4402	-1.4061	-0.7886	-1.7196	-1.3428	-0.0507	-0.5194	-0.513	0.6999	1.0039	0.1678	1.8305	2.8566	0.1457	2.353	5.3426	-0.2787	1.0261	-2.3309	0.1108	-1.8495
-0.3769	-1.3396	-0.7411	-1.707	-1.3016	-0.0475	-0.5637	-0.5194	0.7126	0.9311	0.114	1.8336	2.8661	0.095	2.429	5.4598	-0.1837	0.9342	-2.3404	0.0032	-1.9192
-0.3325	-1.2984	-0.7094	-1.7576	-1.2794	-0.0412	-0.6397	-0.5574	0.6967	0.8519	0.0253	1.8051	2.8091	0.0317	2.4924	5.5864	-0.0697	0.7981	-2.3752	-0.1362	-2.0047
-0.3357	-1.2573	-0.6904	-1.8051	-1.2921	-0.0475	-0.7094	-0.6207	0.6112	0.7506	-0.1013	1.7323	2.7267	-0.0222	2.5779	5.7195	0.0443	0.6682	-2.4195	-0.2755	-2.1218
-0.3072	-1.2256	-0.6904	-1.8431	-1.2921	-0.0792	-0.8234	-0.6777	0.5384	0.6429	-0.2502	1.6531	2.657	-0.0855	2.6507	5.824	0.1647	0.5415	-2.4575	-0.418	-2.2042
-0.3357	-1.2446	-0.7252	-1.9128	-1.3333	-0.152	-0.9437	-0.7949	0.437	0.4814	-0.4149	1.5106	2.5272	-0.1393	2.7204	5.9221	0.3009	0.3832	-2.543	-0.5859	-2.3467
-0.3389	-1.2224	-0.7506	-1.9888	-1.4061	-0.2439	-1.0831	-0.8867	0.2977	0.3199	-0.5922	1.3744	2.3815	-0.2185	2.7647	5.9918	0.4275	0.2375	-2.6032	-0.7601	-2.4734
-0.3895	-1.2953	-0.7981	-2.0648	-1.4599	-0.3452	-1.2256	-1.0546	0.1235	0.095	-0.7917	1.1654	2.1883	-0.285	2.7869	6.0171	0.5764	0.057	-2.695	-0.9342	-2.6254
-0.4497	-1.3206	-0.8582	-2.201	-1.5645	-0.4719	-1.3808	-1.2129	-0.0665	-0.1108	-1.0039	0.9659	2.0015	-0.3452	2.8217	6.0013	0.6967	-0.0792	-2.7806	-1.1021	-2.7932
-0.5099	-1.4093	-0.9437	-2.3055	-1.6975	-0.6302	-1.536	-1.4251	-0.2819	-0.3484	-1.2794	0.7094	1.7893	-0.4149	2.8407	5.9253	0.8297	-0.2439	-2.9326	-1.2763	-2.9927
-0.5922	-1.5043	-1.0958	-2.4354	-1.8495	-0.8076	-1.7703	-1.6563	-0.5542	-0.608	-1.5613	0.437	1.5233	-0.4814	2.7837	5.8081	0.9659	-0.4275	-3.0624	-1.5011	-3.1638
-0.7157	-1.6215	-1.2256	-2.581	-2.0332	-1.0324	-1.9667	-1.8716	-0.8234	-0.8551	-1.8431	0.1362	1.2699	-0.5447	2.7172	5.6466	1.0958	-0.6144	-3.2144	-1.6816	-3.3284
-0.8424	-1.764	-1.3681	-2.7552	-2.2263	-1.2383	-2.1915	-2.1187	-1.1338	-1.1496	-2.125	-0.1362	0.9976	-0.608	2.6665	5.4598	1.2098	-0.7917	-3.3474	-1.878	-3.4868
-0.9754	-1.9033	-1.5265	-2.9009	-2.448	-1.4631	-2.4195	-2.3689	-1.4251	-1.4536	-2.41	-0.4845	0.6904	-0.6619	2.5652	5.2413	1.3079	-0.9564	-3.5184	-2.0522	-3.6641
-1.1211	-2.068	-1.7101	-3.0719	-2.6475	-1.726	-2.6507	-2.6317	-1.745	-1.7418	-2.7045	-0.8012	0.4212	-0.7126	2.4575	5.0196	1.4029	-1.1243	-3.6736	-2.239	-3.8066
-1.2446	-2.2232	-1.897	-3.2493	-2.8787	-1.9793	-2.8882	-2.9009	-2.049	-2.0237	-2.9896	-1.1274	0.133	-0.7506	2.334	4.7757	1.4885	-1.2794	-3.8478	-2.429	-3.9333
-1.4409	-2.4195	-2.1092	-3.4456	-3.0941	-2.239	-3.1479	-3.1448	-2.3847	-2.334	-3.2651	-1.4504	-0.1425	-0.7949	2.2263	4.5762	1.574	-1.4188	-3.9903	-2.6064	-4.06
-1.5961	-2.581	-2.296	-3.6325	-3.3189	-2.505	-3.3981	-3.3981	-2.7077	-2.6254	-3.5343	-1.7798	-0.4434	-0.8202	2.0902	4.4242	1.6341	-1.5455	-4.1138	-2.7742	-4.1677
-1.7861	-2.7235	-2.5177	-3.87	-3.5311	-2.7742	-3.6578	-3.6578	-3.0466	-2.9041	-3.7813	-2.0965	-0.6936	-0.8582	1.9603	4.2342	1.707	-1.6785	-4.25	-2.9262	-4.2373
-1.9413	-2.8882	-2.6982	-4.041	-3.7401	-3.0371	-3.9175	-3.8985	-3.3823	-3.2018	-4.0157	-2.3752	-0.9437	-0.9026	1.8146	4.0948	1.7956	-1.7956	-4.3798	-3.1131	-4.326
-2.125	-3.0371	-2.9231	-4.2405	-3.9048	-3.3126	-4.1518	-4.0948	-3.6705	-3.4488	-4.1962	-2.657	-1.2066	-0.9311	1.7038	3.9998	1.8653	-1.8907	-4.459	-3.2683	-4.3577
-2.2738	-3.1321	-3.1257	-4.4052	-4.0853	-3.5628	-4.3925	-4.3133	-3.9713	-3.7085	-4.3767	-2.9199	-1.4346	-0.9659	1.6246	3.9396	1.935	-2.0047	-4.5287	-3.4266	-4.3577
-2.3974	-3.2208	-3.2778	-4.5635	-4.212	-3.8003	-4.5889	-4.4875	-4.2595	-3.9428	-4.5129	-3.1701	-1.6436	-1.0007	1.5455	3.8731	1.9952	-2.068	-4.5825	-3.5374	-4.3703
-2.581	-3.2841	-3.4709	-4.7219	-4.3482	-4.041	-4.8105	-4.6332	-4.5509	-4.1962	-4.6459	-3.4298	-1.878	-1.0451	1.4663	3.8225	2.0553	-2.163	-4.6015	-3.7085	-4.3418
-2.7077	-3.3949	-3.642	-4.8327	-4.459	-4.2658	-4.9974	-4.7884	-4.7979	-4.402	-4.782	-3.661	-2.1123	-1.0704	1.4124	3.794	2.106	-2.239	-4.6237	-3.8351	-4.3007
-2.8122	-3.4393	-3.7813	-4.9752	-4.5477	-4.4685	-5.1969	-4.9214	-5.0797	-4.6174	-4.8517	-3.8921	-2.3182	-1.0958	1.3428	3.7275	2.1598	-2.3277	-4.6205	-3.9555	-4.2247
-2.9041	-3.4678	-3.8985	-5.0702	-4.6174	-4.6649	-5.3806	-5.0259	-5.3141	-4.8264	-4.9404	-4.117	-2.5335	-1.0989	1.3174	3.6926	2.1788	-2.3847	-4.5794	-4.0853	-4.1487
-3.0212	-3.4963	-4.0663	-5.1874	-4.706	-4.8581	-5.5263	-5.1367	-5.5643	-5.0386	-4.9879	-4.3228	-2.7299	-1.1243	1.3174	3.642	2.201	-2.4797	-4.5414	-4.193	-4.0537
-3.0909	-3.5153	-4.1487	-5.2634	-4.7282	-5.0069	-5.7005	-5.2032	-5.7575	-5.2191	-5.0037	-4.4749	-2.9357	-1.1243	1.2731	3.6103	2.2105	-2.5399	-4.4464	-4.3133	-3.9301
-3.1638	-3.4773	-4.25	-5.3394	-4.725	-5.1779	-5.843	-5.2064	-5.9538	-5.3711	-4.9816	-4.6174	-3.0941	-1.1179	1.2699	3.5755	2.2042	-2.6064	-4.3482	-4.3988	-3.7623
-3.2176	-3.4804	-4.307	-5.3996	-4.7409	-5.3046	-5.9633	-5.2603	-6.1217	-5.5643	-4.9784	-4.7757	-3.2809	-1.1148	1.2731	3.5976	2.201	-2.6444	-4.2627	-4.4812	-3.5976
-3.2524	-3.4456	-4.3798	-5.4693	-4.7409	-5.4154	-6.0963	-5.2761	-6.2895	-5.7321	-4.9182	-4.9087	-3.4298	-1.1148	1.2889	3.623	2.1852	-2.6919	-4.1265	-4.554	-3.4139
-3.2778	-3.3759	-4.4305	-5.5073	-4.6807	-5.5136	-6.2072	-5.2444	-6.4098	-5.8461	-4.8422	-5.0037	-3.5786	-1.0958	1.2858	3.6261	2.1598	-2.6982	-3.9872	-4.611	-3.2113
-3.2809	-3.3443	-4.4749	-5.5358	-4.6332	-5.5769	-6.3022	-5.2286	-6.527	-5.9506	-4.7345	-5.0861	-3.6578	-1.0704	1.2984	3.6578	2.1282	-2.6824	-3.8161	-4.6585	-2.9832
-3.3221	-3.3253	-4.5445	-5.5928	-4.5984	-5.6498	-6.3687	-5.1906	-6.6094	-6.0615	-4.6427	-5.1367	-3.7718	-1.0482	1.2731	3.6578	2.087	-2.6887	-3.68	-4.6807	-2.7774
-3.3348	-3.2429	-4.5699	-5.6118	-4.5477	-5.7226	-6.4415	-5.1241	-6.679	-6.1438	-4.478	-5.1747	-3.8193	-1.0387	1.2509	3.6578	2.0458	-2.657	-3.5311	-4.6775	-2.5272
-3.3823	-3.1923	-4.6237	-5.6371	-4.5129	-5.7606	-6.508	-5.0449	-6.7234	-6.2135	-4.3482	-5.2096	-3.8795	-1.0229	1.2129	3.642	2.0142	-2.6475	-3.3728	-4.6902	-2.2928
-3.3949	-3.1511	-4.6522	-5.6561	-4.4464	-5.8145	-6.5429	-4.9499	-6.7804	-6.2863	-4.2215	-5.2381	-3.9333	-0.9881	1.1591	3.5818	1.9603	-2.6095	-3.1986	-4.6997	-2.0553
-3.4551	-3.1226	-4.6997	-5.6815	-4.4084	-5.862	-6.5967	-4.9214	-6.831	-6.3528	-4.0727	-5.2666	-3.9967	-0.9627	1.0736	3.5406	1.916	-2.543	-3.0719	-4.6934	-1.821
-3.5153	-3.0814	-4.7535	-5.7131	-4.3957	-5.9095	-6.6379	-4.8137	-6.8659	-6.4193	-3.9175	-5.2824	-4.0093	-0.9279	0.9944	3.4424	1.8463	-2.467	-2.9041	-4.6712	-1.5771
-3.5628	-3.0846	-4.8232	-5.729	-4.3355	-5.9665	-6.6505	-4.744	-6.9102	-6.4415	-3.756	-5.2983	-4.0188	-0.9121	0.8994	3.3538	1.8051	-2.3942	-2.7489	-4.6332	-1.3649
-3.623	-3.0434	-4.8612	-5.7448	-4.2817	-5.9981	-6.6537	-4.6649	-6.9292	-6.4953	-3.6103	-5.2919	-4.022	-0.8836	0.8076	3.3063	1.7386	-2.2707	-2.5905	-4.5857	-1.1338
-3.7243	-3.0719	-4.9151	-5.748	-4.269	-6.0646	-6.6885	-4.573	-6.9736	-6.508	-3.4678	-5.3299	-4.0347	-0.8614	0.7442	3.2334	1.6785	-2.1535	-2.4417	-4.5699	-0.9406
-3.7465	-3.0624	-4.9752	-5.7511	-4.212	-6.0805	-6.6822	-4.478	-7.0084	-6.5175	-3.3158	-5.3426	-4.0315	-0.8234	0.6809	3.2113	1.6215	-2.0268	-2.3119	-4.5002	-0.7252
-3.8193	-3.0212	-5.0132	-5.7448	-4.1487	-6.1343	-6.6569	-4.3798	-7.0242	-6.5334	-3.1923	-5.3743	-4.0505	-0.7917	0.5985	3.2018	1.5518	-1.8748	-2.1503	-4.4432	-0.5225
-3.8985	-3.0497	-5.0702	-5.729	-4.1328	-6.1787	-6.622	-4.3197	-7.0939	-6.5365	-3.0466	-5.3806	-4.0252	-0.7506	0.5384	3.2208	1.4916	-1.726	-2.0205	-4.3767	-0.342
-3.927	-3.0434	-5.0861	-5.6941	-4.1012	-6.1977	-6.6062	-4.2088	-7.0971	-6.5017	-2.9136	-5.3806	-3.9903	-0.6999	0.4877	3.2588	1.4124	-1.5518	-1.8716	-4.307	-0.1298
-3.9776	-3.0751	-5.1431	-5.6815	-4.0727	-6.2515	-6.565	-4.1392	-7.1414	-6.4858	-2.7679	-5.4091	-4.0062	-0.6872	0.4624	3.3823	1.3459	-1.3934	-1.7513	-4.2405	0.0443
-4.0252	-3.1257	-5.2191	-5.6339	-4.0378	-6.2642	-6.5144	-4.079	-7.1477	-6.4542	-2.6539	-5.4281	-3.9333	-0.6429	0.4022	3.4424	1.2794	-1.2003	-1.6246	-4.1392	0.2312
-4.098	-3.1479	-5.2666	-5.6149	-4.0252	-6.3275	-6.489	-4.003	-7.1541	-6.451	-2.5335	-5.4439	-3.9206	-0.6207	0.361	3.5628	1.2193	-1.0673	-1.536	-4.079	0.4212
-4.174	-3.1986	-5.3204	-5.5928	-4.041	-6.3655	-6.4383	-3.9428	-7.1889	-6.3908	-2.41	-5.4218	-3.8668	-0.5732	0.3135	3.6895	1.1369	-0.8867	-1.4504	-3.965	0.5732
-4.25	-3.2904	-5.4028	-5.5611	-4.0568	-6.4352	-6.4162	-3.8921	-7.2142	-6.3592	-2.3309	-5.4249	-3.8351	-0.5479	0.2755	3.794	1.0673	-0.7316	-1.3618	-3.9175	0.7284
-4.3007	-3.3633	-5.4851	-5.5991	-4.079	-6.489	-6.3845	-3.8541	-7.2206	-6.3148	-2.2137	-5.4154	-3.794	-0.5067	0.2312	3.8858	1.0039	-0.5574	-1.3048	-3.8256	0.8772
-4.4369	-3.4329	-5.5706	-5.6149	-4.117	-6.5492	-6.3623	-3.8415	-7.2871	-6.3085	-2.1187	-5.4281	-3.7623	-0.4845	0.1647	3.984	0.9501	-0.4244	-1.2763	-3.7718	1.0102
-4.5604	-3.5691	-5.672	-5.6276	-4.2057	-6.6537	-6.3465	-3.8256	-7.2997	-6.2452	-2.0522	-5.4313	-3.7085	-0.4529	0.1172	4.06	0.8931	-0.2692	-1.2636	-3.6926	1.1433
-4.6554	-3.6958	-5.7828	-5.6498	-4.2658	-6.7139	-6.3212	-3.8193	-7.3251	-6.2008	-1.9762	-5.4154	-3.6768	-0.418	0.057	4.1233	0.8107	-0.1583	-1.2383	-3.6261	1.2446
-4.7725	-3.8003	-5.8841	-5.6625	-4.3292	-6.793	-6.299	-3.8066	-7.3314	-6.1407	-1.9223	-5.4154	-3.6071	-0.3769	-0.0253	4.1392	0.7411	-0.0222	-1.2478	-3.5628	1.3586
-4.9562	-3.9333	-6.0266	-5.7448	-4.44	-6.8975	-6.3117	-3.851	-7.3758	-6.1312	-1.8653	-5.4154	-3.566	-0.3515	-0.1235	4.1328	0.6809	0.1298	-1.2509	-3.5216	1.4378
-5.0671	-4.0822	-6.166	-5.7828	-4.5445	-7.0116	-6.3212	-3.9143	-7.4359	-6.0837	-1.8273	-5.4218	-3.5216	-0.3135	-0.1678	4.0885	0.6175	0.2407	-1.2636	-3.4424	1.4885
-5.2349	-4.2373	-6.2705	-5.862	-4.6332	-7.1287	-6.3465	-3.9396	-7.4613	-6.0583	-1.8083	-5.4313	-3.4646	-0.285	-0.2755	3.9586	0.5669	0.3705	-1.3111	-3.3506	1.5486
-5.3774	-4.3957	-6.4383	-5.9601	-4.7694	-7.2681	-6.3908	-4.022	-7.5056	-6.0171	-1.8083	-5.4439	-3.4139	-0.2629	-0.3832	3.8193	0.494	0.5004	-1.3776	-3.3126	1.5835
-5.5389	-4.5572	-6.6094	-6.0868	-4.8961	-7.3726	-6.4478	-4.0758	-7.5753	-5.9823	-1.8146	-5.4598	-3.3569	-0.2312	-0.5035	3.642	0.4434	0.6239	-1.4378	-3.2334	1.5993
-5.7131	-4.7219	-6.7614	-6.1945	-5.0671	-7.5246	-6.5049	-4.193	-7.6576	-5.9696	-1.8273	-5.4534	-3.3063	-0.209	-0.6492	3.4203	0.3864	0.7379	-1.5201	-3.1511	1.5961
-5.881	-4.8897	-6.9546	-6.2927	-5.2032	-7.6639	-6.5492	-4.2943	-7.6924	-5.9348	-1.8685	-5.4693	-3.2619	-0.171	-0.7696	3.1891	0.3262	0.8994	-1.5961	-3.0814	1.5961
-6.0551	-5.0956	-7.1319	-6.4288	-5.3838	-7.7875	-6.603	-4.3862	-7.7336	-5.9221	-1.8748	-5.4281	-3.1923	-0.133	-0.9469	2.9072	0.2692	1.0197	-1.669	-3.0086	1.5835
-6.2135	-5.2698	-7.2966	-6.5587	-5.5326	-7.911	-6.641	-4.4717	-7.7811	-5.8651	-1.8843	-5.4059	-3.1099	-0.1172	-1.0831	2.6127	0.2058	1.1781	-1.726	-2.9262	1.5771
-6.3845	-5.4503	-7.4613	-6.6759	-5.6941	-8.044	-6.6759	-4.5604	-7.8033	-5.805	-1.897	-5.3743	-3.0022	-0.0792	-1.2794	2.3055	0.1362	1.3111	-1.8051	-2.8502	1.5708
-6.5524	-5.6276	-7.6386	-6.7899	-5.8715	-8.1706	-6.6822	-4.6459	-7.816	-5.7416	-1.9002	-5.2856	-2.8629	-0.0443	-1.4758	1.973	0.0665	1.4695	-1.8716	-2.7267	1.5771
-6.6949	-5.7606	-7.797	-6.9007	-6.0108	-8.2625	-6.7107	-4.7187	-7.8033	-5.6625	-1.897	-5.2032	-2.7362	-0.0127	-1.6531	1.6816	0.0158	1.6246	-1.916	-2.619	1.5676
-6.8595	-5.9665	-7.9775	-7.0021	-6.1913	-8.3702	-6.7392	-4.7662	-7.7685	-5.5769	-1.8843	-5.0892	-2.562	0.0127	-1.84	1.3681	-0.0348	1.7671	-1.973	-2.4924	1.5645
-6.9799	-6.128	-8.1231	-7.0907	-6.3433	-8.4462	-6.7139	-4.8454	-7.7494	-5.4661	-1.8685	-4.9657	-2.391	0.0412	-2.0047	1.0926	-0.0855	1.9667	-2.0205	-2.3562	1.5835
-7.1256	-6.261	-8.2593	-7.1572	-6.4985	-8.5127	-6.7107	-4.9119	-7.6924	-5.3679	-1.8273	-4.8264	-2.2137	0.0475	-2.1282	0.8867	-0.114	2.1377	-2.0648	-2.2485	1.5708
-7.2554	-6.4162	-8.3923	-7.2016	-6.6664	-8.5792	-6.6917	-4.9942	-7.6639	-5.2603	-1.8083	-4.6744	-2.0237	0.0633	-2.2517	0.7252	-0.133	2.3372	-2.1218	-2.106	1.5581
-7.3726	-6.5714	-8.5063	-7.2522	-6.8374	-8.6679	-6.6759	-5.0354	-7.6006	-5.1494	-1.802	-4.5604	-1.8463	0.076	-2.3499	0.5954	-0.1678	2.505	-2.1693	-1.9698	1.5771
-7.4454	-6.698	-8.6077	-7.2554	-6.9672	-8.6995	-6.6157	-5.1082	-7.5183	-5.0164	-1.7893	-4.4115	-1.6785	0.0855	-2.4069	0.5384	-0.1868	2.6792	-2.201	-1.8241	1.555
-7.5119	-6.8184	-8.6742	-7.2206	-7.1066	-8.7154	-6.5397	-5.1684	-7.4739	-4.9087	-1.7766	-4.2627	-1.5043	0.095	-2.4449	0.5257	-0.2058	2.8217	-2.277	-1.7101	1.5265
-7.5753	-6.9387	-8.7724	-7.1731	-7.2301	-8.7534	-6.4668	-5.2603	-7.4074	-4.7915	-1.7798	-4.1487	-1.3491	0.1013	-2.4512	0.5479	-0.2122	2.9642	-2.3214	-1.5771	1.4885
-7.6006	-7.0432	-8.8357	-7.1509	-7.3948	-8.7692	-6.4067	-5.3141	-7.3568	-4.6839	-1.8115	-4.0537	-1.2224	0.1172	-2.4259	0.6334	-0.2439	3.0941	-2.3689	-1.4663	1.4536
-7.6101	-7.1414	-8.8642	-7.0211	-7.5056	-8.785	-6.2958	-5.3679	-7.2934	-4.554	-1.8463	-3.9555	-1.1021	0.1298	-2.4037	0.7537	-0.2439	3.1891	-2.4417	-1.3333	1.4251
-7.6323	-7.2681	-8.9117	-6.9767	-7.6386	-8.7977	-6.2103	-5.4629	-7.2396	-4.4685	-1.8938	-3.8795	-1.0007	0.133	-2.3467	0.8962	-0.266	3.2968	-2.4924	-1.2573	1.3428
-7.6228	-7.3377	-8.9212	-6.888	-7.7463	-8.7882	-6.1375	-5.5326	-7.2016	-4.3893	-1.916	-3.7845	-0.8741	0.1393	-2.2833	1.1053	-0.2882	3.3728	-2.5367	-1.1623	1.2984
-7.5816	-7.3979	-8.9085	-6.7519	-7.8191	-8.7502	-6.014	-5.5959	-7.1066	-4.2658	-1.9382	-3.699	-0.7727	0.1552	-2.22	1.3174	-0.3167	3.4583	-2.581	-1.0356	1.2446
-7.5468	-7.4803	-8.8927	-6.641	-7.8856	-8.6995	-5.9031	-5.6625	-7.0654	-4.1582	-1.9983	-3.6325	-0.6904	0.171	-2.0933	1.5676	-0.3515	3.5406	-2.6349	-0.9501	1.1686
-7.5183	-7.5214	-8.88	-6.508	-7.949	-8.671	-5.7923	-5.71	-6.9641	-4.0568	-2.0458	-3.5343	-0.6112	0.1932	-1.992	1.8178	-0.38	3.6166	-2.7299	-0.8741	1.0831
-7.4644	-7.5499	-8.8072	-6.4003	-8.006	-8.6235	-5.6878	-5.7765	-6.8849	-3.9555	-2.0712	-3.4488	-0.475	0.2154	-1.8907	2.087	-0.4244	3.6705	-2.7331	-0.7759	1.0261
-7.4011	-7.5784	-8.747	-6.2547	-8.0408	-8.5348	-5.5294	-5.7891	-6.7899	-3.8288	-2.1123	-3.3728	-0.4054	0.2375	-1.7956	2.3435	-0.4624	3.7148	-2.8186	-0.6397	0.9184
-7.3536	-7.5974	-8.6647	-6.1438	-8.0693	-8.4462	-5.4028	-5.8398	-6.6885	-3.718	-2.1155	-3.2714	-0.3104	0.247	-1.6975	2.5969	-0.5004	3.7908	-2.8407	-0.57	0.8709
-7.2554	-7.5911	-8.5792	-5.9918	-8.0661	-8.31	-5.2254	-5.8461	-6.5714	-3.5818	-2.125	-3.1638	-0.1963	0.2819	-1.5455	2.8914	-0.5479	3.851	-2.9041	-0.4212	0.8076
-7.1826	-7.5626	-8.443	-5.8398	-8.0503	-8.2055	-5.0481	-5.8651	-6.4605	-3.4329	-2.1472	-3.0656	-0.0887	0.2787	-1.4378	3.1131	-0.5764	3.8985	-2.9326	-0.2977	0.7316
-7.0844	-7.5499	-8.31	-5.6339	-8.0313	-8.0408	-4.8454	-5.843	-6.2927	-3.2714	-2.1725	-2.9547	0.0348	0.3199	-1.3269	3.3728	-0.6207	3.9618	-2.9769	-0.1583	0.6746
-6.9641	-7.4803	-8.1453	-5.4534	-7.9616	-7.8825	-4.6744	-5.8208	-6.1565	-3.0846	-2.1535	-2.8312	0.19	0.342	-1.1781	3.5913	-0.6841	4.0537	-3.0022	-0.0127	0.6144
-6.8342	-7.4296	-7.949	-5.2286	-7.9078	-7.7019	-4.4242	-5.7955	-6.0108	-2.9041	-2.1757	-2.714	0.3104	0.3927	-1.0609	3.7845	-0.7696	4.1455	-3.0244	0.1235	0.5194
-6.6885	-7.3536	-7.7811	-5.0069	-7.8635	-7.5088	-4.193	-5.7765	-5.862	-2.7331	-2.1535	-2.6317	0.4465	0.4275	-0.9311	3.9523	-0.8582	4.2405	-3.0814	0.2755	0.4497
-6.527	-7.3092	-7.5753	-4.7979	-7.7938	-7.3061	-3.9713	-5.7575	-5.691	-2.5525	-2.1567	-2.4955	0.5795	0.4814	-0.8044	4.0727	-0.9532	4.3545	-3.1194	0.4307	0.3642
-6.4162	-7.2459	-7.3948	-4.5635	-7.7494	-7.0971	-3.737	-5.7321	-5.5326	-2.353	-2.1757	-2.4417	0.7189	0.5352	-0.7189	4.1202	-1.0641	4.4622	-3.1638	0.5669	0.2692
-6.28	-7.1921	-7.1667	-4.3545	-7.7083	-6.9229	-3.5089	-5.7448	-5.4091	-2.1598	-2.1978	-2.3435	0.8551	0.6017	-0.6366	4.1772	-1.1876	4.5382	-3.2493	0.7379	0.1963
-6.1438	-7.1604	-7.0116	-4.1423	-7.6481	-6.7139	-3.3094	-5.7131	-5.2476	-1.9983	-2.2073	-2.2517	0.9849	0.6714	-0.589	4.2088	-1.3174	4.649	-3.2746	0.8836	0.0887
-6.0076	-7.0749	-6.8405	-3.9523	-7.5911	-6.5239	-3.1036	-5.6941	-5.1114	-1.8368	-2.2073	-2.1567	1.1211	0.7221	-0.532	4.2025	-1.4536	4.7345	-3.3348	1.0229	-0.0158
-5.8588	-7.0306	-6.6474	-3.7338	-7.5214	-6.3022	-2.9009	-5.6593	-4.9562	-1.6436	-2.2105	-2.0395	1.2794	0.7981	-0.4655	4.1708	-1.5898	4.8454	-3.3791	1.1749	-0.0887
-5.7005	-6.9546	-6.4637	-3.5374	-7.4518	-6.109	-2.7109	-5.6118	-4.7694	-1.4758	-2.1947	-1.9002	1.4251	0.8582	-0.4054	4.1645	-1.7355	4.9372	-3.4076	1.2731	-0.1678
-5.5548	-6.8785	-6.2863	-3.3411	-7.3694	-5.8968	-2.5019	-5.5421	-4.5857	-1.2921	-2.1788	-1.7703	1.5993	0.9279	-0.3674	4.1455	-1.8621	5.0481	-3.4234	1.4631	-0.2375
-5.4281	-6.8215	-6.1027	-3.1701	-7.2966	-5.6815	-2.3119	-5.4693	-4.3988	-1.1148	-2.1218	-1.6278	1.7545	0.9912	-0.2977	4.098	-1.9888	5.1684	-3.4488	1.6056	-0.266
-5.2761	-6.7075	-5.919	-2.9642	-7.2047	-5.4471	-2.0933	-5.3331	-4.1772	-0.9279	-2.0427	-1.4663	1.954	1.0609	-0.2407	4.06	-2.1123	5.2888	-3.4361	1.7513	-0.285
-5.1336	-6.6125	-5.7163	-2.7521	-7.0717	-5.2191	-1.8907	-5.2317	-3.9301	-0.7062	-1.9445	-1.2351	2.1662	1.1148	-0.1868	4.0062	-2.2295	5.3996	-3.4044	1.9223	-0.3072
-4.9752	-6.5112	-5.5516	-2.6095	-6.9767	-4.9752	-1.6911	-5.0892	-3.7148	-0.5225	-1.8463	-1.0324	2.372	1.1686	-0.152	3.9555	-2.3245	5.5358	-3.3918	2.0585	-0.3009
-4.8929	-6.4257	-5.3394	-2.41	-6.8405	-4.763	-1.4853	-4.9341	-3.4709	-0.3135	-1.6848	-0.8297	2.6032	1.2129	-0.133	3.8985	-2.4164	5.6434	-3.3443	2.1978	-0.2692
-4.744	-6.3117	-5.1716	-2.2485	-6.717	-4.5065	-1.2604	-4.7757	-3.2144	-0.0855	-1.5423	-0.589	2.8376	1.2668	-0.0887	3.851	-2.5114	5.748	-3.2936	2.3404	-0.228
-4.6142	-6.2167	-5.0291	-2.1408	-6.5745	-4.3038	-1.0894	-4.6269	-2.9896	0.0918	-1.4251	-0.399	3.0371	1.2984	-0.076	3.7971	-2.581	5.8271	-3.2556	2.4575	-0.209
-4.535	-6.0995	-4.8581	-1.992	-6.451	-4.0822	-0.9374	-4.4559	-2.7552	0.2692	-1.2794	-0.1647	3.2018	1.3333	-0.0665	3.7528	-2.6507	5.9221	-3.1448	2.5779	-0.1362
-4.4084	-6.0203	-4.6744	-1.8495	-6.2832	-3.8478	-0.7537	-4.2753	-2.5367	0.4307	-1.1084	0.0538	3.4108	1.3649	-0.0602	3.7148	-2.7235	5.9918	-3.0687	2.6634	-0.0665
-4.3165	-5.9063	-4.5445	-1.7766	-6.1787	-3.6483	-0.627	-4.1202	-2.3214	0.589	-0.9659	0.2439	3.5691	1.3903	-0.038	3.7021	-2.7711	6.0425	-2.9737	2.7394	0.0127
-4.1898	-5.7891	-4.3608	-1.6911	-6.0108	-3.4424	-0.4877	-3.946	-2.0965	0.7284	-0.8012	0.4275	3.7085	1.4188	-0.0507	3.6863	-2.8027	6.0868	-2.8692	2.8122	0.0982
-4.0948	-5.6751	-4.2278	-1.593	-5.8651	-3.2461	-0.3325	-3.7686	-1.9002	0.8297	-0.6524	0.5985	3.8446	1.4251	0.0063	3.756	-2.8376	6.0837	-2.7584	2.8629	0.19
-3.984	-5.5833	-4.0663	-1.5296	-5.7258	-3.0466	-0.2502	-3.623	-1.726	0.9532	-0.5035	0.7759	3.9618	1.4314	0.0317	3.7971	-2.8502	6.109	-2.6317	2.9104	0.2755
-3.8636	-5.4629	-3.946	-1.4599	-5.5706	-2.8566	-0.1488	-3.4298	-1.5328	1.0546	-0.3389	0.9311	4.0537	1.4346	0.1013	3.9111	-2.8534	6.0963	-2.524	2.9136	0.4054
-3.7876	-5.3553	-3.7876	-1.4251	-5.4186	-2.6824	-0.0602	-3.2524	-1.3554	1.1433	-0.2027	1.1021	4.1392	1.4156	0.1742	4.0378	-2.8344	6.0488	-2.3974	2.9421	0.513
-3.6768	-5.2381	-3.6768	-1.3903	-5.2698	-2.5335	0.0158	-3.0719	-1.1781	1.1939	-0.0507	1.2414	4.2025	1.4029	0.2122	4.174	-2.8122	5.9918	-2.2453	2.9072	0.6366
-3.5628	-5.1146	-3.5311	-1.3396	-5.0956	-2.3277	0.1172	-2.8756	-0.9881	1.2763	0.1298	1.4124	4.3007	1.4061	0.3357	4.3323	-2.7774	5.9601	-2.0933	2.9294	0.7949
-3.4678	-5.0037	-3.4108	-1.3301	-4.9436	-2.1693	0.171	-2.7109	-0.8424	1.3396	0.3104	1.5708	4.3767	1.3681	0.4434	4.4812	-2.7331	5.9063	-1.9318	2.9167	0.9089
-3.4108	-4.8834	-3.2936	-1.3048	-4.7757	-2.0047	0.2122	-2.5209	-0.6587	1.4029	0.4972	1.707	4.4305	1.3333	0.4782	4.611	-2.6507	5.8746	-1.7893	2.8819	1.0514
-3.3094	-4.7409	-3.1859	-1.2889	-4.5984	-1.8526	0.2882	-2.3245	-0.5035	1.4631	0.6777	1.8653	4.4939	1.2921	0.608	4.7694	-2.5715	5.8081	-1.6373	2.8534	1.2224
-3.2493	-4.6237	-3.0782	-1.2668	-4.4242	-1.6975	0.3325	-2.1345	-0.3325	1.5043	0.8519	2.0205	4.5635	1.2193	0.6524	4.8961	-2.467	5.767	-1.4821	2.8502	1.3459
-3.1574	-4.4685	-2.9516	-1.2414	-4.2342	-1.5296	0.4275	-1.9255	-0.1362	1.593	1.0356	2.1883	4.6427	1.1876	0.7316	5.0607	-2.3689	5.7416	-1.3016	2.8534	1.5106
-3.1194	-4.3672	-2.8819	-1.2288	-4.0885	-1.3839	0.4687	-1.7196	0.0063	1.6658	1.2256	2.3404	4.7124	1.1338	0.8456	5.2222	-2.2675	5.7131	-1.1686	2.8376	1.6563
-3.0339	-4.25	-2.7806	-1.1686	-3.8985	-1.2351	0.5352	-1.5581	0.1678	1.7228	1.3934	2.4607	4.7567	1.0831	0.8741	5.3268	-2.1662	5.6656	-1.0007	2.8249	1.7893
-2.9927	-4.1233	-2.7014	-1.1464	-3.7275	-1.1116	0.5795	-1.3713	0.2977	1.7925	1.5518	2.5715	4.801	1.0356	0.9247	5.4281	-2.0743	5.6403	-0.8487	2.8059	1.9318
-2.9864	-4.0188	-2.6254	-1.1274	-3.5786	-0.9944	0.627	-1.1908	0.4275	1.8336	1.6911	2.6729	4.8422	0.9881	0.9406	5.5199	-1.9888	5.6023	-0.7157	2.7774	2.0395
-2.9136	-3.9016	-2.5652	-1.0736	-3.3854	-0.8456	0.7126	-1.0039	0.5669	1.897	1.84	2.7584	4.8961	0.9691	0.9564	5.5959	-1.9318	5.6086	-0.5764	2.7679	2.1503
-2.9072	-3.8161	-2.5114	-1.0482	-3.2493	-0.7252	0.7537	-0.8646	0.6999	1.954	1.9888	2.9009	4.9404	0.9501	0.9976	5.6339	-1.878	5.6118	-0.4719	2.7647	2.2738
-2.8629	-3.7306	-2.4417	-0.9849	-3.1162	-0.627	0.8012	-0.7284	0.8107	1.9762	2.087	2.9357	4.9309	0.9121	0.9311	5.6529	-1.8273	5.5706	-0.361	2.7204	2.3784
-2.8471	-3.6515	-2.4069	-0.9374	-2.9547	-0.5352	0.8551	-0.5764	0.9026	2.0268	2.2232	3.0339	4.9752	0.8931	0.9342	5.6656	-1.7925	5.5833	-0.2375	2.7267	2.4512
-2.8344	-3.5818	-2.353	-0.8899	-2.8154	-0.4244	0.8994	-0.4719	0.9944	2.0775	2.3499	3.1099	5.0101	0.8804	0.9026	5.6688	-1.7735	5.6054	-0.1488	2.7235	2.5272
-2.7901	-3.4994	-2.296	-0.8107	-2.6887	-0.3357	0.9406	-0.3294	1.0989	2.1313	2.4449	3.1891	5.0449	0.8836	0.8836	5.6466	-1.7703	5.6086	-0.0728	2.7362	2.5905
-2.8027	-3.4804	-2.2675	-0.7632	-2.6127	-0.2439	0.9659	-0.2154	1.1749	2.1567	2.5399	3.2588	5.0734	0.8646	0.8392	5.6023	-1.7386	5.6434	0.0127	2.7331	2.6792
-2.8154	-3.4361	-2.2295	-0.7157	-2.5019	-0.1615	1.0197	-0.095	1.2763	2.1852	2.638	3.3348	5.1272	0.8582	0.7601	5.5389	-1.7133	5.6815	0.0887	2.7552	2.7204
-2.7996	-3.3633	-2.1567	-0.6302	-2.3942	-0.0665	1.0673	0.0095	1.3966	2.2517	2.7742	3.4234	5.1906	0.8392	0.7379	5.4756	-1.6753	5.7353	0.1457	2.7774	2.7774
-2.7964	-3.3063	-2.1123	-0.5352	-2.2675	0.0158	1.1243	0.1203	1.479	2.315	2.8692	3.5058	5.2381	0.8202	0.6872	5.4186	-1.6278	5.786	0.209	2.8186	2.8122
-2.7647	-3.2651	-2.0268	-0.4687	-2.1883	0.1267	1.1844	0.2407	1.6056	2.3942	2.9611	3.604	5.3046	0.7949	0.6239	5.3268	-1.5835	5.8335	0.285	2.8629	2.8819
-2.7869	-3.2081	-1.9762	-0.3832	-2.0902	0.209	1.2193	0.304	1.6785	2.4417	3.0307	3.6736	5.3679	0.7632	0.5859	5.2824	-1.5265	5.8778	0.3167	2.9009	2.8787
-2.7489	-3.1321	-1.9033	-0.2534	-1.9698	0.323	1.3079	0.4244	1.802	2.5304	3.0941	3.7465	5.4408	0.7474	0.5257	5.2096	-1.4758	5.9538	0.3705	2.9706	2.9357
-2.7489	-3.1004	-1.859	-0.1615	-1.9223	0.3864	1.3618	0.4845	1.8811	2.5684	3.1543	3.8003	5.4693	0.7094	0.475	5.1177	-1.4093	5.9791	0.3674	3.0054	2.9294
-2.714	-3.0339	-1.764	-0.0633	-1.8336	0.5004	1.4314	0.5764	1.992	2.657	3.2176	3.851	5.5263	0.6872	0.4244	5.0544	-1.3681	6.052	0.4275	3.0782	2.9674
-2.676	-2.9959	-1.707	0.0412	-1.764	0.5289	1.4916	0.6239	2.03	2.7077	3.2208	3.87	5.5358	0.6682	0.3895	4.9847	-1.3269	6.09	0.4497	3.1226	2.9611
-2.6159	-2.9484	-1.6468	0.1488	-1.7196	0.6049	1.5613	0.6429	2.0775	2.7457	3.2239	3.8953	5.5421	0.6461	0.361	4.9816	-1.2858	6.0963	0.475	3.1543	2.9262
-2.5937	-2.9104	-1.5613	0.2439	-1.6563	0.6682	1.631	0.6492	2.1155	2.7679	3.2239	3.8763	5.5453	0.6397	0.38	4.9847	-1.2731	6.1217	0.4814	3.2144	2.9136
-2.524	-2.8566	-1.4916	0.323	-1.6151	0.7094	1.7006	0.6587	2.1503	2.8186	3.2239	3.8636	5.5421	0.6366	0.3484	4.9942	-1.2573	6.1248	0.4655	3.2366	2.9041
-2.4544	-2.8027	-1.4378	0.4149	-1.5835	0.7411	1.7291	0.6682	2.1092	2.8186	3.1638	3.8193	5.4914	0.6397	0.342	5.0576	-1.2636	6.1027	0.4624	3.2778	2.8502
-2.3942	-2.7616	-1.3713	0.4845	-1.5391	0.7664	1.7513	0.6619	2.125	2.8407	3.1289	3.7845	5.4629	0.6556	0.3325	5.0766	-1.2953	6.1058	0.4814	3.3063	2.8376
-2.3689	-2.7045	-1.3238	0.5225	-1.5423	0.7981	1.7545	0.6429	2.1028	2.8312	3.0941	3.7211	5.4218	0.6682	0.3325	5.1241	-1.3016	6.0678	0.418	3.2936	2.8027
-2.3214	-2.6539	-1.2509	0.5764	-1.5011	0.8139	1.7798	0.6334	2.068	2.8154	3.0592	3.661	5.3774	0.6777	0.342	5.1494	-1.3238	6.0266	0.4307	3.3031	2.7647
-2.2707	-2.6254	-1.2256	0.6112	-1.4853	0.8171	1.7798	0.6175	2.0078	2.8122	2.9927	3.5723	5.3014	0.6872	0.3167	5.1969	-1.3681	5.9791	0.4244	3.2714	2.7299
-2.2548	-2.5747	-1.1718	0.627	-1.4821	0.8202	1.7893	0.5985	1.9793	2.7964	2.9769	3.5406	5.2824	0.6999	0.2787	5.2064	-1.3839	5.9475	0.4244	3.2841	2.6982
-2.2327	-2.5367	-1.1211	0.6777	-1.4599	0.8487	1.802	0.5669	1.9223	2.7774	2.9231	3.5026	5.2476	0.7157	0.2344	5.2191	-1.4188	5.9031	0.3895	3.2429	2.676
-2.1978	-2.4765	-1.0768	0.7252	-1.4536	0.8297	1.7766	0.57	1.8907	2.7616	2.8819	3.4424	5.1747	0.7284	0.1963	5.1937	-1.4378	5.8588	0.3674	3.2461	2.6602
-2.2042	-2.4227	-1.0641	0.7252	-1.4346	0.8329	1.7735	0.551	1.8463	2.7457	2.8471	3.3886	5.1367	0.7316	0.1235	5.1399	-1.4473	5.7955	0.3167	3.2144	2.6222
-2.2327	-2.3625	-1.0387	0.7031	-1.4473	0.7727	1.7038	0.5035	1.7671	2.7109	2.7996	3.3348	5.0987	0.7157	0.0475	5.0924	-1.4473	5.7385	0.2629	3.1543	2.5874
-2.2358	-2.334	-1.0324	0.6777	-1.4473	0.7759	1.6975	0.4655	1.7228	2.676	2.7552	3.2873	5.0544	0.7347	-0.0095	5.0417	-1.4663	5.7036	0.2249	3.1226	2.5525
-2.258	-2.2897	-1.0197	0.6777	-1.4473	0.7506	1.6563	0.4497	1.6595	2.6887	2.7204	3.2556	5.0132	0.7506	-0.095	5.0101	-1.4853	5.6783	0.1837	3.0846	2.5462
-2.2897	-2.3023	-1.0578	0.6017	-1.4821	0.6777	1.5645	0.38	1.5835	2.6095	2.6539	3.1796	4.9499	0.7442	-0.1678	4.9467	-1.4758	5.6181	0.114	3.0244	2.4955
-2.3309	-2.239	-1.0578	0.5352	-1.5043	0.6714	1.5138	0.3832	1.5233	2.581	2.6254	3.1511	4.9182	0.7601	-0.1932	4.9594	-1.5138	5.5769	0.0412	2.9737	2.4765
-2.3499	-2.239	-1.0863	0.475	-1.5328	0.5954	1.4156	0.3199	1.4283	2.5019	2.5779	3.0782	4.8517	0.7506	-0.2534	4.9182	-1.5043	5.5168	-0.0285	2.9231	2.4544
-2.4195	-2.2548	-1.1528	0.3389	-1.5898	0.5067	1.2953	0.2629	1.3491	2.4069	2.4955	2.9737	4.7409	0.7442	-0.2755	4.9309	-1.498	5.4344	-0.0887	2.8154	2.3942
-2.4575	-2.2802	-1.1971	0.2439	-1.631	0.4307	1.2193	0.2058	1.2383	2.3435	2.4449	2.8977	4.668	0.7569	-0.285	4.9626	-1.5043	5.3299	-0.1773	2.7552	2.3594
-2.4765	-2.2833	-1.2351	0.1393	-1.688	0.3642	1.1053	0.1393	1.1433	2.2675	2.3784	2.8059	4.5889	0.7442	-0.2755	4.9911	-1.4853	5.2286	-0.2502	2.6855	2.3372
-2.5335	-2.2992	-1.2889	0.057	-1.7386	0.304	0.9976	0.0982	1.0609	2.1947	2.3277	2.7394	4.5224	0.7474	-0.2724	5.0576	-1.4853	5.1494	-0.361	2.5715	2.2548
-2.5589	-2.3372	-1.3554	-0.0348	-1.7956	0.2217	0.9216	0.0412	0.9691	2.1218	2.2707	2.6729	4.4559	0.7379	-0.266	5.1051	-1.4599	5.0639	-0.4497	2.4924	2.2327
-2.6	-2.3657	-1.4093	-0.133	-1.8526	0.1583	0.8297	-0.0127	0.8962	2.0522	2.2042	2.6127	4.3988	0.7284	-0.2185	5.2064	-1.4631	4.9816	-0.5542	2.4607	2.1757
-2.6032	-2.3594	-1.4188	-0.1805	-1.8685	0.1393	0.7759	-0.0412	0.8392	2.0427	2.1852	2.5842	4.3735	0.7316	-0.1647	5.3109	-1.4599	4.8992	-0.627	2.41	2.1187
-2.6412	-2.3847	-1.4346	-0.2312	-1.9065	0.0665	0.7316	-0.0855	0.7822	2.0142	2.1345	2.543	4.345	0.7157	-0.1172	5.4376	-1.4346	4.8517	-0.7474	2.3657	2.0395
-2.6222	-2.3657	-1.4726	-0.2629	-1.9223	0.0538	0.7379	-0.1172	0.7727	2.0173	2.1092	2.5399	4.3577	0.7126	-0.0887	5.5516	-1.4219	4.8169	-0.8044	2.3277	2.0078
-2.619	-2.3942	-1.4726	-0.2819	-1.9667	0.0285	0.6936	-0.1552	0.7537	2.011	2.0395	2.5367	4.3545	0.6999	-0.019	5.6625	-1.3998	4.7662	-0.9057	2.2897	1.935
-2.6222	-2.372	-1.4409	-0.3294	-1.9857	0.0095	0.6746	-0.19	0.7126	2.0078	2.0427	2.5367	4.4147	0.6904	-0.0222	5.7606	-1.3776	4.7345	-0.9944	2.2897	1.878
-2.6317	-2.3657	-1.4378	-0.323	-1.9825	-0.0032	0.6714	-0.2185	0.7252	2.0522	1.9983	2.5652	4.4559	0.6682	0.0285	5.881	-1.3459	4.706	-1.0799	2.2992	1.8431
-2.5715	-2.3435	-1.4029	-0.2724	-1.973	0.0443	0.7252	-0.2154	0.7632	2.1218	1.992	2.6	4.5129	0.6777	0.0697	5.9728	-1.3333	4.7124	-1.1338	2.3119	1.802
-2.5462	-2.3245	-1.3713	-0.2755	-1.9857	0.0728	0.7189	-0.2312	0.7632	2.1503	1.9698	2.6032	4.5414	0.6619	0.1077	6.052	-1.3048	4.6775	-1.2003	2.3023	1.7481
-2.467	-2.2612	-1.3111	-0.2217	-1.9508	0.1013	0.7632	-0.2249	0.8012	2.22	1.973	2.6539	4.63	0.6619	0.1362	6.0932	-1.3048	4.687	-1.2446	2.3245	1.7133
-2.448	-2.239	-1.2604	-0.19	-1.9508	0.1267	0.7854	-0.2597	0.8297	2.2675	1.9382	2.6792	4.6617	0.6492	0.1362	6.0963	-1.2858	4.6617	-1.2953	2.3562	1.707
-2.3942	-2.201	-1.1939	-0.1267	-1.9413	0.1678	0.8329	-0.285	0.8456	2.3277	1.916	2.6824	4.6902	0.6492	0.1045	6.0456	-1.2794	4.6332	-1.3301	2.3942	1.6721
-2.3119	-2.1345	-1.1116	-0.076	-1.9223	0.2154	0.8487	-0.2914	0.8804	2.3879	1.9097	2.7172	4.7567	0.627	0.0633	5.9285	-1.2668	4.6522	-1.3523	2.4069	1.631
-2.2485	-2.1028	-1.0641	-0.0127	-1.9128	0.2502	0.9026	-0.2945	0.9152	2.4195	1.8653	2.7299	4.7662	0.6175	0.0253	5.8271	-1.2604	4.649	-1.3649	2.4005	1.631
-2.182	-2.0585	-0.9627	0.0918	-1.8526	0.3104	0.9912	-0.2692	0.9944	2.505	1.8843	2.7742	4.8232	0.6429	-0.0158	5.6815	-1.2731	4.6712	-1.3459	2.4892	1.6721
-2.125	-2.0015	-0.8741	0.1488	-1.8178	0.3515	1.0166	-0.2977	1.0261	2.5525	1.8716	2.8027	4.8517	0.6302	-0.0887	5.4946	-1.2573	4.6522	-1.3238	2.4955	1.6816
-2.0553	-1.9382	-0.7917	0.209	-1.7513	0.3959	1.0736	-0.2977	1.0609	2.6127	1.8748	2.8154	4.8929	0.6207	-0.1647	5.2856	-1.2446	4.6427	-1.3174	2.5145	1.7038
-2.0142	-1.9065	-0.6999	0.3009	-1.726	0.4434	1.1148	-0.3135	1.1084	2.6982	1.8907	2.8787	4.9626	0.6207	-0.2502	5.0861	-1.2541	4.6585	-1.2668	2.5209	1.7418
-1.9572	-1.8305	-0.608	0.3927	-1.6531	0.532	1.2034	-0.2565	1.1939	2.7869	1.916	2.9832	5.0132	0.6397	-0.342	4.8486	-1.2668	4.6965	-1.2003	2.562	1.7988
-1.916	-1.7893	-0.5162	0.4719	-1.6215	0.5732	1.2446	-0.228	1.2541	2.8439	1.9508	3.0054	5.0861	0.6302	-0.4339	4.6395	-1.2699	4.6839	-1.1559	2.5272	1.878
-1.8938	-1.7228	-0.4339	0.5447	-1.5676	0.6239	1.3301	-0.2027	1.3206	2.9136	2.011	3.0719	5.1621	0.6397	-0.5289	4.4084	-1.2731	4.706	-1.0863	2.5399	1.9287
-1.8431	-1.6816	-0.323	0.6334	-1.5138	0.6967	1.3966	-0.1615	1.4061	3.0086	2.0617	3.1828	5.2539	0.6429	-0.6334	4.2088	-1.2794	4.7029	-1.0134	2.5367	2.0047
-1.8083	-1.6088	-0.2249	0.7189	-1.4504	0.7759	1.4663	-0.1203	1.4663	3.0814	2.144	3.2619	5.3331	0.6366	-0.7442	4.0062	-1.2699	4.7155	-0.9627	2.524	2.0838
-1.764	-1.5581	-0.1267	0.8171	-1.3586	0.8582	1.5835	-0.0507	1.5486	3.1733	2.1915	3.3474	5.4218	0.6366	-0.8171	3.908	-1.2668	4.725	-0.8836	2.5082	2.1503
-1.6816	-1.5011	0.019	0.9026	-1.2794	0.9342	1.6785	0.019	1.6595	3.2683	2.2517	3.4456	5.5136	0.6397	-0.8519	3.8193	-1.2699	4.7567	-0.8171	2.4829	2.239
-1.6151	-1.3966	0.133	1.0292	-1.1813	1.0482	1.7703	0.0855	1.7545	3.3601	2.3372	3.5469	5.6054	0.6429	-0.8804	3.7781	-1.2826	4.7694	-0.7347	2.4734	2.3309
-1.5201	-1.2953	0.2597	1.1559	-1.0894	1.1686	1.9065	0.1805	1.8907	3.5089	2.4607	3.6958	5.7226	0.6366	-0.9089	3.7718	-1.2731	4.8137	-0.6714	2.5114	2.4037
-1.3871	-1.1844	0.4054	1.3111	-0.9596	1.3079	2.0522	0.266	2.011	3.623	2.5747	3.8066	5.8715	0.6461	-0.9247	3.8478	-1.2731	4.8486	-0.589	2.4987	2.4987
-1.2509	-1.0387	0.5954	1.4916	-0.8139	1.4695	2.2137	0.418	2.1503	3.7845	2.6792	3.9491	5.995	0.6461	-0.8772	3.965	-1.2921	4.9309	-0.4909	2.5462	2.6285
-1.0831	-0.8741	0.7632	1.6785	-0.6334	1.6563	2.3942	0.5542	2.3404	3.9428	2.8249	4.117	6.1438	0.6461	-0.8202	4.1265	-1.2858	5.0069	-0.3927	2.6	2.7267
-0.8804	-0.6999	0.9786	1.8716	-0.4687	1.8083	2.6064	0.7221	2.4955	4.1202	2.9801	4.307	6.2958	0.6492	-0.7252	4.3323	-1.2794	5.1177	-0.2945	2.6602	2.8439
-0.6777	-0.5067	1.2098	2.0838	-0.2882	2.0078	2.8217	0.8741	2.6824	4.2943	3.1099	4.4685	6.4732	0.6492	-0.6334	4.5699	-1.2921	5.2159	-0.1773	2.7267	2.9642
-0.4592	-0.3199	1.4219	2.3372	-0.0823	2.2073	3.0529	1.0356	2.8692	4.5097	3.3158	4.6744	6.6569	0.6556	-0.4909	4.8612	-1.2858	5.3141	-0.076	2.8091	3.0972
-0.2249	-0.1298	1.6753	2.5715	0.114	2.4385	3.2936	1.2509	3.0782	4.6997	3.4583	4.8676	6.8279	0.6461	-0.3705	5.1842	-1.2826	5.4059	0.0095	2.9136	3.2018
0.0032	0.0728	1.8907	2.8027	0.2787	2.6317	3.5279	1.4599	3.2999	4.9277	3.6641	5.0766	7.0622	0.6524	-0.228	5.4661	-1.3016	5.5453	0.0982	3.0402	3.3379
0.2439	0.2882	2.1503	3.0624	0.5289	2.8502	3.7845	1.6531	3.5406	5.1621	3.8858	5.3648	7.2617	0.6682	-0.095	5.7765	-1.3048	5.7005	0.2185	3.1479	3.4899
0.4877	0.494	2.391	3.3031	0.7347	3.1004	4.0252	1.8875	3.7876	5.3838	4.1265	5.5991	7.4866	0.6651	0.0507	6.0456	-1.3079	5.8176	0.3515	3.2873	3.6198
0.7474	0.7094	2.6222	3.5533	0.9532	3.3506	4.2817	2.1282	4.0442	5.6434	4.3735	5.862	7.7304	0.6682	0.209	6.3148	-1.3301	5.957	0.475	3.4329	3.794
1.0007	0.9279	2.8851	3.794	1.1939	3.5755	4.5604	2.3879	4.3133	5.9063	4.6364	6.1502	7.9933	0.6841	0.3104	6.5619	-1.3428	6.109	0.608	3.6135	3.9491
1.2288	1.1686	3.1384	4.0378	1.4061	3.813	4.8105	2.6475	4.5952	6.166	4.9151	6.4605	8.2498	0.6809	0.4624	6.7424	-1.3618	6.2578	0.7474	3.775	4.1297
1.4821	1.3871	3.3791	4.2658	1.6658	4.0632	5.0702	2.9167	4.8707	6.4225	5.2001	6.7392	8.5032	0.6841	0.5954	6.9166	-1.3713	6.4067	0.9057	3.9555	4.3323
1.7291	1.6088	3.623	4.5002	1.9065	4.2943	5.3173	3.1954	5.1842	6.6885	5.5009	7.0527	8.785	0.7126	0.6967	7.0401	-1.4061	6.5777	1.0894	4.1297	4.5287
1.9603	1.8431	3.87	4.7155	2.144	4.535	5.5516	3.4488	5.4566	6.9324	5.7891	7.3663	9.0099	0.7189	0.8076	7.1382	-1.4314	6.7234	1.2351	4.3165	4.7282
2.1883	2.1028	4.0885	4.9531	2.4132	4.7662	5.767	3.7623	5.7511	7.2016	6.0963	7.6798	9.2791	0.7569	0.9089	7.2079	-1.5043	6.8722	1.4536	4.5097	4.9626
2.4164	2.3467	4.3355	5.1811	2.6539	4.9974	6.0013	4.0378	6.0171	7.4233	6.4225	7.9775	9.5166	0.7759	0.9881	7.2206	-1.5296	7.0527	1.6468	4.706	5.1811
2.6475	2.5335	4.5572	5.4123	2.9167	5.2476	6.242	4.3197	6.3212	7.6576	6.7392	8.2752	9.7636	0.8107	1.0768	7.1952	-1.5898	7.1826	1.8431	4.8866	5.4028
2.8946	2.7806	4.782	5.6434	3.1796	5.4408	6.451	4.592	6.565	7.8698	7.0306	8.5855	9.998	0.8392	1.1718	7.1889	-1.6626	7.3124	2.0078	5.0671	5.6244
3.0877	3.0371	5.0037	5.862	3.4361	5.7005	6.6822	4.8771	6.8469	8.1073	7.3473	8.8832	10.2576	0.8836	1.2383	7.1826	-1.7196	7.4676	2.201	5.2571	5.8398
3.3253	3.2556	5.2254	6.0868	3.7053	5.919	6.8912	5.1526	7.1287	8.329	7.6449	9.1682	10.4698	0.9089	1.3048	7.1351	-1.7925	7.6228	2.3942	5.4344	6.0678
3.5248	3.4804	5.4439	6.3212	3.9523	6.1248	7.1287	5.4249	7.3694	8.5412	7.93	9.4596	10.682	0.9406	1.4124	7.1319	-1.8558	7.7494	2.5842	5.5833	6.2705
3.737	3.6768	5.6339	6.546	4.1962	6.3243	7.3187	5.672	7.6196	8.7407	8.2055	9.7193	10.9164	0.9849	1.4853	7.0971	-1.9445	7.8761	2.7267	5.7701	6.4763
3.9238	3.8921	5.8145	6.7265	4.421	6.527	7.5088	5.9095	7.8856	8.918	8.462	9.979	11.1096	1.0102	1.5328	7.0654	-2.0237	7.987	2.8756	5.9	6.6632
4.0917	4.0853	5.9696	6.9324	4.6205	6.698	7.6798	6.1407	8.0978	9.1176	8.7027	10.207	11.3122	1.0609	1.593	7.0147	-2.106	8.101	3.0022	6.0773	6.8342
4.2342	4.2532	6.1312	7.0907	4.7979	6.8659	7.8381	6.3402	8.2847	9.2664	8.9339	10.4318	11.4927	1.0926	1.631	6.9767	-2.1662	8.2118	3.1257	6.2008	6.9609
4.3735	4.4337	6.2768	7.2586	4.9879	7.0211	8.0091	6.5144	8.481	9.4374	9.1176	10.6155	11.6448	1.1243	1.6816	6.9356	-2.2232	8.3037	3.1859	6.3148	7.0812
4.4812	4.5984	6.4035	7.3821	5.1652	7.1477	8.1263	6.6885	8.6552	9.5451	9.3234	10.8467	11.8189	1.1464	1.7355	6.888	-2.2675	8.367	3.2904	6.3972	7.2142
4.5667	4.706	6.5144	7.4676	5.2983	7.2586	8.2277	6.8405	8.8072	9.6718	9.4849	10.9829	11.9424	1.1686	1.7545	6.8722	-2.3119	8.4398	3.3728	6.4827	7.2966
4.6554	4.8327	6.5999	7.5658	5.4218	7.3663	8.3258	6.9862	8.9307	9.7509	9.6211	11.1127	12.047	1.1718	1.7671	6.8215	-2.3372	8.4715	3.4519	6.5397	7.3663
4.6997	4.9277	6.66	7.6006	5.5199	7.4201	8.3607	7.0781	9.0162	9.8079	9.7288	11.2204	12.1261	1.1781	1.7576	6.8215	-2.3562	8.5032	3.4709	6.5809	7.4454
4.744	5.0322	6.7139	7.6259	5.6213	7.5024	8.4177	7.1762	9.1176	9.8903	9.8618	11.3312	12.2085	1.1971	1.7513	6.7772	-2.3625	8.519	3.4963	6.6315	7.4993
4.7662	5.0766	6.7455	7.6354	5.6688	7.5468	8.462	7.2586	9.1714	9.9346	9.9315	11.4072	12.256	1.1908	1.7481	6.7709	-2.3879	8.5412	3.5438	6.6632	7.5373
4.8074	5.1304	6.7487	7.6576	5.7385	7.5848	8.4747	7.3251	9.2474	9.9695	10.0486	11.5086	12.3161	1.2066	1.7355	6.7772	-2.391	8.557	3.5501	6.6632	7.6006
4.8074	5.1621	6.774	7.6386	5.8113	7.6196	8.5	7.3916	9.2949	9.979	10.0961	11.5561	12.351	1.1971	1.6848	6.7614	-2.3942	8.5443	3.5786	6.6917	7.6291
4.8359	5.2096	6.7645	7.5879	5.8651	7.6386	8.4905	7.4613	9.3614	10.0075	10.1563	11.6131	12.3668	1.1939	1.6785	6.7677	-2.3879	8.5823	3.6008	6.7012	7.6671
4.8359	5.2286	6.7677	7.5689	5.9158	7.6703	8.4905	7.4929	9.4152	10.0138	10.2228	11.6986	12.4207	1.1876	1.6658	6.7899	-2.3784	8.5887	3.6198	6.7044	7.6766
4.8707	5.2888	6.8089	7.5563	5.9601	7.7019	8.4683	7.5689	9.4659	10.0581	10.3115	11.7461	12.4555	1.1908	1.6563	6.8437	-2.3689	8.595	3.6293	6.7392	7.7146
4.8739	5.3078	6.8247	7.5309	6.0203	7.7399	8.4715	7.6291	9.5293	10.0898	10.3907	11.8189	12.503	1.1939	1.6753	6.888	-2.3499	8.6014	3.6325	6.7297	7.7558
4.8739	5.3014	6.8025	7.4898	6.0425	7.759	8.4652	7.6544	9.5863	10.0961	10.4318	11.8728	12.5093	1.1749	1.669	6.9419	-2.3245	8.5697	3.6768	6.7107	7.7811
4.8961	5.3236	6.7994	7.4739	6.0995	7.7653	8.462	7.7368	9.6559	10.1278	10.4983	11.9551	12.5537	1.1623	1.6721	7.0021	-2.3055	8.5855	3.699	6.6917	7.8318
4.9087	5.3616	6.812	7.4644	6.1217	7.835	8.4652	7.797	9.7193	10.1626	10.5933	12.0248	12.5948	1.1528	1.6753	7.0432	-2.296	8.5855	3.737	6.7012	7.8825
4.8866	5.3014	6.7867	7.4106	6.1248	7.854	8.4525	7.8033	9.7604	10.15	10.6503	12.0628	12.598	1.1369	1.6531	7.0306	-2.2453	8.5412	3.7116	6.6727	7.9268
4.8327	5.2698	6.7455	7.3377	6.1122	7.8286	8.3733	7.8413	9.7984	10.1341	10.6757	12.0786	12.5663	1.0894	1.6468	7.0179	-2.1788	8.481	3.7243	6.6252	7.9141
4.8137	5.2508	6.7075	7.2807	6.1122	7.8286	8.3322	7.8476	9.8269	10.112	10.6979	12.1008	12.541	1.0704	1.5898	6.9229	-2.125	8.424	3.7053	6.584	7.9395
4.7504	5.1842	6.6379	7.1794	6.0646	7.8065	8.2752	7.8635	9.8523	10.0645	10.72	12.1071	12.4903	1.0482	1.5771	6.8152	-2.0585	8.3448	3.68	6.5239	7.9236
4.6965	5.1336	6.5619	7.0749	6.0393	7.7716	8.1611	7.8571	9.8491	9.9916	10.7042	12.0786	12.3922	1.0007	1.5645	6.7455	-2.0015	8.2277	3.6673	6.4605	7.9236
4.5984	5.0386	6.489	6.9482	5.9918	7.7019	8.0756	7.8001	9.8143	9.884	10.6725	12.0121	12.2781	0.9722	1.517	6.603	-1.935	8.0693	3.6261	6.3845	7.8983
4.5002	4.9436	6.3877	6.8089	5.9158	7.6449	7.9553	7.7621	9.7731	9.7826	10.6345	11.9583	12.1641	0.9437	1.4821	6.4953	-1.8621	7.9426	3.604	6.3117	7.8571
4.3482	4.8042	6.2325	6.6094	5.7891	7.5404	7.7811	7.6639	9.6781	9.6179	10.5522	11.8253	11.9551	0.8962	1.4378	6.4003	-1.7798	7.7621	3.5279	6.1913	7.8033
4.2563	4.6934	6.1185	6.4637	5.7131	7.4898	7.6544	7.5911	9.6021	9.4818	10.5015	11.7049	11.7588	0.8741	1.4093	6.3338	-1.726	7.5499	3.4614	6.0963	7.7431
4.1582	4.5635	5.9633	6.2483	5.6023	7.3663	7.4834	7.4803	9.5039	9.2981	10.3685	11.5783	11.5403	0.8361	1.3966	6.3117	-1.6436	7.3187	3.3728	5.957	7.6418
4.0125	4.459	5.8335	6.09	5.5104	7.2649	7.3282	7.3853	9.3836	9.1144	10.2513	11.4009	11.2742	0.7886	1.3713	6.3338	-1.5835	7.0496	3.3031	5.7986	7.5246
3.8605	4.288	5.6783	5.8968	5.3679	7.1446	7.1731	7.2617	9.2442	8.9149	10.1215	11.2109	10.986	0.7569	1.3301	6.337	-1.5138	6.8025	3.2049	5.6593	7.4106
3.7401	4.155	5.5389	5.7068	5.2761	7.0464	7.0179	7.1604	9.1239	8.7249	9.9853	11.0209	10.7295	0.7316	1.2921	6.3687	-1.4631	6.527	3.1131	5.4978	7.2776
3.6103	4.0378	5.3869	5.5199	5.1494	6.9229	6.8469	7.0337	8.9687	8.519	9.8364	10.8214	10.4255	0.6999	1.2699	6.394	-1.3998	6.2547	3.0054	5.3299	7.1604
3.4741	3.9016	5.2571	5.3869	5.0449	6.8342	6.6822	6.9102	8.823	8.3037	9.6813	10.6345	10.1658	0.6872	1.2573	6.4542	-1.3523	6.0013	2.9041	5.1747	7.0147
3.3189	3.7496	5.0892	5.2222	4.9246	6.6917	6.5175	6.7835	8.6457	8.0851	9.4913	10.397	9.8618	0.6492	1.2193	6.5112	-1.3016	5.7163	2.8027	4.9974	6.8215
3.1796	3.6166	4.9467	5.0227	4.7915	6.5777	6.3718	6.6189	8.4557	7.8476	9.3076	10.188	9.5641	0.6366	1.2003	6.5777	-1.2573	5.4629	2.6824	4.8074	6.6379
3.0212	3.4773	4.7789	4.8422	4.6965	6.4478	6.2103	6.5017	8.2942	7.6196	9.1176	9.979	9.2601	0.6049	1.1464	6.5999	-1.2066	5.1969	2.562	4.6364	6.4605
2.8439	3.3569	4.6269	4.6554	4.5699	6.2958	6.0171	6.3528	8.0851	7.3694	8.8864	9.7256	8.9624	0.5795	1.1116	6.6569	-1.1686	4.9151	2.4259	4.459	6.2388
2.7109	3.2208	4.4939	4.4939	4.459	6.1692	5.8841	6.2072	7.9173	7.1541	8.69	9.5071	8.6805	0.5669	1.0831	6.6759	-1.1243	4.687	2.3182	4.3007	6.0361
2.5525	3.1004	4.3228	4.3197	4.3513	6.0551	5.7226	6.0488	7.7019	6.9324	8.443	9.2252	8.386	0.551	1.0514	6.717	-1.1021	4.4147	2.2042	4.1202	5.8018
2.4069	3.0054	4.174	4.1803	4.2437	5.9316	5.5579	5.9	7.4993	6.7139	8.234	9.0004	8.0978	0.5194	1.0229	6.8279	-1.0673	4.1645	2.0807	3.965	5.5801
2.2422	2.8724	4.0505	4.0093	4.1582	5.7923	5.4091	5.748	7.3061	6.47	7.9648	8.7249	7.7685	0.513	0.9944	6.8595	-1.0419	3.9301	1.9508	3.7908	5.3268
2.1377	2.7964	3.9301	3.8763	4.0727	5.6878	5.2634	5.6181	7.1161	6.2705	7.7431	8.481	7.4993	0.5225	0.9152	6.9007	-1.0387	3.7085	1.8431	3.6483	5.1272
1.9888	2.695	3.794	3.7465	3.9745	5.5674	5.1494	5.4503	6.9292	6.0425	7.4803	8.2087	7.2174	0.5225	0.9026	6.9546	-1.0356	3.4804	1.7291	3.5026	4.8581
1.8716	2.6095	3.6768	3.6198	3.8953	5.4788	5.0196	5.3078	6.7297	5.8303	7.2332	7.9648	6.9514	0.5257	0.8899	7.0242	-1.0451	3.2714	1.6405	3.3569	4.6364
1.7735	2.5652	3.5881	3.5248	3.8098	5.3869	4.8897	5.1494	6.5492	5.6498	6.9736	7.6956	6.6569	0.5162	0.8836	7.0591	-1.0451	3.0656	1.5581	3.2208	4.383
1.669	2.4829	3.4773	3.4298	3.7623	5.2919	4.782	5.0101	6.3718	5.4439	6.7297	7.4739	6.4162	0.5162	0.8519	7.1129	-1.0229	2.8597	1.4568	3.0687	4.1613
1.593	2.4259	3.3791	3.3538	3.7116	5.2064	4.7092	4.8992	6.2008	5.2951	6.4922	7.2427	6.1755	0.513	0.8772	7.1351	-1.0356	2.6824	1.3903	2.9737	3.9681
1.5391	2.3689	3.3189	3.2809	3.6736	5.1526	4.6174	4.7694	6.0551	5.1462	6.3085	7.0306	5.9886	0.5099	0.8772	7.1604	-1.0292	2.4892	1.3111	2.8597	3.7623
1.4695	2.2833	3.2113	3.2429	3.6008	5.0766	4.5445	4.6649	5.9285	5.0006	6.109	6.8532	5.7828	0.5067	0.9057	7.1952	-1.0261	2.3055	1.2573	2.7552	3.5945
1.3776	2.2137	3.1257	3.1828	3.5533	5.0196	4.44	4.5667	5.7891	4.8454	5.9063	6.6727	5.5896	0.5004	0.9057	7.1667	-1.0039	2.1503	1.1781	2.619	3.4171
1.3459	2.1662	3.0561	3.1289	3.5184	4.9752	4.3957	4.4717	5.7005	4.7472	5.767	6.5492	5.4566	0.5099	0.9374	7.1477	-0.9881	2.0015	1.1369	2.5335	3.2841
1.2351	2.068	2.9611	3.0909	3.4646	4.9151	4.3355	4.3798	5.5896	4.6427	5.5928	6.3782	5.3173	0.475	0.9596	7.0781	-0.9564	1.8558	1.0609	2.4005	3.1448
1.1401	1.9762	2.8597	3.0054	3.3823	4.8549	4.2405	4.2817	5.4914	4.535	5.4724	6.28	5.1937	0.456	0.9532	7.0052	-0.9057	1.7133	1.0039	2.315	3.0244
1.0546	1.9033	2.7806	2.9801	3.3474	4.8327	4.1993	4.2183	5.4249	4.4274	5.3489	6.185	5.0671	0.4339	0.9564	6.8595	-0.8741	1.574	0.9627	2.1947	2.9231
0.9596	1.8178	2.6887	2.8756	3.2619	4.763	4.1202	4.1455	5.3553	4.3323	5.2381	6.0837	4.9816	0.4149	0.9247	6.679	-0.8266	1.4536	0.9089	2.0838	2.8249
0.8614	1.7133	2.5905	2.8027	3.2049	4.7219	4.0505	4.1138	5.3046	4.2722	5.1431	6.0235	4.9024	0.3959	0.9121	6.4953	-0.7886	1.3111	0.9121	1.9508	2.7742
0.7411	1.6183	2.5019	2.7267	3.1796	4.6775	3.9428	4.079	5.2634	4.1677	5.0861	5.9538	4.8074	0.3769	0.9121	6.2958	-0.7601	1.1971	0.9057	1.8463	2.7426
0.6461	1.5233	2.4195	2.6475	3.1289	4.6649	3.8921	4.022	5.2349	4.1012	5.0386	5.9221	4.7535	0.3579	0.8329	6.109	-0.7062	1.0831	0.8836	1.7355	2.7077
0.532	1.4346	2.3023	2.5652	3.1004	4.5984	3.8035	4.0062	5.1874	4.022	5.0069	5.9	4.6649	0.3294	0.8424	5.9316	-0.6714	0.9817	0.8867	1.6246	2.7457
0.4465	1.3776	2.2485	2.4639	3.0814	4.5825	3.7275	3.9967	5.2064	3.9586	4.9657	5.8683	4.6015	0.3072	0.7949	5.7575	-0.6239	0.9026	0.9311	1.5043	2.7742
0.3262	1.3143	2.1693	2.41	3.0434	4.5699	3.6483	3.9967	5.1811	3.9048	4.9847	5.8588	4.573	0.2977	0.7474	5.6054	-0.589	0.8329	0.9627	1.4093	2.7996
0.228	1.2383	2.0585	2.3245	3.0054	4.5065	3.5976	4.0188	5.1842	3.8731	4.9942	5.8588	4.516	0.266	0.6936	5.4281	-0.5447	0.7379	0.9849	1.3048	2.8534
0.1457	1.1749	1.9983	2.2675	3.0276	4.5192	3.5374	4.0283	5.2191	3.8383	5.0417	5.8841	4.5002	0.2565	0.627	5.3014	-0.513	0.6904	1.0261	1.2256	2.9262
0.038	1.1369	1.9572	2.1978	3.0149	4.5002	3.4868	4.0727	5.2413	3.8193	5.0861	5.8968	4.4939	0.2534	0.5669	5.2317	-0.4972	0.6334	1.0894	1.1274	3.0022
-0.0538	1.0926	1.8621	2.0965	3.0086	4.4939	3.4203	4.0917	5.2603	3.7908	5.1177	5.8968	4.4527	0.2249	0.5004	5.1114	-0.4655	0.5542	1.0989	1.0736	3.0656
-0.171	1.0387	1.7988	1.9983	2.9959	4.4685	3.3443	4.1138	5.2824	3.7623	5.1747	5.9158	4.4464	0.2154	0.4402	4.9974	-0.4339	0.5447	1.1528	1.0102	3.1543
-0.2819	0.9976	1.726	1.8653	2.9927	4.4685	3.2904	4.2057	5.3236	3.7623	5.2349	5.957	4.4432	0.1932	0.3895	4.9752	-0.4117	0.513	1.1876	0.9501	3.2556
-0.3547	0.9912	1.7038	1.8083	3.0529	4.5034	3.2778	4.2753	5.4186	3.7781	5.3394	6.0108	4.478	0.19	0.3579	4.9436	-0.3642	0.5035	1.2351	0.9342	3.2968
-0.418	0.9849	1.7101	1.6848	3.0497	4.5224	3.2429	4.3577	5.5009	3.8098	5.4154	6.0583	4.497	0.1583	0.3262	4.9626	-0.323	0.4909	1.2763	0.8931	3.4044
-0.4655	1.0292	1.6816	1.631	3.1226	4.573	3.2176	4.4749	5.6149	3.8446	5.5579	6.1597	4.554	0.133	0.3389	4.9911	-0.2692	0.5067	1.3523	0.8804	3.5216
-0.5162	1.0578	1.7006	1.5486	3.1891	4.649	3.2081	4.554	5.7036	3.889	5.6688	6.2293	4.6142	0.1203	0.3515	5.1051	-0.2312	0.532	1.3871	0.8899	3.5945
-0.5574	1.1243	1.7481	1.4726	3.2619	4.7314	3.2081	4.6522	5.8208	3.965	5.7891	6.3402	4.6839	0.0918	0.38	5.2571	-0.1868	0.551	1.4346	0.9089	3.6831
-0.5384	1.1591	1.7798	1.4124	3.3696	4.8074	3.2398	4.7757	5.957	3.9998	5.9253	6.432	4.7472	0.0697	0.456	5.4218	-0.1457	0.5669	1.4821	0.8867	3.7623
-0.5732	1.2319	1.8368	1.3618	3.4424	4.8834	3.2303	4.8866	6.071	4.0632	6.052	6.5049	4.801	0.0602	0.5004	5.6434	-0.1077	0.5827	1.5011	0.8899	3.8225
-0.5605	1.3079	1.9033	1.3206	3.5216	4.9657	3.2524	5.0069	6.166	4.1328	6.166	6.5999	4.8771	0.038	0.5954	5.8715	-0.076	0.608	1.574	0.9216	3.9143
-0.5194	1.3934	2.0047	1.2921	3.6325	5.0924	3.3189	5.1082	6.299	4.1867	6.299	6.679	4.9341	0.0095	0.6714	6.1407	-0.0443	0.608	1.6151	0.8931	3.984
-0.4497	1.5391	2.1313	1.3269	3.7845	5.2349	3.3918	5.2793	6.4352	4.288	6.432	6.7645	5.0259	0.0095	0.7791	6.3687	-0.019	0.6651	1.6753	0.9311	4.0537
-0.4085	1.65	2.2295	1.3459	3.908	5.3363	3.4773	5.3806	6.5334	4.3513	6.5112	6.8025	5.0481	-0.0095	0.8709	6.5967	0.0127	0.6619	1.7038	0.9469	4.0948
-0.3484	1.745	2.3309	1.3554	4.0188	5.4661	3.5184	5.5073	6.641	4.3988	6.6315	6.8817	5.1051	-0.019	0.9944	6.8405	0.0348	0.6461	1.783	0.9374	4.136
-0.2597	1.9065	2.4544	1.3776	4.1867	5.6149	3.585	5.6308	6.7297	4.4527	6.7075	6.9482	5.1652	-0.0443	1.0546	6.9926	0.076	0.627	1.8368	0.9184	4.2057
-0.1742	2.0522	2.5747	1.3903	4.3323	5.7448	3.6451	5.7511	6.8627	4.5065	6.8025	6.9894	5.2254	-0.0507	1.1654	7.1319	0.0982	0.6302	1.897	0.9121	4.212
-0.1013	2.201	2.7172	1.4378	4.5002	5.8873	3.7243	5.8841	6.9514	4.5857	6.8912	7.0401	5.2761	-0.0697	1.2193	7.2396	0.1362	0.6334	1.9382	0.9247	4.269
0	2.3277	2.8376	1.4726	4.6395	5.9981	3.7623	5.9665	7.0274	4.63	6.9609	7.0876	5.3078	-0.0918	1.3016	7.3156	0.1805	0.6017	1.973	0.9152	4.2595
0.0855	2.4797	2.9547	1.4916	4.7789	6.1565	3.8351	6.1122	7.1636	4.7092	7.0274	7.1382	5.3679	-0.1172	1.3776	7.3694	0.2122	0.608	2.0205	0.9152	4.2785
0.19	2.6602	3.1067	1.5835	4.9436	6.3212	3.9301	6.2198	7.3092	4.7884	7.0939	7.2174	5.4471	-0.114	1.4378	7.3758	0.2629	0.608	2.0648	0.9406	4.2817
0.304	2.7837	3.2809	1.6785	5.1241	6.4542	4.022	6.318	7.3758	4.8834	7.1572	7.3029	5.5294	-0.152	1.5233	7.3884	0.3135	0.627	2.1092	0.9722	4.2753
0.418	2.9294	3.4424	1.7893	5.2856	6.641	4.1233	6.4478	7.5151	4.9626	7.2111	7.3758	5.5928	-0.1742	1.6278	7.4518	0.3389	0.6239	2.125	1.0039	4.2563
0.5605	3.1067	3.6135	1.9508	5.4408	6.7867	4.2342	6.5587	7.6418	5.0702	7.2807	7.4549	5.7036	-0.1995	1.7133	7.4486	0.3832	0.6556	2.163	1.0482	4.2658
0.7284	3.2651	3.8066	2.1028	5.5896	6.9799	4.3703	6.6727	7.778	5.2127	7.3314	7.5404	5.7955	-0.2185	1.8178	7.4549	0.4212	0.6651	2.2105	1.0958	4.2437
0.9026	3.4298	4.0157	2.277	5.7416	7.1794	4.5129	6.7804	7.9141	5.3299	7.3884	7.6259	5.9221	-0.2375	1.9382	7.5309	0.4529	0.7094	2.239	1.1876	4.2405
1.1053	3.6293	4.231	2.486	5.9285	7.3789	4.6934	6.9007	8.0503	5.4693	7.4454	7.7431	6.0393	-0.228	2.0933	7.5879	0.4529	0.7664	2.2612	1.3048	4.2278
1.2858	3.7971	4.4527	2.6887	6.0868	7.5594	4.8929	7.0337	8.1992	5.6498	7.5056	7.8381	6.1628	-0.2344	2.201	7.6671	0.475	0.7791	2.2738	1.3839	4.1708
1.4853	3.9555	4.6712	2.8946	6.2167	7.7621	5.0639	7.1351	8.348	5.7955	7.5531	7.9395	6.2958	-0.2407	2.334	7.7811	0.4877	0.8361	2.2897	1.4695	4.1455
1.7355	4.174	4.9246	3.1574	6.394	7.9806	5.2508	7.2554	8.5	5.9728	7.6323	8.0471	6.4035	-0.2407	2.4702	7.8571	0.4909	0.9089	2.3372	1.5961	4.1202
1.9477	4.345	5.1304	3.3696	6.5555	8.1706	5.4566	7.3884	8.6584	6.1565	7.7019	8.1548	6.5555	-0.2439	2.6222	7.9901	0.475	0.9247	2.3689	1.7006	4.0948
2.1788	4.5319	5.3679	3.6198	6.7139	8.3607	5.6529	7.4929	8.8072	6.3085	7.7273	8.2435	6.66	-0.2375	2.7679	8.1105	0.4719	0.9912	2.3815	1.8305	4.0347
2.391	4.7155	5.6023	3.8636	6.8595	8.5443	5.8588	7.5943	8.9465	6.4668	7.7558	8.3512	6.774	-0.2312	2.9041	8.1802	0.456	1.0229	2.3752	1.9318	3.9745
2.6222	4.9056	5.8271	4.1233	7.0337	8.766	6.09	7.7051	9.1429	6.679	7.8255	8.481	6.9261	-0.2122	3.0181	8.2562	0.4212	1.0863	2.429	2.0807	3.9301
2.8439	5.0924	6.0551	4.3735	7.1762	8.9655	6.3275	7.8445	9.2949	6.8849	7.9046	8.6045	7.0812	-0.1932	3.1574	8.3227	0.3832	1.1464	2.467	2.1947	3.9016
3.0307	5.2666	6.2388	4.6174	7.3473	9.1587	6.5682	7.9648	9.4754	7.0401	7.9268	8.7122	7.1826	-0.19	3.2588	8.3638	0.3674	1.2129	2.4797	2.3214	3.8288
3.2429	5.4471	6.4637	4.8739	7.4929	9.3487	6.8089	8.0756	9.6306	7.2776	8.0123	8.8357	7.3536	-0.1678	3.3759	8.3987	0.3262	1.2509	2.5494	2.448	3.8098
3.4234	5.6213	6.66	5.1019	7.6418	9.5293	7.0116	8.2023	9.8048	7.4423	8.0756	8.9877	7.4961	-0.1678	3.4804	8.424	0.3135	1.2984	2.562	2.5715	3.7465
3.642	5.8113	6.8627	5.3489	7.8318	9.7509	7.2839	8.3353	10.0043	7.6798	8.1643	9.1619	7.6734	-0.1393	3.5881	8.4747	0.2787	1.3491	2.638	2.6982	3.7401
3.813	6.0235	7.0781	5.5928	8.0028	9.9536	7.5278	8.4873	10.1943	7.8951	8.2467	9.3361	7.8381	-0.1488	3.7053	8.4905	0.266	1.4188	2.7014	2.8217	3.7275
4.0062	6.2293	7.2839	5.8398	8.1928	10.1468	7.7811	8.6299	10.4097	8.139	8.348	9.4944	8.0028	-0.1298	3.8161	8.5348	0.2502	1.479	2.7552	2.9579	3.7053
4.1898	6.4288	7.4898	6.0583	8.3607	10.3558	8.0155	8.7882	10.6187	8.3733	8.4683	9.6876	8.1802	-0.1298	3.9016	8.5982	0.2312	1.555	2.8376	3.0846	3.7085
4.402	6.6442	7.6703	6.2705	8.5317	10.568	8.2498	8.9402	10.8182	8.5919	8.5792	9.865	8.3765	-0.1172	4.0252	8.69	0.2217	1.6183	2.9294	3.2239	3.7211
4.5699	6.8469	7.9046	6.4732	8.728	10.7739	8.4937	9.1049	11.0399	8.8357	8.728	10.0835	8.5823	-0.1013	4.1518	8.7787	0.1963	1.7165	3.0307	3.3759	3.7718
4.7599	7.0432	8.0661	6.6664	8.9244	10.9639	8.7375	9.2696	11.2647	9.0606	8.8674	10.2925	8.7597	-0.0855	4.2468	8.8895	0.1773	1.821	3.1194	3.5089	3.8003
4.9024	7.1826	8.2372	6.8152	9.0827	11.1444	8.937	9.4184	11.4294	9.2949	9.0035	10.4888	8.9212	-0.0855	4.3577	8.9687	0.1678	1.8621	3.2049	3.6103	3.851
5.0797	7.3948	8.405	6.9546	9.2411	11.3027	9.1176	9.5894	11.6194	9.4881	9.1461	10.6788	9.0827	-0.0855	4.4495	9.0859	0.1457	1.954	3.2999	3.7211	3.9111
5.2317	7.5436	8.5412	7.0939	9.3962	11.4484	9.3012	9.7446	11.8031	9.6813	9.3139	10.8657	9.2727	-0.0507	4.5129	9.1936	0.1267	2.0775	3.4108	3.8541	4.0062
5.3901	7.6893	8.709	7.2111	9.5546	11.5751	9.4596	9.9156	11.9836	9.8681	9.4849	11.0684	9.4564	-0.057	4.6174	9.3171	0.1172	2.1662	3.5089	3.9491	4.1012
5.5041	7.8223	8.823	7.2839	9.6876	11.7018	9.5451	10.0803	12.1293	10.0265	9.6528	11.2362	9.5926	-0.0602	4.6554	9.3836	0.1172	2.2263	3.5976	4.041	4.2088
5.6023	7.8983	8.9339	7.3631	9.8016	11.8063	9.6496	10.2133	12.3066	10.1911	9.8301	11.4167	9.7636	-0.0697	4.668	9.4659	0.1267	2.334	3.7021	4.117	4.3165
5.672	8.0123	9.0067	7.4201	9.8998	11.8728	9.7319	10.3242	12.4048	10.3305	9.9948	11.5909	9.9251	-0.0697	4.6934	9.5198	0.1393	2.4005	3.7971	4.1835	4.4305
5.7796	8.0883	9.0732	7.4708	10.0201	11.9551	9.8111	10.5078	12.5632	10.4603	10.1848	11.7841	10.0961	-0.0792	4.7155	9.5673	0.1488	2.4892	3.8953	4.2627	4.5667
5.8461	8.1485	9.1397	7.4961	10.1151	12.0185	9.8745	10.625	12.6993	10.5617	10.378	11.9615	10.264	-0.0855	4.6997	9.5863	0.1647	2.581	3.9903	4.3292	4.7124
5.8968	8.2213	9.1841	7.4898	10.1975	12.0755	9.922	10.7517	12.7944	10.6567	10.5648	12.1293	10.4002	-0.095	4.706	9.6084	0.1868	2.6475	4.0632	4.3798	4.8517
5.9221	8.234	9.2094	7.5056	10.2513	12.104	9.9283	10.8752	12.8799	10.7137	10.7359	12.2655	10.5332	-0.114	4.6775	9.5989	0.2217	2.7267	4.1202	4.4084	4.9942
5.957	8.3005	9.2537	7.4866	10.3083	12.1293	9.9695	10.9987	13.0002	10.7929	10.9385	12.4143	10.7074	-0.114	4.6617	9.6243	0.2312	2.8281	4.2152	4.478	5.1589
5.9601	8.3132	9.2506	7.4929	10.3558	12.1451	9.9948	11.1	13.0635	10.8372	11.0874	12.579	10.8309	-0.1425	4.6395	9.5926	0.2534	2.8977	4.2722	4.4875	5.2919
5.9601	8.3353	9.2727	7.4866	10.397	12.161	9.9885	11.2299	13.168	10.9037	11.2932	12.731	10.9639	-0.1425	4.6174	9.6084	0.2629	2.9642	4.383	4.554	5.4693
5.976	8.3417	9.2917	7.4803	10.4635	12.1641	10.0075	11.3281	13.2346	10.9322	11.4801	12.8704	11.0937	-0.152	4.5667	9.5736	0.304	3.0149	4.4432	4.5699	5.5928
6.0171	8.367	9.2981	7.4929	10.5078	12.18	10.0201	11.4294	13.2884	10.9797	11.6289	12.9875	11.1824	-0.1615	4.5889	9.6021	0.3009	3.0909	4.516	4.5794	5.748
6.0393	8.4113	9.3171	7.4866	10.5617	12.18	10.0011	11.5371	13.3454	10.986	11.7714	13.0889	11.2267	-0.1678	4.5572	9.5863	0.3167	3.1036	4.5825	4.6079	5.8683
6.0837	8.4367	9.3361	7.5246	10.6187	12.1926	9.9853	11.6036	13.3612	10.9639	11.9044	13.187	11.2996	-0.1773	4.5572	9.5989	0.3389	3.1384	4.668	4.6174	5.9981
6.0837	8.4367	9.3487	7.5024	10.6377	12.1736	9.9663	11.6796	13.3992	10.9544	12.0026	13.2314	11.3344	-0.19	4.5129	9.5546	0.361	3.1511	4.6934	4.5857	6.0868
6.1153	8.4588	9.3582	7.5468	10.6757	12.1673	9.9346	11.7366	13.3961	10.9132	12.1071	13.2884	11.3439	-0.1868	4.5097	9.5261	0.3705	3.1511	4.7567	4.573	6.1787
6.1628	8.4778	9.4026	7.5784	10.7169	12.1673	9.9251	11.7904	13.4214	10.8974	12.2053	13.3486	11.3629	-0.1932	4.4749	9.4818	0.3769	3.1574	4.8169	4.573	6.2642
6.1945	8.4873	9.4247	7.5816	10.7454	12.1768	9.8998	11.8316	13.4246	10.8277	12.2528	13.3644	11.3376	-0.1932	4.459	9.3931	0.38	3.1574	4.8549	4.535	6.3465
6.223	8.4968	9.4247	7.6133	10.7644	12.1736	9.8555	11.8443	13.3961	10.758	12.2876	13.4056	11.2901	-0.1932	4.421	9.2854	0.3769	3.1162	4.9119	4.516	6.4067
6.2547	8.5095	9.4659	7.6608	10.7897	12.1293	9.8364	11.8918	13.4151	10.701	12.3256	13.4087	11.2679	-0.1805	4.3988	9.1841	0.3642	3.1004	4.9404	4.4654	6.4415
6.2895	8.538	9.4659	7.6766	10.777	12.1261	9.7921	11.8886	13.3802	10.6377	12.3225	13.3961	11.2394	-0.1805	4.364	9.0606	0.3705	3.0687	4.9879	4.4337	6.4542
6.3243	8.5412	9.5008	7.6798	10.7992	12.0723	9.7731	11.9076	13.3517	10.5743	12.3478	13.4214	11.1887	-0.1773	4.3387	8.956	0.3547	3.0466	5.0322	4.402	6.4922
6.3275	8.5285	9.4849	7.6956	10.7612	12.0596	9.7129	11.8791	13.2947	10.4793	12.313	13.3802	11.1254	-0.1773	4.3102	8.8199	0.3579	2.9959	5.0386	4.3387	6.4827
6.3117	8.4873	9.4913	7.6766	10.72	11.99	9.6623	11.7999	13.1902	10.3717	12.2401	13.3201	11.0335	-0.1995	4.2532	8.7122	0.3737	2.9072	5.0481	4.2627	6.47
6.2958	8.4588	9.4628	7.6544	10.6693	11.9234	9.5578	11.7271	13.111	10.245	12.1515	13.2187	10.9164	-0.1868	4.2405	8.6014	0.3737	2.8629	5.0259	4.193	6.4003
6.2673	8.386	9.4184	7.6196	10.6092	11.8316	9.4786	11.6638	13.0065	10.131	12.0438	13.1079	10.7739	-0.1932	4.1898	8.5063	0.3927	2.7742	5.0322	4.1075	6.3465
6.2325	8.3227	9.3614	7.5499	10.5205	11.7334	9.3804	11.5117	12.8735	9.9631	11.8759	13.0065	10.6313	-0.1995	4.1518	8.4398	0.399	2.6665	4.9847	4.0062	6.2262
6.1882	8.215	9.2822	7.4803	10.4192	11.6194	9.2632	11.3851	12.6993	9.7699	11.7081	12.845	10.4287	-0.2249	4.1138	8.367	0.4275	2.5494	4.9214	3.927	6.1312
6.1217	8.139	9.2094	7.3884	10.2703	11.4611	9.1144	11.1951	12.5157	9.5894	11.5117	12.6803	10.2101	-0.2375	4.0822	8.3385	0.4624	2.4069	4.8517	3.7971	6.0013
6.0456	8.0123	9.1556	7.2934	10.1341	11.3249	8.9877	11.0209	12.313	9.3836	11.2837	12.4523	9.9695	-0.2502	4.0442	8.2815	0.5035	2.2675	4.744	3.6768	5.8398
5.995	7.9046	9.0416	7.1794	10.0201	11.1856	8.842	10.8467	12.1008	9.1999	11.0525	12.2306	9.7256	-0.2787	3.984	8.2498	0.5384	2.125	4.687	3.5628	5.729
5.9316	7.7748	8.9434	7.0749	9.8491	11.0145	8.6837	10.644	11.8664	8.9909	10.8055	11.9931	9.4849	-0.2882	3.9238	8.2023	0.57	1.9857	4.5984	3.4488	5.5516
5.8145	7.6228	8.8357	6.9419	9.6749	10.8594	8.5285	10.435	11.6384	8.7597	10.5743	11.7334	9.2094	-0.304	3.8636	8.1738	0.5985	1.84	4.4875	3.3221	5.3838
5.7606	7.4771	8.7027	6.8057	9.4944	10.663	8.3512	10.207	11.3882	8.5443	10.2957	11.4642	8.9402	-0.3167	3.8098	8.158	0.6239	1.688	4.3925	3.1954	5.2381
5.6339	7.3282	8.5823	6.679	9.3076	10.4888	8.2087	9.9853	11.1349	8.3005	10.0265	11.1729	8.6679	-0.3389	3.7433	8.1231	0.6651	1.5328	4.2753	3.0719	5.0576
5.5294	7.1636	8.443	6.5397	9.1524	10.2957	8.044	9.7668	10.8847	8.0978	9.7636	10.8942	8.4018	-0.3515	3.6768	8.1485	0.6936	1.3998	4.1582	2.9864	4.8929
5.4218	6.9926	8.3132	6.4257	8.9117	10.0866	7.8951	9.5134	10.5933	7.8888	9.4723	10.6028	8.1326	-0.38	3.585	8.1611	0.7537	1.2636	4.022	2.8692	4.6997
5.3173	6.8405	8.1706	6.2958	8.7312	9.9061	7.7558	9.2537	10.3305	7.6798	9.1967	10.2925	7.8856	-0.418	3.5596	8.2055	0.8171	1.1369	3.8921	2.7711	4.516
5.2064	6.6854	8.0566	6.1787	8.5253	9.7066	7.6069	9.0384	10.0771	7.4993	8.9402	10.0201	7.6323	-0.4339	3.4931	8.2498	0.8677	1.0261	3.7845	2.7014	4.3545
5.0639	6.5017	7.873	6.0361	8.3575	9.5103	7.4391	8.804	9.8048	7.2902	8.6489	9.7066	7.3884	-0.494	3.4709	8.3068	0.9469	0.9184	3.6736	2.6254	4.1867
4.9341	6.3592	7.7146	5.8651	8.1485	9.3044	7.3029	8.5823	9.5388	7.0971	8.3765	9.4057	7.1541	-0.532	3.4171	8.3417	1.0261	0.8202	3.5564	2.5399	4.0093
4.7884	6.2008	7.5721	5.7353	7.9616	9.1302	7.1636	8.3575	9.2949	6.9102	8.1168	9.1207	6.9134	-0.5637	3.3854	8.4113	1.1021	0.7031	3.4393	2.4797	3.813
4.668	6.052	7.4264	5.5959	7.7653	8.899	7.0369	8.1295	9.0194	6.7329	7.8096	8.7977	6.6854	-0.5985	3.3823	8.4905	1.1623	0.5827	3.3379	2.4385	3.6356
4.5635	5.9221	7.2586	5.4503	7.6006	8.7059	6.907	7.8983	8.7724	6.5397	7.5468	8.4905	6.4415	-0.6366	3.3918	8.5348	1.2383	0.4814	3.2366	2.3847	3.4393
4.4147	5.7543	7.1161	5.2888	7.4233	8.519	6.7392	7.6513	8.5127	6.3623	7.2427	8.1358	6.1787	-0.6714	3.3696	8.5602	1.3174	0.3547	3.1067	2.3277	3.2398
4.3197	5.6276	6.9736	5.1716	7.2522	8.3258	6.6474	7.4486	8.2562	6.2072	6.9894	7.8413	5.9696	-0.6841	3.3823	8.595	1.3618	0.2312	3.0117	2.2833	3.0687
4.155	5.5168	6.7804	5.0164	7.0717	8.101	6.4827	7.2364	7.9933	6.0013	6.7075	7.5183	5.6973	-0.7347	3.3918	8.6235	1.4219	0.1203	2.9104	2.2232	2.8566
4.0663	5.4028	6.622	4.9056	6.9039	7.9015	6.3433	6.9957	7.7336	5.8208	6.394	7.1636	5.4249	-0.7442	3.4044	8.6109	1.4663	-0.0443	2.7837	2.1915	2.6507
3.927	5.2856	6.4763	4.7947	6.7487	7.6988	6.2198	6.7645	7.4486	5.6339	6.1027	6.8184	5.1684	-0.7696	3.4393	8.5728	1.5106	-0.19	2.6665	2.1408	2.4607
3.8288	5.1747	6.3433	4.6775	6.5935	7.5151	6.0741	6.546	7.1952	5.4724	5.8208	6.508	4.8929	-0.7759	3.4361	8.5412	1.5391	-0.3389	2.543	2.0775	2.2643
3.718	5.0797	6.185	4.5097	6.4605	7.3251	5.9411	6.318	6.9546	5.2856	5.5009	6.1565	4.6142	-0.7949	3.4361	8.4905	1.574	-0.4845	2.4385	2.011	2.049
3.623	4.9847	6.0615	4.4305	6.3148	7.1382	5.8303	6.1438	6.717	5.1241	5.2508	5.862	4.364	-0.8076	3.4519	8.424	1.5898	-0.6556	2.3023	1.9382	1.84
3.5216	4.8802	5.8968	4.3197	6.1565	6.9419	5.6878	5.9253	6.4763	4.9626	4.9784	5.5864	4.1138	-0.8139	3.4773	8.3892	1.612	-0.8044	2.2232	1.8748	1.6215
3.4583	4.8296	5.767	4.2215	6.0425	6.7867	5.5959	5.7606	6.2863	4.8391	4.7345	5.3014	3.8858	-0.8202	3.5153	8.348	1.6183	-0.9374	2.1155	1.8431	1.4378
3.3284	4.725	5.6181	4.0885	5.9063	6.6094	5.4851	5.5516	6.071	4.6744	4.4907	5.0132	3.642	-0.8329	3.566	8.3005	1.6468	-1.0831	1.9603	1.7608	1.2351
3.2429	4.63	5.4756	3.9872	5.7765	6.4573	5.3901	5.3774	5.8715	4.5667	4.2627	4.7662	3.4329	-0.8392	3.6008	8.272	1.6531	-1.2129	1.84	1.6911	1.0356
3.1543	4.5699	5.3489	3.8921	5.6625	6.2832	5.3014	5.2191	5.7005	4.4622	4.0568	4.573	3.2651	-0.8487	3.6071	8.1897	1.6785	-1.3269	1.7418	1.6563	0.8456
3.0497	4.4622	5.2064	3.7845	5.5358	6.1153	5.1842	5.0607	5.5199	4.3482	3.832	4.3482	3.0846	-0.8614	3.6641	8.1453	1.7038	-1.4441	1.631	1.5771	0.6746
2.9516	4.3893	5.0639	3.6641	5.3933	5.9665	5.0924	4.8897	5.3268	4.2215	3.6451	4.1328	2.8914	-0.8614	3.699	8.12	1.7038	-1.5613	1.5201	1.5518	0.5067
2.8629	4.2943	4.9151	3.5786	5.2888	5.7923	5.0164	4.7535	5.1937	4.1075	3.4361	3.946	2.714	-0.8677	3.737	8.0281	1.7133	-1.6563	1.4061	1.4726	0.3072
2.7362	4.212	4.7725	3.4804	5.1431	5.6276	4.9119	4.6047	5.0227	4.0125	3.2493	3.756	2.5557	-0.8677	3.7686	7.9743	1.7165	-1.7481	1.2889	1.4473	0.1235
2.6285	4.1043	4.5952	3.3538	5.0386	5.4598	4.8074	4.44	4.8549	3.908	3.0529	3.5723	2.3879	-0.8646	3.7591	7.8603	1.707	-1.8495	1.1718	1.4124	-0.0538
2.5019	3.946	4.4622	3.2619	4.8676	5.2888	4.7155	4.2848	4.7124	3.8098	2.8661	3.4044	2.2453	-0.8487	3.7433	7.8191	1.6943	-1.916	1.0292	1.3586	-0.2122
2.3499	3.8383	4.2563	3.1352	4.725	5.1019	4.6015	4.1107	4.5319	3.6831	2.6475	3.1923	2.0617	-0.8456	3.7401	7.7463	1.6816	-2.0173	0.9184	1.3143	-0.3864
2.2422	3.6863	4.0917	3.0276	4.5414	4.9341	4.459	3.946	4.3545	3.5691	2.467	3.0022	1.897	-0.8329	3.7306	7.7368	1.6531	-2.1123	0.7791	1.2319	-0.5447
2.125	3.566	3.9238	2.9167	4.4084	4.782	4.3672	3.7781	4.1993	3.4614	2.2707	2.8249	1.7355	-0.8012	3.7148	7.7083	1.612	-2.1852	0.6651	1.1813	-0.6936
1.992	3.4234	3.737	2.7837	4.2405	4.6205	4.212	3.6261	4.0347	3.3284	2.1028	2.6412	1.5771	-0.7917	3.6546	7.6291	1.5676	-2.2802	0.5447	1.0989	-0.8424
1.8653	3.2904	3.5691	2.7014	4.1138	4.4495	4.1265	3.4931	3.9048	3.2271	1.9508	2.5209	1.4916	-0.7664	3.6356	7.5848	1.5106	-2.3562	0.4307	1.0641	-0.9881
1.7513	3.1638	3.4171	2.6	3.9967	4.2912	4.0125	3.3728	3.7655	3.1099	1.7925	2.3974	1.3681	-0.7474	3.5818	7.4961	1.4663	-2.4069	0.3325	0.9817	-1.1179
1.6563	3.0719	3.2841	2.5589	3.9111	4.2057	3.9333	3.2651	3.6831	3.0434	1.6721	2.2548	1.2699	-0.7126	3.5248	7.4549	1.3998	-2.4195	0.2977	0.9659	-1.2129
1.536	2.9611	3.1289	2.4702	3.794	4.0378	3.8256	3.1543	3.585	2.9484	1.5455	2.1693	1.2224	-0.6936	3.4488	7.3631	1.3649	-2.4575	0.228	0.9184	-1.2921
1.4409	2.8502	3.0212	2.4385	3.7053	3.9713	3.7465	3.0656	3.4773	2.8787	1.4631	2.087	1.1718	-0.6777	3.3728	7.2807	1.3364	-2.4924	0.1615	0.8614	-1.3871
1.3364	2.7552	2.8882	2.3879	3.6103	3.87	3.661	2.9769	3.4424	2.8281	1.3776	2.0522	1.1496	-0.6619	3.2936	7.1477	1.3143	-2.5082	0.1172	0.8171	-1.4536
1.2161	2.657	2.7552	2.315	3.5343	3.7876	3.5818	2.8851	3.3538	2.7331	1.3143	2.0078	1.1179	-0.6587	3.2144	7.0052	1.3079	-2.5114	0.0317	0.7569	-1.5201
1.0989	2.562	2.6602	2.2675	3.4456	3.6895	3.5153	2.8281	3.3126	2.7235	1.2414	1.9983	1.1243	-0.6619	3.1352	6.8944	1.2921	-2.5019	0	0.7157	-1.5803
0.9691	2.4417	2.543	2.2042	3.3158	3.6293	3.4234	2.7394	3.2683	2.6697	1.1654	1.9698	1.1148	-0.6651	3.0371	6.7455	1.2889	-2.4987	-0.095	0.6366	-1.6658
0.8741	2.3847	2.4512	2.1377	3.2619	3.5786	3.3728	2.6824	3.2651	2.6254	1.1496	1.9825	1.1718	-0.6429	2.9706	6.6347	1.2731	-2.486	-0.133	0.6175	-1.6943
0.7727	2.2738	2.3309	2.0617	3.1923	3.5311	3.2999	2.6159	3.2271	2.6	1.1021	1.973	1.1718	-0.6461	2.9072	6.4985	1.2636	-2.4892	-0.228	0.5479	-1.726
0.6841	2.2105	2.2643	1.9983	3.1574	3.4899	3.2524	2.5684	3.2113	2.581	1.0863	1.9983	1.2161	-0.6366	2.8091	6.3465	1.2573	-2.4449	-0.2755	0.494	-1.7798
0.6017	2.1345	2.1852	1.9888	3.0846	3.4488	3.2081	2.5494	3.2144	2.5747	1.0799	2.0363	1.2446	-0.6429	2.7552	6.2357	1.2383	-2.448	-0.3642	0.4339	-1.8115
0.513	2.0553	2.1123	1.9223	3.0181	3.4456	3.1891	2.4955	3.1986	2.5874	1.1021	2.068	1.3143	-0.6239	2.6982	6.1628	1.2256	-2.4195	-0.4244	0.4054	-1.802
0.4275	1.992	2.0268	1.8463	2.9769	3.3886	3.1226	2.4829	3.1923	2.5652	1.1179	2.0902	1.3174	-0.6302	2.6507	6.0488	1.2224	-2.4354	-0.4814	0.3515	-1.8115
0.3547	1.9192	1.9635	1.8178	2.9389	3.4013	3.1194	2.4765	3.1954	2.5494	1.1274	2.1345	1.3839	-0.6334	2.6	5.995	1.2193	-2.4512	-0.5289	0.266	-1.8431
0.3072	1.8685	1.897	1.7956	2.9104	3.3918	3.0877	2.4892	3.2176	2.562	1.1528	2.1852	1.4346	-0.6239	2.581	5.976	1.1971	-2.41	-0.5827	0.2344	-1.8336
0.2375	1.8495	1.8907	1.7766	2.8882	3.3886	3.0814	2.4924	3.2461	2.5905	1.2098	2.258	1.5043	-0.6017	2.5462	6.033	1.1686	-2.3974	-0.6144	0.209	-1.7988
0.152	1.7893	1.8178	1.7133	2.8661	3.3981	3.0624	2.5209	3.2588	2.5779	1.2858	2.2992	1.5771	-0.608	2.5272	6.0963	1.1623	-2.4005	-0.6556	0.1647	-1.7671
0.1235	1.7576	1.8115	1.707	2.8566	3.3981	3.0687	2.5589	3.3316	2.6095	1.3586	2.4037	1.6785	-0.5732	2.524	6.1818	1.1338	-2.3752	-0.6651	0.133	-1.7196
0.0633	1.7576	1.783	1.6753	2.8946	3.4203	3.0846	2.619	3.3664	2.6634	1.479	2.5304	1.783	-0.57	2.5019	6.3307	1.1053	-2.3435	-0.6682	0.1425	-1.669
0.0063	1.7355	1.7608	1.6341	2.8977	3.4298	3.1036	2.695	3.4551	2.6982	1.5961	2.6507	1.878	-0.5637	2.505	6.4383	1.0894	-2.2992	-0.6239	0.1267	-1.612
-0.0443	1.7291	1.7386	1.5835	2.9357	3.4836	3.1162	2.7457	3.5184	2.7837	1.7323	2.7869	2.0395	-0.5384	2.5114	6.5745	1.0673	-2.2548	-0.6239	0.1647	-1.5455
-0.0918	1.7355	1.7323	1.5455	2.9832	3.4994	3.1384	2.8439	3.604	2.8661	1.8621	2.9389	2.144	-0.5479	2.5145	6.7044	1.0514	-2.2232	-0.5764	0.1425	-1.4568
-0.1108	1.745	1.7355	1.5075	2.9927	3.5311	3.1733	2.9231	3.699	2.9547	2.0015	3.1036	2.3245	-0.5479	2.4575	6.8025	1.0546	-2.163	-0.5479	0.1932	-1.3618
-0.1488	1.7576	1.7608	1.498	3.0529	3.5945	3.2366	3.0054	3.8225	3.0529	2.1693	3.2841	2.4765	-0.5447	2.4575	6.9039	1.0451	-2.0997	-0.494	0.2122	-1.2604
-0.1393	1.8051	1.783	1.5011	3.1352	3.6198	3.2746	3.1194	3.9365	3.1733	2.353	3.4709	2.6412	-0.5352	2.4639	6.9894	1.0546	-2.0205	-0.4402	0.2692	-1.1686
-0.1742	1.8146	1.7798	1.4695	3.2049	3.6641	3.3253	3.2176	4.041	3.2904	2.524	3.6261	2.8122	-0.5384	2.4227	6.9989	1.0546	-1.9635	-0.3705	0.2787	-1.0799
-0.209	1.8368	1.7766	1.4473	3.2239	3.6926	3.3633	3.3474	4.1392	3.4013	2.6602	3.794	2.9547	-0.5479	2.41	6.9767	1.0673	-1.9097	-0.323	0.2882	-0.9849
-0.2217	1.8495	1.783	1.4504	3.3031	3.756	3.4329	3.3918	4.2595	3.4994	2.7932	3.9396	3.0846	-0.5542	2.3625	6.9577	1.1053	-1.878	-0.2945	0.3262	-0.8994
-0.2249	1.859	1.7735	1.4314	3.3284	3.7528	3.4709	3.4678	4.3577	3.585	2.9262	4.0917	3.2081	-0.5574	2.334	6.9102	1.1274	-1.8495	-0.2375	0.3484	-0.8551
-0.2629	1.8558	1.783	1.4409	3.3664	3.8003	3.5089	3.5438	4.4305	3.68	3.0212	4.2183	3.3189	-0.5795	2.315	6.8374	1.1623	-1.8431	-0.2312	0.323	-0.7854
-0.285	1.8938	1.7576	1.4536	3.3981	3.8066	3.5343	3.5881	4.5034	3.7718	3.1099	4.3133	3.3981	-0.5922	2.2992	6.717	1.1749	-1.859	-0.171	0.2977	-0.7284
-0.3104	1.9002	1.7608	1.4758	3.4614	3.8383	3.5913	3.6261	4.5604	3.8446	3.1986	4.4432	3.5058	-0.5954	2.258	6.603	1.2003	-1.8305	-0.171	0.2692	-0.6872
-0.323	1.9192	1.7671	1.4821	3.4868	3.8636	3.6293	3.642	4.6015	3.8985	3.2366	4.5255	3.5501	-0.6175	2.2453	6.4922	1.2224	-1.8653	-0.1583	0.2122	-0.6841
-0.3547	1.9318	1.7576	1.4916	3.5469	3.8636	3.68	3.6831	4.6585	3.9618	3.2936	4.5952	3.623	-0.6366	2.2327	6.3497	1.2478	-1.8558	-0.1425	0.1963	-0.6492
-0.3769	1.9413	1.7576	1.5075	3.5755	3.8826	3.7021	3.7053	4.7187	4.0283	3.3284	4.6744	3.6768	-0.6429	2.1788	6.1882	1.2763	-1.8938	-0.1172	0.152	-0.6112
-0.3769	1.9793	1.7861	1.5265	3.623	3.8826	3.737	3.7528	4.7694	4.079	3.3759	4.7535	3.7401	-0.6524	2.1535	6.0488	1.2858	-1.9223	-0.095	0.1298	-0.5985
-0.4275	2.0332	1.7956	1.5296	3.6736	3.9206	3.7591	3.7908	4.8454	4.1582	3.4234	4.8517	3.8035	-0.6714	2.106	5.881	1.3206	-1.9255	-0.057	0.1013	-0.5669
-0.437	2.068	1.8083	1.5106	3.737	3.946	3.7876	3.8225	4.8897	4.2025	3.4424	4.9341	3.8446	-0.6872	2.0807	5.748	1.3586	-1.9192	-0.0127	0.095	-0.57
-0.4782	2.106	1.8051	1.4885	3.7718	3.9428	3.7971	3.8573	4.9277	4.2342	3.4868	5.0101	3.9048	-0.7126	2.0237	5.5864	1.4093	-1.9223	0.0412	0.0602	-0.5637
-0.5035	2.1345	1.8368	1.4695	3.813	3.9745	3.8066	3.9143	4.9879	4.2658	3.5248	5.0829	3.9713	-0.7157	1.9793	5.4566	1.4378	-1.9097	0.0443	0.0412	-0.5669
-0.5225	2.163	1.8431	1.4599	3.8605	3.9967	3.7971	3.9365	5.0259	4.3102	3.5184	5.1494	3.9935	-0.7411	1.9572	5.3869	1.4726	-1.9318	0.0792	0.0285	-0.5542
-0.5574	2.2105	1.8558	1.4409	3.9016	4.0283	3.8098	3.9745	5.0829	4.3418	3.5184	5.2096	4.003	-0.7537	1.9033	5.2793	1.5043	-1.9223	0.114	0.019	-0.532
-0.5764	2.2295	1.8748	1.3808	3.9111	4.0315	3.8003	3.9428	5.0987	4.3323	3.5058	5.2191	3.9935	-0.7917	1.8526	5.2159	1.5423	-1.9508	0.1172	0.0063	-0.5574
-0.5922	2.2738	1.8495	1.3269	3.9206	4.0442	3.7465	3.9586	5.1241	4.3323	3.4709	5.2571	3.9681	-0.7949	1.8431	5.1811	1.5803	-1.9762	0.1203	-0.0032	-0.608
-0.608	2.2992	1.8938	1.2604	3.9618	4.0537	3.7591	3.9365	5.1336	4.3165	3.4519	5.2413	3.9428	-0.8234	1.821	5.1589	1.6151	-1.9888	0.0982	-0.0253	-0.6175
-0.6682	2.2802	1.8685	1.1749	3.9238	4.0157	3.6578	3.9048	5.0924	4.2278	3.3569	5.2159	3.8541	-0.8487	1.7703	5.1494	1.6658	-2.068	0.0792	-0.0665	-0.6777
-0.6904	2.3119	1.8495	1.0958	3.9301	4.0347	3.6261	3.8858	5.0576	4.1803	3.2841	5.1716	3.7686	-0.8741	1.7735	5.1621	1.7006	-2.0965	0.0887	-0.0697	-0.7126
-0.7062	2.3119	1.8463	0.9944	3.9143	4.0188	3.5628	3.8415	5.0544	4.1138	3.2176	5.1082	3.6641	-0.8772	1.7481	5.1969	1.7196	-2.1567	0.0475	-0.0918	-0.7537
-0.7316	2.3214	1.84	0.9121	3.9143	4.0157	3.5374	3.7813	5.0006	4.0315	3.1194	5.0322	3.5755	-0.8741	1.7355	5.2413	1.7355	-2.1915	0.057	-0.0887	-0.8044
-0.7537	2.3467	1.8336	0.8044	3.8795	3.9776	3.4329	3.7275	4.9246	3.9206	3.0371	4.9562	3.4456	-0.8899	1.7006	5.2951	1.7513	-2.2168	0.019	-0.1203	-0.8519
-0.7917	2.3214	1.8051	0.6936	3.832	3.9301	3.3316	3.661	4.8517	3.8066	2.9104	4.8359	3.3189	-0.8994	1.6753	5.3299	1.7608	-2.2707	0	-0.1393	-0.9247
-0.8297	2.3023	1.783	0.589	3.794	3.8858	3.2334	3.5818	4.7535	3.6895	2.8027	4.725	3.1384	-0.9089	1.6468	5.3679	1.7703	-2.2833	-0.0222	-0.1425	-1.0071
-0.8804	2.2897	1.7386	0.475	3.7465	3.8351	3.1384	3.5248	4.6459	3.5406	2.657	4.5825	3.0149	-0.9184	1.5898	5.3743	1.7798	-2.3119	-0.0475	-0.171	-1.0704
-0.8994	2.2675	1.7355	0.3927	3.7021	3.7813	3.0466	3.4298	4.5572	3.4139	2.5367	4.4527	2.8471	-0.9026	1.5391	5.3648	1.7861	-2.3372	-0.0538	-0.1995	-1.1338
-0.9406	2.2517	1.6816	0.285	3.6546	3.7116	2.9421	3.3474	4.4369	3.2746	2.3657	4.3133	2.6634	-0.9121	1.479	5.3173	1.8083	-2.3879	-0.114	-0.209	-1.2193
-0.9912	2.2232	1.669	0.1963	3.5786	3.6641	2.8439	3.2588	4.3102	3.0941	2.22	4.155	2.4765	-0.9057	1.4473	5.3141	1.7893	-2.4195	-0.1425	-0.2312	-1.2763
-1.0324	2.1503	1.5993	0.1108	3.4994	3.5628	2.7109	3.1352	4.174	2.8946	2.049	3.9618	2.2675	-0.9057	1.3934	5.2413	1.802	-2.4829	-0.2154	-0.2692	-1.4093
-1.0863	2.0807	1.5708	0.038	3.3728	3.4678	2.5969	3.0022	3.9935	2.7299	1.8463	3.7528	2.0553	-0.9121	1.3713	5.2032	1.7956	-2.5652	-0.2724	-0.3135	-1.5328
-1.1021	2.049	1.536	-0.019	3.2841	3.3918	2.4607	2.8977	3.832	2.5525	1.6816	3.5406	1.8336	-0.8994	1.3238	5.1462	1.7798	-2.6349	-0.3357	-0.3325	-1.6278
-1.1464	1.9635	1.4853	-0.1045	3.1669	3.3063	2.3594	2.7394	3.6198	2.3435	1.4821	3.2904	1.5898	-0.8962	1.2984	5.0861	1.7703	-2.714	-0.4085	-0.3895	-1.7545
-1.2066	1.8938	1.4346	-0.1647	3.0307	3.1954	2.2232	2.6032	3.4329	2.1472	1.2414	3.0402	1.3143	-0.8962	1.2984	5.0164	1.764	-2.8439	-0.5257	-0.437	-1.9128
-1.2478	1.7988	1.3903	-0.2312	2.9072	3.0846	2.0997	2.4069	3.2144	1.8938	1.0071	2.7394	1.0514	-0.8836	1.2794	4.9467	1.745	-2.9611	-0.6682	-0.5067	-2.0965
-1.2731	1.7165	1.3396	-0.2502	2.7616	2.9896	1.9952	2.2548	3.0054	1.6721	0.7569	2.4797	0.7569	-0.8677	1.2731	4.8232	1.7323	-3.1131	-0.7696	-0.5669	-2.2612
-1.2826	1.6373	1.3143	-0.304	2.6349	2.9009	1.8716	2.0775	2.7742	1.4346	0.5067	2.1725	0.456	-0.8614	1.2794	4.7725	1.688	-3.2651	-0.9247	-0.627	-2.4259
-1.3048	1.5391	1.2573	-0.3262	2.5114	2.7711	1.7703	1.8938	2.5209	1.2098	0.247	1.8716	0.1615	-0.8266	1.2889	4.6459	1.6215	-3.3728	-1.0134	-0.6872	-2.5937
-1.3523	1.4409	1.2066	-0.3389	2.3594	2.6729	1.6658	1.688	2.277	0.9817	-0.019	1.5423	-0.133	-0.7886	1.2668	4.5255	1.5613	-3.5406	-1.1749	-0.7791	-2.7901
-1.3396	1.3776	1.1623	-0.323	2.2327	2.5715	1.5961	1.517	2.0648	0.7949	-0.2692	1.2668	-0.399	-0.7632	1.2984	4.4274	1.5138	-3.6831	-1.2763	-0.8139	-2.9801
-1.3586	1.2921	1.1654	-0.2914	2.1187	2.4892	1.5201	1.3554	1.8526	0.6239	-0.5194	1.0039	-0.6429	-0.7284	1.3079	4.3513	1.4409	-3.8193	-1.3934	-0.8456	-3.1638
-1.3554	1.2383	1.1496	-0.2565	2.0142	2.3942	1.4695	1.2129	1.6468	0.4592	-0.7284	0.7347	-0.8836	-0.6967	1.3269	4.2943	1.3649	-3.9206	-1.4695	-0.8646	-3.2999
-1.3744	1.1718	1.1211	-0.2502	1.8716	2.2897	1.4029	1.0419	1.4314	0.304	-0.9627	0.4465	-1.1116	-0.6746	1.3459	4.2088	1.3238	-4.041	-1.5771	-0.9121	-3.4709
-1.3554	1.1496	1.1116	-0.2154	1.8305	2.2327	1.3523	0.9057	1.2478	0.1773	-1.1433	0.2058	-1.3428	-0.6492	1.3744	4.2088	1.2731	-4.136	-1.6753	-0.9311	-3.6135
-1.3048	1.1179	1.1306	-0.2058	1.7576	2.1757	1.3649	0.7886	1.0958	0.0633	-1.3428	-0.0253	-1.5201	-0.6302	1.3998	4.1708	1.2288	-4.231	-1.745	-0.9532	-3.7591
-1.2858	1.1243	1.1528	-0.1742	1.707	2.1472	1.3364	0.6967	0.9596	-0.0475	-1.5296	-0.2407	-1.6975	-0.608	1.4441	4.1962	1.1813	-4.2848	-1.8178	-0.9374	-3.8636
-1.2003	1.1781	1.2034	-0.1362	1.7038	2.1123	1.3396	0.6429	0.8519	-0.1393	-1.6626	-0.4244	-1.8621	-0.5764	1.5043	4.2278	1.1306	-4.3133	-1.8716	-0.9152	-3.9776
-1.0958	1.2414	1.2858	-0.0728	1.745	2.1503	1.3586	0.6112	0.7442	-0.1773	-1.7766	-0.5827	-1.992	-0.5479	1.555	4.25	1.0768	-4.3418	-1.8938	-0.8899	-4.0442
-1.0197	1.2921	1.3364	-0.0443	1.745	2.1218	1.3744	0.532	0.6302	-0.247	-1.9413	-0.7727	-2.1282	-0.5257	1.6278	4.3197	1.0419	-4.402	-1.935	-0.8867	-4.1645
-0.8899	1.3966	1.4599	0.0475	1.802	2.1757	1.4251	0.5225	0.5859	-0.2914	-2.0268	-0.9121	-2.2358	-0.5099	1.7228	4.4147	0.9944	-4.4242	-1.9508	-0.8677	-4.2057
-0.7601	1.4821	1.5486	0.0982	1.859	2.2042	1.4314	0.4877	0.494	-0.3294	-2.1472	-1.0768	-2.3657	-0.475	1.7988	4.5382	0.9437	-4.4812	-1.9698	-0.8551	-4.2848
-0.6144	1.6088	1.669	0.1583	1.9097	2.258	1.4695	0.4655	0.4529	-0.38	-2.2675	-1.2351	-2.4924	-0.4592	1.8875	4.6997	0.8931	-4.5065	-1.9793	-0.8424	-4.3672
-0.4814	1.726	1.8146	0.2692	1.9793	2.3119	1.5138	0.4687	0.4149	-0.3927	-2.353	-1.3934	-2.5937	-0.4275	2.011	4.9024	0.8329	-4.5699	-2.011	-0.8392	-4.3893
-0.2914	1.8716	1.9603	0.3515	2.0332	2.3752	1.5676	0.4624	0.3769	-0.4054	-2.4765	-1.536	-2.7077	-0.3959	2.1155	5.1684	0.7791	-4.5889	-2.0363	-0.8012	-4.4432
-0.114	1.9793	2.0902	0.475	2.0902	2.4322	1.6373	0.4244	0.3325	-0.399	-2.5684	-1.688	-2.8122	-0.3832	2.2168	5.4028	0.7252	-4.6364	-2.0617	-0.8234	-4.4875
0.0728	2.1123	2.2517	0.6049	2.1725	2.5209	1.7228	0.4307	0.3072	-0.4054	-2.6824	-1.802	-2.9009	-0.3452	2.3182	5.6815	0.6714	-4.6554	-2.0553	-0.7886	-4.535
0.2249	2.1947	2.3657	0.6936	2.1947	2.5842	1.7703	0.3579	0.2724	-0.418	-2.8122	-1.954	-2.9864	-0.3389	2.4227	5.9696	0.6334	-4.7092	-2.0997	-0.8202	-4.6079
0.4275	2.3372	2.5304	0.8614	2.2327	2.6792	1.897	0.3705	0.2502	-0.361	-2.8946	-2.0427	-3.0561	-0.3072	2.5589	6.2895	0.5827	-4.7092	-2.1313	-0.7822	-4.6427
0.6049	2.4354	2.657	1.0007	2.2802	2.7584	1.9793	0.3294	0.247	-0.3389	-2.9959	-2.1598	-3.1004	-0.2914	2.638	6.5524	0.5542	-4.7314	-2.1472	-0.7442	-4.668
0.7537	2.524	2.8059	1.1528	2.296	2.8502	2.0933	0.3104	0.247	-0.2945	-3.0814	-2.2453	-3.1448	-0.2724	2.7774	6.8279	0.5415	-4.7314	-2.2168	-0.7284	-4.7282
0.9469	2.657	2.9737	1.3301	2.3657	2.9231	2.2168	0.3167	0.2692	-0.1742	-3.1448	-2.3055	-3.1194	-0.2724	2.8882	7.1034	0.532	-4.6997	-2.2295	-0.7189	-4.7789
1.1148	2.7457	3.1004	1.4599	2.3879	3.0561	2.3625	0.2914	0.2882	-0.095	-3.2144	-2.3435	-3.1448	-0.2724	2.9896	7.3504	0.5194	-4.687	-2.2485	-0.6809	-4.8105
1.2636	2.8597	3.2461	1.5993	2.4005	3.1606	2.4607	0.2692	0.342	0	-3.2714	-2.3942	-3.1036	-0.2629	3.0846	7.5341	0.5289	-4.6522	-2.2897	-0.6524	-4.8391
1.4156	2.9611	3.4139	1.7735	2.4987	3.2714	2.6222	0.3325	0.4085	0.1267	-3.2841	-2.3974	-3.0529	-0.2629	3.2049	7.7273	0.5099	-4.5825	-2.2643	-0.6207	-4.8327
1.5518	3.0402	3.5343	1.9413	2.5114	3.3759	2.7584	0.323	0.4814	0.2439	-3.3284	-2.3847	-2.9959	-0.2597	3.3126	7.854	0.5099	-4.5382	-2.2643	-0.5827	-4.8549
1.7291	3.1416	3.68	2.1155	2.581	3.4963	2.9136	0.3705	0.5352	0.399	-3.3316	-2.3942	-2.9326	-0.2724	3.3918	8.006	0.513	-4.4939	-2.2453	-0.5764	-4.8707
1.8748	3.2429	3.8541	2.3087	2.6095	3.6198	3.0719	0.3769	0.6017	0.5415	-3.3158	-2.3594	-2.8471	-0.266	3.4931	8.0788	0.5194	-4.4179	-2.2295	-0.5162	-4.8739
2.0078	3.3411	4.003	2.4797	2.6855	3.7528	3.2556	0.4275	0.7031	0.6809	-3.3253	-2.3435	-2.7774	-0.2755	3.5723	8.1516	0.532	-4.364	-2.2327	-0.4624	-4.8866
2.1915	3.4298	4.1613	2.7014	2.7204	3.8826	3.3981	0.4592	0.8044	0.8361	-3.3221	-2.3119	-2.714	-0.2755	3.6515	8.2277	0.5384	-4.3323	-2.2042	-0.4339	-4.8771
2.3467	3.5089	4.2975	2.8851	2.7901	3.9808	3.5691	0.4877	0.8519	0.9596	-3.3031	-2.2612	-2.6444	-0.2882	3.7275	8.2752	0.5384	-4.2753	-2.1567	-0.4022	-4.8802
2.5114	3.623	4.459	3.0814	2.8502	4.1043	3.718	0.5194	0.9216	1.0768	-3.2904	-2.2263	-2.5779	-0.2882	3.8193	8.2657	0.5384	-4.2215	-2.1345	-0.3452	-4.9024
2.676	3.7148	4.6047	3.2873	2.8977	4.231	3.8541	0.5795	1.0356	1.2224	-3.2113	-2.1598	-2.4512	-0.2755	3.889	8.253	0.5257	-4.1677	-2.1218	-0.2819	-4.8802
2.8154	3.7971	4.7567	3.4741	3.0054	4.364	4.0283	0.6302	1.1306	1.3523	-3.1859	-2.0933	-2.3784	-0.2629	3.9143	8.1738	0.494	-4.117	-2.0807	-0.2534	-4.8517
2.9642	3.9238	4.9467	3.661	3.0941	4.5065	4.193	0.7031	1.2668	1.4948	-3.0782	-1.9793	-2.258	-0.2375	3.9586	8.0883	0.456	-4.0283	-2.0268	-0.1932	-4.7947
3.0782	4.0125	5.0734	3.8351	3.1638	4.6142	4.3228	0.7759	1.3649	1.6151	-3.0022	-1.8716	-2.1345	-0.2154	3.9776	7.9268	0.4307	-3.9555	-1.9825	-0.1203	-4.7947
3.1986	4.1138	5.1811	3.9745	3.2271	4.7155	4.4179	0.8487	1.4726	1.7418	-2.9294	-1.7893	-2.0395	-0.2122	3.9745	7.7653	0.4054	-3.908	-1.9413	-0.076	-4.7567
3.2936	4.193	5.3268	4.1138	3.3158	4.8169	4.5192	0.9406	1.6025	1.859	-2.8122	-1.6405	-1.8907	-0.2027	3.984	7.6038	0.3737	-3.8351	-1.9223	-0.0475	-4.7029
3.3886	4.288	5.4249	4.1993	3.4139	4.9372	4.611	1.0546	1.745	1.9635	-2.6665	-1.4663	-1.7481	-0.1837	3.9111	7.3948	0.3357	-3.7496	-1.8653	0.0095	-4.6205
3.4583	4.4115	5.5326	4.3038	3.5153	5.0639	4.725	1.1496	1.9128	2.0965	-2.5209	-1.2731	-1.5771	-0.152	3.8573	7.1952	0.3135	-3.6546	-1.8115	0.076	-4.5699
3.5564	4.5097	5.6529	4.3608	3.6325	5.1747	4.7504	1.2826	2.0427	2.1788	-2.3499	-1.0799	-1.4219	-0.1552	3.8288	6.9989	0.2787	-3.585	-1.7386	0.1013	-4.4527
3.585	4.6332	5.7448	4.4115	3.7465	5.2793	4.8327	1.4314	2.2295	2.3119	-2.1662	-0.8709	-1.2319	-0.1298	3.7338	6.7804	0.2565	-3.4773	-1.6626	0.1583	-4.3545
3.642	4.7377	5.8651	4.4274	3.8953	5.3933	4.8834	1.5993	2.3942	2.429	-1.9477	-0.6334	-1.0419	-0.1267	3.6926	6.5809	0.2312	-3.4013	-1.5423	0.2058	-4.2405
