"FZ"	"FC3"	"FCZ"	"FC4"	"C3"	"CZ"	"C4"	"CP3"	"CPZ"	"CP4"	"P3"	"PZ"	"P4"	"OZ"	"FP1"	"FP2"	"A2"	"P8"	"TP7"	"TP8"	"P7"
-2.4727	-2.5996	-3.0908	-2.7347	-2.62	-3.1891	-2.5259	-1.9528	-2.9271	-1.9036	-0.9784	-1.7522	-1.003	-0.086	-1.2977	-1.5843	0.1924	0.1842	1.0644	-0.4339	1.4083
-2.6774	-2.8247	-3.2587	-2.8739	-2.8165	-3.316	-2.5873	-2.1124	-3.0294	-1.965	-1.0767	-1.8054	-1.0071	-0.0901	-1.3714	-1.658	0.2129	0.2579	0.9866	-0.4421	1.351
-2.8739	-3.0704	-3.4511	-3.0049	-3.0458	-3.4388	-2.6855	-2.3499	-3.1277	-2.051	-1.2486	-1.8586	-1.0235	-0.1228	-1.4779	-1.7808	0.262	0.2907	0.827	-0.4831	1.2118
-3.0253	-3.2832	-3.5985	-3.0908	-3.2341	-3.5371	-2.7347	-2.4727	-3.2014	-2.0797	-1.3182	-1.8913	-1.003	-0.1392	-1.5434	-1.875	0.2988	0.3766	0.7123	-0.4544	1.1258
-3.1563	-3.4511	-3.709	-3.1236	-3.4061	-3.6148	-2.7551	-2.62	-3.2341	-2.0633	-1.441	-1.875	-0.9866	-0.1515	-1.5884	-1.9528	0.3152	0.3971	0.5813	-0.4503	1.0235
-3.2996	-3.5903	-3.7991	-3.1973	-3.5412	-3.6476	-2.7838	-2.7592	-3.271	-2.1083	-1.5597	-1.92	-0.9784	-0.1883	-1.5884	-2.0592	0.3562	0.4831	0.4872	-0.438	0.9129
-3.361	-3.7049	-3.8318	-3.1645	-3.6271	-3.6558	-2.7429	-2.8452	-3.2423	-2.0715	-1.6293	-1.8954	-0.9334	-0.1719	-1.5761	-2.1288	0.3684	0.5527	0.3807	-0.3889	0.786
-3.4061	-3.795	-3.8523	-3.1318	-3.7049	-3.6353	-2.7551	-2.9353	-3.2055	-2.0715	-1.6989	-1.92	-0.8965	-0.1842	-1.5802	-2.2148	0.3971	0.6304	0.2743	-0.3521	0.6796
-3.4265	-3.8523	-3.8687	-3.1031	-3.754	-3.5944	-2.6978	-2.9721	-3.1932	-2.0019	-1.7685	-1.8995	-0.8147	-0.176	-1.527	-2.2966	0.3725	0.7205	0.1597	-0.2988	0.5731
-3.4265	-3.9178	-3.8359	-3.0622	-3.7663	-3.5371	-2.6528	-3.0049	-3.1195	-1.9937	-1.8218	-1.8627	-0.786	-0.1638	-1.527	-2.3949	0.3521	0.786	0.0368	-0.2252	0.4176
-3.4675	-3.9587	-3.8277	-2.9844	-3.7827	-3.5002	-2.5996	-3.0212	-3.0867	-1.9405	-1.8504	-1.8381	-0.7574	-0.1351	-1.5106	-2.4972	0.3152	0.8515	-0.1187	-0.1883	0.3275
-3.4429	-4.016	-3.7991	-2.923	-3.7909	-3.4061	-2.5423	-3.0376	-3.009	-1.8913	-1.9036	-1.8258	-0.6959	-0.1228	-1.5188	-2.5873	0.2743	0.9211	-0.2497	-0.1556	0.2129
-3.3979	-3.9997	-3.7049	-2.8165	-3.8032	-3.3447	-2.4686	-3.0458	-2.923	-1.8586	-1.9487	-1.8013	-0.6796	-0.1023	-1.527	-2.6405	0.2211	0.962	-0.3848	-0.1228	0.0819
-3.3528	-3.9874	-3.6435	-2.7019	-3.7377	-3.2669	-2.3662	-3.0335	-2.8575	-1.7726	-1.9732	-1.7603	-0.6223	-0.0655	-1.5311	-2.6364	0.131	1.0275	-0.4872	-0.0778	-0.0368
-3.2955	-4.0038	-3.5985	-2.6037	-3.7254	-3.1645	-2.2844	-3.0294	-2.7879	-1.7522	-2.0019	-1.744	-0.5731	-0.0368	-1.4983	-2.6037	0.0573	1.0235	-0.6386	-0.0696	-0.1965
-3.1727	-3.971	-3.5207	-2.4645	-3.6722	-3.0826	-2.1738	-2.9926	-2.6896	-1.6989	-2.0346	-1.7112	-0.5281	0.0246	-1.4697	-2.5136	-0.045	1.0685	-0.7696	-0.0737	-0.2988
-3.0663	-3.9546	-3.4183	-2.3294	-3.6435	-2.9885	-2.0797	-2.9721	-2.6078	-1.6498	-2.0674	-1.6621	-0.4954	0.086	-1.4083	-2.3621	-0.1433	1.1094	-0.9006	-0.0573	-0.4462
-2.9721	-3.9137	-3.2873	-2.2148	-3.5575	-2.8657	-1.9773	-2.9271	-2.5095	-1.5925	-2.0878	-1.6375	-0.4626	0.1392	-1.3428	-2.1534	-0.2497	1.1258	-1.0316	-0.0532	-0.5854
-2.8534	-3.8318	-3.2014	-2.0633	-3.5248	-2.7756	-1.8504	-2.878	-2.4194	-1.5188	-2.0838	-1.5966	-0.4299	0.2006	-1.2609	-1.8422	-0.3725	1.1053	-1.1258	-0.0737	-0.6796
-2.6855	-3.7336	-3.0417	-1.8913	-3.3979	-2.6487	-1.7522	-2.8002	-2.2721	-1.4083	-2.0838	-1.5229	-0.3725	0.2579	-1.1545	-1.5229	-0.4913	1.1545	-1.2118	-0.086	-0.8188
-2.5505	-3.6353	-2.9271	-1.7399	-3.2914	-2.5259	-1.6252	-2.7306	-2.1861	-1.3469	-2.0919	-1.4779	-0.3398	0.3111	-1.0071	-1.1422	-0.6182	1.1749	-1.2732	-0.0983	-0.9293
-2.4194	-3.5575	-2.7756	-1.613	-3.2218	-2.4072	-1.5106	-2.6323	-2.0674	-1.2732	-2.0919	-1.4206	-0.2702	0.3766	-0.9293	-0.7533	-0.7205	1.1995	-1.3551	-0.1433	-1.0603
-2.2229	-3.3897	-2.6405	-1.4328	-3.0417	-2.2639	-1.3919	-2.5341	-1.8954	-1.1258	-2.0387	-1.3264	-0.1965	0.4339	-0.8065	-0.3152	-0.8474	1.22	-1.3919	-0.1064	-1.134
-2.1001	-3.2955	-2.4809	-1.2773	-2.923	-2.1247	-1.2486	-2.4194	-1.7808	-1.0235	-2.0223	-1.2486	-0.1187	0.4872	-0.7246	0.0287	-0.9457	1.2527	-1.441	-0.0942	-1.265
-1.9855	-3.1522	-2.3458	-1.1135	-2.7756	-2.0101	-1.1053	-2.3212	-1.6744	-0.9129	-2.0346	-1.1708	-0.0614	0.5363	-0.6796	0.3684	-1.0275	1.265	-1.482	-0.1064	-1.3919
-1.8586	-3.0049	-2.2066	-0.9743	-2.6119	-1.875	-0.9661	-2.227	-1.572	-0.8474	-2.0101	-1.1299	0	0.5854	-0.6182	0.6264	-1.1258	1.2773	-1.5434	-0.1269	-1.527
-1.7194	-2.8165	-2.0551	-0.8065	-2.4522	-1.7481	-0.8229	-2.1165	-1.4615	-0.7451	-1.9773	-1.0603	0.0532	0.6223	-0.6182	0.8515	-1.1995	1.2814	-1.5843	-0.1023	-1.6089
-1.5761	-2.6651	-1.9159	-0.6386	-2.2884	-1.6416	-0.6714	-1.9896	-1.3305	-0.5977	-1.9241	-0.9743	0.1146	0.6591	-0.5936	1.0153	-1.3018	1.2936	-1.5966	-0.045	-1.7235
-1.4656	-2.489	-1.7808	-0.5035	-2.0919	-1.4942	-0.5158	-1.8913	-1.1831	-0.4667	-1.8709	-0.8802	0.217	0.7082	-0.6182	1.0808	-1.3796	1.2896	-1.6662	0	-1.8381
-1.3305	-2.2475	-1.613	-0.3234	-1.9077	-1.3305	-0.3398	-1.7317	-1.0808	-0.3725	-1.8095	-0.8024	0.2743	0.7533	-0.5527	1.1094	-1.4656	1.2936	-1.7071	0.0246	-1.9323
-1.1831	-1.9896	-1.4206	-0.1269	-1.6334	-1.1708	-0.176	-1.5434	-0.9088	-0.2047	-1.7399	-0.6796	0.3439	0.7901	-0.5895	1.1094	-1.5516	1.2814	-1.6826	0.0696	-1.9814
-1.0603	-1.7562	-1.2691	0.0573	-1.3714	-1.0153	-0.0246	-1.3632	-0.786	-0.1023	-1.6334	-0.5936	0.3971	0.8392	-0.5731	1.0767	-1.6334	1.3141	-1.6867	0.1064	-2.0223
-0.917	-1.4861	-1.089	0.2252	-1.0849	-0.8597	0.1678	-1.179	-0.6386	0.0532	-1.5147	-0.4749	0.479	0.872	-0.5772	1.0235	-1.703	1.3182	-1.6539	0.176	-2.0551
-0.7696	-1.2322	-0.8802	0.4299	-0.7574	-0.6468	0.3971	-0.958	-0.4299	0.1924	-1.3714	-0.348	0.5609	0.8884	-0.5568	0.9457	-1.7603	1.3059	-1.6293	0.2415	-2.0715
-0.6468	-0.9702	-0.7123	0.61	-0.5199	-0.5076	0.524	-0.7574	-0.3029	0.307	-1.2363	-0.2702	0.5854	0.9211	-0.5322	0.831	-1.7931	1.2773	-1.613	0.2784	-2.0756
-0.5158	-0.7328	-0.5486	0.7655	-0.2948	-0.3193	0.6878	-0.6059	-0.1597	0.4299	-1.1299	-0.1678	0.655	0.917	-0.479	0.7123	-1.7972	1.31	-1.5597	0.3644	-2.0715
-0.3684	-0.4954	-0.3644	0.9498	-0.0246	-0.1556	0.8188	-0.393	0.0164	0.5445	-0.9702	-0.0246	0.7164	0.9334	-0.4258	0.6386	-1.8381	1.2855	-1.5188	0.4708	-2.0387
-0.2702	-0.2988	-0.2333	1.0275	0.1474	0	0.917	-0.262	0.1351	0.6509	-0.8351	0.0573	0.741	0.9498	-0.4012	0.4872	-1.8299	1.2732	-1.441	0.5568	-2.006
-0.1719	-0.0942	-0.086	1.1217	0.3193	0.1228	1.0071	-0.1064	0.2661	0.6878	-0.7123	0.1269	0.7369	0.8925	-0.3439	0.3807	-1.7767	1.2077	-1.3796	0.6141	-1.9814
-0.1023	0.0655	0.0532	1.1872	0.479	0.2456	1.0439	0.0287	0.3848	0.7451	-0.6182	0.176	0.7205	0.8761	-0.2743	0.217	-1.7194	1.1217	-1.31	0.6878	-1.9446
-0.0164	0.2006	0.1719	1.2241	0.6141	0.4012	1.0931	0.1597	0.4872	0.7983	-0.5158	0.217	0.7287	0.8392	-0.176	0.1269	-1.6539	1.0931	-1.2609	0.7655	-1.8995
0.0328	0.3357	0.262	1.2691	0.7451	0.4994	1.1135	0.2538	0.5363	0.7696	-0.3848	0.2374	0.6673	0.7901	-0.131	-0.0205	-1.5597	1.0071	-1.1913	0.7696	-1.8422
0.1392	0.4462	0.3889	1.2281	0.8515	0.6386	1.0971	0.3644	0.6304	0.7778	-0.3234	0.2661	0.6223	0.7287	-0.0614	-0.0901	-1.4492	0.9129	-1.1053	0.8065	-1.7931
0.1842	0.5199	0.4503	1.2118	0.9129	0.7205	1.0767	0.4258	0.7	0.7492	-0.2374	0.2825	0.569	0.6878	0.0205	-0.1924	-1.3387	0.8433	-1.0767	0.8106	-1.7276
0.1883	0.5936	0.5281	1.1463	0.9457	0.8024	1.0071	0.4954	0.7615	0.7369	-0.1719	0.2702	0.4954	0.6059	0.0983	-0.2702	-1.1872	0.7328	-0.9948	0.7901	-1.6539
0.262	0.6509	0.6345	1.0644	1.0398	0.8761	0.9661	0.5568	0.8147	0.7	-0.0532	0.3111	0.4503	0.5527	0.2211	-0.2743	-1.0603	0.6427	-0.9252	0.8229	-1.5597
0.348	0.7287	0.7164	1.0521	1.0644	0.9907	0.9293	0.6304	0.8392	0.6427	-0.0041	0.307	0.3644	0.4667	0.3234	-0.3029	-0.917	0.524	-0.8515	0.831	-1.4656
0.3848	0.7778	0.741	0.9375	1.0685	1.0357	0.8229	0.6632	0.8515	0.569	0.0491	0.2743	0.2497	0.3807	0.3807	-0.2784	-0.7533	0.4094	-0.7983	0.7778	-1.4165
0.4462	0.8392	0.8351	0.9088	1.0849	1.1217	0.7819	0.7164	0.8965	0.5199	0.1146	0.2538	0.176	0.3193	0.4585	-0.262	-0.6345	0.2579	-0.7328	0.7737	-1.3223
0.5117	0.9129	0.917	0.8433	1.1217	1.1995	0.7287	0.7451	0.9047	0.4585	0.1842	0.2374	0.1146	0.2538	0.4994	-0.1924	-0.5035	0.1433	-0.655	0.6959	-1.22
0.5813	0.9866	1.0112	0.8229	1.1749	1.2814	0.6796	0.7901	0.9334	0.4339	0.2661	0.2333	0.0246	0.2211	0.5486	-0.0901	-0.4053	0.0082	-0.5936	0.6755	-1.0849
0.6591	1.0603	1.1176	0.786	1.1954	1.3182	0.6591	0.831	0.9457	0.3684	0.307	0.2129	-0.0983	0.1678	0.5649	-0.045	-0.3029	-0.1064	-0.4994	0.5977	-0.9989
0.741	1.1504	1.1749	0.7696	1.2445	1.4042	0.6427	0.8843	0.9498	0.3357	0.3562	0.1638	-0.1678	0.1105	0.5772	0.0164	-0.2088	-0.262	-0.4012	0.524	-0.8802
0.8392	1.2241	1.3018	0.8147	1.3018	1.482	0.6591	0.9334	0.9784	0.3029	0.3848	0.1474	-0.2252	0.0696	0.6304	0.1351	-0.131	-0.3725	-0.3644	0.4626	-0.7615
0.9088	1.2773	1.3796	0.8392	1.3059	1.5311	0.7	0.962	0.9825	0.2825	0.4503	0.1023	-0.3111	0.0205	0.6018	0.2047	-0.0205	-0.5035	-0.2415	0.3971	-0.6427
0.9702	1.3387	1.4492	0.8965	1.3428	1.5884	0.7287	0.9866	0.9866	0.262	0.4462	0.0655	-0.4012	-0.0246	0.5977	0.3152	0.0778	-0.6223	-0.1801	0.2907	-0.5322
1.0685	1.4328	1.5352	0.9866	1.3919	1.6252	0.7983	1.003	0.9784	0.2661	0.4749	0.0328	-0.4831	-0.086	0.6345	0.4053	0.1719	-0.7819	-0.0205	0.2579	-0.3971
1.134	1.4983	1.6048	1.0316	1.4206	1.6989	0.872	1.0685	0.9825	0.2497	0.5363	-0.0123	-0.5322	-0.1351	0.6304	0.5117	0.262	-0.8843	0.1105	0.1597	-0.2579
1.22	1.5802	1.6989	1.1094	1.4697	1.744	0.8843	1.0808	0.9743	0.2129	0.5568	-0.0614	-0.6345	-0.176	0.655	0.6632	0.3521	-1.0275	0.1842	0.0819	-0.1556
1.3018	1.7112	1.8013	1.134	1.5557	1.7808	0.9006	1.1504	0.9375	0.2006	0.5813	-0.0942	-0.6837	-0.2047	0.6714	0.7737	0.4094	-1.1586	0.3439	-0.0041	-0.0041
1.3878	1.8013	1.8586	1.1708	1.5925	1.8013	0.9211	1.1667	0.9743	0.1924	0.5977	-0.1228	-0.7819	-0.2456	0.7	0.9252	0.4872	-1.3223	0.4749	-0.0942	0.1146
1.4615	1.8709	1.92	1.2077	1.6867	1.8136	0.9375	1.2159	0.9702	0.1719	0.6018	-0.1474	-0.831	-0.2579	0.7082	1.0235	0.5281	-1.3919	0.5895	-0.1965	0.262
1.5311	1.9732	1.9855	1.2609	1.7235	1.8422	0.9784	1.2241	0.962	0.1719	0.6304	-0.1842	-0.8925	-0.2825	0.7492	1.1463	0.5813	-1.5106	0.6878	-0.2948	0.3439
1.613	2.0756	2.0305	1.2855	1.7767	1.8627	0.958	1.265	0.9539	0.1638	0.6878	-0.1842	-0.917	-0.2988	0.7246	1.2486	0.6141	-1.5843	0.786	-0.3357	0.4831
1.6948	2.1574	2.0797	1.351	1.8422	1.875	1.0153	1.2896	0.958	0.1965	0.6837	-0.1678	-0.9252	-0.307	0.7492	1.3796	0.6264	-1.6212	0.8597	-0.4626	0.6018
1.744	2.2598	2.1493	1.3919	1.8627	1.875	1.0316	1.3141	0.9661	0.2088	0.7082	-0.1474	-0.9539	-0.3234	0.6796	1.4165	0.6509	-1.6948	0.9088	-0.4954	0.6878
1.8054	2.3417	2.1738	1.4369	1.9118	1.8873	1.0316	1.3182	1.003	0.262	0.7819	-0.1269	-0.9088	-0.3234	0.6468	1.4492	0.6632	-1.703	0.9498	-0.5158	0.7778
1.8545	2.4113	2.1861	1.4287	1.9405	1.834	1.0439	1.3387	0.9825	0.2579	0.7615	-0.1023	-0.9211	-0.3316	0.5568	1.4287	0.6673	-1.7562	0.9907	-0.5895	0.8392
1.8627	2.4686	2.2189	1.3714	1.9609	1.8177	1.0112	1.3673	0.9784	0.2784	0.786	-0.1064	-0.8965	-0.3439	0.4749	1.3796	0.6755	-1.7849	0.9989	-0.6509	0.962
1.8832	2.5013	2.1779	1.3141	1.9568	1.8258	0.9866	1.3591	0.9661	0.2702	0.8147	-0.0368	-0.8843	-0.3357	0.4053	1.351	0.6837	-1.8013	1.0194	-0.6755	1.0153
1.8995	2.5341	2.1902	1.2281	1.9528	1.7644	0.9047	1.3591	0.9457	0.2497	0.8065	-0.0409	-0.8515	-0.3439	0.3398	1.265	0.6919	-1.8218	0.9866	-0.7451	1.0357
1.9036	2.5259	2.137	1.1381	1.9282	1.7112	0.8229	1.3673	0.9088	0.2661	0.8392	0.0164	-0.8597	-0.3562	0.2825	1.1586	0.6919	-1.8258	1.0112	-0.7533	1.0808
1.8913	2.5095	2.1165	1.0685	1.8913	1.6375	0.7819	1.3264	0.9006	0.2333	0.8392	0.0328	-0.8188	-0.348	0.2211	1.0808	0.7246	-1.8218	0.9702	-0.7819	1.089
1.8832	2.4645	2.0797	0.9948	1.8627	1.5966	0.7287	1.3346	0.8925	0.2415	0.8556	0.1023	-0.7655	-0.3684	0.2456	0.9989	0.7615	-1.8054	0.9498	-0.7655	1.1053
1.8627	2.4317	2.0346	0.9293	1.7849	1.5352	0.6837	1.3059	0.8843	0.2497	0.8843	0.1433	-0.7369	-0.4012	0.2743	0.9539	0.8065	-1.7603	0.9498	-0.7369	1.1053
1.9159	2.4358	2.0633	0.9252	1.789	1.527	0.6837	1.3469	0.9252	0.3111	0.9457	0.2293	-0.6386	-0.4217	0.3357	0.9293	0.8433	-1.703	0.9743	-0.6919	1.1545
1.9446	2.444	2.0715	0.9334	1.8013	1.5147	0.6959	1.396	0.962	0.3725	1.0235	0.3644	-0.5527	-0.4585	0.4094	0.9088	0.9006	-1.6252	0.9743	-0.6304	1.1995
2.006	2.4686	2.1247	0.9334	1.8177	1.4861	0.7123	1.441	1.0112	0.438	1.1053	0.4462	-0.4217	-0.4749	0.4708	0.8802	0.9498	-1.5761	0.9825	-0.6018	1.2036
2.051	2.5095	2.137	0.9334	1.8586	1.5106	0.7287	1.5352	1.0562	0.5076	1.179	0.5772	-0.3398	-0.4994	0.5936	0.8802	0.9907	-1.5065	0.9948	-0.5445	1.2568
2.1001	2.5586	2.1493	0.9498	1.9077	1.5106	0.7533	1.613	1.1422	0.6182	1.2977	0.6959	-0.217	-0.5199	0.6878	0.8474	1.0235	-1.4042	1.0398	-0.5076	1.3182
2.137	2.5873	2.1902	0.962	2.0019	1.5475	0.7737	1.7644	1.2118	0.6591	1.4328	0.8597	-0.0737	-0.5158	0.8024	0.8884	1.0398	-1.3059	1.0562	-0.4217	1.3632
2.1943	2.6815	2.2516	0.9989	2.096	1.5761	0.8515	1.8586	1.3305	0.7901	1.5557	1.0112	0.0696	-0.5158	0.9784	0.8965	1.0603	-1.2159	1.0931	-0.3275	1.4492
2.2311	2.6815	2.2803	1.0194	2.1493	1.6007	0.8965	1.9568	1.4124	0.8679	1.703	1.1626	0.1883	-0.5363	1.0685	0.8884	1.0726	-1.1258	1.1626	-0.2702	1.5065
2.2598	2.7142	2.2925	1.0398	2.2025	1.5925	0.9334	2.0715	1.4983	0.962	1.8054	1.3059	0.3398	-0.5363	1.1954	0.872	1.0603	-1.0153	1.1831	-0.2006	1.5638
2.2844	2.7019	2.2966	1.0357	2.2352	1.6089	0.9907	2.1452	1.5761	1.0398	1.9077	1.4451	0.4544	-0.5281	1.31	0.8925	1.0603	-0.9416	1.2036	-0.1392	1.5966
2.2844	2.7265	2.2844	1.0398	2.2844	1.5966	1.0071	2.2229	1.6744	1.1135	2.0264	1.6171	0.5977	-0.5076	1.3919	0.8556	1.0194	-0.8188	1.2527	-0.0491	1.6457
2.2352	2.6896	2.2516	1.0275	2.3089	1.6375	1.0357	2.2803	1.7522	1.1913	2.1247	1.7399	0.741	-0.5158	1.4983	0.8229	1.0071	-0.7328	1.2527	-0.0082	1.6457
2.2189	2.6692	2.2311	1.003	2.2966	1.6171	1.0275	2.3621	1.8586	1.2855	2.2107	1.8791	0.8433	-0.4831	1.5638	0.7901	0.9907	-0.655	1.265	0.0655	1.6662
2.1411	2.5914	2.1697	0.9784	2.268	1.5966	1.048	2.3744	1.8995	1.3141	2.2598	1.9937	0.9293	-0.4954	1.613	0.741	0.9743	-0.5813	1.3059	0.0778	1.6744
2.0838	2.5136	2.1124	0.9047	2.1984	1.572	1.0235	2.3171	1.9528	1.3428	2.2966	2.0919	1.0357	-0.4831	1.6171	0.655	0.9825	-0.4831	1.2977	0.1105	1.6252
1.9814	2.4358	2.0101	0.8351	2.1534	1.5516	1.0275	2.3007	2.0142	1.4083	2.358	2.2229	1.1667	-0.4954	1.5966	0.5936	0.9784	-0.3889	1.3469	0.1678	1.6293
1.9446	2.3376	1.9364	0.786	2.0346	1.5024	0.9825	2.2721	2.0838	1.4615	2.3417	2.3089	1.2281	-0.4954	1.5188	0.4872	0.9907	-0.3193	1.3182	0.1719	1.5884
1.8381	2.2434	1.834	0.7246	1.9528	1.5024	0.9743	2.2189	2.1247	1.4983	2.3539	2.399	1.351	-0.4913	1.4492	0.4135	0.9948	-0.2047	1.3018	0.2252	1.5638
1.7685	2.1288	1.7562	0.6919	1.8545	1.5065	0.9743	2.1656	2.2148	1.5516	2.3458	2.5177	1.4738	-0.4913	1.3059	0.2702	0.9907	-0.1146	1.2732	0.2948	1.5147
1.6989	2.0305	1.6539	0.6468	1.7481	1.4697	0.9539	2.1165	2.2434	1.5843	2.3335	2.5914	1.5352	-0.5158	1.1094	0.1597	1.0194	-0.0778	1.2363	0.3193	1.4492
1.613	1.8913	1.572	0.6059	1.6375	1.4574	0.9293	2.0346	2.3171	1.6293	2.3662	2.6733	1.6212	-0.5035	0.9129	0.0328	0.9989	0.0041	1.2241	0.3725	1.4001
1.4861	1.7644	1.4533	0.524	1.5311	1.4369	0.9088	1.9323	2.3539	1.6826	2.3007	2.7592	1.7153	-0.5035	0.6796	-0.0655	1.0071	0.1146	1.1422	0.4094	1.3182
1.4165	1.6826	1.3837	0.5199	1.4574	1.4451	0.9088	1.9282	2.4113	1.7276	2.268	2.7961	1.7726	-0.4954	0.4872	-0.1965	0.9866	0.1842	1.0971	0.4339	1.2855
1.3305	1.5966	1.2814	0.4667	1.3551	1.4533	0.9047	1.8586	2.4645	1.7522	2.2721	2.8698	1.8709	-0.4831	0.2293	-0.2579	0.9661	0.2415	1.0112	0.479	1.2159
1.2404	1.5106	1.1995	0.4626	1.31	1.4451	0.8843	1.789	2.5013	1.8218	2.2229	2.9557	1.9773	-0.4585	0.0082	-0.3521	0.9293	0.3357	0.9866	0.5527	1.1749
1.1545	1.4124	1.1258	0.4217	1.1954	1.4492	0.8884	1.7071	2.5095	1.8463	2.1902	2.968	2.0305	-0.4339	-0.1474	-0.393	0.8965	0.4258	0.8679	0.6223	1.1012
1.0562	1.2896	1.0562	0.4053	1.1176	1.4206	0.8638	1.6416	2.5341	1.8791	2.1124	2.9885	2.0919	-0.438	-0.3398	-0.438	0.8597	0.4913	0.7778	0.6468	1.0153
0.9743	1.1831	0.9702	0.3725	0.9825	1.3919	0.8188	1.5352	2.5423	1.8832	2.0428	2.9598	2.1124	-0.4094	-0.4626	-0.4544	0.8229	0.569	0.6591	0.6878	0.9252
0.8925	1.0808	0.9006	0.3398	0.8843	1.396	0.7983	1.4165	2.5259	1.8873	1.9446	2.9353	2.137	-0.3848	-0.569	-0.4462	0.7778	0.6386	0.5445	0.7369	0.8147
0.7901	0.9416	0.7983	0.307	0.7451	1.3346	0.7492	1.2936	2.4645	1.8545	1.8136	2.8902	2.137	-0.3562	-0.6919	-0.4872	0.7328	0.6714	0.3848	0.7492	0.7246
0.6427	0.827	0.7082	0.217	0.5936	1.265	0.6796	1.1504	2.4154	1.8054	1.6621	2.7838	2.1124	-0.3521	-0.7655	-0.4708	0.7041	0.7082	0.2743	0.741	0.6141
0.5322	0.7164	0.6059	0.1392	0.4462	1.1954	0.6018	0.9989	2.3253	1.7317	1.5024	2.6978	2.0674	-0.3234	-0.8229	-0.479	0.6591	0.7655	0.1433	0.7574	0.4954
0.3766	0.5895	0.4994	0.0246	0.2743	1.0931	0.5117	0.8229	2.1984	1.6457	1.3346	2.5709	1.9814	-0.2866	-0.8392	-0.4544	0.6059	0.8065	0.0041	0.7205	0.3807
0.2333	0.4258	0.3684	-0.0532	0.0942	0.9948	0.3889	0.6714	2.051	1.5352	1.2036	2.444	1.8995	-0.2866	-0.9129	-0.4503	0.5813	0.7901	-0.1433	0.6837	0.2497
0.1105	0.3275	0.2866	-0.1269	-0.0246	0.9006	0.3152	0.4954	1.9405	1.4697	1.0316	2.2966	1.7849	-0.2497	-0.9416	-0.4012	0.5281	0.8229	-0.2456	0.655	0.1392
-0.0205	0.1719	0.1638	-0.2211	-0.2211	0.7737	0.2088	0.3193	1.7726	1.3141	0.8229	2.1206	1.6989	-0.2456	-0.962	-0.3766	0.5035	0.7737	-0.393	0.6018	0.0123
-0.1433	0.0287	0.0573	-0.3275	-0.3848	0.6345	0.086	0.1228	1.5679	1.1545	0.6141	1.9118	1.5434	-0.2088	-0.9498	-0.2948	0.4626	0.7574	-0.5322	0.5404	-0.1146
-0.2129	-0.0696	-0.0368	-0.4053	-0.5363	0.5445	-0.0164	-0.0246	1.4042	1.048	0.4626	1.744	1.3919	-0.1924	-0.962	-0.176	0.4094	0.7369	-0.6264	0.438	-0.2293
-0.3029	-0.1965	-0.1392	-0.5117	-0.7	0.393	-0.1515	-0.1965	1.1913	0.8843	0.2702	1.5188	1.2281	-0.1638	-0.9416	-0.0409	0.3603	0.7	-0.7492	0.3603	-0.3357
-0.393	-0.2784	-0.2211	-0.5977	-0.8147	0.2702	-0.2825	-0.3766	0.9784	0.7	0.0614	1.2773	1.0275	-0.1515	-0.8761	0.1228	0.3398	0.6223	-0.8638	0.2866	-0.438
-0.4217	-0.3316	-0.2948	-0.7082	-0.8925	0.1269	-0.4176	-0.5076	0.7983	0.5199	-0.0942	1.0767	0.8802	-0.1351	-0.8065	0.2988	0.2866	0.5649	-0.9702	0.2129	-0.5649
-0.4667	-0.393	-0.3684	-0.786	-0.9743	0	-0.5486	-0.6223	0.61	0.3562	-0.2702	0.8515	0.6714	-0.0983	-0.7246	0.4626	0.2333	0.5117	-1.0603	0.1146	-0.6345
-0.5117	-0.3603	-0.4135	-0.831	-1.0112	-0.0901	-0.6304	-0.7041	0.4258	0.1965	-0.4176	0.655	0.4913	-0.0737	-0.6386	0.6141	0.1801	0.4421	-1.1094	0.0737	-0.7451
-0.5363	-0.438	-0.5281	-0.9539	-1.0439	-0.2456	-0.7533	-0.827	0.2293	0.0328	-0.5649	0.438	0.2948	-0.0655	-0.5363	0.7	0.1556	0.393	-1.2118	-0.0205	-0.8433
-0.5895	-0.479	-0.6141	-1.0685	-1.1217	-0.3725	-0.8597	-0.9088	0.0368	-0.1515	-0.7041	0.2456	0.1269	-0.0328	-0.4176	0.7942	0.086	0.3275	-1.2691	-0.0778	-0.9211
-0.6796	-0.5568	-0.7328	-1.1749	-1.1831	-0.5322	-0.9948	-1.0275	-0.1515	-0.3316	-0.8392	0.045	-0.0614	-0.0164	-0.3398	0.8351	0.0614	0.2702	-1.3059	-0.131	-0.9989
-0.7164	-0.6223	-0.8188	-1.2609	-1.2322	-0.6386	-1.0726	-1.1135	-0.3234	-0.4749	-0.9866	-0.1392	-0.2047	0.0082	-0.2374	0.8965	0.0287	0.217	-1.3714	-0.1842	-1.1012
-0.8065	-0.6959	-0.9375	-1.3919	-1.3018	-0.8024	-1.1913	-1.2118	-0.4749	-0.6182	-1.1135	-0.3357	-0.3644	0.0082	-0.2252	0.8638	0.0082	0.1719	-1.4165	-0.2702	-1.1831
-0.8884	-0.7696	-1.0275	-1.482	-1.3837	-0.9129	-1.2773	-1.3059	-0.6345	-0.7574	-1.2568	-0.4954	-0.5158	0.0164	-0.2006	0.8065	-0.0041	0.1392	-1.4902	-0.3357	-1.2732
-0.9989	-0.8802	-1.1504	-1.5597	-1.4533	-1.0357	-1.3428	-1.4042	-0.7901	-0.8843	-1.3673	-0.6755	-0.6959	0	-0.217	0.6959	-0.0041	0.0778	-1.5188	-0.4012	-1.3755
-1.0644	-0.962	-1.2241	-1.6212	-1.5311	-1.1749	-1.396	-1.482	-0.9211	-1.003	-1.4779	-0.827	-0.8106	0.0368	-0.2415	0.5445	-0.0409	0.0655	-1.5679	-0.4421	-1.4656
-1.1258	-1.0357	-1.3428	-1.6662	-1.5925	-1.2773	-1.4574	-1.5597	-1.0644	-1.1258	-1.613	-0.9907	-0.9539	0.0328	-0.2743	0.3848	-0.045	-0.0123	-1.6171	-0.479	-1.5679
-1.2036	-1.1176	-1.4574	-1.7317	-1.6703	-1.3755	-1.5024	-1.6293	-1.1586	-1.1954	-1.7112	-1.1053	-1.0521	0.045	-0.3521	0.2047	-0.0614	-0.0205	-1.6703	-0.524	-1.6293
-1.2691	-1.1135	-1.4983	-1.7481	-1.6907	-1.4615	-1.5393	-1.6907	-1.2404	-1.265	-1.8136	-1.2322	-1.1463	0.0409	-0.393	0.0082	-0.0737	-0.0819	-1.6948	-0.5568	-1.7276
-1.3059	-1.1995	-1.5638	-1.7562	-1.7317	-1.5434	-1.5597	-1.7481	-1.3551	-1.351	-1.8995	-1.3305	-1.22	0.0614	-0.4913	-0.2129	-0.1023	-0.1146	-1.744	-0.5813	-1.8299
-1.3428	-1.2159	-1.6334	-1.7562	-1.7153	-1.5925	-1.5679	-1.7562	-1.3878	-1.3878	-1.9732	-1.4124	-1.265	0.0819	-0.6059	-0.4339	-0.1433	-0.086	-1.7849	-0.569	-1.8995
-1.4124	-1.2977	-1.6621	-1.7644	-1.7399	-1.6785	-1.5557	-1.789	-1.4574	-1.4206	-2.0387	-1.4574	-1.3387	0.0942	-0.7328	-0.655	-0.1678	-0.1678	-1.8381	-0.5772	-2.0019
-1.441	-1.3551	-1.7235	-1.7194	-1.7685	-1.6989	-1.5311	-1.8054	-1.5229	-1.4574	-2.1001	-1.5393	-1.351	0.1269	-0.872	-0.8515	-0.2293	-0.1719	-1.9487	-0.5649	-2.1124
-1.5065	-1.4001	-1.8013	-1.7071	-1.7726	-1.7399	-1.5229	-1.8463	-1.5516	-1.441	-2.1411	-1.5679	-1.3632	0.1433	-1.0071	-1.003	-0.2743	-0.1801	-2.0101	-0.5445	-2.1861
-1.5188	-1.4492	-1.7972	-1.6744	-1.8013	-1.7767	-1.4942	-1.8873	-1.5679	-1.4206	-2.1943	-1.6252	-1.3632	0.1597	-1.1299	-1.1135	-0.307	-0.1883	-2.1001	-0.5404	-2.2516
-1.5229	-1.4902	-1.7931	-1.6334	-1.8177	-1.7726	-1.4533	-1.8668	-1.6089	-1.4246	-2.2434	-1.6293	-1.3551	0.1719	-1.2445	-1.1872	-0.3562	-0.1965	-2.1656	-0.4913	-2.3417
-1.5106	-1.5311	-1.789	-1.5475	-1.8136	-1.7603	-1.4083	-1.9077	-1.6171	-1.3837	-2.2639	-1.6212	-1.3346	0.2129	-1.2977	-1.2036	-0.4176	-0.1801	-2.227	-0.4094	-2.4358
-1.5106	-1.5352	-1.8054	-1.4861	-1.7931	-1.7644	-1.3469	-1.92	-1.6375	-1.3387	-2.3007	-1.6375	-1.2977	0.2293	-1.3919	-1.1831	-0.4503	-0.1515	-2.2966	-0.3603	-2.4931
-1.4574	-1.5475	-1.7685	-1.4001	-1.8095	-1.7235	-1.265	-1.9036	-1.6416	-1.2732	-2.2966	-1.613	-1.2404	0.2497	-1.4124	-1.1381	-0.4831	-0.1678	-2.3458	-0.307	-2.5914
-1.3919	-1.5106	-1.7276	-1.3141	-1.744	-1.6989	-1.1708	-1.8832	-1.6252	-1.22	-2.2884	-1.5802	-1.1667	0.262	-1.396	-1.0562	-0.5076	-0.1556	-2.3335	-0.2088	-2.5996
-1.3469	-1.4533	-1.6826	-1.2159	-1.6907	-1.6498	-1.0726	-1.834	-1.5884	-1.1381	-2.2229	-1.527	-1.0931	0.2702	-1.3346	-0.958	-0.5322	-0.1392	-2.3171	-0.1433	-2.5955
-1.2486	-1.3428	-1.5843	-1.0849	-1.5761	-1.5802	-0.962	-1.7317	-1.572	-1.0603	-2.1779	-1.4697	-1.0357	0.2784	-1.22	-0.8597	-0.5486	-0.1146	-2.2475	-0.0696	-2.5873
-1.134	-1.2077	-1.4533	-0.8965	-1.4779	-1.5106	-0.827	-1.6826	-1.5147	-0.958	-2.1001	-1.4206	-0.958	0.2948	-1.0521	-0.6919	-0.5772	-0.0901	-2.1902	0.0246	-2.5545
-0.962	-1.048	-1.3141	-0.741	-1.3428	-1.4124	-0.6878	-1.5475	-1.4574	-0.8433	-2.0019	-1.3551	-0.8597	0.2988	-0.8392	-0.5568	-0.5731	-0.045	-2.1042	0.0942	-2.5054
-0.8229	-0.8802	-1.1504	-0.5731	-1.2036	-1.3182	-0.5527	-1.4656	-1.3755	-0.741	-1.8832	-1.2609	-0.7655	0.3029	-0.6427	-0.3807	-0.5609	-0.0491	-2.0264	0.1556	-2.4604
-0.6468	-0.6673	-1.0357	-0.3889	-1.0235	-1.2363	-0.3889	-1.3264	-1.2936	-0.6345	-1.7726	-1.1667	-0.6837	0.2825	-0.393	-0.2088	-0.5486	-0.0614	-1.9241	0.2497	-2.3949
-0.4503	-0.4749	-0.8229	-0.1638	-0.8965	-1.1012	-0.176	-1.2077	-1.2159	-0.4872	-1.658	-1.0971	-0.6386	0.2661	-0.1351	-0.0082	-0.5035	-0.0491	-1.8463	0.307	-2.313
-0.2907	-0.307	-0.6919	0.0246	-0.7696	-0.9907	-0.0368	-1.0971	-1.1422	-0.3807	-1.5188	-0.9866	-0.5486	0.2333	0.1064	0.1597	-0.4421	-0.0246	-1.7685	0.3644	-2.2639
-0.0819	-0.1351	-0.4994	0.2006	-0.6182	-0.8433	0.1433	-0.9539	-1.0235	-0.2252	-1.3387	-0.8679	-0.4339	0.1965	0.348	0.3275	-0.3684	-0.0123	-1.6703	0.438	-2.1534
0.1064	-0.0123	-0.3275	0.4217	-0.5322	-0.741	0.307	-0.8351	-0.9088	-0.1064	-1.2159	-0.7696	-0.3521	0.1556	0.6141	0.5117	-0.2948	-0.0246	-1.5843	0.4749	-2.0715
0.2293	0.1023	-0.2088	0.569	-0.4626	-0.6468	0.4135	-0.7574	-0.8351	-0.0287	-1.0931	-0.6796	-0.3234	0.086	0.8433	0.6427	-0.1801	-0.0573	-1.5229	0.479	-1.9896
0.3971	0.2047	-0.0737	0.7205	-0.3807	-0.5117	0.5813	-0.6345	-0.7123	0.0901	-0.9334	-0.5363	-0.2415	0.0614	1.0235	0.741	-0.1228	-0.0368	-1.4451	0.524	-1.8791
0.5281	0.3152	0.0532	0.872	-0.3029	-0.3971	0.6959	-0.5609	-0.5977	0.176	-0.7778	-0.4217	-0.1719	0.0164	1.1995	0.8474	-0.0328	-0.0737	-1.351	0.5322	-1.7849
0.6304	0.3725	0.1105	0.9743	-0.2743	-0.3193	0.7615	-0.4258	-0.5158	0.2456	-0.655	-0.3275	-0.1269	-0.0164	1.3141	0.8433	0.0368	-0.1228	-1.2855	0.5363	-1.6989
0.7041	0.4094	0.2211	1.0521	-0.1924	-0.2293	0.827	-0.3398	-0.4258	0.2948	-0.5199	-0.2702	-0.0778	-0.0409	1.4328	0.831	0.0901	-0.1228	-1.1995	0.5117	-1.6089
0.741	0.4462	0.2702	1.0808	-0.176	-0.176	0.8843	-0.2456	-0.3603	0.3275	-0.4012	-0.176	-0.0532	-0.0491	1.4738	0.7778	0.1187	-0.1392	-1.1094	0.4872	-1.4983
0.8065	0.524	0.3357	1.1094	-0.0614	-0.0942	0.9129	-0.1105	-0.2211	0.3562	-0.2456	-0.0778	-0.0328	-0.0532	1.5188	0.7328	0.1228	-0.1392	-0.958	0.4503	-1.3755
0.8392	0.5895	0.3603	1.1135	0.0287	-0.0205	0.9129	0.0246	-0.1842	0.3644	-0.1105	0.0082	-0.0368	-0.0491	1.5557	0.6673	0.1146	-0.1719	-0.8351	0.4135	-1.2527
0.8925	0.6755	0.4012	1.0971	0.1146	0.0409	0.9375	0.176	-0.0655	0.3889	0.0205	0.0901	-0.0123	-0.0287	1.5802	0.6427	0.0778	-0.2047	-0.6796	0.3398	-1.1422
0.9334	0.8188	0.4708	1.0849	0.2702	0.1433	0.9293	0.3316	0.0246	0.3971	0.1678	0.1678	-0.0287	-0.0164	1.6416	0.6755	0.0328	-0.1883	-0.5158	0.3234	-1.0112
0.9784	0.9375	0.5199	1.1012	0.4299	0.2252	0.9334	0.4831	0.1228	0.3889	0.307	0.2252	-0.0287	0.0041	1.6826	0.6673	0.0082	-0.2006	-0.3889	0.2661	-0.8679
1.0562	1.0767	0.5854	1.0603	0.5527	0.3152	0.9375	0.6223	0.2415	0.4012	0.4135	0.3275	-0.0123	0.0328	1.7194	0.7369	-0.0368	-0.2374	-0.2825	0.2579	-0.7901
1.0971	1.1667	0.6264	1.0235	0.6959	0.3807	0.9006	0.7737	0.3193	0.3807	0.4913	0.3889	-0.0082	0.0491	1.744	0.741	-0.0573	-0.2333	-0.1597	0.1965	-0.7
1.1422	1.2855	0.6591	0.9743	0.7983	0.4831	0.8474	0.8679	0.3644	0.3275	0.5527	0.4462	-0.0532	0.045	1.7849	0.7533	-0.0778	-0.2743	-0.0778	0.1556	-0.6264
1.1708	1.3346	0.6755	0.8556	0.8884	0.5076	0.7942	0.9825	0.4462	0.2661	0.6386	0.4831	-0.086	0.0614	1.7931	0.8147	-0.0942	-0.2907	0.0287	0.1105	-0.5486
1.1913	1.3714	0.6796	0.7615	0.9211	0.5363	0.6796	0.9989	0.4626	0.1924	0.6427	0.4667	-0.176	0.0573	1.7849	0.8556	-0.0942	-0.3398	0.0737	0.0205	-0.524
1.1831	1.396	0.7041	0.6468	0.962	0.5486	0.569	1.0235	0.4954	0.0942	0.655	0.4872	-0.2333	0.0573	1.7685	0.917	-0.0901	-0.3807	0.0778	-0.0491	-0.4954
1.2445	1.4287	0.7082	0.5527	1.003	0.5772	0.4749	1.048	0.5158	0.0164	0.6427	0.4585	-0.2907	0.0655	1.8054	1.0071	-0.0696	-0.4135	0.1064	-0.1105	-0.4831
1.2322	1.4165	0.6632	0.3807	1.0112	0.5117	0.2743	1.0112	0.4667	-0.1351	0.5854	0.4299	-0.4339	0.0328	1.7849	1.0931	-0.0328	-0.5117	0.0614	-0.1801	-0.5117
1.2527	1.3919	0.6223	0.2702	0.9907	0.5158	0.1556	0.9784	0.4462	-0.2538	0.5445	0.3725	-0.524	0.0205	1.8258	1.2363	0	-0.5445	0.0655	-0.2456	-0.5076
1.1995	1.3264	0.6018	0.1269	0.9498	0.4217	-0.0409	0.9293	0.3439	-0.4053	0.4749	0.2988	-0.6141	-0.0205	1.8258	1.3673	0.0737	-0.6059	0.0287	-0.3603	-0.5363
1.1708	1.2732	0.524	-0.0328	0.8843	0.3439	-0.1883	0.8802	0.2661	-0.5199	0.4217	0.2088	-0.7492	-0.0409	1.8258	1.5475	0.1064	-0.6714	0.0082	-0.4544	-0.5404
1.0808	1.1831	0.4176	-0.1965	0.7819	0.2047	-0.393	0.7369	0.1351	-0.6796	0.3111	0.086	-0.8597	-0.0819	1.789	1.658	0.1842	-0.7655	-0.0205	-0.5609	-0.5813
0.9743	0.9948	0.2743	-0.3889	0.6386	0.0696	-0.5609	0.61	0	-0.8065	0.2088	0.0041	-0.9457	-0.1146	1.7153	1.7522	0.262	-0.786	-0.0491	-0.6591	-0.6304
0.8433	0.8597	0.1842	-0.5731	0.4913	-0.1105	-0.7942	0.4585	-0.176	-0.9784	0.1105	-0.1392	-1.0439	-0.1597	1.5802	1.7849	0.3521	-0.831	-0.0819	-0.7778	-0.6468
0.6959	0.655	0.0164	-0.7655	0.2579	-0.2743	-0.9375	0.3029	-0.3398	-1.1299	0.0082	-0.2456	-1.1094	-0.217	1.4697	1.8177	0.4339	-0.8638	-0.0983	-0.8843	-0.6468
0.5568	0.4421	-0.1556	-0.9457	0.0573	-0.4913	-1.1135	0.131	-0.4994	-1.2241	-0.0942	-0.3766	-1.1831	-0.262	1.31	1.8136	0.5363	-0.8843	-0.1392	-0.9539	-0.6796
0.3807	0.2415	-0.3111	-1.1053	-0.1801	-0.6878	-1.2691	-0.0368	-0.6755	-1.2977	-0.1597	-0.4667	-1.2404	-0.3275	1.1545	1.7562	0.655	-0.8802	-0.1638	-1.0685	-0.6878
0.2047	0.0328	-0.4708	-1.2527	-0.3562	-0.872	-1.3796	-0.1638	-0.8106	-1.3796	-0.2047	-0.4994	-1.2241	-0.3725	1.0112	1.6662	0.7533	-0.872	-0.1719	-1.1094	-0.6468
0.0696	-0.1556	-0.5895	-1.3837	-0.5281	-1.003	-1.4738	-0.2661	-0.9006	-1.4042	-0.2333	-0.5609	-1.1954	-0.4299	0.8843	1.5884	0.8597	-0.8188	-0.1269	-1.1626	-0.5649
-0.0737	-0.3357	-0.7451	-1.4656	-0.6919	-1.1258	-1.5434	-0.3562	-0.9866	-1.4206	-0.2374	-0.5772	-1.1626	-0.4708	0.7901	1.4697	0.9539	-0.7533	-0.1023	-1.2118	-0.5117
-0.2293	-0.4994	-0.872	-1.5557	-0.8188	-1.2486	-1.5434	-0.4258	-1.0439	-1.3919	-0.1965	-0.5363	-1.1012	-0.5281	0.6386	1.3796	1.0357	-0.7	-0.0901	-1.22	-0.4462
-0.3439	-0.6345	-0.9907	-1.6416	-0.9375	-1.3673	-1.5802	-0.4708	-1.0931	-1.3305	-0.1556	-0.5281	-1.0398	-0.5731	0.5158	1.2363	1.1422	-0.6386	-0.086	-1.2159	-0.3725
-0.438	-0.741	-1.0767	-1.6948	-1.0194	-1.4001	-1.5597	-0.4421	-1.0562	-1.2281	-0.0696	-0.4258	-0.9129	-0.6059	0.4053	1.0849	1.1995	-0.5281	-0.0164	-1.179	-0.262
-0.5527	-0.8024	-1.1463	-1.744	-1.0357	-1.441	-1.4902	-0.4339	-1.0562	-1.1176	0.0205	-0.3603	-0.7737	-0.6182	0.2374	0.9375	1.2322	-0.4094	0.0368	-1.1299	-0.1597
-0.6468	-0.8761	-1.2241	-1.7317	-1.0521	-1.4492	-1.4246	-0.348	-0.9498	-0.9661	0.1883	-0.2047	-0.6304	-0.6304	0.1146	0.7492	1.2568	-0.2866	0.1351	-1.0398	0.0164
-0.7328	-0.9211	-1.2732	-1.7685	-1.0316	-1.4206	-1.3059	-0.262	-0.8843	-0.831	0.3152	-0.0696	-0.4339	-0.6345	0.0041	0.5649	1.2609	-0.1351	0.2293	-0.9539	0.1351
-0.8188	-0.958	-1.351	-1.7603	-1.003	-1.4042	-1.2077	-0.1801	-0.786	-0.6591	0.4872	0.0778	-0.2579	-0.6264	-0.1228	0.348	1.2486	0.0123	0.3357	-0.8474	0.2538
-0.9129	-0.9784	-1.3837	-1.744	-0.9539	-1.3919	-1.0521	-0.0737	-0.6591	-0.4626	0.6223	0.2743	-0.0532	-0.61	-0.2333	0.1228	1.2281	0.1638	0.4421	-0.7287	0.4012
-0.9989	-1.0275	-1.4656	-1.7194	-0.9293	-1.3469	-0.9661	0.0082	-0.5568	-0.2866	0.7737	0.4299	0.1064	-0.5936	-0.3521	-0.1556	1.1995	0.3316	0.5445	-0.61	0.524
-1.1258	-1.0685	-1.5434	-1.7153	-0.9047	-1.351	-0.8802	0.0942	-0.4626	-0.1515	0.9006	0.5731	0.2866	-0.5854	-0.5363	-0.4176	1.1504	0.4831	0.6591	-0.5076	0.6386
-1.22	-1.0931	-1.6293	-1.7071	-0.8925	-1.3059	-0.7246	0.1678	-0.3807	0.0041	1.0357	0.7246	0.479	-0.5445	-0.6304	-0.6345	1.1012	0.6304	0.7451	-0.4053	0.7451
-1.3018	-1.134	-1.7194	-1.6662	-0.8925	-1.2977	-0.6345	0.2047	-0.2825	0.1392	1.1381	0.8761	0.6345	-0.5281	-0.7983	-0.8761	1.0398	0.7983	0.8229	-0.2743	0.8474
-1.4656	-1.1586	-1.8095	-1.6334	-0.8761	-1.2936	-0.5568	0.2252	-0.2129	0.2661	1.2404	1.0235	0.7942	-0.4994	-0.9784	-1.1667	0.9825	0.9743	0.8147	-0.1515	0.9375
-1.5434	-1.1831	-1.9077	-1.6007	-0.8925	-1.3182	-0.4872	0.2497	-0.176	0.3439	1.3182	1.1504	0.9539	-0.4749	-1.1831	-1.3796	0.9375	1.1135	0.8638	-0.0532	1.0235
-1.658	-1.2404	-1.9896	-1.5475	-0.9211	-1.3551	-0.4299	0.2497	-0.1433	0.4339	1.396	1.2814	1.1135	-0.4258	-1.4246	-1.6252	0.8638	1.2977	0.8843	0.0328	1.0808
-1.7481	-1.2568	-2.096	-1.5106	-0.9047	-1.3632	-0.3521	0.2907	-0.0983	0.5117	1.4656	1.4042	1.2363	-0.4053	-1.6989	-1.8995	0.8106	1.4574	0.8433	0.1597	1.1504
-1.8258	-1.2855	-2.182	-1.4983	-0.9539	-1.396	-0.3193	0.2784	-0.0901	0.5854	1.527	1.527	1.3919	-0.3644	-1.9609	-2.1615	0.7615	1.658	0.8147	0.2415	1.2118
-1.8913	-1.2732	-2.2189	-1.4246	-0.9457	-1.3919	-0.2497	0.2907	-0.0573	0.6386	1.6375	1.6703	1.5311	-0.3439	-2.2229	-2.4358	0.7	1.8463	0.8147	0.3684	1.2691
-1.9691	-1.2896	-2.268	-1.3346	-0.9457	-1.4206	-0.2211	0.2866	-0.0409	0.7041	1.7235	1.8054	1.6907	-0.3152	-2.4849	-2.7183	0.6468	2.0428	0.7615	0.4913	1.351
-2.0142	-1.2609	-2.3499	-1.3059	-0.9375	-1.4328	-0.1842	0.3029	-0.0041	0.7778	1.8177	1.9528	1.8791	-0.2948	-2.7797	-2.9885	0.5936	2.2639	0.6837	0.5772	1.4246
-2.0592	-1.2568	-2.3867	-1.2241	-0.9211	-1.4656	-0.1556	0.2866	0.0041	0.8229	1.92	2.1124	2.051	-0.2661	-3.0376	-3.2832	0.5281	2.4399	0.6796	0.6878	1.5311
-2.0838	-1.2609	-2.4194	-1.1708	-0.8925	-1.482	-0.131	0.3193	0.0328	0.8843	2.0101	2.227	2.2352	-0.2415	-3.2587	-3.578	0.4913	2.6569	0.61	0.7778	1.6212
-2.1574	-1.2732	-2.5259	-1.1176	-0.9293	-1.5229	-0.1351	0.2825	0.0123	0.9006	2.0715	2.3294	2.3499	-0.2047	-3.4429	-3.8277	0.4299	2.8452	0.524	0.8065	1.6867
-2.182	-1.2814	-2.5505	-1.0767	-0.9416	-1.5679	-0.1146	0.3234	0.0205	0.9498	2.1615	2.4686	2.5218	-0.1678	-3.6026	-4.0611	0.3562	3.0417	0.5035	0.8679	1.7972
-2.2352	-1.3387	-2.6323	-1.0726	-0.958	-1.5966	-0.1638	0.2907	0	0.958	2.2475	2.5586	2.6364	-0.1515	-3.7458	-4.3149	0.3029	3.2014	0.4339	0.8638	1.8627
-2.3294	-1.4165	-2.7388	-1.0685	-1.0194	-1.6539	-0.2129	0.2866	-0.0287	0.9498	2.2844	2.6323	2.7674	-0.1392	-3.8687	-4.5523	0.262	3.3856	0.3807	0.8556	1.9487
-2.3908	-1.4942	-2.8329	-1.0726	-1.0808	-1.703	-0.2579	0.2702	-0.086	0.9989	2.3662	2.747	2.9189	-0.086	-3.9505	-4.7284	0.1924	3.5412	0.3152	0.8925	2.0101
-2.4931	-1.5843	-2.923	-1.089	-1.1504	-1.7685	-0.3357	0.2415	-0.131	0.9989	2.4399	2.7961	3.0376	-0.0409	-4.0079	-4.8512	0.1187	3.7254	0.2374	0.8679	2.0592
-2.5627	-1.7194	-3.0171	-1.1749	-1.2363	-1.8218	-0.3889	0.2047	-0.1515	0.9702	2.5054	2.8943	3.14	-0.0246	-4.0652	-4.9945	0.0737	3.885	0.1515	0.8884	2.1165
-2.6446	-1.8095	-3.1113	-1.2159	-1.31	-1.8832	-0.4462	0.2088	-0.1678	0.9989	2.5259	2.9598	3.2792	0.0205	-4.0897	-5.019	-0.0123	4.0283	0.0942	0.8884	2.1738
-2.6937	-1.9118	-3.2096	-1.3141	-1.4042	-1.92	-0.5363	0.176	-0.2006	0.9989	2.5914	3.0335	3.3815	0.0532	-4.0938	-5.0436	-0.0778	4.1798	0.0532	0.8925	2.2516
-2.7961	-2.0469	-3.2873	-1.4206	-1.4983	-1.9691	-0.6468	0.1269	-0.2211	0.9989	2.6446	3.1195	3.5043	0.0655	-4.1266	-5.0559	-0.1064	4.3395	-0.0368	0.8638	2.2434
-2.8165	-2.1165	-3.3324	-1.5229	-1.5557	-1.9528	-0.7041	0.1228	-0.2088	1.0316	2.6528	3.185	3.578	0.0901	-4.0856	-5.0026	-0.1678	4.4745	-0.1351	0.8597	2.2884
-2.8821	-2.2025	-3.3815	-1.613	-1.6252	-1.965	-0.7819	0.0942	-0.217	1.0357	2.7019	3.2669	3.6803	0.1187	-4.0529	-4.9085	-0.2129	4.6015	-0.2088	0.8802	2.3089
-2.9353	-2.2966	-3.3938	-1.7235	-1.7112	-1.9732	-0.831	0.0942	-0.1801	1.089	2.7715	3.3569	3.8073	0.1351	-3.9833	-4.8307	-0.2415	4.7775	-0.2907	0.8843	2.3089
-2.9639	-2.3458	-3.4142	-1.8054	-1.7071	-1.9405	-0.8638	0.1105	-0.1269	1.1381	2.837	3.4716	3.9505	0.1392	-3.8564	-4.6915	-0.2661	4.9003	-0.3603	0.9498	2.313
-2.9762	-2.3908	-3.402	-1.8832	-1.7726	-1.8873	-0.8843	0.1064	-0.0655	1.2281	2.8698	3.5575	4.0611	0.1597	-3.7786	-4.5073	-0.3029	4.9986	-0.4217	0.9784	2.3212
-2.9598	-2.3826	-3.3528	-1.9855	-1.7276	-1.8299	-0.8965	0.131	0.0123	1.2773	2.923	3.6476	4.1757	0.1842	-3.6394	-4.3067	-0.3439	5.1337	-0.4872	1.0275	2.3171
-2.9312	-2.3785	-3.3037	-2.051	-1.703	-1.7399	-0.9047	0.2047	0.1228	1.351	2.9639	3.7418	4.3272	0.1924	-3.5412	-4.1266	-0.3766	5.2483	-0.5158	1.0644	2.3007
-2.8739	-2.2884	-3.2423	-2.0838	-1.6089	-1.6375	-0.8925	0.2661	0.1883	1.4206	3.0049	3.8523	4.4131	0.2293	-3.4306	-3.9178	-0.438	5.322	-0.5609	1.1381	2.268
-2.7879	-2.2311	-3.1481	-2.1247	-1.5311	-1.5106	-0.8679	0.3357	0.3111	1.5065	3.0786	3.9628	4.5196	0.2333	-3.2873	-3.6926	-0.4708	5.3998	-0.5404	1.1749	2.2311
-2.7224	-2.1329	-3.0212	-2.1738	-1.4369	-1.396	-0.8802	0.3971	0.4258	1.5843	3.0826	4.0201	4.6383	0.2661	-3.1359	-3.4552	-0.524	5.4284	-0.5158	1.1831	2.182
-2.6487	-2.0919	-2.9476	-2.2148	-1.3878	-1.31	-0.8925	0.4462	0.4872	1.6171	3.0745	4.0652	4.6956	0.2743	-2.9885	-3.2055	-0.5158	5.4079	-0.5404	1.2118	2.0756
-2.5382	-1.9446	-2.7879	-2.1697	-1.2814	-1.1586	-0.8188	0.4667	0.6264	1.7071	3.1072	4.1389	4.7611	0.2784	-2.8698	-2.9844	-0.5281	5.4079	-0.5404	1.2241	2.006
-2.4317	-1.8258	-2.6692	-2.1656	-1.2159	-1.0562	-0.786	0.5158	0.6959	1.7399	3.0786	4.1798	4.798	0.2784	-2.7347	-2.7715	-0.524	5.3179	-0.5322	1.2077	1.8995
-2.3376	-1.6989	-2.5259	-2.1738	-1.1135	-0.9457	-0.7696	0.5936	0.7942	1.7808	3.0458	4.2125	4.8225	0.2702	-2.6446	-2.616	-0.5076	5.1992	-0.5445	1.1872	1.789
-2.2148	-1.5352	-2.3621	-2.1206	-0.958	-0.8024	-0.6919	0.6468	0.9129	1.8054	2.9967	4.2125	4.8307	0.2333	-2.5586	-2.444	-0.4831	5.0641	-0.5363	1.1422	1.6703
-2.0878	-1.3673	-2.182	-2.096	-0.872	-0.6837	-0.655	0.6796	0.9334	1.8381	2.9557	4.2166	4.8389	0.2293	-2.5013	-2.2884	-0.4339	4.8553	-0.5568	1.0767	1.5475
-1.9609	-1.179	-2.006	-2.006	-0.7	-0.5363	-0.6018	0.7615	1.0726	1.8791	2.9189	4.2248	4.8184	0.1842	-2.4645	-2.1165	-0.3603	4.6506	-0.5649	1.0316	1.4165
-1.8054	-0.9825	-1.8177	-1.8995	-0.5486	-0.3889	-0.5445	0.827	1.1831	1.9118	2.8698	4.1962	4.7734	0.1433	-2.3703	-1.9528	-0.2825	4.4131	-0.5445	0.9784	1.2691
-1.6498	-0.7615	-1.6171	-1.8054	-0.3848	-0.217	-0.4135	0.9334	1.2773	1.965	2.837	4.1798	4.7366	0.1023	-2.358	-1.7726	-0.1883	4.1675	-0.4872	0.962	1.1913
-1.4983	-0.5199	-1.3878	-1.6703	-0.2006	-0.086	-0.3562	1.0071	1.3755	2.0183	2.7961	4.1634	4.6956	0.0614	-2.2803	-1.5761	-0.0983	3.9219	-0.479	0.8884	1.0603
-1.2896	-0.2252	-1.1422	-1.5679	0.0246	0.1146	-0.1883	1.1135	1.4779	2.051	2.7838	4.188	4.6301	0.0041	-2.1452	-1.3591	0.0287	3.6148	-0.4299	0.8556	0.9539
-1.0767	0.0573	-0.8802	-1.4001	0.2415	0.2825	-0.0901	1.2486	1.6212	2.1165	2.747	4.1675	4.5769	-0.0491	-2.0592	-1.1545	0.1392	3.3037	-0.3848	0.786	0.8433
-0.831	0.4094	-0.6182	-1.2159	0.524	0.524	0.0328	1.3878	1.7317	2.1738	2.751	4.1716	4.5441	-0.1351	-1.8913	-0.9375	0.2743	2.9844	-0.2579	0.7533	0.8024
-0.5854	0.6919	-0.3644	-1.0316	0.7778	0.7369	0.1924	1.5516	1.875	2.2475	2.7551	4.1757	4.4664	-0.1842	-1.7112	-0.7369	0.4094	2.6815	-0.1638	0.6755	0.7328
-0.3029	1.0439	-0.0778	-0.8024	1.0316	0.9498	0.3275	1.703	2.0142	2.2598	2.7838	4.1962	4.3763	-0.262	-1.5106	-0.5199	0.5445	2.3867	-0.0328	0.6059	0.7246
-0.045	1.3714	0.2497	-0.6223	1.3346	1.1872	0.4421	1.8791	2.1452	2.2966	2.7838	4.1962	4.2862	-0.3439	-1.2527	-0.3562	0.7	2.0223	0.1023	0.4954	0.655
0.2415	1.703	0.524	-0.3644	1.5925	1.4083	0.5568	2.0387	2.3253	2.3376	2.837	4.2207	4.2044	-0.4135	-0.9702	-0.1556	0.8351	1.6948	0.2907	0.4094	0.6959
0.5445	2.0428	0.7901	-0.2006	1.8791	1.6334	0.6837	2.2148	2.4809	2.3744	2.8821	4.233	4.0938	-0.5035	-0.7041	0.0287	0.9989	1.3346	0.4462	0.3152	0.6878
0.831	2.3785	1.0726	0.0205	2.1452	1.8832	0.8147	2.3949	2.6405	2.4113	2.9476	4.2821	4.016	-0.5854	-0.3971	0.2374	1.1586	1.0112	0.6386	0.1924	0.6959
1.1094	2.7019	1.3551	0.2333	2.4358	2.1124	0.9539	2.616	2.792	2.4276	3.0253	4.3435	3.9014	-0.6427	-0.131	0.4053	1.2977	0.6427	0.8761	0.0983	0.7778
1.4042	3.0417	1.6293	0.4094	2.7347	2.3294	1.0439	2.8002	2.9639	2.4481	3.1031	4.3886	3.8113	-0.7246	0.1719	0.5977	1.441	0.2988	1.0767	-0.0123	0.8024
1.6703	3.316	1.875	0.5936	2.9885	2.5627	1.1667	3.0131	3.1195	2.4563	3.1973	4.4336	3.6803	-0.8024	0.4258	0.7451	1.5843	-0.0655	1.3182	-0.1474	0.8802
1.8995	3.578	2.1083	0.7655	3.2546	2.7838	1.2691	3.1891	3.3119	2.5054	3.3119	4.4991	3.5575	-0.8638	0.7	0.8515	1.7235	-0.4053	1.5229	-0.2702	0.9743
2.1288	3.8318	2.3171	0.9006	3.492	2.9516	1.3264	3.361	3.4716	2.5054	3.3938	4.5155	3.4224	-0.9293	0.9334	0.9825	1.8504	-0.7778	1.7562	-0.4053	1.0644
2.3458	4.0283	2.4686	1.0439	3.6763	3.1522	1.4246	3.5412	3.6312	2.5136	3.4634	4.5441	3.316	-1.003	1.1995	1.0808	1.9855	-1.1626	1.9568	-0.5363	1.1258
2.5423	4.2248	2.6733	1.1831	3.9096	3.3283	1.5393	3.7008	3.795	2.5341	3.5657	4.6301	3.1768	-1.0644	1.4083	1.1831	2.1165	-1.5024	2.1411	-0.6264	1.2036
2.7388	4.4336	2.8206	1.3223	4.1102	3.5125	1.6375	3.8728	3.9505	2.5423	3.6517	4.6792	3.0335	-1.1258	1.6089	1.2691	2.2639	-1.8913	2.3048	-0.741	1.2732
2.9066	4.6301	2.9885	1.4779	4.3231	3.6967	1.7358	4.0652	4.1143	2.5914	3.7622	4.7366	2.923	-1.2159	1.8463	1.3428	2.4072	-2.2148	2.5136	-0.8843	1.3919
3.0786	4.8102	3.1563	1.6171	4.54	3.885	1.8873	4.2412	4.3067	2.6528	3.8605	4.8266	2.8165	-1.2609	2.0264	1.4246	2.5423	-2.5668	2.6937	-0.9457	1.4656
3.2628	5.0067	3.271	1.7562	4.7079	4.0488	2.0101	4.3845	4.495	2.7142	3.971	4.8962	2.7183	-1.3469	2.1861	1.441	2.6896	-2.9394	2.8452	-1.0685	1.5966
3.4183	5.1418	3.4511	1.8913	4.8798	4.2248	2.1411	4.5605	4.6465	2.747	4.0774	4.9535	2.6119	-1.4369	2.3253	1.527	2.8329	-3.2914	3.0131	-1.2036	1.6907
3.5248	5.2728	3.5371	2.0264	5.0313	4.3558	2.2598	4.6629	4.7898	2.8002	4.1552	5.0149	2.4727	-1.4983	2.4768	1.6089	2.9803	-3.6476	3.1809	-1.3387	1.7644
3.6763	5.4284	3.6763	2.1615	5.191	4.5114	2.399	4.8102	4.9781	2.8616	4.2944	5.0886	2.4194	-1.5638	2.6855	1.6744	3.1031	-3.9424	3.3528	-1.4451	1.8873
3.7991	5.543	3.7663	2.2557	5.3342	4.6588	2.4686	4.9371	5.0968	2.878	4.3517	5.105	2.2844	-1.6334	2.8861	1.7644	3.2587	-4.2821	3.5166	-1.6089	1.9855
3.9546	5.7273	3.9424	2.3744	5.5185	4.8021	2.5791	5.0845	5.2524	2.9107	4.4868	5.1828	2.1902	-1.7112	3.1113	1.8463	3.3774	-4.5974	3.6967	-1.7112	2.1206
4.0652	5.8746	4.0079	2.444	5.6413	4.929	2.6569	5.191	5.3875	2.9189	4.5646	5.2278	2.0674	-1.789	3.2996	1.9446	3.5575	-4.9331	3.8032	-1.8832	2.2107
4.2412	6.022	4.1757	2.5627	5.8214	5.0845	2.7347	5.3302	5.4898	2.9312	4.6588	5.236	1.9405	-1.8545	3.5944	2.096	3.6885	-5.1992	3.9956	-2.0223	2.3294
4.364	6.1325	4.2535	2.5791	5.9074	5.1828	2.7838	5.4202	5.5717	2.9353	4.7529	5.2687	1.8136	-1.9364	3.8154	2.2229	3.8441	-5.5021	4.1511	-2.1861	2.4645
4.4909	6.2676	4.3927	2.6692	6.0589	5.2647	2.8125	5.5308	5.6658	2.9271	4.8021	5.281	1.6948	-2.0101	4.102	2.3376	3.9997	-5.7559	4.2494	-2.3212	2.5791
4.6015	6.3413	4.4786	2.6978	6.1244	5.3342	2.8002	5.6044	5.7109	2.8575	4.843	5.2565	1.5393	-2.0919	4.3599	2.4849	4.1593	-5.977	4.3599	-2.4972	2.6692
4.7202	6.4887	4.5892	2.751	6.239	5.4243	2.8493	5.6699	5.7682	2.8411	4.9453	5.2892	1.4287	-2.1656	4.6178	2.6446	4.2862	-6.2349	4.5073	-2.6282	2.8043
4.8553	6.5747	4.6506	2.792	6.3209	5.4653	2.8125	5.7395	5.8173	2.8043	4.9945	5.2401	1.3264	-2.2352	4.8676	2.8165	4.4213	-6.4232	4.6015	-2.8084	2.8943
4.9412	6.6156	4.7488	2.8002	6.3536	5.5062	2.8125	5.76	5.8091	2.7551	5.019	5.2155	1.1708	-2.2762	5.1091	2.9885	4.5441	-6.5951	4.6629	-2.9557	2.9844
5.0272	6.6606	4.7816	2.8002	6.3782	5.498	2.7551	5.7764	5.8132	2.6651	5.0682	5.1828	1.0685	-2.3335	5.3097	3.1563	4.6547	-6.7548	4.7325	-3.1195	3.0622
5.0968	6.7057	4.8102	2.7961	6.415	5.5185	2.7388	5.7887	5.8091	2.5955	5.0722	5.1418	0.962	-2.3908	5.453	3.316	4.7611	-6.9227	4.798	-3.2628	3.1522
5.1541	6.7221	4.8061	2.7592	6.4437	5.498	2.6937	5.7969	5.7641	2.5218	5.105	5.0763	0.8474	-2.4522	5.5963	3.4552	4.8553	-7.0168	4.8307	-3.3774	3.2382
5.1869	6.7507	4.8348	2.7142	6.4519	5.4325	2.6037	5.7969	5.7354	2.4317	5.1337	5.019	0.7246	-2.5054	5.6781	3.5739	4.9494	-7.1724	4.8512	-3.4838	3.3119
5.2114	6.7957	4.8184	2.6364	6.4682	5.4079	2.575	5.7887	5.6454	2.3621	5.15	4.9494	0.6264	-2.5013	5.7191	3.6517	4.9904	-7.2256	4.8798	-3.5944	3.3979
5.1746	6.8039	4.7857	2.5668	6.5051	5.3834	2.489	5.805	5.6003	2.2844	5.2032	4.888	0.5568	-2.5423	5.6699	3.6885	5.0436	-7.2788	4.974	-3.6599	3.4961
5.1009	6.8121	4.6874	2.4031	6.4969	5.2114	2.3908	5.7805	5.4939	2.1656	5.1746	4.7775	0.4462	-2.575	5.5799	3.6558	5.1009	-7.3402	4.974	-3.7786	3.5698
5.019	6.7957	4.6178	2.2598	6.501	5.1132	2.268	5.7682	5.3629	2.0428	5.1787	4.6956	0.307	-2.5791	5.4612	3.6271	5.1255	-7.3771	5.0395	-3.8564	3.6517
4.9003	6.7384	4.4991	2.0551	6.4682	4.9617	2.096	5.7436	5.2401	1.9118	5.191	4.6055	0.2497	-2.5955	5.2769	3.5821	5.1418	-7.3812	5.0559	-3.9383	3.7377
4.7366	6.6525	4.3435	1.8177	6.3823	4.7693	1.9323	5.674	5.0722	1.7481	5.1623	4.4623	0.1187	-2.5996	5.06	3.5125	5.1664	-7.4221	5.0559	-4.0488	3.7786
4.54	6.5665	4.1716	1.5843	6.3086	4.5482	1.7153	5.5922	4.888	1.5679	5.0968	4.3231	0.0205	-2.5955	4.8225	3.4142	5.1541	-7.3893	5.0559	-4.1593	3.8564
4.3517	6.4723	3.9997	1.3141	6.2062	4.3558	1.5352	5.5553	4.6751	1.4246	5.0845	4.1798	-0.0901	-2.575	4.5564	3.2996	5.1214	-7.373	5.0682	-4.233	3.9137
4.1143	6.325	3.754	0.9907	6.1039	4.0488	1.2814	5.4366	4.4295	1.1872	4.9945	3.9956	-0.2456	-2.5791	4.2453	3.1277	5.1009	-7.3443	5.0559	-4.3681	3.9628
3.8687	6.1325	3.4634	0.741	5.9442	3.795	1.0194	5.3015	4.2084	1.003	4.9331	3.8154	-0.3521	-2.5545	3.9219	2.9025	5.0477	-7.3157	5.0026	-4.4377	3.9915
3.5657	5.9033	3.185	0.3644	5.7436	3.4552	0.7369	5.1541	3.9383	0.7901	4.8389	3.5985	-0.4626	-2.5177	3.578	2.6855	4.9863	-7.2379	4.9453	-4.5851	4.0119
3.2792	5.6658	2.878	0.0328	5.5185	3.1277	0.4708	5.0026	3.6394	0.5568	4.7161	3.3856	-0.61	-2.5054	3.2096	2.3376	4.9412	-7.2256	4.8716	-4.6874	4.0242
2.9557	5.3793	2.575	-0.3439	5.281	2.7633	0.1801	4.8102	3.3242	0.3234	4.6178	3.1604	-0.7778	-2.4604	2.8616	2.0101	4.8635	-7.1355	4.8061	-4.7488	4.016
2.6323	5.0927	2.2352	-0.6796	5.0108	2.3785	-0.1064	4.6383	3.0253	0.1187	4.4868	2.9516	-0.8843	-2.4317	2.5177	1.6171	4.8102	-7.0782	4.7488	-4.8389	4.0365
2.3212	4.7939	1.8995	-0.9907	4.7775	2.0387	-0.3398	4.4705	2.7388	-0.0696	4.4172	2.7347	-0.962	-2.3785	2.1779	1.2609	4.7366	-6.9595	4.6711	-4.8757	4.0611
1.9814	4.4909	1.5802	-1.2527	4.5319	1.6907	-0.5649	4.3354	2.4809	-0.2415	4.3763	2.5791	-1.0357	-2.3539	1.8627	0.9088	4.6874	-6.8572	4.6096	-4.9249	4.1184
1.6703	4.1757	1.2977	-1.5352	4.2658	1.3878	-0.7328	4.188	2.2229	-0.3766	4.3026	2.4072	-1.0931	-2.3212	1.5925	0.5813	4.6547	-6.7139	4.5237	-4.9126	4.1225
1.4001	3.8973	1.003	-1.703	4.0406	1.089	-0.8679	4.0774	2.0223	-0.4913	4.2944	2.2844	-1.1176	-2.3294	1.3755	0.3439	4.6096	-6.5829	4.5237	-4.9331	4.1962
1.1463	3.5821	0.7246	-1.8832	3.7991	0.8024	-0.9866	3.9587	1.8299	-0.5486	4.2617	2.1697	-1.1217	-2.3171	1.1749	0.1474	4.6096	-6.4027	4.4623	-4.9044	4.2576
0.9129	3.2996	0.4749	-2.0264	3.5944	0.5322	-1.0726	3.8482	1.6171	-0.6304	4.2535	2.0756	-1.0971	-2.3007	1.003	0.0368	4.5851	-6.2021	4.4172	-4.8471	4.2985
0.7082	3.0499	0.2866	-2.0674	3.4061	0.3316	-1.0808	3.7868	1.4942	-0.6223	4.2903	2.0183	-1.0194	-2.2844	0.9088	-0.0287	4.5564	-5.9974	4.4009	-4.757	4.3722
0.5363	2.8288	0.0778	-2.1656	3.2423	0.131	-1.1381	3.7131	1.351	-0.6223	4.3272	1.9855	-0.962	-2.2844	0.8351	-0.0696	4.5523	-5.76	4.4009	-4.6588	4.4705
0.4094	2.6651	-0.0532	-2.1656	3.1195	-0.0368	-1.1299	3.6803	1.265	-0.6141	4.3435	1.9528	-0.8515	-2.2803	0.8515	-0.0164	4.5278	-5.5185	4.3968	-4.5728	4.5523
0.3193	2.4972	-0.1842	-2.1738	3.0049	-0.1965	-1.0971	3.6517	1.1954	-0.5404	4.3927	1.9732	-0.741	-2.2762	0.8843	0.0696	4.5237	-5.281	4.3927	-4.409	4.6301
0.2497	2.3867	-0.2784	-2.1329	2.923	-0.2661	-1.0235	3.623	1.1381	-0.438	4.4213	1.965	-0.5977	-2.2598	1.0112	0.2129	4.5032	-5.0067	4.4131	-4.2944	4.7406
0.2006	2.2803	-0.3193	-2.1042	2.8411	-0.3644	-0.9457	3.5985	1.1012	-0.3357	4.4827	1.9691	-0.4626	-2.2598	1.1012	0.3603	4.4991	-4.7325	4.3763	-4.147	4.798
0.2211	2.2025	-0.3152	-2.0183	2.7838	-0.4176	-0.8474	3.5862	1.1258	-0.2006	4.5278	2.0674	-0.262	-2.2352	1.2855	0.5199	4.4745	-4.4172	4.3722	-3.9424	4.843
0.2415	2.137	-0.3684	-1.9241	2.7306	-0.4462	-0.7655	3.5616	1.1135	-0.0655	4.581	2.1042	-0.1228	-2.2393	1.4656	0.6714	4.4664	-4.1225	4.364	-3.7499	4.9249
0.2825	2.0838	-0.3439	-1.8463	2.6815	-0.4708	-0.6059	3.5739	1.1135	0.0778	4.6055	2.1534	0.1105	-2.2434	1.5925	0.7696	4.4541	-3.8482	4.3558	-3.5616	4.9863
0.3357	2.0919	-0.2988	-1.703	2.6569	-0.4258	-0.4626	3.5412	1.1545	0.2374	4.6751	2.2516	0.2988	-2.2025	1.8013	0.917	4.409	-3.5248	4.3435	-3.3201	5.0272
0.4749	2.1247	-0.217	-1.5352	2.661	-0.4094	-0.3398	3.6026	1.2036	0.4053	4.7447	2.3621	0.5445	-2.2025	1.9282	0.9661	4.3886	-3.2382	4.3558	-3.1359	5.1091
0.5936	2.1493	-0.1638	-1.3755	2.6815	-0.3684	-0.1638	3.6353	1.2568	0.6141	4.8102	2.4849	0.7819	-2.1902	2.0797	1.0153	4.3395	-2.9353	4.3927	-2.923	5.1705
0.7328	2.2639	-0.0491	-1.1749	2.7429	-0.2784	0.0246	3.6885	1.3428	0.7983	4.8839	2.62	1.0071	-2.1452	2.227	1.0398	4.2821	-2.6364	4.405	-2.6937	5.2237
0.8556	2.3294	0.0614	-1.003	2.8043	-0.2497	0.1924	3.7418	1.4165	0.9539	4.9699	2.7633	1.265	-2.1329	2.2844	1.003	4.2166	-2.313	4.3681	-2.5177	5.2974
1.0235	2.4522	0.1883	-0.8065	2.8902	-0.1392	0.3684	3.8236	1.5352	1.1913	5.0886	2.9353	1.527	-2.0592	2.3908	1.0316	4.102	-1.9814	4.4418	-2.2844	5.3834
1.1667	2.6078	0.3152	-0.6468	3.0131	-0.0573	0.5117	3.9219	1.6212	1.3428	5.1787	3.0826	1.7726	-2.0469	2.4194	0.9907	4.0283	-1.6744	4.4623	-2.0797	5.4653
1.3264	2.7838	0.4339	-0.4667	3.1441	0.0082	0.6796	4.0693	1.7235	1.5638	5.3097	3.2382	2.0387	-1.9773	2.4727	0.9539	3.9178	-1.3346	4.4991	-1.8668	5.5471
1.4574	2.968	0.5445	-0.3193	3.3037	0.1187	0.8024	4.1716	1.7931	1.7358	5.4202	3.4634	2.3048	-1.92	2.4522	0.9088	3.8236	-1.0153	4.5523	-1.6539	5.6372
1.6048	3.1522	0.6755	-0.2252	3.4224	0.1678	0.9006	4.2821	1.8954	1.9077	5.5676	3.623	2.5668	-1.8586	2.4072	0.872	3.7049	-0.6345	4.6055	-1.4001	5.76
1.744	3.3365	0.7737	-0.0614	3.5412	0.2784	1.003	4.405	1.9978	2.0878	5.6904	3.8073	2.8206	-1.8218	2.3335	0.8065	3.5985	-0.2988	4.6833	-1.1995	5.8378
1.8586	3.4347	0.8638	0.0123	3.6681	0.307	1.1094	4.5196	2.0551	2.2434	5.7928	3.9505	3.1195	-1.7644	2.2434	0.7287	3.5002	0.0655	4.6956	-0.962	5.9033
1.9773	3.6026	0.9539	0.1556	3.7499	0.3807	1.22	4.5974	2.1247	2.4113	5.9156	4.1348	3.3283	-1.7071	2.1165	0.655	3.3979	0.3889	4.7038	-0.7492	6.0015
2.0346	3.7131	1.0235	0.2252	3.8687	0.4135	1.3223	4.7202	2.2148	2.6037	6.0507	4.2985	3.6108	-1.6539	1.9609	0.5568	3.2832	0.7655	4.7325	-0.5404	6.0957
2.0878	3.8113	1.0603	0.3275	3.9178	0.4585	1.4124	4.7529	2.2516	2.7347	6.1612	4.45	3.8564	-1.6048	1.8136	0.4462	3.1809	1.0808	4.7939	-0.3029	6.194
2.1124	3.8564	1.089	0.3684	3.9997	0.4667	1.5106	4.8512	2.3212	2.9189	6.239	4.5933	4.1061	-1.5597	1.6334	0.3439	3.0826	1.4042	4.8143	-0.1474	6.3209
2.096	3.8646	1.0849	0.4217	4.0079	0.4667	1.5802	4.9044	2.3294	3.0417	6.329	4.7202	4.319	-1.5188	1.4779	0.2006	3.0131	1.7522	4.8225	0.0082	6.3823
2.0715	3.8032	1.089	0.5076	4.016	0.4421	1.6416	4.9453	2.4031	3.2096	6.4314	4.8635	4.5482	-1.4942	1.3059	0.0409	2.9557	2.0346	4.8512	0.1883	6.4723
1.9937	3.7622	1.0603	0.524	3.9997	0.4053	1.7481	4.9986	2.3949	3.3324	6.4969	4.9658	4.7447	-1.4738	1.1381	-0.131	2.9107	2.3335	4.8676	0.3111	6.5501
1.8873	3.6844	0.9948	0.5363	3.9546	0.4012	1.7685	4.9863	2.4113	3.4511	6.5665	5.0641	4.9208	-1.4328	0.9825	-0.3111	2.8616	2.6241	4.8635	0.4544	6.587
1.7603	3.5289	0.9047	0.5199	3.8687	0.3562	1.8013	5.0067	2.4113	3.5534	6.6238	5.1787	5.1296	-1.4287	0.8433	-0.4913	2.8329	2.9025	4.8307	0.5731	6.6361
1.5884	3.3897	0.7942	0.5076	3.7786	0.2825	1.8177	4.9863	2.4481	3.6926	6.6893	5.3056	5.322	-1.4206	0.7041	-0.6714	2.8084	3.1973	4.8225	0.7369	6.7098
1.4206	3.2218	0.6632	0.4626	3.6885	0.217	1.8381	4.9576	2.4072	3.7663	6.7098	5.3547	5.4857	-1.4001	0.6345	-0.8351	2.792	3.4306	4.8307	0.8351	6.7425
1.2404	3.0704	0.5486	0.4094	3.6026	0.1146	1.8463	4.9412	2.4194	3.8728	6.7548	5.4407	5.6618	-1.3837	0.5445	-0.9743	2.7674	3.7295	4.8307	1.0112	6.7589
1.0316	2.8452	0.393	0.3603	3.4347	0.0532	1.875	4.8798	2.3867	3.9464	6.7548	5.4898	5.8091	-1.3878	0.4749	-1.0808	2.7592	4.016	4.8143	1.1586	6.7835
0.786	2.6119	0.1965	0.307	3.2832	-0.0614	1.8504	4.7857	2.3253	4.0201	6.7507	5.5389	5.9442	-1.3673	0.3848	-1.2077	2.7101	4.2739	4.8102	1.3264	6.7957
0.5772	2.3867	0.0164	0.1556	3.0908	-0.1924	1.789	4.712	2.3048	4.0774	6.7384	5.5799	6.0916	-1.3346	0.3193	-1.2977	2.6569	4.536	4.8021	1.4533	6.7712
0.3193	2.137	-0.1883	0.0368	2.8861	-0.3398	1.7481	4.6096	2.2393	4.1307	6.718	5.584	6.2103	-1.2977	0.2293	-1.3223	2.5832	4.7816	4.7857	1.5925	6.7384
0.0942	1.8913	-0.4053	-0.1351	2.7183	-0.4708	1.6334	4.495	2.1656	4.1225	6.6688	5.6003	6.2635	-1.2527	0.1515	-1.3305	2.5013	5.0149	4.7325	1.7153	6.6975
-0.1433	1.6212	-0.6714	-0.2866	2.4972	-0.6468	1.5434	4.364	2.051	4.1266	6.6443	5.5676	6.3577	-1.1995	0.086	-1.2977	2.3949	5.2524	4.7161	1.8381	6.6525
-0.3889	1.3551	-0.8925	-0.4626	2.2884	-0.8597	1.4328	4.2658	1.9364	4.1102	6.5911	5.5512	6.4314	-1.1381	0.0205	-1.2445	2.2721	5.4939	4.6915	1.9282	6.6197
-0.5772	1.1258	-1.1135	-0.6182	2.137	-1.0071	1.3264	4.1511	1.834	4.1143	6.546	5.5348	6.5092	-1.0849	-0.0123	-1.2036	2.1452	5.6986	4.6751	2.0674	6.5706
-0.8065	0.9006	-1.3591	-0.7615	1.9446	-1.2159	1.2568	4.0406	1.7235	4.1348	6.501	5.4939	6.5829	-1.003	-0.0368	-1.1381	2.006	5.9401	4.6588	2.1861	6.5419
-1.0153	0.6714	-1.5802	-0.9129	1.7972	-1.3878	1.1954	3.971	1.6212	4.1511	6.4682	5.4939	6.6934	-0.9334	-0.045	-1.089	1.875	6.1694	4.6301	2.3294	6.5256
-1.1954	0.4462	-1.8095	-1.0275	1.6334	-1.6007	1.0971	3.8646	1.5147	4.1716	6.4601	5.4775	6.7384	-0.872	-0.0737	-1.1012	1.7276	6.4027	4.6219	2.4645	6.5133
-1.3755	0.2743	-2.0305	-1.1667	1.5065	-1.8095	1.0275	3.7909	1.4042	4.1962	6.4437	5.4612	6.8612	-0.7942	-0.0614	-1.1012	1.5761	6.6566	4.5933	2.6323	6.4805
-1.5352	0.1228	-2.2475	-1.2896	1.4042	-2.0142	0.9375	3.7499	1.2896	4.233	6.4519	5.4366	6.9595	-0.7205	-0.0532	-1.1463	1.4328	6.8899	4.5769	2.792	6.4764
-1.6744	0.0082	-2.4481	-1.4042	1.2855	-2.2148	0.8843	3.7213	1.2036	4.2494	6.4314	5.4325	7.0741	-0.6468	-0.0573	-1.1545	1.2855	7.156	4.5974	2.9516	6.4969
-1.8095	-0.1187	-2.6323	-1.4656	1.2036	-2.3949	0.8229	3.6476	1.0971	4.2903	6.4641	5.4079	7.1478	-0.5609	-0.0491	-1.2241	1.1422	7.3689	4.581	3.1031	6.4682
-1.965	-0.2497	-2.8452	-1.5393	1.0685	-2.6282	0.7246	3.6148	0.962	4.2903	6.4723	5.4161	7.2543	-0.479	-0.0655	-1.3059	0.9784	7.6186	4.6137	3.2955	6.4846
-2.0878	-0.3766	-3.0499	-1.6048	0.9866	-2.8165	0.7041	3.5698	0.8843	4.3313	6.4682	5.3793	7.3566	-0.4135	-0.0901	-1.3632	0.8351	7.8601	4.6383	3.447	6.5337
-2.268	-0.5035	-3.2628	-1.7071	0.8802	-3.0663	0.6223	3.492	0.7041	4.3231	6.4887	5.3547	7.4221	-0.3439	-0.1351	-1.5065	0.7082	8.0812	4.6588	3.5657	6.546
-2.3908	-0.6345	-3.4716	-1.7235	0.7942	-3.2832	0.6018	3.4593	0.6059	4.3804	6.4887	5.3097	7.5244	-0.2866	-0.1678	-1.5843	0.5813	8.3186	4.6833	3.7172	6.5583
-2.5013	-0.7369	-3.6067	-1.7276	0.7041	-3.5084	0.5445	3.4142	0.5035	4.4336	6.4846	5.2687	7.6063	-0.2293	-0.1965	-1.6539	0.4667	8.5602	4.6874	3.8646	6.5951
-2.6078	-0.831	-3.7745	-1.7194	0.6304	-3.6885	0.5895	3.3406	0.3644	4.4786	6.4887	5.2483	7.6718	-0.1719	-0.2252	-1.7358	0.348	8.7812	4.667	4.0119	6.5911
-2.7101	-0.9334	-3.9505	-1.7071	0.5117	-3.8687	0.5854	3.2996	0.2293	4.5237	6.501	5.191	7.7373	-0.131	-0.2579	-1.7931	0.262	8.9614	4.6055	4.1511	6.5788
-2.8247	-1.0562	-4.1225	-1.7071	0.438	-4.0938	0.5813	3.2096	0.0778	4.5482	6.4887	5.1173	7.7742	-0.0942	-0.3398	-1.8954	0.1924	9.1292	4.5482	4.2248	6.5829
-2.8739	-1.179	-4.2535	-1.6907	0.2661	-4.2903	0.5854	3.0949	-0.0942	4.5605	6.4437	5.0149	7.7783	-0.0737	-0.3725	-1.9323	0.1474	9.252	4.4459	4.2862	6.5256
-2.9476	-1.3182	-4.4254	-1.6867	0.1105	-4.4991	0.5772	2.9844	-0.2415	4.5196	6.3905	4.9085	7.7742	-0.0328	-0.4339	-1.9937	0.0901	9.3871	4.3722	4.3108	6.5215
-3.0294	-1.4697	-4.5933	-1.7603	-0.0737	-4.7079	0.479	2.8452	-0.4299	4.4541	6.2963	4.7898	7.7046	-0.0328	-0.4913	-2.0592	0.0778	9.424	4.2494	4.319	6.4601
-3.0949	-1.6171	-4.7488	-1.7931	-0.2784	-4.9208	0.3889	2.6774	-0.6059	4.4009	6.198	4.6547	7.5981	-0.0205	-0.5199	-2.1083	0.0614	9.4649	4.1389	4.2944	6.4437
-3.1522	-1.7931	-4.8716	-1.8586	-0.4954	-5.1337	0.2948	2.5136	-0.7901	4.2985	6.1244	4.5237	7.5203	-0.0246	-0.5609	-2.1656	0.0573	9.4854	4.0324	4.2658	6.3864
-3.1973	-1.92	-5.0313	-1.9487	-0.6673	-5.2728	0.2129	2.3703	-0.9539	4.1716	6.0466	4.405	7.4016	-0.0246	-0.61	-2.1902	0.0491	9.4404	3.9464	4.2289	6.3454
-3.271	-2.096	-5.1623	-2.0674	-0.8515	-5.453	0.045	2.2229	-1.1135	4.0201	5.9688	4.2535	7.2502	-0.0287	-0.6468	-2.1902	0.045	9.3994	3.8482	4.1634	6.3086
-3.3938	-2.2639	-5.3056	-2.2352	-1.0767	-5.6495	-0.131	2.0756	-1.265	3.8482	5.8951	4.147	7.1232	-0.0246	-0.6837	-2.2352	0.0614	9.3421	3.7377	4.0897	6.2431
-3.4593	-2.4031	-5.4489	-2.4276	-1.2404	-5.8173	-0.3357	1.9405	-1.4124	3.6844	5.7805	4.0079	6.9554	-0.0368	-0.741	-2.2475	0.0901	9.2111	3.6517	4.0119	6.1817
-3.5903	-2.5668	-5.6372	-2.661	-1.4574	-5.9893	-0.5568	1.7726	-1.5679	3.492	5.6822	3.8646	6.7794	-0.0328	-0.8106	-2.2598	0.1023	9.1169	3.5371	3.8646	6.1203
-3.7663	-2.7715	-5.846	-2.9435	-1.6907	-6.194	-0.8556	1.5802	-1.7153	3.2259	5.5799	3.7172	6.5788	-0.0696	-0.9457	-2.3089	0.1474	8.9409	3.447	3.7418	6.0466
-3.9219	-2.9926	-6.0138	-3.2218	-1.9036	-6.3536	-1.1176	1.4246	-1.8668	2.9803	5.4653	3.5903	6.3741	-0.0778	-1.0849	-2.3499	0.176	8.7608	3.3324	3.5821	5.9647
-4.1307	-3.2177	-6.2267	-3.5452	-2.1329	-6.5665	-1.4083	1.2322	-2.0101	2.7101	5.3547	3.4265	6.1325	-0.0983	-1.2773	-2.399	0.2211	8.5643	3.23	3.361	5.936
-4.3476	-3.4757	-6.4519	-3.8728	-2.3785	-6.7261	-1.6948	1.0521	-2.1656	2.4522	5.2524	3.3242	5.8869	-0.1351	-1.4902	-2.4809	0.2661	8.3146	3.1195	3.185	5.805
-4.5933	-3.7295	-6.6975	-4.1757	-2.6323	-6.9145	-1.9978	0.8965	-2.3007	2.1902	5.1296	3.1727	5.6536	-0.1597	-1.7603	-2.6037	0.3275	8.0689	3.0253	2.9476	5.7313
-4.8225	-3.9874	-6.9104	-4.5032	-2.8739	-7.1028	-2.2434	0.7082	-2.3908	1.9896	5.0313	3.0499	5.4325	-0.1883	-2.0019	-2.7224	0.4053	7.8274	2.8493	2.7429	5.6495
-5.0477	-4.278	-7.1069	-4.7857	-3.099	-7.2133	-2.4931	0.5322	-2.489	1.7358	4.9371	2.9189	5.2319	-0.2252	-2.2229	-2.8247	0.4503	7.5777	2.7674	2.5668	5.5471
-5.2442	-4.4868	-7.3116	-5.0272	-3.316	-7.3648	-2.7265	0.3766	-2.5914	1.5516	4.8184	2.8084	5.019	-0.2456	-2.4276	-2.9271	0.5281	7.3238	2.6528	2.3458	5.4612
-5.4612	-4.6997	-7.4958	-5.2728	-3.4961	-7.4712	-2.923	0.2743	-2.6569	1.3551	4.7325	2.7265	4.7898	-0.2866	-2.5873	-3.0008	0.5813	7.0659	2.5545	2.1534	5.3793
-5.6331	-4.9208	-7.6227	-5.5062	-3.6558	-7.5736	-3.1441	0.1515	-2.7019	1.1831	4.6424	2.62	4.6096	-0.3152	-2.747	-3.099	0.6345	6.7998	2.4481	1.965	5.3097
-5.7723	-5.0927	-7.7496	-5.6904	-3.7868	-7.6595	-3.3119	0.1023	-2.7429	1.0521	4.626	2.5709	4.4664	-0.3316	-2.8452	-3.1768	0.6837	6.5624	2.3539	1.7931	5.2565
-5.8787	-5.2196	-7.8724	-5.8501	-3.9014	-7.6636	-3.4306	0.0368	-2.7265	0.9129	4.5769	2.5505	4.3231	-0.3562	-2.8821	-3.2587	0.7328	6.2963	2.268	1.6375	5.1623
-6.0179	-5.3424	-7.9666	-5.9974	-3.9997	-7.6964	-3.5452	-0.0491	-2.7306	0.827	4.5482	2.5382	4.233	-0.4012	-2.9312	-3.3774	0.8065	6.0916	2.1574	1.4533	5.0886
-6.0752	-5.4734	-8.0485	-6.0916	-4.057	-7.7209	-3.6148	-0.0696	-2.6651	0.7901	4.5319	2.5464	4.1348	-0.4339	-2.9476	-3.5248	0.8761	5.8624	2.0715	1.3305	5.0641
-6.1612	-5.5308	-8.1058	-6.1612	-4.1143	-7.6923	-3.6476	-0.0491	-2.6119	0.7533	4.5564	2.5832	4.0611	-0.4462	-2.9025	-3.6844	0.9129	5.6658	2.0183	1.2159	5.0108
-6.1899	-5.5799	-8.0607	-6.1858	-4.1307	-7.6432	-3.6681	-0.0655	-2.5341	0.7533	4.5687	2.6528	4.0324	-0.4708	-2.8411	-3.84	0.9661	5.5062	1.9732	1.1135	4.9617
-6.2103	-5.6167	-8.1017	-6.1612	-4.1307	-7.5777	-3.6312	-0.0287	-2.4358	0.7942	4.6055	2.7429	4.0324	-0.4954	-2.8002	-3.9915	1.0071	5.3179	1.9528	1.0603	4.929
-6.1899	-5.629	-8.0485	-6.1162	-4.0938	-7.4958	-3.5616	0	-2.2803	0.8925	4.6833	2.8452	4.0488	-0.5322	-2.7347	-4.1757	1.0521	5.1992	1.9282	1.0153	4.9249
-6.1407	-5.6044	-7.9789	-6.022	-4.0488	-7.3893	-3.4347	0.0778	-2.137	0.9989	4.7243	2.9639	4.0856	-0.5445	-2.661	-4.3313	1.0808	5.0968	1.9364	0.9743	4.8921
-6.0998	-5.5922	-7.897	-5.8419	-4.0038	-7.2461	-3.2464	0.1801	-2.0019	1.1299	4.8102	3.1277	4.1675	-0.5445	-2.5668	-4.4745	1.1094	5.0272	1.9609	1.0112	4.8962
-6.022	-5.5348	-7.8356	-5.7027	-3.9219	-7.1192	-3.0663	0.262	-1.8013	1.3018	4.9044	3.2955	4.2699	-0.5731	-2.5177	-4.6342	1.1504	4.9617	1.9773	1.0275	4.929
-5.9238	-5.4612	-7.7414	-5.4816	-3.8564	-6.9759	-2.8411	0.3521	-1.6212	1.4697	5.0272	3.4879	4.3681	-0.5936	-2.4154	-4.7366	1.1749	4.9331	1.9937	1.0726	4.9208
-5.7969	-5.3875	-7.6022	-5.2769	-3.7786	-6.7998	-2.616	0.4299	-1.4246	1.6498	5.1214	3.664	4.4705	-0.5936	-2.313	-4.8021	1.1954	4.888	1.9978	1.1176	4.929
-5.7354	-5.3547	-7.5163	-5.1091	-3.7377	-6.6852	-2.4727	0.524	-1.2814	1.7849	5.2237	3.8195	4.5892	-0.5977	-2.1943	-4.8757	1.2159	4.843	2.006	1.134	4.9617
-5.6044	-5.2728	-7.4139	-4.9371	-3.6722	-6.5378	-2.2884	0.5813	-1.0767	1.9487	5.2933	3.9997	4.6711	-0.6223	-2.0878	-4.9044	1.2281	4.8061	2.0264	1.1504	4.9494
-5.543	-5.2196	-7.332	-4.8225	-3.5985	-6.4191	-2.1738	0.6632	-0.9293	2.0592	5.3998	4.1634	4.7406	-0.61	-2.006	-4.9208	1.2322	4.7447	2.0428	1.1504	4.974
-5.4693	-5.1214	-7.2215	-4.7161	-3.5043	-6.284	-2.0633	0.7615	-0.7615	2.1288	5.4571	4.2944	4.798	-0.6345	-1.8913	-4.8635	1.2527	4.7038	2.0469	1.1053	4.9822
-5.412	-5.0968	-7.1683	-4.6424	-3.4716	-6.1817	-1.9896	0.7983	-0.6264	2.2148	5.5348	4.4541	4.8389	-0.6182	-1.8586	-4.8471	1.2609	4.6137	2.0469	1.0767	4.9822
-5.3588	-5.0149	-7.111	-4.6342	-3.402	-6.067	-1.9528	0.8597	-0.4872	2.2844	5.5758	4.5769	4.8635	-0.6264	-1.7972	-4.7939	1.2691	4.5237	2.051	1.003	4.9904
-5.3056	-4.9371	-7.0537	-4.5933	-3.3324	-5.9729	-1.9282	0.9334	-0.3766	2.2884	5.6249	4.6751	4.8553	-0.6304	-1.7317	-4.6588	1.265	4.409	2.0305	0.9211	4.974
-5.2728	-4.843	-6.9963	-4.581	-3.1973	-5.891	-1.9036	1.0112	-0.2825	2.2966	5.6945	4.8021	4.8635	-0.6468	-1.6785	-4.5114	1.2773	4.3231	2.0592	0.8474	5.0149
-5.281	-4.7529	-6.9513	-4.5851	-3.1236	-5.8173	-1.9487	1.048	-0.1801	2.268	5.7395	4.8962	4.8471	-0.6345	-1.6212	-4.3272	1.2814	4.1716	2.0592	0.7205	5.019
-5.2606	-4.6711	-6.9472	-4.6342	-2.9762	-5.7313	-1.9609	1.1667	-0.0778	2.2434	5.8214	5.0067	4.8266	-0.6304	-1.5802	-4.1266	1.2691	4.0815	2.1247	0.6223	4.9945
-5.2606	-4.5441	-6.8981	-4.6547	-2.8698	-5.6577	-2.0264	1.2568	0.0205	2.2066	5.8746	5.105	4.798	-0.6223	-1.4779	-3.8932	1.2363	3.9424	2.2025	0.5035	5.0559
-5.2769	-4.4009	-6.8776	-4.7161	-2.7224	-5.5963	-2.0919	1.3387	0.0983	2.1288	5.936	5.1992	4.7693	-0.61	-1.441	-3.6926	1.2322	3.8195	2.2393	0.4053	5.0804
-5.2524	-4.2985	-6.8612	-4.757	-2.5791	-5.5103	-2.1329	1.4697	0.1842	2.1001	6.0097	5.3015	4.7488	-0.5977	-1.3469	-3.4593	1.1995	3.7377	2.3662	0.2907	5.1459
-5.2442	-4.1552	-6.8039	-4.7611	-2.4113	-5.4202	-2.1452	1.6089	0.3234	2.0674	6.0916	5.4284	4.7488	-0.5731	-1.2814	-3.23	1.1708	3.6271	2.4768	0.2497	5.1951
-5.2565	-4.0324	-6.8039	-4.8061	-2.3007	-5.3342	-2.182	1.6948	0.3848	2.0469	6.1571	5.5389	4.7079	-0.5936	-1.2159	-3.0171	1.179	3.5125	2.5627	0.1433	5.236
-5.2728	-3.9587	-6.8121	-4.8471	-2.1902	-5.2687	-2.227	1.7808	0.4626	2.006	6.1776	5.6044	4.6956	-0.5895	-1.1708	-2.8329	1.1913	3.4716	2.6692	0.0614	5.2769
-5.281	-3.8809	-6.7671	-4.8921	-2.0878	-5.2155	-2.2721	1.8832	0.5281	1.9773	6.2799	5.7109	4.6833	-0.5977	-1.1176	-2.6487	1.2118	3.3487	2.7961	0.0205	5.3056
-5.281	-3.7991	-6.7916	-4.9331	-2.0264	-5.1582	-2.2598	1.965	0.6304	1.9405	6.3127	5.8255	4.6833	-0.6182	-1.1135	-2.4849	1.2568	3.2873	2.8984	-0.0246	5.3629
-5.2892	-3.7049	-6.7794	-4.9658	-1.9405	-5.1091	-2.3048	2.0633	0.6878	1.9405	6.3372	5.9279	4.6915	-0.655	-1.1135	-2.3785	1.3182	3.1973	2.9844	-0.0737	5.3752
-5.2933	-3.6599	-6.7957	-5.0149	-1.8791	-5.019	-2.3171	2.1329	0.7778	1.92	6.415	6.0261	4.6956	-0.6959	-1.1053	-2.2475	1.3878	3.1318	3.0622	-0.131	5.4202
-5.3138	-3.578	-6.7957	-5.0804	-1.8218	-4.9945	-2.3417	2.1902	0.8679	1.9405	6.4478	6.1325	4.7202	-0.7328	-1.1504	-2.1779	1.4656	3.0949	3.0786	-0.1638	5.4366
-5.3383	-3.5371	-6.8039	-5.1255	-1.7808	-4.9494	-2.3662	2.227	0.9129	1.92	6.4314	6.2554	4.7325	-0.7737	-1.1995	-2.1411	1.5597	3.0663	3.099	-0.1678	5.4284
-5.367	-3.4961	-6.8285	-5.1623	-1.703	-4.8839	-2.3703	2.3007	0.9948	1.9528	6.456	6.3659	4.7857	-0.831	-1.3059	-2.1493	1.6416	3.0131	3.0663	-0.2293	5.4079
-5.367	-3.402	-6.7957	-5.15	-1.6334	-4.7939	-2.313	2.3785	1.0971	2.0101	6.5133	6.5051	4.8716	-0.8556	-1.4124	-2.1534	1.7071	2.9885	3.0663	-0.2006	5.3711
-5.3916	-3.3447	-6.7794	-5.1705	-1.5761	-4.6956	-2.2762	2.4358	1.2077	2.0756	6.5174	6.632	4.9453	-0.9088	-1.5188	-2.182	1.7849	2.9926	3.0294	-0.2211	5.3179
-5.4202	-3.3487	-6.7753	-5.1787	-1.5352	-4.6219	-2.227	2.4809	1.3264	2.1411	6.5501	6.7712	5.0641	-0.9416	-1.6744	-2.2352	1.8627	3.0049	2.9598	-0.1883	5.2647
-5.4325	-3.3365	-6.7589	-5.1418	-1.5188	-4.5073	-2.1452	2.4809	1.4451	2.2148	6.5501	6.9308	5.1787	-0.958	-1.7726	-2.2844	1.92	3.0417	2.9148	-0.1474	5.1705
-5.4202	-3.3447	-6.718	-5.0845	-1.4983	-4.3804	-2.0346	2.5054	1.5843	2.3458	6.5706	7.111	5.2974	-0.9743	-1.8791	-2.3253	1.9528	3.1113	2.8616	-0.0778	5.1173
-5.4284	-3.3569	-6.677	-5.0231	-1.5188	-4.233	-1.9077	2.5259	1.7235	2.5054	6.5665	7.2665	5.4243	-0.9825	-1.9323	-2.3458	1.9773	3.1809	2.7797	-0.0328	5.0436
-5.3998	-3.361	-6.5992	-4.9208	-1.4738	-4.102	-1.8054	2.5545	1.9118	2.6487	6.5829	7.4221	5.6167	-1.0071	-2.0183	-2.3621	2.0101	3.2873	2.6896	0.0491	4.9494
-5.3957	-3.3856	-6.5256	-4.8266	-1.4574	-3.9424	-1.613	2.575	2.0428	2.8247	6.5951	7.5777	5.7764	-1.0194	-2.0305	-2.4113	2.0101	3.4183	2.5996	0.1597	4.8921
-5.3711	-3.4347	-6.4641	-4.6997	-1.4738	-3.8113	-1.4533	2.5873	2.2229	2.9926	6.5992	7.7414	5.9565	-1.0235	-2.1083	-2.4358	2.0428	3.4838	2.4768	0.2579	4.7816
-5.367	-3.4757	-6.3782	-4.5646	-1.4656	-3.6476	-1.2691	2.5709	2.3458	3.1768	6.6279	7.9256	6.1121	-1.0398	-2.1329	-2.4931	2.0592	3.6189	2.3785	0.393	4.7161
-5.3138	-3.492	-6.2676	-4.4418	-1.4574	-3.4757	-1.0726	2.6119	2.5136	3.3528	6.6279	8.0525	6.284	-1.0316	-2.1984	-2.5054	2.0633	3.7581	2.2762	0.4913	4.6629
-5.3015	-3.5289	-6.1735	-4.2699	-1.4492	-3.3283	-0.9088	2.6241	2.6733	3.5043	6.6566	8.2163	6.4314	-1.0521	-2.2925	-2.6241	2.0715	3.8441	2.1574	0.5936	4.5933
-5.2687	-3.5575	-6.0875	-4.1348	-1.4246	-3.1441	-0.7123	2.6487	2.8329	3.6844	6.6811	8.3268	6.5911	-1.0357	-2.3294	-2.661	2.0797	3.9833	2.0715	0.7164	4.536
-5.2073	-3.578	-5.9852	-3.9669	-1.4165	-2.9762	-0.5322	2.6569	2.968	3.8728	6.7016	8.4619	6.7548	-1.0439	-2.358	-2.7142	2.096	4.0856	2.0142	0.8106	4.5155
-5.1623	-3.5657	-5.8746	-3.8195	-1.3755	-2.8084	-0.3562	2.7224	3.1031	4.0201	6.7261	8.5602	6.8735	-1.0644	-2.4113	-2.7551	2.1124	4.1962	1.9487	0.8802	4.4623
-5.0682	-3.5493	-5.7395	-3.6476	-1.3264	-2.6815	-0.1924	2.7592	3.2259	4.1757	6.7998	8.6912	6.9759	-1.0644	-2.4358	-2.7715	2.1206	4.2617	1.9159	0.9866	4.4336
-5.0026	-3.5125	-5.6208	-3.4634	-1.2486	-2.4809	-0.0287	2.8616	3.3651	4.3272	6.8408	8.7526	7.0946	-1.0685	-2.4481	-2.7879	2.137	4.364	1.9118	1.0275	4.4664
-4.9331	-3.4838	-5.4775	-3.2873	-1.1463	-2.3335	0.1638	2.9516	3.5043	4.4786	6.9472	8.8713	7.2133	-1.0767	-2.4849	-2.8206	2.1574	4.4623	1.9036	1.1053	4.4827
-4.8757	-3.4757	-5.3547	-3.1236	-1.0971	-2.1738	0.3684	3.0335	3.6312	4.6055	6.9841	8.9409	7.332	-1.0685	-2.4522	-2.7879	2.1615	4.5605	1.92	1.1831	4.5237
-4.7775	-3.4183	-5.2278	-2.9066	-0.9907	-2.0428	0.5609	3.0908	3.7254	4.7816	7.0618	9.0023	7.4303	-1.0849	-2.4154	-2.8002	2.182	4.6588	1.9609	1.265	4.5892
-4.7406	-3.4265	-5.1418	-2.751	-0.9498	-1.9118	0.7164	3.1563	3.8236	4.9085	7.111	9.0719	7.5203	-1.089	-2.4154	-2.8288	2.182	4.712	1.9814	1.3387	4.6137
-4.6751	-3.3774	-5.0149	-2.5873	-0.8556	-1.7522	0.9088	3.2996	3.9383	5.0436	7.1888	9.1047	7.6063	-1.0767	-2.4113	-2.837	2.1574	4.8389	2.0387	1.4246	4.6424
-4.6178	-3.316	-4.9167	-2.4235	-0.7369	-1.6089	1.0603	3.4102	4.0488	5.1541	7.2706	9.1456	7.6595	-1.0644	-2.399	-2.8411	2.1288	4.9126	2.0633	1.5106	4.712
-4.5728	-3.2587	-4.8307	-2.3335	-0.6468	-1.5188	1.1872	3.5043	4.1307	5.3015	7.3443	9.1702	7.7332	-1.0562	-2.4399	-2.923	2.1124	4.9781	2.1247	1.5597	4.7693
-4.5032	-3.1277	-4.6792	-2.1534	-0.4585	-1.3919	1.3755	3.664	4.2412	5.4448	7.4262	9.2275	7.8642	-1.0194	-2.4358	-2.9967	2.0469	5.0927	2.2066	1.6989	4.843
-4.4377	-3.0294	-4.5605	-2.006	-0.3193	-1.2322	1.527	3.7786	4.3435	5.5512	7.504	9.2561	7.897	-0.9989	-2.4972	-3.1113	2.0346	5.15	2.2844	1.789	4.9208
-4.3231	-2.8657	-4.4131	-1.8545	-0.0942	-1.0685	1.7153	3.9628	4.45	5.715	7.6391	9.3134	7.987	-0.9907	-2.5873	-3.271	1.9855	5.2524	2.3253	1.92	4.9863
-4.2617	-2.6815	-4.2658	-1.6457	0.0942	-0.9252	1.9118	4.1061	4.5687	5.8501	7.7087	9.3585	8.0485	-0.9661	-2.6569	-3.4102	1.965	5.367	2.399	2.0346	5.06
-4.1552	-2.5341	-4.1102	-1.4492	0.2743	-0.7778	2.1165	4.2371	4.6956	6.0179	7.7946	9.3994	8.1221	-0.962	-2.7838	-3.5698	1.9446	5.4325	2.4194	2.1493	5.1173
-4.0283	-2.3417	-3.9833	-1.2896	0.4421	-0.6141	2.2844	4.3558	4.8021	6.1489	7.8601	9.4199	8.1958	-0.958	-2.8861	-3.7581	1.9241	5.498	2.4481	2.2516	5.1582
-3.9301	-2.1534	-3.7786	-1.1053	0.6264	-0.4585	2.4931	4.4705	4.9249	6.2799	7.9379	9.424	8.2409	-0.9498	-2.9353	-3.9178	1.9241	5.584	2.4972	2.3539	5.2196
-3.7418	-1.9609	-3.5862	-0.9088	0.8351	-0.2702	2.7142	4.6629	5.0804	6.4396	8.0403	9.4772	8.3227	-0.9539	-3.0458	-4.057	1.9077	5.6781	2.5177	2.4645	5.3097
-3.6353	-1.8054	-3.3938	-0.7533	1.0153	-0.086	2.9353	4.7939	5.2196	6.6033	8.1262	9.5673	8.421	-0.9498	-3.1195	-4.1716	1.8995	5.7805	2.5423	2.62	5.3465
-3.4838	-1.6252	-3.2136	-0.5281	1.1913	0.0778	3.1277	4.9331	5.3629	6.7998	8.2245	9.6123	8.4783	-0.9457	-3.14	-4.2044	1.8954	5.8746	2.5996	2.7715	5.4079
-3.3119	-1.441	-3.0008	-0.3725	1.3796	0.2784	3.3651	5.0722	5.5144	6.9267	8.2859	9.6819	8.5806	-0.9457	-3.14	-4.2453	1.9159	5.9811	2.6119	2.9025	5.4653
-3.1481	-1.2486	-2.8002	-0.1638	1.5475	0.479	3.5698	5.2237	5.6495	7.0823	8.4005	9.7597	8.6666	-0.9416	-3.1359	-4.2617	1.8995	6.0916	2.6446	3.0335	5.5308
-3.0049	-1.0521	-2.5832	-0.0287	1.744	0.6591	3.7418	5.3834	5.8132	7.2256	8.5274	9.8415	8.7772	-0.9416	-3.1359	-4.2453	1.9036	6.2021	2.7265	3.1563	5.6495
-2.8125	-0.8515	-2.3539	0.1228	1.9405	0.872	3.9628	5.5594	5.9729	7.3853	8.6257	9.9521	8.8877	-0.9498	-3.1031	-4.1921	1.8913	6.3045	2.8084	3.2873	5.7682
-2.661	-0.6714	-2.1452	0.2907	2.1615	1.089	4.147	5.7395	6.1571	7.5695	8.6994	10.0176	9.0064	-0.9457	-3.0581	-4.1429	1.8832	6.4273	2.8861	3.3979	5.8337
-2.4849	-0.4708	-1.9323	0.4503	2.3335	1.3305	4.3435	5.8828	6.3209	7.7005	8.8222	10.124	9.1088	-0.9416	-2.9844	-4.0938	1.875	6.5583	2.9312	3.5207	5.9033
-2.2966	-0.2988	-1.744	0.5854	2.4686	1.5065	4.5073	5.9729	6.4641	7.8438	8.9122	10.1731	9.162	-0.9457	-2.9844	-4.0283	1.8832	6.6443	2.9476	3.5698	5.936
-2.1124	-0.1269	-1.5024	0.7082	2.6733	1.7685	4.7325	6.1285	6.6525	8.0075	8.9737	10.255	9.3012	-0.9334	-2.8984	-3.9137	1.8586	6.7261	2.9598	3.7254	5.9811
-1.9241	0.0819	-1.2568	0.8761	2.8657	1.9896	4.9249	6.284	6.849	8.1876	9.0678	10.3574	9.4117	-0.9129	-2.8616	-3.8073	1.8381	6.8612	3.0049	3.8154	6.0425
-1.8013	0.1883	-1.0767	0.962	2.9885	2.2189	5.0682	6.3823	6.9963	8.2941	9.0801	10.4024	9.4895	-0.9252	-2.8206	-3.7336	1.8504	6.9308	2.9803	3.8441	6.0548
-1.6416	0.3152	-0.8925	1.0849	3.1727	2.4154	5.2647	6.501	7.1355	8.421	9.1497	10.4556	9.5754	-0.9129	-2.7756	-3.5903	1.8177	6.9963	2.9762	3.9219	6.0466
-1.482	0.4749	-0.6714	1.1872	3.3119	2.661	5.3998	6.6115	7.2993	8.5438	9.1661	10.4802	9.6205	-0.8925	-2.747	-3.4879	1.789	7.0373	2.9107	3.9874	6.0261
-1.3919	0.5404	-0.4872	1.2527	3.4347	2.8288	5.543	6.6852	7.4303	8.6789	9.1661	10.5088	9.731	-0.872	-2.7551	-3.4511	1.7481	7.1232	2.8411	4.057	6.0179
-1.2445	0.6182	-0.3275	1.3796	3.5575	3.0417	5.7109	6.7671	7.5899	8.7935	9.1824	10.5621	9.7842	-0.8556	-2.7224	-3.3856	1.7153	7.1314	2.7797	4.1184	5.9606
-1.1831	0.6796	-0.1597	1.4533	3.6476	3.2464	5.8173	6.8203	7.6759	8.8672	9.1456	10.5416	9.8211	-0.8433	-2.747	-3.3651	1.6744	7.1642	2.7142	4.1429	5.9033
-1.0767	0.7369	-0.0041	1.5188	3.754	3.4265	5.9647	6.8653	7.8151	9.0023	9.1374	10.5498	9.8866	-0.8024	-2.8043	-3.3528	1.6007	7.1683	2.62	4.2084	5.8624
-0.9907	0.7942	0.1433	1.6048	3.8277	3.6148	6.0711	6.9104	7.9175	9.0842	9.1292	10.5662	9.9316	-0.7533	-2.8616	-3.3037	1.4983	7.1683	2.5545	4.2862	5.805
-0.9539	0.8392	0.2702	1.6703	3.9096	3.7786	6.1653	6.9227	7.9911	9.1661	9.0433	10.517	9.948	-0.7041	-2.9148	-3.2669	1.4124	7.1683	2.4972	4.2944	5.7436
-0.9129	0.8761	0.3725	1.6989	3.9464	3.9301	6.2472	6.9267	8.0403	9.2111	9.0023	10.4679	9.9644	-0.6591	-3.0049	-3.2792	1.3264	7.1355	2.4031	4.3149	5.674
-0.9375	0.8761	0.4872	1.7562	3.9833	4.0324	6.3004	6.9267	8.0894	9.2684	8.9286	10.4311	9.9685	-0.6182	-3.1481	-3.3119	1.2322	7.0987	2.3253	4.3599	5.5922
-0.9334	0.9047	0.5649	1.7849	4.0406	4.1429	6.3577	6.9308	8.1549	9.2848	8.8754	10.3778	9.9685	-0.5813	-3.2218	-3.3283	1.1545	7.0782	2.2803	4.3845	5.543
-0.9416	0.8802	0.6264	1.7726	4.0447	4.2207	6.37	6.9104	8.1467	9.3298	8.7853	10.3287	9.9398	-0.5486	-3.3078	-3.3201	1.0808	7.0373	2.2393	4.4254	5.5103
-0.9211	0.9498	0.7123	1.8136	4.1143	4.2985	6.4191	6.9267	8.1713	9.3667	8.7198	10.2468	9.9398	-0.4954	-3.3651	-3.3528	1.003	7.0045	2.2557	4.4254	5.4612
-0.9702	0.9334	0.7696	1.8054	4.1061	4.3599	6.4191	6.9227	8.1508	9.3626	8.6748	10.1568	9.9152	-0.4667	-3.4102	-3.3447	0.9416	6.9595	2.2352	4.4213	5.4079
-1.0153	0.9252	0.7901	1.8013	4.1143	4.4009	6.4027	6.9227	8.1508	9.3667	8.597	10.1117	9.8784	-0.4421	-3.4593	-3.3487	0.8761	6.9063	2.2393	4.4459	5.3998
-1.0357	0.958	0.8351	1.789	4.1634	4.4213	6.3905	6.9104	8.1099	9.3789	8.5479	10.0421	9.8375	-0.4135	-3.4716	-3.2955	0.827	6.8653	2.2803	4.3927	5.3834
-1.048	0.9907	0.8679	1.7808	4.2125	4.4786	6.3986	6.9431	8.0976	9.3789	8.5315	9.993	9.8375	-0.393	-3.4634	-3.2628	0.7942	6.8039	2.3089	4.3763	5.3834
-1.0603	1.0316	0.9457	1.7685	4.2821	4.5073	6.3986	6.9759	8.0853	9.3994	8.4906	9.9316	9.7924	-0.393	-3.4429	-3.2177	0.7737	6.7589	2.3867	4.3395	5.4079
-0.9866	1.1258	1.0521	1.8095	4.3968	4.5728	6.4273	7.0414	8.0976	9.4199	8.5233	9.9357	9.7801	-0.3644	-3.3324	-3.1727	0.7451	6.7139	2.4809	4.3517	5.4489
-0.9825	1.22	1.0971	1.8545	4.5278	4.6383	6.4928	7.1314	8.1426	9.4895	8.5684	9.948	9.817	-0.3684	-3.3242	-3.1072	0.7451	6.6975	2.5545	4.319	5.5144
-0.8679	1.3796	1.2609	1.9159	4.6629	4.8061	6.5951	7.2543	8.2081	9.5468	8.638	10.0053	9.8538	-0.3644	-3.2055	-2.9926	0.7287	6.6893	2.6978	4.3313	5.6249
-0.7696	1.5557	1.396	2.0305	4.8635	4.929	6.7098	7.3484	8.2941	9.6491	8.7035	10.0421	9.8989	-0.3357	-3.1031	-2.8984	0.7164	6.6606	2.7961	4.2985	5.6945
-0.6386	1.7603	1.572	2.1411	5.06	5.0641	6.8572	7.5163	8.376	9.7433	8.7935	10.1404	9.9152	-0.348	-3.0253	-2.8902	0.7123	6.632	2.8902	4.2658	5.7559
-0.5117	1.9937	1.744	2.2639	5.2687	5.236	6.9718	7.6432	8.4783	9.8456	8.8549	10.1854	9.9644	-0.3521	-2.9271	-2.8575	0.6959	6.5951	2.9926	4.2166	5.8337
-0.3725	2.1984	1.965	2.3785	5.4775	5.4202	7.1232	7.7824	8.5725	9.9193	8.9409	10.255	10.0053	-0.3275	-2.9025	-2.8739	0.6878	6.5501	3.0826	4.1839	5.8705
-0.2129	2.4235	2.137	2.5382	5.7068	5.6085	7.2706	7.9256	8.728	10.0626	9.0351	10.3656	10.0626	-0.3234	-2.8411	-2.9107	0.6591	6.5296	3.1891	4.188	5.9606
-0.086	2.6119	2.3048	2.661	5.8746	5.76	7.4262	8.0157	8.8386	10.124	9.1006	10.4515	10.1117	-0.3193	-2.8125	-3.0131	0.655	6.4887	3.2423	4.1716	5.9606
0.0164	2.7797	2.4809	2.7838	6.0179	5.9279	7.5285	8.1058	8.9	10.1936	9.1497	10.5047	10.1527	-0.3111	-2.8125	-3.1236	0.6264	6.4764	3.3037	4.1511	5.9565
0.1187	2.9394	2.6405	2.8657	6.153	6.0507	7.6186	8.1713	8.9982	10.2714	9.1702	10.5743	10.1486	-0.2907	-2.7961	-3.2259	0.5895	6.4478	3.3324	4.1184	5.9852
0.2006	3.0622	2.7633	2.9516	6.2144	6.1612	7.68	8.1795	9.0555	10.3041	9.1824	10.5948	10.1691	-0.2579	-2.7961	-3.3774	0.5609	6.4109	3.3733	4.0774	5.9401
0.2948	3.2014	2.8821	3.0049	6.2881	6.2799	7.7496	8.204	9.1169	10.2878	9.1988	10.6357	10.1731	-0.2661	-2.7879	-3.4716	0.524	6.3823	3.3815	4.0529	5.9033
0.4012	3.3365	3.0049	3.0212	6.3413	6.3413	7.7619	8.1876	9.1292	10.3041	9.1661	10.6439	10.1404	-0.2374	-2.8165	-3.5493	0.5076	6.3454	3.3938	3.9997	5.8583
0.4954	3.4306	3.0949	3.0826	6.3454	6.4232	7.7619	8.1672	9.121	10.255	9.1497	10.6357	10.1281	-0.2374	-2.8084	-3.6353	0.4831	6.3045	3.4183	3.9587	5.8501
0.5527	3.4879	3.1891	3.0622	6.3454	6.4478	7.7169	8.1099	9.1047	10.1977	9.1047	10.6235	10.0421	-0.2374	-2.8002	-3.7131	0.4913	6.2472	3.4142	3.8973	5.7846
0.6141	3.5821	3.2792	3.1031	6.3372	6.5256	7.6923	8.0444	9.121	10.1813	9.0678	10.6644	10.0462	-0.2088	-2.8288	-3.7499	0.4585	6.2267	3.4306	3.9219	5.7436
0.6837	3.6353	3.3283	3.0622	6.2799	6.5296	7.6186	7.9666	9.0719	10.079	8.9941	10.5989	9.9807	-0.2456	-2.8739	-3.8073	0.4708	6.1735	3.402	3.8359	5.6863
0.7123	3.6722	3.3774	3.0049	6.198	6.5542	7.5654	7.8765	9.0719	10.0381	8.9491	10.6071	9.9521	-0.2293	-2.9598	-3.9096	0.4708	6.1325	3.4183	3.8277	5.6658
0.7492	3.7172	3.447	2.9926	6.1448	6.5788	7.5408	7.8356	9.031	10.0012	8.9286	10.6194	9.9193	-0.2333	-3.0499	-3.9464	0.4831	6.1039	3.3979	3.7909	5.6372
0.7696	3.754	3.492	2.968	6.1162	6.6115	7.4385	7.7619	9.0473	9.9521	8.8877	10.6317	9.8702	-0.2579	-3.1686	-4.0447	0.5117	6.0261	3.4306	3.7418	5.6331
0.8065	3.8154	3.5289	2.9721	6.0916	6.6484	7.4589	7.725	9.0801	9.9316	8.9245	10.7012	9.8784	-0.2579	-3.3528	-4.1552	0.5404	5.9934	3.4593	3.7172	5.6167
0.8474	3.8646	3.6108	2.9762	6.0875	6.7098	7.4589	7.7209	9.1006	9.907	8.9245	10.7504	9.8497	-0.2907	-3.4552	-4.2003	0.5813	5.9279	3.5043	3.6763	5.6413
0.872	3.926	3.6517	2.9967	6.0998	6.763	7.504	7.7169	9.162	9.9152	8.9696	10.8404	9.8989	-0.307	-3.6067	-4.2699	0.6304	5.9238	3.5452	3.6271	5.674
0.8925	3.9997	3.7213	2.9967	6.153	6.8408	7.5613	7.7537	9.2275	9.9316	9.0269	10.9592	9.9111	-0.3357	-3.7745	-4.3108	0.6919	5.8705	3.5698	3.5862	5.7232
0.9539	4.0693	3.7991	3.0663	6.2103	6.9677	7.6145	7.7824	9.3626	9.9848	9.1251	11.0615	9.9562	-0.3766	-3.8973	-4.319	0.7778	5.8214	3.6517	3.5698	5.7682
0.9907	4.2044	3.9096	3.1686	6.3168	7.1355	7.7291	7.8724	9.5018	10.0708	9.2152	11.2007	9.993	-0.4176	-3.971	-4.3108	0.8802	5.7969	3.7499	3.5371	5.846
1.0521	4.3558	4.057	3.3037	6.4682	7.3198	7.8847	7.9707	9.6655	10.1568	9.3708	11.3808	10.0585	-0.479	-4.0529	-4.3026	0.9743	5.7518	3.8359	3.5207	5.936
1.1872	4.4991	4.2248	3.4511	6.6156	7.5203	8.0362	8.1058	9.8497	10.2755	9.4854	11.5732	10.1527	-0.5527	-4.0365	-4.2207	1.0849	5.7354	3.9464	3.5002	6.0466
1.2936	4.6915	4.3886	3.6189	6.808	7.7005	8.1876	8.2409	10.0053	10.3737	9.6328	11.7083	10.2427	-0.6141	-4.0079	-4.0979	1.2077	5.7109	4.0774	3.4757	6.1325
1.4574	4.8676	4.5482	3.8073	6.9513	7.9338	8.3841	8.3596	10.2223	10.5211	9.8088	11.9007	10.296	-0.6591	-3.9464	-3.9915	1.3387	5.7232	4.1511	3.4593	6.2635
1.5966	5.019	4.6997	3.9505	7.1232	8.1385	8.5151	8.4988	10.3778	10.6235	9.9398	12.0399	10.3574	-0.7164	-3.8441	-3.8073	1.441	5.6986	4.2862	3.402	6.3536
1.7153	5.2073	4.8798	4.1061	7.2993	8.3064	8.6707	8.6421	10.5252	10.7545	10.0872	12.2037	10.427	-0.7819	-3.7295	-3.623	1.5434	5.7068	4.3722	3.3569	6.4846
1.8913	5.3957	5.0354	4.2821	7.4098	8.4783	8.769	8.7485	10.6849	10.82	10.2509	12.347	10.4802	-0.8106	-3.5862	-3.4593	1.6089	5.7313	4.4582	3.3815	6.5829
2.0142	5.5471	5.15	4.4131	7.504	8.6339	8.8754	8.859	10.8363	10.8773	10.3983	12.4698	10.5416	-0.8433	-3.447	-3.316	1.6539	5.76	4.5278	3.3242	6.7098
2.1165	5.6986	5.281	4.5196	7.5777	8.7444	8.9204	8.9286	10.8978	10.9305	10.5375	12.5844	10.5907	-0.8474	-3.3078	-3.1481	1.6867	5.7887	4.5851	3.3078	6.7957
2.227	5.7805	5.3506	4.5728	7.6718	8.8386	8.9532	8.9859	11.0001	11.0001	10.6521	12.6745	10.6398	-0.8638	-3.1686	-3.054	1.703	5.8337	4.6219	3.3037	6.9104
2.3335	5.8746	5.4161	4.6424	7.7128	8.9082	8.9655	9.0637	11.0328	11.0247	10.7258	12.7318	10.6808	-0.8474	-3.0212	-2.9476	1.6826	5.9156	4.6465	3.2628	7.0168
2.4317	5.9688	5.4939	4.6506	7.7783	8.9368	8.9655	9.1128	11.0902	11.0697	10.8445	12.7727	10.7176	-0.8351	-2.9066	-2.878	1.6539	5.9811	4.6711	3.2628	7.0905
2.4768	6.0507	5.5512	4.6792	7.8724	8.9818	8.9655	9.1824	11.1188	11.0656	10.9796	12.8751	10.8118	-0.7983	-2.7879	-2.8411	1.5884	6.108	4.757	3.2505	7.2583
2.53	6.1285	5.5553	4.6833	7.8929	8.9614	8.8672	9.2438	11.1393	11.041	11.0533	12.8874	10.8241	-0.7655	-2.6815	-2.8125	1.5393	6.1776	4.7816	3.2177	7.3116
2.5627	6.1858	5.543	4.6588	7.9543	8.9737	8.8263	9.3257	11.1393	11.041	11.1761	12.9447	10.9223	-0.7287	-2.5627	-2.8084	1.4697	6.3086	4.8471	3.2014	7.4385
2.5996	6.2676	5.5267	4.6383	8.0362	8.9286	8.7526	9.4035	11.1311	10.9837	11.2826	12.961	10.9633	-0.7	-2.489	-2.8288	1.396	6.4232	4.9412	3.1973	7.5859
2.616	6.3413	5.5103	4.5892	8.118	8.8713	8.6748	9.5099	11.1475	10.9919	11.3604	12.9938	11.0124	-0.6796	-2.3499	-2.9189	1.3264	6.5583	5.0313	3.1604	7.7005
2.5505	6.3577	5.4202	4.5073	8.1467	8.8017	8.5847	9.5632	11.1188	10.9551	11.4259	12.9815	11.0533	-0.6264	-2.268	-3.0458	1.265	6.6811	5.0682	3.1522	7.7824
2.489	6.37	5.3383	4.3845	8.1672	8.7321	8.4619	9.6287	11.0656	10.8855	11.475	12.9488	11.0779	-0.61	-2.1534	-3.2014	1.2241	6.7876	5.1173	3.1441	7.8642
2.4317	6.3782	5.2155	4.3231	8.2818	8.6421	8.4169	9.7065	11.0124	10.8404	11.5446	12.9365	11.1229	-0.5772	-2.0428	-3.3774	1.1749	6.9349	5.2237	3.1686	7.987
2.3007	6.3372	5.0722	4.2125	8.29	8.5151	8.3064	9.7515	10.9592	10.7913	11.5937	12.8833	11.1147	-0.5609	-1.9691	-3.6517	1.1545	7.0455	5.2974	3.1686	8.0935
2.1656	6.2922	4.9331	4.1102	8.3064	8.4415	8.1835	9.8129	10.8896	10.7299	11.6346	12.8423	11.1311	-0.5854	-1.9405	-3.9505	1.1545	7.1396	5.4079	3.2136	8.1876
1.9814	6.198	4.712	3.9464	8.29	8.2613	8.0689	9.8375	10.7913	10.6357	11.6224	12.7154	11.0738	-0.569	-1.9077	-4.2166	1.1749	7.2051	5.4816	3.1973	8.2818
1.7849	6.0711	4.4827	3.7704	8.2286	8.1017	7.942	9.817	10.6685	10.5211	11.5732	12.5885	11.0124	-0.6182	-1.92	-4.5441	1.2445	7.2297	5.5308	3.1973	8.3391
1.5475	5.9074	4.233	3.623	8.159	7.9297	7.8397	9.7924	10.5334	10.4229	11.5405	12.4698	10.951	-0.6509	-1.9487	-4.8389	1.3223	7.2665	5.584	3.2055	8.3678
1.3264	5.76	4.0119	3.4634	8.0689	7.7455	7.7005	9.7801	10.4106	10.296	11.475	12.3019	10.8404	-0.6959	-1.9855	-5.1255	1.4083	7.2829	5.6208	3.1768	8.4128
1.0767	5.5512	3.7377	3.271	7.942	7.5654	7.5695	9.6655	10.2386	10.1322	11.3972	12.1464	10.7053	-0.7533	-2.0715	-5.4079	1.527	7.2297	5.6126	3.1686	8.421
0.7942	5.3097	3.4265	3.0745	7.7701	7.3443	7.3812	9.5754	10.0585	9.9807	11.2662	11.9253	10.5539	-0.8229	-2.182	-5.7068	1.6498	7.1847	5.584	3.1072	8.3964
0.5322	5.0518	3.1359	2.8575	7.635	7.1273	7.2338	9.4731	9.8538	9.7842	11.1393	11.7165	10.3737	-0.872	-2.358	-6.0261	1.7603	7.1232	5.5635	3.0867	8.3923
0.1719	4.7652	2.8084	2.62	7.4139	6.8899	7.0209	9.2971	9.6409	9.5795	10.9919	11.4709	10.2018	-0.9334	-2.5382	-6.2881	1.8709	7.0373	5.5226	3.0294	8.3268
-0.1392	4.4745	2.4399	2.3458	7.1847	6.6729	6.8285	9.1538	9.424	9.3667	10.82	11.2048	9.9603	-0.9702	-2.7756	-6.5992	1.965	6.8858	5.4693	2.9557	8.3186
-0.5363	4.1389	2.1124	2.0469	6.9431	6.415	6.5747	8.9778	9.1783	9.1047	10.6603	10.9387	9.7187	-1.0357	-3.1154	-6.9063	2.0674	6.7835	5.4325	2.8329	8.245
-0.9252	3.8073	1.7112	1.7153	6.6688	6.1448	6.2799	8.7894	8.9368	8.8181	10.4802	10.6644	9.4608	-1.0726	-3.4511	-7.1519	2.1574	6.5911	5.3957	2.7224	8.1344
-1.3018	3.4675	1.3673	1.3796	6.4396	5.9033	6.0548	8.6011	8.683	8.5725	10.2591	10.3574	9.1783	-1.1135	-3.7868	-7.3689	2.2393	6.4723	5.3629	2.5791	8.0771
-1.6703	3.14	1.0439	1.048	6.1776	5.6618	5.8091	8.4292	8.4619	8.3023	10.0872	10.0995	8.9122	-1.1586	-4.1798	-7.6104	2.3048	6.284	5.3342	2.4727	8.0157
-2.0387	2.8247	0.7082	0.7041	5.9606	5.4161	5.5185	8.2818	8.2204	8.0198	9.907	9.8456	8.6134	-1.1954	-4.5687	-7.7783	2.3785	6.1285	5.2687	2.3089	7.9215
-2.4113	2.5341	0.3889	0.3766	5.7518	5.2073	5.2565	8.0976	7.9993	7.7414	9.731	9.5918	8.3596	-1.2281	-4.9249	-7.9256	2.4604	5.9238	5.2319	2.1902	7.856
-2.751	2.2352	0.0942	0.0368	5.543	4.9617	4.9904	7.9502	7.7578	7.4385	9.5468	9.2766	8.0116	-1.2773	-5.2565	-8.0689	2.5505	5.6986	5.2114	2.0264	7.7619
-3.0622	2.0142	-0.1965	-0.2948	5.3506	4.7325	4.7284	7.7946	7.549	7.1642	9.3503	8.9859	7.6882	-1.3141	-5.5758	-8.204	2.62	5.4734	5.1828	1.8504	7.6841
-3.3406	1.8177	-0.4421	-0.5649	5.2196	4.5564	4.4786	7.6759	7.3648	6.9227	9.1865	8.7485	7.3975	-1.351	-5.8705	-8.3064	2.6815	5.2196	5.1746	1.7153	7.6268
-3.6067	1.613	-0.6796	-0.8433	5.0845	4.3313	4.2739	7.5695	7.1683	6.6238	9.0228	8.4865	7.0577	-1.3878	-6.108	-8.3882	2.7551	4.9781	5.1541	1.5925	7.5203
-3.885	1.4738	-0.8965	-1.1381	4.9863	4.1552	4.0365	7.4508	6.9636	6.3495	8.8386	8.2204	6.718	-1.4246	-6.3209	-8.5356	2.8206	4.6833	5.1173	1.4124	7.4262
-4.0529	1.3387	-1.0767	-1.3305	4.8757	4.0079	3.8646	7.3402	6.808	6.1325	8.6543	7.9666	6.4396	-1.4533	-6.4805	-8.6462	2.8739	4.4254	5.1337	1.2896	7.3361
-4.2576	1.2404	-1.2363	-1.5352	4.7857	3.8523	3.7008	7.2297	6.6606	5.9442	8.4865	7.766	6.1448	-1.4738	-6.6402	-8.7526	2.8984	4.1757	5.1091	1.1831	7.2256
-4.3681	1.1708	-1.3551	-1.6621	4.7038	3.7377	3.5657	7.1724	6.5051	5.7109	8.3719	7.5531	5.846	-1.482	-6.7671	-8.8672	2.9435	3.9055	5.1009	1.0685	7.1396
-4.5196	1.1258	-1.4328	-1.7972	4.667	3.6189	3.4429	7.111	6.3945	5.5594	8.2327	7.373	5.629	-1.4942	-6.8408	-8.9696	2.968	3.6435	5.0845	0.9989	7.025
-4.581	1.0439	-1.5352	-1.8627	4.5933	3.5616	3.3692	7.0496	6.3454	5.4325	8.0976	7.2133	5.4038	-1.4983	-6.8899	-9.0023	2.9885	3.4142	5.06	0.8925	6.9349
-4.5974	1.0644	-1.5229	-1.8954	4.5974	3.5289	3.3324	7.0127	6.2881	5.322	7.9707	7.1028	5.2073	-1.5147	-6.9104	-9.0392	2.9885	3.1809	5.0763	0.8392	6.8572
-4.6055	1.0808	-1.5393	-1.8954	4.6096	3.4797	3.3037	6.98	6.2472	5.2483	7.8765	7.025	5.0354	-1.4983	-6.8776	-8.9982	2.9803	2.968	5.0763	0.8188	6.7302
-4.5687	1.1012	-1.5065	-1.8627	4.6424	3.4879	3.3447	6.9963	6.2717	5.2155	7.7864	6.939	4.8962	-1.482	-6.8039	-8.9286	2.9435	2.7551	5.0927	0.8392	6.677
-4.4991	1.2118	-1.4328	-1.7808	4.7406	3.5534	3.3815	7.0905	6.3086	5.1828	7.766	6.9227	4.7652	-1.4738	-6.6975	-8.8017	2.9107	2.5914	5.1255	0.8351	6.5911
-4.3927	1.3428	-1.3551	-1.7235	4.843	3.578	3.4102	7.1478	6.3168	5.1746	7.7005	6.8408	4.6465	-1.4451	-6.5665	-8.6543	2.8821	2.3539	5.1705	0.8351	6.546
-4.2658	1.4983	-1.2486	-1.6375	4.9904	3.709	3.4879	7.2133	6.4027	5.2073	7.6718	6.849	4.5687	-1.441	-6.3864	-8.4578	2.8575	2.2148	5.2114	0.8392	6.4805
-4.102	1.6703	-1.0931	-1.5434	5.1255	3.8195	3.5821	7.3034	6.4723	5.2401	7.6514	6.8572	4.4664	-1.4165	-6.1612	-8.2327	2.8043	1.9855	5.2319	0.8638	6.3986
-3.9628	1.834	-1.0153	-1.4369	5.2442	3.8932	3.664	7.373	6.5583	5.2524	7.5859	6.8367	4.3804	-1.3878	-5.9606	-8.0362	2.7674	1.8013	5.2483	0.8843	6.3086
-3.7786	1.9609	-0.8515	-1.2896	5.412	4.0242	3.7786	7.4303	6.632	5.3506	7.5367	6.8121	4.3231	-1.3878	-5.6945	-7.7946	2.7551	1.6539	5.2933	0.9129	6.2308
-3.6026	2.137	-0.7041	-1.22	5.5676	4.1307	3.8564	7.5285	6.7057	5.3793	7.4589	6.808	4.2453	-1.3796	-5.4448	-7.5818	2.7224	1.4615	5.3302	0.9252	6.1407
-3.4061	2.3949	-0.5281	-1.1012	5.7682	4.3149	3.9505	7.6473	6.8326	5.453	7.4589	6.8449	4.1921	-1.3632	-5.1541	-7.3525	2.6896	1.2855	5.3588	0.958	6.0793
-3.1809	2.616	-0.3725	-1.003	5.9729	4.4664	4.0774	7.7291	6.9227	5.4898	7.4303	6.8449	4.1061	-1.3428	-4.843	-7.0905	2.6815	1.1135	5.367	1.0235	5.9852
-3.0212	2.8288	-0.2088	-0.9293	6.1448	4.5564	4.1225	7.8069	7.0004	5.5185	7.4057	6.8244	4.0529	-1.3428	-4.5728	-6.8653	2.6815	0.9129	5.3752	1.0808	5.8992
-2.8698	3.0335	-0.0737	-0.8638	6.3086	4.7447	4.2207	7.9011	7.0864	5.6085	7.3279	6.8162	3.9874	-1.3428	-4.3026	-6.6238	2.6733	0.7533	5.3424	1.089	5.7805
-2.6774	3.2055	0.0901	-0.831	6.4682	4.8553	4.278	7.9748	7.1724	5.6454	7.2747	6.8121	3.9546	-1.3428	-4.0324	-6.3454	2.6692	0.5731	5.3424	1.1381	5.6986
-2.5464	3.3365	0.1597	-0.7696	6.5829	4.9494	4.3231	7.9952	7.2665	5.6618	7.2215	6.8121	3.8605	-1.3755	-3.8154	-6.108	2.7265	0.3562	5.281	1.134	5.5717
-2.4031	3.4675	0.307	-0.7451	6.718	5.0763	4.3517	8.0525	7.3279	5.7027	7.1519	6.8121	3.8073	-1.3796	-3.5616	-5.8296	2.7429	0.1719	5.236	1.134	5.4816
-2.2844	3.5821	0.4258	-0.7164	6.8039	5.2073	4.3886	8.1017	7.3934	5.7436	7.1192	6.7998	3.7704	-1.4083	-3.3774	-5.5185	2.792	0.0246	5.2196	1.1258	5.3834
-2.1902	3.6394	0.524	-0.7246	6.9186	5.322	4.4254	8.1426	7.4712	5.7805	7.0332	6.7835	3.7131	-1.4369	-3.1768	-5.2606	2.8575	-0.1678	5.191	1.1135	5.2851
-2.1206	3.6967	0.6304	-0.7082	6.9554	5.4407	4.4295	8.1467	7.5449	5.7928	6.9759	6.7835	3.6722	-1.4533	-3.0908	-4.9494	2.9148	-0.3193	5.1746	1.0931	5.236
-2.0428	3.7581	0.7	-0.7287	6.9963	5.5594	4.4909	8.1631	7.6186	5.8583	6.9472	6.7916	3.6599	-1.5106	-2.9844	-4.6833	2.9803	-0.4667	5.1214	1.0726	5.1459
-1.9855	3.7172	0.8024	-0.7123	7.025	5.6331	4.5032	8.1508	7.68	5.8828	6.8858	6.7835	3.6353	-1.5393	-2.9762	-4.4664	3.0581	-0.5568	5.0641	1.048	5.0641
-1.9241	3.7458	0.8556	-0.7246	7.0332	5.7313	4.5155	8.1344	7.7496	5.9483	6.8367	6.8039	3.6312	-1.5802	-2.9967	-4.2862	3.1277	-0.6878	5.0272	1.0316	5.019
-1.8954	3.709	0.8965	-0.7574	6.98	5.7805	4.5278	8.1058	7.7824	5.9688	6.8162	6.8244	3.6312	-1.6007	-3.0663	-4.1798	3.1973	-0.8229	5.0026	1.0357	4.9904
-1.8791	3.6844	0.9539	-0.8106	6.9472	5.8542	4.5441	8.0853	7.8438	5.9729	6.7712	6.8203	3.6108	-1.6293	-3.185	-4.1184	3.2505	-0.9375	4.9986	0.9948	4.974
-1.8627	3.6517	1.0112	-0.831	6.9472	5.936	4.536	8.0607	7.897	6.0056	6.7507	6.8449	3.6108	-1.658	-3.3733	-4.1102	3.2873	-0.9784	4.9904	0.9334	4.9453
-1.9241	3.5821	1.0235	-0.8925	6.8817	5.9893	4.5319	8.0525	7.9584	6.0343	6.7466	6.8776	3.5985	-1.6744	-3.5371	-4.1962	3.3242	-1.048	5.0149	0.872	4.9658
-1.9077	3.5371	1.0644	-0.958	6.8612	6.0302	4.4909	8.0525	7.9911	6.0302	6.7384	6.8776	3.6067	-1.6907	-3.7377	-4.3231	3.3569	-1.1135	5.0395	0.831	4.9822
-1.9487	3.533	1.0767	-1.0398	6.849	6.0998	4.4745	8.0485	8.0198	6.0097	6.7548	6.8817	3.5534	-1.7194	-3.9628	-4.5196	3.4102	-1.1504	5.06	0.7615	5.0067
-1.9446	3.5248	1.1135	-1.0931	6.8653	6.153	4.4745	8.0812	8.1099	6.0384	6.7753	6.9186	3.5821	-1.7358	-4.1593	-4.7243	3.4511	-1.1913	5.1255	0.6796	5.0559
-1.9732	3.5412	1.1586	-1.1422	6.9063	6.2185	4.4623	8.114	8.1385	6.0343	6.8203	6.9554	3.5616	-1.7399	-4.3476	-4.9904	3.4797	-1.2445	5.1418	0.61	5.1132
-1.9609	3.533	1.2322	-1.1831	6.9636	6.3045	4.4336	8.1631	8.1999	6.0343	6.849	7.0004	3.578	-1.7685	-4.5032	-5.2687	3.5166	-1.2691	5.2032	0.5445	5.1623
-1.9323	3.5698	1.2732	-1.1995	6.9922	6.3659	4.4418	8.2286	8.2818	6.0548	6.9513	7.0618	3.6067	-1.7972	-4.6342	-5.5799	3.5616	-1.2936	5.281	0.4872	5.2155
-1.9159	3.6517	1.3305	-1.2281	7.0741	6.4519	4.4418	8.2613	8.3391	6.0384	6.9841	7.0905	3.5575	-1.8054	-4.7284	-5.8787	3.6067	-1.3018	5.3302	0.4217	5.2974
-1.8913	3.6844	1.4124	-1.2118	7.1151	6.5256	4.4541	8.3309	8.3964	6.022	7.0291	7.156	3.5739	-1.8299	-4.7611	-6.1407	3.6394	-1.3223	5.412	0.3644	5.3588
-1.834	3.7458	1.5311	-1.1872	7.2461	6.6606	4.495	8.4619	8.4906	6.0548	7.1396	7.2174	3.5903	-1.8463	-4.8061	-6.4273	3.6722	-1.3059	5.4775	0.2907	5.4407
-1.7399	3.9137	1.6457	-1.1381	7.3607	6.7425	4.5114	8.5438	8.6175	6.022	7.1969	7.3075	3.6189	-1.8709	-4.8225	-6.6688	3.709	-1.3141	5.5717	0.2456	5.5267
-1.6089	4.0283	1.7972	-1.0767	7.5244	6.8694	4.5933	8.6953	8.7198	6.0629	7.2993	7.3975	3.6353	-1.875	-4.7529	-6.9186	3.7377	-1.3264	5.6986	0.2047	5.6454
-1.4983	4.1798	1.9405	-0.9743	7.6677	6.9963	4.6711	8.7976	8.8058	6.0507	7.4098	7.4876	3.6435	-1.9118	-4.757	-7.1396	3.7786	-1.2896	5.8378	0.1515	5.7232
-1.3632	4.3476	2.1165	-0.872	7.8438	7.1396	4.7243	8.9409	8.9245	6.067	7.5244	7.5899	3.6763	-1.9241	-4.7447	-7.332	3.8359	-1.2977	5.8992	0.0983	5.8255
-1.2363	4.5564	2.3212	-0.7655	8.0894	7.3116	4.8307	9.1047	9.0433	6.1121	7.6514	7.6964	3.7049	-1.9609	-4.6997	-7.4917	3.8728	-1.2486	6.0629	0.0819	5.9401
-1.0562	4.7488	2.5054	-0.6386	8.2736	7.4467	4.929	9.2602	9.1579	6.1694	7.7537	7.8028	3.7172	-1.9732	-4.6506	-7.5777	3.9137	-1.2568	6.1448	0.0573	5.9974
-0.8884	4.9412	2.6896	-0.4749	8.5151	7.6063	5.0682	9.3994	9.3012	6.2185	7.8929	7.8929	3.7827	-1.9896	-4.6178	-7.6677	3.9546	-1.2077	6.2717	0.0368	6.1203
-0.7246	5.1459	2.878	-0.3316	8.7157	7.7537	5.1828	9.5754	9.4199	6.2635	7.9625	8.0075	3.8113	-2.0264	-4.6055	-7.6964	4.0119	-1.2118	6.37	0.0368	6.1817
-0.569	5.322	3.0745	-0.1597	8.9122	7.8847	5.2892	9.7024	9.5181	6.3127	8.028	8.0935	3.8277	-2.0551	-4.5114	-7.7087	4.0652	-1.2241	6.4601	0.0082	6.2308
-0.3644	5.5144	3.2628	0.0246	9.0965	8.0689	5.4284	9.8334	9.6409	6.3495	8.1262	8.1835	3.8482	-2.0838	-4.4295	-7.6554	4.1184	-1.2322	6.5337	0.0041	6.3127
-0.1883	5.6372	3.4388	0.176	9.2643	8.1672	5.5594	9.9603	9.731	6.4273	8.204	8.3023	3.9178	-2.1083	-4.3108	-7.5572	4.1757	-1.2159	6.5747	0.0287	6.3209
0	5.7723	3.6026	0.3398	9.3585	8.3105	5.6658	10.0462	9.8047	6.4846	8.2327	8.3637	3.9383	-2.1452	-4.1716	-7.3812	4.2412	-1.2118	6.5706	0.0082	6.3045
0.2129	5.9074	3.7991	0.5322	9.4731	8.4824	5.8173	10.1281	9.9316	6.6074	8.3146	8.4947	4.0038	-2.1902	-4.0406	-7.2174	4.3067	-1.2281	6.6197	0.0082	6.3372
0.4258	6.0056	3.9874	0.7	9.5509	8.6257	5.9852	10.21	10.0381	6.7016	8.3637	8.6175	4.0897	-2.2148	-3.8728	-6.9882	4.3804	-1.2241	6.6197	0.0205	6.37
0.6386	6.1203	4.1839	0.9416	9.6573	8.7649	6.153	10.2837	10.1199	6.8039	8.4005	8.7198	4.1429	-2.2557	-3.6844	-6.7425	4.4705	-1.2568	6.6115	0.0287	6.3495
0.8556	6.2349	4.3558	1.1463	9.7638	8.8795	6.329	10.3615	10.2509	6.9349	8.4865	8.8467	4.2494	-2.2598	-3.5125	-6.4478	4.5032	-1.2118	6.5951	0.0696	6.3454
1.0603	6.3823	4.5441	1.3469	9.8293	9.0555	6.456	10.4352	10.3369	7.0291	8.5356	8.9614	4.319	-2.3089	-3.3487	-6.2021	4.5646	-1.2486	6.6361	0.0328	6.3659
1.2936	6.4805	4.712	1.572	9.9111	9.1906	6.632	10.517	10.4843	7.1847	8.6052	9.0965	4.4377	-2.3294	-3.1645	-5.9483	4.6015	-1.2363	6.6606	0.0655	6.3864
1.4942	6.5992	4.9167	1.7808	9.9807	9.3216	6.7957	10.5539	10.5621	7.3198	8.6502	9.2029	4.5605	-2.3458	-3.0131	-5.6618	4.6342	-1.1954	6.6606	0.0778	6.4109
1.6989	6.7057	5.06	1.9814	10.0217	9.4281	6.9595	10.6153	10.6562	7.4671	8.7444	9.3257	4.6588	-2.3499	-2.8493	-5.3547	4.6547	-1.1831	6.677	0.0983	6.3986
1.8791	6.8203	5.2237	2.2066	10.0749	9.5754	7.1314	10.689	10.7831	7.6063	8.8304	9.4485	4.7611	-2.3417	-2.6528	-5.0436	4.6506	-1.1626	6.7016	0.1146	6.4396
2.0797	6.9022	5.3875	2.4276	10.124	9.7065	7.2993	10.7299	10.8937	7.7291	8.8918	9.5918	4.8757	-2.3417	-2.4768	-4.6997	4.6465	-1.1299	6.7384	0.176	6.4355
2.227	6.9882	5.5594	2.6241	10.2059	9.8088	7.4303	10.7995	10.9755	7.8519	9.0105	9.6942	5.0108	-2.3212	-2.3089	-4.3886	4.626	-1.0644	6.7425	0.2088	6.4723
2.3826	7.0823	5.6454	2.7961	10.2182	9.907	7.5695	10.8527	11.041	7.983	9.076	9.7924	5.1214	-2.3171	-2.1656	-4.1061	4.6055	-1.0644	6.763	0.2456	6.501
2.5341	7.1765	5.8132	2.9926	10.2878	10.0176	7.7046	10.9387	11.1516	8.118	9.1661	9.8948	5.2565	-2.2925	-1.9896	-3.8236	4.5605	-0.9989	6.7876	0.2907	6.5788
2.6282	7.2461	5.936	3.1441	10.3778	10.1076	7.8233	11.0083	11.2416	8.204	9.2889	9.9971	5.3875	-2.268	-1.834	-3.578	4.5073	-0.9252	6.8162	0.3439	6.6443
2.7551	7.3648	6.0466	3.2955	10.4474	10.2018	7.9543	11.1024	11.3071	8.3473	9.4158	10.1036	5.5226	-2.2475	-1.7112	-3.3406	4.45	-0.8679	6.8531	0.393	6.6975
2.9025	7.4794	6.2062	3.4593	10.5784	10.3082	8.0771	11.2498	11.3931	8.4742	9.555	10.2346	5.6658	-2.2107	-1.5434	-3.1604	4.3845	-0.7492	6.9186	0.4831	6.7998
3.0049	7.6227	6.3618	3.6108	10.7258	10.4147	8.2081	11.3808	11.5118	8.6257	9.6942	10.3369	5.8378	-2.1615	-1.4246	-2.9926	4.2944	-0.6509	7.0168	0.569	6.8981
3.1154	7.7742	6.4764	3.7745	10.9018	10.5088	8.3432	11.5528	11.6101	8.7526	9.8702	10.4597	6.0097	-2.1206	-1.3428	-2.8575	4.2248	-0.5281	7.0782	0.6509	7.025
3.23	7.9543	6.6115	3.8932	11.0983	10.5948	8.4415	11.7411	11.7124	8.9	10.0381	10.5907	6.1817	-2.0797	-1.2773	-2.7879	4.1511	-0.3644	7.2051	0.7533	7.1724
3.3528	8.159	6.7876	4.0079	11.3563	10.7463	8.5847	11.9826	11.8721	9.0924	10.2755	10.7545	6.4232	-2.051	-1.2568	-2.7674	4.0652	-0.2252	7.3934	0.8965	7.3566
3.4675	8.3432	6.9227	4.1593	11.5691	10.8323	8.728	12.1791	11.9949	9.1988	10.4679	10.8978	6.5911	-2.0142	-1.2118	-2.751	3.9997	-0.0409	7.5449	1.0275	7.4999
3.533	8.5111	7.0373	4.2658	11.7738	10.9346	8.8508	12.4166	12.0931	9.3749	10.6726	11.0165	6.7876	-1.9937	-1.2691	-2.8084	3.9383	0.131	7.7291	1.1667	7.6718
3.6517	8.6748	7.1601	4.3927	11.999	11.0328	8.9655	12.5926	12.1955	9.5018	10.8609	11.1434	6.9636	-1.9568	-1.2814	-2.8452	3.8768	0.3275	7.9011	1.2896	7.8397
3.7213	8.7812	7.2543	4.4786	12.1791	11.0738	9.0269	12.7523	12.306	9.6369	11.0247	11.2375	7.1478	-1.9282	-1.3141	-2.8861	3.84	0.4994	8.1017	1.4287	7.9911
3.7745	8.8877	7.3238	4.5851	12.3142	11.1311	9.0883	12.9037	12.392	9.7228	11.1639	11.3317	7.3402	-1.9036	-1.3837	-2.968	3.7868	0.6509	8.2572	1.5434	8.1426
3.8564	8.9696	7.373	4.6383	12.4411	11.1639	9.1088	13.0184	12.4166	9.8006	11.2785	11.389	7.4958	-1.8995	-1.482	-3.0376	3.7499	0.8065	8.3678	1.6416	8.2572
3.8891	9.0433	7.3853	4.6874	12.5394	11.1761	9.1292	13.1084	12.4657	9.8415	11.3767	11.4259	7.6186	-1.875	-1.6007	-3.0663	3.7336	0.9825	8.5111	1.8095	8.3719
3.9014	9.0883	7.3975	4.712	12.6213	11.1639	9.1128	13.1862	12.4943	9.8743	11.4545	11.4463	7.7005	-1.8668	-1.6867	-3.099	3.7008	1.1135	8.6011	1.9077	8.466
3.9424	9.1128	7.3812	4.7038	12.6704	11.0943	9.0924	13.223	12.4657	9.8866	11.4791	11.4136	7.7987	-1.8586	-1.7685	-3.1113	3.6844	1.265	8.6339	2.006	8.5274
3.9342	9.0842	7.3279	4.6833	12.6622	11.0247	9.0514	13.2149	12.4452	9.903	11.4832	11.4013	7.9052	-1.8463	-1.9077	-3.14	3.6681	1.3796	8.6421	2.1329	8.5643
3.8687	9.0392	7.2297	4.626	12.6335	10.9182	8.9737	13.178	12.3879	9.8702	11.4463	11.3235	7.9256	-1.8299	-1.9978	-3.185	3.6435	1.482	8.6175	2.2229	8.5602
3.8441	8.9696	7.1765	4.6015	12.5394	10.8282	8.8959	13.1371	12.3224	9.8456	11.4136	11.2785	7.9625	-1.8054	-2.0756	-3.1645	3.5862	1.5884	8.5766	2.3621	8.5602
3.7868	8.8754	7.0537	4.5278	12.4657	10.7012	8.7935	13.0265	12.2282	9.7924	11.3317	11.1802	7.983	-1.7808	-2.1574	-3.1563	3.5248	1.7112	8.4988	2.4686	8.5684
3.7008	8.7894	6.9308	4.4336	12.3633	10.5539	8.6789	12.9242	12.1259	9.7433	11.2539	11.0861	7.9748	-1.7276	-2.1943	-3.1195	3.4388	1.8258	8.4128	2.575	8.5438
3.5821	8.6257	6.7712	4.3395	12.2405	10.4106	8.5561	12.7891	12.0113	9.6328	11.1229	10.9387	7.9666	-1.703	-2.313	-3.1645	3.361	1.9282	8.3105	2.6405	8.4742
3.4429	8.4701	6.5911	4.2453	12.0522	10.255	8.4701	12.6581	11.8557	9.5345	11.0124	10.8323	7.9584	-1.6498	-2.4113	-3.2014	3.2669	2.0592	8.2122	2.7838	8.4128
3.3119	8.3064	6.4519	4.1429	11.8803	10.0462	8.3514	12.4862	11.7124	9.469	10.8773	10.6849	7.9175	-1.6007	-2.5013	-3.2751	3.1727	2.1247	8.1058	2.8452	8.3146
3.1154	8.1017	6.2226	4.0406	11.6756	9.8702	8.2163	12.2937	11.5077	9.3626	10.7135	10.5334	7.8683	-1.5516	-2.6692	-3.4716	3.099	2.2107	7.9789	2.9148	8.2163
2.9476	7.8479	6.0343	3.9874	11.4791	9.6737	8.1303	12.1341	11.344	9.252	10.5375	10.3574	7.811	-1.5106	-2.751	-3.6026	3.009	2.2925	7.8847	2.968	8.1262
2.7633	7.635	5.805	3.9219	11.2744	9.4977	8.0444	11.9417	11.1802	9.1783	10.3901	10.2018	7.7373	-1.4902	-2.8984	-3.885	2.968	2.3826	7.7619	3.0458	8.0157
2.5791	7.3893	5.5881	3.8318	11.0288	9.3053	7.9584	11.737	10.9714	9.0883	10.21	10.0217	7.6595	-1.4656	-3.0049	-4.1552	2.923	2.4399	7.68	3.1154	7.9256
2.4194	7.1396	5.367	3.7622	10.7954	9.0965	7.8765	11.4955	10.7708	8.9859	10.0585	9.8415	7.5695	-1.4574	-3.0908	-4.4745	2.8984	2.5177	7.5859	3.1481	7.8479
2.2598	6.9186	5.1828	3.6967	10.5375	8.8672	7.8028	11.2826	10.5252	8.8549	9.8375	9.6369	7.4671	-1.4533	-3.1318	-4.7857	2.8902	2.5218	7.4917	3.14	7.7332
2.0756	6.6647	4.9453	3.5985	10.2919	8.6543	7.68	11.0124	10.2714	8.7157	9.6246	9.4035	7.3198	-1.4615	-3.1645	-5.105	2.9189	2.5177	7.3975	3.1236	7.6309
1.92	6.4723	4.7447	3.5166	10.0708	8.466	7.594	10.7872	10.0421	8.6093	9.4567	9.1988	7.1724	-1.4738	-3.1359	-5.367	2.9394	2.5218	7.3198	3.1441	7.5285
1.7972	6.3004	4.5523	3.447	9.8334	8.2736	7.4999	10.5743	9.8252	8.4415	9.2561	8.99	7.0496	-1.4861	-3.0826	-5.6167	2.9557	2.5218	7.2092	3.1154	7.4467
1.6744	6.0998	4.4009	3.3242	9.6082	8.0525	7.3566	10.341	9.555	8.29	9.076	8.7567	6.8694	-1.4902	-3.0049	-5.7764	2.9721	2.5095	7.1642	3.099	7.3853
1.5393	5.936	4.1798	3.1891	9.3994	7.856	7.1806	10.124	9.2971	8.1058	8.8508	8.4824	6.677	-1.527	-2.8943	-5.9319	3.0335	2.4563	7.0577	3.0212	7.3034
1.4574	5.7518	4.0283	3.0335	9.1865	7.6595	7.0373	9.8784	9.0555	7.9297	8.6543	8.2327	6.4478	-1.5352	-2.7347	-5.9442	3.0704	2.3949	6.9963	3.0008	7.2051
1.3755	5.6085	3.8195	2.8534	8.9614	7.463	6.8612	9.6409	8.7812	7.7291	8.4374	7.9625	6.2513	-1.5761	-2.5627	-5.9524	3.1277	2.3212	6.9186	2.9189	7.1642
1.2936	5.4898	3.6681	2.6733	8.7812	7.2829	6.6606	9.4281	8.4906	7.5122	8.2245	7.6636	5.9688	-1.5843	-2.3458	-5.8501	3.1727	2.2066	6.8735	2.8084	7.0864
1.22	5.3916	3.5084	2.4522	8.6093	7.0946	6.4314	9.1988	8.2531	7.2747	8.028	7.3812	5.7313	-1.6498	-2.1206	-5.674	3.2669	2.0674	6.808	2.6487	7.0577
1.1831	5.3138	3.3774	2.2311	8.4537	6.9227	6.2021	9.0228	8.0362	7.0373	7.8274	7.1437	5.4734	-1.6621	-1.834	-5.4898	3.3037	1.9609	6.7876	2.5627	6.9963
1.1299	5.1869	3.2218	2.0101	8.2613	6.7712	6.0179	8.8099	7.7537	6.8039	7.635	6.8694	5.2155	-1.6907	-1.5638	-5.2851	3.3651	1.8381	6.718	2.4358	6.9145
1.0562	5.0968	3.0908	1.8095	8.073	6.6074	5.7805	8.5643	7.5285	6.5583	7.4344	6.5747	4.9412	-1.7317	-1.3469	-5.0395	3.4347	1.6785	6.6729	2.2803	6.8203
1.0071	5.0026	3.0008	1.6171	7.897	6.4641	5.5922	8.3801	7.2993	6.3331	7.2092	6.3454	4.6915	-1.7358	-1.1094	-4.798	3.4634	1.5352	6.6197	2.1493	6.763
0.9784	4.9126	2.8739	1.441	7.7373	6.325	5.412	8.1549	7.0987	6.1244	7.0045	6.0629	4.4418	-1.7522	-0.9375	-4.54	3.5002	1.3919	6.5542	1.9855	6.6443
0.9498	4.8348	2.792	1.2773	7.5899	6.2226	5.2196	7.942	6.8858	5.9401	6.7916	5.8419	4.1962	-1.7603	-0.7451	-4.2944	3.5207	1.265	6.5092	1.8832	6.5419
0.8761	4.7161	2.6855	1.0971	7.3975	6.0834	5.0436	7.7046	6.6729	5.7109	6.5665	5.5799	3.9178	-1.7972	-0.6509	-4.0897	3.5739	1.1012	6.4355	1.7481	6.4396
0.8515	4.6301	2.5955	0.9907	7.2133	5.977	4.8962	7.5081	6.4682	5.5308	6.3372	5.2974	3.6681	-1.8013	-0.5322	-3.8441	3.5944	0.9416	6.3372	1.572	6.3209
0.8024	4.5482	2.5136	0.8188	7.0618	5.9074	4.7857	7.2952	6.3168	5.3998	6.1285	5.0763	3.492	-1.8136	-0.4585	-3.6599	3.6148	0.831	6.2513	1.4738	6.1899
0.7574	4.4664	2.444	0.7451	6.8981	5.8337	4.6915	7.0987	6.1325	5.2114	5.9033	4.8307	3.2341	-1.8299	-0.3684	-3.4593	3.6312	0.6714	6.1694	1.3551	6.0548
0.7164	4.4172	2.3785	0.6345	6.7753	5.7518	4.5687	6.8776	5.9565	5.0927	5.6618	4.6015	3.0417	-1.8218	-0.2825	-3.2382	3.6189	0.5609	6.0507	1.2036	5.9074
0.7287	4.3886	2.3539	0.524	6.6934	5.7027	4.495	6.7384	5.8501	4.9535	5.4571	4.3804	2.8616	-1.7972	-0.2129	-3.0704	3.5862	0.4585	5.9893	1.0931	5.8091
0.7082	4.3722	2.3171	0.4339	6.6033	5.674	4.4172	6.5951	5.7068	4.8143	5.2687	4.1675	2.6651	-1.8054	-0.1474	-2.9107	3.5616	0.348	5.9238	0.9661	5.674
0.7287	4.364	2.2925	0.348	6.5624	5.6372	4.3558	6.4601	5.6003	4.7161	5.0927	3.971	2.5013	-1.7726	-0.0696	-2.7347	3.5125	0.2743	5.8091	0.8884	5.543
0.7492	4.3681	2.3007	0.2784	6.5501	5.6618	4.3026	6.3495	5.5021	4.6383	4.8962	3.7991	2.3376	-1.7358	-0.0287	-2.5668	3.4388	0.1638	5.7436	0.7942	5.4038
0.7451	4.3681	2.2925	0.2088	6.4682	5.6413	4.2739	6.2103	5.4038	4.5114	4.7202	3.6353	2.1861	-1.7112	-0.0082	-2.3908	3.3692	0.0942	5.6536	0.7615	5.2565
0.7492	4.3763	2.2762	0.1556	6.3905	5.6618	4.2044	6.0752	5.322	4.4336	4.4827	3.4593	2.0387	-1.6744	-0.0041	-2.2475	3.3037	0	5.5348	0.6755	5.1173
0.7369	4.3476	2.2884	0.0901	6.3168	5.6167	4.1102	5.9238	5.2155	4.2903	4.3395	3.2669	1.8668	-1.6334	0.0041	-2.096	3.2259	-0.0696	5.453	0.6059	4.9331
0.7287	4.3026	2.2803	-0.0164	6.2062	5.5881	4.0324	5.8009	5.105	4.1962	4.0979	3.0786	1.6826	-1.6007	-0.0532	-2.0019	3.1522	-0.1597	5.3056	0.524	4.7734
0.6591	4.2084	2.1861	-0.1105	6.0875	5.5308	3.9546	5.6167	4.9576	4.0119	3.8932	2.878	1.5352	-1.5638	-0.1433	-1.9773	3.099	-0.2497	5.1869	0.4503	4.5769
0.5977	4.1675	2.1534	-0.2211	5.9647	5.4816	3.7991	5.4366	4.8471	3.8523	3.6844	2.6815	1.3182	-1.527	-0.2047	-1.9528	3.0253	-0.3316	5.0559	0.3603	4.405
0.5527	4.0693	2.0878	-0.3644	5.8419	5.4161	3.6517	5.2728	4.6997	3.6271	3.4593	2.4563	1.1012	-1.5106	-0.3152	-1.9773	2.968	-0.4626	4.9167	0.2579	4.1962
0.4913	3.9751	2.0183	-0.4585	5.7395	5.3342	3.5166	5.105	4.5605	3.5084	3.2587	2.2803	0.9334	-1.4779	-0.4135	-1.965	2.923	-0.5363	4.757	0.1678	3.9874
0.438	3.9096	1.9691	-0.5445	5.6372	5.2442	3.3938	4.9412	4.4295	3.3201	3.0458	2.1083	0.7451	-1.4451	-0.569	-2.0469	2.8739	-0.6223	4.5974	0.045	3.8359
0.348	3.84	1.8954	-0.6673	5.5389	5.1705	3.23	4.8389	4.2903	3.1481	2.8534	1.9036	0.5363	-1.4451	-0.7	-2.1329	2.8534	-0.741	4.4541	-0.0901	3.6763
0.2988	3.8113	1.834	-0.7737	5.4898	5.1091	3.1441	4.7488	4.1798	2.9885	2.7347	1.744	0.3766	-1.4369	-0.8229	-2.1943	2.8493	-0.8229	4.3272	-0.1638	3.5166
0.2497	3.7827	1.7808	-0.8392	5.4734	5.0231	3.0294	4.6424	4.0693	2.8329	2.5832	1.5679	0.2047	-1.4369	-0.8965	-2.2844	2.8616	-0.9006	4.2453	-0.2743	3.4183
0.176	3.7704	1.744	-0.8843	5.4816	4.9453	2.968	4.6015	3.9833	2.7101	2.4686	1.4533	0.0737	-1.4451	-0.962	-2.3499	2.9025	-0.9661	4.1593	-0.3521	3.3283
0.1597	3.7786	1.703	-0.9129	5.498	4.9044	2.9066	4.581	3.8973	2.5791	2.4072	1.3305	-0.0737	-1.4942	-1.0235	-2.4317	2.9639	-1.0562	4.1266	-0.4544	3.2832
0.0819	3.7827	1.6375	-0.9498	5.4857	4.8225	2.8739	4.536	3.8032	2.5259	2.3294	1.2036	-0.1719	-1.5229	-1.0439	-2.4972	3.0417	-1.1012	4.0652	-0.4913	3.2505
0.0287	3.7663	1.6007	-0.9948	5.4939	4.7775	2.8329	4.5441	3.7581	2.4604	2.2721	1.1258	-0.2497	-1.5884	-1.0644	-2.575	3.1441	-1.1422	4.0693	-0.5895	3.2382
-0.0164	3.795	1.5557	-0.9539	5.5226	4.7406	2.837	4.5155	3.6803	2.3908	2.2352	1.0398	-0.3398	-1.6416	-1.0235	-2.6119	3.2505	-1.1667	4.0365	-0.6182	3.2259
-0.0942	3.7704	1.4983	-0.9743	5.5103	4.6751	2.8452	4.5073	3.6189	2.3417	2.182	0.962	-0.4094	-1.6948	-1.0071	-2.6569	3.3692	-1.1667	4.0488	-0.6755	3.2341
-0.1474	3.7704	1.4492	-0.9948	5.5144	4.6055	2.8165	4.5114	3.5371	2.2762	2.1697	0.8925	-0.4831	-1.7481	-0.9416	-2.6896	3.4879	-1.2036	4.0242	-0.7041	3.2669
-0.2006	3.8032	1.3796	-0.9948	5.4898	4.54	2.8125	4.4909	3.5084	2.2434	2.1329	0.831	-0.5363	-1.8177	-0.9252	-2.7183	3.6148	-1.2077	4.0815	-0.7328	3.316
-0.2293	3.7868	1.351	-0.9743	5.4816	4.4868	2.8329	4.4745	3.4634	2.2148	2.096	0.7942	-0.5076	-1.8709	-0.8638	-2.747	3.7213	-1.1913	4.1143	-0.7451	3.3487
-0.2661	3.8236	1.3469	-0.9211	5.4898	4.4664	2.8616	4.4991	3.4224	2.2107	2.1124	0.7696	-0.5527	-1.9364	-0.8147	-2.8043	3.8236	-1.1749	4.1225	-0.7492	3.4102
-0.2907	3.8728	1.3305	-0.9006	5.4816	4.45	2.8943	4.5155	3.3856	2.2352	2.1124	0.7451	-0.5281	-1.9732	-0.7655	-2.8575	3.9342	-1.1463	4.2003	-0.7492	3.4961
-0.2497	3.9546	1.3796	-0.8188	5.5512	4.45	2.9435	4.5441	3.3979	2.2598	2.1493	0.7492	-0.5199	-2.0101	-0.6919	-2.8657	4.016	-1.0562	4.2821	-0.741	3.5534
-0.2415	4.0774	1.4165	-0.7082	5.6331	4.4827	3.0253	4.6424	3.4102	2.2925	2.1943	0.786	-0.4462	-2.0715	-0.655	-2.9762	4.1143	-0.9989	4.3681	-0.6673	3.6681
-0.1146	4.2371	1.4942	-0.61	5.7518	4.4991	3.1154	4.7366	3.4511	2.3826	2.2803	0.8638	-0.348	-2.1001	-0.569	-3.0049	4.1716	-0.8843	4.45	-0.5936	3.7827
-0.045	4.3927	1.6048	-0.4831	5.8624	4.5851	3.185	4.8102	3.5125	2.4522	2.3621	0.9252	-0.2743	-2.1329	-0.4872	-3.0622	4.233	-0.7819	4.5482	-0.5158	3.8809
0.0655	4.5851	1.7112	-0.3644	5.9811	4.6547	3.3283	4.9085	3.5575	2.5627	2.4645	1.0112	-0.1597	-2.1452	-0.393	-3.1604	4.2699	-0.6264	4.626	-0.4258	3.9915
0.1678	4.7406	1.8054	-0.217	6.0957	4.7079	3.3897	5.019	3.5821	2.6733	2.53	1.1012	-0.0328	-2.1574	-0.3152	-3.2751	4.2903	-0.5035	4.6629	-0.348	4.0774
0.2661	4.8921	1.9077	-0.0737	6.1817	4.8021	3.5125	5.0886	3.664	2.7756	2.6241	1.1954	0.1023	-2.1615	-0.217	-3.3283	4.2903	-0.3562	4.7202	-0.2047	4.1757
0.3725	5.0026	2.0387	0.0942	6.2226	4.888	3.623	5.1664	3.6763	2.8984	2.6692	1.2527	0.2293	-2.1411	-0.1228	-3.3733	4.2903	-0.2047	4.7325	-0.1228	4.233
0.4831	5.0804	2.1534	0.217	6.284	4.9658	3.7377	5.2032	3.7377	2.9926	2.751	1.3346	0.3357	-2.1493	-0.0328	-3.4224	4.2658	-0.0655	4.7529	-0.045	4.3108
0.569	5.1623	2.2803	0.3684	6.3045	5.0682	3.8728	5.2319	3.7827	3.1318	2.8043	1.4451	0.4831	-2.1411	0.0532	-3.4224	4.233	0.0819	4.7447	0.0409	4.3558
0.6714	5.1705	2.3662	0.5117	6.2799	5.1459	3.971	5.2483	3.8277	3.2669	2.8739	1.5516	0.61	-2.1083	0.1433	-3.4347	4.1757	0.2333	4.7325	0.1597	4.405
0.7369	5.2032	2.5218	0.6304	6.2595	5.2401	4.0897	5.2524	3.8728	3.3897	2.9353	1.6293	0.7615	-2.0838	0.1965	-3.4388	4.1143	0.3848	4.712	0.2333	4.409
0.8065	5.1869	2.6037	0.786	6.2185	5.3302	4.2371	5.236	3.9424	3.5207	2.968	1.7153	0.9211	-2.0346	0.2293	-3.4429	4.057	0.524	4.6751	0.3398	4.4254
0.8925	5.1746	2.6896	0.9047	6.1817	5.412	4.3272	5.2155	3.9587	3.6353	2.9967	1.8054	1.0603	-2.0101	0.2497	-3.4716	3.971	0.6468	4.6424	0.3971	4.4172
0.9457	5.1787	2.8084	1.0316	6.1366	5.5185	4.4705	5.2319	4.0856	3.7909	3.0622	1.9405	1.2241	-1.9446	0.2784	-3.4757	3.885	0.786	4.6219	0.5445	4.4295
1.048	5.1746	2.9189	1.1258	6.1366	5.6413	4.5851	5.2565	4.1716	3.9301	3.1318	2.0551	1.3632	-1.9036	0.2948	-3.4675	3.7909	0.9252	4.6015	0.61	4.4295
1.1381	5.1951	3.0745	1.2568	6.1694	5.7764	4.6915	5.3097	4.2903	4.0488	3.1891	2.2066	1.5434	-1.8545	0.2907	-3.4306	3.6763	1.0726	4.5605	0.7328	4.45
1.2732	5.2319	3.2423	1.4001	6.2349	5.9033	4.8389	5.3711	4.4172	4.233	3.3365	2.358	1.7153	-1.7808	0.3193	-3.3938	3.5575	1.2077	4.581	0.8474	4.5073
1.4083	5.2851	3.3774	1.5311	6.3127	6.0711	4.9781	5.453	4.5646	4.3927	3.4429	2.5586	1.8791	-1.7235	0.3029	-3.361	3.4388	1.3305	4.5482	0.958	4.5319
1.5557	5.3179	3.5698	1.6744	6.3864	6.2554	5.0968	5.5512	4.6997	4.5646	3.5534	2.7265	2.0387	-1.6785	0.3521	-3.2628	3.3242	1.4779	4.5728	1.048	4.5769
1.6867	5.3998	3.7418	1.8668	6.4846	6.4232	5.2442	5.6658	4.8635	4.7284	3.6926	2.9189	2.2475	-1.613	0.3439	-3.1932	3.2055	1.572	4.5687	1.22	4.6301
1.8545	5.4816	3.9014	2.0428	6.6074	6.6074	5.3834	5.805	5.0395	4.8921	3.8441	3.0949	2.4031	-1.5475	0.3725	-3.0458	3.0908	1.6948	4.5974	1.3305	4.6833
2.0469	5.5553	4.1307	2.2107	6.7343	6.7916	5.543	5.9156	5.2032	5.0804	3.9587	3.2751	2.5873	-1.4861	0.4503	-2.878	2.9721	1.8381	4.6096	1.4574	4.7366
2.2229	5.629	4.3231	2.4031	6.8653	6.9513	5.674	6.0179	5.3834	5.2196	4.1061	3.4716	2.7592	-1.4451	0.5363	-2.7101	2.8861	1.9405	4.626	1.6048	4.7816
2.4031	5.7395	4.5278	2.5791	6.9841	7.1601	5.8173	6.1489	5.5267	5.3424	4.2576	3.6312	2.9148	-1.4042	0.5731	-2.5709	2.8002	2.0551	4.6711	1.703	4.8716
2.5545	5.8214	4.6915	2.747	7.0905	7.2665	5.9238	6.2472	5.6863	5.498	4.3599	3.8154	3.0458	-1.3714	0.6182	-2.4113	2.7265	2.1288	4.6833	1.7849	4.929
2.6896	5.8992	4.8676	2.9107	7.2256	7.4344	6.0138	6.3618	5.8091	5.5594	4.4745	3.9587	3.2014	-1.3428	0.7082	-2.2434	2.6774	2.2148	4.7161	1.8422	4.9945
2.8247	5.9442	4.9863	3.0212	7.2993	7.5203	6.0629	6.4682	5.9319	5.6495	4.5974	4.0652	3.2996	-1.3428	0.6919	-2.1493	2.6569	2.2721	4.7447	1.8504	5.0272
2.9639	6.0343	5.15	3.1236	7.418	7.6514	6.1203	6.5378	6.0507	5.7273	4.6915	4.2207	3.402	-1.3059	0.7983	-2.006	2.6364	2.358	4.7939	1.9118	5.1009
3.0745	6.0916	5.2483	3.185	7.4958	7.7414	6.1407	6.632	6.1285	5.7273	4.7898	4.3026	3.4797	-1.3428	0.7901	-1.9323	2.6774	2.3785	4.8553	1.8832	5.15
3.1522	6.1407	5.3261	3.2669	7.594	7.7946	6.153	6.7302	6.198	5.7764	4.9126	4.4377	3.6108	-1.3632	0.8065	-1.8873	2.7306	2.4522	4.9535	1.92	5.2114
3.23	6.1694	5.3834	3.3119	7.6514	7.8479	6.1489	6.7876	6.2881	5.8214	5.0231	4.5482	3.6803	-1.4165	0.786	-1.8422	2.8002	2.4972	5.0886	1.8832	5.3138
3.271	6.198	5.4693	3.3692	7.7414	7.8888	6.153	6.8694	6.3536	5.8255	5.105	4.667	3.7704	-1.4451	0.8147	-1.7972	2.8821	2.5464	5.2278	1.8832	5.3629
3.2832	6.2226	5.5144	3.402	7.766	7.9134	6.1366	6.9186	6.3864	5.8419	5.191	4.757	3.8359	-1.4902	0.8065	-1.8381	2.9762	2.5914	5.3342	1.8668	5.4489
3.3201	6.2267	5.5267	3.4183	7.8069	7.9011	6.1285	6.98	6.4232	5.8624	5.2687	4.8184	3.9055	-1.5311	0.8106	-1.834	3.0663	2.661	5.4612	1.8668	5.4775
3.3528	6.2431	5.5471	3.4511	7.8315	7.8888	6.1203	7.0168	6.4027	5.8378	5.3465	4.8839	3.9874	-1.5802	0.8638	-1.834	3.1563	2.7265	5.5758	1.8504	5.5553
3.361	6.239	5.5717	3.447	7.8479	7.8438	6.0752	7.0496	6.4314	5.8624	5.3834	4.9535	4.0365	-1.6293	0.8965	-1.8832	3.2259	2.7838	5.6781	1.8791	5.6003
3.3447	6.2349	5.5471	3.4388	7.8601	7.811	6.0302	7.07	6.4109	5.8173	5.412	4.9781	4.0734	-1.6662	0.962	-1.8832	3.2832	2.8616	5.7641	1.8586	5.6454
3.3774	6.239	5.5594	3.4388	7.9052	7.7537	6.0056	7.0864	6.4109	5.8255	5.4489	5.0395	4.1266	-1.6703	1.0971	-1.8381	3.3201	2.9148	5.8419	1.8709	5.6658
3.4347	6.2554	5.5799	3.4142	7.9093	7.7005	5.9565	7.1192	6.3536	5.7723	5.4775	5.0108	4.1593	-1.703	1.1995	-1.834	3.3815	3.009	5.9074	1.8668	5.6781
3.4797	6.239	5.5635	3.3815	7.9256	7.6268	5.9033	7.07	6.3086	5.7641	5.4653	5.0477	4.1962	-1.7235	1.3141	-1.7603	3.4061	3.0581	5.9483	1.8873	5.6577
3.5616	6.3168	5.5963	3.3651	7.983	7.5899	5.8501	7.1314	6.3086	5.7641	5.498	5.1009	4.2207	-1.7317	1.4983	-1.6048	3.4183	3.1809	6.0097	1.8995	5.6822
3.6148	6.3782	5.6577	3.3856	7.9993	7.5531	5.8624	7.1232	6.3004	5.7887	5.5021	5.1091	4.2944	-1.7317	1.6007	-1.4697	3.4061	3.2587	6.0261	1.9323	5.6822
3.7581	6.5051	5.7273	3.4183	8.0853	7.5613	5.846	7.1888	6.2799	5.7846	5.5308	5.1296	4.3558	-1.7235	1.7767	-1.2568	3.3938	3.3528	6.0834	1.9896	5.7068
3.8441	6.5583	5.7805	3.4142	8.1344	7.5408	5.8214	7.2051	6.2513	5.7969	5.543	5.1091	4.3886	-1.703	1.8791	-1.089	3.3856	3.447	6.1203	2.0264	5.6904
3.9874	6.6852	5.9197	3.4511	8.2081	7.5531	5.8542	7.2502	6.2635	5.8501	5.5799	5.1746	4.4418	-1.6907	2.0142	-0.8392	3.3365	3.5125	6.1776	2.0797	5.6863
4.1143	6.7957	5.977	3.4552	8.2654	7.5408	5.8501	7.2747	6.2635	5.8419	5.5635	5.1746	4.4868	-1.6785	2.1083	-0.6714	3.3201	3.5862	6.1817	2.1206	5.6495
4.2248	6.8858	6.0589	3.492	8.3268	7.5449	5.8951	7.2379	6.2472	5.8746	5.5471	5.1705	4.4868	-1.6621	2.1902	-0.4503	3.271	3.6353	6.2021	2.1615	5.6208
4.3108	6.98	6.1694	3.5125	8.3882	7.5736	5.8828	7.2788	6.2635	5.8705	5.5553	5.1746	4.5278	-1.6293	2.2557	-0.2948	3.2341	3.6926	6.198	2.1902	5.584
4.4418	7.0905	6.2226	3.5289	8.4251	7.6145	5.977	7.2788	6.2554	5.9197	5.5308	5.191	4.5482	-1.6048	2.2925	-0.1678	3.1973	3.7295	6.194	2.2148	5.5144
4.5073	7.1683	6.37	3.5412	8.5029	7.6595	5.9852	7.287	6.2676	5.936	5.5267	5.1828	4.581	-1.5884	2.2844	-0.0737	3.1645	3.7295	6.2431	2.268	5.4734
4.5728	7.2829	6.4641	3.578	8.5356	7.6636	6.0097	7.2747	6.2717	5.977	5.498	5.1623	4.5523	-1.5679	2.3048	0.0368	3.1195	3.754	6.2431	2.268	5.4489
4.6219	7.3075	6.5092	3.5534	8.5602	7.6882	6.0302	7.2379	6.2472	5.9852	5.4775	5.1541	4.536	-1.5802	2.2393	0.0368	3.1031	3.7131	6.2554	2.2434	5.367
4.6506	7.3771	6.5706	3.5166	8.5561	7.7128	6.0343	7.2256	6.2103	5.9483	5.4038	5.1132	4.4786	-1.5597	2.182	0.0082	3.0908	3.6681	6.2267	2.2148	5.2974
4.6711	7.4016	6.6074	3.492	8.5684	7.7169	6.0425	7.2256	6.194	5.9156	5.3547	5.0804	4.4459	-1.5516	2.1165	-0.0778	3.0786	3.6271	6.2431	2.1902	5.2647
4.6629	7.4139	6.6688	3.4347	8.5684	7.7169	6.0138	7.1724	6.1448	5.891	5.3015	4.9986	4.3763	-1.5352	2.0305	-0.1678	3.0622	3.5534	6.194	2.1329	5.1787
4.6301	7.3975	6.6525	3.3201	8.5233	7.6923	5.9197	7.111	6.067	5.7887	5.2319	4.8839	4.2535	-1.5516	1.92	-0.3193	3.054	3.4429	6.1735	2.0387	5.1296
4.5646	7.3443	6.6525	3.2136	8.4456	7.6391	5.8214	7.0332	6.0138	5.7109	5.1418	4.8143	4.1552	-1.5188	1.8095	-0.4913	3.0212	3.316	6.1203	1.9568	5.0436
4.5032	7.2379	6.5583	3.0622	8.3268	7.5531	5.6863	6.9063	5.8828	5.5471	5.019	4.6506	3.9833	-1.5311	1.6907	-0.7287	3.0212	3.1318	6.0179	1.8545	4.9208
4.4418	7.111	6.5378	2.9066	8.1876	7.4753	5.5226	6.7671	5.7641	5.3834	4.8798	4.5114	3.7909	-1.5229	1.6416	-0.9866	3.009	2.9435	5.936	1.7235	4.8102
4.3435	6.9513	6.4682	2.7551	8.0075	7.3893	5.3629	6.5951	5.6167	5.2032	4.7243	4.3681	3.6189	-1.4942	1.5802	-1.2814	2.9803	2.8043	5.8132	1.5884	4.6751
4.278	6.8449	6.415	2.6037	7.8601	7.2952	5.2237	6.456	5.4775	5.0477	4.6137	4.2044	3.4183	-1.4902	1.5434	-1.6089	2.9598	2.5873	5.7232	1.5147	4.5605
4.1962	6.6893	6.3454	2.4686	7.7209	7.2215	5.0804	6.3127	5.3342	4.8594	4.4336	4.0201	3.2136	-1.482	1.5311	-1.8873	2.9435	2.3949	5.6249	1.3796	4.4459
4.1839	6.6074	6.2881	2.3621	7.5572	7.1437	4.9208	6.1612	5.2278	4.6915	4.3108	3.885	3.0212	-1.4779	1.527	-2.1943	2.9353	2.2148	5.5676	1.265	4.3149
4.2044	6.5133	6.2635	2.2925	7.4712	7.0741	4.798	6.0097	5.1296	4.5237	4.1675	3.7213	2.8288	-1.4779	1.5966	-2.4317	2.923	2.006	5.4693	1.1545	4.1798
4.2371	6.5133	6.2799	2.3048	7.4344	7.0823	4.7284	5.9606	5.0804	4.405	4.0815	3.6026	2.6733	-1.4574	1.7194	-2.661	2.8821	1.8381	5.4857	1.0767	4.1225
4.2944	6.4805	6.2922	2.2844	7.3484	7.0332	4.6506	5.8624	5.0108	4.2944	3.9792	3.4716	2.5136	-1.441	1.8258	-2.8616	2.8861	1.6375	5.4366	0.9866	3.9956
4.3845	6.5092	6.329	2.3417	7.3484	7.0168	4.5933	5.8132	4.9617	4.1839	3.9014	3.3774	2.3621	-1.4492	1.9691	-2.9762	2.878	1.4861	5.4243	0.9498	3.9424
4.4827	6.5215	6.3905	2.4072	7.2911	7.0168	4.5851	5.7395	4.9044	4.1102	3.8154	3.2792	2.2229	-1.4533	2.1001	-3.054	2.8821	1.3346	5.4243	0.8925	3.8441
4.6506	6.5829	6.4641	2.5013	7.3075	6.9963	4.5892	5.6986	4.8921	4.0406	3.7499	3.2055	2.1124	-1.4656	2.2516	-2.9926	2.9066	1.1749	5.4366	0.8761	3.7991
4.8061	6.6934	6.5419	2.62	7.3279	7.025	4.6465	5.6781	4.9003	4.0079	3.7008	3.1768	2.0387	-1.4738	2.4358	-2.8616	2.9189	1.0685	5.4489	0.872	3.7377
4.9576	6.7794	6.632	2.706	7.3648	7.0577	4.6424	5.674	4.9003	3.9587	3.6681	3.1031	1.9446	-1.4942	2.5873	-2.6774	2.9762	0.9293	5.4571	0.8433	3.6763
5.1377	6.8244	6.7466	2.837	7.4221	7.0782	4.6629	5.6781	4.8798	3.9219	3.6271	3.0171	1.8422	-1.5065	2.751	-2.4113	3.0008	0.8147	5.4857	0.827	3.623
5.3138	6.9308	6.8203	2.9148	7.4303	7.0741	4.667	5.6863	4.8512	3.885	3.5903	2.9803	1.7562	-1.527	2.8984	-2.1165	3.0499	0.7205	5.4571	0.8433	3.5698
5.4939	7.0004	6.9145	2.9885	7.4508	7.0946	4.6751	5.6986	4.8798	3.8441	3.5944	2.968	1.7071	-1.5393	3.0663	-1.7481	3.0745	0.6427	5.4612	0.827	3.5452
5.6781	7.0741	7.0045	3.0581	7.5244	7.1151	4.6588	5.7068	4.8635	3.7991	3.578	2.9394	1.6293	-1.5597	3.2218	-1.3755	3.1072	0.5363	5.4284	0.8147	3.492
5.8664	7.1601	7.0987	3.1277	7.5572	7.1396	4.6383	5.7477	4.8553	3.7909	3.578	2.8984	1.5638	-1.5802	3.3815	-0.9661	3.1522	0.4462	5.4489	0.7983	3.447
6.0261	7.2338	7.2256	3.2096	7.6022	7.1601	4.6465	5.7805	4.8798	3.7786	3.5657	2.8657	1.5229	-1.6048	3.5289	-0.5854	3.1809	0.3766	5.4038	0.8065	3.3979
6.1899	7.3361	7.2993	3.2423	7.6554	7.156	4.667	5.8009	4.8798	3.7663	3.5371	2.8698	1.5065	-1.6252	3.6517	-0.1678	3.2382	0.3111	5.3957	0.7778	3.3201
6.3618	7.4262	7.4139	3.316	7.7496	7.2379	4.7161	5.8746	4.9044	3.7663	3.5862	2.8902	1.4902	-1.6457	3.7868	0.1842	3.2669	0.2661	5.3957	0.7901	3.2873
6.5747	7.5613	7.5285	3.3733	7.8519	7.2665	4.7406	5.9401	4.9576	3.8236	3.6108	2.8943	1.4942	-1.658	3.9014	0.5609	3.3119	0.217	5.3957	0.7778	3.2423
6.7261	7.6964	7.6391	3.4224	7.942	7.3198	4.7857	6.0302	4.9658	3.8318	3.6353	2.9271	1.5188	-1.6785	3.9669	0.827	3.361	0.1597	5.4161	0.7655	3.1809
6.8572	7.8151	7.7619	3.4593	8.0321	7.3812	4.8184	6.1203	5.0559	3.8809	3.7008	2.9639	1.5188	-1.6867	4.0283	1.0971	3.3733	0.1351	5.4243	0.7737	3.1973
6.9963	7.9256	7.8683	3.5166	8.1385	7.4508	4.888	6.194	5.1091	3.926	3.709	2.9926	1.5475	-1.7071	4.0734	1.3059	3.3938	0.1146	5.4612	0.7819	3.1031
7.1314	8.028	7.9625	3.5534	8.2122	7.5408	4.929	6.2963	5.1664	3.9751	3.7827	3.0581	1.5843	-1.6907	4.1429	1.4902	3.3856	0.0491	5.4693	0.7901	3.0826
7.201	8.114	8.0403	3.5657	8.2941	7.5695	4.9945	6.3536	5.2114	3.9997	3.7745	3.0745	1.6089	-1.6948	4.1389	1.6293	3.3979	-0.0164	5.4898	0.7287	3.0581
7.2952	8.1672	8.114	3.5739	8.3596	7.6718	5.0722	6.4478	5.2851	4.0815	3.8768	3.1481	1.6662	-1.6744	4.1593	1.7153	3.3406	-0.0328	5.5185	0.7205	3.0131
7.3402	8.2327	8.1713	3.5739	8.3923	7.7128	5.0886	6.4723	5.322	4.102	3.8605	3.1932	1.7071	-1.6662	4.188	1.7644	3.3201	-0.0655	5.5226	0.7246	2.9516
7.3853	8.2859	8.2531	3.578	8.4415	7.7742	5.1541	6.5419	5.3875	4.1921	3.9178	3.2505	1.7358	-1.6293	4.1798	1.7522	3.2628	-0.1146	5.5594	0.7492	2.9353
7.4426	8.3719	8.3105	3.6067	8.4824	7.8642	5.2237	6.6033	5.4612	4.2576	3.9751	3.3201	1.8218	-1.6048	4.2248	1.7644	3.1932	-0.1228	5.5758	0.741	2.9394
7.4589	8.3923	8.3841	3.6312	8.5151	7.9256	5.3056	6.6893	5.5512	4.3395	4.0447	3.4142	1.92	-1.5679	4.2494	1.7071	3.1195	-0.1228	5.6044	0.8229	2.9312
7.4753	8.4496	8.421	3.6763	8.5356	8.0075	5.3875	6.7302	5.6167	4.4336	4.1143	3.4716	2.0183	-1.5516	4.2699	1.5925	3.0867	-0.1146	5.6167	0.8351	2.9353
7.5122	8.507	8.507	3.709	8.5888	8.114	5.4898	6.808	5.7027	4.5605	4.1757	3.5739	2.1042	-1.5147	4.3722	1.4861	3.0008	-0.1105	5.629	0.9006	2.9476
7.5654	8.5888	8.6257	3.8154	8.6543	8.2368	5.6126	6.8858	5.8296	4.6833	4.278	3.6803	2.2516	-1.4697	4.45	1.4001	2.923	-0.0819	5.6536	0.9375	2.9803
7.6227	8.6502	8.7239	3.8932	8.7526	8.3637	5.7273	6.9513	5.9483	4.8061	4.3354	3.7581	2.3499	-1.4287	4.5687	1.2609	2.8534	-0.0368	5.6904	1.003	3.0335
7.7087	8.7567	8.8345	4.016	8.8467	8.5029	5.8664	7.0577	6.0875	4.9699	4.4541	3.926	2.489	-1.3919	4.7161	1.1176	2.7592	-0.0041	5.7354	1.0971	3.0704
7.7701	8.8672	8.9614	4.1348	8.9245	8.6707	6.0302	7.1601	6.2144	5.0927	4.5441	4.0324	2.6364	-1.3591	4.8021	0.9866	2.6855	0.0778	5.8091	1.1586	3.1359
7.8806	8.99	9.1006	4.2944	9.0473	8.8181	6.1489	7.2543	6.3372	5.236	4.6137	4.1675	2.7756	-1.31	4.929	0.9252	2.5996	0.1392	5.8173	1.2609	3.1891
8.0075	9.1497	9.2643	4.4377	9.1865	8.9818	6.2963	7.3443	6.4601	5.3998	4.7447	4.3026	2.8984	-1.2527	5.0845	0.8474	2.4972	0.2333	5.891	1.4042	3.2464
8.1262	9.2889	9.4117	4.6178	9.2889	9.1538	6.4355	7.418	6.6361	5.5267	4.8102	4.4009	3.0131	-1.2159	5.2073	0.7696	2.4317	0.2702	5.8992	1.5106	3.2792
8.2695	9.424	9.5591	4.8021	9.3994	9.3257	6.5788	7.5081	6.6975	5.6413	4.9126	4.5441	3.1031	-1.179	5.3138	0.6673	2.3417	0.3644	5.8787	1.6212	3.316
8.3964	9.5427	9.6901	4.9904	9.4567	9.4608	6.7425	7.5572	6.8039	5.7436	4.9576	4.6383	3.2341	-1.134	5.4243	0.5731	2.268	0.4012	5.8664	1.7358	3.3201
8.507	9.6205	9.7842	5.1091	9.5263	9.555	6.7916	7.5531	6.8735	5.8173	4.9781	4.6874	3.2832	-1.1176	5.4898	0.4544	2.227	0.4503	5.8501	1.8136	3.3119
8.6257	9.7351	9.8948	5.2769	9.5714	9.6901	6.9063	7.5981	6.9431	5.9279	5.0354	4.757	3.3365	-1.0808	5.5717	0.393	2.1697	0.5076	5.8173	1.9036	3.3365
8.683	9.8088	9.9562	5.3793	9.6287	9.7597	6.9145	7.594	6.9677	5.9279	5.0026	4.7898	3.3447	-1.0971	5.5594	0.262	2.1656	0.4913	5.7805	1.92	3.316
8.7812	9.8538	10.0462	5.4816	9.6942	9.8579	6.9759	7.6186	6.9922	5.9606	5.06	4.8266	3.3815	-1.0726	5.5799	0.1842	2.137	0.5322	5.7518	1.9814	3.3365
8.8427	9.903	10.0995	5.5348	9.7065	9.9234	6.9554	7.6268	6.9963	5.9606	5.0272	4.8798	3.3692	-1.0849	5.5267	0.086	2.1534	0.5117	5.7109	1.9937	3.3283
8.8631	9.9234	10.1322	5.6003	9.7105	9.9644	6.9718	7.6063	7.025	5.9729	5.0231	4.9085	3.3897	-1.0931	5.4366	-0.0246	2.1779	0.5035	5.6536	2.0183	3.3365
8.8713	9.9807	10.1445	5.6249	9.7024	9.9971	6.9718	7.6227	7.0004	5.9401	5.0231	4.9044	3.3569	-1.1299	5.3711	-0.1392	2.2148	0.4749	5.6413	2.0142	3.3201
8.814	9.9275	10.1158	5.6413	9.6983	10.0053	6.939	7.5613	6.9759	5.936	4.9945	4.9249	3.3447	-1.1504	5.281	-0.2497	2.2721	0.4749	5.5553	2.0223	3.316
8.7649	9.862	10.0462	5.6003	9.6409	10.0053	6.9431	7.504	6.9636	5.891	4.9699	4.9167	3.2873	-1.179	5.191	-0.348	2.3335	0.4708	5.5348	1.9937	3.2832
8.6748	9.7965	10.0094	5.5881	9.5754	9.9889	6.894	7.4589	6.9308	5.8501	4.9249	4.8962	3.271	-1.1995	5.0518	-0.4421	2.399	0.438	5.5021	2.0101	3.2505
8.5192	9.6901	9.903	5.5553	9.4731	9.9685	6.8531	7.4057	6.894	5.8091	4.8839	4.8716	3.2259	-1.2281	4.9371	-0.5158	2.4563	0.4176	5.4734	1.9732	3.2055
