"FZ"	"FC3"	"FCZ"	"FC4"	"C3"	"CZ"	"C4"	"CP3"	"CPZ"	"CP4"	"P3"	"PZ"	"P4"	"OZ"	"FP1"	"FP2"	"A2"	"P8"	"TP7"	"TP8"	"P7"
-0.0525	-0.4511	-0.1469	0.3602	-1.4582	-0.6749	0.1259	-1.2973	-1.5701	-0.6609	-0.9197	-1.8463	-1.3183	0.2028	0.556	0.1119	-0.4091	-1.2309	-1.091	-0.6189	-0.6154
-0.0979	-0.4511	-0.1748	0.2728	-1.4652	-0.7238	0.0629	-1.3288	-1.6225	-0.6784	-0.9581	-1.9023	-1.3148	0.2238	0.542	0.0909	-0.4511	-1.1679	-1.049	-0.5035	-0.6294
-0.1434	-0.4651	-0.2658	0.1993	-1.4617	-0.8322	0.0035	-1.4022	-1.696	-0.7378	-1.0316	-2.0002	-1.3463	0.2238	0.4756	0.0629	-0.4581	-1.133	-1.084	-0.4441	-0.6434
-0.1783	-0.4826	-0.3077	0.1783	-1.5036	-0.9197	-0.042	-1.4512	-1.7239	-0.7448	-1.1295	-2.0421	-1.3323	0.2483	0.4616	0.0629	-0.4791	-1.0351	-1.084	-0.3427	-0.6679
-0.2028	-0.4616	-0.3672	0.1574	-1.5106	-0.9896	-0.0699	-1.5106	-1.7484	-0.7553	-1.2169	-2.0876	-1.3043	0.2448	0.4371	0.0594	-0.5175	-0.9476	-1.084	-0.2098	-0.7133
-0.2308	-0.4651	-0.4161	0.1049	-1.5491	-1.091	-0.1259	-1.591	-1.7869	-0.7553	-1.3253	-2.1331	-1.2763	0.2832	0.3916	0.0455	-0.549	-0.8602	-1.091	-0.0804	-0.7518
-0.2658	-0.4581	-0.4861	0.0594	-1.5806	-1.1574	-0.1434	-1.6715	-1.8323	-0.7763	-1.4092	-2.147	-1.2204	0.2902	0.3532	0.0455	-0.563	-0.7903	-1.112	0.007	-0.7588
-0.2693	-0.4861	-0.5805	0.0245	-1.619	-1.2414	-0.2063	-1.7414	-1.8708	-0.7728	-1.5106	-2.175	-1.2064	0.2867	0.2832	0.0769	-0.5805	-0.6889	-1.1365	0.1084	-0.8008
-0.2797	-0.4965	-0.6015	-0.014	-1.668	-1.3218	-0.2623	-1.7974	-1.8848	-0.7798	-1.5701	-2.161	-1.1609	0.2972	0.2308	0.0664	-0.584	-0.584	-1.1714	0.2203	-0.8322
-0.2867	-0.4826	-0.6364	-0.042	-1.682	-1.3882	-0.2937	-1.8568	-1.8883	-0.7553	-1.619	-2.161	-1.1015	0.2937	0.1748	0.0874	-0.6049	-0.4721	-1.1435	0.3322	-0.8287
-0.3007	-0.4756	-0.6924	-0.0664	-1.7099	-1.4652	-0.3287	-1.9058	-1.8883	-0.7343	-1.6855	-2.1435	-1.0281	0.2972	0.1469	0.1154	-0.6154	-0.3846	-1.1924	0.4511	-0.8637
-0.3112	-0.4791	-0.7483	-0.0909	-1.7589	-1.5526	-0.3672	-1.9512	-1.9197	-0.7413	-1.7064	-2.1121	-0.9616	0.3042	0.0385	0.1189	-0.598	-0.3042	-1.1854	0.5525	-0.8812
-0.2902	-0.4756	-0.7763	-0.1224	-1.7834	-1.626	-0.3777	-2.0037	-1.8848	-0.7099	-1.7414	-2.0316	-0.8567	0.3007	0.0035	0.1329	-0.6119	-0.1923	-1.1924	0.6329	-0.8882
-0.3147	-0.5245	-0.8183	-0.1469	-1.8253	-1.696	-0.4441	-2.0526	-1.8848	-0.6924	-1.7869	-1.9827	-0.7938	0.2937	-0.0699	0.1084	-0.591	-0.1119	-1.1749	0.7099	-0.8847
-0.3497	-0.5595	-0.8812	-0.2238	-1.8463	-1.7414	-0.5175	-2.0806	-1.8743	-0.6889	-1.8044	-1.9302	-0.7518	0.2728	-0.1853	0.0245	-0.5525	-0.0315	-1.1924	0.7588	-0.8952
-0.3672	-0.5945	-0.9267	-0.2518	-1.8813	-1.7904	-0.5315	-2.0771	-1.8253	-0.6539	-1.8078	-1.8288	-0.6469	0.2728	-0.2623	-0.014	-0.556	0.0664	-1.1854	0.8043	-0.8742
-0.4161	-0.6329	-0.9546	-0.3147	-1.9058	-1.8183	-0.591	-2.0561	-1.7729	-0.6399	-1.7729	-1.7169	-0.5455	0.2658	-0.4161	-0.1364	-0.5455	0.1539	-1.1574	0.8637	-0.8462
-0.4651	-0.6819	-1.0036	-0.3881	-1.9232	-1.8673	-0.6469	-2.0631	-1.7589	-0.6189	-1.7379	-1.6085	-0.4861	0.2588	-0.5595	-0.2832	-0.5315	0.2413	-1.1504	0.9092	-0.8462
-0.4791	-0.7168	-1.0525	-0.4336	-1.9477	-1.9023	-0.7168	-2.0177	-1.6575	-0.6084	-1.689	-1.4861	-0.3637	0.2588	-0.7064	-0.4476	-0.535	0.3357	-1.126	0.9406	-0.8113
-0.5245	-0.7903	-1.0875	-0.4965	-1.9792	-1.9128	-0.7518	-2.0072	-1.6085	-0.5945	-1.647	-1.3533	-0.2832	0.2623	-0.8532	-0.598	-0.5175	0.4056	-1.1085	0.9441	-0.7623
-0.5875	-0.8602	-1.1155	-0.542	-1.9792	-1.9128	-0.7973	-1.9862	-1.5246	-0.5665	-1.619	-1.2064	-0.2203	0.2623	-0.9267	-0.7238	-0.528	0.4651	-1.0665	0.9791	-0.7483
-0.6294	-0.9162	-1.1784	-0.6049	-1.9827	-1.9093	-0.8322	-1.9372	-1.4407	-0.5455	-1.5351	-1.0665	-0.1294	0.2588	-1.063	-0.8987	-0.528	0.5455	-1.0455	0.9931	-0.7308
-0.6924	-0.9791	-1.2029	-0.6329	-1.9722	-1.8673	-0.8532	-1.8568	-1.3323	-0.493	-1.4267	-0.9232	-0.0385	0.2728	-1.1574	-0.9721	-0.5525	0.6119	-1.0001	1.0001	-0.6819
-0.7238	-1.0455	-1.2484	-0.6819	-1.9652	-1.8463	-0.8777	-1.7974	-1.2519	-0.4581	-1.3777	-0.7693	0.0315	0.2902	-1.2414	-1.063	-0.556	0.6784	-0.9861	1.0106	-0.6644
-0.7763	-1.0665	-1.2554	-0.7308	-1.9302	-1.7904	-0.8882	-1.682	-1.133	-0.4301	-1.2658	-0.6224	0.1294	0.3007	-1.2658	-1.14	-0.5735	0.7623	-0.9302	1.0246	-0.6329
-0.7903	-1.091	-1.2379	-0.7273	-1.8743	-1.7169	-0.8672	-1.5666	-0.9616	-0.3707	-1.1504	-0.4266	0.2133	0.2972	-1.2589	-1.1504	-0.6049	0.8252	-0.8672	1.0211	-0.577
-0.8043	-1.105	-1.2274	-0.7518	-1.8148	-1.6295	-0.8392	-1.4372	-0.8113	-0.3182	-1.0106	-0.2588	0.3217	0.3147	-1.2309	-1.1435	-0.6364	0.8987	-0.8113	1.0106	-0.528
-0.8113	-1.1225	-1.2309	-0.7413	-1.7589	-1.5316	-0.8043	-1.3008	-0.6644	-0.2448	-0.8917	-0.0874	0.4161	0.3217	-1.1714	-1.0805	-0.6399	0.9721	-0.7483	1.063	-0.5
-0.7798	-1.1085	-1.1574	-0.7343	-1.6435	-1.4057	-0.7343	-1.126	-0.4721	-0.1888	-0.7483	0.0874	0.507	0.3357	-1.0595	-1.0036	-0.6819	1.0805	-0.6679	1.0665	-0.4196
-0.7833	-1.091	-1.119	-0.7099	-1.5561	-1.3008	-0.6854	-1.0001	-0.3042	-0.1189	-0.6189	0.2693	0.6189	0.3427	-0.9966	-0.9371	-0.6889	1.1295	-0.591	1.077	-0.3602
-0.7798	-1.0945	-1.0595	-0.6784	-1.4791	-1.1749	-0.6294	-0.8427	-0.1469	-0.0455	-0.4476	0.4476	0.7029	0.3602	-0.8567	-0.8497	-0.7168	1.1924	-0.5175	1.1015	-0.2693
-0.7623	-1.049	-1.0141	-0.6889	-1.3882	-1.0665	-0.577	-0.6714	0.014	0.0525	-0.2972	0.6224	0.7903	0.3497	-0.7658	-0.7308	-0.6959	1.2484	-0.4266	1.091	-0.2098
-0.7308	-1.0211	-0.9546	-0.6469	-1.2379	-0.9302	-0.5105	-0.521	0.1923	0.1399	-0.1713	0.7693	0.8742	0.3427	-0.6819	-0.6679	-0.6959	1.3183	-0.3532	1.1679	-0.1434
-0.7029	-0.9651	-0.8742	-0.6259	-1.112	-0.8148	-0.4441	-0.3357	0.3602	0.2168	-0.0105	0.9057	0.9616	0.3322	-0.5595	-0.521	-0.6784	1.3603	-0.2518	1.1784	-0.0944
-0.6924	-0.8952	-0.8183	-0.591	-1.0106	-0.6784	-0.3777	-0.1958	0.514	0.2832	0.1154	1.042	1.042	0.3427	-0.4546	-0.4511	-0.6609	1.4267	-0.1609	1.1959	-0.0105
-0.6679	-0.8078	-0.7798	-0.5665	-0.8637	-0.591	-0.2728	-0.0315	0.6539	0.3707	0.2133	1.147	1.112	0.3042	-0.3742	-0.3707	-0.6049	1.4512	-0.0664	1.2134	0.035
-0.6539	-0.7273	-0.7168	-0.549	-0.7308	-0.4511	-0.2203	0.1294	0.8043	0.4406	0.3392	1.2589	1.1854	0.2762	-0.3007	-0.3042	-0.563	1.4931	0.0315	1.2309	0.0804
-0.6434	-0.6819	-0.6924	-0.549	-0.6015	-0.3427	-0.1888	0.2553	0.9162	0.493	0.4161	1.3323	1.2414	0.2518	-0.2308	-0.2693	-0.5	1.5001	0.1189	1.2274	0.1399
-0.6749	-0.6364	-0.6749	-0.584	-0.4791	-0.2658	-0.1609	0.3602	1.0071	0.542	0.4756	1.3882	1.2763	0.2028	-0.1713	-0.2098	-0.4056	1.5071	0.1748	1.2379	0.1574
-0.6994	-0.5595	-0.6609	-0.598	-0.3881	-0.2168	-0.1189	0.4301	1.0735	0.57	0.5245	1.4162	1.2973	0.1469	-0.2413	-0.2238	-0.3007	1.4931	0.2483	1.2029	0.1923
-0.7099	-0.535	-0.6469	-0.591	-0.2658	-0.1469	-0.1119	0.521	1.1539	0.577	0.5455	1.4407	1.3043	0.1154	-0.2028	-0.2413	-0.2133	1.4791	0.2902	1.1749	0.1888
-0.7448	-0.493	-0.6644	-0.6364	-0.1958	-0.1049	-0.1259	0.57	1.1574	0.5875	0.5595	1.4127	1.3113	0.035	-0.2553	-0.2762	-0.0944	1.4407	0.3532	1.1574	0.1888
-0.7518	-0.4301	-0.6714	-0.6609	-0.1014	-0.0455	-0.0944	0.6609	1.1819	0.6154	0.549	1.3917	1.3253	0	-0.2902	-0.2623	-0.0175	1.4197	0.3916	1.1155	0.1888
-0.7903	-0.4021	-0.6504	-0.7029	-0.028	-0.0175	-0.1224	0.6784	1.1994	0.6084	0.5245	1.3428	1.3148	-0.0525	-0.3916	-0.3287	0.1049	1.3498	0.3881	1.0735	0.1643
-0.8252	-0.3287	-0.7064	-0.7273	0.021	-0.0035	-0.1224	0.6959	1.1889	0.5665	0.4721	1.2798	1.2554	-0.1014	-0.4721	-0.3742	0.2028	1.2868	0.4511	0.9896	0.1469
-0.8567	-0.3007	-0.7099	-0.7273	0.0839	0.0175	-0.1224	0.7308	1.1889	0.5805	0.4336	1.2274	1.2344	-0.1434	-0.5665	-0.3951	0.2902	1.2728	0.4686	0.9686	0.1259
-0.8742	-0.2378	-0.7133	-0.7133	0.1539	0.0699	-0.0804	0.7378	1.2029	0.6049	0.4196	1.1854	1.2169	-0.1818	-0.6539	-0.4546	0.3602	1.2274	0.5	0.9336	0.1084
-0.9127	-0.2133	-0.7623	-0.7378	0.2063	0.0559	-0.1084	0.7168	1.1539	0.5735	0.3567	1.0945	1.1435	-0.2378	-0.7798	-0.5245	0.4686	1.14	0.5245	0.8882	0.0839
-0.8952	-0.1678	-0.7658	-0.7099	0.2588	0.0839	-0.1189	0.7273	1.147	0.542	0.3077	1.0351	1.1015	-0.2867	-0.8567	-0.535	0.5595	1.0665	0.5665	0.8043	0.0769
-0.8637	-0.0909	-0.7448	-0.6854	0.3252	0.1329	-0.0839	0.7343	1.1609	0.563	0.3042	1.0211	1.042	-0.3217	-0.9581	-0.584	0.6259	1.0106	0.5945	0.7413	0.0699
-0.8392	-0.0699	-0.7518	-0.6574	0.3951	0.1399	-0.0909	0.7203	1.1365	0.542	0.2308	0.9476	1.0071	-0.3672	-1.0211	-0.6224	0.7099	0.9476	0.6224	0.6609	0.042
-0.8113	0.021	-0.6889	-0.6189	0.4371	0.1713	-0.0699	0.7448	1.1539	0.5525	0.2168	0.9267	0.9651	-0.3951	-1.07	-0.6189	0.7728	0.8497	0.6434	0.6015	0.0594
-0.7483	0.049	-0.6644	-0.5385	0.5175	0.2378	-0.049	0.7658	1.1504	0.549	0.2308	0.8952	0.9057	-0.4056	-1.0945	-0.6084	0.8078	0.7938	0.6714	0.514	0.0839
-0.6784	0.1154	-0.6049	-0.4616	0.5665	0.2623	-0.0385	0.7833	1.1819	0.549	0.2378	0.8742	0.8707	-0.4336	-1.0945	-0.5945	0.8532	0.7413	0.6889	0.4651	0.0909
-0.6259	0.1958	-0.528	-0.3742	0.6189	0.3357	-0.0105	0.8183	1.2029	0.549	0.2308	0.8952	0.8252	-0.4441	-1.0665	-0.57	0.8707	0.6749	0.7518	0.3602	0.1189
-0.5315	0.2832	-0.4511	-0.3007	0.7168	0.3777	0.0175	0.8707	1.2239	0.5525	0.2728	0.8952	0.7553	-0.4686	-1.0805	-0.528	0.8952	0.5735	0.7903	0.2937	0.1364
-0.4721	0.3672	-0.3462	-0.2378	0.7973	0.4406	0.049	0.9162	1.2379	0.542	0.3077	0.9057	0.7203	-0.4651	-1.0281	-0.4721	0.9232	0.5245	0.8287	0.2028	0.1713
-0.3497	0.4231	-0.2518	-0.1643	0.8602	0.514	0.0804	0.9686	1.2414	0.521	0.3147	0.9022	0.6784	-0.4686	-0.9686	-0.4021	0.9302	0.4126	0.8427	0.1154	0.1713
-0.2518	0.4965	-0.1364	-0.0944	0.9476	0.5875	0.0909	1.0176	1.2379	0.514	0.3707	0.9302	0.6084	-0.4896	-0.8952	-0.3392	0.9476	0.3252	0.8672	0.0315	0.1818
-0.1469	0.577	-0.0105	0.0105	1.0246	0.6609	0.1294	1.077	1.3008	0.528	0.4441	0.9616	0.5805	-0.4651	-0.8113	-0.2343	0.9406	0.2518	0.9022	-0.0594	0.2168
-0.014	0.6539	0.1469	0.1224	1.1365	0.7273	0.1678	1.133	1.3183	0.5315	0.493	0.9931	0.528	-0.4721	-0.6784	-0.0979	0.9197	0.2063	0.9057	-0.1574	0.2413
0.1189	0.7378	0.2902	0.2343	1.2239	0.8427	0.2238	1.1854	1.3568	0.5385	0.563	1.0455	0.5	-0.4511	-0.5105	0.049	0.8987	0.1364	0.9197	-0.2133	0.2623
0.2623	0.8078	0.4336	0.3252	1.2903	0.9057	0.2832	1.2449	1.3742	0.5385	0.6189	1.0595	0.4266	-0.4476	-0.3637	0.1958	0.8847	0.049	0.9336	-0.2972	0.2832
0.4126	0.8987	0.6119	0.4546	1.3987	1.0071	0.3357	1.3393	1.3882	0.5525	0.7029	1.112	0.4091	-0.4301	-0.1609	0.3881	0.8392	-0.0105	0.9616	-0.3462	0.3007
0.577	0.9721	0.7763	0.5525	1.5036	1.112	0.4091	1.3742	1.4232	0.57	0.7868	1.1539	0.3567	-0.3916	0.035	0.5735	0.7833	-0.0699	0.9616	-0.4091	0.3287
0.7238	1.0246	0.8952	0.6539	1.5631	1.1819	0.4651	1.4267	1.4092	0.5875	0.8707	1.147	0.3217	-0.3777	0.2658	0.7518	0.7553	-0.1154	0.9302	-0.4651	0.3147
0.8847	1.084	1.063	0.7483	1.654	1.2728	0.514	1.4931	1.4407	0.598	0.9197	1.1644	0.2728	-0.3602	0.4896	0.9406	0.6994	-0.1678	0.9406	-0.5385	0.3392
1.0316	1.1365	1.2134	0.8777	1.7134	1.3777	0.5875	1.5491	1.4442	0.6119	1.0246	1.2064	0.2762	-0.3322	0.7099	1.1435	0.6329	-0.2098	0.9581	-0.556	0.4021
1.1924	1.2169	1.3463	0.9721	1.7904	1.4442	0.6504	1.5666	1.4442	0.6049	1.07	1.2204	0.2693	-0.2867	0.9127	1.2763	0.5805	-0.2448	0.9406	-0.5875	0.4371
1.2833	1.2519	1.4582	1.0036	1.8148	1.5141	0.7029	1.5841	1.4162	0.6015	1.1504	1.1959	0.2028	-0.2902	1.0805	1.3742	0.5525	-0.3007	0.9232	-0.6434	0.4616
1.3812	1.2903	1.5701	1.0945	1.8463	1.5666	0.7413	1.612	1.4162	0.5945	1.1959	1.1784	0.1504	-0.2553	1.2274	1.4477	0.514	-0.3462	0.9197	-0.6819	0.521
1.4477	1.3218	1.6365	1.1155	1.9023	1.6365	0.7728	1.619	1.3777	0.5805	1.2589	1.1679	0.1189	-0.2518	1.3253	1.4861	0.4861	-0.3637	0.9022	-0.7238	0.584
1.5141	1.3358	1.7099	1.147	1.9407	1.675	0.8113	1.6295	1.3218	0.5735	1.2938	1.1225	0.0699	-0.2343	1.4232	1.5176	0.4441	-0.4231	0.8987	-0.7553	0.6154
1.5526	1.3288	1.7379	1.119	1.9547	1.675	0.8148	1.598	1.2728	0.5595	1.3113	1.084	0.042	-0.2273	1.4966	1.5246	0.4266	-0.4756	0.8637	-0.8043	0.6399
1.5666	1.3603	1.7869	1.1085	1.9827	1.7029	0.8497	1.633	1.2379	0.535	1.3603	1.049	-0.0035	-0.2098	1.5176	1.4757	0.3846	-0.5105	0.8567	-0.8322	0.6644
1.5701	1.3498	1.8288	1.1085	1.9862	1.7414	0.8882	1.612	1.1819	0.521	1.4092	1.0071	-0.0629	-0.1958	1.5491	1.4582	0.3497	-0.549	0.8008	-0.8427	0.7099
1.5526	1.3428	1.8078	1.07	1.9687	1.7204	0.8672	1.605	1.077	0.4756	1.4127	0.9336	-0.1259	-0.1609	1.5421	1.3812	0.3252	-0.6154	0.7448	-0.8882	0.7099
1.5456	1.3673	1.8288	1.0176	1.9687	1.7309	0.8602	1.6085	1.0141	0.4441	1.4337	0.9022	-0.1643	-0.1329	1.5456	1.3218	0.2483	-0.6539	0.7343	-0.9197	0.7378
1.4966	1.3113	1.7904	0.9616	1.9372	1.696	0.8322	1.5526	0.8882	0.3812	1.4232	0.7868	-0.2238	-0.1189	1.4791	1.2239	0.2028	-0.7064	0.6819	-0.9721	0.7378
1.4337	1.2484	1.7169	0.8777	1.9023	1.6225	0.7973	1.4896	0.7868	0.3427	1.3917	0.6749	-0.2728	-0.0734	1.4407	1.147	0.1643	-0.7518	0.6224	-0.9896	0.7064
1.3288	1.1749	1.689	0.7938	1.8253	1.5841	0.7273	1.4162	0.6679	0.2693	1.3463	0.584	-0.3357	-0.0629	1.3673	1.0281	0.1119	-0.8113	0.556	-1.0351	0.6854
1.2763	1.1609	1.6225	0.7099	1.7799	1.5141	0.7064	1.3393	0.5735	0.2308	1.3183	0.5035	-0.3986	-0.021	1.2728	0.9336	0.0385	-0.8497	0.535	-1.042	0.6959
1.1679	1.119	1.5491	0.6609	1.7239	1.4372	0.6574	1.2833	0.4511	0.1609	1.2589	0.4056	-0.4406	0.007	1.2204	0.8427	-0.0175	-0.9162	0.4756	-1.077	0.6679
1.0945	1.0316	1.4826	0.5595	1.64	1.4022	0.6084	1.1819	0.3357	0.1119	1.2029	0.3007	-0.493	0.0385	1.14	0.6854	-0.0874	-0.9511	0.4476	-1.0875	0.6644
0.9896	0.9581	1.3812	0.5	1.5421	1.3463	0.563	1.1295	0.2063	0.0525	1.1295	0.1713	-0.549	0.0559	1.0246	0.563	-0.1189	-0.9826	0.4231	-1.126	0.6259
0.9022	0.9127	1.2868	0.4301	1.4722	1.3008	0.5245	1.0386	0.1189	0	1.0735	0.0909	-0.563	0.0734	0.9267	0.4581	-0.1609	-1.0036	0.3812	-1.14	0.6189
0.8148	0.8113	1.2344	0.3951	1.3603	1.1994	0.5	0.9232	0	-0.0559	0.9931	-0.0245	-0.598	0.0874	0.8427	0.3392	-0.1888	-1.0595	0.3602	-1.1714	0.5805
0.7203	0.7099	1.1504	0.3672	1.2623	1.1539	0.4406	0.8113	-0.1014	-0.0979	0.8882	-0.1294	-0.6259	0.0874	0.7238	0.2448	-0.1783	-1.1015	0.3112	-1.2099	0.5595
0.6259	0.6294	1.0281	0.3147	1.1679	1.077	0.3812	0.7203	-0.1888	-0.1853	0.8217	-0.2168	-0.6819	0.0804	0.6434	0.1294	-0.1748	-1.1435	0.2832	-1.2379	0.542
0.563	0.5385	0.9581	0.2728	1.0386	0.9931	0.3217	0.591	-0.3112	-0.2518	0.6959	-0.3497	-0.7238	0.0664	0.549	0.0455	-0.1364	-1.2029	0.2413	-1.3008	0.5035
0.4896	0.4406	0.8532	0.2937	0.9336	0.9406	0.2937	0.4826	-0.3951	-0.2972	0.5805	-0.4266	-0.7413	0.0559	0.4651	-0.035	-0.1224	-1.2449	0.1993	-1.3218	0.4511
0.4021	0.3112	0.7938	0.2623	0.8008	0.8392	0.2133	0.3392	-0.507	-0.3951	0.4406	-0.549	-0.7973	0.0315	0.3986	-0.1224	-0.0594	-1.3113	0.1609	-1.3603	0.4126
0.3427	0.2098	0.7099	0.2413	0.6889	0.7448	0.1678	0.1958	-0.6154	-0.4686	0.3252	-0.6609	-0.8532	0.0315	0.3392	-0.1853	-0.042	-1.3463	0.0874	-1.3742	0.3427
0.2972	0.1119	0.6644	0.2413	0.577	0.6889	0.1294	0.0874	-0.7029	-0.5105	0.2063	-0.7343	-0.8742	0.0035	0.3287	-0.1818	-0.007	-1.3987	0.0559	-1.3917	0.2937
0.2343	0.021	0.5875	0.2308	0.4616	0.5595	0.0944	-0.0629	-0.8008	-0.5805	0.0629	-0.8532	-0.9267	-0.0245	0.3042	-0.2413	0.0455	-1.4372	-0.021	-1.4337	0.2168
0.2028	-0.0979	0.528	0.2483	0.3042	0.4861	0.021	-0.1888	-0.8987	-0.6679	-0.0769	-0.9861	-0.9581	-0.042	0.3007	-0.2448	0.1014	-1.4757	-0.1049	-1.4582	0.1259
0.1469	-0.1853	0.4511	0.2413	0.1993	0.3777	-0.021	-0.3147	-1.0036	-0.7273	-0.2343	-1.077	-1.0106	-0.0525	0.3217	-0.2203	0.1189	-1.5351	-0.1643	-1.4826	0.0629
0.1329	-0.2797	0.4056	0.2693	0.0629	0.2623	-0.0699	-0.4511	-1.119	-0.8148	-0.3777	-1.1924	-1.0665	-0.0804	0.3881	-0.2098	0.1539	-1.5701	-0.2238	-1.5281	-0.035
0.1049	-0.3916	0.3287	0.2797	-0.0699	0.1434	-0.0944	-0.6015	-1.2029	-0.8777	-0.5245	-1.2973	-1.1225	-0.0734	0.4196	-0.1469	0.1609	-1.5841	-0.3287	-1.5106	-0.1294
0.0734	-0.514	0.2518	0.2762	-0.1923	0.035	-0.1678	-0.7483	-1.2868	-0.9511	-0.6819	-1.4092	-1.1889	-0.0804	0.4721	-0.0629	0.1574	-1.626	-0.4161	-1.5351	-0.2378
0.049	-0.6434	0.1574	0.2343	-0.3427	-0.1014	-0.2308	-0.8987	-1.4162	-1.0281	-0.8462	-1.5456	-1.2519	-0.0734	0.4896	-0.049	0.1539	-1.675	-0.5105	-1.5351	-0.3602
0.035	-0.7763	0.1049	0.2203	-0.4581	-0.2413	-0.2867	-1.0141	-1.5386	-1.1015	-0.9966	-1.668	-1.3043	-0.0594	0.5315	0.007	0.1294	-1.6855	-0.6119	-1.5316	-0.4686
0.014	-0.8707	0.0245	0.2028	-0.591	-0.3881	-0.3602	-1.147	-1.6505	-1.1574	-1.1504	-1.7764	-1.3498	-0.0455	0.57	0.1049	0.0944	-1.7029	-0.7133	-1.5001	-0.6119
-0.0315	-0.9896	-0.0525	0.1923	-0.7099	-0.5175	-0.4161	-1.2728	-1.7274	-1.2309	-1.3043	-1.8743	-1.4127	-0.035	0.5595	0.1364	0.0734	-1.696	-0.8008	-1.4931	-0.7238
-0.0629	-1.0875	-0.1539	0.1189	-0.8287	-0.6784	-0.4861	-1.3812	-1.8603	-1.2903	-1.4477	-1.9932	-1.4617	-0.0175	0.577	0.2378	0.035	-1.689	-0.8882	-1.4966	-0.8567
-0.0699	-1.2204	-0.2168	0.0629	-0.9302	-0.7798	-0.577	-1.4896	-1.9232	-1.3323	-1.5806	-2.0666	-1.5246	-0.0035	0.57	0.2797	0.0175	-1.696	-1.0036	-1.4722	-1.0036
-0.0874	-1.3148	-0.2902	0.0105	-1.0281	-0.9232	-0.6574	-1.591	-2.0281	-1.4022	-1.7379	-2.1575	-1.5771	0.021	0.6049	0.3602	-0.014	-1.6715	-1.0525	-1.4162	-1.1295
-0.1154	-1.3952	-0.3707	-0.0769	-1.105	-1.049	-0.7308	-1.668	-2.1086	-1.4477	-1.8533	-2.2519	-1.5666	0.021	0.5945	0.4301	-0.0385	-1.6505	-1.1225	-1.3812	-1.2589
-0.1154	-1.4687	-0.4161	-0.1399	-1.1714	-1.1295	-0.8008	-1.7379	-2.168	-1.4861	-1.9372	-2.3079	-1.6085	0.035	0.6189	0.4616	-0.049	-1.605	-1.1854	-1.3288	-1.3603
-0.1364	-1.5281	-0.5	-0.2273	-1.2589	-1.2169	-0.8427	-1.8009	-2.2205	-1.5036	-2.0107	-2.3638	-1.6225	0.028	0.6469	0.535	-0.049	-1.5631	-1.2309	-1.2728	-1.4582
-0.1469	-1.6015	-0.5525	-0.3392	-1.2903	-1.3113	-0.9406	-1.8638	-2.2729	-1.5421	-2.0981	-2.4163	-1.647	0.028	0.6749	0.563	-0.042	-1.5491	-1.2903	-1.2274	-1.5701
-0.1888	-1.6225	-0.6084	-0.4091	-1.3323	-1.4022	-0.9826	-1.8918	-2.2939	-1.5561	-2.14	-2.4443	-1.6715	0.014	0.6889	0.598	-0.0315	-1.4791	-1.3358	-1.1609	-1.654
-0.1958	-1.661	-0.6469	-0.5035	-1.3568	-1.4582	-1.0735	-1.8883	-2.2904	-1.5526	-2.161	-2.4233	-1.647	0.014	0.7343	0.6154	-0.0245	-1.3952	-1.3463	-1.0735	-1.7274
-0.1923	-1.6994	-0.6889	-0.5805	-1.3463	-1.5106	-1.1295	-1.8778	-2.2659	-1.5456	-2.2065	-2.4128	-1.6015	0.0035	0.7273	0.6434	-0.007	-1.3323	-1.3498	-0.9826	-1.7694
-0.2098	-1.7134	-0.7553	-0.6784	-1.3533	-1.5631	-1.1889	-1.8778	-2.2275	-1.5246	-2.2345	-2.3778	-1.5875	-0.0105	0.7064	0.549	0.021	-1.2414	-1.3533	-0.8987	-1.8498
-0.2553	-1.7169	-0.7833	-0.8217	-1.3323	-1.5806	-1.1994	-1.8218	-2.2065	-1.4861	-2.203	-2.3324	-1.5141	-0.021	0.6889	0.5245	0.035	-1.147	-1.3707	-0.8252	-1.8813
-0.2797	-1.7134	-0.8322	-0.9127	-1.2868	-1.5771	-1.2554	-1.7449	-2.1226	-1.4582	-2.1226	-2.2694	-1.4512	0.007	0.6609	0.4546	0.014	-1.056	-1.3288	-0.7448	-1.8988
-0.3042	-1.682	-0.8462	-1.0036	-1.2519	-1.5596	-1.2658	-1.6855	-2.0247	-1.3882	-2.0876	-2.1365	-1.3428	-0.0035	0.6399	0.3322	-0.0105	-0.9371	-1.2868	-0.6189	-1.9267
-0.3357	-1.689	-0.8847	-1.1155	-1.2029	-1.5596	-1.3008	-1.605	-1.9267	-1.3323	-2.0177	-2.0212	-1.2693	0.042	0.6015	0.2343	-0.0699	-0.8427	-1.2519	-0.4965	-1.8918
-0.3951	-1.682	-0.9302	-1.2064	-1.1679	-1.5491	-1.3183	-1.5246	-1.8148	-1.2693	-1.9477	-1.8988	-1.1749	0.049	0.5945	0.1469	-0.1119	-0.7588	-1.2414	-0.3986	-1.8813
-0.4196	-1.682	-0.9581	-1.3078	-1.105	-1.5176	-1.3533	-1.4092	-1.6925	-1.1679	-1.8498	-1.7449	-1.049	0.0979	0.5455	0.0315	-0.1923	-0.6154	-1.1644	-0.2762	-1.8428
-0.5	-1.6715	-0.9896	-1.4197	-1.042	-1.4826	-1.3568	-1.3113	-1.5666	-1.0945	-1.7519	-1.6085	-0.9476	0.1364	0.4651	-0.1364	-0.2762	-0.5	-1.1295	-0.1643	-1.7904
-0.549	-1.6365	-1.0071	-1.4652	-0.9756	-1.4442	-1.3393	-1.2029	-1.4477	-0.9791	-1.64	-1.4442	-0.8078	0.1853	0.4161	-0.2413	-0.3777	-0.3846	-1.049	-0.042	-1.7204
-0.6434	-1.6435	-1.091	-1.605	-0.9232	-1.4267	-1.3707	-1.1085	-1.3498	-0.8952	-1.5631	-1.3078	-0.7308	0.2413	0.3567	-0.4196	-0.4651	-0.2728	-0.9931	0.0594	-1.7099
-0.7133	-1.6505	-1.1015	-1.6994	-0.8567	-1.3882	-1.3288	-1.0036	-1.2029	-0.7938	-1.4302	-1.147	-0.6015	0.2797	0.2588	-0.563	-0.5595	-0.1748	-0.9232	0.1539	-1.6225
-0.7833	-1.654	-1.1435	-1.7729	-0.8113	-1.3917	-1.3393	-0.8707	-1.0735	-0.6714	-1.3253	-0.9966	-0.4721	0.3357	0.1783	-0.6994	-0.6679	-0.0699	-0.8637	0.2588	-1.5456
-0.8567	-1.64	-1.1889	-1.8428	-0.7483	-1.3498	-1.3043	-0.7658	-0.9686	-0.577	-1.2239	-0.8567	-0.3322	0.3707	0.1189	-0.8322	-0.7483	0.0385	-0.8008	0.3427	-1.4896
-0.9581	-1.64	-1.2099	-1.9058	-0.6924	-1.3218	-1.2798	-0.6609	-0.8462	-0.4686	-1.105	-0.6679	-0.2063	0.4231	0.0245	-0.9616	-0.8497	0.1259	-0.7273	0.4546	-1.3812
-1.0071	-1.668	-1.2519	-1.9407	-0.6294	-1.2658	-1.2379	-0.549	-0.7168	-0.3462	-0.9861	-0.4965	-0.0629	0.4756	-0.0525	-1.077	-0.9441	0.2203	-0.6504	0.535	-1.2763
-1.084	-1.682	-1.2693	-1.9932	-0.5805	-1.2379	-1.2239	-0.4616	-0.6015	-0.2343	-0.8917	-0.3427	0.0525	0.507	-0.1049	-1.1539	-1.0071	0.2867	-0.5875	0.6434	-1.2379
-1.1574	-1.682	-1.2728	-1.9967	-0.5315	-1.2064	-1.1609	-0.3812	-0.5	-0.1364	-0.7833	-0.2063	0.1469	0.5385	-0.1643	-1.2484	-1.077	0.3812	-0.4896	0.7029	-1.133
-1.2379	-1.7239	-1.3463	-2.0491	-0.5105	-1.1749	-1.1365	-0.3497	-0.3951	-0.0455	-0.7064	-0.0944	0.2413	0.549	-0.2693	-1.3218	-1.1015	0.4441	-0.4091	0.7868	-1.0805
-1.2938	-1.7449	-1.3463	-2.0456	-0.4861	-1.133	-1.0875	-0.2867	-0.3042	0.0175	-0.6364	-0.0035	0.3147	0.5735	-0.3392	-1.3707	-1.126	0.4581	-0.3637	0.8148	-1.0141
-1.3812	-1.7449	-1.3707	-2.0631	-0.4581	-1.1085	-1.0386	-0.2098	-0.2308	0.0699	-0.5875	0.0839	0.3707	0.57	-0.4021	-1.4197	-1.133	0.514	-0.3007	0.8392	-0.9686
-1.4372	-1.7974	-1.3777	-2.0491	-0.4581	-1.098	-1.042	-0.1609	-0.1678	0.1189	-0.556	0.1469	0.4021	0.556	-0.4756	-1.4617	-1.1155	0.5175	-0.2343	0.8707	-0.9406
-1.5001	-1.7939	-1.3847	-2.0526	-0.4371	-1.0455	-0.9756	-0.1469	-0.1014	0.1643	-0.535	0.2273	0.4266	0.5525	-0.5105	-1.4896	-1.1085	0.514	-0.2098	0.8952	-0.9092
-1.5351	-1.8288	-1.3987	-2.0456	-0.4266	-1.042	-0.9651	-0.1364	-0.0699	0.1818	-0.5105	0.2588	0.4616	0.549	-0.6119	-1.5106	-1.0875	0.5315	-0.1678	0.9022	-0.8777
-1.598	-1.8603	-1.3777	-2.0631	-0.4371	-1.0176	-0.9546	-0.1364	-0.0594	0.1748	-0.535	0.2413	0.3916	0.514	-0.6364	-1.5491	-1.0141	0.4756	-0.1364	0.8742	-0.8882
-1.661	-1.9197	-1.4092	-2.0946	-0.4721	-1.0281	-0.9581	-0.1434	-0.0699	0.1224	-0.5525	0.2238	0.3497	0.4826	-0.6924	-1.5561	-0.9651	0.4231	-0.1294	0.8427	-0.9057
-1.682	-1.9162	-1.4057	-2.0771	-0.4861	-1.0281	-0.9546	-0.1993	-0.0769	0.1294	-0.5805	0.1853	0.2867	0.4371	-0.6959	-1.5351	-0.8777	0.3392	-0.1259	0.7973	-0.9336
-1.7204	-1.9547	-1.3673	-2.0946	-0.528	-1.0525	-0.9721	-0.2343	-0.1539	0.0594	-0.6504	0.1014	0.1923	0.4021	-0.6924	-1.5071	-0.8043	0.2762	-0.0979	0.7518	-0.9476
-1.7484	-1.9722	-1.3952	-2.0806	-0.5665	-1.0735	-0.9966	-0.2902	-0.2098	-0.0525	-0.7273	0.0245	0.0594	0.3532	-0.6889	-1.4687	-0.7099	0.1748	-0.1119	0.6749	-1.0036
-1.7834	-1.9932	-1.3638	-2.0876	-0.6259	-1.0735	-1.0211	-0.3812	-0.2972	-0.1259	-0.8322	-0.1084	-0.0874	0.2937	-0.6644	-1.4197	-0.6049	0.0455	-0.1119	0.6049	-1.0176
-1.7659	-1.9862	-1.3288	-2.1016	-0.6294	-1.0945	-1.063	-0.4581	-0.4266	-0.2273	-0.9127	-0.2238	-0.2483	0.2658	-0.6189	-1.3043	-0.535	-0.0629	-0.1084	0.5525	-1.0386
-1.7554	-1.9757	-1.3043	-2.0631	-0.6924	-1.105	-1.07	-0.5035	-0.514	-0.3182	-0.9651	-0.3462	-0.3916	0.2238	-0.507	-1.1819	-0.4651	-0.1748	-0.0979	0.493	-1.049
-1.7134	-1.9827	-1.2658	-2.0456	-0.7203	-1.1504	-1.133	-0.598	-0.6539	-0.4581	-1.07	-0.5	-0.549	0.2098	-0.4266	-1.063	-0.4056	-0.3042	-0.1084	0.3881	-1.084
-1.6785	-1.9407	-1.2064	-2.0561	-0.7203	-1.1644	-1.1539	-0.6819	-0.7518	-0.556	-1.1574	-0.6504	-0.7448	0.1818	-0.3007	-0.8812	-0.3602	-0.4371	-0.1119	0.2972	-1.105
-1.6155	-1.9512	-1.1679	-2.0281	-0.7623	-1.1994	-1.1994	-0.7518	-0.8987	-0.6784	-1.2658	-0.8148	-0.9267	0.1539	-0.1574	-0.7064	-0.3182	-0.5665	-0.1434	0.2238	-1.1504
-1.5561	-1.9652	-1.1539	-2.0177	-0.7868	-1.2484	-1.2693	-0.8602	-1.063	-0.8322	-1.3742	-1.0001	-1.147	0.1434	0.0035	-0.5035	-0.2937	-0.7203	-0.1678	0.1434	-1.1959
-1.5386	-1.9512	-1.1155	-2.0386	-0.8427	-1.3113	-1.3533	-0.9546	-1.2344	-0.9861	-1.4861	-1.1889	-1.3707	0.1364	0.1259	-0.3846	-0.2728	-0.8707	-0.2168	0.0525	-1.2379
-1.4966	-1.9407	-1.1225	-2.0596	-0.8812	-1.3568	-1.3882	-1.0455	-1.3847	-1.147	-1.5806	-1.3673	-1.5771	0.1329	0.3252	-0.2168	-0.2693	-0.9966	-0.2518	-0.042	-1.2798
-1.4407	-1.9337	-1.0735	-2.0736	-0.9127	-1.3882	-1.4652	-1.1155	-1.5631	-1.2938	-1.696	-1.5491	-1.7624	0.1364	0.4686	-0.0979	-0.2832	-1.1609	-0.2937	-0.1294	-1.2903
-1.4232	-1.9582	-1.1015	-2.1016	-0.9721	-1.4896	-1.5561	-1.2519	-1.7624	-1.4791	-1.8044	-1.7274	-2.0002	0.1434	0.6294	0.0629	-0.3007	-1.2868	-0.3637	-0.2273	-1.3603
-1.3952	-1.9757	-1.105	-2.1365	-0.9966	-1.5736	-1.6575	-1.3218	-1.9302	-1.6505	-1.9058	-1.9058	-2.1855	0.1539	0.7693	0.1713	-0.3392	-1.4162	-0.4126	-0.3077	-1.3882
-1.3673	-1.9792	-1.1015	-2.154	-1.0386	-1.6295	-1.7449	-1.4372	-2.0876	-1.7939	-2.0037	-2.0456	-2.3813	0.1713	0.8777	0.2308	-0.3637	-1.5491	-0.4616	-0.3986	-1.4582
-1.3847	-2.0177	-1.1365	-2.224	-1.0945	-1.7309	-1.8708	-1.5386	-2.2799	-1.9792	-2.1226	-2.2554	-2.5946	0.1923	0.9441	0.2518	-0.3777	-1.668	-0.563	-0.4861	-1.5106
-1.4022	-2.0212	-1.1854	-2.2694	-1.133	-1.8148	-1.9442	-1.6015	-2.4478	-2.1296	-2.2135	-2.4128	-2.7625	0.2063	1.0176	0.2553	-0.4196	-1.7799	-0.6259	-0.5945	-1.5666
-1.4302	-2.0666	-1.2309	-2.3534	-1.1644	-1.8918	-2.0596	-1.6855	-2.6226	-2.3114	-2.3009	-2.5527	-2.9513	0.2098	1.0455	0.2413	-0.4336	-1.8638	-0.6924	-0.6784	-1.612
-1.4442	-2.0946	-1.2938	-2.4268	-1.2029	-1.9687	-2.1365	-1.7904	-2.7835	-2.4373	-2.4023	-2.717	-3.1296	0.2343	1.0176	0.2168	-0.4651	-1.9442	-0.8078	-0.7413	-1.6785
-1.4966	-2.1575	-1.3428	-2.4932	-1.2344	-2.0596	-2.2415	-1.8778	-2.9373	-2.6086	-2.4792	-2.8744	-3.308	0.2483	1.0071	0.1678	-0.507	-2.0386	-0.8847	-0.8252	-1.7589
-1.5666	-2.1925	-1.4407	-2.5946	-1.2868	-2.1925	-2.3149	-1.9442	-3.1296	-2.773	-2.5771	-3.0352	-3.4583	0.2588	0.9371	0.1119	-0.535	-2.1121	-1.0036	-0.8987	-1.8288
-1.6085	-2.238	-1.4861	-2.6541	-1.3148	-2.2624	-2.3918	-2.0037	-3.2625	-2.8779	-2.6226	-3.1506	-3.5528	0.3007	0.8987	0.0909	-0.598	-2.1435	-1.098	-0.9546	-1.8988
-1.654	-2.3044	-1.5386	-2.703	-1.3498	-2.3219	-2.4722	-2.0526	-3.3989	-3.0038	-2.6786	-3.2695	-3.6716	0.3147	0.8602	0.0455	-0.6434	-2.2135	-1.1854	-1.0071	-1.9477
-1.7169	-2.3394	-1.605	-2.7625	-1.3742	-2.4198	-2.5317	-2.1121	-3.5423	-3.1436	-2.731	-3.4024	-3.7766	0.3392	0.8287	0	-0.6819	-2.2205	-1.2798	-1.0945	-2.0177
-1.7379	-2.3324	-1.6645	-2.787	-1.4022	-2.4687	-2.5702	-2.1331	-3.6681	-3.2206	-2.7625	-3.5073	-3.8605	0.3567	0.7868	-0.021	-0.7238	-2.224	-1.3393	-1.105	-2.0561
-1.8148	-2.3918	-1.7134	-2.8184	-1.4057	-2.5422	-2.5841	-2.168	-3.7766	-3.28	-2.8044	-3.6227	-3.9409	0.3881	0.7483	-0.042	-0.7693	-2.2205	-1.4232	-1.14	-2.1156
-1.8673	-2.4338	-1.7799	-2.8779	-1.4022	-2.6156	-2.6331	-2.2065	-3.8989	-3.3744	-2.8359	-3.7451	-3.9934	0.3916	0.7133	-0.0455	-0.7903	-2.2415	-1.5106	-1.1924	-2.203
-1.8988	-2.4548	-1.8218	-2.8674	-1.4162	-2.6751	-2.6646	-2.2135	-4.0283	-3.4234	-2.8394	-3.8535	-4.0283	0.4231	0.6784	-0.0594	-0.8322	-2.2205	-1.5526	-1.2064	-2.2415
-1.9932	-2.5387	-1.8988	-2.9163	-1.4931	-2.7695	-2.6995	-2.2904	-4.1682	-3.5108	-2.8709	-4.0073	-4.1402	0.4196	0.6049	-0.0944	-0.8497	-2.2345	-1.6505	-1.2728	-2.2974
-2.0421	-2.5911	-1.9477	-2.9408	-1.4791	-2.8324	-2.738	-2.3079	-4.2661	-3.5563	-2.8919	-4.1018	-4.1577	0.4301	0.5385	-0.1084	-0.8777	-2.224	-1.7099	-1.3358	-2.3429
-2.1051	-2.6436	-2.0386	-2.9723	-1.5386	-2.9233	-2.745	-2.3394	-4.3745	-3.5912	-2.9093	-4.2102	-4.1857	0.4546	0.4826	-0.1364	-0.9127	-2.224	-1.7834	-1.3533	-2.3778
-2.196	-2.717	-2.147	-2.9968	-1.591	-3.0142	-2.7835	-2.3673	-4.5074	-3.6402	-2.9268	-4.329	-4.2171	0.4546	0.4266	-0.1818	-0.9267	-2.217	-1.8358	-1.4127	-2.3953
-2.3219	-2.8009	-2.238	-3.0632	-1.6925	-3.1192	-2.8359	-2.4303	-4.6508	-3.7206	-2.9478	-4.4584	-4.2661	0.4441	0.3252	-0.2378	-0.8952	-2.231	-1.8883	-1.5036	-2.4303
-2.4163	-2.9198	-2.3638	-3.0772	-1.7414	-3.2101	-2.8919	-2.4478	-4.7766	-3.7311	-2.9513	-4.5703	-4.2626	0.4441	0.2413	-0.2693	-0.9022	-2.1995	-1.9023	-1.5281	-2.4338
-2.5072	-3.0073	-2.4757	-3.1017	-1.8183	-3.315	-2.9303	-2.5072	-4.9025	-3.787	-2.9513	-4.6508	-4.2626	0.4336	0.1539	-0.3252	-0.8917	-2.189	-1.9407	-1.598	-2.4198
-2.5981	-3.1122	-2.5841	-3.1261	-1.8953	-3.4199	-2.9583	-2.5282	-5.0074	-3.815	-2.9338	-4.7557	-4.2521	0.4126	0.0944	-0.3567	-0.8427	-2.168	-1.9687	-1.6575	-2.4093
-2.6855	-3.2031	-2.696	-3.1681	-1.9862	-3.4968	-2.9828	-2.5457	-5.1053	-3.829	-2.9093	-4.8396	-4.2451	0.4056	0.0105	-0.4441	-0.8148	-2.1365	-1.9652	-1.7064	-2.3534
-2.8114	-3.3115	-2.8149	-3.1926	-2.0806	-3.5912	-3.0317	-2.5946	-5.2032	-3.8745	-2.8604	-4.906	-4.2241	0.3707	-0.0629	-0.4965	-0.7868	-2.0981	-1.9547	-1.7484	-2.3079
-2.9163	-3.4444	-2.9513	-3.245	-2.1505	-3.6856	-3.0597	-2.6121	-5.2907	-3.864	-2.8114	-4.9585	-4.1857	0.3602	-0.1853	-0.6015	-0.7308	-2.0911	-1.9617	-1.8288	-2.2345
-3.0387	-3.5423	-3.0737	-3.273	-2.2554	-3.794	-3.1296	-2.6121	-5.3921	-3.8884	-2.766	-5.0144	-4.1822	0.3147	-0.2728	-0.7029	-0.6574	-2.0701	-1.9442	-1.9023	-2.147
-3.1506	-3.6122	-3.1646	-3.3255	-2.2974	-3.864	-3.1611	-2.6261	-5.441	-3.871	-2.689	-5.0074	-4.1332	0.2902	-0.3602	-0.7728	-0.5945	-2.0386	-1.9267	-1.9687	-2.0456
-3.245	-3.7031	-3.301	-3.3604	-2.3743	-3.9304	-3.2031	-2.6401	-5.504	-3.8954	-2.5911	-5.0039	-4.1018	0.2483	-0.4441	-0.8952	-0.5035	-2.0072	-1.8708	-2.0212	-1.9058
-3.3674	-3.808	-3.4374	-3.4444	-2.4513	-4.0038	-3.2835	-2.6191	-5.5774	-3.9129	-2.4862	-5.0179	-4.0633	0.1818	-0.57	-1.0106	-0.3777	-2.0072	-1.8393	-2.1226	-1.8218
-3.4723	-3.8954	-3.5597	-3.4863	-2.4897	-4.0738	-3.336	-2.6016	-5.5739	-3.9129	-2.3708	-4.9829	-4.0038	0.1364	-0.6259	-1.147	-0.2797	-1.9862	-1.8044	-2.1855	-1.696
-3.5982	-3.9968	-3.6681	-3.5947	-2.5597	-4.1297	-3.4304	-2.5946	-5.5949	-3.9514	-2.2519	-4.927	-3.9549	0.0699	-0.7448	-1.2903	-0.1609	-1.9967	-1.7484	-2.3184	-1.5561
-3.7171	-4.0528	-3.7731	-3.6821	-2.6016	-4.1612	-3.4933	-2.5527	-5.6054	-3.9619	-2.1156	-4.8571	-3.9234	0.007	-0.8357	-1.4512	-0.042	-1.9862	-1.6855	-2.3953	-1.4057
-3.843	-4.1682	-3.9024	-3.794	-2.6681	-4.2171	-3.6052	-2.5492	-5.5669	-3.9724	-1.9967	-4.7731	-3.878	-0.0664	-0.9336	-1.6015	0.1084	-2.0002	-1.668	-2.5212	-1.2798
-3.9444	-4.2346	-4.0003	-3.9164	-2.6925	-4.2451	-3.7066	-2.5002	-5.5809	-4.0213	-1.8393	-4.6647	-3.857	-0.1259	-1.0595	-1.7974	0.2378	-2.0037	-1.5841	-2.6576	-1.1539
-4.0948	-4.3395	-4.1297	-4.0528	-2.759	-4.3046	-3.7975	-2.4757	-5.5669	-4.0598	-1.6994	-4.5773	-3.822	-0.1818	-1.1854	-1.9792	0.3672	-2.0491	-1.5631	-2.787	-1.0281
-4.2346	-4.4165	-4.2206	-4.1927	-2.7974	-4.3116	-3.9234	-2.4652	-5.5145	-4.0913	-1.5491	-4.413	-3.7696	-0.2553	-1.3288	-2.182	0.4965	-2.0701	-1.4931	-2.9268	-0.8847
-4.3395	-4.5004	-4.357	-4.364	-2.8639	-4.357	-4.0598	-2.4408	-5.4725	-4.1472	-1.3882	-4.2696	-3.7381	-0.3182	-1.4617	-2.3499	0.6119	-2.0946	-1.4617	-3.0702	-0.7553
-4.4759	-4.6123	-4.4514	-4.5319	-2.9303	-4.3955	-4.1962	-2.4023	-5.4305	-4.2032	-1.2274	-4.0983	-3.7101	-0.3567	-1.598	-2.5247	0.6959	-2.1261	-1.3987	-3.2066	-0.6119
-4.6053	-4.7032	-4.6123	-4.7347	-3.0038	-4.4584	-4.35	-2.4023	-5.4305	-4.3011	-1.0805	-3.9724	-3.7031	-0.4231	-1.7589	-2.717	0.8183	-2.182	-1.3777	-3.4059	-0.5
-4.7312	-4.8186	-4.7067	-4.906	-3.0877	-4.5319	-4.5249	-2.3988	-5.4131	-4.3605	-0.9511	-3.822	-3.6996	-0.4721	-1.8918	-2.8884	0.9092	-2.231	-1.3428	-3.5423	-0.3812
-4.8815	-4.9305	-4.8431	-5.1228	-3.1786	-4.6158	-4.6962	-2.4093	-5.3851	-4.4549	-0.8043	-3.6192	-3.6891	-0.514	-1.9827	-3.0457	0.9896	-2.3009	-1.2938	-3.6926	-0.2483
-5.0179	-5.0704	-4.9969	-5.3921	-3.287	-4.7277	-4.899	-2.4443	-5.427	-4.5493	-0.6819	-3.4898	-3.7136	-0.5525	-2.147	-3.28	1.0875	-2.3429	-1.3078	-3.9059	-0.1539
-5.1998	-5.2102	-5.1473	-5.6019	-3.4129	-4.8501	-5.0879	-2.4443	-5.4305	-4.6787	-0.5805	-3.3779	-3.7521	-0.5875	-2.2659	-3.3919	1.1574	-2.4373	-1.2658	-4.0738	-0.035
-5.3606	-5.3606	-5.3536	-5.8502	-3.5563	-5.0109	-5.3221	-2.4932	-5.476	-4.8256	-0.507	-3.2485	-3.794	-0.6259	-2.3813	-3.5982	1.2274	-2.4967	-1.2623	-4.2556	0.0559
-5.5459	-5.525	-5.5564	-6.1229	-3.6786	-5.2207	-5.5774	-2.5771	-5.5599	-4.9795	-0.4231	-3.1716	-3.85	-0.6609	-2.5387	-3.7591	1.2938	-2.5946	-1.2658	-4.4654	0.1434
-5.7487	-5.7313	-5.7767	-6.4027	-3.864	-5.4585	-5.8222	-2.6401	-5.6473	-5.1543	-0.3742	-3.0877	-3.9269	-0.6854	-2.6681	-3.9339	1.3568	-2.689	-1.2728	-4.6717	0.2343
-5.9725	-5.9271	-6.0145	-6.7209	-4.0213	-5.7068	-6.0844	-2.696	-5.7662	-5.3326	-0.3252	-3.0247	-4.0388	-0.7133	-2.7974	-4.1332	1.4197	-2.8044	-1.2693	-4.885	0.3427
-6.2068	-6.1369	-6.2593	-6.9971	-4.1857	-5.9446	-6.3432	-2.759	-5.8746	-5.497	-0.2413	-2.9793	-4.1262	-0.7308	-2.9373	-4.2976	1.4547	-2.9233	-1.3008	-5.0634	0.4336
-6.4236	-6.3397	-6.539	-7.3223	-4.385	-6.2138	-6.6299	-2.8499	-6.011	-5.7243	-0.2098	-2.9583	-4.2171	-0.7658	-3.0772	-4.4934	1.5176	-3.0317	-1.3253	-5.2907	0.5
-6.7104	-6.574	-6.8572	-7.658	-4.5389	-6.5285	-6.9027	-2.9233	-6.1509	-5.9341	-0.1923	-2.9338	-4.336	-0.8008	-3.259	-4.7067	1.5771	-3.1541	-1.3358	-5.497	0.6119
-6.9621	-6.7943	-7.1335	-7.9727	-4.7137	-6.7978	-7.1545	-3.0073	-6.3082	-6.1124	-0.1853	-2.9548	-4.4514	-0.8113	-3.4234	-4.8641	1.619	-3.2625	-1.3393	-5.6823	0.7029
-7.2349	-7.0181	-7.4517	-8.2769	-4.8955	-7.1125	-7.4552	-3.0772	-6.4621	-6.3152	-0.1643	-2.9338	-4.5493	-0.8532	-3.5877	-5.0599	1.675	-3.4024	-1.3358	-5.8851	0.8113
-7.4797	-7.2139	-7.7419	-8.5812	-5.0284	-7.4027	-7.672	-3.1122	-6.588	-6.5041	-0.1539	-2.9233	-4.6612	-0.8742	-3.7346	-5.2592	1.7204	-3.5073	-1.3113	-6.0495	0.9616
-7.7209	-7.4097	-8.0217	-8.8259	-5.1333	-7.6615	-7.8993	-3.1681	-6.7104	-6.6299	-0.1469	-2.9373	-4.7382	-0.8952	-3.843	-5.3921	1.7729	-3.6017	-1.2798	-6.1928	1.063
-7.9203	-7.5636	-8.2699	-9.0917	-5.2382	-7.8818	-8.0881	-3.1926	-6.8083	-6.7488	-0.1224	-2.9373	-4.7941	-0.9267	-3.9479	-5.5529	1.8428	-3.6716	-1.2414	-6.3327	1.1959
-8.1406	-7.7209	-8.5182	-9.305	-5.3501	-8.0951	-8.2455	-3.2101	-6.8852	-6.8572	-0.1014	-2.9548	-4.8466	-0.9651	-4.0563	-5.6473	1.9232	-3.7276	-1.1854	-6.4306	1.3358
-8.2909	-7.8259	-8.721	-9.4763	-5.3991	-8.263	-8.3644	-3.2066	-6.9272	-6.9482	-0.0839	-2.9548	-4.899	-0.9826	-4.1227	-5.7453	1.9967	-3.794	-1.133	-6.5425	1.4547
-8.5112	-7.9343	-8.9378	-9.6232	-5.4515	-8.4343	-8.4518	-3.2101	-6.9831	-7.0111	-0.0804	-2.9898	-4.9375	-1.056	-4.1682	-5.8781	2.1051	-3.808	-1.07	-6.623	1.5736
-8.6196	-8.0077	-9.0497	-9.7351	-5.462	-8.5217	-8.4763	-3.1576	-6.9691	-7.0076	-0.0664	-2.9548	-4.9235	-1.105	-4.2241	-5.9446	2.1995	-3.843	-1.0001	-6.6614	1.6855
-8.7105	-8.0182	-9.1896	-9.8085	-5.4655	-8.5951	-8.4937	-3.1157	-6.9342	-6.9796	-0.0594	-2.9478	-4.8885	-1.1609	-4.2381	-5.983	2.3044	-3.8255	-0.9162	-6.6439	1.8113
-8.7805	-8.0601	-9.27	-9.847	-5.4445	-8.6511	-8.4798	-3.0947	-6.8712	-6.9342	-0.035	-2.9093	-4.8326	-1.2029	-4.2626	-6.0215	2.3883	-3.7661	-0.8392	-6.6264	1.9162
-8.8329	-8.0706	-9.312	-9.84	-5.3641	-8.5951	-8.4028	-3.0177	-6.7943	-6.8153	-0.0105	-2.8534	-4.7347	-1.2379	-4.2556	-6.0844	2.4618	-3.6926	-0.7658	-6.567	2.0631
-8.8294	-8.0287	-9.3085	-9.819	-5.2942	-8.5217	-8.3049	-2.9338	-6.6509	-6.6789	0.007	-2.773	-4.6228	-1.2623	-4.2171	-6.1019	2.5282	-3.5772	-0.6749	-6.4516	2.175
-8.7945	-7.9727	-9.2665	-9.7421	-5.1998	-8.4098	-8.1685	-2.8114	-6.5111	-6.539	0.028	-2.6786	-4.4724	-1.3043	-4.2067	-6.1159	2.5841	-3.4513	-0.5805	-6.3607	2.2869
-8.7665	-7.9063	-9.2141	-9.6652	-5.0774	-8.3224	-7.9937	-2.717	-6.3187	-6.3607	0.0525	-2.6016	-4.3221	-1.3358	-4.1927	-6.1299	2.6436	-3.294	-0.5035	-6.1998	2.3918
-8.7105	-7.7944	-9.1267	-9.5882	-4.9655	-8.186	-7.8433	-2.6226	-6.1614	-6.1789	0.0839	-2.5282	-4.1647	-1.3742	-4.1717	-6.1579	2.7065	-3.1157	-0.4091	-6.0705	2.4618
-8.6231	-7.707	-9.0322	-9.4554	-4.8291	-8.0217	-7.665	-2.5212	-5.9621	-5.9411	0.1154	-2.4373	-3.9899	-1.3882	-4.1682	-6.1858	2.752	-2.9233	-0.3322	-5.8641	2.5422
-8.5672	-7.5986	-8.9064	-9.333	-4.6892	-7.8398	-7.4762	-2.4268	-5.7732	-5.7627	0.1154	-2.3603	-3.815	-1.4267	-4.1892	-6.2418	2.8079	-2.752	-0.2658	-5.6823	2.6191
-8.4902	-7.4517	-8.7385	-9.2141	-4.5563	-7.623	-7.2664	-2.3324	-5.5809	-5.5424	0.1609	-2.2834	-3.6402	-1.4442	-4.2521	-6.2733	2.8639	-2.5736	-0.2063	-5.4865	2.6646
-8.3958	-7.3293	-8.6301	-9.0602	-4.4339	-7.4237	-7.0775	-2.2415	-5.3676	-5.3501	0.1748	-2.168	-3.4793	-1.4617	-4.3046	-6.3082	2.8989	-2.3778	-0.1643	-5.2907	2.6855
-8.2839	-7.2104	-8.4413	-8.9308	-4.3116	-7.2139	-6.8922	-2.154	-5.1718	-5.1403	0.1818	-2.0946	-3.308	-1.4757	-4.371	-6.3572	2.9128	-2.1785	-0.1049	-5.1053	2.724
-8.193	-7.081	-8.2874	-8.8015	-4.1752	-6.9796	-6.6929	-2.0806	-4.9515	-4.948	0.1993	-2.0142	-3.1506	-1.4966	-4.427	-6.4201	2.9408	-1.9827	-0.0839	-4.892	2.696
-8.0496	-6.9027	-8.0671	-8.6056	-4.0353	-6.7244	-6.5006	-1.9932	-4.7277	-4.7452	0.2518	-1.9197	-2.9758	-1.4826	-4.4899	-6.4096	2.9268	-1.7694	-0.0559	-4.6577	2.696
-7.8958	-6.7593	-7.8433	-8.4203	-3.8954	-6.4831	-6.3047	-1.9372	-4.5214	-4.5424	0.2762	-1.8743	-2.8394	-1.4547	-4.5424	-6.4166	2.8919	-1.598	-0.049	-4.4339	2.6506
-7.7524	-6.602	-7.644	-8.3049	-3.787	-6.2313	-6.1124	-1.8708	-4.343	-4.392	0.3112	-1.8078	-2.752	-1.4442	-4.6263	-6.4201	2.8604	-1.4407	-0.042	-4.2556	2.6121
-7.5986	-6.4691	-7.4237	-8.1511	-3.6716	-6.0215	-5.9446	-1.8358	-4.1822	-4.1927	0.2937	-1.7764	-2.6261	-1.4162	-4.6333	-6.3922	2.7939	-1.2938	-0.0629	-4.0353	2.5282
-7.4342	-6.3117	-7.1999	-7.9762	-3.5528	-5.7837	-5.7662	-1.7834	-4.0003	-4.0423	0.3077	-1.7519	-2.5247	-1.3673	-4.6892	-6.3537	2.703	-1.1504	-0.0629	-3.836	2.4652
-7.2629	-6.1509	-6.9551	-7.8049	-3.4548	-5.5599	-5.6124	-1.7379	-3.8465	-3.9234	0.3077	-1.7064	-2.4722	-1.3043	-4.6752	-6.2593	2.5946	-1.0246	-0.0979	-3.6681	2.3708
-7.0391	-5.9865	-6.7104	-7.6195	-3.3744	-5.3431	-5.441	-1.7239	-3.6716	-3.801	0.3077	-1.6575	-2.4023	-1.2379	-4.6577	-6.1824	2.4513	-0.9022	-0.1154	-3.4863	2.2764
-6.8747	-5.8432	-6.4936	-7.4482	-3.308	-5.1543	-5.3151	-1.6994	-3.5493	-3.6996	0.3042	-1.682	-2.3883	-1.1679	-4.6053	-6.0774	2.3114	-0.8113	-0.1713	-3.308	2.1785
-6.6509	-5.6893	-6.2418	-7.2664	-3.2171	-4.934	-5.1333	-1.696	-3.4129	-3.5702	0.3042	-1.668	-2.3429	-1.084	-4.5284	-5.9026	2.147	-0.7168	-0.2133	-3.1052	2.0736
-6.4201	-5.5494	-5.9865	-7.0775	-3.1716	-4.7626	-5.0144	-1.6855	-3.308	-3.4863	0.2972	-1.654	-2.3324	-1.0001	-4.42	-5.7313	1.9792	-0.6294	-0.2273	-2.9653	1.9582
-6.1544	-5.3781	-5.7068	-6.8432	-3.0912	-4.5354	-4.8326	-1.6505	-3.1786	-3.3919	0.2797	-1.647	-2.2869	-0.8987	-4.2416	-5.497	1.7834	-0.5665	-0.2797	-2.787	1.8673
-5.9271	-5.2452	-5.455	-6.6299	-3.0247	-4.3605	-4.6927	-1.647	-3.0737	-3.3325	0.2762	-1.6575	-2.2834	-0.8148	-4.0388	-5.2837	1.6155	-0.521	-0.3532	-2.6366	1.7414
-5.6508	-5.0844	-5.1578	-6.3852	-2.9268	-4.1542	-4.5144	-1.633	-2.9513	-3.2136	0.2797	-1.654	-2.2624	-0.7343	-3.829	-4.9829	1.4477	-0.4441	-0.3986	-2.4687	1.6015
-5.3676	-4.9235	-4.899	-6.1579	-2.8534	-3.9619	-4.364	-1.5945	-2.8324	-3.1471	0.2832	-1.6365	-2.2589	-0.6609	-3.5737	-4.7207	1.2973	-0.4056	-0.4476	-2.3149	1.4722
-5.0564	-4.7522	-4.5878	-5.8991	-2.724	-3.7381	-4.1927	-1.5351	-2.696	-3.0212	0.2972	-1.5945	-2.224	-0.584	-3.28	-4.3955	1.1609	-0.3777	-0.5035	-2.1365	1.3323
-4.7696	-4.6123	-4.2941	-5.6508	-2.6331	-3.5667	-4.0353	-1.4826	-2.5806	-2.9338	0.3112	-1.598	-2.21	-0.535	-3.0177	-4.1227	1.0595	-0.3357	-0.5105	-1.9932	1.2239
-4.4514	-4.4165	-4.0003	-5.3816	-2.5282	-3.3779	-3.8605	-1.4162	-2.4513	-2.8359	0.3322	-1.5771	-2.168	-0.4861	-2.6855	-3.801	0.9721	-0.3322	-0.5315	-1.8638	1.1085
-4.1192	-4.2171	-3.6891	-5.0913	-2.3813	-3.1611	-3.6716	-1.3358	-2.3219	-2.71	0.3777	-1.5281	-2.1261	-0.4581	-2.3743	-3.4968	0.8882	-0.3042	-0.535	-1.7274	1.0176
-3.7905	-4.0108	-3.3709	-4.8151	-2.2554	-2.9478	-3.4653	-1.2484	-2.161	-2.6191	0.4021	-1.4547	-2.0456	-0.4231	-2.0212	-3.1646	0.8252	-0.2797	-0.528	-1.6015	0.9092
-3.5003	-3.8325	-3.0527	-4.5528	-2.0911	-2.7415	-3.294	-1.14	-2.0142	-2.4897	0.4581	-1.4127	-2.0037	-0.4091	-1.7344	-2.9093	0.8008	-0.3007	-0.5245	-1.4791	0.8183
-3.1681	-3.5982	-2.703	-4.2626	-1.9162	-2.5282	-3.1122	-1.0176	-1.8778	-2.3429	0.4826	-1.3323	-1.9442	-0.3881	-1.3847	-2.6051	0.7553	-0.3077	-0.4896	-1.3638	0.7308
-2.8674	-3.3884	-2.4093	-4.0038	-1.7484	-2.2974	-2.8954	-0.9197	-1.7309	-2.196	0.5175	-1.2868	-1.8848	-0.3742	-1.0875	-2.3464	0.7378	-0.2937	-0.4791	-1.2379	0.6364
-2.5702	-3.1926	-2.1156	-3.7486	-1.5875	-2.1191	-2.7275	-0.8287	-1.6365	-2.0981	0.5595	-1.2344	-1.8428	-0.3812	-0.7903	-2.1435	0.7413	-0.3462	-0.4126	-1.1854	0.5315
-2.2869	-3.0073	-1.8288	-3.5038	-1.4232	-1.9058	-2.5736	-0.7133	-1.5141	-1.9862	0.577	-1.1644	-1.7834	-0.3672	-0.5245	-1.9232	0.7448	-0.3951	-0.4056	-1.1295	0.3986
-2.0421	-2.8289	-1.5806	-3.273	-1.2728	-1.7379	-2.4058	-0.6329	-1.4267	-1.8533	0.577	-1.126	-1.7729	-0.3846	-0.2308	-1.7379	0.7553	-0.4616	-0.3707	-1.084	0.2762
-1.8113	-2.6401	-1.3113	-3.0282	-1.098	-1.5456	-2.2275	-0.542	-1.2938	-1.7449	0.577	-1.091	-1.7029	-0.3916	-0.014	-1.5841	0.7798	-0.528	-0.3357	-0.9966	0.1434
-1.5526	-2.4722	-1.0735	-2.8114	-0.9476	-1.3847	-2.0596	-0.4441	-1.2099	-1.6435	0.563	-1.0455	-1.6645	-0.4056	0.2343	-1.4197	0.7938	-0.6015	-0.3147	-0.9896	0.042
-1.3498	-2.3149	-0.8567	-2.6331	-0.8043	-1.2309	-1.9337	-0.4021	-1.1539	-1.5421	0.5455	-1.0351	-1.6365	-0.4336	0.4266	-1.2938	0.8497	-0.7029	-0.2728	-0.9791	-0.1049
-1.1679	-2.147	-0.6294	-2.4373	-0.6609	-1.0805	-1.7659	-0.3112	-1.0525	-1.4197	0.5455	-1.0001	-1.612	-0.4476	0.6084	-1.133	0.8672	-0.7693	-0.2658	-0.9721	-0.2203
-0.9826	-1.9687	-0.4301	-2.2205	-0.5105	-0.9092	-1.6505	-0.2378	-0.9546	-1.3323	0.5175	-0.9651	-1.5701	-0.4756	0.8008	-1.0141	0.9162	-0.8742	-0.2133	-0.9686	-0.3112
-0.8078	-1.8078	-0.2623	-2.0631	-0.3742	-0.7938	-1.4791	-0.1783	-0.9057	-1.2379	0.4896	-0.9476	-1.5421	-0.4965	0.9197	-0.9092	0.9756	-1.0211	-0.1678	-1.0001	-0.4021
-0.6784	-1.6365	-0.1014	-1.9128	-0.2273	-0.6644	-1.3812	-0.1364	-0.8427	-1.1435	0.4406	-0.9336	-1.5211	-0.5175	1.0595	-0.8008	1.0176	-1.1225	-0.1259	-1.0176	-0.4791
-0.563	-1.5001	0.042	-1.7729	-0.0979	-0.5245	-1.2519	-0.0664	-0.7448	-1.063	0.3951	-0.9267	-1.4896	-0.563	1.1435	-0.7483	1.0945	-1.2239	-0.0979	-1.0351	-0.577
-0.4301	-1.3847	0.1748	-1.6295	0.0035	-0.3812	-1.1679	-0.0315	-0.6714	-0.9966	0.3567	-0.9197	-1.4861	-0.577	1.1994	-0.7343	1.1365	-1.3393	-0.0385	-1.084	-0.6294
-0.3357	-1.2309	0.2937	-1.5316	0.1119	-0.2658	-1.042	0.007	-0.6189	-0.9197	0.3007	-0.8847	-1.4582	-0.598	1.2029	-0.7308	1.1889	-1.4442	-0.0315	-1.133	-0.7029
-0.2448	-1.133	0.3881	-1.4512	0.1958	-0.1748	-0.9721	0.0175	-0.577	-0.8777	0.2553	-0.9406	-1.4931	-0.6364	1.2064	-0.7273	1.2693	-1.5841	-0.0105	-1.2099	-0.7728
-0.1958	-1.0281	0.4791	-1.3568	0.2762	-0.049	-0.8707	0.0175	-0.5245	-0.8357	0.1643	-0.9721	-1.5316	-0.6749	1.1679	-0.7658	1.3323	-1.7134	0.028	-1.2728	-0.8217
-0.1329	-0.8987	0.528	-1.3113	0.3322	0.0594	-0.8217	0.007	-0.5105	-0.8427	0.0839	-1.0211	-1.5736	-0.7203	1.1365	-0.8497	1.4232	-1.8393	0.014	-1.3673	-0.8777
-0.1154	-0.7833	0.6189	-1.2554	0.4091	0.1504	-0.8183	0.0035	-0.4791	-0.8148	0.0105	-1.07	-1.612	-0.7553	1.112	-0.9267	1.5036	-1.9477	0.0664	-1.4547	-0.9127
-0.0804	-0.6819	0.6434	-1.2239	0.4686	0.2063	-0.7728	-0.0035	-0.4476	-0.8252	-0.0909	-1.126	-1.647	-0.8148	1.0875	-0.9686	1.598	-2.0771	0.0944	-1.5456	-0.9476
-0.0734	-0.584	0.7203	-1.1854	0.514	0.2902	-0.7623	-0.0245	-0.4476	-0.8357	-0.1434	-1.2064	-1.7379	-0.8672	1.098	-1.0246	1.7064	-2.1925	0.1154	-1.6435	-0.9511
-0.0175	-0.5	0.7798	-1.1609	0.5525	0.3567	-0.7588	-0.042	-0.4581	-0.8777	-0.2448	-1.2728	-1.8393	-0.9127	1.0945	-1.0945	1.8148	-2.2939	0.1504	-1.7274	-0.9371
0	-0.4371	0.8113	-1.1819	0.598	0.4196	-0.7553	-0.0769	-0.4441	-0.9057	-0.3077	-1.3498	-1.9093	-0.9791	1.0665	-1.1435	1.9372	-2.4058	0.1888	-1.8253	-0.9302
0.021	-0.3462	0.8252	-1.1714	0.6154	0.4791	-0.7623	-0.1049	-0.4791	-0.9651	-0.3812	-1.4652	-2.0002	-1.0246	1.0945	-1.2064	2.0526	-2.5072	0.2168	-1.9477	-0.9022
0.021	-0.2588	0.8707	-1.1714	0.6329	0.521	-0.7798	-0.1224	-0.4861	-1.0246	-0.4441	-1.5386	-2.0841	-1.084	1.1155	-1.2449	2.1505	-2.5806	0.2623	-2.0316	-0.8637
0.0175	-0.2133	0.8812	-1.2064	0.6539	0.5455	-0.7973	-0.1539	-0.5455	-1.105	-0.5	-1.6435	-2.168	-1.147	1.0875	-1.3043	2.2694	-2.6541	0.2937	-2.1156	-0.8357
0.014	-0.1504	0.8812	-1.2204	0.6329	0.5595	-0.8357	-0.2028	-0.577	-1.1504	-0.563	-1.7414	-2.2484	-1.1959	1.0805	-1.3253	2.3673	-2.7065	0.3532	-2.2065	-0.7938
0	-0.1084	0.8952	-1.2658	0.6539	0.5455	-0.8952	-0.2553	-0.6504	-1.2449	-0.5875	-1.8603	-2.3429	-1.2449	1.0945	-1.3777	2.4722	-2.787	0.3846	-2.3114	-0.7623
-0.049	-0.0979	0.8847	-1.3078	0.6189	0.5105	-0.9371	-0.2867	-0.7413	-1.3148	-0.6154	-1.9652	-2.4233	-1.3008	1.0455	-1.4757	2.5736	-2.8324	0.4161	-2.3708	-0.6819
-0.0769	-0.1049	0.8567	-1.3673	0.577	0.4756	-1.0316	-0.3427	-0.8287	-1.4267	-0.6784	-2.0631	-2.5387	-1.3498	1.0141	-1.5386	2.6786	-2.8639	0.3986	-2.4548	-0.6329
-0.1399	-0.1294	0.8183	-1.4232	0.535	0.4371	-1.0875	-0.4021	-0.9336	-1.5106	-0.7029	-2.196	-2.6261	-1.3777	0.9371	-1.5736	2.738	-2.8779	0.4406	-2.5107	-0.556
-0.2028	-0.1818	0.7483	-1.4931	0.4826	0.3427	-1.1924	-0.4756	-1.049	-1.626	-0.7448	-2.3394	-2.7205	-1.4162	0.8847	-1.6855	2.8044	-2.8954	0.4476	-2.6051	-0.507
-0.2797	-0.2518	0.6609	-1.5806	0.3637	0.2343	-1.3043	-0.57	-1.1924	-1.7624	-0.8148	-2.4862	-2.8254	-1.4477	0.7973	-1.7764	2.8639	-2.9198	0.4266	-2.6855	-0.4791
-0.3742	-0.3672	0.5735	-1.654	0.2483	0.1154	-1.4127	-0.6644	-1.3498	-1.8743	-0.8777	-2.6436	-2.9303	-1.4547	0.7378	-1.8533	2.8814	-2.9023	0.3812	-2.7205	-0.4581
-0.4965	-0.4896	0.4546	-1.7624	0.1084	-0.042	-1.5666	-0.8008	-1.5666	-2.0177	-0.9371	-2.8219	-3.0457	-1.4617	0.6329	-1.9337	2.8954	-2.9408	0.3427	-2.773	-0.4406
-0.6469	-0.6609	0.3147	-1.8743	-0.0734	-0.2483	-1.7169	-0.9476	-1.7764	-2.175	-1.0665	-3.0177	-3.1926	-1.4547	0.5595	-2.0212	2.8954	-2.9513	0.2693	-2.8639	-0.4581
-0.7973	-0.8567	0.1329	-2.0177	-0.2518	-0.4511	-1.8708	-1.105	-1.9897	-2.3464	-1.1644	-3.2066	-3.3255	-1.4582	0.4686	-2.1505	2.8779	-2.9723	0.1748	-2.9268	-0.4441
-0.9791	-1.126	-0.0699	-2.196	-0.4791	-0.7064	-2.0421	-1.2484	-2.2694	-2.5527	-1.2414	-3.4164	-3.4793	-1.4302	0.3322	-2.2484	2.8534	-3.0073	0.0699	-3.0073	-0.4721
-1.1574	-1.3847	-0.2832	-2.3324	-0.7308	-0.9721	-2.2659	-1.4722	-2.5562	-2.7695	-1.3917	-3.6647	-3.6786	-1.4197	0.2413	-2.3254	2.8219	-3.0387	-0.0525	-3.1052	-0.5175
-1.3847	-1.675	-0.535	-2.5212	-1.0036	-1.2554	-2.4618	-1.689	-2.8464	-2.9723	-1.5036	-3.9234	-3.8325	-1.3987	0.1574	-2.4408	2.7695	-3.0842	-0.1958	-3.1926	-0.5665
-1.633	-1.9792	-0.8008	-2.6925	-1.3043	-1.5841	-2.682	-1.9197	-3.1926	-3.1926	-1.6575	-4.1927	-4.0353	-1.3777	0.0385	-2.5212	2.7345	-3.1296	-0.3322	-3.2555	-0.6364
-1.8323	-2.3044	-1.07	-2.8884	-1.5806	-1.8743	-2.9058	-2.1191	-3.4933	-3.3884	-1.7554	-4.406	-4.1892	-1.3253	-0.021	-2.5527	2.6401	-3.1926	-0.4616	-3.3325	-0.6609
-2.0701	-2.6681	-1.3707	-3.1122	-1.8813	-2.203	-3.1261	-2.3429	-3.8465	-3.6227	-1.9093	-4.6612	-4.371	-1.2973	-0.0979	-2.6331	2.5736	-3.2625	-0.591	-3.4199	-0.7133
-2.3044	-3.0107	-1.661	-3.28	-2.1995	-2.5352	-3.336	-2.5667	-4.1507	-3.8185	-2.0177	-4.878	-4.5528	-1.2519	-0.1958	-2.6751	2.4897	-3.3185	-0.6959	-3.4723	-0.7553
-2.5387	-3.3394	-1.9582	-3.4828	-2.4862	-2.8394	-3.5737	-2.766	-4.4584	-4.0283	-2.1121	-5.0879	-4.7032	-1.2239	-0.2658	-2.6855	2.4093	-3.3604	-0.8637	-3.5842	-0.7763
-2.7555	-3.6856	-2.2729	-3.6577	-2.7905	-3.1611	-3.7556	-2.9688	-4.7452	-4.2137	-2.182	-5.2872	-4.8466	-1.1679	-0.3567	-2.7065	2.3219	-3.3814	-0.9791	-3.6227	-0.7693
-3.0142	-4.0143	-2.5702	-3.8745	-3.0737	-3.4933	-3.9934	-3.1401	-5.0319	-4.3955	-2.2659	-5.4655	-4.9934	-1.14	-0.4266	-2.6855	2.2554	-3.4513	-1.112	-3.6821	-0.7763
-3.231	-4.3255	-2.8744	-4.0913	-3.3569	-3.829	-4.2276	-3.3325	-5.3221	-4.5703	-2.3219	-5.6264	-5.1228	-1.119	-0.4336	-2.703	2.182	-3.5143	-1.1889	-3.7276	-0.7553
-3.4618	-4.6473	-3.1786	-4.2906	-3.5772	-4.1367	-4.413	-3.4583	-5.5844	-4.7032	-2.3534	-5.7872	-5.2487	-1.084	-0.528	-2.6855	2.147	-3.5388	-1.2763	-3.7696	-0.7343
-3.6786	-4.9655	-3.4898	-4.5109	-3.85	-4.42	-4.6158	-3.5737	-5.8222	-4.8711	-2.3568	-5.9201	-5.3396	-1.0665	-0.584	-2.6855	2.1016	-3.5528	-1.3568	-3.8395	-0.6924
-3.885	-5.2382	-3.8045	-4.7242	-4.0458	-4.7347	-4.8011	-3.6891	-6.0355	-5.0144	-2.3743	-6.06	-5.462	-1.0525	-0.6049	-2.6506	2.0841	-3.5842	-1.4372	-3.885	-0.6504
-4.0843	-5.483	-4.1297	-4.941	-4.2521	-5.0564	-4.9934	-3.7905	-6.2558	-5.1333	-2.3603	-6.1649	-5.5389	-1.056	-0.6574	-2.6226	2.0771	-3.6122	-1.4931	-3.9199	-0.6049
-4.3116	-5.7453	-4.4514	-5.1753	-4.4444	-5.3466	-5.2067	-3.871	-6.4446	-5.2627	-2.3289	-6.2383	-5.6054	-1.0455	-0.6889	-2.6191	2.0701	-3.6157	-1.5666	-4.0038	-0.5315
-4.5144	-5.976	-4.7277	-5.3886	-4.6018	-5.6229	-5.3851	-3.9199	-6.616	-5.3536	-2.2484	-6.2943	-5.6578	-1.0455	-0.7763	-2.6296	2.0701	-3.6227	-1.5945	-4.0318	-0.4616
-4.7102	-6.1684	-5.0354	-5.6159	-4.7417	-5.8886	-5.5634	-3.9759	-6.7733	-5.462	-2.196	-6.3502	-5.6858	-1.049	-0.7833	-2.6471	2.0841	-3.6122	-1.591	-4.0528	-0.3637
-4.899	-6.3222	-5.3361	-5.8257	-4.8536	-6.1334	-5.7103	-3.9619	-6.8957	-5.5424	-2.1226	-6.3607	-5.7173	-1.063	-0.8357	-2.6471	2.1051	-3.6297	-1.5945	-4.0983	-0.2797
-5.0704	-6.4761	-5.5879	-6.0635	-4.9375	-6.3642	-5.8781	-3.9479	-6.9831	-5.6124	-2.0177	-6.3537	-5.7348	-1.0735	-0.8847	-2.6995	2.1331	-3.5877	-1.591	-4.1402	-0.1818
-5.2277	-6.5635	-5.8397	-6.2488	-5.0074	-6.5495	-5.9935	-3.885	-7.0391	-5.6369	-1.8883	-6.3012	-5.7103	-1.0735	-0.8952	-2.7065	2.1365	-3.5318	-1.5526	-4.1577	-0.049
-5.3746	-6.6474	-6.067	-6.3957	-5.0074	-6.7244	-6.0879	-3.7766	-7.0601	-5.6473	-1.7274	-6.2278	-5.6403	-1.0805	-0.8987	-2.696	2.1365	-3.4653	-1.5001	-4.1402	0.0944
-5.511	-6.7209	-6.2663	-6.5565	-4.9899	-6.8922	-6.1893	-3.6891	-7.081	-5.6299	-1.5456	-6.1089	-5.5704	-1.091	-0.9476	-2.7415	2.1645	-3.4024	-1.4372	-4.1297	0.2203
-5.5879	-6.7348	-6.4376	-6.6894	-4.9585	-6.9901	-6.2243	-3.5528	-7.0356	-5.5879	-1.3393	-5.9656	-5.4585	-1.077	-0.9441	-2.752	2.147	-3.245	-1.3568	-4.0773	0.3846
-5.6823	-6.7069	-6.581	-6.7663	-4.8885	-7.0566	-6.2383	-3.3884	-6.9551	-5.5005	-1.0875	-5.7802	-5.3291	-1.0735	-0.9232	-2.7555	2.1296	-3.1087	-1.2728	-4.0458	0.549
-5.7348	-6.6789	-6.6859	-6.8293	-4.8186	-7.13	-6.2383	-3.2206	-6.8572	-5.3851	-0.8357	-5.5704	-5.1228	-1.07	-0.9057	-2.766	2.1156	-2.9338	-1.1784	-3.9794	0.7029
-5.7522	-6.588	-6.7244	-6.8502	-4.6577	-7.116	-6.1684	-3.0073	-6.7139	-5.2487	-0.577	-5.3361	-4.9375	-1.0525	-0.8812	-2.738	2.0806	-2.752	-1.077	-3.885	0.8707
-5.7243	-6.4971	-6.7523	-6.8118	-4.5249	-7.1125	-6.1089	-2.8009	-6.56	-5.0704	-0.2832	-5.0669	-4.7067	-1.0316	-0.8252	-2.7205	2.0351	-2.5212	-0.9546	-3.7835	1.0665
-5.7103	-6.3642	-6.7663	-6.7873	-4.364	-7.067	-5.9865	-2.5562	-6.3607	-4.913	0.007	-4.7906	-4.4619	-1.0036	-0.8008	-2.689	1.9897	-2.3079	-0.8462	-3.6681	1.2449
-5.6438	-6.2243	-6.7663	-6.6999	-4.1612	-7.0041	-5.8467	-2.3044	-6.2033	-4.6962	0.3217	-4.4969	-4.2206	-0.9721	-0.7553	-2.6681	1.9442	-2.0596	-0.7168	-3.5003	1.4302
-5.5704	-6.0774	-6.6929	-6.5565	-3.9724	-6.8677	-5.6963	-2.0351	-5.969	-4.4689	0.6364	-4.1542	-3.9444	-0.9511	-0.6504	-2.5876	1.8883	-1.8148	-0.5805	-3.3884	1.6085
-5.4795	-5.9026	-6.6195	-6.4306	-3.7626	-6.7698	-5.511	-1.7834	-5.7522	-4.2521	0.9476	-3.8465	-3.6647	-0.9406	-0.577	-2.5597	1.8358	-1.5631	-0.4336	-3.2171	1.8113
-5.3676	-5.7278	-6.5215	-6.2977	-3.5353	-6.6824	-5.3536	-1.5386	-5.5319	-4.0423	1.2344	-3.5493	-3.4164	-0.9127	-0.528	-2.5352	1.8078	-1.3043	-0.3252	-3.0947	1.9792
-5.2662	-5.5809	-6.4341	-6.1334	-3.3394	-6.525	-5.1508	-1.2973	-5.2837	-3.815	1.5386	-3.231	-3.1541	-0.8777	-0.4616	-2.5072	1.7554	-1.049	-0.1958	-2.9443	2.1505
-5.1613	-5.3956	-6.2768	-5.99	-3.1157	-6.3747	-4.934	-1.056	-5.0529	-3.6052	1.8428	-2.9093	-2.8884	-0.8602	-0.4056	-2.5212	1.7099	-0.8078	-0.0559	-2.8044	2.3394
-5.0494	-5.2312	-6.1544	-5.7872	-2.9093	-6.2068	-4.7452	-0.8043	-4.8221	-3.3884	2.1086	-2.6121	-2.6436	-0.8357	-0.3602	-2.5387	1.6715	-0.5595	0.0594	-2.6751	2.5142
-4.9165	-5.0564	-5.9935	-5.5914	-2.6925	-6.0215	-4.5424	-0.5595	-4.5913	-3.1751	2.4058	-2.3114	-2.3988	-0.8078	-0.3252	-2.5562	1.6155	-0.3217	0.1643	-2.5247	2.6716
-4.8011	-4.8955	-5.8606	-5.4061	-2.5177	-5.8851	-4.3465	-0.3567	-4.3605	-2.9968	2.6401	-2.0142	-2.161	-0.8008	-0.2937	-2.5841	1.5841	-0.1189	0.2762	-2.4058	2.8044
-4.6647	-4.7766	-5.7033	-5.2452	-2.3184	-5.7103	-4.1647	-0.1609	-4.1472	-2.7765	2.8989	-1.7169	-1.9372	-0.7798	-0.3182	-2.6191	1.5491	0.1119	0.3567	-2.2729	2.9653
-4.5808	-4.6368	-5.5529	-5.0913	-2.1261	-5.5145	-3.9759	0.049	-3.9059	-2.6051	3.1157	-1.4057	-1.7309	-0.7763	-0.3322	-2.6226	1.5246	0.3042	0.4511	-2.1156	3.1122
-4.5074	-4.5458	-5.4445	-4.9515	-2.0107	-5.3711	-3.8395	0.2238	-3.7066	-2.4513	3.3255	-1.1435	-1.5071	-0.7728	-0.3812	-2.696	1.5281	0.5245	0.521	-2.0491	3.2206
-4.4339	-4.4654	-5.3116	-4.7906	-1.8533	-5.1998	-3.6891	0.3637	-3.4758	-2.3219	3.5248	-0.8637	-1.3358	-0.7658	-0.4126	-2.745	1.5141	0.7029	0.5945	-1.9442	3.3325
-4.343	-4.364	-5.1963	-4.6438	-1.7484	-5.0599	-3.5458	0.5245	-3.2765	-2.154	3.7171	-0.598	-1.1435	-0.7553	-0.4371	-2.759	1.5001	0.8917	0.6714	-1.8428	3.4793
-4.2976	-4.3221	-5.1018	-4.5528	-1.633	-4.9235	-3.4164	0.6574	-3.0632	-2.0316	3.9129	-0.3112	-0.9476	-0.7623	-0.4861	-2.8114	1.5036	1.091	0.7308	-1.7449	3.5912
-4.2451	-4.3116	-5.0074	-4.4759	-1.5631	-4.7976	-3.3499	0.7588	-2.8744	-1.9128	4.0703	-0.0594	-0.8043	-0.7553	-0.535	-2.8359	1.5071	1.2344	0.7868	-1.675	3.6996
-4.2171	-4.2836	-4.92	-4.3955	-1.4896	-4.6857	-3.2485	0.8462	-2.703	-1.8113	4.2137	0.1748	-0.6329	-0.7448	-0.6015	-2.8779	1.4757	1.4092	0.8497	-1.5841	3.787
-4.1787	-4.2836	-4.8011	-4.329	-1.4617	-4.5773	-3.1926	0.9302	-2.5352	-1.7344	4.35	0.3951	-0.4616	-0.7413	-0.6469	-2.8884	1.4582	1.5701	0.8812	-1.5246	3.864
-4.1647	-4.3011	-4.7522	-4.2626	-1.4162	-4.4654	-3.1436	1.0001	-2.3918	-1.6295	4.4724	0.5945	-0.3357	-0.7099	-0.6749	-2.8849	1.4057	1.7204	0.9232	-1.4407	3.9619
-4.1542	-4.3255	-4.7172	-4.2486	-1.3952	-4.3885	-3.0912	1.0525	-2.2275	-1.5631	4.5808	0.7728	-0.1853	-0.6854	-0.7343	-2.9408	1.3533	1.9093	0.9546	-1.3498	4.0388
-4.1857	-4.357	-4.6857	-4.2381	-1.3812	-4.3186	-3.0597	1.0805	-2.1156	-1.5246	4.6508	0.9441	-0.1049	-0.6469	-0.8078	-2.9583	1.3043	2.0561	0.9686	-1.2903	4.0913
-4.2416	-4.4339	-4.7067	-4.2556	-1.4057	-4.2766	-3.0702	1.119	-2.0107	-1.4791	4.7137	1.098	0.0315	-0.6294	-0.8462	-2.9863	1.2344	2.182	0.9966	-1.2239	4.1577
-4.2626	-4.5039	-4.7347	-4.3221	-1.4372	-4.2661	-3.0947	1.1225	-1.9128	-1.4477	4.7557	1.2484	0.1189	-0.584	-0.8777	-3.0073	1.1504	2.2974	1.0036	-1.1994	4.2171
-4.3465	-4.5738	-4.7766	-4.3605	-1.4617	-4.2556	-3.1436	1.14	-1.8253	-1.4232	4.7976	1.3533	0.2063	-0.549	-0.9791	-3.0527	1.0945	2.4513	1.0316	-1.126	4.2346
-4.4305	-4.6997	-4.8501	-4.4479	-1.5526	-4.2976	-3.1996	1.091	-1.8113	-1.4302	4.8081	1.4302	0.2448	-0.514	-1.0351	-3.0982	1.0316	2.5457	1.0001	-1.0665	4.2556
-4.5214	-4.7836	-4.955	-4.5633	-1.612	-4.35	-3.287	1.098	-1.7939	-1.4442	4.8151	1.5246	0.3112	-0.4826	-1.07	-3.0982	0.9616	2.6611	1.0036	-1.042	4.2836
-4.6228	-4.878	-5.0669	-4.6752	-1.689	-4.413	-3.3429	1.0351	-1.7939	-1.4757	4.8221	1.605	0.3567	-0.4441	-1.1365	-3.1541	0.9092	2.717	0.9966	-1.0036	4.3011
-4.7242	-4.969	-5.1858	-4.7766	-1.7379	-4.4689	-3.4479	1.0106	-1.7729	-1.4861	4.8396	1.7029	0.4056	-0.4231	-1.119	-3.1087	0.8497	2.8359	1.0001	-0.9336	4.3255
-4.7976	-5.0774	-5.2802	-4.878	-1.7974	-4.5458	-3.5318	0.9826	-1.7869	-1.4896	4.8396	1.7694	0.4581	-0.3951	-1.1085	-3.0772	0.8043	2.9198	1.0001	-0.8812	4.3465
-4.906	-5.1578	-5.4166	-5.0249	-1.8638	-4.6473	-3.6087	0.9546	-1.7764	-1.5211	4.8291	1.8428	0.535	-0.3846	-1.091	-3.0492	0.7903	3.0247	1.0071	-0.8742	4.3675
-4.976	-5.2102	-5.5459	-5.1123	-1.8953	-4.7277	-3.6996	0.9302	-1.7554	-1.5316	4.8361	1.9407	0.5875	-0.3986	-1.0665	-3.0038	0.7763	3.0667	1.0455	-0.8392	4.3815
-5.0494	-5.2487	-5.6369	-5.2172	-1.9128	-4.7766	-3.7731	0.9162	-1.7589	-1.5491	4.8221	2.0037	0.6399	-0.3916	-1.0141	-2.9758	0.7623	3.1506	1.0665	-0.7973	4.385
-5.1018	-5.2872	-5.7243	-5.3256	-1.9372	-4.8186	-3.8465	0.9162	-1.7554	-1.5281	4.8291	2.0946	0.6959	-0.3812	-0.9581	-2.9303	0.7483	3.2101	1.1155	-0.7448	4.4374
-5.1613	-5.2942	-5.8222	-5.3991	-1.9337	-4.9165	-3.9164	0.9127	-1.7239	-1.5456	4.8326	2.1925	0.7413	-0.3846	-0.9336	-2.9933	0.7623	3.2835	1.1679	-0.7064	4.4724
-5.1823	-5.2557	-5.8432	-5.4375	-1.9128	-4.9235	-3.9584	0.9336	-1.6925	-1.5211	4.8326	2.3009	0.8043	-0.3742	-0.8357	-2.9723	0.7518	3.3394	1.2344	-0.6784	4.4899
-5.1928	-5.2347	-5.8851	-5.483	-1.8638	-4.934	-4.0003	0.9302	-1.6785	-1.4931	4.8116	2.3778	0.8602	-0.3777	-0.7483	-2.9758	0.7553	3.4024	1.3008	-0.6434	4.5004
-5.2067	-5.1823	-5.9096	-5.504	-1.8253	-4.9725	-4.0248	0.9371	-1.6365	-1.4722	4.8081	2.4548	0.9022	-0.3986	-0.7203	-3.0107	0.7833	3.4409	1.3742	-0.6189	4.5109
-5.1823	-5.0913	-5.8991	-5.5285	-1.7764	-4.969	-4.0178	0.9686	-1.5806	-1.4407	4.7941	2.5457	0.9756	-0.4091	-0.6294	-3.0352	0.8043	3.4723	1.4757	-0.57	4.5214
-5.1228	-5.0004	-5.8746	-5.518	-1.7134	-4.9235	-4.0038	0.9896	-1.5561	-1.4162	4.7592	2.6226	1.0351	-0.4231	-0.6049	-3.0982	0.8252	3.5073	1.5491	-0.5315	4.4969
-5.0844	-4.885	-5.8117	-5.49	-1.6085	-4.8815	-3.9934	1.0316	-1.4791	-1.3673	4.7347	2.703	1.0735	-0.4476	-0.521	-3.1751	0.8917	3.5108	1.633	-0.535	4.4724
-5.0354	-4.7731	-5.7418	-5.455	-1.5036	-4.8361	-3.9968	1.07	-1.4162	-1.3218	4.7137	2.7625	1.1225	-0.4826	-0.4581	-3.231	0.9651	3.5423	1.6855	-0.5245	4.4305
-4.927	-4.5808	-5.6264	-5.3746	-1.3428	-4.7207	-3.9094	1.126	-1.3148	-1.2379	4.7207	2.8884	1.1959	-0.5315	-0.3951	-3.294	1.0211	3.5388	1.7904	-0.5	4.4374
-4.8081	-4.3815	-5.4795	-5.2837	-1.1924	-4.6228	-3.8325	1.1994	-1.2064	-1.1609	4.7102	2.9968	1.2623	-0.549	-0.3217	-3.3464	1.0735	3.5353	1.9023	-0.4581	4.4479
-4.6717	-4.1647	-5.3047	-5.1613	-0.9861	-4.4829	-3.7206	1.3183	-1.056	-1.063	4.7592	3.1122	1.3568	-0.57	-0.2413	-3.3919	1.1365	3.5597	2.0142	-0.4021	4.4549
-4.5598	-3.9689	-5.1368	-5.0354	-0.8113	-4.3395	-3.6437	1.4232	-0.9267	-1.0106	4.7592	3.2241	1.4127	-0.6329	-0.2028	-3.4513	1.2379	3.5528	2.1226	-0.4021	4.4374
-4.3955	-3.7521	-4.9305	-4.906	-0.598	-4.1682	-3.5143	1.5281	-0.7903	-0.8952	4.8081	3.3639	1.4896	-0.6644	-0.1014	-3.4863	1.3078	3.5458	2.1995	-0.3812	4.4514
-4.2102	-3.5248	-4.7207	-4.7801	-0.3881	-3.9934	-3.4304	1.6225	-0.6469	-0.8217	4.8256	3.4968	1.5491	-0.7203	-0.0559	-3.5003	1.3987	3.5353	2.3044	-0.3532	4.4619
-4.0423	-3.2905	-4.4934	-4.6088	-0.1643	-3.815	-3.287	1.7554	-0.4721	-0.7029	4.9165	3.6402	1.654	-0.7518	0.0385	-3.4898	1.4722	3.5283	2.4058	-0.3357	4.4724
-3.8465	-3.0142	-4.2381	-4.4305	0.0664	-3.5912	-3.1506	1.9058	-0.3042	-0.598	4.9899	3.7626	1.7239	-0.7973	0.1434	-3.4723	1.5561	3.5073	2.5282	-0.3007	4.4794
-3.6227	-2.7695	-3.9829	-4.2766	0.2762	-3.4164	-3.0038	2.0212	-0.1154	-0.4965	5.0669	3.8954	1.7904	-0.8252	0.2203	-3.4444	1.633	3.5143	2.6051	-0.2867	4.4864
-3.4304	-2.5072	-3.7066	-4.0913	0.514	-3.1786	-2.8499	2.1785	0.0734	-0.3986	5.1403	4.0388	1.8463	-0.8602	0.3252	-3.3534	1.696	3.5003	2.7065	-0.2588	4.5214
-3.2031	-2.2484	-3.4513	-3.9129	0.7518	-2.9618	-2.6995	2.3359	0.2413	-0.3252	5.2277	4.1507	1.9093	-0.8812	0.4336	-3.273	1.7519	3.4653	2.8009	-0.2343	4.5493
-2.9618	-2.0177	-3.1786	-3.7346	0.9476	-2.78	-2.5911	2.4862	0.3881	-0.2098	5.3466	4.3046	1.9582	-0.9022	0.5665	-3.1716	1.7974	3.4304	2.9023	-0.1993	4.5983
-2.7695	-1.7939	-2.9128	-3.5877	1.1889	-2.5771	-2.4652	2.6226	0.5385	-0.1399	5.427	4.4095	1.9862	-0.9302	0.7308	-3.0772	1.8428	3.3849	3.0073	-0.1678	4.6368
-2.5317	-1.5596	-2.6436	-3.4234	1.3777	-2.3813	-2.3499	2.787	0.7133	-0.0734	5.5075	4.5424	1.9862	-0.9546	0.8462	-2.9408	1.8883	3.315	3.0912	-0.1504	4.6857
-2.3114	-1.3603	-2.4058	-3.3045	1.5596	-2.161	-2.2449	2.9373	0.8637	0.0035	5.5634	4.6123	1.9827	-0.9651	0.9686	-2.8394	1.9302	3.2276	3.1646	-0.1678	4.6927
-2.1121	-1.1504	-2.154	-3.1506	1.7519	-1.9652	-2.147	3.0422	0.9931	0.049	5.6403	4.6892	1.9827	-0.9861	1.119	-2.717	1.9617	3.1611	3.245	-0.1609	4.7277
-1.9197	-0.9756	-1.9197	-3.0877	1.9058	-1.8113	-2.0806	3.1576	1.14	0.0874	5.7313	4.7417	1.9617	-1.0141	1.2693	-2.6191	2.0142	3.0877	3.315	-0.1643	4.7522
-1.7764	-0.7868	-1.6785	-2.9653	2.0806	-1.612	-2.0177	3.3115	1.2798	0.1539	5.8047	4.8221	1.9372	-1.0211	1.4232	-2.4757	2.0386	3.0562	3.4024	-0.1294	4.8081
-1.6225	-0.6189	-1.5176	-2.8919	2.224	-1.4372	-1.9617	3.4583	1.3917	0.1818	5.9271	4.878	1.9232	-1.0665	1.5526	-2.3708	2.1051	2.9828	3.4653	-0.1434	4.8466
-1.4791	-0.4791	-1.3463	-2.8604	2.3464	-1.2763	-1.9232	3.5423	1.5176	0.2028	5.9865	4.892	1.8848	-1.1015	1.6645	-2.2939	2.182	2.8709	3.5283	-0.1574	4.8711
-1.3987	-0.3217	-1.2064	-2.8359	2.4792	-1.1225	-1.9058	3.6577	1.6435	0.2238	6.0774	4.9235	1.8603	-1.147	1.7624	-2.2135	2.2554	2.8219	3.6227	-0.1434	4.9165
-1.3008	-0.1993	-1.0945	-2.8044	2.5632	-0.9896	-1.8848	3.7626	1.7379	0.1958	6.1684	4.9375	1.8533	-1.1679	1.8638	-2.1365	2.3289	2.7625	3.6891	-0.1434	4.9655
-1.2693	-0.0874	-0.9966	-2.8324	2.6786	-0.8847	-1.9128	3.8954	1.8603	0.2168	6.2558	4.9829	1.8078	-1.2134	1.9617	-2.1086	2.3988	2.696	3.7626	-0.1329	5.0319
-1.2309	-0.0175	-0.9232	-2.8779	2.773	-0.7693	-1.9407	4.0038	1.9512	0.2238	6.3467	5.0109	1.7834	-1.2484	2.0177	-2.0561	2.4652	2.6366	3.8605	-0.1329	5.0983
-1.2204	0.0769	-0.8567	-2.9583	2.8324	-0.6714	-1.9617	4.0773	2.0281	0.1993	6.4166	5.0214	1.7589	-1.2763	2.0771	-2.0142	2.5317	2.5946	3.9199	-0.1434	5.1718
-1.2798	0.1119	-0.8847	-3.0772	2.8604	-0.6189	-2.0701	4.1612	2.0666	0.1609	6.4866	4.9899	1.7099	-1.3253	2.0491	-2.0981	2.6156	2.5527	3.9899	-0.1748	5.2137
-1.3638	0.1259	-0.9336	-3.1751	2.8884	-0.6154	-2.168	4.2032	2.0876	0.0944	6.5215	4.948	1.633	-1.3603	2.0806	-2.1715	2.689	2.4687	4.0318	-0.2028	5.2697
-1.4547	0.1259	-0.9826	-3.3255	2.9093	-0.5805	-2.2659	4.2661	2.1121	0.0559	6.5845	4.9165	1.5631	-1.4022	2.0177	-2.2939	2.7555	2.4023	4.1018	-0.2238	5.3431
-1.6085	0.0769	-1.0945	-3.4968	2.8814	-0.6084	-2.3918	4.2906	2.0911	-0.0175	6.609	4.8711	1.4791	-1.4337	1.9267	-2.4233	2.8324	2.3499	4.1542	-0.2693	5.3851
-1.7834	0.0594	-1.2064	-3.6961	2.8569	-0.6434	-2.5212	4.3255	2.0806	-0.1014	6.6369	4.8081	1.4302	-1.4722	1.8183	-2.5946	2.9198	2.2834	4.1997	-0.3042	5.4375
-1.9932	-0.042	-1.4162	-3.8815	2.8044	-0.7064	-2.689	4.3151	2.0561	-0.1958	6.6439	4.7312	1.3288	-1.5246	1.6365	-2.8114	3.0142	2.2205	4.2451	-0.3672	5.469
-2.2205	-0.1574	-1.6085	-4.1087	2.7275	-0.8113	-2.8569	4.3255	2.0212	-0.3147	6.6299	4.6542	1.2554	-1.5701	1.4722	-3.0282	3.1052	2.161	4.2976	-0.4406	5.5564
-2.4478	-0.2063	-1.8218	-4.2801	2.6681	-0.9022	-2.9933	4.3395	1.9687	-0.3881	6.6579	4.5808	1.1889	-1.605	1.3568	-3.2345	3.1786	2.1016	4.3675	-0.4791	5.5879
-2.689	-0.3462	-2.0526	-4.4969	2.5981	-1.0001	-3.1541	4.3151	1.9058	-0.4861	6.6754	4.4724	1.091	-1.654	1.147	-3.4618	3.28	2.0351	4.413	-0.5525	5.6194
-2.9513	-0.507	-2.3009	-4.6892	2.5107	-1.147	-3.3325	4.2871	1.8428	-0.598	6.6789	4.4025	1.0281	-1.689	0.9616	-3.7276	3.3639	1.9862	4.4549	-0.6015	5.7068
-3.1681	-0.6049	-2.5212	-4.8641	2.4233	-1.2623	-3.4583	4.2626	1.7729	-0.6574	6.6999	4.357	0.9826	-1.7309	0.8008	-3.9409	3.4304	1.9442	4.5144	-0.6154	5.7767
-3.4548	-0.7693	-2.7939	-5.0669	2.3254	-1.4162	-3.6157	4.2626	1.7099	-0.7448	6.7104	4.2976	0.9197	-1.7694	0.584	-4.1997	3.5073	1.9058	4.5738	-0.7029	5.8222
-3.7066	-0.9092	-3.0492	-5.2242	2.2589	-1.5281	-3.7381	4.2521	1.6785	-0.8043	6.7488	4.2731	0.8882	-1.8078	0.4231	-4.427	3.5667	1.8673	4.6368	-0.7378	5.9166
-3.9584	-1.0316	-3.2485	-5.3536	2.1925	-1.6645	-3.8395	4.2521	1.626	-0.8882	6.7523	4.2206	0.8217	-1.8253	0.2413	-4.5948	3.6157	1.8323	4.6927	-0.7868	5.99
-4.1507	-1.1959	-3.4758	-5.497	2.1086	-1.7904	-3.9549	4.2521	1.5806	-0.9441	6.8048	4.2032	0.8252	-1.8568	0.1014	-4.7417	3.6681	1.8463	4.7696	-0.8252	6.0879
-4.3395	-1.3393	-3.6751	-5.5914	2.0072	-1.9023	-4.0318	4.2346	1.5771	-0.9756	6.8328	4.1997	0.8078	-1.8603	-0.042	-4.892	3.6926	1.8463	4.8151	-0.8672	6.1963
-4.5214	-1.4582	-3.878	-5.6858	1.9617	-2.0037	-4.1297	4.2451	1.5386	-1.0036	6.8712	4.1717	0.8043	-1.8813	-0.1643	-4.969	3.7171	1.8288	4.885	-0.8952	6.3082
-4.6822	-1.5771	-4.0388	-5.7522	1.9302	-2.1016	-4.1577	4.2556	1.5561	-1.0071	6.9272	4.2171	0.8217	-1.8848	-0.2518	-5.0319	3.7136	1.8743	4.927	-0.8917	6.4027
-4.8011	-1.7064	-4.1857	-5.7977	1.8288	-2.182	-4.2311	4.2521	1.5456	-1.0386	6.9551	4.2241	0.8078	-1.8638	-0.3182	-5.0879	3.6926	1.8603	4.962	-0.9371	6.5145
-4.8745	-1.8113	-4.3116	-5.8222	1.7974	-2.2624	-4.2311	4.2766	1.5456	-1.056	7.0111	4.2311	0.8217	-1.8568	-0.3567	-5.0948	3.6542	1.8778	5.0179	-0.9756	6.5915
-4.9934	-1.9232	-4.4444	-5.8537	1.7414	-2.3499	-4.2976	4.2556	1.5351	-1.063	6.9936	4.2206	0.8217	-1.8358	-0.3567	-5.1018	3.6297	1.8708	5.0319	-0.9966	6.6614
-5.0494	-2.0107	-4.5389	-5.8746	1.6855	-2.3988	-4.2976	4.2311	1.5176	-1.0875	6.9831	4.2102	0.8148	-1.8078	-0.3707	-5.0879	3.5807	1.9023	5.0424	-1.0106	6.7418
-5.1018	-2.0806	-4.6298	-5.8781	1.64	-2.4967	-4.3535	4.1962	1.5106	-1.1015	6.9831	4.2032	0.8217	-1.7729	-0.3812	-5.0739	3.5038	1.8953	5.0669	-1.0141	6.8013
-5.1263	-2.154	-4.7032	-5.8571	1.5806	-2.5492	-4.35	4.1542	1.4966	-1.1365	6.9761	4.1927	0.8043	-1.7344	-0.3532	-5.0284	3.4269	1.8813	5.0564	-1.077	6.8223
-5.1228	-2.2135	-4.7522	-5.8537	1.5421	-2.5981	-4.343	4.1297	1.4757	-1.147	6.9377	4.1682	0.7903	-1.682	-0.3252	-5.0249	3.336	1.9058	5.0774	-1.0875	6.8537
-5.1298	-2.2415	-4.7731	-5.8571	1.4896	-2.6436	-4.357	4.1087	1.4791	-1.1609	6.9167	4.1647	0.8043	-1.64	-0.2902	-5.0179	3.2345	1.9197	5.0529	-1.119	6.8957
-5.1088	-2.2345	-4.7871	-5.8047	1.4757	-2.6506	-4.3395	4.0948	1.4826	-1.147	6.8852	4.1647	0.8252	-1.5736	-0.2168	-4.955	3.1261	1.9512	5.0424	-1.14	6.8747
-5.0354	-2.231	-4.7277	-5.7557	1.4722	-2.6506	-4.2871	4.0983	1.4966	-1.1365	6.8642	4.1962	0.8427	-1.5036	-0.1014	-4.9095	2.9863	1.9687	5.0424	-1.1435	6.9027
-4.969	-2.161	-4.6822	-5.6963	1.5281	-2.6016	-4.2696	4.1332	1.5631	-1.0945	6.8642	4.2521	0.8812	-1.4477	-0.028	-4.8711	2.8499	2.0316	5.0669	-1.1609	6.9307
-4.8711	-2.1086	-4.6018	-5.6508	1.5736	-2.5667	-4.2171	4.1227	1.6225	-1.042	6.8642	4.3081	0.9057	-1.3847	0.028	-4.8955	2.7275	2.0386	5.0634	-1.147	6.9132
-4.7731	-2.0316	-4.5109	-5.5914	1.5945	-2.5177	-4.1682	4.1752	1.6645	-1.0071	6.8642	4.336	0.9267	-1.3148	0.1713	-4.8676	2.6156	2.0701	5.0564	-1.1644	6.9132
-4.6368	-1.9267	-4.3885	-5.49	1.6855	-2.4198	-4.0738	4.2206	1.7624	-0.9511	6.8992	4.4339	1.0071	-1.2519	0.2797	-4.8291	2.4757	2.1191	5.0634	-1.119	6.9377
-4.4899	-1.8113	-4.2137	-5.427	1.7589	-2.3359	-4.0038	4.2731	1.8533	-0.8637	6.9307	4.5109	1.0805	-1.1994	0.3951	-4.7941	2.3743	2.1785	5.0739	-1.112	6.9342
-4.385	-1.696	-4.1157	-5.3781	1.8253	-2.2659	-3.9619	4.3081	1.9512	-0.8427	6.9482	4.5913	1.14	-1.1714	0.4756	-4.7976	2.3079	2.1785	5.0634	-1.133	6.9202
-4.2591	-1.5841	-3.9549	-5.3012	1.9442	-2.1575	-3.8745	4.3535	2.0561	-0.7518	6.9726	4.6542	1.1784	-1.1295	0.5945	-4.7766	2.2345	2.2205	5.0704	-1.105	6.8887
-4.1052	-1.4407	-3.7905	-5.2382	2.0142	-2.0561	-3.7766	4.4095	2.168	-0.6889	6.9796	4.7382	1.2274	-1.0945	0.6469	-4.7207	2.168	2.2589	5.0529	-1.1085	6.8398
-3.9479	-1.3253	-3.6542	-5.1403	2.1365	-1.9407	-3.7066	4.4724	2.2554	-0.6329	7.0041	4.8256	1.3043	-1.0595	0.7553	-4.7067	2.1086	2.2589	5.0144	-1.1085	6.7768
-3.7975	-1.1504	-3.4479	-5.0494	2.2659	-1.7799	-3.6052	4.5528	2.3848	-0.5315	7.0531	4.9375	1.3777	-1.0246	0.8532	-4.6368	2.0281	2.2904	5.0074	-1.07	6.7733
-3.6437	-0.9756	-3.273	-4.9795	2.3708	-1.647	-3.4618	4.6228	2.4967	-0.4231	7.0705	5.0144	1.4197	-0.9861	0.9197	-4.5878	1.9582	2.3429	5.0074	-1.0455	6.7279
-3.5178	-0.8602	-3.1052	-4.8711	2.5037	-1.5281	-3.3884	4.6822	2.6226	-0.3462	7.088	5.0879	1.4442	-0.9581	0.9826	-4.5319	1.9058	2.3708	4.962	-1.0036	6.6719
-3.3709	-0.7064	-2.9618	-4.7696	2.6226	-1.3742	-3.2625	4.7417	2.766	-0.2588	7.102	5.2102	1.5106	-0.9232	1.0735	-4.4339	1.8323	2.4093	4.941	-0.9511	6.623
-3.2276	-0.5805	-2.8009	-4.6508	2.7695	-1.2379	-3.1541	4.8291	2.8779	-0.1678	7.1405	5.2977	1.5736	-0.8987	1.091	-4.357	1.7764	2.4443	4.9095	-0.9092	6.5845
-3.1052	-0.4161	-2.6436	-4.5389	2.8849	-1.0875	-3.0317	4.9025	3.0177	-0.0385	7.165	5.4061	1.6715	-0.8777	1.1679	-4.2731	1.7134	2.5072	4.892	-0.8532	6.518
-2.9758	-0.3077	-2.5317	-4.4444	2.9933	-0.9371	-2.9128	4.9795	3.1541	0.0769	7.1475	5.483	1.7414	-0.8462	1.1924	-4.1437	1.6925	2.5352	4.8361	-0.7903	6.4306
-2.8324	-0.1783	-2.3638	-4.3221	3.1087	-0.7798	-2.7974	5.0459	3.308	0.2028	7.1824	5.5914	1.8253	-0.8427	1.2589	-4.0108	1.6575	2.5736	4.8361	-0.7238	6.3957
-2.731	-0.0559	-2.2449	-4.2102	3.2206	-0.6399	-2.6576	5.1368	3.4374	0.3042	7.2139	5.6858	1.9197	-0.8217	1.2763	-3.8605	1.6295	2.6331	4.8081	-0.6574	6.3362
-2.6121	0.0594	-2.1226	-4.0808	3.3464	-0.4721	-2.4862	5.2172	3.5772	0.4616	7.2559	5.7977	2.0386	-0.8113	1.3148	-3.7591	1.612	2.6995	4.7976	-0.556	6.2733
-2.5212	0.1713	-2.0072	-3.9409	3.4653	-0.3357	-2.3534	5.2697	3.7521	0.584	7.2734	5.9026	2.1505	-0.8113	1.3568	-3.6052	1.6085	2.752	4.7801	-0.4826	6.2103
-2.3743	0.3042	-1.8813	-3.7731	3.5772	-0.1434	-2.175	5.3991	3.9164	0.7553	7.3573	6.0495	2.3184	-0.7903	1.4197	-3.4479	1.5701	2.8359	4.7801	-0.3742	6.1824
-2.2729	0.4231	-1.7484	-3.6227	3.7136	0.014	-2.0072	5.4655	4.0598	0.9162	7.3922	6.1544	2.4513	-0.7973	1.4652	-3.322	1.5596	2.9023	4.7801	-0.2553	6.1649
-2.1855	0.5315	-1.612	-3.4513	3.85	0.1678	-1.8148	5.5564	4.2381	1.1085	7.4902	6.2838	2.6086	-0.7833	1.4931	-3.1821	1.5421	3.0038	4.7906	-0.0734	6.1334
-2.0736	0.6504	-1.5106	-3.2695	3.9584	0.3707	-1.6435	5.6543	4.4235	1.2868	7.5461	6.3992	2.787	-0.7658	1.5246	-3.0527	1.5211	3.1296	4.7871	0.0804	6.1194
-1.9897	0.7343	-1.4127	-3.0842	4.0808	0.507	-1.4791	5.7557	4.5983	1.4757	7.5986	6.5355	2.9583	-0.7658	1.5561	-2.9198	1.5106	3.2276	4.7976	0.2343	6.1054
-1.9058	0.8392	-1.2973	-2.9058	4.1472	0.6714	-1.2903	5.8606	4.7626	1.647	7.6405	6.6649	3.1401	-0.7623	1.5945	-2.8009	1.5246	3.329	4.8046	0.3777	6.0635
-1.8393	0.9162	-1.1924	-2.7485	4.2556	0.8008	-1.1155	5.9061	4.9235	1.8323	7.6825	6.7663	3.3115	-0.7728	1.591	-2.717	1.5421	3.3919	4.8221	0.549	6.046
-1.8044	1.0001	-1.112	-2.5667	4.357	0.9686	-0.9302	6.032	5.1088	2.0386	7.7349	6.8817	3.4933	-0.7868	1.5561	-2.6471	1.5631	3.5248	4.8396	0.7064	6.0285
-1.7064	1.119	-0.9756	-2.3953	4.4689	1.1365	-0.7518	6.1369	5.2592	2.2484	7.8259	7.0181	3.6716	-0.8043	1.5456	-2.5562	1.5945	3.6122	4.8571	0.8987	6.025
-1.6505	1.1889	-0.8812	-2.203	4.5773	1.3183	-0.584	6.2348	5.4585	2.4303	7.8818	7.13	3.8605	-0.8357	1.5526	-2.5037	1.6435	3.6961	4.8501	1.049	6.0285
-1.5631	1.2763	-0.7798	-2.0212	4.7137	1.4722	-0.4021	6.3572	5.6334	2.6261	7.9727	7.2803	4.0458	-0.8427	1.5351	-2.4513	1.689	3.808	4.9095	1.2204	6.053
-1.4652	1.3917	-0.6364	-1.8358	4.8291	1.6575	-0.1958	6.4551	5.8082	2.8464	8.0322	7.3957	4.2661	-0.8672	1.5071	-2.4303	1.7449	3.8884	4.9445	1.3917	6.0705
-1.4057	1.5071	-0.5315	-1.668	4.9585	1.8393	0.0035	6.574	5.997	3.0457	8.1231	7.5496	4.4584	-0.9267	1.5071	-2.4128	1.8218	3.9584	5.0039	1.5421	6.1019
-1.3078	1.6155	-0.3846	-1.4757	5.1053	2.0456	0.1783	6.7034	6.1893	3.266	8.214	7.693	4.6368	-0.9511	1.5106	-2.4443	1.8883	4.0178	5.0564	1.675	6.1579
-1.2134	1.7659	-0.2273	-1.2938	5.2627	2.231	0.3812	6.8223	6.3887	3.4863	8.3084	7.8538	4.8221	-0.9756	1.5001	-2.4618	1.9512	4.0738	5.1088	1.8323	6.2033
-1.1365	1.9023	-0.0629	-1.098	5.4061	2.4443	0.598	6.9412	6.56	3.6996	8.4063	8.0042	4.9899	-1.0036	1.5246	-2.4687	2.0037	4.1437	5.1648	1.9827	6.2593
-1.0036	2.0631	0.1364	-0.8952	5.5424	2.6436	0.8078	7.0531	6.7663	3.9339	8.5077	8.1755	5.1928	-1.0281	1.5771	-2.4583	2.0456	4.2346	5.2382	2.1051	6.3397
-0.8742	2.1575	0.3007	-0.7203	5.6613	2.8569	0.9721	7.144	6.9307	4.0983	8.5742	8.2839	5.3361	-1.056	1.6225	-2.4897	2.1121	4.2486	5.2627	2.21	6.3677
-0.7868	2.2869	0.4616	-0.556	5.7732	3.0457	1.1574	7.2419	7.095	4.2766	8.6056	8.3993	5.469	-1.0735	1.6505	-2.5002	2.154	4.2591	5.2452	2.3114	6.3642
-0.6504	2.4408	0.6749	-0.3707	5.9026	3.2345	1.3218	7.3398	7.2349	4.4549	8.6826	8.5427	5.6159	-1.084	1.7204	-2.4932	2.1505	4.3046	5.2837	2.3883	6.4061
-0.507	2.5771	0.8357	-0.1993	6.0355	3.4304	1.5071	7.4272	7.3922	4.6158	8.735	8.6756	5.7243	-1.077	1.7974	-2.5037	2.1505	4.3151	5.3256	2.4827	6.4551
-0.3672	2.7345	1.0595	-0.0245	6.1789	3.6262	1.6715	7.5111	7.5286	4.7452	8.7665	8.777	5.8082	-1.084	1.8533	-2.5387	2.1505	4.3186	5.3501	2.5667	6.4761
-0.2448	2.8849	1.2134	0.1084	6.2558	3.7731	1.7974	7.5776	7.6195	4.8885	8.777	8.8434	5.8991	-1.084	1.8673	-2.5806	2.1575	4.2871	5.3431	2.6121	6.4866
-0.1364	3.0038	1.4092	0.2483	6.3887	3.9129	1.9232	7.616	7.7035	4.9934	8.77	8.8959	5.9446	-1.098	1.8848	-2.6576	2.1785	4.2836	5.3291	2.6261	6.4621
-0.021	3.1296	1.5596	0.3846	6.4551	4.0388	2.0281	7.6405	7.7559	5.0844	8.763	8.9623	6.0005	-1.091	1.9093	-2.7065	2.1645	4.2381	5.3256	2.6471	6.5006
0.0804	3.2276	1.6785	0.4651	6.5495	4.1367	2.1191	7.665	7.8224	5.1578	8.7315	8.9938	6.011	-1.0945	1.9023	-2.7835	2.168	4.2102	5.3151	2.6681	6.5041
0.1364	3.3499	1.8148	0.542	6.581	4.2102	2.175	7.6615	7.8328	5.1858	8.7315	9.0008	5.997	-1.105	1.8813	-2.8744	2.1785	4.1577	5.2977	2.6506	6.5006
0.1993	3.4444	1.9302	0.6224	6.6649	4.2626	2.2484	7.665	7.8293	5.2382	8.6511	8.9973	5.9865	-1.119	1.8323	-2.9758	2.196	4.1297	5.2872	2.6471	6.4971
0.2658	3.5353	1.9757	0.6504	6.6789	4.2731	2.2834	7.6265	7.7944	5.2172	8.5951	8.9658	5.9446	-1.1365	1.7554	-3.0772	2.2484	4.0318	5.2802	2.5911	6.4901
0.2937	3.6052	2.0491	0.6994	6.7383	4.2801	2.3149	7.6021	7.7629	5.2207	8.5497	8.9553	5.9096	-1.1784	1.6855	-3.1856	2.3044	4.0003	5.2662	2.5702	6.5076
0.3462	3.6786	2.1156	0.7308	6.7628	4.2836	2.3184	7.5811	7.7209	5.1998	8.4972	8.9169	5.8641	-1.2169	1.612	-3.2485	2.3743	3.9269	5.2592	2.5387	6.5145
0.3602	3.7451	2.175	0.7273	6.7768	4.2451	2.3429	7.5181	7.6545	5.1683	8.4063	8.8714	5.7977	-1.2414	1.5456	-3.3919	2.4478	3.8675	5.2592	2.4932	6.5425
0.3742	3.8115	2.1715	0.7413	6.7558	4.2102	2.3219	7.4762	7.609	5.1368	8.3434	8.8364	5.7453	-1.2903	1.4617	-3.4793	2.5492	3.7975	5.2522	2.4443	6.5705
0.3846	3.864	2.21	0.7483	6.7488	4.1612	2.3184	7.4342	7.5461	5.0739	8.2944	8.7945	5.6718	-1.3428	1.3847	-3.5807	2.6541	3.7311	5.2732	2.3918	6.602
0.3881	3.9129	2.2624	0.7693	6.7628	4.1122	2.2974	7.4132	7.4867	5.0354	8.2245	8.756	5.6089	-1.3952	1.3323	-3.6716	2.7625	3.6647	5.2942	2.3638	6.6509
0.3812	3.9514	2.2624	0.7553	6.7558	4.0493	2.3009	7.3643	7.4062	4.9725	8.179	8.7001	5.5354	-1.4477	1.2693	-3.7521	2.8639	3.5877	5.3151	2.2729	6.6859
0.3881	3.9514	2.2589	0.7133	6.7314	3.9934	2.2345	7.3118	7.3258	4.8955	8.1056	8.6231	5.4096	-1.4896	1.1924	-3.836	2.9618	3.5003	5.3012	2.203	6.7209
0.3707	3.9759	2.2589	0.6854	6.7279	3.9444	2.196	7.2524	7.2489	4.8186	8.0427	8.5847	5.2942	-1.5596	1.1225	-3.9339	3.0667	3.4234	5.3012	2.1645	6.7873
0.3392	4.0038	2.2415	0.6504	6.6824	3.8535	2.1505	7.2034	7.1789	4.7242	7.9692	8.5112	5.2102	-1.5736	1.07	-4.0143	3.1436	3.3429	5.2977	2.0806	6.8083
0.2937	3.9584	2.231	0.591	6.6404	3.787	2.0561	7.1195	7.0775	4.6368	7.9098	8.4413	5.0983	-1.6225	1.0001	-4.1192	3.2345	3.266	5.3082	2.0316	6.8537
0.2623	3.9654	2.168	0.5525	6.5915	3.7031	2.0107	7.0705	6.9761	4.5354	7.8608	8.3469	4.9795	-1.661	0.9302	-4.2032	3.308	3.1716	5.3116	1.9337	6.8677
0.1958	3.9339	2.1575	0.4581	6.5285	3.5877	1.9058	6.9971	6.8712	4.4095	7.7524	8.235	4.8361	-1.6994	0.8812	-4.3255	3.3849	3.0947	5.2907	1.8323	6.8747
0.1049	3.8745	2.0701	0.3742	6.4586	3.5003	1.8148	6.8992	6.7348	4.2976	7.6545	8.1336	4.6892	-1.7239	0.8078	-4.406	3.4374	2.9723	5.2697	1.7449	6.8712
0.042	3.8325	2.0281	0.3112	6.4061	3.4339	1.7169	6.8188	6.6334	4.1857	7.5636	8.0322	4.5598	-1.7414	0.7763	-4.4619	3.4618	2.8744	5.2662	1.6645	6.8712
-0.0594	3.7975	1.9337	0.1958	6.3327	3.3394	1.605	6.7558	6.5145	4.0563	7.4902	7.9343	4.406	-1.7624	0.7203	-4.5808	3.4863	2.7555	5.2137	1.5666	6.8537
-0.1259	3.7591	1.8463	0.1364	6.2523	3.2695	1.5141	6.6649	6.4166	3.9339	7.3853	7.8154	4.2731	-1.7659	0.6819	-4.6508	3.4968	2.6716	5.1893	1.4652	6.8293
-0.2553	3.6751	1.7834	0.014	6.1719	3.1996	1.3952	6.5705	6.2803	3.8045	7.2943	7.7	4.1192	-1.7659	0.6259	-4.7557	3.5003	2.5736	5.1473	1.3638	6.8083
-0.3567	3.5772	1.7134	-0.0734	6.0844	3.1122	1.2519	6.4936	6.1754	3.6821	7.2174	7.609	4.0073	-1.7554	0.6015	-4.7871	3.4933	2.5072	5.1018	1.2484	6.7593
-0.4371	3.5213	1.6155	-0.1783	5.9586	3.0562	1.1435	6.3992	6.0565	3.5283	7.116	7.5216	3.8954	-1.7449	0.57	-4.8396	3.4548	2.3918	5.0529	1.1609	6.7139
-0.5385	3.4339	1.5421	-0.2867	5.8537	2.9863	1.0281	6.3222	5.9586	3.4304	7.0775	7.4342	3.808	-1.7029	0.5805	-4.878	3.4059	2.3464	4.9969	1.063	6.6824
-0.6154	3.3779	1.4791	-0.3846	5.7802	2.9163	0.9232	6.2383	5.8781	3.3045	7.0496	7.3573	3.7136	-1.689	0.5735	-4.9305	3.3499	2.2904	4.934	0.9931	6.6439
-0.7029	3.273	1.4162	-0.4721	5.6788	2.8674	0.7903	6.1579	5.7767	3.2031	7.0041	7.2559	3.6472	-1.654	0.5315	-4.9585	3.287	2.2449	4.8571	0.8987	6.595
-0.7973	3.1716	1.3323	-0.5945	5.5599	2.8044	0.7203	6.0809	5.6998	3.1087	6.9831	7.2034	3.5702	-1.6015	0.5455	-4.962	3.1786	2.2449	4.8011	0.8392	6.553
-0.8987	3.0702	1.2344	-0.7064	5.4585	2.731	0.5735	5.9935	5.6194	3.0003	6.9551	7.151	3.5353	-1.5526	0.549	-4.9864	3.0912	2.1925	4.7417	0.7378	6.532
-1.0071	2.9513	1.133	-0.8183	5.3186	2.6751	0.4546	5.9271	5.5424	2.8814	6.9272	7.067	3.4618	-1.5106	0.521	-5.0004	3.0003	2.203	4.6752	0.6539	6.5006
-1.1015	2.8254	1.049	-0.9371	5.2032	2.5911	0.3427	5.8641	5.448	2.759	6.9097	7.0251	3.4339	-1.4512	0.4721	-5.0669	2.9058	2.1925	4.5983	0.5525	6.4691
-1.2099	2.7135	0.9406	-1.049	5.1018	2.5282	0.2378	5.8117	5.3886	2.7065	6.9551	6.9971	3.4234	-1.3987	0.4266	-5.1053	2.7974	2.203	4.5563	0.5105	6.4726
-1.2903	2.6121	0.8742	-1.1504	5.0284	2.4862	0.1609	5.7977	5.3781	2.6506	7.0251	7.0426	3.4688	-1.3463	0.3637	-5.1438	2.6716	2.2415	4.5389	0.4721	6.5355
-1.4092	2.5037	0.7938	-1.2554	4.9305	2.4058	0.0629	5.7662	5.3501	2.5771	7.074	7.0251	3.4548	-1.2973	0.3112	-5.2067	2.5806	2.2834	4.4794	0.4196	6.5425
-1.5211	2.3813	0.6889	-1.3917	4.8361	2.3603	-0.0385	5.7557	5.3361	2.5177	7.137	7.0566	3.4933	-1.2623	0.1958	-5.2837	2.5037	2.3219	4.4654	0.3567	6.602
-1.64	2.2974	0.577	-1.4687	4.7731	2.2974	-0.1154	5.7522	5.3256	2.4513	7.2314	7.1055	3.5423	-1.2274	0.1294	-5.3641	2.4373	2.3743	4.4514	0.3147	6.6719
-1.7134	2.231	0.5105	-1.5771	4.7137	2.2519	-0.1643	5.7732	5.3571	2.4618	7.3328	7.1685	3.5877	-1.2029	0.0385	-5.427	2.3813	2.4513	4.4619	0.3007	6.7348
-1.8393	2.1505	0.4301	-1.6925	4.6717	2.217	-0.2273	5.8117	5.3816	2.4058	7.4307	7.2524	3.6612	-1.1854	-0.049	-5.5005	2.3394	2.5142	4.4759	0.2518	6.8502
-1.9407	2.0596	0.3287	-1.8113	4.6368	2.1855	-0.2832	5.8362	5.4131	2.4093	7.5461	7.3258	3.7661	-1.1714	-0.1294	-5.5634	2.3149	2.5806	4.5039	0.2308	6.9621
-2.0666	2.0072	0.2448	-1.9162	4.6088	2.1505	-0.3427	5.9026	5.462	2.3918	7.6615	7.4097	3.85	-1.1749	-0.2553	-5.6369	2.3324	2.6471	4.5109	0.1923	7.0496
-2.168	1.9302	0.1574	-2.0177	4.5878	2.1261	-0.4056	5.9271	5.5354	2.3848	7.7629	7.5146	3.9269	-1.1854	-0.3532	-5.6928	2.3499	2.6995	4.5249	0.1609	7.1789
-2.2694	1.9162	0.1119	-2.0666	4.5878	2.1331	-0.4021	5.9935	5.6054	2.3988	7.9133	7.644	4.0423	-1.2099	-0.4231	-5.7278	2.3813	2.7765	4.5913	0.1539	7.3083
-2.3499	1.8533	0.0559	-2.1365	4.5948	2.154	-0.4091	6.025	5.7068	2.4652	8.0287	7.7629	4.1332	-1.2169	-0.528	-5.7697	2.4338	2.8394	4.6123	0.1399	7.4132
-2.4268	1.8358	0.0105	-2.231	4.5983	2.182	-0.4266	6.1054	5.8152	2.5142	8.1615	7.9273	4.2521	-1.2693	-0.6224	-5.8117	2.5037	2.8814	4.6542	0.1014	7.5461
-2.5002	1.8358	0.021	-2.2659	4.6368	2.217	-0.4301	6.1719	5.9481	2.5562	8.3049	8.0706	4.35	-1.2938	-0.6504	-5.8222	2.5667	2.9268	4.7102	0.1049	7.6405
-2.5317	1.8288	0.028	-2.2799	4.6962	2.2974	-0.3567	6.2698	6.0809	2.6296	8.4238	8.235	4.4899	-1.3218	-0.6994	-5.8152	2.6366	3.0003	4.7522	0.0874	7.7734
-2.5806	1.8638	0.028	-2.3044	4.7382	2.3813	-0.3252	6.3642	6.2243	2.7135	8.5322	8.4133	4.5843	-1.3568	-0.7518	-5.8257	2.717	3.0177	4.7871	0.0455	7.8398
-2.6086	1.8638	0.0664	-2.2974	4.7801	2.4687	-0.2832	6.4201	6.4096	2.78	8.6371	8.5497	4.7032	-1.4022	-0.7833	-5.8397	2.8009	3.0422	4.8186	0.0385	7.8923
-2.6226	1.8638	0.1014	-2.3149	4.8396	2.5457	-0.2273	6.4901	6.5845	2.8709	8.7385	8.7245	4.7941	-1.4442	-0.8322	-5.8432	2.8709	3.0702	4.8501	-0.0035	7.9412
-2.6576	1.8918	0.1539	-2.2869	4.8815	2.6506	-0.1643	6.567	6.7558	2.9618	8.8085	8.8574	4.8676	-1.5036	-0.8742	-5.8397	2.9828	3.0597	4.8711	-0.0105	7.9308
-2.6016	1.9267	0.2343	-2.2275	4.9969	2.8219	-0.0629	6.6684	6.9307	3.1052	8.9169	9.0532	4.9899	-1.5246	-0.8672	-5.8117	3.0282	3.0702	4.885	0	7.9657
-2.6261	1.9372	0.3147	-2.21	5.0564	2.9373	0.042	6.7488	7.123	3.2241	8.9623	9.2141	5.0739	-1.5701	-0.9197	-5.8432	3.1261	3.0422	4.8711	-0.0105	7.9552
-2.5667	1.9722	0.4301	-2.1226	5.1578	3.1087	0.1609	6.8537	7.3363	3.3639	8.9973	9.4134	5.1788	-1.6225	-0.8882	-5.8117	3.1961	3.0457	4.8676	-0.014	7.9238
-2.5352	2.0316	0.535	-2.0351	5.2487	3.2695	0.2762	6.9377	7.5706	3.5283	9.0322	9.6127	5.2977	-1.668	-0.8672	-5.8257	3.2835	3.0107	4.8361	-0.028	7.8993
-2.4722	2.0806	0.6504	-1.9197	5.3711	3.4758	0.4686	7.0601	7.7944	3.7136	9.1057	9.7841	5.441	-1.6925	-0.8497	-5.7942	3.3464	3.0142	4.8571	0.014	7.8398
-2.3918	2.1016	0.7728	-1.7974	5.469	3.6647	0.5945	7.151	8.0147	3.8954	9.1407	9.9729	5.5739	-1.7309	-0.8322	-5.7627	3.4479	2.9828	4.8116	0.0175	7.7594
-2.2764	2.203	0.9721	-1.6015	5.6019	3.9304	0.8113	7.2943	8.2979	4.1122	9.2071	10.1827	5.7627	-1.7519	-0.7168	-5.6543	3.4933	3.0317	4.8256	0.0979	7.714
-2.1505	2.3009	1.1504	-1.4197	5.7802	4.1787	1.0595	7.4692	8.5812	4.3605	9.27	10.417	5.9725	-1.7904	-0.6469	-5.5809	3.5493	3.0422	4.8361	0.1399	7.651
-2.0072	2.4443	1.3498	-1.1574	5.9865	4.4584	1.3183	7.637	8.8784	4.6473	9.3365	10.6723	6.1789	-1.8009	-0.542	-5.448	3.5702	3.1087	4.8466	0.2483	7.609
-1.8113	2.5771	1.6085	-0.9197	6.1893	4.7626	1.5875	7.8224	9.2036	4.9585	9.4029	10.9415	6.4201	-1.7939	-0.4441	-5.3116	3.5737	3.1576	4.8815	0.3462	7.5426
-1.626	2.7065	1.8183	-0.6539	6.3852	5.0704	1.8848	8.0182	9.4868	5.2347	9.4693	11.1758	6.6404	-1.8044	-0.3252	-5.1753	3.5772	3.2206	4.927	0.4791	7.4727
-1.4022	2.8849	2.1051	-0.3812	6.6649	5.3851	2.21	8.2245	9.8015	5.5669	9.5323	11.4031	6.8922	-1.7834	-0.1748	-5.0284	3.5423	3.3325	4.962	0.6434	7.4237
-1.1889	3.0212	2.3499	-0.1119	6.8852	5.7243	2.4897	8.4168	10.0918	5.8991	9.5743	11.6129	7.116	-1.7694	-0.0734	-4.9375	3.5143	3.4129	5.0039	0.8008	7.3503
-0.9826	3.2066	2.6086	0.1748	7.116	6.011	2.7905	8.6056	10.375	6.1858	9.6092	11.7912	7.3258	-1.7589	0.0699	-4.8046	3.4863	3.5073	5.0459	0.9511	7.2769
-0.7658	3.3779	2.8219	0.4476	7.3398	6.3257	3.0772	8.784	10.6268	6.4376	9.6442	11.9486	7.5181	-1.7274	0.1469	-4.6927	3.4374	3.5982	5.0739	1.112	7.2034
-0.57	3.5178	3.0807	0.7168	7.5776	6.6299	3.3429	8.9693	10.8576	6.7139	9.6582	12.1129	7.7279	-1.6855	0.2378	-4.6018	3.3534	3.6926	5.1123	1.2798	7.137
-0.3742	3.6856	3.3499	0.9581	7.8014	6.9342	3.6402	9.1232	11.0814	6.9936	9.6652	12.2353	7.8818	-1.647	0.3182	-4.5424	3.2835	3.794	5.1158	1.4372	7.0915
-0.1958	3.864	3.5667	1.1889	7.9972	7.1894	3.885	9.263	11.2527	7.1929	9.6512	12.3297	8.0217	-1.598	0.3427	-4.5004	3.1891	3.885	5.1508	1.5945	7.0321
-0.0245	4.0388	3.8115	1.4197	8.2	7.4587	4.1122	9.3959	11.4101	7.3957	9.6372	12.3822	8.1441	-1.5561	0.3637	-4.4479	3.0982	3.9619	5.1858	1.7449	6.9272
0.1119	4.1647	3.9934	1.5945	8.3609	7.6755	4.2871	9.4693	11.5045	7.5461	9.5743	12.3962	8.2385	-1.5246	0.3357	-4.4759	3.0282	4.0248	5.1858	1.8428	6.8153
0.2728	4.2906	4.1787	1.7624	8.4728	7.8573	4.4654	9.5603	11.5814	7.6615	9.5043	12.3927	8.2839	-1.4757	0.3042	-4.4549	2.9478	4.0843	5.1648	1.9512	6.7139
0.3637	4.4479	4.343	1.9197	8.6371	8.0427	4.6368	9.6267	11.6549	7.8014	9.4484	12.3857	8.3434	-1.4267	0.2728	-4.4409	2.8464	4.1122	5.1648	2.0526	6.602
0.4511	4.5598	4.4864	2.0316	8.728	8.179	4.7801	9.6757	11.6793	7.8853	9.3505	12.3647	8.3504	-1.3917	0.2168	-4.4549	2.759	4.1297	5.1333	2.1435	6.4586
0.556	4.6403	4.6368	2.1645	8.8154	8.3294	4.9095	9.6931	11.7248	7.9622	9.263	12.2948	8.3504	-1.3358	0.1259	-4.4654	2.6786	4.1507	5.0948	2.2345	6.2873
0.6259	4.7067	4.7487	2.2135	8.9099	8.4378	4.962	9.7106	11.7143	8.0217	9.1581	12.2213	8.3329	-1.3183	0.0594	-4.4794	2.6191	4.1262	5.0319	2.2834	6.1369
0.6924	4.8151	4.8641	2.3289	8.9903	8.5777	5.0948	9.7141	11.7458	8.1056	9.0602	12.1934	8.3364	-1.2763	-0.028	-4.4934	2.5387	4.1437	4.9934	2.3429	5.997
0.7343	4.8885	4.9829	2.3708	9.0357	8.6756	5.1858	9.7071	11.7633	8.1406	8.9763	12.1199	8.3119	-1.2414	-0.1014	-4.5633	2.4722	4.1018	4.9305	2.3988	5.8502
0.8078	4.969	5.0913	2.4478	9.1057	8.763	5.2942	9.7071	11.7947	8.1895	8.8959	12.0535	8.2595	-1.2134	-0.1853	-4.5808	2.4058	4.0633	4.8885	2.4233	5.6788
0.8637	5.0319	5.2032	2.5177	9.1267	8.8399	5.3711	9.6687	11.7982	8.2035	8.798	11.9731	8.221	-1.1854	-0.2413	-4.6158	2.3568	4.0073	4.8291	2.4687	5.5285
0.9057	5.1088	5.3116	2.5562	9.1756	8.9518	5.4655	9.6652	11.8332	8.2734	8.7105	11.9206	8.179	-1.1784	-0.2972	-4.6228	2.3149	3.9724	4.7906	2.4792	5.3711
0.9861	5.1998	5.4131	2.6331	9.2456	9.0497	5.5704	9.6442	11.8682	8.3084	8.6406	11.8891	8.1161	-1.133	-0.3252	-4.6088	2.2589	3.8815	4.7137	2.5422	5.2172
1.063	5.3082	5.525	2.7275	9.319	9.1791	5.6858	9.6582	11.9101	8.3818	8.5812	11.8402	8.0706	-1.112	-0.3532	-4.6018	2.2205	3.8185	4.7067	2.5841	5.0844
1.14	5.3746	5.6334	2.787	9.3784	9.2875	5.7837	9.6687	11.9731	8.4028	8.5042	11.7947	8.0007	-1.105	-0.3812	-4.6123	2.1995	3.7311	4.6473	2.6051	4.927
1.2484	5.4865	5.7348	2.9093	9.4449	9.3994	5.9096	9.6722	12.0255	8.4658	8.4623	11.7493	7.9517	-1.0945	-0.3532	-4.5703	2.175	3.6577	4.6158	2.6506	4.7626
1.3498	5.6054	5.8886	3.0073	9.5568	9.5882	6.046	9.7106	12.1304	8.5707	8.4413	11.7458	7.9273	-1.0805	-0.3916	-4.5773	2.1331	3.5807	4.5948	2.731	4.6508
1.4372	5.7348	6.0075	3.1436	9.6372	9.7071	6.1963	9.7246	12.2283	8.6546	8.3958	11.7213	7.8573	-1.0665	-0.3357	-4.5493	2.1121	3.5003	4.5913	2.7835	4.5109
1.5666	5.8781	6.1544	3.2625	9.7351	9.868	6.3362	9.7736	12.3717	8.7385	8.3888	11.7528	7.8643	-1.056	-0.3322	-4.5214	2.0806	3.4513	4.5878	2.8744	4.4095
1.7134	6.0285	6.3047	3.3954	9.847	10.0568	6.525	9.8295	12.4906	8.8609	8.3818	11.7947	7.8503	-1.0525	-0.3147	-4.5144	2.0596	3.3919	4.6193	2.9583	4.3116
1.8358	6.1719	6.4761	3.5423	10.0009	10.2072	6.7104	9.903	12.6235	9.0008	8.4028	11.8297	7.8608	-1.0246	-0.2448	-4.5179	2.0281	3.336	4.6298	3.0667	4.2032
1.9827	6.3327	6.6404	3.7136	10.1372	10.4065	6.8782	9.9904	12.8228	9.1407	8.4413	11.9206	7.8853	-1.0106	-0.1923	-4.4724	2.0072	3.273	4.6682	3.1646	4.1402
2.154	6.5041	6.8223	3.878	10.2911	10.6093	7.0775	10.1163	13.0361	9.305	8.5077	12.0325	7.9447	-0.9966	-0.0944	-4.4514	1.9827	3.2835	4.6822	3.301	4.0668
2.3254	6.7104	7.0531	4.0913	10.4939	10.8611	7.3083	10.2631	13.2459	9.5148	8.5882	12.1584	8.0706	-0.9896	-0.028	-4.4409	1.9372	3.315	4.7522	3.4653	4.0248
2.4897	6.8957	7.2489	4.3011	10.6932	11.1128	7.5461	10.424	13.4557	9.7386	8.6791	12.3332	8.193	-0.9511	0.0629	-4.399	1.8988	3.3604	4.8221	3.6087	4.0143
2.731	7.1265	7.4832	4.5424	10.91	11.3576	7.8084	10.5988	13.7215	9.9799	8.784	12.5151	8.3399	-0.9336	0.1888	-4.378	1.8358	3.4444	4.9165	3.8185	3.9968
2.9233	7.3223	7.7314	4.7592	11.1373	11.6374	8.0881	10.7807	13.9907	10.2037	8.8784	12.6794	8.4728	-0.8987	0.2832	-4.3395	1.7799	3.5178	4.9969	4.0108	3.9829
3.1576	7.5776	7.9657	5.0004	11.3786	11.9171	8.3609	10.973	14.253	10.4729	9.0253	12.8997	8.6581	-0.8847	0.3497	-4.3186	1.7379	3.6157	5.1193	4.2486	3.9899
3.3814	7.7944	8.228	5.2452	11.5779	12.1969	8.6371	11.1723	14.5222	10.7107	9.1092	13.0781	8.8539	-0.8392	0.4965	-4.2661	1.6855	3.7206	5.2172	4.4549	4.0003
3.6332	8.0671	8.5112	5.511	11.8437	12.4941	8.9448	11.3891	14.802	11.0044	9.27	13.2739	9.0322	-0.8217	0.5735	-4.2206	1.6365	3.857	5.3431	4.6787	4.0108
3.8745	8.2944	8.7945	5.7662	12.1024	12.7983	9.2211	11.5954	15.0922	11.2527	9.3959	13.4382	9.2246	-0.8183	0.7064	-4.1682	1.612	4.0143	5.469	4.906	4.0318
4.1437	8.5917	9.0637	6.0844	12.3542	13.106	9.5428	11.8157	15.3859	11.5395	9.5358	13.6271	9.4554	-0.8008	0.8392	-4.0528	1.5701	4.1717	5.5879	5.1368	4.0913
4.427	8.8644	9.3924	6.3747	12.6584	13.4277	9.861	12.0465	15.6727	11.8192	9.7036	13.8299	9.6652	-0.7798	1.0036	-3.9234	1.5386	4.3395	5.7208	5.3921	4.1402
4.6857	9.1127	9.6931	6.6579	12.9032	13.732	10.1547	12.2703	15.914	12.0675	9.861	14.0012	9.8645	-0.7623	1.14	-3.7591	1.5106	4.5109	5.8746	5.5984	4.2032
4.962	9.3819	9.9729	6.9586	13.183	14.0362	10.445	12.4871	16.2112	12.3577	9.9974	14.2075	10.0813	-0.7658	1.2693	-3.6122	1.5176	4.6787	6.0005	5.8292	4.2766
5.2487	9.6687	10.2911	7.2803	13.4837	14.3754	10.7876	12.7144	16.5154	12.6235	10.1757	14.3859	10.3191	-0.7693	1.4302	-3.4269	1.5176	4.8361	6.1439	6.0355	4.378
5.5145	9.9099	10.6128	7.5811	13.7634	14.6831	11.0989	12.9382	16.8056	12.8787	10.3121	14.5677	10.5499	-0.8008	1.5456	-3.273	1.5596	5.0039	6.2803	6.2348	4.4759
5.8012	10.1932	10.8995	7.8713	13.9977	14.9733	11.3751	13.162	17.0364	13.12	10.4869	14.732	10.7772	-0.8008	1.7134	-3.0597	1.5945	5.1333	6.4027	6.4166	4.5458
6.067	10.4729	11.2178	8.1685	14.274	15.2915	11.6723	13.4172	17.3162	13.3753	10.6618	14.9279	11.0219	-0.8357	1.8428	-2.8814	1.6365	5.2767	6.5635	6.602	4.6508
6.2943	10.7492	11.5115	8.4413	14.5432	15.6167	11.9556	13.6271	17.6029	13.6375	10.8401	15.1097	11.2282	-0.8602	2.0037	-2.717	1.689	5.3816	6.7034	6.7523	4.7487
6.567	11.0184	11.8087	8.7595	14.8125	15.928	12.2563	13.8543	17.8687	13.8578	11.0219	15.3125	11.4555	-0.8777	2.1331	-2.5352	1.7484	5.5075	6.8293	6.8887	4.8745
6.8188	11.2807	12.1164	9.0322	15.0747	16.1937	12.5081	14.0851	18.1309	14.0991	11.2108	15.5223	11.6653	-0.9162	2.2939	-2.3918	1.8183	5.5914	6.9761	7.0181	4.9829
7.0566	11.536	12.4172	9.3085	15.3475	16.5049	12.7843	14.3194	18.4142	14.3369	11.4206	15.7391	11.8786	-0.9616	2.4058	-2.2554	1.9232	5.6648	7.13	7.13	5.1228
7.2908	11.8122	12.6934	9.5882	15.6132	16.8196	13.0606	14.5747	18.7009	14.5467	11.6479	15.928	12.071	-1.0351	2.5037	-2.1226	2.0281	5.7313	7.2873	7.2209	5.2452
7.5076	12.064	12.9627	9.8435	15.872	17.0994	13.2949	14.816	18.9457	14.767	11.8402	16.1308	12.2738	-1.0875	2.6016	-2.0561	2.147	5.7487	7.4412	7.3223	5.3361
7.7279	12.3192	13.2179	10.0708	16.1343	17.3512	13.5047	15.0293	19.2045	14.9698	12.043	16.3231	12.4207	-1.14	2.682	-1.9337	2.2659	5.7697	7.5846	7.3678	5.476
7.8993	12.536	13.4732	10.2736	16.3685	17.6099	13.732	15.2636	19.4492	15.1272	12.2108	16.5084	12.571	-1.2239	2.7555	-1.8358	2.4128	5.7138	7.7454	7.4062	5.6019
8.0881	12.7529	13.7005	10.4764	16.5784	17.8722	13.9138	15.4769	19.652	15.2671	12.4137	16.6833	12.6759	-1.2903	2.8079	-1.7309	2.5702	5.6438	7.8853	7.4272	5.7173
8.2385	12.9242	13.9033	10.6688	16.7672	18.0715	14.0781	15.6587	19.8479	15.4034	12.564	16.8161	12.7319	-1.3812	2.8989	-1.633	2.7345	5.5494	8.0147	7.3957	5.8187
8.4063	13.141	14.1341	10.8716	16.9945	18.2883	14.239	15.879	20.0752	15.5398	12.7529	16.9805	12.8473	-1.4442	2.9828	-1.5281	2.8814	5.427	8.1546	7.3853	5.9586
8.5602	13.3158	14.3159	11.0394	17.1763	18.4806	14.3859	16.0643	20.257	15.6237	12.8962	17.1343	12.8787	-1.5281	3.0737	-1.4442	3.0142	5.2802	8.2769	7.3188	6.0635
8.6966	13.4592	14.4593	11.1618	17.3407	18.6625	14.5187	16.2147	20.4318	15.7007	13.0641	17.2532	12.8962	-1.5806	3.1611	-1.3638	3.1506	5.1473	8.4063	7.2629	6.1649
8.798	13.6096	14.6376	11.2877	17.491	18.8268	14.6027	16.3546	20.5997	15.7671	13.1969	17.3581	12.9207	-1.6435	3.28	-1.2484	3.2695	4.9934	8.5147	7.2209	6.2558
8.8924	13.7145	14.7705	11.3856	17.5889	18.9457	14.6936	16.4944	20.7535	15.7951	13.3158	17.4491	12.9207	-1.7134	3.3639	-1.2064	3.3849	4.8081	8.6336	7.0985	6.3292
8.9308	13.8054	14.8894	11.4415	17.6973	19.0506	14.746	16.6063	20.8654	15.823	13.4312	17.54	12.8822	-1.7589	3.4898	-1.112	3.5003	4.6158	8.7175	7.0111	6.3817
9.0462	13.8683	14.9523	11.4905	17.8267	19.1485	14.7915	16.7112	20.9843	15.844	13.5396	17.6309	12.8368	-1.8078	3.5772	-1.084	3.5807	4.4689	8.8224	6.8992	6.4621
9.0602	13.8928	15.0468	11.5569	17.8792	19.201	14.8125	16.8161	21.0648	15.844	13.648	17.7043	12.8368	-1.8358	3.6681	-1.0386	3.6402	4.2766	8.8574	6.8048	6.4971
9.0847	13.9173	15.0223	11.5325	17.9036	19.2779	14.809	16.8896	21.1347	15.8475	13.7215	17.7673	12.7913	-1.8568	3.7521	-1.0176	3.6926	4.1157	8.9029	6.6999	6.539
9.0917	13.9103	15.0503	11.529	17.9316	19.2709	14.788	16.963	21.1592	15.8161	13.7844	17.8197	12.7494	-1.8883	3.78	-1.0071	3.7486	3.9864	8.9483	6.567	6.5705
9.0357	13.8543	14.9733	11.459	17.9001	19.2604	14.7285	16.9805	21.1627	15.7426	13.7774	17.8022	12.6445	-1.9128	3.829	-1.0351	3.801	3.829	8.9343	6.4411	6.5495
9.0113	13.7809	14.9384	11.4031	17.9001	19.2184	14.6691	17.012	21.1802	15.6937	13.8369	17.8302	12.571	-1.9197	3.885	-1.0106	3.822	3.6961	8.9413	6.3502	6.574
8.9483	13.732	14.8719	11.3157	17.8477	19.152	14.5887	16.9805	21.1172	15.6167	13.8439	17.7952	12.4731	-1.9372	3.829	-1.0351	3.857	3.5807	8.9518	6.2208	6.567
8.8539	13.5711	14.725	11.1828	17.7603	19.0261	14.4628	16.9315	21.0228	15.4908	13.8124	17.7183	12.3507	-1.9512	3.801	-1.07	3.8919	3.4374	8.8924	6.0914	6.5285
8.728	13.4557	14.5712	11.0499	17.6449	18.8828	14.3474	16.8581	20.9249	15.3859	13.7599	17.6134	12.1934	-1.9582	3.7975	-1.0805	3.8919	3.3429	8.8749	5.9865	6.5006
8.6336	13.2949	14.4103	10.8856	17.547	18.7219	14.197	16.7917	20.764	15.2531	13.697	17.4875	12.064	-1.9617	3.7381	-1.1435	3.8954	3.2555	8.8294	5.8956	6.4551
8.4518	13.0641	14.1726	10.6583	17.3512	18.5156	14.0012	16.6623	20.5717	15.0607	13.5816	17.3337	11.8821	-1.9582	3.6367	-1.2064	3.8954	3.1296	8.7245	5.7313	6.3922
8.2909	12.8892	13.9313	10.4834	17.2078	18.3128	13.8194	16.5679	20.3794	14.8964	13.4907	17.1763	11.6933	-1.9512	3.5807	-1.2693	3.857	3.0597	8.6756	5.6578	6.3537
8.0846	12.6165	13.6865	10.2072	17.0015	18.0225	13.5781	16.3685	20.1171	14.6551	13.3298	16.9665	11.4835	-1.9232	3.4863	-1.3568	3.8325	2.9618	8.5777	5.518	6.2698
7.8608	12.3542	13.3998	9.9554	16.7532	17.7498	13.3298	16.2007	19.8514	14.4348	13.1795	16.7287	11.2457	-1.9302	3.3604	-1.4826	3.8115	2.8989	8.4588	5.3886	6.2208
7.63	12.043	13.1095	9.6617	16.5014	17.4211	13.0536	15.9909	19.5611	14.1621	13.0151	16.4909	11.0079	-1.8988	3.245	-1.5875	3.7591	2.8324	8.3259	5.2592	6.1544
7.3818	11.7528	12.7878	9.4379	16.2462	17.1064	12.7878	15.7951	19.2464	13.8998	12.8473	16.2532	10.7772	-1.8708	3.1261	-1.696	3.6891	2.745	8.2035	5.1158	6.0635
7.109	11.445	12.4731	9.0987	15.9489	16.7497	12.4836	15.5433	18.8828	13.6305	12.641	15.9699	10.5324	-1.8253	2.9933	-1.7974	3.6192	2.6716	8.0287	4.9969	5.9935
6.8467	11.1198	12.1304	8.7875	15.6727	16.379	12.1829	15.295	18.5541	13.3473	12.4451	15.7251	10.2981	-1.7624	2.8324	-1.9162	3.5143	2.6016	7.8678	4.8745	5.9131
6.5495	10.7702	11.7772	8.5112	15.358	16.0154	11.8856	15.0328	18.2009	13.0606	12.2318	15.4594	10.0358	-1.696	2.71	-1.9967	3.3779	2.5212	7.6755	4.7661	5.8571
6.2698	10.445	11.4485	8.1511	15.0537	15.6867	11.6059	14.774	17.8232	12.7878	12.029	15.1831	9.805	-1.612	2.5632	-2.0736	3.2101	2.4478	7.5006	4.6473	5.7662
5.9586	10.0988	11.0919	7.8293	14.7076	15.3055	11.2912	14.5013	17.463	12.4731	11.8087	14.8929	9.5218	-1.5316	2.3813	-2.1995	3.0422	2.3743	7.3153	4.4934	5.6788
5.6753	9.7666	10.7387	7.5286	14.3963	14.9523	10.9835	14.246	17.1029	12.2073	11.6059	14.6306	9.312	-1.4197	2.2799	-2.2659	2.8359	2.3219	7.137	4.392	5.5914
5.3256	9.4064	10.368	7.2034	14.0467	14.5607	10.6583	13.9558	16.7252	11.8926	11.3856	14.3509	9.0392	-1.3183	2.0911	-2.3568	2.6226	2.2205	6.9167	4.2241	5.4795
5.0319	9.0497	10.0218	6.8572	13.7285	14.1795	10.3505	13.6795	16.3406	11.5989	11.1653	14.0607	8.7805	-1.2134	1.9512	-2.4128	2.4023	2.1505	6.7209	4.0913	5.3956
4.7172	8.7315	9.6617	6.567	13.3823	13.8299	10.0638	13.3788	15.9979	11.2947	10.9205	13.8054	8.5287	-1.098	1.8113	-2.4513	2.161	2.0911	6.525	3.9444	5.3116
4.392	8.4063	9.2945	6.2278	13.0711	13.4277	9.7526	13.085	15.6307	10.966	10.6897	13.5047	8.2874	-0.9791	1.668	-2.5002	1.9407	1.9862	6.3187	3.808	5.1858
4.1157	8.1021	8.9448	5.9236	12.7633	13.1165	9.4833	12.8368	15.2915	10.7107	10.5044	13.2634	8.0916	-0.8742	1.5701	-2.5527	1.7064	1.9197	6.1544	3.6856	5.1193
3.822	7.8154	8.6091	5.6578	12.5011	12.7808	9.1896	12.557	14.9698	10.41	10.3051	13.0011	7.8433	-0.7413	1.5211	-2.5457	1.4896	1.8603	5.976	3.5388	5.0389
3.5178	7.5321	8.2769	5.3536	12.2108	12.4626	8.9099	12.3018	14.6341	10.1163	10.1233	12.7598	7.5986	-0.6644	1.4127	-2.5946	1.3148	1.7834	5.7907	3.3744	4.941
3.2765	7.2838	7.9832	5.0704	11.9731	12.1514	8.6476	12.0675	14.3369	9.8785	9.9414	12.543	7.3783	-0.584	1.3707	-2.6191	1.1539	1.7064	5.6543	3.2276	4.885
3.0212	7.0496	7.6755	4.8046	11.7213	11.8717	8.3923	11.8297	14.0642	9.6267	9.7911	12.3437	7.1929	-0.521	1.3882	-2.6086	1.0211	1.626	5.49	3.0772	4.8116
2.7415	6.7978	7.3922	4.5633	11.4695	11.6059	8.1546	11.6444	13.8194	9.4029	9.6477	12.1724	7.0391	-0.4686	1.3428	-2.6506	0.9092	1.5771	5.3571	2.9373	4.7766
2.5142	6.574	7.109	4.2976	11.2772	11.3611	7.9203	11.466	13.6026	9.1861	9.5358	12.036	6.8922	-0.4161	1.3393	-2.6506	0.8113	1.5456	5.2172	2.7974	4.7452
2.3114	6.4027	6.8398	4.0458	11.0744	11.1163	7.7314	11.3122	13.3893	9.0288	9.4519	11.9276	6.7943	-0.3812	1.3288	-2.6995	0.7483	1.5071	5.1018	2.6716	4.6927
2.0911	6.2453	6.6055	3.8395	10.903	10.9065	7.5426	11.1863	13.2389	8.8574	9.3644	11.8402	6.6999	-0.3567	1.3428	-2.759	0.7064	1.4896	4.962	2.5527	4.6542
1.9232	6.0879	6.3852	3.6227	10.7562	10.7247	7.3503	11.0569	13.106	8.721	9.312	11.7772	6.6264	-0.3462	1.3498	-2.8184	0.6574	1.5036	4.8606	2.4408	4.6473
1.7554	5.976	6.2418	3.4653	10.6792	10.5673	7.2244	10.973	13.0081	8.6231	9.291	11.7668	6.6369	-0.3252	1.3847	-2.8534	0.6364	1.5281	4.7696	2.3499	4.6263
1.5945	5.8606	6.0495	3.2765	10.5883	10.4694	7.0915	10.9135	12.9382	8.5777	9.284	11.7772	6.6195	-0.3252	1.4302	-2.9233	0.6399	1.5631	4.6787	2.2869	4.5738
1.4582	5.7837	5.8991	3.1366	10.5289	10.368	6.9831	10.8506	12.8787	8.4972	9.284	11.7947	6.616	-0.3462	1.4617	-3.0247	0.6749	1.5945	4.5913	2.1995	4.5458
1.3288	5.7068	5.7802	2.9933	10.4624	10.2561	6.8887	10.8331	12.8613	8.4448	9.291	11.8332	6.6474	-0.3672	1.5176	-3.1122	0.7099	1.6645	4.5284	2.154	4.5249
1.2344	5.6508	5.6823	2.9093	10.4589	10.1862	6.8223	10.8051	12.8647	8.4413	9.34	11.9066	6.7139	-0.3742	1.5421	-3.1891	0.7588	1.7239	4.4689	2.0981	4.5284
1.1504	5.6089	5.6124	2.8254	10.417	10.1722	6.7908	10.8226	12.8613	8.4658	9.354	11.9556	6.7418	-0.4056	1.5736	-3.2415	0.8287	1.8009	4.427	2.0596	4.4969
1.063	5.5599	5.5529	2.7345	10.41	10.1163	6.7209	10.8156	12.8752	8.4413	9.3854	12.008	6.7733	-0.4686	1.6155	-3.3569	0.9406	1.7904	4.378	1.9897	4.4829
1.0455	5.5564	5.5075	2.717	10.445	10.1652	6.7104	10.8821	12.9452	8.4937	9.4519	12.1339	6.8852	-0.5175	1.6645	-3.4094	1.0351	1.8673	4.364	1.9757	4.4619
1.0001	5.5564	5.5145	2.6925	10.4659	10.1617	6.7209	10.9275	13.0431	8.5532	9.4763	12.2004	6.9621	-0.5805	1.6645	-3.5003	1.1504	1.9232	4.3325	1.9547	4.4479
0.9441	5.5459	5.49	2.6611	10.4869	10.2002	6.7209	10.938	13.1025	8.5847	9.4763	12.2633	7.0216	-0.6539	1.654	-3.5807	1.2903	1.9337	4.3186	1.9232	4.427
0.9581	5.5459	5.5285	2.6716	10.4904	10.2666	6.7523	10.9695	13.1795	8.6546	9.5113	12.3262	7.081	-0.7133	1.633	-3.6087	1.4267	1.9407	4.3116	1.9058	4.392
0.9616	5.5634	5.5459	2.7065	10.5359	10.3261	6.7733	11.0289	13.2879	8.7455	9.5078	12.3927	7.1685	-0.7903	1.6295	-3.6437	1.5771	1.9897	4.3046	1.9128	4.35
0.9686	5.6124	5.5984	2.78	10.6373	10.4415	6.8642	11.1059	13.3963	8.8539	9.5323	12.4871	7.2699	-0.8462	1.5875	-3.6821	1.7064	2.0037	4.35	1.9407	4.343
0.9791	5.6438	5.6753	2.8569	10.6827	10.5324	6.9202	11.1303	13.5012	8.9693	9.5428	12.543	7.3678	-0.9302	1.5666	-3.7206	1.8568	2.0002	4.343	1.9512	4.3151
1.0106	5.6998	5.7627	2.9198	10.7702	10.6792	7.0356	11.1828	13.6445	9.0602	9.5743	12.62	7.4867	-1.0176	1.5071	-3.7661	1.9897	2.0212	4.378	1.9827	4.3186
1.098	5.7348	5.8851	3.0737	10.8366	10.8226	7.1405	11.2667	13.7774	9.2316	9.5603	12.7004	7.623	-1.063	1.4687	-3.7591	2.1016	2.0666	4.413	2.0561	4.2801
1.1679	5.8152	6.0005	3.1751	10.903	10.9555	7.2559	11.3122	13.9313	9.3784	9.5743	12.7808	7.7314	-1.1155	1.4652	-3.7835	2.2065	2.0981	4.4235	2.0946	4.2381
1.2798	5.8956	6.1369	3.3325	10.966	11.1338	7.4167	11.3646	14.0746	9.5288	9.5708	12.8752	7.8713	-1.1504	1.4652	-3.7451	2.2974	2.14	4.4654	2.161	4.2311
1.3673	5.983	6.3012	3.5248	11.0639	11.3366	7.5531	11.4276	14.2565	9.7246	9.5533	12.9487	8.0182	-1.2029	1.4687	-3.7171	2.3673	2.161	4.5074	2.2659	4.2032
1.4826	6.0495	6.4411	3.6891	11.1408	11.4835	7.714	11.4415	14.3929	9.8925	9.5323	12.9906	8.1476	-1.2204	1.4966	-3.6437	2.4268	2.2135	4.5109	2.3848	4.1472
1.6295	6.1544	6.6195	3.878	11.2038	11.6688	7.8958	11.445	14.5467	10.0638	9.4833	13.0221	8.2944	-1.2484	1.5666	-3.5213	2.4862	2.2799	4.5214	2.4652	4.0843
1.7554	6.2418	6.8153	4.0878	11.2562	11.8402	8.0636	11.4765	14.7006	10.2352	9.4449	13.0501	8.4238	-1.2728	1.6015	-3.4269	2.5107	2.3394	4.5493	2.5771	3.9968
1.9267	6.3082	6.9621	4.2521	11.3227	12.001	8.249	11.452	14.802	10.403	9.3714	13.0501	8.5077	-1.2728	1.675	-3.315	2.5282	2.3778	4.5424	2.71	3.9164
2.0666	6.4096	7.123	4.4549	11.3821	12.1514	8.4063	11.4066	14.9139	10.5708	9.2665	12.9976	8.6056	-1.2693	1.7449	-3.1611	2.5352	2.4233	4.5284	2.8149	3.8185
2.224	6.5041	7.3188	4.6717	11.4241	12.3018	8.5882	11.3961	15.0363	10.7282	9.1966	12.9766	8.7001	-1.2449	1.8288	-2.9898	2.4827	2.4897	4.5214	2.9443	3.7486
2.4163	6.5845	7.4552	4.8291	11.452	12.4556	8.728	11.3401	15.1062	10.8576	9.0672	12.9242	8.749	-1.2309	1.9023	-2.8464	2.4338	2.5037	4.5179	3.0457	3.6577
2.5282	6.6334	7.6125	5.0074	11.4695	12.5815	8.8574	11.3052	15.1796	10.966	8.9064	12.8403	8.7735	-1.2064	1.9652	-2.703	2.4093	2.4827	4.4899	3.1471	3.5143
2.689	6.6999	7.7454	5.1963	11.4765	12.7074	9.0113	11.2212	15.2531	11.0744	8.763	12.7529	8.798	-1.1714	2.0666	-2.5352	2.3429	2.4932	4.4689	3.245	3.4094
2.8149	6.7488	7.8853	5.3256	11.48	12.7983	9.1022	11.1478	15.288	11.1338	8.6301	12.641	8.784	-1.147	2.147	-2.4023	2.2869	2.4338	4.4479	3.3115	3.287
2.9443	6.7768	7.9937	5.4865	11.4765	12.8927	9.2036	11.0709	15.323	11.2038	8.4518	12.5186	8.756	-1.1155	2.2484	-2.2345	2.231	2.3918	4.3955	3.3814	3.1751
3.0737	6.8258	8.0951	5.6054	11.515	12.9836	9.3225	11.001	15.3615	11.2737	8.2979	12.4067	8.7385	-1.098	2.3499	-2.0701	2.182	2.3499	4.371	3.4513	3.0562
3.1751	6.8642	8.1615	5.7138	11.4485	12.9976	9.347	10.8821	15.3265	11.2842	8.1021	12.2668	8.6371	-1.0805	2.4338	-1.9372	2.1435	2.2449	4.3255	3.5038	2.9443
3.2835	6.8852	8.235	5.8117	11.4555	13.0431	9.4379	10.7981	15.337	11.2912	7.9587	12.1549	8.5882	-1.049	2.5107	-1.8183	2.0946	2.1925	4.2906	3.5283	2.8079
3.3534	6.8887	8.263	5.9201	11.3821	13.0361	9.4728	10.6932	15.3195	11.2912	7.7629	11.9871	8.5077	-1.0351	2.5981	-1.689	2.0526	2.1226	4.2661	3.5353	2.6681
3.4094	6.8747	8.2944	5.9795	11.3366	13.0361	9.5358	10.5813	15.288	11.2667	7.6021	11.8402	8.4098	-1.0141	2.6331	-1.5841	2.0037	2.0386	4.2206	3.5772	2.5422
3.4409	6.8677	8.2804	6.039	11.2632	13.0256	9.5253	10.4694	15.2076	11.2457	7.4062	11.6688	8.3084	-0.9896	2.682	-1.5421	1.9617	1.9267	4.1752	3.6192	2.3848
3.4828	6.8293	8.2769	6.0809	11.1653	12.9662	9.5358	10.3226	15.1272	11.1828	7.1929	11.4765	8.1755	-0.9756	2.71	-1.4757	1.9267	1.7974	4.1262	3.6262	2.217
3.4758	6.7488	8.2	6.074	11.0499	12.8717	9.5008	10.1617	14.9873	11.0884	6.9726	11.2632	7.9972	-0.9581	2.731	-1.4861	1.9023	1.6225	4.0423	3.5947	2.0386
3.4583	6.6544	8.1336	6.0774	10.9135	12.7284	9.4414	9.9834	14.823	10.959	6.6964	11.0114	7.8433	-0.9546	2.703	-1.4092	1.8883	1.4791	3.9584	3.5528	1.8673
3.4234	6.5775	8.0531	6.0774	10.7527	12.606	9.3994	9.798	14.6726	10.8296	6.4551	10.7387	7.6056	-0.9406	2.7345	-1.4372	1.8638	1.3148	3.8745	3.5493	1.6785
3.3954	6.4796	7.9552	6.011	10.6233	12.4451	9.291	9.5812	14.4313	10.6792	6.1928	10.438	7.3783	-0.9441	2.696	-1.4267	1.8813	1.1435	3.8115	3.4898	1.4791
3.2905	6.3502	7.8189	5.9656	10.4135	12.2458	9.1861	9.347	14.232	10.4869	5.9306	10.1407	7.137	-0.9441	2.682	-1.4582	1.8813	0.9441	3.7346	3.4094	1.3078
3.2241	6.2418	7.6895	5.8641	10.2177	12.064	9.0637	9.1337	13.9872	10.2701	5.6613	9.8295	6.8782	-0.9546	2.689	-1.4652	1.8988	0.7378	3.6542	3.3255	1.14
3.1436	6.0844	7.5426	5.8117	10.0218	11.8437	8.8784	8.9204	13.704	10.0323	5.3501	9.5008	6.56	-0.9616	2.6855	-1.4652	1.9023	0.535	3.5597	3.2276	0.9721
3.0457	5.9166	7.3748	5.6578	9.84	11.6094	8.7595	8.6686	13.4172	9.7946	5.0844	9.1337	6.2908	-0.9721	2.6436	-1.4931	1.9442	0.2972	3.4618	3.1017	0.7903
2.9723	5.7767	7.1894	5.5704	9.6127	11.3716	8.5532	8.4623	13.127	9.5288	4.8081	8.7735	5.99	-1.0036	2.6226	-1.5106	1.9722	0.0734	3.3849	2.9793	0.6329
2.8499	5.6124	7.0041	5.42	9.4099	11.1163	8.3783	8.249	12.8193	9.284	4.5144	8.4413	5.6823	-1.0211	2.6121	-1.5106	2.0107	-0.1748	3.28	2.8569	0.4826
2.7345	5.462	6.8328	5.2872	9.1931	10.8576	8.1895	8.0287	12.5186	9.0218	4.2591	8.0986	5.3536	-1.0386	2.6016	-1.5806	2.0351	-0.3777	3.2171	2.717	0.3427
2.6331	5.2977	6.6404	5.1508	8.9973	10.6093	7.9902	7.8154	12.2039	8.7665	4.0143	7.7489	5.0913	-1.0525	2.5841	-1.6015	2.0771	-0.6154	3.1471	2.5527	0.2413
2.4897	5.1263	6.4866	4.976	8.791	10.3436	7.7839	7.6056	11.9136	8.5042	3.7626	7.4552	4.8116	-1.0595	2.5841	-1.6785	2.0911	-0.7833	3.0667	2.4128	0.1539
2.3848	4.9829	6.3152	4.8256	8.6231	10.1233	7.6056	7.4377	11.6514	8.2664	3.5947	7.1789	4.5633	-1.0595	2.5492	-1.682	2.1016	-0.9616	2.9793	2.2554	0.0734
2.2729	4.8221	6.1404	4.6752	8.4273	9.889	7.3888	7.2664	11.3681	8.0217	3.4199	6.9132	4.35	-1.084	2.5352	-1.7379	2.1191	-1.1155	2.9303	2.1156	0.007
2.1715	4.6647	5.969	4.5249	8.2769	9.6547	7.2104	7.095	11.1128	7.8154	3.2241	6.6859	4.1087	-1.07	2.5002	-1.7554	2.1191	-1.2868	2.8604	1.9757	-0.0315
2.0421	4.4724	5.8012	4.371	8.0811	9.4309	6.9901	6.9551	10.8646	7.5496	3.0702	6.4411	3.8919	-1.077	2.5107	-1.7659	2.1331	-1.3882	2.7835	1.8113	-0.1014
1.9058	4.3081	5.6229	4.1892	7.8923	9.2176	6.8118	6.8118	10.6163	7.3538	2.9233	6.2313	3.6926	-1.0805	2.4757	-1.8183	2.147	-1.5386	2.7205	1.654	-0.1434
1.8044	4.1752	5.469	4.0563	7.7209	8.9938	6.6299	6.6614	10.3925	7.144	2.7974	6.0565	3.5038	-1.084	2.4652	-1.8078	2.1261	-1.64	2.6576	1.5141	-0.1678
1.7204	3.9724	5.3116	3.885	7.5636	8.812	6.4411	6.4936	10.1757	6.9412	2.6995	5.8711	3.336	-1.0735	2.4618	-1.7904	2.1296	-1.7554	2.5911	1.3812	-0.2133
1.619	3.8395	5.1648	3.78	7.4097	8.6301	6.2558	6.4236	10.0149	6.7628	2.6156	5.7208	3.2136	-1.0665	2.4687	-1.7729	2.1016	-1.8183	2.5597	1.2658	-0.2098
1.5176	3.6681	5.0389	3.6122	7.2803	8.4902	6.0984	6.3327	9.861	6.623	2.5562	5.6089	3.0737	-1.0595	2.4827	-1.7379	2.0841	-1.9128	2.5352	1.1504	-0.1783
1.4791	3.5528	4.962	3.5178	7.1789	8.3399	5.9621	6.2698	9.7246	6.4831	2.5387	5.5459	2.9863	-1.042	2.5527	-1.64	2.0666	-1.9162	2.5142	1.0735	-0.1154
1.4372	3.4653	4.8815	3.4444	7.1055	8.2595	5.8641	6.2418	9.6442	6.3747	2.5597	5.5075	2.9128	-1.0386	2.6191	-1.5841	2.0561	-1.9512	2.5142	1.0211	-0.0455
1.4057	3.3569	4.7836	3.322	7.0006	8.1406	5.7732	6.2208	9.5603	6.3117	2.5771	5.476	2.8674	-1.0316	2.682	-1.4896	2.0526	-1.9407	2.5212	0.9371	0.0385
1.3568	3.273	4.7137	3.2276	6.9307	8.0671	5.6403	6.2138	9.5043	6.2138	2.6121	5.476	2.8219	-1.0351	2.752	-1.4197	2.0701	-1.9197	2.5247	0.8812	0.1294
1.3428	3.2031	4.6717	3.1716	6.9132	8.0531	5.5914	6.2488	9.5008	6.1893	2.717	5.5389	2.8534	-1.049	2.8254	-1.3393	2.0876	-1.8848	2.5597	0.8322	0.2658
1.3358	3.1541	4.6228	3.1017	6.8398	8.0077	5.5389	6.2698	9.4938	6.1579	2.8114	5.5984	2.8709	-1.0735	2.9058	-1.2798	2.1331	-1.8218	2.6401	0.8357	0.3986
1.3183	3.0842	4.6193	3.0597	6.8572	8.0182	5.5285	6.3747	9.5882	6.1649	2.9828	5.7348	2.9303	-1.0875	2.9898	-1.2239	2.1575	-1.7694	2.696	0.8183	0.549
1.3218	3.0947	4.6088	3.0632	6.8887	8.0881	5.5354	6.4971	9.7001	6.2383	3.1646	5.9166	3.0457	-1.105	3.0947	-1.147	2.1855	-1.661	2.766	0.8322	0.7099
1.3533	3.0807	4.6018	3.0422	6.9342	8.1266	5.5669	6.5985	9.8015	6.2908	3.3674	6.1124	3.1751	-1.133	3.1856	-1.1015	2.231	-1.5561	2.8499	0.8497	0.8742
1.4022	3.1122	4.6647	3.0632	7.0146	8.2385	5.5844	6.7418	9.9449	6.4061	3.5842	6.3327	3.301	-1.1365	3.28	-1.0455	2.2694	-1.4477	2.9338	0.9057	1.0281
1.4722	3.1052	4.6612	3.0842	7.067	8.3084	5.6543	6.8852	10.1337	6.5041	3.808	6.5845	3.4723	-1.1574	3.329	-1.0805	2.3044	-1.3078	2.9968	0.9406	1.1854
1.5106	3.1996	4.7592	3.1611	7.1719	8.4693	5.7662	7.0845	10.3226	6.6544	4.0703	6.8957	3.6647	-1.1644	3.4059	-1.07	2.3254	-1.1504	3.0982	1.0211	1.3673
1.5631	3.2765	4.8186	3.2136	7.2943	8.6021	5.8502	7.2769	10.5464	6.8118	4.3186	7.1719	3.878	-1.1924	3.4444	-1.0875	2.3603	-1.0001	3.1856	1.119	1.4861
1.612	3.3534	4.8676	3.2695	7.4167	8.7385	5.969	7.4692	10.7492	6.9971	4.5878	7.4552	4.0563	-1.2239	3.4513	-1.126	2.4373	-0.8707	3.2485	1.1994	1.619
1.7029	3.4513	4.9725	3.3464	7.5426	8.9029	6.1089	7.6475	10.9485	7.1685	4.8536	7.7419	4.2906	-1.2484	3.4723	-1.1749	2.4757	-0.7238	3.315	1.3288	1.7379
1.8078	3.5772	5.0948	3.4688	7.7035	9.0707	6.2733	7.8748	11.2073	7.3783	5.1333	8.0531	4.4969	-1.2658	3.4758	-1.2064	2.5177	-0.577	3.3814	1.4407	1.8673
1.8568	3.6751	5.1648	3.5632	7.8503	9.2176	6.4236	8.0636	11.4171	7.5636	5.3221	8.3294	4.6857	-1.2903	3.4653	-1.2798	2.5702	-0.4651	3.4094	1.5491	1.9337
1.9792	3.822	5.2802	3.7031	8.0042	9.4064	6.6055	8.249	11.6444	7.7874	5.6229	8.6231	4.934	-1.3148	3.4618	-1.3148	2.5981	-0.3602	3.4479	1.696	2.0177
2.0841	3.9514	5.4061	3.815	8.1406	9.5673	6.7873	8.4448	11.8682	7.9937	5.8257	8.9273	5.1438	-1.3323	3.4129	-1.3638	2.6296	-0.1958	3.4618	1.8253	2.0526
2.168	4.0808	5.5319	3.9409	8.2979	9.7281	6.9447	8.6266	12.0885	8.179	6.0774	9.1966	5.3641	-1.3218	3.3779	-1.4057	2.6331	-0.0944	3.5003	1.9652	2.1051
2.2869	4.1962	5.6299	4.1052	8.4483	9.889	7.151	8.798	12.2948	8.3853	6.3047	9.4589	5.5774	-1.3428	3.3464	-1.4407	2.6436	0.014	3.4758	2.1086	2.1121
2.3883	4.3325	5.7732	4.2416	8.5742	10.0358	7.3223	8.9798	12.5116	8.5986	6.5145	9.7141	5.7837	-1.3288	3.3325	-1.4582	2.6506	0.1294	3.4863	2.2659	2.0736
2.5072	4.4724	5.9061	4.385	8.742	10.1932	7.5251	9.1511	12.7214	8.798	6.7314	9.9974	6.0075	-1.3428	3.294	-1.4442	2.6261	0.2483	3.4828	2.4373	2.0631
2.6086	4.6018	6.039	4.5179	8.8679	10.368	7.707	9.277	12.9417	9.0148	6.9272	10.2631	6.2138	-1.3288	3.315	-1.4197	2.6121	0.3812	3.5038	2.5981	2.0491
2.731	4.7277	6.1858	4.6787	9.0148	10.5254	7.9203	9.4624	13.1585	9.2386	7.123	10.5499	6.4691	-1.3078	3.3464	-1.3847	2.5911	0.4965	3.4688	2.759	2.0037
2.8429	4.8711	6.3152	4.8501	9.1302	10.6618	8.1266	9.5812	13.3333	9.4484	7.2908	10.7981	6.6754	-1.2833	3.4024	-1.2763	2.5527	0.6469	3.4653	2.9338	1.9442
2.9863	4.9585	6.4691	5.0249	9.2735	10.8121	8.3189	9.7421	13.5396	9.6512	7.4692	11.0394	6.8922	-1.2693	3.4583	-1.2204	2.5212	0.7378	3.4234	3.0807	1.8603
3.0982	5.0704	6.6264	5.1788	9.3994	10.966	8.5007	9.8645	13.7145	9.896	7.6056	11.2807	7.1195	-1.2379	3.5178	-1.1155	2.4618	0.8427	3.4129	3.3045	1.7799
3.2276	5.1823	6.7174	5.3396	9.4868	11.1373	8.707	9.9869	13.8928	10.0778	7.7454	11.5325	7.3363	-1.2064	3.6367	-1.0141	2.4093	0.9546	3.3849	3.4758	1.668
3.301	5.2487	6.8572	5.483	9.5778	11.2527	8.8854	10.0638	14.0851	10.2806	7.8189	11.7318	7.4902	-1.1924	3.7066	-0.9057	2.3673	1.07	3.3394	3.6192	1.5456
3.4304	5.3361	7.0006	5.6264	9.6652	11.3926	9.0532	10.1302	14.211	10.4659	7.9133	11.9101	7.6825	-1.1819	3.8255	-0.7868	2.3149	1.1435	3.287	3.7696	1.3882
3.5353	5.427	7.13	5.8082	9.7561	11.5499	9.2316	10.2072	14.3544	10.6408	7.9692	12.0675	7.8398	-1.1435	3.9514	-0.6504	2.2554	1.2484	3.245	3.9514	1.2309
3.6367	5.5005	7.2524	5.9586	9.819	11.6688	9.3889	10.2666	14.4663	10.7876	7.9937	12.1969	7.9762	-1.112	4.0703	-0.5595	2.2205	1.3008	3.2066	4.0668	1.056
3.7591	5.5949	7.3678	6.1054	9.875	11.8192	9.5708	10.3296	14.6236	10.952	8.0287	12.3262	8.0951	-1.105	4.1962	-0.4371	2.1715	1.3673	3.1401	4.2171	0.8882
3.8605	5.6334	7.4867	6.2243	9.9239	11.9276	9.6652	10.3366	14.7146	11.0499	7.9727	12.3997	8.1825	-1.077	4.2836	-0.3672	2.1226	1.3742	3.1017	4.3151	0.6959
3.9479	5.6963	7.5846	6.3817	9.9799	12.0255	9.798	10.3296	14.8125	11.1408	7.9238	12.4871	8.242	-1.0455	4.3885	-0.2937	2.0526	1.4197	3.0527	4.4549	0.542
4.0073	5.7627	7.679	6.5145	10.0393	12.1479	9.903	10.3121	14.8964	11.2352	7.8398	12.5256	8.3014	-1.0176	4.4899	-0.2098	2.0072	1.3847	3.0038	4.5424	0.3357
4.1018	5.8152	7.7524	6.6125	10.0323	12.2353	9.9834	10.2771	14.9558	11.2737	7.7664	12.5465	8.2699	-0.9826	4.5948	-0.1399	1.9407	1.3742	2.9373	4.6088	0.1434
4.1612	5.8746	7.8398	6.7174	10.0533	12.3332	10.0813	10.2561	15.0118	11.3017	7.665	12.5186	8.2769	-0.9616	4.6892	-0.0769	1.8883	1.2938	2.8674	4.5983	-0.0734
4.2486	5.969	7.9308	6.8432	10.1093	12.4486	10.1547	10.2282	15.0642	11.3436	7.5776	12.5256	8.2595	-0.9162	4.7941	0.0105	1.8148	1.2798	2.8149	4.6647	-0.2623
4.2696	5.99	7.9902	6.9167	10.0883	12.4976	10.1932	10.1722	15.0992	11.3471	7.4482	12.4906	8.186	-0.8917	4.8501	0.0559	1.7834	1.1854	2.759	4.6717	-0.4651
4.3605	6.0495	8.0846	6.9831	10.1198	12.5955	10.2491	10.1163	15.1237	11.3262	7.3083	12.4416	8.1511	-0.8707	4.9585	0.1049	1.7204	1.091	2.6995	4.6752	-0.6539
4.385	6.0844	8.0881	7.0496	10.0988	12.6445	10.2282	10.0778	15.1761	11.2912	7.144	12.3962	8.0531	-0.8532	5.0704	0.1469	1.6855	1.0386	2.6471	4.6438	-0.8078
4.4549	6.1614	8.1685	7.123	10.1512	12.7284	10.2736	10.0288	15.1936	11.2597	7.0076	12.3367	7.9867	-0.8148	5.2032	0.2098	1.6435	0.9616	2.6051	4.6018	-0.9616
4.4654	6.2033	8.179	7.1335	10.1372	12.7494	10.2386	9.9449	15.1726	11.2038	6.8258	12.2178	7.8608	-0.8392	5.2732	0.2168	1.668	0.8183	2.5352	4.5493	-1.1365
4.4934	6.2523	8.2175	7.144	10.1547	12.7808	10.2072	9.8855	15.1272	11.1268	6.6614	12.1164	7.7664	-0.8287	5.3571	0.2588	1.647	0.7029	2.4792	4.4549	-1.2903
4.4724	6.2523	8.1965	7.1195	10.1093	12.7703	10.1302	9.7246	15.0642	11.001	6.4061	11.9206	7.5811	-0.8637	5.4235	0.2728	1.7204	0.5805	2.4163	4.3186	-1.4442
4.4759	6.2698	8.2035	7.0635	10.0743	12.7249	10.0603	9.6022	14.9873	10.8716	6.1963	11.7318	7.3713	-0.8812	5.469	0.2867	1.7519	0.4336	2.3848	4.2102	-1.5631
4.4689	6.2873	8.1825	7.0111	10.0603	12.6899	9.9624	9.5428	14.8754	10.7492	5.9935	11.5639	7.2314	-0.9022	5.5354	0.3497	1.7869	0.3042	2.3673	4.0668	-1.675
4.3815	6.2523	8.1266	6.9027	9.9799	12.5955	9.8015	9.354	14.7285	10.5499	5.7173	11.3017	7.0181	-0.9406	5.5494	0.2902	1.8603	0.1678	2.3289	3.9059	-1.8044
4.3081	6.2208	8.0566	6.7803	9.8995	12.4591	9.6337	9.2106	14.5747	10.3505	5.4585	11.0114	6.7733	-0.9651	5.5564	0.2693	1.9197	0.0035	2.2764	3.7241	-1.8813
4.2067	6.1439	7.9517	6.595	9.805	12.3332	9.4484	9.0532	14.3614	10.1163	5.1788	10.7002	6.518	-1.0246	5.5215	0.2448	2.0212	-0.1678	2.2589	3.5423	-1.9862
4.1052	6.0705	7.8119	6.4341	9.6862	12.1514	9.2316	8.8504	14.1516	9.8785	4.885	10.375	6.2418	-1.049	5.4865	0.2658	2.0911	-0.3182	2.21	3.3255	-2.0701
3.9829	6.0075	7.672	6.2313	9.5673	11.9626	9.0078	8.6476	13.8893	9.5882	4.5948	10.0044	5.9411	-1.084	5.4725	0.2623	2.1505	-0.493	2.182	3.1087	-2.161
3.829	5.8746	7.4972	5.99	9.4309	11.7668	8.7595	8.4378	13.6236	9.305	4.3151	9.6337	5.6613	-1.1155	5.4096	0.2413	2.2205	-0.6574	2.1226	2.8779	-2.2205
3.6402	5.7453	7.3118	5.7557	9.2945	11.5325	8.5007	8.235	13.3403	9.0043	3.9934	9.2595	5.3536	-1.1609	5.3326	0.2238	2.3009	-0.8217	2.0911	2.6576	-2.2869
3.4444	5.5984	7.116	5.49	9.1407	11.2597	8.1965	8.0217	13.0221	8.6931	3.7346	8.8749	5.0494	-1.1994	5.2767	0.2063	2.3813	-0.9791	2.0561	2.4058	-2.3079
3.245	5.483	6.8957	5.2137	8.9728	11.0324	7.9308	7.8049	12.7039	8.3888	3.4653	8.4623	4.7487	-1.2309	5.1893	0.1888	2.4478	-1.126	1.9897	2.175	-2.3499
3.0597	5.3186	6.6754	4.8955	8.7735	10.7527	7.6475	7.5916	12.3717	8.0636	3.2241	8.0776	4.4444	-1.2554	5.1158	0.1609	2.5072	-1.2798	1.9687	1.9477	-2.4128
2.8289	5.1648	6.4586	4.6228	8.5882	10.4589	7.3643	7.3713	12.0395	7.7629	2.9478	7.7175	4.1507	-1.2833	5.0529	0.1119	2.5597	-1.4092	1.9093	1.7134	-2.4058
2.6016	4.962	6.1824	4.3116	8.4098	10.1757	7.0356	7.165	11.6968	7.4377	2.6716	7.3118	3.85	-1.3078	4.9725	0.035	2.6086	-1.5526	1.8463	1.4512	-2.4198
2.3568	4.7557	5.9236	4.0143	8.193	9.8855	6.7488	6.9272	11.3227	7.137	2.4268	6.9202	3.5388	-1.3323	4.8711	-0.0245	2.6471	-1.7099	1.7939	1.2379	-2.3883
2.1226	4.6088	5.6648	3.7101	8.0077	9.5987	6.4901	6.7279	11.0324	6.8258	2.203	6.5355	3.266	-1.3393	4.8011	-0.1154	2.6646	-1.7974	1.7659	0.9896	-2.4058
1.8568	4.3745	5.4166	3.4129	7.7769	9.3085	6.1858	6.4901	10.6443	6.539	1.9372	6.1369	2.9338	-1.3568	4.7067	-0.2448	2.6925	-1.9512	1.682	0.7938	-2.3953
1.619	4.1787	5.1578	3.0947	7.5881	9.0567	5.9096	6.3187	10.3261	6.2418	1.7274	5.7557	2.696	-1.3568	4.6088	-0.3777	2.689	-2.0386	1.6365	0.591	-2.3673
1.3882	4.0143	4.948	2.8429	7.4027	8.763	5.6543	6.1264	9.9974	5.9795	1.5246	5.3921	2.4233	-1.3463	4.5074	-0.514	2.6646	-2.1715	1.591	0.4231	-2.3114
1.1889	3.8185	4.6927	2.5771	7.2139	8.5112	5.3921	5.9551	9.6931	5.7243	1.3323	5.0319	2.168	-1.3323	4.4479	-0.6049	2.6506	-2.2589	1.5561	0.2448	-2.2659
0.9441	3.6402	4.4794	2.3079	7.0041	8.3014	5.1823	5.7627	9.3924	5.462	1.1609	4.6997	1.9267	-1.3288	4.3151	-0.7693	2.6506	-2.3638	1.5211	0.0664	-2.1925
0.7833	3.4863	4.2766	2.0806	6.8642	8.0916	4.969	5.6334	9.1616	5.2697	1.0176	4.4235	1.7344	-1.3078	4.2661	-0.8952	2.6226	-2.4408	1.5351	-0.0594	-2.0981
0.6049	3.3639	4.1087	1.8638	6.7279	7.9098	4.8186	5.511	8.9204	5.0774	0.8952	4.1087	1.5281	-1.3218	4.1612	-1.0281	2.6121	-2.5037	1.5771	-0.2168	-1.9932
0.4546	3.2485	3.9864	1.7029	6.6264	7.7699	4.6508	5.441	8.7315	4.934	0.8043	3.8919	1.3707	-1.3183	4.1612	-1.0875	2.6086	-2.5946	1.6015	-0.3217	-1.8883
0.3217	3.1646	3.8605	1.5421	6.4971	7.644	4.5284	5.3361	8.5497	4.7766	0.7448	3.6332	1.2064	-1.3253	4.0948	-1.1609	2.6296	-2.6471	1.6295	-0.4406	-1.7904
0.2063	3.0667	3.7661	1.4092	6.4061	7.5286	4.4165	5.2837	8.3958	4.6682	0.7029	3.4828	1.084	-1.3218	4.0598	-1.2379	2.6191	-2.6995	1.7029	-0.4896	-1.6225
0.1189	2.9618	3.6542	1.3323	6.3222	7.4587	4.3116	5.2452	8.2874	4.5983	0.6749	3.3115	0.9861	-1.3288	4.0353	-1.3008	2.6541	-2.7555	1.7659	-0.563	-1.5001
0.035	2.9408	3.5982	1.2379	6.2733	7.4132	4.2521	5.1998	8.1895	4.5179	0.6924	3.1996	0.9022	-1.3533	4.0003	-1.3952	2.689	-2.8324	1.8253	-0.6469	-1.3463
-0.035	2.8814	3.5353	1.1819	6.2173	7.3398	4.1997	5.1823	8.0846	4.4479	0.6399	3.0702	0.7938	-1.3742	3.9794	-1.5036	2.7345	-2.8814	1.8953	-0.6749	-1.1994
-0.0944	2.8464	3.4933	1.147	6.1858	7.3153	4.1507	5.1543	8.0112	4.3885	0.6784	2.9793	0.7343	-1.4092	3.9794	-1.591	2.787	-2.9443	1.9827	-0.7133	-1.07
-0.1643	2.8394	3.4513	1.1085	6.1579	7.2734	4.1052	5.1298	7.9832	4.3465	0.6924	2.9128	0.6399	-1.4372	3.9444	-1.7169	2.8604	-3.0212	2.0631	-0.7623	-0.9267
-0.1364	2.8324	3.4339	1.112	6.1544	7.2594	4.0808	5.1228	7.9377	4.2801	0.7273	2.8639	0.591	-1.4722	3.9899	-1.8218	2.9198	-3.0737	2.147	-0.8043	-0.8043
-0.1818	2.8009	3.3954	1.0875	6.1264	7.2349	4.0353	5.1193	7.8853	4.2346	0.7343	2.7939	0.5245	-1.5211	3.9654	-1.9372	3.0142	-3.1926	2.1995	-0.8357	-0.7273
-0.1923	2.7974	3.3779	1.098	6.0914	7.2174	4.0073	5.0879	7.8328	4.1857	0.7273	2.703	0.4196	-1.5526	3.9864	-2.0072	3.0807	-3.2905	2.2554	-0.8987	-0.6644
-0.2203	2.7765	3.3639	1.098	6.0705	7.2069	3.9689	5.0669	7.7594	4.1157	0.7203	2.6331	0.3287	-1.6015	3.9479	-2.1505	3.1506	-3.4024	2.3149	-0.9406	-0.584
-0.2028	2.7974	3.3814	1.133	6.06	7.165	3.9304	5.0354	7.7035	4.0318	0.7029	2.5597	0.2028	-1.6295	3.9759	-2.2275	3.2276	-3.5143	2.3568	-0.9616	-0.57
-0.1853	2.7765	3.3639	1.1435	6.0145	7.13	3.871	4.9829	7.616	3.9339	0.6644	2.4443	0.0874	-1.682	3.9304	-2.3289	3.3255	-3.6577	2.3918	-1.0316	-0.57
-0.1818	2.745	3.3394	1.1854	5.9725	7.0531	3.829	4.9655	7.5076	3.822	0.6434	2.3534	-0.042	-1.7274	3.8954	-2.3708	3.4164	-3.815	2.4163	-1.077	-0.598
-0.1364	2.773	3.3744	1.2414	5.969	7.0705	3.815	4.9235	7.4657	3.7486	0.6329	2.2345	-0.1783	-1.7799	3.9094	-2.4058	3.5073	-3.9339	2.4513	-1.091	-0.6189
-0.0839	2.7695	3.4129	1.3253	5.9411	7.0531	3.8045	4.913	7.3888	3.6612	0.6224	2.154	-0.2867	-1.8044	3.878	-2.3743	3.5842	-4.0703	2.4827	-1.105	-0.6364
-0.007	2.7765	3.4548	1.3917	5.9096	7.0426	3.794	4.878	7.3118	3.6192	0.6119	2.0561	-0.3742	-1.8498	3.857	-2.3359	3.6681	-4.1752	2.5072	-1.0945	-0.6784
0.0804	2.8009	3.4828	1.5036	5.9131	7.0391	3.7766	4.878	7.2664	3.5318	0.6224	1.9897	-0.4826	-1.8988	3.8465	-2.2729	3.7661	-4.2871	2.5142	-1.112	-0.7413
0.1853	2.8184	3.6122	1.6155	5.9026	7.0496	3.7975	4.92	7.2664	3.4968	0.6364	1.9442	-0.5315	-1.9407	3.8395	-2.1925	3.836	-4.385	2.5352	-1.091	-0.7798
0.3112	2.8499	3.6926	1.7799	5.9026	7.0775	3.8605	4.9095	7.2384	3.4688	0.6434	1.9197	-0.5735	-1.9477	3.885	-2.0072	3.8815	-4.42	2.5562	-1.0176	-0.8392
0.4546	2.8884	3.8115	1.9128	5.9201	7.151	3.9234	4.948	7.2384	3.4548	0.6854	1.9407	-0.591	-1.9722	3.9059	-1.8743	3.9129	-4.4409	2.5771	-0.9302	-0.8637
0.6259	2.9618	3.9724	2.1016	5.969	7.2454	4.0038	4.9969	7.2454	3.5178	0.7938	1.9617	-0.577	-1.9652	3.9269	-1.675	3.8884	-4.4549	2.5946	-0.8148	-0.9162
0.7903	3.0038	4.1018	2.2869	6.004	7.2908	4.0948	5.0424	7.2943	3.5353	0.8777	2.0386	-0.5455	-1.9617	3.9514	-1.5001	3.8815	-4.4095	2.5911	-0.7273	-0.9441
0.9476	3.0877	4.2626	2.5002	6.018	7.3922	4.2137	5.0634	7.3398	3.5807	0.9302	2.0701	-0.4896	-1.9372	4.0073	-1.2903	3.8395	-4.4235	2.6016	-0.5875	-1.0351
1.1504	3.1296	4.4409	2.6855	6.0949	7.5216	4.329	5.1473	7.3922	3.6577	1.0036	2.1435	-0.3951	-1.9232	4.0038	-1.1155	3.7905	-4.35	2.6156	-0.4721	-1.084
1.3253	3.231	4.5948	2.8954	6.1649	7.6265	4.4549	5.2102	7.4692	3.7381	1.105	2.2415	-0.3357	-1.8813	4.0528	-0.9057	3.7066	-4.3186	2.5841	-0.3287	-1.1155
1.5141	3.28	4.7836	3.0597	6.1963	7.7349	4.5668	5.2837	7.5041	3.7835	1.1714	2.3079	-0.2623	-1.8218	4.0948	-0.7553	3.6192	-4.2626	2.5806	-0.1888	-1.2029
1.6925	3.3394	4.955	3.266	6.2768	7.8363	4.6822	5.3256	7.5811	3.8954	1.2798	2.3883	-0.1678	-1.7799	4.1262	-0.5595	3.5108	-4.1857	2.6051	-0.042	-1.2868
1.8673	3.4059	5.1088	3.4653	6.3432	7.9902	4.8046	5.42	7.6405	3.9759	1.3533	2.4757	-0.049	-1.6994	4.1997	-0.3951	3.3744	-4.1367	2.5702	0.1294	-1.3533
2.0526	3.4653	5.2697	3.6577	6.3782	8.0776	4.9165	5.469	7.714	4.0388	1.4442	2.5457	0.035	-1.64	4.2626	-0.2588	3.238	-4.0668	2.5527	0.2413	-1.4337
2.2519	3.5458	5.455	3.8185	6.4691	8.186	5.0564	5.5704	7.7944	4.1647	1.5421	2.6506	0.1574	-1.5421	4.3535	-0.1084	3.0597	-3.9689	2.5702	0.3986	-1.5036
