"FZ"	"FC3"	"FCZ"	"FC4"	"C3"	"CZ"	"C4"	"CP3"	"CPZ"	"CP4"	"P3"	"PZ"	"P4"	"OZ"	"FP1"	"FP2"	"A2"	"P8"	"TP7"	"TP8"	"P7"	"VEOG"	"HEOG"
0.2849	0.039	0.0195	-0.1952	0.4645	0.6167	-0.0625	0.363	0.5153	0.3591	0.3747	0.6206	0.2381	-0.1483	-0.5387	-0.8197	0.2576	-0.039	-0.1405	-0.203	-0.3942	0.2654	0.9915
0.281	0.0234	0.0078	-0.2615	0.4294	0.5777	-0.0976	0.3513	0.4645	0.3123	0.3747	0.5855	0.2264	-0.1054	-0.5504	-0.8939	0.1952	-0.0117	-0.1561	-0.1913	-0.3864	0.2264	0.9719
0.2693	0.0078	-0.0156	-0.2967	0.4177	0.5387	-0.1561	0.3162	0.4294	0.3045	0.3669	0.5504	0.2147	-0.0742	-0.5387	-0.9524	0.1444	-0.0312	-0.1639	-0.1366	-0.4138	0.2069	0.9993
0.2459	-0.0351	-0.0625	-0.3786	0.3942	0.5153	-0.1991	0.3006	0.3786	0.2498	0.3435	0.5035	0.1991	-0.0586	-0.5816	-1.0071	0.0781	-0.0156	-0.1796	-0.1288	-0.363	0.2147	0.9876
0.2225	-0.0468	-0.0664	-0.4372	0.3786	0.445	-0.2498	0.2693	0.2889	0.203	0.3357	0.4996	0.1835	-0.0273	-0.6011	-1.0734	0.0273	-0.0117	-0.1639	-0.1093	-0.3045	0.2615	1.0149
0.1874	-0.0625	-0.0781	-0.4879	0.3396	0.4294	-0.3006	0.2849	0.3045	0.1639	0.3435	0.4606	0.1796	-0.0117	-0.6324	-1.0812	-0.0156	0.0039	-0.16	-0.0937	-0.2771	0.3045	1.0188
0.1288	-0.1015	-0.1327	-0.5465	0.3045	0.3981	-0.3591	0.2654	0.2498	0.1132	0.3513	0.4411	0.1522	0.0234	-0.6675	-1.1359	-0.0546	-0.0039	-0.1796	-0.0976	-0.2498	0.3903	0.9876
0.0898	-0.1561	-0.203	-0.6206	0.2498	0.3435	-0.3942	0.2303	0.2186	0.0781	0.3045	0.4216	0.1327	0.0351	-0.6948	-1.1593	-0.0859	0.0078	-0.1718	-0.0781	-0.2537	0.4879	0.9954
0.0351	-0.1913	-0.242	-0.648	0.2147	0.3006	-0.4762	0.2186	0.1874	0.0156	0.324	0.4255	0.1093	0.0429	-0.6909	-1.171	-0.0976	-0.0117	-0.1718	-0.0898	-0.2264	0.5816	0.9641
-0.0273	-0.2342	-0.3045	-0.7456	0.1718	0.2498	-0.5074	0.1561	0.1796	-0.0117	0.3045	0.3864	0.1015	0.0507	-0.6987	-1.1749	-0.1015	-0.0195	-0.1952	-0.0898	-0.2264	0.6558	0.9876
-0.0195	-0.2459	-0.281	-0.7495	0.1405	0.2225	-0.5465	0.1483	0.16	-0.0273	0.2771	0.3591	0.0859	0.0586	-0.687	-1.1476	-0.121	-0.0156	-0.1874	-0.0898	-0.2147	0.7182	0.9798
-0.1015	-0.3201	-0.3669	-0.8119	0.0781	0.16	-0.6206	0.1054	0.1288	-0.0664	0.2576	0.3357	0.039	0.0351	-0.6909	-1.1008	-0.0976	-0.0664	-0.1913	-0.1327	-0.2342	0.7416	0.9719
-0.1171	-0.3474	-0.3825	-0.8548	0.039	0.1249	-0.648	0.0664	0.121	-0.121	0.2576	0.3084	0.0117	0.0234	-0.6636	-1.0305	-0.0703	-0.0898	-0.242	-0.1444	-0.2615	0.7416	0.9837
-0.1288	-0.3552	-0.3981	-0.8431	0	0.1132	-0.6636	0.0625	0.1249	-0.1327	0.2342	0.3201	0.0195	0.0156	-0.605	-0.9485	-0.0586	-0.0976	-0.2186	-0.1132	-0.2654	0.7182	0.9719
-0.1522	-0.3474	-0.4021	-0.8353	-0.0117	0.1132	-0.6831	0.0742	0.1522	-0.1561	0.2693	0.3123	0.039	0.0117	-0.5309	-0.8158	-0.0586	-0.0742	-0.2186	-0.121	-0.2303	0.6714	0.9563
-0.1444	-0.363	-0.3981	-0.8002	-0.039	0.0742	-0.6948	0.082	0.1249	-0.1678	0.2576	0.3006	0.0156	0.0078	-0.4567	-0.7026	-0.0273	-0.0937	-0.1991	-0.1639	-0.2264	0.6089	0.9485
-0.1561	-0.3786	-0.3903	-0.7924	-0.0625	0.0742	-0.6909	0.0703	0.1366	-0.1405	0.2771	0.281	-0.0156	-0.0234	-0.4099	-0.605	0.0273	-0.1093	-0.1639	-0.1483	-0.1952	0.5387	0.9602
-0.1405	-0.3903	-0.3903	-0.7963	-0.0625	0.0976	-0.6831	0.0586	0.16	-0.1405	0.3123	0.3279	0.0117	-0.0351	-0.3396	-0.4489	0.0546	-0.1054	-0.1132	-0.1639	-0.1678	0.4489	0.968
-0.1171	-0.3474	-0.363	-0.7104	-0.039	0.1249	-0.6167	0.0898	0.203	-0.1249	0.3396	0.3318	0.0351	-0.0546	-0.281	-0.3318	0.0859	-0.082	-0.082	-0.1132	-0.1171	0.3552	0.9837
-0.0859	-0.324	-0.3201	-0.6324	-0.039	0.1327	-0.5894	0.1054	0.2303	-0.1093	0.4138	0.3591	0.039	-0.0898	-0.2108	-0.2342	0.1327	-0.1093	-0.0273	-0.1327	-0.0507	0.2576	0.9837
-0.0234	-0.2732	-0.2732	-0.5465	-0.0156	0.1835	-0.5543	0.1249	0.2889	-0.0468	0.4411	0.3942	0.0781	-0.0781	-0.1483	-0.0898	0.1522	-0.082	0.0273	-0.1132	0.0195	0.1483	1.0032
-0.0156	-0.2342	-0.2147	-0.4684	-0.0078	0.1913	-0.4918	0.1678	0.3201	-0.0468	0.4723	0.4294	0.082	-0.1171	-0.0859	0.0195	0.2069	-0.0742	0.0625	-0.1093	0.0742	0.0546	1.0032
0.0156	-0.1913	-0.203	-0.3942	0.0078	0.2576	-0.4411	0.1874	0.3903	-0.0312	0.527	0.4879	0.121	-0.1327	-0.0156	0.1171	0.2459	-0.0468	0.1405	-0.1054	0.1366	-0.0507	0.9837
0.0312	-0.1522	-0.121	-0.3123	0.0312	0.3006	-0.3786	0.2342	0.4138	0.0117	0.5738	0.5074	0.1366	-0.1718	0.0078	0.2069	0.2889	-0.0586	0.1874	-0.1093	0.1991	-0.121	0.9407
0.1015	-0.1171	-0.0859	-0.2147	0.039	0.3162	-0.3162	0.2303	0.4372	0.039	0.5816	0.5035	0.1678	-0.1796	0.0429	0.3006	0.3201	-0.0429	0.2381	-0.0976	0.2186	-0.1678	0.929
0.1288	-0.0546	-0.0156	-0.1327	0.1288	0.3903	-0.2498	0.2849	0.4801	0.0937	0.6402	0.5465	0.2108	-0.1835	0.1054	0.3435	0.3513	-0.0234	0.281	-0.1093	0.2771	-0.1952	0.8509
0.1405	-0.0273	0.0468	-0.0156	0.1405	0.4099	-0.1991	0.2889	0.5074	0.0976	0.6675	0.527	0.1678	-0.2069	0.1093	0.4021	0.3981	-0.0312	0.3318	-0.16	0.3006	-0.203	0.7807
0.1952	0.0351	0.082	0.0468	0.1522	0.4411	-0.16	0.3045	0.5309	0.1366	0.6753	0.566	0.1757	-0.2225	0.1444	0.4099	0.4333	-0.0664	0.3708	-0.1718	0.3435	-0.1718	0.726
0.203	0.0468	0.1327	0.1015	0.1678	0.4762	-0.1054	0.3162	0.5348	0.1561	0.6714	0.5621	0.1561	-0.2537	0.1093	0.3825	0.4723	-0.0546	0.3786	-0.1874	0.3513	-0.1444	0.6519
0.2342	0.1015	0.1796	0.1718	0.2342	0.5035	-0.0429	0.3747	0.5465	0.1483	0.6987	0.5777	0.1835	-0.2537	0.1639	0.3864	0.4879	-0.082	0.4099	-0.2147	0.3747	-0.0976	0.5738
0.242	0.1132	0.2147	0.2342	0.2654	0.5035	-0.0312	0.3669	0.5621	0.1639	0.6909	0.5582	0.1405	-0.2693	0.1718	0.4021	0.5113	-0.1171	0.4528	-0.242	0.4255	-0.0781	0.4801
0.2303	0.1327	0.2069	0.2967	0.2849	0.5192	-0.0195	0.3786	0.5738	0.1561	0.7026	0.5582	0.1639	-0.2771	0.203	0.3396	0.527	-0.1249	0.484	-0.2693	0.4606	-0.0312	0.4294
0.2186	0.1444	0.2303	0.3162	0.2967	0.484	0.0351	0.406	0.566	0.1678	0.7026	0.5621	0.121	-0.3123	0.1913	0.2849	0.5855	-0.1444	0.4723	-0.2928	0.4996	-0.0117	0.3552
0.2147	0.1718	0.2264	0.3474	0.3279	0.5074	0.0742	0.4294	0.5621	0.1483	0.726	0.5621	0.1171	-0.3201	0.1678	0.2147	0.6089	-0.1796	0.5192	-0.3084	0.5309	0.0156	0.2693
0.1991	0.1718	0.2654	0.3708	0.3513	0.5113	0.082	0.4333	0.5621	0.1913	0.7377	0.5621	0.121	-0.3474	0.1757	0.1522	0.648	-0.1678	0.5426	-0.3279	0.5543	-0.0117	0.2264
0.1952	0.16	0.2498	0.4021	0.3435	0.4645	0.1054	0.4489	0.5231	0.1913	0.7143	0.527	0.082	-0.3591	0.1561	0.0781	0.6792	-0.1796	0.5699	-0.3318	0.6245	-0.0468	0.1561
0.1327	0.1718	0.2342	0.3942	0.3708	0.4489	0.1522	0.4606	0.527	0.1678	0.7299	0.5387	0.0898	-0.3825	0.1561	0.0156	0.7221	-0.1913	0.5816	-0.3123	0.6245	-0.0898	0.1288
0.1249	0.1678	0.2108	0.4255	0.4177	0.4138	0.1366	0.4723	0.527	0.203	0.7221	0.5309	0.082	-0.3981	0.1366	-0.0898	0.7495	-0.16	0.5855	-0.324	0.6558	-0.1132	0.0859
0.0664	0.1249	0.1952	0.3786	0.3864	0.3591	0.1444	0.4372	0.4879	0.1952	0.7143	0.4723	0.0703	-0.3981	0.0937	-0.16	0.7729	-0.1874	0.605	-0.3162	0.687	-0.1366	0.0429
0	0.1093	0.1444	0.3708	0.3669	0.3279	0.1522	0.445	0.4411	0.1874	0.6831	0.4411	0.0625	-0.4177	0.0234	-0.2967	0.8002	-0.1678	0.5894	-0.2849	0.7026	-0.1444	0.0312
-0.0546	0.1093	0.0976	0.3396	0.3747	0.2381	0.1327	0.4255	0.406	0.1835	0.6441	0.4138	0.0468	-0.4177	-0.0273	-0.4021	0.8002	-0.1835	0.5777	-0.3006	0.6948	-0.1327	0.0234
-0.1444	0.0351	0.0156	0.2615	0.3396	0.1835	0.0781	0.3825	0.3318	0.1366	0.5699	0.3396	0.0156	-0.4372	-0.1249	-0.5192	0.8275	-0.1757	0.5426	-0.3006	0.6441	-0.1249	0.0156
-0.2342	-0.0039	-0.0468	0.1874	0.2771	0.1171	0.0664	0.3045	0.2537	0.1093	0.5192	0.2654	-0.0234	-0.4489	-0.1991	-0.6363	0.8353	-0.1991	0.4996	-0.2928	0.605	-0.0703	-0.0039
-0.3123	-0.0586	-0.1171	0.1444	0.2342	0.0234	0.039	0.2654	0.1796	0.0859	0.4606	0.1952	-0.0507	-0.4411	-0.3123	-0.7612	0.8548	-0.1796	0.4606	-0.2576	0.5816	-0.0117	-0.0429
-0.4372	-0.1288	-0.1796	0.0429	0.1835	-0.0781	-0.0273	0.2381	0.1015	0.0703	0.3708	0.1249	-0.1132	-0.4684	-0.406	-0.9095	0.8822	-0.2225	0.406	-0.2849	0.5074	0.0664	-0.0625
-0.4879	-0.2108	-0.2732	-0.0039	0.1288	-0.1366	-0.0586	0.1718	0.0117	0.0273	0.2928	0.0234	-0.1249	-0.484	-0.4723	-0.9446	0.9134	-0.2303	0.3318	-0.3006	0.4606	0.1366	-0.1054
-0.5738	-0.2889	-0.3318	-0.1093	0.0898	-0.2303	-0.0937	0.1249	-0.0195	0.0117	0.2303	-0.0078	-0.1327	-0.4879	-0.5387	-1.0188	0.9134	-0.2186	0.2967	-0.3045	0.4138	0.1952	-0.1093
-0.6402	-0.3669	-0.4177	-0.1639	-0.0117	-0.3123	-0.1132	0.0468	-0.1288	-0.0273	0.1444	-0.1093	-0.1991	-0.4996	-0.566	-0.9993	0.9485	-0.2381	0.203	-0.2889	0.3474	0.2498	-0.1678
-0.6987	-0.4138	-0.4528	-0.1991	-0.0312	-0.3708	-0.121	0.0078	-0.1561	-0.0156	0.0742	-0.1405	-0.1639	-0.4879	-0.5972	-1.0149	0.9368	-0.203	0.1874	-0.2537	0.3162	0.2889	-0.1678
-0.7299	-0.4567	-0.5153	-0.2615	-0.1093	-0.4138	-0.1444	-0.0586	-0.2537	-0.0546	0.0468	-0.1678	-0.1639	-0.4879	-0.6089	-0.9759	0.9368	-0.2147	0.121	-0.2459	0.2459	0.3201	-0.1952
-0.7729	-0.4918	-0.5387	-0.2693	-0.1522	-0.4528	-0.121	-0.1015	-0.2498	-0.0312	-0.0351	-0.1952	-0.16	-0.4762	-0.6206	-0.9134	0.9173	-0.1678	0.0625	-0.203	0.1639	0.3396	-0.2303
-0.7768	-0.5543	-0.5777	-0.2889	-0.1952	-0.4996	-0.1249	-0.1405	-0.2967	-0.0273	-0.082	-0.2225	-0.16	-0.4645	-0.6597	-0.8431	0.9017	-0.1405	0.0234	-0.1757	0.1132	0.324	-0.2186
-0.808	-0.5699	-0.605	-0.3006	-0.2225	-0.5113	-0.0898	-0.1952	-0.3357	0.0117	-0.1757	-0.2576	-0.1288	-0.4567	-0.648	-0.7924	0.8744	-0.1249	-0.0117	-0.1288	0.0703	0.3006	-0.1952
-0.8197	-0.6167	-0.6167	-0.3201	-0.2537	-0.5465	-0.1015	-0.2615	-0.3591	0.0234	-0.2186	-0.2576	-0.1405	-0.4333	-0.6519	-0.7456	0.8509	-0.0742	-0.0937	-0.0937	-0.0039	0.2771	-0.1952
-0.8197	-0.5894	-0.6011	-0.2693	-0.2889	-0.5387	-0.0781	-0.2849	-0.3825	0.0351	-0.2889	-0.2928	-0.1093	-0.4021	-0.6597	-0.6987	0.7807	-0.0195	-0.1054	-0.0468	-0.0586	0.2615	-0.1796
-0.8236	-0.6206	-0.6324	-0.3084	-0.3552	-0.5855	-0.0586	-0.3279	-0.4138	0.0468	-0.3786	-0.3045	-0.0898	-0.3864	-0.6597	-0.6714	0.7377	0.0117	-0.1874	-0.0117	-0.1561	0.1991	-0.1483
-0.8002	-0.6206	-0.6089	-0.2498	-0.3981	-0.5699	-0.0468	-0.3708	-0.4294	0.0664	-0.4099	-0.3318	-0.0507	-0.3318	-0.5972	-0.605	0.6441	0.0507	-0.2108	0.0742	-0.1796	0.1054	-0.1171
-0.7221	-0.5894	-0.5855	-0.2147	-0.4021	-0.5543	-0.0156	-0.3864	-0.4177	0.1015	-0.4489	-0.3201	-0.0468	-0.281	-0.566	-0.4996	0.5504	0.1054	-0.2771	0.121	-0.2537	-0.0156	-0.0859
-0.6909	-0.5816	-0.5621	-0.1874	-0.4372	-0.566	0.0117	-0.4372	-0.4528	0.1054	-0.527	-0.3435	-0.039	-0.2498	-0.4879	-0.3942	0.4645	0.1249	-0.3201	0.1522	-0.3045	-0.1561	-0.0586
-0.6324	-0.5465	-0.5504	-0.1444	-0.4528	-0.527	0.0468	-0.4489	-0.4099	0.1483	-0.5582	-0.3513	0.0078	-0.1835	-0.4489	-0.2732	0.3591	0.1796	-0.3591	0.2264	-0.3435	-0.2967	-0.0273
-0.5777	-0.5387	-0.5074	-0.1054	-0.4645	-0.5035	0.082	-0.4762	-0.4177	0.1483	-0.6011	-0.363	0.0273	-0.1288	-0.363	-0.1757	0.2537	0.203	-0.3981	0.2849	-0.3864	-0.4333	0.0078
-0.5153	-0.4918	-0.4801	-0.0586	-0.4801	-0.4801	0.1249	-0.484	-0.4138	0.1757	-0.6167	-0.3435	0.0429	-0.0898	-0.3357	-0.0039	0.1639	0.2498	-0.4216	0.3357	-0.3981	-0.5426	0.039
-0.4723	-0.4645	-0.4645	-0.0234	-0.4801	-0.4567	0.1522	-0.4879	-0.406	0.1718	-0.6363	-0.3201	0.0586	-0.0312	-0.3435	0.1093	0.0625	0.2498	-0.4489	0.3864	-0.4294	-0.6167	0.0351
-0.4294	-0.4099	-0.3981	0.0351	-0.4645	-0.3903	0.1913	-0.5192	-0.3786	0.2108	-0.6402	-0.3279	0.0898	0.0156	-0.2732	0.2381	-0.0507	0.3162	-0.4411	0.406	-0.4333	-0.6987	0.0507
-0.363	-0.4021	-0.3747	0.0937	-0.4801	-0.3552	0.2186	-0.4723	-0.3474	0.2264	-0.6245	-0.2732	0.1366	0.0781	-0.2186	0.3747	-0.1522	0.3357	-0.445	0.4606	-0.3981	-0.7456	0.0586
-0.3318	-0.3513	-0.3435	0.1171	-0.5074	-0.3084	0.2381	-0.5074	-0.3474	0.1874	-0.648	-0.3084	0.1444	0.1093	-0.2108	0.4762	-0.2264	0.3318	-0.4684	0.4918	-0.4255	-0.7807	0.0117
-0.2967	-0.324	-0.2889	0.1718	-0.5348	-0.2771	0.2654	-0.5035	-0.3123	0.1991	-0.648	-0.2771	0.1288	0.1249	-0.1718	0.5855	-0.2928	0.324	-0.4879	0.4567	-0.4255	-0.8509	0.0273
-0.2303	-0.2303	-0.1913	0.2381	-0.4684	-0.203	0.3084	-0.4918	-0.2889	0.2225	-0.6128	-0.242	0.1835	0.203	-0.0898	0.6987	-0.4138	0.3708	-0.4606	0.5348	-0.3786	-0.9095	0.039
-0.1639	-0.1796	-0.1483	0.3006	-0.445	-0.16	0.3474	-0.484	-0.2654	0.2498	-0.5816	-0.2381	0.1913	0.2342	-0.0625	0.7377	-0.4723	0.4099	-0.4801	0.5582	-0.3591	-0.9563	-0.0195
-0.1015	-0.1444	-0.0742	0.3786	-0.4216	-0.1366	0.3708	-0.4567	-0.2342	0.2498	-0.5777	-0.203	0.1952	0.2654	-0.0117	0.7495	-0.5387	0.3981	-0.4684	0.5699	-0.3513	-1.0032	-0.0742
-0.039	-0.082	-0.0117	0.4255	-0.4138	-0.0429	0.4099	-0.4372	-0.203	0.2225	-0.5543	-0.2225	0.2069	0.2967	0.0234	0.7807	-0.6089	0.4099	-0.4762	0.5855	-0.3396	-1.0305	-0.1132
0.0429	-0.0156	0.0664	0.4606	-0.3669	-0.0039	0.4723	-0.406	-0.1522	0.1913	-0.5192	-0.2108	0.2498	0.3201	0.0742	0.7338	-0.6714	0.4255	-0.4489	0.6128	-0.3006	-1.0188	-0.1561
0.1015	0.0468	0.1327	0.5465	-0.3474	0.039	0.4918	-0.3786	-0.1327	0.1757	-0.5153	-0.2186	0.203	0.3396	0.1483	0.6558	-0.7299	0.4138	-0.4177	0.5933	-0.2615	-0.9837	-0.2186
0.1405	0.0937	0.2186	0.5933	-0.3084	0.0742	0.5309	-0.3552	-0.1171	0.1639	-0.4918	-0.2342	0.2108	0.3708	0.2069	0.5504	-0.7612	0.4333	-0.4138	0.5933	-0.2771	-0.9212	-0.2771
0.2069	0.1796	0.2732	0.6206	-0.2849	0.0976	0.5231	-0.3201	-0.121	0.1444	-0.4879	-0.2654	0.2186	0.3786	0.2342	0.4333	-0.7963	0.4021	-0.3981	0.566	-0.2342	-0.8002	-0.3708
0.2693	0.2615	0.324	0.6753	-0.2225	0.1483	0.5738	-0.2967	-0.0625	0.1366	-0.4684	-0.2732	0.1913	0.4099	0.2928	0.3591	-0.8392	0.406	-0.3942	0.566	-0.1991	-0.6909	-0.4411
0.3474	0.3201	0.4294	0.687	-0.1639	0.1835	0.5972	-0.242	-0.0664	0.0898	-0.4255	-0.2654	0.2147	0.4177	0.3747	0.3123	-0.89	0.3825	-0.3279	0.527	-0.1718	-0.5777	-0.5113
0.4099	0.3942	0.5153	0.7299	-0.121	0.203	0.5972	-0.2069	-0.0351	0.1015	-0.4021	-0.281	0.203	0.4489	0.4333	0.2498	-0.9212	0.3942	-0.3045	0.527	-0.1405	-0.4645	-0.5543
0.4645	0.4255	0.5582	0.7651	-0.1054	0.2186	0.6011	-0.203	-0.0195	0.0625	-0.3981	-0.3162	0.1718	0.4411	0.4762	0.2303	-0.9251	0.3786	-0.2498	0.4918	-0.1405	-0.3747	-0.605
0.5426	0.5192	0.6128	0.7729	-0.0351	0.2459	0.6284	-0.16	0.0195	0.0312	-0.3513	-0.2889	0.1718	0.4684	0.5153	0.242	-0.9524	0.3552	-0.2264	0.4723	-0.082	-0.3045	-0.6402
0.648	0.5894	0.7143	0.8158	0.0117	0.2498	0.648	-0.121	0.0273	0.0312	-0.324	-0.2967	0.1718	0.4762	0.5894	0.3201	-0.968	0.363	-0.1678	0.4684	-0.0546	-0.2615	-0.6753
0.6909	0.648	0.7612	0.7885	0.0312	0.242	0.6363	-0.0937	0.0117	-0.0312	-0.3045	-0.3162	0.1132	0.4684	0.6284	0.3669	-0.9563	0.3318	-0.121	0.4294	-0.0156	-0.2069	-0.687
0.7416	0.7143	0.7807	0.7924	0.0625	0.2537	0.648	-0.0429	-0.0039	-0.0429	-0.2967	-0.3123	0.0859	0.4684	0.6714	0.445	-0.9602	0.2928	-0.0859	0.3825	0.0078	-0.1718	-0.7338
0.7456	0.7221	0.8002	0.7807	0.0703	0.2498	0.6167	-0.0546	0	-0.0781	-0.281	-0.3123	0.0586	0.4606	0.6831	0.484	-0.9446	0.2576	-0.039	0.3435	0.0195	-0.1093	-0.7651
0.8002	0.7768	0.8197	0.7495	0.1093	0.2108	0.5972	0.0039	-0.0156	-0.1093	-0.281	-0.3279	0.0351	0.4645	0.7299	0.5348	-0.9329	0.2342	0.0156	0.2967	0.0234	-0.0429	-0.7768
0.7885	0.7885	0.8236	0.6987	0.1093	0.1718	0.5621	-0.0195	-0.0703	-0.1718	-0.3084	-0.3669	-0.0117	0.445	0.726	0.5933	-0.9134	0.1874	0.0234	0.2498	0.0195	0.0195	-0.8158
0.7768	0.808	0.8353	0.6519	0.1171	0.1327	0.5153	0	-0.0625	-0.203	-0.3162	-0.4099	-0.0586	0.4411	0.7651	0.6597	-0.9056	0.1522	0.0468	0.2108	0.0429	0.1054	-0.8627
0.7456	0.7651	0.7495	0.5738	0.1288	0.0468	0.4489	-0.0273	-0.1327	-0.2771	-0.3474	-0.4528	-0.1444	0.4294	0.7534	0.7182	-0.8822	0.0625	0.0429	0.1366	0.0195	0.2147	-0.8939
0.7065	0.726	0.7065	0.5035	0.1171	-0.0234	0.3669	-0.039	-0.1678	-0.3084	-0.3747	-0.4918	-0.1718	0.4255	0.7885	0.808	-0.8627	0.039	0.0742	0.1093	-0.0039	0.2928	-0.9407
0.6519	0.7143	0.6519	0.4216	0.082	-0.1015	0.3201	-0.0351	-0.2186	-0.3786	-0.4099	-0.5387	-0.2303	0.4138	0.8158	0.8939	-0.8392	-0.0351	0.0664	0.0234	-0.0664	0.4138	-0.9993
0.5894	0.6753	0.5855	0.3552	0.0664	-0.1913	0.242	-0.0429	-0.2693	-0.4333	-0.4099	-0.5153	-0.2771	0.4138	0.8666	1.0188	-0.8275	-0.0429	0.0859	-0.0117	-0.0664	0.484	-1.0656
0.4996	0.6402	0.4957	0.2225	0.039	-0.2615	0.1444	-0.0703	-0.363	-0.4645	-0.4762	-0.5894	-0.3279	0.3864	0.8548	1.0812	-0.7768	-0.1366	0.0742	-0.082	-0.1093	0.5894	-1.1281
0.4216	0.6128	0.4177	0.1522	0.0546	-0.3474	0.1015	-0.0781	-0.3864	-0.5426	-0.5074	-0.5933	-0.3435	0.363	0.929	1.1944	-0.7534	-0.1835	0.0898	-0.1249	-0.1093	0.6245	-1.171
0.3669	0.5738	0.3552	0.0625	0.0234	-0.406	0.0273	-0.082	-0.4411	-0.5738	-0.5387	-0.6363	-0.3942	0.3474	0.9329	1.2647	-0.6987	-0.2069	0.0468	-0.1913	-0.1522	0.6909	-1.2569
0.2654	0.5153	0.2537	-0.0156	0.0039	-0.4762	-0.0312	-0.1171	-0.4918	-0.6089	-0.5426	-0.6558	-0.4294	0.3279	0.9876	1.3467	-0.6675	-0.2537	0.0898	-0.2147	-0.1835	0.7104	-1.3467
0.1991	0.4723	0.1952	-0.1171	0.0156	-0.5738	-0.1249	-0.1249	-0.5621	-0.6636	-0.5738	-0.6714	-0.4567	0.3045	1.0032	1.3779	-0.6089	-0.3123	0.0937	-0.3123	-0.2069	0.7026	-1.4521
0.1444	0.4216	0.0703	-0.1796	-0.0195	-0.6441	-0.1639	-0.1718	-0.6089	-0.7338	-0.6324	-0.6948	-0.4957	0.2693	1.0734	1.4052	-0.5504	-0.324	0.0781	-0.3201	-0.2186	0.6753	-1.4872
0.0546	0.3708	0.0234	-0.2693	-0.0156	-0.7338	-0.2381	-0.1757	-0.6558	-0.7651	-0.6245	-0.7416	-0.5504	0.2264	1.093	1.3857	-0.4801	-0.3786	0.0976	-0.3981	-0.2225	0.6128	-1.5848
-0.0039	0.3474	-0.0312	-0.3435	-0.0195	-0.7807	-0.2576	-0.1796	-0.6948	-0.7807	-0.6206	-0.7299	-0.5426	0.2225	1.1437	1.3662	-0.4255	-0.406	0.1093	-0.4177	-0.2303	0.5621	-1.6902
-0.039	0.2732	-0.1054	-0.4177	-0.0703	-0.8197	-0.3357	-0.1991	-0.7651	-0.847	-0.6519	-0.769	-0.6128	0.1678	1.1983	1.3389	-0.3357	-0.445	0.1171	-0.5074	-0.2381	0.4567	-1.7643
-0.121	0.2576	-0.1483	-0.4684	-0.0546	-0.8705	-0.3942	-0.2069	-0.7924	-0.8861	-0.648	-0.7651	-0.6324	0.1288	1.2335	1.2842	-0.2693	-0.4684	0.1483	-0.5504	-0.2108	0.3747	-1.8463
-0.1796	0.2147	-0.2303	-0.5192	-0.0625	-0.9134	-0.4333	-0.1952	-0.7924	-0.8978	-0.648	-0.7612	-0.6324	0.0976	1.2686	1.2608	-0.1835	-0.5153	0.1678	-0.605	-0.1561	0.2654	-1.8853
-0.2264	0.1991	-0.2849	-0.5855	-0.0546	-0.9798	-0.5035	-0.2459	-0.8236	-0.9798	-0.6558	-0.8002	-0.6948	0.0312	1.3272	1.171	-0.0859	-0.5348	0.1835	-0.6675	-0.1366	0.1444	-1.9634
-0.3045	0.1522	-0.3279	-0.6597	-0.0625	-1.0383	-0.5621	-0.2576	-0.8744	-1.0188	-0.6831	-0.8353	-0.7456	-0.0273	1.3233	1.1242	0.0117	-0.5582	0.2264	-0.726	-0.0898	0.0468	-2.0142
-0.3396	0.1288	-0.3513	-0.6948	-0.0703	-1.0266	-0.5855	-0.2186	-0.8744	-1.0539	-0.6284	-0.8275	-0.7495	-0.0507	1.335	1.0422	0.0937	-0.6011	0.242	-0.7729	-0.0273	-0.0742	-2.061
-0.3786	0.1366	-0.3825	-0.7143	-0.0664	-1.05	-0.6245	-0.2264	-0.8705	-1.0695	-0.6206	-0.847	-0.7729	-0.0937	1.3389	1.0149	0.16	-0.6089	0.3045	-0.8275	0	-0.1991	-2.1352
-0.4138	0.1444	-0.3942	-0.726	-0.0586	-1.0305	-0.6324	-0.2186	-0.8822	-1.1125	-0.5894	-0.8705	-0.7807	-0.121	1.3154	0.9446	0.2264	-0.6245	0.3591	-0.8431	0.0468	-0.3162	-2.1742
-0.4099	0.1444	-0.4138	-0.7416	-0.0312	-1.0422	-0.6558	-0.1639	-0.8822	-1.1242	-0.5972	-0.8822	-0.8041	-0.1444	1.2881	0.9212	0.2967	-0.6441	0.406	-0.8822	0.1015	-0.4333	-2.2406
-0.3825	0.1796	-0.4138	-0.7846	-0.0312	-1.0188	-0.6948	-0.1678	-0.8861	-1.1593	-0.5816	-0.8978	-0.8353	-0.1835	1.3194	0.8783	0.324	-0.648	0.4255	-0.9329	0.1561	-0.5348	-2.2952
-0.4177	0.1835	-0.4255	-0.8197	0.0039	-1.0383	-0.687	-0.16	-0.8783	-1.1983	-0.5699	-0.9251	-0.8588	-0.1952	1.2842	0.8158	0.3864	-0.6948	0.4567	-0.9759	0.16	-0.6324	-2.3499
-0.4255	0.1952	-0.4333	-0.8119	-0.0273	-1.0227	-0.7182	-0.1366	-0.8939	-1.2218	-0.5972	-0.9251	-0.9056	-0.2303	1.2374	0.7768	0.4411	-0.7221	0.4801	-1.0071	0.1835	-0.6948	-2.3928
-0.3903	0.2108	-0.4489	-0.8236	0.0117	-0.9837	-0.7456	-0.121	-0.8978	-1.2686	-0.5933	-0.9485	-0.9095	-0.2537	1.2101	0.7377	0.4957	-0.7299	0.5231	-1.0344	0.1913	-0.7299	-2.4591
-0.4021	0.203	-0.4099	-0.8158	-0.0039	-0.9719	-0.7377	-0.0937	-0.8978	-1.2764	-0.5777	-0.968	-0.9134	-0.2576	1.1983	0.6753	0.5035	-0.726	0.5582	-1.05	0.2069	-0.7495	-2.4865
-0.3942	0.2303	-0.4333	-0.8548	-0.0117	-0.9915	-0.7573	-0.1054	-0.8822	-1.3115	-0.6128	-0.9954	-0.9954	-0.2771	1.1827	0.6324	0.5231	-0.7377	0.5738	-1.1086	0.2303	-0.7377	-2.5489
-0.3864	0.2537	-0.4216	-0.8588	0	-0.9719	-0.7534	-0.1093	-0.9017	-1.3233	-0.5855	-1.0227	-1.0305	-0.2928	1.1632	0.5972	0.5504	-0.7534	0.5855	-1.1125	0.2459	-0.726	-2.5567
-0.3942	0.2576	-0.4216	-0.8236	-0.0078	-0.9446	-0.7456	-0.082	-0.8783	-1.3506	-0.605	-1.0227	-1.05	-0.3006	1.1554	0.5816	0.5465	-0.7416	0.6363	-1.1125	0.242	-0.687	-2.6114
-0.4099	0.2615	-0.445	-0.847	-0.0195	-0.968	-0.7729	-0.0898	-0.9134	-1.3428	-0.5855	-1.0461	-1.0773	-0.2889	1.1359	0.5465	0.5543	-0.7573	0.6284	-1.1281	0.2225	-0.6324	-2.6231
-0.4177	0.2576	-0.4411	-0.8041	-0.0234	-0.9524	-0.7299	-0.0898	-0.9329	-1.4013	-0.6011	-1.0422	-1.0851	-0.2967	1.1125	0.5387	0.5621	-0.7573	0.6519	-1.1476	0.2264	-0.5855	-2.6543
-0.4411	0.2303	-0.4411	-0.8041	-0.0351	-0.9563	-0.7221	-0.0898	-0.9251	-1.374	-0.6441	-1.0656	-1.1008	-0.2928	1.1164	0.5582	0.5621	-0.7573	0.6636	-1.1203	0.1952	-0.5113	-2.6738
-0.4255	0.2654	-0.4177	-0.7651	-0.0429	-0.9251	-0.6675	-0.0664	-0.8939	-1.3506	-0.6245	-1.0617	-1.0734	-0.281	1.1086	0.6089	0.5348	-0.7182	0.6753	-1.0891	0.2225	-0.4801	-2.6777
-0.4099	0.2537	-0.3981	-0.7143	-0.0273	-0.9173	-0.6441	-0.0859	-0.8861	-1.3623	-0.6402	-1.0656	-1.0734	-0.2849	1.1437	0.6558	0.5348	-0.6948	0.6909	-1.0812	0.1991	-0.4489	-2.6621
-0.3903	0.2771	-0.3903	-0.6831	-0.0351	-0.8744	-0.566	-0.0664	-0.8744	-1.3115	-0.6245	-1.0266	-1.0344	-0.2732	1.132	0.7338	0.5192	-0.6636	0.7104	-1.0266	0.203	-0.4567	-2.6855
-0.3357	0.2928	-0.363	-0.6441	-0.0312	-0.8744	-0.5074	-0.0625	-0.8314	-1.2881	-0.6284	-1.0188	-1.0266	-0.2498	1.1905	0.8314	0.484	-0.6089	0.7299	-0.9798	0.1796	-0.4645	-2.6738
-0.3045	0.3006	-0.3279	-0.6206	-0.0156	-0.8392	-0.4645	-0.039	-0.8353	-1.2686	-0.6011	-0.9876	-1.0032	-0.2732	1.2218	0.9134	0.4957	-0.5777	0.7221	-0.9485	0.203	-0.4957	-2.666
-0.2654	0.3474	-0.2849	-0.5231	0.0195	-0.7885	-0.3942	-0.0195	-0.7651	-1.1827	-0.5894	-0.9602	-0.9368	-0.2459	1.2725	1.0188	0.4684	-0.5348	0.7377	-0.8822	0.1952	-0.5231	-2.6895
-0.2147	0.3708	-0.2654	-0.4801	0.0468	-0.7182	-0.3162	0.0039	-0.7651	-1.132	-0.5387	-0.8783	-0.8548	-0.242	1.335	1.1203	0.4606	-0.484	0.7885	-0.8275	0.2225	-0.5504	-2.7012
-0.1835	0.3981	-0.1991	-0.4255	0.0546	-0.6714	-0.2498	0.039	-0.7143	-1.0617	-0.4918	-0.8588	-0.8236	-0.2381	1.3662	1.2335	0.4489	-0.4528	0.8002	-0.7612	0.2498	-0.5465	-2.7168
-0.1015	0.4372	-0.1522	-0.3786	0.0625	-0.6597	-0.1405	0.1015	-0.6363	-0.9954	-0.4294	-0.7729	-0.7221	-0.2186	1.4247	1.3311	0.4333	-0.3747	0.8509	-0.6831	0.3123	-0.5543	-2.748
-0.0586	0.4411	-0.0781	-0.3279	0.121	-0.605	-0.0781	0.0898	-0.5855	-0.9095	-0.3552	-0.6948	-0.6792	-0.2225	1.456	1.3857	0.4138	-0.3084	0.9056	-0.6324	0.3669	-0.5309	-2.7753
0.0039	0.4762	-0.039	-0.2459	0.1718	-0.5582	0.0078	0.1483	-0.527	-0.8548	-0.3201	-0.6245	-0.605	-0.2264	1.4794	1.4404	0.4138	-0.2537	0.9524	-0.5699	0.3942	-0.5035	-2.8105
0.0546	0.5153	-0.0234	-0.2069	0.1835	-0.5192	0.0703	0.2264	-0.445	-0.7221	-0.2381	-0.5231	-0.5113	-0.2069	1.4677	1.4794	0.3825	-0.1796	1.0188	-0.5035	0.4801	-0.4411	-2.8807
0.1054	0.5153	0.0546	-0.1639	0.2186	-0.4879	0.1483	0.2732	-0.4021	-0.6558	-0.1327	-0.4372	-0.4138	-0.1991	1.4521	1.4872	0.3708	-0.1327	1.0461	-0.4177	0.5582	-0.3825	-2.9002
0.121	0.5192	0.0898	-0.1522	0.2303	-0.4528	0.2069	0.2967	-0.3708	-0.5894	-0.0937	-0.363	-0.3396	-0.2069	1.4208	1.4794	0.3786	-0.0742	1.1008	-0.3552	0.6324	-0.3123	-2.9393
0.1718	0.5621	0.121	-0.0625	0.281	-0.3786	0.2849	0.3591	-0.2693	-0.4411	0	-0.242	-0.2264	-0.1991	1.3935	1.4638	0.3591	0.0117	1.132	-0.3006	0.7182	-0.2732	-2.9705
0.2108	0.5504	0.1522	-0.0507	0.3045	-0.3435	0.3357	0.3747	-0.2264	-0.406	0.0703	-0.1913	-0.1757	-0.1991	1.3935	1.4482	0.3669	0.0586	1.1866	-0.2459	0.7924	-0.2225	-2.9861
0.242	0.5972	0.1991	0.0117	0.3318	-0.3162	0.4099	0.445	-0.1718	-0.3006	0.1639	-0.0937	-0.0586	-0.1991	1.3818	1.456	0.3591	0.1405	1.214	-0.1639	0.8783	-0.2225	-2.9978
0.2576	0.605	0.2303	0.0625	0.3396	-0.242	0.4801	0.4684	-0.1015	-0.1913	0.2303	-0.0078	0.0195	-0.2069	1.4013	1.4794	0.3825	0.1952	1.2569	-0.0859	0.9212	-0.203	-3.0056
0.2928	0.6324	0.2732	0.1171	0.3786	-0.203	0.5582	0.5074	-0.0039	-0.1015	0.281	0.082	0.1132	-0.2108	1.3896	1.4911	0.3825	0.2537	1.3037	-0.0195	0.9641	-0.1913	-2.99
0.3396	0.6636	0.3591	0.1835	0.406	-0.1444	0.6245	0.5738	0.0703	0	0.3669	0.1874	0.2108	-0.2186	1.4169	1.5301	0.4021	0.324	1.3389	0.0664	1.0266	-0.1952	-2.9822
0.4021	0.7104	0.3981	0.2381	0.4606	-0.0625	0.7104	0.6363	0.1366	0.0898	0.3903	0.2537	0.3006	-0.2147	1.4599	1.577	0.4099	0.3786	1.3623	0.1405	1.0695	-0.1991	-2.9744
0.406	0.7416	0.4216	0.2967	0.4918	-0.0117	0.7612	0.6636	0.2225	0.1796	0.4879	0.3279	0.3825	-0.2303	1.4599	1.6043	0.406	0.4723	1.374	0.1835	1.093	-0.2069	-2.9276
0.4099	0.7456	0.4489	0.3552	0.527	0.0039	0.8275	0.6948	0.2654	0.2498	0.5153	0.3981	0.4567	-0.2381	1.5106	1.6277	0.4294	0.527	1.413	0.2459	1.0891	-0.203	-2.9315
0.4177	0.7924	0.4996	0.3903	0.5699	0.0976	0.8705	0.7416	0.3396	0.3084	0.5465	0.445	0.5192	-0.2381	1.5536	1.6433	0.4372	0.5582	1.4208	0.3006	1.0969	-0.1757	-2.9119
0.4177	0.8275	0.4957	0.4528	0.6324	0.1249	0.9329	0.769	0.3981	0.3552	0.5543	0.4918	0.5816	-0.2381	1.6082	1.6668	0.4255	0.5972	1.4404	0.3396	1.1086	-0.1522	-2.8924
0.4138	0.8548	0.5153	0.4567	0.6519	0.1639	0.9641	0.7846	0.406	0.3825	0.5543	0.4996	0.5855	-0.2264	1.6121	1.6472	0.4294	0.6324	1.4169	0.3747	1.0695	-0.1132	-2.8573
0.3864	0.89	0.5192	0.4528	0.6636	0.2225	0.9876	0.7885	0.4294	0.3942	0.5231	0.4879	0.6167	-0.2225	1.655	1.6511	0.4333	0.6519	1.3896	0.3981	0.9954	-0.0703	-2.8807
0.4099	0.9173	0.5426	0.4957	0.6909	0.2225	1.0149	0.7924	0.4567	0.4177	0.4723	0.4957	0.6167	-0.2186	1.7058	1.5692	0.406	0.6753	1.3701	0.4294	0.9251	-0.039	-2.8651
0.3864	0.9251	0.5543	0.4918	0.6909	0.2537	1.0344	0.7768	0.4918	0.4177	0.4489	0.484	0.6324	-0.2225	1.7136	1.5028	0.3981	0.6753	1.3115	0.4411	0.8705	0.0156	-2.8807
0.3669	0.9329	0.5231	0.5192	0.6909	0.281	1.0305	0.7651	0.4606	0.4099	0.3942	0.4216	0.6089	-0.2069	1.7253	1.4365	0.3825	0.6753	1.253	0.445	0.7416	0.0703	-2.8885
0.3318	0.9329	0.5113	0.4957	0.7065	0.2967	1.0071	0.7377	0.4528	0.3747	0.324	0.406	0.6011	-0.1991	1.7097	1.3623	0.3591	0.6909	1.1944	0.4528	0.648	0.1171	-2.8651
0.3435	0.929	0.5426	0.5192	0.7026	0.3162	1.0227	0.7221	0.4489	0.3669	0.2693	0.3591	0.5816	-0.1757	1.6941	1.2881	0.3279	0.6714	1.1632	0.4762	0.5465	0.1327	-2.8924
0.3318	0.9017	0.5309	0.5309	0.6714	0.324	1.011	0.6519	0.4372	0.3552	0.1835	0.3201	0.5387	-0.1483	1.6863	1.2491	0.2849	0.6792	1.1125	0.4684	0.4333	0.1561	-2.8729
0.3435	0.9095	0.5035	0.5153	0.6636	0.3357	1.0227	0.6324	0.3942	0.3513	0.1132	0.2693	0.5113	-0.1366	1.7175	1.253	0.2459	0.6792	1.0266	0.4918	0.3201	0.1444	-2.869
0.3396	0.8978	0.5426	0.5113	0.648	0.3552	1.0032	0.5894	0.3591	0.3084	0.0586	0.1913	0.484	-0.1093	1.7253	1.2413	0.1913	0.6519	0.9524	0.4957	0.2108	0.1249	-2.8651
0.3513	0.89	0.5504	0.5387	0.6363	0.3513	0.9837	0.5543	0.324	0.3045	-0.0078	0.1366	0.4528	-0.0781	1.7487	1.2569	0.1327	0.6206	0.9095	0.4996	0.1288	0.0976	-2.8729
0.3591	0.9095	0.5777	0.5387	0.6089	0.3708	0.9719	0.5035	0.3357	0.2498	-0.0312	0.0625	0.3903	-0.0586	1.7643	1.2803	0.0859	0.6363	0.8548	0.484	0.0273	0.0586	-2.9041
0.3552	0.8588	0.566	0.5309	0.5621	0.3357	0.9173	0.4567	0.281	0.1913	-0.121	-0.0273	0.3396	-0.0468	1.8112	1.2998	0.0546	0.5855	0.808	0.4801	-0.0742	0.0078	-2.9119
0.3669	0.8861	0.5816	0.5231	0.5543	0.3474	0.8861	0.4099	0.2264	0.1444	-0.1796	-0.0742	0.2889	-0.0117	1.8658	1.3506	0.0156	0.5777	0.7651	0.4762	-0.1366	-0.0546	-2.9432
0.3942	0.8548	0.5894	0.5231	0.5504	0.3513	0.8978	0.3864	0.2069	0.0976	-0.2537	-0.16	0.203	-0.0039	1.8893	1.374	-0.0195	0.527	0.7143	0.4411	-0.1991	-0.082	-2.9861
0.4177	0.8588	0.5894	0.5113	0.5309	0.3396	0.8392	0.363	0.1718	0.0625	-0.2928	-0.2186	0.1718	0.0078	1.9361	1.4247	-0.0546	0.4918	0.6948	0.4255	-0.2615	-0.1249	-3.0447
0.4333	0.8705	0.6206	0.5426	0.527	0.3435	0.8197	0.3318	0.1522	0.0078	-0.3357	-0.2771	0.1366	0.039	1.979	1.4521	-0.0781	0.4294	0.6441	0.4177	-0.2928	-0.1483	-3.0915
0.4216	0.8392	0.6245	0.5153	0.4996	0.3318	0.769	0.3084	0.1249	-0.0625	-0.363	-0.3123	0.082	0.0312	1.979	1.4794	-0.082	0.3747	0.6206	0.3201	-0.3201	-0.16	-3.1305
0.4099	0.8197	0.6441	0.4918	0.4879	0.3396	0.7377	0.2889	0.1093	-0.082	-0.3786	-0.3435	0.0273	0.0429	1.9868	1.4794	-0.1015	0.3357	0.6089	0.2849	-0.3357	-0.16	-3.2047
0.4489	0.8275	0.6324	0.4996	0.4996	0.3435	0.7221	0.2654	0.0898	-0.121	-0.4099	-0.3786	-0.0117	0.0429	1.979	1.4989	-0.1054	0.2576	0.6167	0.2342	-0.3591	-0.1835	-3.2672
0.4723	0.8158	0.6597	0.5231	0.4918	0.3396	0.7026	0.2732	0.082	-0.1483	-0.4021	-0.3942	-0.0429	0.0703	2.0142	1.5106	-0.1249	0.2264	0.5933	0.1835	-0.3708	-0.2147	-3.3374
0.4723	0.808	0.6753	0.4918	0.5035	0.3591	0.7026	0.2732	0.1015	-0.1952	-0.4255	-0.4138	-0.0976	0.039	1.9985	1.4989	-0.1093	0.1639	0.5777	0.1171	-0.3747	-0.2537	-3.4038
0.5348	0.8275	0.7143	0.5309	0.5074	0.3708	0.6987	0.3123	0.1015	-0.1913	-0.4528	-0.4021	-0.0976	0.039	2.0298	1.5067	-0.1054	0.1405	0.605	0.1093	-0.3591	-0.2771	-3.4936
0.5309	0.8119	0.7104	0.5231	0.5035	0.3825	0.6714	0.2849	0.0781	-0.2186	-0.4684	-0.4216	-0.1444	0.0156	2.0571	1.4755	-0.0546	0.0586	0.5933	0.0195	-0.3747	-0.324	-3.517
0.5699	0.8119	0.7338	0.566	0.4957	0.4177	0.7026	0.2928	0.0859	-0.242	-0.4489	-0.4216	-0.1561	-0.0078	2.0649	1.5145	-0.0039	0.0234	0.605	-0.0078	-0.3513	-0.3708	-3.6068
0.6128	0.8353	0.7768	0.6128	0.5465	0.4411	0.7104	0.3318	0.0937	-0.2303	-0.4294	-0.4216	-0.1483	-0.0234	2.1196	1.5458	0.0273	-0.0234	0.6324	-0.0586	-0.3006	-0.4255	-3.6731
0.6324	0.8509	0.8041	0.6519	0.5387	0.4411	0.7104	0.3318	0.1327	-0.2381	-0.4528	-0.4411	-0.1757	-0.039	2.1703	1.6238	0.0742	-0.0937	0.6441	-0.0781	-0.2889	-0.5113	-3.7239
0.6948	0.8783	0.8548	0.6753	0.5816	0.4879	0.7534	0.3435	0.16	-0.2264	-0.4294	-0.406	-0.1561	-0.0546	2.221	1.698	0.0976	-0.1054	0.6831	-0.121	-0.2186	-0.5816	-3.7941
0.769	0.9329	0.9017	0.7612	0.6245	0.527	0.8119	0.3786	0.1991	-0.2225	-0.4138	-0.4216	-0.1718	-0.0703	2.2679	1.7761	0.1327	-0.1991	0.6987	-0.1444	-0.2147	-0.6675	-3.8488
0.8158	0.9329	0.9407	0.7924	0.648	0.5348	0.8119	0.4177	0.2264	-0.2186	-0.445	-0.4606	-0.1913	-0.0976	2.2952	1.8775	0.1913	-0.2459	0.6987	-0.1913	-0.1639	-0.7534	-3.8683
0.8548	0.9563	1.0032	0.847	0.6519	0.5855	0.8392	0.4567	0.2459	-0.1835	-0.4177	-0.4372	-0.1718	-0.1093	2.3577	1.9868	0.2069	-0.2889	0.7299	-0.1913	-0.1405	-0.8353	-3.9112
0.9173	0.9876	1.0383	0.9095	0.6831	0.6128	0.8548	0.4684	0.2693	-0.1874	-0.4021	-0.4294	-0.1678	-0.121	2.4006	2.1313	0.2264	-0.3279	0.7846	-0.2147	-0.082	-0.9134	-3.9307
0.9446	1.0344	1.1125	0.9641	0.7104	0.6245	0.929	0.4996	0.3201	-0.1639	-0.4021	-0.4333	-0.1757	-0.1249	2.3733	2.2093	0.2459	-0.3435	0.8275	-0.2459	-0.0468	-0.9798	-3.9385
1.011	1.0617	1.1593	1.011	0.7338	0.6753	0.968	0.5426	0.3981	-0.1132	-0.3669	-0.4099	-0.1522	-0.1327	2.3694	2.3108	0.242	-0.4138	0.8548	-0.281	0.0195	-1.0422	-3.9737
1.0461	1.0617	1.2062	1.0422	0.7612	0.7104	1.0032	0.566	0.4216	-0.0898	-0.3357	-0.406	-0.1561	-0.1483	2.3381	2.4006	0.2693	-0.4177	0.9056	-0.2928	0.039	-1.0969	-3.9503
1.0891	1.1242	1.2686	1.0891	0.7846	0.7612	1.0695	0.6011	0.4606	-0.0312	-0.3201	-0.3825	-0.121	-0.1444	2.2835	2.506	0.2693	-0.4177	0.9212	-0.3123	0.0625	-1.1437	-3.9542
1.0578	1.132	1.3037	1.1281	0.808	0.7924	1.1125	0.6402	0.5192	0.0195	-0.2459	-0.3435	-0.082	-0.1444	2.2328	2.5255	0.2693	-0.4255	0.9602	-0.3279	0.1054	-1.1281	-3.9385
1.1359	1.1905	1.3935	1.1827	0.8275	0.8431	1.2062	0.648	0.5855	0.0625	-0.2069	-0.3006	-0.0195	-0.1366	2.1313	2.6036	0.242	-0.3747	0.9759	-0.2654	0.1405	-1.1203	-3.9151
1.1359	1.1632	1.4326	1.2179	0.8392	0.8744	1.2452	0.6792	0.6363	0.1249	-0.1796	-0.2147	0.0586	-0.1288	2.0454	2.5958	0.2303	-0.3708	0.9993	-0.2576	0.1835	-1.0891	-3.9307
1.1125	1.1827	1.4286	1.2491	0.8548	0.8978	1.3115	0.7026	0.6714	0.203	-0.1327	-0.1522	0.1249	-0.1249	1.9127	2.5606	0.2303	-0.3084	1.011	-0.2069	0.1991	-0.9876	-3.9268
1.0734	1.1827	1.4911	1.2725	0.8431	0.9329	1.3623	0.7416	0.7456	0.2771	-0.0546	-0.0468	0.2303	-0.1054	1.8073	2.506	0.1952	-0.2225	1.0149	-0.1561	0.2849	-0.8666	-3.9346
1.0891	1.2023	1.4755	1.3115	0.8548	0.9876	1.4482	0.7885	0.8275	0.3435	0.0312	0.0468	0.3279	-0.0859	1.6746	2.3694	0.1639	-0.1288	1.0383	-0.1288	0.324	-0.7221	-3.9268
1.0305	1.1788	1.4872	1.3428	0.847	0.9954	1.5106	0.7885	0.89	0.4489	0.0898	0.1483	0.4333	-0.082	1.5301	2.2132	0.1366	-0.0351	1.0656	-0.0586	0.3474	-0.5621	-3.9346
1.0071	1.1827	1.5145	1.3701	0.8548	1.0149	1.5887	0.808	0.9641	0.5504	0.1757	0.2576	0.5582	-0.0625	1.3935	2.0727	0.1171	0.0507	1.0773	0.0351	0.4021	-0.4216	-3.9503
0.9602	1.1905	1.4989	1.4208	0.89	1.0656	1.6589	0.8744	1.0383	0.648	0.242	0.3786	0.7104	-0.0546	1.2413	1.8775	0.0781	0.16	1.0539	0.1015	0.4333	-0.2381	-3.9463
0.9641	1.2023	1.5458	1.4677	0.8978	1.1047	1.737	0.9212	1.1242	0.7612	0.3552	0.5192	0.89	-0.0156	1.171	1.6941	0.0234	0.2928	1.0891	0.2108	0.4801	-0.0937	-3.9542
0.9407	1.2023	1.5575	1.5106	0.8939	1.1593	1.8385	0.968	1.2335	0.9134	0.4645	0.6792	1.0734	0.0078	1.0891	1.4677	-0.0273	0.4138	1.1164	0.3123	0.4918	0.0468	-3.9659
0.9485	1.2257	1.5653	1.5536	0.9446	1.2101	1.9712	1.0656	1.335	1.0422	0.5816	0.8666	1.2452	0.0468	1.0149	1.2803	-0.0976	0.5855	1.1164	0.3981	0.5113	0.2147	-4.001
0.9056	1.214	1.5653	1.577	0.9407	1.2218	1.9985	1.1281	1.4091	1.1398	0.6714	1.0305	1.4247	0.0586	0.9524	1.0695	-0.1405	0.6987	1.1281	0.484	0.5387	0.3552	-4.0361
0.8861	1.2179	1.5887	1.6355	0.9915	1.2686	2.0922	1.2257	1.5184	1.2803	0.8314	1.214	1.6355	0.0859	0.929	0.9407	-0.1913	0.8509	1.1515	0.6011	0.5894	0.4411	-4.0713
0.8861	1.2101	1.6082	1.6316	1.0149	1.3194	2.1508	1.292	1.6277	1.4286	0.9446	1.4247	1.8268	0.1327	0.9095	0.8314	-0.2693	1.0149	1.1788	0.6909	0.6128	0.5426	-4.0752
0.89	1.2413	1.5965	1.6589	1.0578	1.3506	2.2484	1.3662	1.7682	1.5497	1.1359	1.6511	2.0493	0.1639	0.8822	0.7416	-0.3474	1.1944	1.2062	0.7768	0.6948	0.6167	-4.0947
0.8548	1.2218	1.5692	1.6668	1.0812	1.4013	2.3108	1.4833	1.8658	1.7019	1.2491	1.8424	2.221	0.2069	0.8509	0.687	-0.406	1.3233	1.2179	0.8783	0.726	0.6948	-4.1259
0.8275	1.2023	1.5653	1.6472	1.1008	1.4052	2.3147	1.5301	1.94	1.8034	1.3935	2.0376	2.3928	0.2225	0.8392	0.6519	-0.4528	1.4443	1.2608	0.9485	0.7612	0.769	-4.1845
0.8041	1.1944	1.5692	1.6824	1.171	1.4247	2.3772	1.6394	2.061	1.9166	1.577	2.2718	2.6192	0.2498	0.8158	0.566	-0.5074	1.5614	1.3272	1.0344	0.8236	0.8314	-4.1923
0.7416	1.1827	1.5145	1.6394	1.1671	1.4169	2.4201	1.7097	2.1508	2.0103	1.7409	2.4826	2.8026	0.2771	0.7768	0.5074	-0.5621	1.6629	1.3272	1.0851	0.8627	0.8861	-4.204
0.7377	1.1671	1.5028	1.6316	1.2296	1.4521	2.4435	1.8112	2.2406	2.1117	1.9322	2.6895	2.951	0.3045	0.7065	0.4879	-0.605	1.7761	1.3818	1.1398	0.9368	0.9134	-4.2508
0.7143	1.1515	1.4482	1.6199	1.2374	1.4482	2.5216	1.9361	2.3225	2.2015	2.0571	2.8885	3.1618	0.3123	0.6753	0.406	-0.6636	1.9127	1.4286	1.2062	1.0227	0.9837	-4.3211
0.6948	1.1593	1.4247	1.6238	1.2764	1.456	2.545	2.0376	2.4435	2.2991	2.2288	3.1071	3.3335	0.3591	0.6519	0.3591	-0.7182	2.0142	1.4677	1.2725	1.0851	0.9641	-4.3406
0.6636	1.1476	1.3818	1.6199	1.3076	1.4599	2.5567	2.1196	2.5333	2.3733	2.3694	3.2906	3.5014	0.3669	0.5855	0.324	-0.7338	2.1352	1.5301	1.292	1.1554	0.9876	-4.3835
0.6402	1.1593	1.3623	1.6004	1.3428	1.4599	2.5802	2.2132	2.627	2.4435	2.5528	3.4779	3.6536	0.3786	0.5348	0.2147	-0.769	2.2328	1.577	1.3272	1.2296	0.9993	-4.3952
0.605	1.1983	1.3233	1.6043	1.3701	1.4638	2.6192	2.2952	2.7363	2.4982	2.6738	3.6653	3.8214	0.3864	0.5074	0.1718	-0.7846	2.3225	1.6082	1.3623	1.3115	0.9602	-4.446
0.6167	1.1866	1.3076	1.5965	1.4208	1.4794	2.6582	2.3889	2.7909	2.5528	2.8573	3.8722	3.9659	0.4021	0.4294	0.1171	-0.8158	2.4396	1.6707	1.3935	1.3896	0.8939	-4.4655
0.605	1.1983	1.253	1.5887	1.4599	1.4872	2.6543	2.4709	2.908	2.6192	2.99	4.04	4.0986	0.4138	0.4021	0.0703	-0.8392	2.5294	1.7214	1.4091	1.4833	0.8002	-4.4967
0.5738	1.2296	1.253	1.577	1.5028	1.4755	2.6777	2.5567	2.9939	2.6816	3.1383	4.1845	4.2118	0.4177	0.3552	0.0546	-0.847	2.6036	1.7682	1.4482	1.5731	0.6948	-4.5162
0.5621	1.2764	1.2374	1.5692	1.5731	1.4872	2.7012	2.6387	3.0993	2.7129	3.314	4.3601	4.3445	0.4255	0.3552	0.0586	-0.847	2.6543	1.8073	1.4482	1.6511	0.5309	-4.5123
0.5933	1.3154	1.2023	1.5692	1.6199	1.4989	2.7129	2.7441	3.1657	2.7402	3.4506	4.4928	4.4616	0.3981	0.3474	0.0859	-0.8431	2.7324	1.8658	1.456	1.7604	0.3591	-4.5084
0.5933	1.374	1.1905	1.5575	1.6941	1.5184	2.7207	2.8066	3.2554	2.7909	3.5755	4.6568	4.567	0.4177	0.3435	0.121	-0.8431	2.8144	1.901	1.4599	1.8346	0.1718	-4.5162
0.5933	1.374	1.1788	1.5262	1.7214	1.495	2.7207	2.8924	3.3179	2.8144	3.6692	4.7856	4.6568	0.3981	0.2928	0.1366	-0.8197	2.8222	1.9595	1.4482	1.9634	-0.0273	-4.5084
0.605	1.4326	1.1905	1.5067	1.7761	1.5145	2.7246	2.9393	3.3999	2.8339	3.8097	4.8754	4.7192	0.4021	0.2732	0.1796	-0.808	2.8729	1.9556	1.4443	2.0181	-0.2303	-4.4928
0.5972	1.4599	1.1788	1.4755	1.8073	1.5262	2.7207	3.0095	3.4545	2.8729	3.88	4.9808	4.8012	0.3864	0.2654	0.2381	-0.7807	2.908	2.0103	1.4365	2.0961	-0.4177	-4.5123
0.5816	1.4677	1.1437	1.4521	1.8229	1.5301	2.7168	3.0525	3.4936	2.8885	3.9737	5.0432	4.8363	0.3669	0.2654	0.2654	-0.7534	2.9354	2.0493	1.4365	2.1586	-0.6167	-4.5162
0.5933	1.495	1.1476	1.4755	1.8502	1.5145	2.7168	3.0876	3.5365	2.9237	4.0635	5.133	4.8793	0.3669	0.2889	0.3513	-0.7416	2.9588	2.0844	1.4091	2.2288	-0.8275	-4.5162
0.5777	1.5106	1.1437	1.4677	1.9127	1.5575	2.7285	3.1227	3.6107	2.9432	4.1181	5.1954	4.9261	0.3513	0.2967	0.4216	-0.7182	2.9744	2.0727	1.3974	2.2757	-1.0032	-4.5123
0.5855	1.5145	1.1437	1.4599	1.901	1.5497	2.748	3.1501	3.6341	2.9744	4.1298	5.2423	4.9534	0.3279	0.2928	0.4723	-0.6831	2.9822	2.0961	1.3701	2.3381	-1.1515	-4.528
0.5465	1.5067	1.1203	1.4638	1.9088	1.5653	2.7636	3.1579	3.6809	3.0134	4.1767	5.2696	4.9886	0.324	0.2928	0.4723	-0.6675	3.0212	2.1117	1.3701	2.3655	-1.2686	-4.5436
0.5426	1.5067	1.1164	1.4755	1.9244	1.5653	2.7636	3.2008	3.7082	3.0603	4.2118	5.3243	5.0432	0.3201	0.3006	0.5192	-0.6519	3.0486	2.1196	1.3857	2.3967	-1.3428	-4.5241
0.4918	1.4638	1.0969	1.4794	1.8893	1.5614	2.8026	3.154	3.716	3.0915	4.2001	5.336	5.0979	0.3279	0.281	0.5035	-0.6519	3.0681	2.1	1.3935	2.3928	-1.3779	-4.5787
0.4645	1.4755	1.093	1.4911	1.8775	1.577	2.8339	3.1696	3.7317	3.1344	4.1767	5.3164	5.133	0.324	0.2771	0.5231	-0.6714	3.1461	2.0883	1.4365	2.4084	-1.3779	-4.6021
0.4645	1.4365	1.0851	1.5184	1.8346	1.5536	2.8846	3.1305	3.7512	3.2125	4.1298	5.3125	5.1603	0.3318	0.2615	0.5348	-0.687	3.1696	2.0415	1.456	2.3889	-1.3662	-4.6138
0.3864	1.3623	1.0539	1.4872	1.7761	1.5262	2.8924	3.072	3.7317	3.2359	4.0322	5.2813	5.1837	0.3474	0.2459	0.5348	-0.6909	3.2242	1.9907	1.4872	2.3147	-1.3037	-4.6255
0.3552	1.3272	1.0305	1.5145	1.7136	1.5145	2.9119	3.0056	3.7121	3.2554	3.9073	5.2228	5.2072	0.363	0.2186	0.5074	-0.7338	3.2633	1.94	1.5497	2.2367	-1.2257	-4.649
0.3318	1.2725	1.0071	1.5262	1.6472	1.4716	2.9041	2.9237	3.6731	3.2984	3.8097	5.1291	5.2189	0.363	0.2186	0.5153	-0.7377	3.2828	1.8853	1.6238	2.1391	-1.1164	-4.6685
0.2615	1.2296	0.9719	1.5028	1.5692	1.4247	2.8885	2.8105	3.6341	3.3296	3.6887	5.0627	5.2072	0.3864	0.1639	0.5035	-0.7651	3.3101	1.7878	1.6511	2.0181	-0.9719	-4.7036
0.1952	1.132	0.8548	1.4716	1.4443	1.3467	2.8807	2.6855	3.5287	3.3335	3.5404	4.9144	5.1837	0.3942	0.1015	0.4762	-0.8002	3.353	1.7019	1.6902	1.8932	-0.8236	-4.7505
0.121	1.0461	0.8236	1.4326	1.3545	1.2725	2.8456	2.5567	3.4506	3.2945	3.3569	4.7778	5.1369	0.406	0.0625	0.4255	-0.8197	3.3921	1.6316	1.7058	1.7878	-0.6324	-4.7739
0.0234	0.9056	0.7573	1.3701	1.2179	1.1788	2.8026	2.4279	3.353	3.3023	3.1969	4.6373	5.0783	0.3981	-0.0234	0.3513	-0.8236	3.396	1.5536	1.7175	1.6472	-0.445	-4.8012
-0.0468	0.8041	0.6558	1.3076	1.1008	1.0617	2.7402	2.2757	3.2359	3.2359	2.9939	4.4577	5.0081	0.4099	-0.1054	0.2654	-0.8353	3.3882	1.4677	1.7448	1.5458	-0.242	-4.8558
-0.1288	0.7182	0.5972	1.2725	0.968	0.9798	2.6816	2.1586	3.1461	3.2281	2.8651	4.3094	4.9339	0.4294	-0.1483	0.1913	-0.847	3.4233	1.3935	1.7643	1.4443	-0.0468	-4.8793
-0.2264	0.605	0.484	1.1905	0.8588	0.8392	2.6036	2.0024	2.9939	3.1383	2.7051	4.1337	4.8441	0.4294	-0.2459	0.0859	-0.847	3.4311	1.335	1.78	1.3701	0.1678	-4.9222
-0.3396	0.445	0.3864	1.0851	0.7143	0.7377	2.5411	1.858	2.8534	3.0681	2.5021	3.9307	4.7465	0.4255	-0.3201	-0.0507	-0.8314	3.3882	1.292	1.7761	1.2686	0.3474	-4.969
-0.406	0.3201	0.3123	1.0188	0.5777	0.6206	2.467	1.7292	2.7168	2.9705	2.3538	3.7668	4.6451	0.4216	-0.3942	-0.1561	-0.8314	3.3882	1.2608	1.7761	1.214	0.5348	-5.0315
-0.527	0.2069	0.1991	0.9446	0.4489	0.484	2.3733	1.5731	2.5528	2.8768	2.2132	3.5482	4.5045	0.3903	-0.4762	-0.2889	-0.7768	3.3725	1.2374	1.737	1.1515	0.7065	-5.0705
-0.5855	0.121	0.1132	0.8548	0.3474	0.3786	2.2835	1.4286	2.3967	2.7636	2.0649	3.3843	4.3796	0.3708	-0.5777	-0.4333	-0.7456	3.3413	1.2062	1.7136	1.1242	0.847	-5.1252
-0.6519	0.0468	0.0703	0.8236	0.2654	0.2967	2.2015	1.3272	2.2562	2.6621	1.9673	3.2047	4.2664	0.3474	-0.6011	-0.5309	-0.7026	3.3452	1.1905	1.7058	1.1242	0.9446	-5.1759
-0.6948	-0.0273	0	0.7416	0.1718	0.2069	2.143	1.214	2.0961	2.5567	1.8463	3.029	4.1142	0.3045	-0.6831	-0.6245	-0.6284	3.2906	1.1827	1.6824	1.1359	1.0071	-5.2462
-0.7104	-0.0625	-0.0117	0.7456	0.1327	0.1483	2.0649	1.1164	1.979	2.4709	1.7448	2.8495	3.9659	0.2771	-0.6948	-0.6987	-0.5621	3.2437	1.2413	1.6824	1.1554	1.0227	-5.3243
-0.7065	-0.0898	-0.0546	0.6909	0.0429	0.0586	1.9985	1.0344	1.8385	2.3147	1.6277	2.6582	3.8019	0.2459	-0.7221	-0.8275	-0.484	3.1774	1.2257	1.6043	1.1788	1.0227	-5.3984
-0.6675	-0.1015	-0.0429	0.7065	0.0234	0	1.9556	1.0032	1.7097	2.221	1.5614	2.5099	3.7082	0.2108	-0.6909	-0.8197	-0.4099	3.1344	1.3311	1.577	1.2842	0.9602	-5.4804
-0.6245	-0.0664	-0.0234	0.7221	0.0273	-0.0117	1.9166	0.9485	1.5965	2.1117	1.4911	2.3381	3.5482	0.1639	-0.6402	-0.8431	-0.3357	3.0915	1.3935	1.5379	1.3389	0.8588	-5.5272
-0.5855	-0.0546	-0.0039	0.7495	0.0117	-0.0429	1.8736	0.89	1.5028	2.0024	1.4247	2.1625	3.3999	0.1366	-0.6011	-0.8353	-0.2732	2.9939	1.4286	1.4872	1.413	0.7182	-5.6053
-0.4996	-0.0078	0.0429	0.8041	0.0546	-0.0156	1.8307	0.8705	1.3974	1.901	1.3857	2.0571	3.2593	0.1054	-0.4996	-0.6987	-0.1952	2.9002	1.4989	1.4404	1.4872	0.4996	-5.6951
-0.3747	0.0586	0.0898	0.8431	0.0546	-0.0468	1.8229	0.8548	1.3115	1.819	1.3389	1.8932	3.0759	0.0625	-0.4177	-0.5972	-0.1249	2.7987	1.5887	1.3584	1.5653	0.2732	-5.777
-0.324	0.1054	0.1288	0.8939	0.1132	-0.0273	1.8112	0.8314	1.2062	1.6863	1.2842	1.7331	2.9198	0.0117	-0.3318	-0.4684	-0.039	2.7168	1.6316	1.2842	1.6394	0.0156	-5.8668
-0.2303	0.1913	0.1913	0.9446	0.1483	-0.0546	1.8151	0.8236	1.1242	1.5653	1.2413	1.6082	2.7441	-0.0195	-0.2069	-0.324	0.0351	2.5802	1.7409	1.2374	1.7019	-0.2576	-5.9761
-0.1444	0.2537	0.242	0.9954	0.1796	-0.0586	1.7604	0.808	1.0656	1.4482	1.1983	1.4794	2.5684	-0.0664	-0.0976	-0.16	0.1132	2.4474	1.7878	1.1476	1.7604	-0.5309	-6.0932
-0.0586	0.3279	0.2889	1.0461	0.242	-0.0351	1.7409	0.8275	0.9837	1.3545	1.1554	1.3428	2.4006	-0.0976	0.0039	-0.0351	0.1874	2.342	1.8541	1.0578	1.819	-0.7963	-6.1752
0.0586	0.4333	0.3513	1.1242	0.3045	0.0234	1.7565	0.8509	0.9602	1.2725	1.1554	1.253	2.2445	-0.1444	0.1015	0.1015	0.2498	2.2054	1.9322	0.9798	1.8971	-1.0773	-6.2962
0.1132	0.527	0.4333	1.214	0.4138	0.0468	1.7526	0.8939	0.9641	1.1983	1.1398	1.171	2.1156	-0.1561	0.242	0.2654	0.3123	2.0922	2.0298	0.9251	1.9517	-1.3428	-6.3782
0.2108	0.5894	0.4645	1.2569	0.4489	0.0625	1.7604	0.8978	0.9251	1.093	1.1203	1.0695	1.9751	-0.203	0.3513	0.3942	0.3747	1.9166	2.0727	0.8548	2.0181	-1.616	-6.464
0.2732	0.6519	0.5074	1.3154	0.5309	0.0937	1.7409	0.9173	0.9056	1.0461	1.093	1.0032	1.8346	-0.2264	0.4606	0.5348	0.4294	1.8112	2.1664	0.7729	2.0727	-1.8853	-6.5772
0.3357	0.7729	0.5699	1.3701	0.6089	0.1405	1.7721	0.9837	0.9134	0.9915	1.0891	0.9368	1.7253	-0.2576	0.5738	0.6831	0.4801	1.6863	2.2406	0.726	2.143	-2.1664	-6.6748
0.3981	0.8588	0.605	1.4482	0.7104	0.1757	1.7643	1.0305	0.9407	0.9173	1.0891	0.8861	1.6199	-0.2732	0.7143	0.7729	0.5231	1.5926	2.2796	0.6753	2.2132	-2.4006	-6.7841
0.4957	0.9446	0.6792	1.4989	0.8119	0.2186	1.7917	1.1203	0.9719	0.9212	1.1203	0.8939	1.5536	-0.2928	0.808	0.9095	0.5543	1.4989	2.3733	0.6441	2.2601	-2.6387	-6.8895
0.5309	1.0149	0.7104	1.5379	0.8939	0.2264	1.7721	1.1671	1.0071	0.8509	1.1398	0.8353	1.456	-0.3084	0.9524	0.9993	0.5894	1.413	2.4396	0.6089	2.3264	-2.8144	-7.0183
0.5582	1.1008	0.7299	1.5536	0.9485	0.2889	1.7643	1.2179	0.9993	0.8158	1.1788	0.808	1.3779	-0.3357	1.0695	1.0773	0.6363	1.3115	2.5021	0.605	2.385	-2.9315	-7.1081
0.5816	1.1671	0.7456	1.577	1.0188	0.281	1.737	1.2803	1.0422	0.7456	1.1983	0.7612	1.2725	-0.3552	1.1944	1.1671	0.6909	1.2257	2.5567	0.5465	2.4474	-3.0212	-7.2447
0.5699	1.1983	0.7534	1.5458	1.0812	0.2967	1.7175	1.3233	1.0461	0.687	1.1905	0.687	1.1944	-0.3825	1.2764	1.2062	0.7221	1.1242	2.627	0.5035	2.4904	-3.033	-7.3696
0.5894	1.2686	0.7456	1.5184	1.1476	0.2889	1.7019	1.4013	1.0617	0.6206	1.2257	0.6714	1.1008	-0.3903	1.3935	1.2959	0.7534	1.0266	2.7246	0.445	2.5723	-3.033	-7.5258
0.5543	1.2959	0.7182	1.4872	1.1632	0.2459	1.6394	1.4247	1.0383	0.5309	1.1944	0.6167	0.9876	-0.4255	1.4794	1.374	0.8158	0.9056	2.7558	0.4021	2.6192	-3.0056	-7.6507
0.5621	1.3389	0.7104	1.4404	1.2101	0.2264	1.5926	1.4326	1.0539	0.4762	1.214	0.5699	0.8978	-0.4489	1.5692	1.4677	0.8431	0.7768	2.8417	0.3396	2.6348	-2.9861	-7.7834
0.5465	1.3974	0.6714	1.3935	1.2608	0.2459	1.5145	1.4833	1.0578	0.3903	1.1944	0.5035	0.7612	-0.4333	1.6629	1.5965	0.8509	0.687	2.8573	0.3084	2.6465	-2.9158	-7.9317
0.5504	1.4286	0.6636	1.3545	1.2881	0.203	1.4755	1.5028	1.0773	0.3318	1.1866	0.4801	0.687	-0.445	1.7565	1.6824	0.8744	0.5933	2.8924	0.2576	2.6582	-2.8573	-8.0918
0.527	1.4716	0.6675	1.3194	1.3272	0.1757	1.4052	1.5301	1.0617	0.2342	1.1671	0.4372	0.5777	-0.445	1.8541	1.7761	0.8666	0.4723	2.9315	0.2108	2.6387	-2.7831	-8.2284
0.5192	1.5067	0.6441	1.2491	1.3389	0.1561	1.3623	1.5418	1.0461	0.1796	1.1359	0.406	0.5113	-0.4567	1.9322	1.8346	0.8822	0.3747	2.9041	0.1483	2.6153	-2.6934	-8.3767
0.5504	1.5458	0.6597	1.2296	1.3818	0.1678	1.3233	1.5653	1.0539	0.1288	1.1281	0.3669	0.4411	-0.4489	2.0298	1.9205	0.8627	0.281	2.9119	0.1249	2.5763	-2.5763	-8.4977
0.5504	1.6004	0.687	1.1944	1.4365	0.1757	1.2998	1.5887	1.093	0.0859	1.1281	0.3669	0.3708	-0.4411	2.1039	1.9478	0.8548	0.2186	2.9471	0.0976	2.5333	-2.4201	-8.6422
0.5894	1.6629	0.7143	1.1905	1.4716	0.1874	1.2608	1.6277	1.093	0.0625	1.1008	0.3474	0.3552	-0.4372	2.1859	1.9673	0.8548	0.1483	2.9471	0.0742	2.5021	-2.2484	-8.7827
0.6167	1.7409	0.7612	1.1944	1.5145	0.2186	1.2608	1.6433	1.1359	0.0586	1.1125	0.3981	0.3513	-0.4411	2.2601	1.9283	0.8509	0.0859	2.951	0.0703	2.4826	-2.0259	-8.9037
0.6519	1.8112	0.8158	1.1827	1.6004	0.2381	1.2569	1.6902	1.1671	0.0507	1.1086	0.3903	0.3474	-0.4372	2.3108	1.8971	0.8431	0.039	2.9822	0.0195	2.4084	-1.7643	-9.0559
0.7221	1.8775	0.8666	1.1788	1.6433	0.3045	1.2764	1.7292	1.2062	0.0546	1.1437	0.4255	0.3669	-0.4333	2.3772	1.7682	0.8392	0.0078	2.9744	0.0468	2.3381	-1.4911	-9.1886
0.7612	1.9595	0.9407	1.2296	1.6941	0.3552	1.2803	1.7761	1.2764	0.0703	1.1476	0.4567	0.3708	-0.4294	2.4474	1.7019	0.8275	-0.0234	2.9861	0.0586	2.2991	-1.2023	-9.294
0.8509	2.0337	1.0071	1.2101	1.7604	0.4021	1.2881	1.8112	1.3076	0.0742	1.1437	0.4645	0.3864	-0.4411	2.4982	1.5965	0.8314	-0.0937	2.9861	0.0351	2.2328	-0.9134	-9.4189
0.9251	2.0844	1.0656	1.2374	1.8034	0.4645	1.3076	1.8541	1.3311	0.1249	1.1671	0.484	0.4177	-0.4255	2.5645	1.5184	0.8236	-0.0976	3.0134	0.0625	2.1664	-0.648	-9.5048
0.9798	2.1274	1.1125	1.2452	1.8346	0.4879	1.3233	1.8697	1.3701	0.1288	1.1593	0.4918	0.4138	-0.4294	2.6153	1.4794	0.8392	-0.1678	3.0134	0.0507	2.1078	-0.3825	-9.6102
1.1164	2.2249	1.2179	1.3115	1.8971	0.5543	1.3467	1.901	1.3857	0.1718	1.1866	0.5582	0.4567	-0.4255	2.7207	1.4716	0.8197	-0.1796	3.033	0.0742	2.0766	-0.1757	-9.6883
1.1593	2.2913	1.3037	1.335	1.9556	0.6089	1.3701	1.94	1.4169	0.1874	1.1827	0.5738	0.4489	-0.4138	2.7753	1.4755	0.808	-0.203	3.0642	0.0625	2.0298	0.0039	-9.7624
1.2959	2.3538	1.3779	1.3623	2.0064	0.6753	1.4169	1.9517	1.4716	0.1991	1.2023	0.5894	0.484	-0.4216	2.8612	1.5184	0.8158	-0.2576	3.0798	0.0546	1.9751	0.1171	-9.8327
1.3935	2.4435	1.4521	1.4208	2.0532	0.7104	1.4404	1.979	1.456	0.2342	1.214	0.605	0.4996	-0.3981	2.9549	1.6316	0.8041	-0.3006	3.1149	0.0664	1.9127	0.1561	-9.8639
1.5223	2.5255	1.5575	1.4443	2.0922	0.7846	1.4794	2.0259	1.495	0.2459	1.2569	0.6324	0.5035	-0.4372	3.029	1.7604	0.8236	-0.3201	3.1032	0.0937	1.8697	0.1444	-9.8991
1.6394	2.5919	1.6394	1.5067	2.1313	0.8236	1.5145	2.0454	1.5028	0.2771	1.2569	0.6441	0.5192	-0.4099	3.1188	1.9322	0.8002	-0.3396	3.154	0.1132	1.8346	0.0859	-9.9069
1.7136	2.6348	1.7409	1.5497	2.1664	0.8431	1.5379	2.0415	1.4833	0.2928	1.2803	0.6597	0.4996	-0.4294	3.2242	2.1352	0.8158	-0.3942	3.1305	0.0781	1.7409	-0.0117	-9.9225
1.8424	2.7207	1.7956	1.5965	2.1976	0.8783	1.5614	2.0571	1.495	0.2732	1.2764	0.6636	0.5153	-0.4411	3.2515	2.3147	0.8275	-0.4372	3.1344	0.1093	1.7058	-0.1444	-9.9186
1.9127	2.7636	1.8385	1.6082	2.2249	0.8978	1.6082	2.0454	1.4872	0.2693	1.292	0.6753	0.5035	-0.4294	3.3491	2.5567	0.8119	-0.4723	3.1422	0.0898	1.6433	-0.3162	-9.9108
2.0181	2.8144	1.8932	1.6668	2.2484	0.9368	1.6511	2.0766	1.4911	0.3006	1.335	0.7104	0.5153	-0.4138	3.4077	2.7714	0.7924	-0.484	3.1852	0.082	1.6277	-0.4645	-9.8873
2.0766	2.8534	1.901	1.6668	2.2679	0.9407	1.6511	2.1039	1.4677	0.2771	1.3545	0.7221	0.5035	-0.4099	3.4623	2.99	0.7807	-0.4996	3.1891	0.0742	1.616	-0.6402	-9.8873
2.1625	2.8885	1.9088	1.6941	2.303	0.9251	1.655	2.1039	1.4404	0.281	1.3818	0.726	0.5153	-0.4138	3.4818	3.1852	0.7768	-0.5699	3.2047	0.0703	1.5731	-0.7846	-9.8717
2.1703	2.8807	1.9088	1.6785	2.2718	0.9212	1.6316	2.1117	1.4365	0.2615	1.4091	0.7143	0.5035	-0.4216	3.5443	3.3921	0.7807	-0.6167	3.2047	0.0312	1.5575	-0.9446	-9.8327
2.2093	2.9041	1.9166	1.6785	2.3069	0.8822	1.6121	2.1078	1.3935	0.2576	1.4599	0.7416	0.5113	-0.4021	3.5638	3.5833	0.7729	-0.6284	3.2242	0.0195	1.5809	-1.1086	-9.8015
2.2445	2.8963	1.8736	1.6707	2.2757	0.8666	1.5809	2.1117	1.3506	0.2225	1.495	0.7573	0.5035	-0.3981	3.6107	3.7473	0.7534	-0.6441	3.2359	-0.0195	1.5692	-1.2296	-9.7741
2.2484	2.9158	1.858	1.655	2.2913	0.8548	1.5653	2.1078	1.3506	0.2069	1.5418	0.7651	0.5074	-0.3942	3.6263	3.8839	0.7495	-0.6987	3.2437	-0.0546	1.5848	-1.3896	-9.7429
2.2406	2.8573	1.78	1.6355	2.2757	0.7846	1.5067	2.0883	1.292	0.1483	1.5653	0.7377	0.4684	-0.3903	3.6536	3.9776	0.7299	-0.726	3.232	-0.0937	1.5965	-1.5028	-9.6883
2.1703	2.8261	1.7019	1.5731	2.2406	0.7299	1.456	2.0766	1.2569	0.1171	1.6004	0.7338	0.484	-0.3825	3.6731	3.9932	0.726	-0.7338	3.2593	-0.1561	1.5926	-1.5848	-9.6922
2.1196	2.7675	1.6082	1.5262	2.1859	0.6324	1.3662	2.0376	1.1827	0.0429	1.6238	0.7495	0.4528	-0.3708	3.6575	3.9854	0.7338	-0.8002	3.2593	-0.2303	1.6004	-1.6511	-9.6492
2.0727	2.6738	1.5184	1.4638	2.1156	0.5504	1.2959	1.9829	1.1398	-0.0234	1.6277	0.7221	0.445	-0.3864	3.6692	3.8995	0.726	-0.8314	3.2398	-0.2967	1.6043	-1.7058	-9.6531
2.0181	2.6192	1.413	1.4091	2.0649	0.4606	1.2413	1.9283	1.0773	-0.0507	1.6746	0.7416	0.445	-0.3591	3.7004	3.8371	0.7104	-0.847	3.232	-0.3318	1.6238	-1.7526	-9.657
1.9244	2.5372	1.2725	1.3194	1.9712	0.3513	1.1281	1.8971	1.0032	-0.1249	1.6668	0.7065	0.3981	-0.3708	3.716	3.7121	0.7065	-0.9212	3.193	-0.4138	1.6082	-1.7878	-9.6609
1.8073	2.3967	1.1398	1.2335	1.8658	0.2186	1.0071	1.7956	0.9212	-0.2186	1.6589	0.6792	0.3708	-0.3747	3.6575	3.5599	0.7182	-0.9407	3.1579	-0.5074	1.577	-1.7839	-9.6727
1.7253	2.3069	1.0071	1.1281	1.7721	0.1249	0.9017	1.7253	0.8431	-0.2537	1.6472	0.687	0.3591	-0.3708	3.6575	3.4155	0.7065	-0.9719	3.1579	-0.566	1.5614	-1.7839	-9.6805
1.5887	2.2054	0.8588	1.0422	1.6472	-0.0234	0.8197	1.6707	0.7807	-0.3201	1.6004	0.6558	0.3318	-0.363	3.6302	3.2828	0.6948	-1.0227	3.0759	-0.6441	1.5379	-1.7761	-9.6844
1.4443	2.0493	0.7065	0.9485	1.4872	-0.16	0.6753	1.5418	0.687	-0.4138	1.5536	0.5972	0.2889	-0.3552	3.6302	3.1461	0.6909	-1.05	3.0212	-0.7143	1.4755	-1.7682	-9.6922
1.3272	1.9595	0.5816	0.8314	1.4052	-0.3162	0.5582	1.4443	0.5582	-0.4762	1.5145	0.5621	0.2732	-0.3552	3.5794	3.0759	0.6636	-1.0734	2.9666	-0.7807	1.456	-1.7604	-9.7195
1.2062	1.8424	0.406	0.7534	1.2608	-0.4528	0.4684	1.335	0.4957	-0.5387	1.4443	0.5387	0.2459	-0.3279	3.5794	2.99	0.6441	-1.1125	2.9002	-0.8588	1.3662	-1.7526	-9.7351
1.0969	1.7136	0.2576	0.6167	1.1203	-0.5933	0.3357	1.2179	0.3786	-0.6167	1.374	0.4957	0.2069	-0.324	3.5482	2.9315	0.6206	-1.1437	2.8222	-0.9095	1.2959	-1.7448	-9.778
0.9719	1.6199	0.1366	0.5113	1.011	-0.7416	0.2459	1.1554	0.2732	-0.6909	1.3154	0.4684	0.2108	-0.3162	3.5404	2.8885	0.605	-1.1515	2.7441	-0.9798	1.2452	-1.7175	-9.8054
0.8548	1.5028	-0.0195	0.3825	0.8822	-0.8627	0.1054	1.05	0.1874	-0.769	1.2452	0.4138	0.16	-0.2967	3.5209	2.8378	0.5738	-1.1671	2.6816	-1.0617	1.1788	-1.6824	-9.8327
0.7377	1.413	-0.1366	0.2732	0.7612	-1.0227	-0.0078	0.9602	0.1054	-0.8236	1.1827	0.3669	0.121	-0.2928	3.5131	2.7987	0.5543	-1.2062	2.6192	-1.1125	1.1242	-1.5926	-9.8951
0.6402	1.3154	-0.281	0.16	0.6245	-1.1749	-0.121	0.8627	-0.0156	-0.9368	1.1242	0.3006	0.0625	-0.2849	3.5365	2.7597	0.5426	-1.2335	2.5763	-1.1905	1.0656	-1.495	-9.9849
0.5113	1.1905	-0.4177	0.0273	0.5231	-1.3154	-0.2771	0.7885	-0.121	-1.0188	1.0578	0.2537	-0.0078	-0.2928	3.556	2.7168	0.5504	-1.2725	2.5216	-1.2842	1.0266	-1.3857	-10.0669
0.4177	1.1125	-0.5387	-0.1015	0.445	-1.4443	-0.3747	0.7026	-0.2264	-1.1008	0.9993	0.2186	-0.039	-0.3045	3.5521	2.6777	0.5699	-1.3311	2.467	-1.3467	0.968	-1.2803	-10.1333
0.3201	1.0461	-0.6714	-0.2342	0.3435	-1.5809	-0.5113	0.6245	-0.3045	-1.214	0.968	0.1718	-0.1093	-0.3123	3.5638	2.6192	0.6011	-1.3545	2.4513	-1.4091	0.9563	-1.1593	-10.2621
0.2069	0.9759	-0.8041	-0.406	0.2498	-1.698	-0.6206	0.5504	-0.4294	-1.2998	0.9329	0.121	-0.1796	-0.3357	3.5911	2.5489	0.6402	-1.4247	2.4279	-1.5223	0.9446	-1.0188	-10.3518
0.0976	0.8978	-0.9251	-0.5348	0.1718	-1.8307	-0.7651	0.4801	-0.5426	-1.4365	0.8783	0.0937	-0.2693	-0.363	3.5911	2.506	0.7104	-1.4833	2.3889	-1.6199	0.9368	-0.9173	-10.4611
0	0.8353	-1.0539	-0.6987	0.1015	-1.9634	-0.8861	0.4372	-0.6206	-1.5458	0.8431	0.0586	-0.3513	-0.406	3.6263	2.4201	0.7651	-1.5614	2.3811	-1.7253	0.9368	-0.7885	-10.5665
-0.1171	0.769	-1.1398	-0.8509	0.0273	-2.1039	-1.0422	0.3786	-0.7338	-1.6668	0.8588	0.0117	-0.4255	-0.4372	3.5989	2.385	0.8314	-1.6433	2.3772	-1.8229	0.9407	-0.6714	-10.6797
-0.2147	0.7182	-1.2803	-1.0149	-0.0429	-2.1937	-1.1866	0.3435	-0.808	-1.7761	0.8353	-0.0156	-0.5153	-0.4723	3.5911	2.2679	0.9095	-1.7331	2.385	-1.9634	0.9485	-0.5543	-10.7812
-0.3045	0.648	-1.4013	-1.171	-0.0859	-2.2835	-1.335	0.3123	-0.9212	-1.858	0.8392	-0.0078	-0.566	-0.5113	3.556	2.1625	0.9876	-1.8034	2.3889	-2.0883	0.9798	-0.4879	-10.8671
-0.3981	0.5933	-1.5106	-1.2998	-0.121	-2.3889	-1.4482	0.2771	-1.0032	-1.9829	0.8431	-0.0586	-0.6519	-0.5582	3.5365	2.061	1.0969	-1.8932	2.4045	-2.182	1.0461	-0.3903	-10.9647
-0.4762	0.5387	-1.6316	-1.4599	-0.1913	-2.5021	-1.5653	0.2654	-1.0383	-2.1039	0.8861	-0.0546	-0.7065	-0.6206	3.474	1.9673	1.1944	-1.9595	2.4201	-2.3108	1.1203	-0.3162	-11.0662
-0.5855	0.4996	-1.7253	-1.616	-0.2264	-2.5997	-1.7214	0.2576	-1.1008	-2.2288	0.9056	-0.0468	-0.7768	-0.6792	3.4545	1.8229	1.3194	-2.0454	2.4162	-2.4513	1.132	-0.2693	-11.1677
-0.6402	0.4762	-1.8307	-1.737	-0.2459	-2.6465	-1.8229	0.2576	-1.1359	-2.2913	0.9446	-0.0351	-0.7885	-0.7416	3.4155	1.8034	1.4286	-2.1	2.4826	-2.5216	1.2335	-0.2342	-11.2496
-0.7299	0.4333	-1.94	-1.8971	-0.2849	-2.7285	-1.9361	0.242	-1.214	-2.3928	0.9876	-0.039	-0.8666	-0.7924	3.3725	1.7253	1.5458	-2.1898	2.5255	-2.6192	1.2881	-0.2186	-11.3316
-0.7612	0.4021	-2.022	-2.0024	-0.2967	-2.7636	-2.0376	0.3045	-1.2413	-2.4552	1.0812	-0.0156	-0.8744	-0.8275	3.353	1.7292	1.6238	-2.2249	2.5919	-2.6699	1.3779	-0.2342	-11.3941
-0.8158	0.4216	-2.0766	-2.1117	-0.3045	-2.8183	-2.1352	0.3084	-1.2725	-2.5606	1.0812	0.0078	-0.9095	-0.8861	3.2867	1.7409	1.7292	-2.2952	2.627	-2.787	1.4365	-0.2342	-11.4643
-0.8509	0.3669	-2.182	-2.2523	-0.3162	-2.908	-2.2484	0.3162	-1.2842	-2.6426	1.1281	0.0195	-0.9719	-0.9368	3.2437	1.7409	1.8307	-2.3538	2.6504	-2.8573	1.5067	-0.2693	-11.519
-0.8744	0.3552	-2.2718	-2.3616	-0.3162	-2.9471	-2.3538	0.3474	-1.3154	-2.7324	1.1944	0.0664	-1.011	-0.9837	3.1657	1.7878	1.9205	-2.4162	2.6816	-2.9861	1.6199	-0.2654	-11.5892
-0.9446	0.2967	-2.3538	-2.4943	-0.3357	-2.9939	-2.4709	0.3708	-1.3389	-2.7831	1.2803	0.0898	-1.0617	-1.0227	3.0837	1.8697	2.0103	-2.4943	2.748	-3.0759	1.6902	-0.2771	-11.6361
-0.9563	0.2889	-2.4279	-2.5763	-0.3318	-3.0212	-2.5684	0.406	-1.3584	-2.8495	1.3623	0.1015	-1.0969	-1.0695	2.99	1.8853	2.1	-2.545	2.8261	-3.1579	1.7995	-0.281	-11.6946
-0.9759	0.281	-2.4787	-2.6895	-0.324	-3.0447	-2.6621	0.4489	-1.3389	-2.908	1.4247	0.1522	-1.1203	-1.1047	2.9158	2.0024	2.1742	-2.6036	2.8924	-3.2242	1.9205	-0.281	-11.7454
-0.9993	0.2537	-2.5333	-2.7597	-0.2928	-3.072	-2.7519	0.4996	-1.3233	-2.99	1.534	0.2186	-1.1671	-1.1515	2.8105	2.061	2.264	-2.6348	2.9861	-3.3101	2.0727	-0.2889	-11.7844
-1.0305	0.2576	-2.5919	-2.8534	-0.2928	-3.0993	-2.8417	0.5777	-1.3194	-3.0447	1.5926	0.2654	-1.1905	-1.1866	2.7558	2.1391	2.346	-2.6973	3.0525	-3.3765	2.1859	-0.2889	-11.8547
-1.0383	0.2654	-2.627	-2.9276	-0.3123	-3.0993	-2.9237	0.5933	-1.3115	-3.0837	1.7136	0.3084	-1.2179	-1.2179	2.6816	2.1586	2.424	-2.7519	3.1344	-3.435	2.3069	-0.3045	-11.9132
-0.9993	0.2928	-2.6309	-2.9471	-0.2537	-3.1149	-3.0017	0.6402	-1.2998	-3.1461	1.8073	0.3786	-1.2296	-1.2803	2.6934	2.2328	2.5021	-2.7636	3.2125	-3.4975	2.4318	-0.3396	-11.9444
-1.0188	0.2732	-2.6777	-3.033	-0.2615	-3.1188	-3.0915	0.6792	-1.2608	-3.1891	1.8814	0.4216	-1.2569	-1.3076	2.6348	2.2523	2.5645	-2.83	3.2437	-3.5638	2.5489	-0.3903	-12.0147
-1.0032	0.2732	-2.6738	-3.0759	-0.2342	-3.1266	-3.1344	0.7377	-1.2725	-3.2359	1.9673	0.4411	-1.3076	-1.3389	2.6504	2.3147	2.6192	-2.8456	3.2945	-3.6028	2.6309	-0.4606	-12.0498
-0.9641	0.2732	-2.6543	-3.1266	-0.2381	-3.1149	-3.1969	0.7729	-1.2374	-3.2789	2.0103	0.4645	-1.3154	-1.3584	2.7012	2.3811	2.6504	-2.8612	3.3335	-3.6497	2.7012	-0.5348	-12.124
-0.9798	0.2576	-2.7051	-3.1813	-0.2537	-3.1501	-3.2789	0.769	-1.2608	-3.3647	2.0259	0.4996	-1.3623	-1.3545	2.7792	2.3889	2.6934	-2.8924	3.3765	-3.716	2.7597	-0.6128	-12.1396
-0.9368	0.2537	-2.7051	-3.2125	-0.2342	-3.1305	-3.3374	0.7456	-1.2374	-3.3804	2.0649	0.4918	-1.4247	-1.374	2.8144	2.4591	2.7324	-2.9315	3.3765	-3.7707	2.7675	-0.6909	-12.1865
-0.9134	0.2654	-2.709	-3.2437	-0.2615	-3.1852	-3.4038	0.7573	-1.2686	-3.4467	2.0805	0.4645	-1.4833	-1.4169	2.8924	2.4748	2.7675	-2.9861	3.3608	-3.8331	2.7831	-0.7377	-12.2021
-0.8822	0.2225	-2.7519	-3.2906	-0.2693	-3.2164	-3.4818	0.7065	-1.2959	-3.5287	2.0376	0.4177	-1.5965	-1.4013	2.9939	2.5255	2.7714	-3.029	3.3569	-3.8722	2.7636	-0.7807	-12.2294
-0.9017	0.1835	-2.7636	-3.3491	-0.3123	-3.2476	-3.5482	0.6636	-1.3154	-3.6302	2.0259	0.3747	-1.6433	-1.4169	3.0642	2.5528	2.8026	-3.0681	3.3179	-3.9424	2.7324	-0.8197	-12.2645
-0.9329	0.1327	-2.8183	-3.4116	-0.3669	-3.3062	-3.6575	0.605	-1.3779	-3.7473	1.9829	0.281	-1.7487	-1.4208	3.1383	2.5411	2.8066	-3.1227	3.2945	-4.0088	2.6934	-0.7885	-12.2996
-0.9524	0.0859	-2.8456	-3.4701	-0.4021	-3.3882	-3.7434	0.5621	-1.4443	-3.8566	1.9244	0.203	-1.8658	-1.4286	3.2164	2.5606	2.8066	-3.1891	3.2672	-4.1025	2.6543	-0.7651	-12.3231
-0.9993	0.0273	-2.908	-3.5248	-0.5074	-3.4623	-3.8253	0.4996	-1.5223	-3.9424	1.8619	0.121	-1.9712	-1.4326	3.2984	2.5606	2.8339	-3.2711	3.2203	-4.1727	2.5997	-0.7104	-12.3465
-1.0305	-0.0351	-2.9666	-3.5872	-0.5426	-3.5599	-3.9112	0.445	-1.5653	-4.0674	1.7917	0.0156	-2.0883	-1.4482	3.3335	2.5216	2.8534	-3.3101	3.1696	-4.2313	2.545	-0.6167	-12.3777
-1.093	-0.0937	-3.0095	-3.6341	-0.605	-3.5911	-3.9932	0.3942	-1.6277	-4.1571	1.8112	-0.0234	-2.1664	-1.4521	3.3843	2.5099	2.8495	-3.3257	3.1305	-4.282	2.5294	-0.5074	-12.3972
-1.1515	-0.1835	-3.0876	-3.6965	-0.6636	-3.6809	-4.0869	0.324	-1.6746	-4.2547	1.7409	-0.1288	-2.2835	-1.4638	3.4272	2.4474	2.8729	-3.4116	3.0837	-4.3289	2.4904	-0.3786	-12.3972
-1.2023	-0.2225	-3.154	-3.7473	-0.7065	-3.7512	-4.1337	0.2928	-1.7409	-4.3406	1.7292	-0.1796	-2.3733	-1.4755	3.4311	2.4357	2.8963	-3.4701	3.0603	-4.3718	2.4943	-0.2459	-12.4089
-1.2959	-0.3045	-3.2008	-3.7746	-0.7651	-3.8097	-4.1727	0.2459	-1.7682	-4.3952	1.7253	-0.2264	-2.4513	-1.4872	3.4116	2.3655	2.908	-3.4818	3.0564	-4.4421	2.5138	-0.0781	-12.4168
-1.3584	-0.3474	-3.275	-3.8214	-0.7846	-3.8449	-4.2391	0.2264	-1.7995	-4.4538	1.6941	-0.2654	-2.5255	-1.5028	3.4077	2.3303	2.9471	-3.5599	3.029	-4.485	2.4943	0.0703	-12.4246
-1.4443	-0.3942	-3.3335	-3.8683	-0.8275	-3.9385	-4.2625	0.1796	-1.8112	-4.5202	1.7136	-0.281	-2.5958	-1.5145	3.3686	2.2484	2.9666	-3.5794	3.0251	-4.5006	2.5255	0.2225	-12.4441
-1.495	-0.4606	-3.3725	-3.8722	-0.8627	-3.9776	-4.2859	0.1561	-1.8268	-4.5514	1.7253	-0.2928	-2.6309	-1.5106	3.3843	2.1313	2.9822	-3.595	3.0095	-4.528	2.5216	0.363	-12.4207
-1.5301	-0.4957	-3.4233	-3.8956	-0.8822	-3.9854	-4.2859	0.1327	-1.8112	-4.5709	1.7331	-0.2889	-2.666	-1.5223	3.3569	2.0688	2.9744	-3.6028	3.033	-4.567	2.5411	0.4684	-12.4441
-1.5731	-0.4996	-3.4506	-3.8839	-0.9134	-3.9854	-4.3094	0.1171	-1.7917	-4.5826	1.7721	-0.2693	-2.6738	-1.4989	3.3452	1.9868	2.9549	-3.6302	3.029	-4.5787	2.5567	0.5387	-12.4246
-1.5965	-0.5309	-3.4623	-3.8761	-0.9095	-4.0088	-4.2898	0.1327	-1.7643	-4.6138	1.7682	-0.2498	-2.7207	-1.5184	3.3101	1.9478	2.9588	-3.6653	3.0447	-4.5748	2.588	0.5816	-12.4324
-1.5965	-0.5426	-3.4857	-3.8605	-0.8861	-4.001	-4.2742	0.1171	-1.7487	-4.6294	1.7956	-0.1991	-2.7168	-1.5028	3.2984	1.9205	2.9432	-3.6614	3.0251	-4.6099	2.6114	0.6089	-12.4168
-1.577	-0.5387	-3.4701	-3.8449	-0.8822	-3.962	-4.2313	0.1483	-1.6707	-4.5865	1.8697	-0.1522	-2.7051	-1.4872	3.3374	1.94	2.9119	-3.6458	3.0525	-4.5982	2.6738	0.6167	-12.4168
-1.5418	-0.527	-3.4389	-3.8019	-0.8431	-3.9268	-4.2196	0.1522	-1.6394	-4.5709	1.9205	-0.0976	-2.6855	-1.4677	3.3608	1.9634	2.869	-3.6731	3.0759	-4.6255	2.7012	0.5777	-12.3972
-1.5184	-0.5074	-3.4233	-3.7824	-0.8041	-3.8995	-4.1884	0.1913	-1.5614	-4.567	1.9712	-0.0429	-2.6855	-1.4677	3.3491	1.9946	2.869	-3.677	3.0993	-4.6373	2.7285	0.5543	-12.3738
-1.4833	-0.5035	-3.3882	-3.7629	-0.7807	-3.8331	-4.1571	0.2186	-1.495	-4.5123	2.0337	0.0273	-2.6621	-1.4443	3.3491	2.0649	2.8417	-3.7004	3.0915	-4.6451	2.7831	0.5192	-12.3816
-1.4989	-0.4762	-3.3765	-3.716	-0.7299	-3.7785	-4.1259	0.2654	-1.4326	-4.5162	2.1039	0.1249	-2.6426	-1.4443	3.3491	2.1117	2.8261	-3.7004	3.1422	-4.6607	2.8495	0.5074	-12.3738
-1.4247	-0.4177	-3.3413	-3.7004	-0.6363	-3.7278	-4.1181	0.3396	-1.3467	-4.5045	2.1781	0.1991	-2.6036	-1.4521	3.3335	2.1625	2.8066	-3.7395	3.1852	-4.6724	2.9237	0.4996	-12.3816
-1.374	-0.3708	-3.2437	-3.6614	-0.5972	-3.6458	-4.0556	0.3942	-1.2179	-4.4499	2.2796	0.324	-2.5763	-1.4326	3.3374	2.2132	2.8026	-3.72	3.2203	-4.6841	2.99	0.5192	-12.4128
-1.3194	-0.3045	-3.1774	-3.6185	-0.4879	-3.5482	-4.0205	0.4684	-1.0969	-4.407	2.3733	0.3981	-2.5567	-1.4443	3.2945	2.2562	2.8066	-3.7473	3.2828	-4.6958	3.0408	0.5192	-12.4402
-1.2881	-0.2576	-3.1188	-3.6146	-0.4177	-3.4818	-3.9854	0.5582	-1.05	-4.3796	2.4513	0.5387	-2.5099	-1.4521	3.2984	2.2874	2.8222	-3.7707	3.3062	-4.7231	3.1032	0.5348	-12.4636
-1.1866	-0.1522	-2.9822	-3.4779	-0.3006	-3.3413	-3.8917	0.6597	-0.8705	-4.3016	2.5958	0.6753	-2.4084	-1.4404	3.3179	2.3303	2.8026	-3.7395	3.3882	-4.6958	3.2125	0.5465	-12.4987
-1.1164	-0.0429	-2.8846	-3.4389	-0.1757	-3.2203	-3.8175	0.7768	-0.7143	-4.2196	2.6777	0.8353	-2.3733	-1.4365	3.3374	2.385	2.8222	-3.72	3.396	-4.7075	3.2476	0.5348	-12.5182
-0.9993	0.0742	-2.7597	-3.3569	-0.0312	-3.0447	-3.7239	0.8978	-0.566	-4.1415	2.8066	0.9798	-2.2796	-1.4326	3.3491	2.4162	2.7792	-3.7082	3.5014	-4.6841	3.3179	0.5348	-12.5729
-0.9017	0.2186	-2.5997	-3.2554	0.1132	-2.9041	-3.638	1.011	-0.4138	-4.0439	2.9315	1.1125	-2.1937	-1.4326	3.3686	2.506	2.787	-3.6887	3.5716	-4.6841	3.3569	0.4918	-12.6197
-0.7846	0.363	-2.4709	-3.154	0.2459	-2.748	-3.5482	1.1398	-0.2459	-3.9307	3.0173	1.253	-2.0883	-1.4169	3.4233	2.5645	2.787	-3.6614	3.5989	-4.6412	3.4038	0.4645	-12.6549
-0.6441	0.5113	-2.2913	-3.033	0.4099	-2.5763	-3.4155	1.253	-0.0507	-3.8136	3.1149	1.4326	-1.9712	-1.4052	3.4818	2.6816	2.7402	-3.6028	3.6536	-4.5982	3.4077	0.4216	-12.6861
-0.5074	0.6558	-2.1664	-2.9237	0.5348	-2.4318	-3.3413	1.3623	0.0703	-3.759	3.1969	1.5418	-1.8932	-1.4052	3.5131	2.8026	2.7363	-3.6107	3.7121	-4.5631	3.4272	0.3591	-12.7368
-0.3747	0.8041	-1.9751	-2.7987	0.6714	-2.2601	-3.2125	1.4989	0.2459	-3.6341	3.2906	1.6707	-1.8073	-1.3896	3.595	2.9822	2.7168	-3.5365	3.7551	-4.5162	3.435	0.3006	-12.7681
-0.2108	0.9251	-1.8346	-2.7051	0.8236	-2.1078	-3.0915	1.6082	0.3864	-3.5287	3.3491	1.8073	-1.7175	-1.374	3.6575	3.1891	2.6934	-3.517	3.7824	-4.4655	3.4155	0.2225	-12.8032
-0.0859	1.0461	-1.7019	-2.5997	0.9485	-1.9634	-2.9861	1.6746	0.5348	-3.4428	3.4038	1.9088	-1.6199	-1.3623	3.7317	3.4311	2.6777	-3.4545	3.7746	-4.446	3.3921	0.1483	-12.8188
0.0156	1.1749	-1.5731	-2.4982	1.0422	-1.8502	-2.9158	1.7721	0.648	-3.3569	3.4272	1.9907	-1.5497	-1.3779	3.7746	3.6263	2.6777	-3.4389	3.7824	-4.4109	3.3608	0.0937	-12.8617
0.1366	1.2959	-1.413	-2.385	1.171	-1.737	-2.8222	1.8502	0.769	-3.2476	3.474	2.0805	-1.4872	-1.3662	3.8058	3.8253	2.6699	-3.3999	3.8058	-4.3367	3.3023	0.0781	-12.9281
0.2303	1.4091	-1.3311	-2.2991	1.2491	-1.6043	-2.7558	1.9205	0.8588	-3.1891	3.4975	2.1625	-1.4443	-1.3818	3.7941	3.9932	2.6895	-3.3804	3.8136	-4.3445	3.2711	0.0625	-12.9749
0.281	1.4638	-1.2335	-2.221	1.3233	-1.534	-2.6699	1.9673	0.9719	-3.1266	3.5326	2.2249	-1.3623	-1.3935	3.7863	4.0986	2.7051	-3.3647	3.7941	-4.3172	3.2242	0.0781	-13.0101
0.363	1.5497	-1.1203	-2.0883	1.4013	-1.4443	-2.545	2.0181	1.0617	-3.0212	3.5365	2.3069	-1.3037	-1.3974	3.7356	4.2079	2.7207	-3.2984	3.7863	-4.2664	3.1813	0.1132	-13.0803
0.4216	1.6238	-1.0422	-2.0142	1.4521	-1.3623	-2.4631	2.0805	1.1281	-2.9432	3.556	2.3733	-1.2179	-1.3857	3.6848	4.2586	2.7402	-3.2593	3.7707	-4.2118	3.1774	0.1561	-13.1272
0.4255	1.6785	-0.9719	-1.9322	1.5223	-1.253	-2.385	2.1274	1.2296	-2.8495	3.5872	2.4279	-1.1398	-1.4091	3.5989	4.2781	2.748	-3.2125	3.7629	-4.161	3.1305	0.2303	-13.174
0.4567	1.7019	-0.9017	-1.8463	1.5536	-1.1866	-2.2835	2.1859	1.3233	-2.7363	3.6224	2.5294	-1.0188	-1.4208	3.5248	4.2898	2.7714	-3.1305	3.7356	-4.0635	3.1032	0.2967	-13.2248
0.4645	1.7643	-0.8548	-1.737	1.5731	-1.132	-2.1781	2.221	1.3896	-2.6348	3.6419	2.5997	-0.9407	-1.4404	3.435	4.1845	2.8144	-3.0993	3.7317	-4.0205	3.0759	0.3552	-13.2755
0.5074	1.8073	-0.7729	-1.6355	1.6707	-1.0032	-2.061	2.2406	1.5106	-2.4943	3.6614	2.6973	-0.8314	-1.4443	3.3725	4.1064	2.8339	-2.9822	3.7434	-3.9424	3.0915	0.3981	-13.3106
0.5387	1.858	-0.6987	-1.4872	1.7214	-0.9251	-1.9361	2.2991	1.6238	-2.3772	3.716	2.7948	-0.6831	-1.456	3.3218	4.0244	2.8573	-2.9002	3.716	-3.8449	3.0915	0.445	-13.3341
0.5855	1.9088	-0.6519	-1.3974	1.7839	-0.8431	-1.819	2.3577	1.7175	-2.2445	3.7902	2.8846	-0.5465	-1.4599	3.2515	3.8956	2.8846	-2.7792	3.7239	-3.7395	3.1422	0.4684	-13.3341
0.6011	1.9439	-0.5738	-1.2803	1.8307	-0.7416	-1.7019	2.385	1.8346	-2.1078	3.7668	2.9783	-0.4021	-1.4794	3.2398	3.759	2.9041	-2.6699	3.7356	-3.638	3.1383	0.5153	-13.3731
0.6636	1.9634	-0.4996	-1.1632	1.8814	-0.6324	-1.5614	2.4435	1.9751	-1.9595	3.8722	3.1227	-0.2381	-1.4716	3.2086	3.6068	2.9002	-2.5645	3.7434	-3.5287	3.1969	0.5387	-13.3809
0.7026	2.0103	-0.4411	-1.05	1.9049	-0.5426	-1.4404	2.5099	2.0571	-1.8307	3.8839	3.2047	-0.0859	-1.4872	3.1774	3.4389	2.9198	-2.4552	3.7629	-3.4155	3.2633	0.5426	-13.3926
0.726	2.061	-0.3864	-0.9602	1.9439	-0.4645	-1.3272	2.5411	2.1781	-1.7175	3.9346	3.2711	0.0273	-1.5145	3.1071	3.193	2.9627	-2.3342	3.7512	-3.3257	3.2906	0.5738	-13.4238
0.7651	2.0727	-0.3357	-0.8627	1.9946	-0.406	-1.2062	2.5802	2.2601	-1.5887	3.9854	3.353	0.1718	-1.5301	3.0993	3.0095	2.9939	-2.2093	3.759	-3.2125	3.2867	0.5933	-13.4551
0.7768	2.0922	-0.3045	-0.7846	2.0103	-0.3123	-1.0773	2.6348	2.3499	-1.4794	4.0088	3.4428	0.3045	-1.5301	3.0603	2.7363	3.0212	-2.0727	3.7473	-3.0798	3.3374	0.6284	-13.4941
0.7846	2.0922	-0.281	-0.7338	2.0259	-0.2537	-1.0032	2.6465	2.4006	-1.3896	4.0361	3.4623	0.4099	-1.5575	2.9939	2.5099	3.072	-1.9517	3.7668	-2.951	3.3686	0.6441	-13.5253
0.808	2.1352	-0.2537	-0.6675	2.0415	-0.1952	-0.9056	2.6973	2.4631	-1.2881	4.0869	3.517	0.5192	-1.5731	2.9783	2.2757	3.0993	-1.819	3.7551	-2.8534	3.4194	0.6753	-13.5487
0.7924	2.1039	-0.2537	-0.6441	2.0493	-0.1835	-0.8783	2.6934	2.5372	-1.2257	4.0986	3.556	0.5972	-1.6043	2.908	2.0454	3.1579	-1.7214	3.7356	-2.7519	3.4467	0.6987	-13.5878
0.7612	2.0688	-0.2654	-0.6245	2.0532	-0.1249	-0.808	2.7012	2.5645	-1.1359	4.1064	3.638	0.7143	-1.6316	2.8612	1.8268	3.2164	-1.6433	3.7278	-2.6973	3.4779	0.7299	-13.6073
0.7221	2.0571	-0.2771	-0.6206	2.0727	-0.1288	-0.7768	2.7246	2.6309	-1.093	4.1025	3.6536	0.769	-1.6629	2.7636	1.6629	3.2711	-1.5262	3.7278	-2.5841	3.4896	0.8197	-13.6854
0.6987	2.0571	-0.324	-0.605	2.0415	-0.0859	-0.7104	2.7441	2.6621	-1.0227	4.1142	3.6809	0.8392	-1.6863	2.7051	1.4755	3.3218	-1.4247	3.7082	-2.5177	3.4896	0.9056	-13.7049
0.6206	1.9985	-0.3318	-0.605	2.0259	-0.0859	-0.7143	2.7363	2.6543	-0.9837	4.0908	3.6809	0.9017	-1.7136	2.5841	1.3194	3.3921	-1.3623	3.6731	-2.4591	3.4975	0.9993	-13.7205
0.5504	1.9634	-0.3708	-0.6167	2.0376	-0.0742	-0.6714	2.7324	2.6699	-0.9446	4.0869	3.6965	0.9524	-1.7331	2.4748	1.1866	3.4233	-1.2803	3.6692	-2.4201	3.4936	1.1008	-13.7634
0.484	1.9439	-0.4216	-0.6402	2.0103	-0.082	-0.687	2.6934	2.6973	-0.9524	4.0439	3.7004	0.9876	-1.7604	2.3733	1.0812	3.4936	-1.2413	3.6146	-2.346	3.4936	1.2062	-13.8064
0.4255	1.8932	-0.4567	-0.6636	1.9907	-0.1093	-0.6831	2.7012	2.6621	-0.89	4.0127	3.6809	1.0305	-1.7878	2.2757	1.0344	3.5209	-1.1671	3.5872	-2.3108	3.4428	1.2725	-13.8337
0.3084	1.8346	-0.4957	-0.6909	1.9088	-0.082	-0.6597	2.6387	2.6738	-0.8939	3.9776	3.6731	1.05	-1.7917	2.1742	1.0188	3.5443	-1.0969	3.5482	-2.2679	3.4116	1.3272	-13.8493
0.2889	1.7956	-0.4996	-0.6948	1.8971	-0.1015	-0.6441	2.6348	2.6738	-0.8861	3.9542	3.6731	1.0891	-1.78	2.0922	1.0617	3.5326	-1.0032	3.5287	-2.2054	3.3843	1.3662	-13.8922
0.2069	1.7487	-0.5309	-0.7143	1.8775	-0.1132	-0.6675	2.5958	2.6699	-0.8744	3.9034	3.6263	1.1008	-1.7956	1.979	1.0891	3.5365	-0.9641	3.4779	-2.1859	3.3569	1.4326	-13.9391
0.1444	1.6511	-0.5504	-0.7299	1.8424	-0.1405	-0.648	2.5294	2.6348	-0.89	3.8331	3.5794	1.0891	-1.7917	1.8932	1.171	3.5326	-0.9173	3.3882	-2.1313	3.3062	1.4599	-13.9274
0.0898	1.5887	-0.5738	-0.7416	1.7565	-0.1796	-0.6636	2.4826	2.5645	-0.9134	3.7824	3.5287	1.0969	-1.7761	1.7956	1.2413	3.4975	-0.8939	3.3647	-2.1235	3.2711	1.534	-13.943
0.0351	1.5379	-0.6245	-0.7299	1.7487	-0.1757	-0.6402	2.467	2.5528	-0.9056	3.7317	3.4896	1.0851	-1.7565	1.7019	1.2959	3.4623	-0.7963	3.3296	-2.0844	3.2476	1.5926	-13.9664
-0.0586	1.456	-0.6402	-0.7651	1.6785	-0.2108	-0.6753	2.4162	2.4904	-0.9368	3.6926	3.4545	1.0617	-1.7409	1.5614	1.2998	3.4155	-0.8119	3.2867	-2.1039	3.2125	1.6863	-13.9859
-0.0898	1.3857	-0.648	-0.7924	1.6589	-0.2615	-0.6597	2.3538	2.4318	-0.9563	3.6263	3.3921	1.0383	-1.7097	1.4794	1.3662	3.3647	-0.7573	3.2359	-2.1	3.1657	1.7565	-13.9664
-0.1288	1.3389	-0.6519	-0.7768	1.616	-0.2498	-0.6597	2.3108	2.3889	-0.9524	3.5716	3.3374	1.0071	-1.6629	1.3779	1.4091	3.2906	-0.726	3.193	-2.0727	3.1696	1.8307	-13.9703
-0.1835	1.2569	-0.648	-0.7729	1.5536	-0.281	-0.6675	2.2718	2.3772	-0.9837	3.5599	3.2867	0.9915	-1.6199	1.3311	1.4443	3.2008	-0.6831	3.1344	-2.061	3.1696	1.8775	-13.9508
-0.1991	1.214	-0.6245	-0.7026	1.5301	-0.2615	-0.6167	2.2718	2.3616	-0.9563	3.5248	3.2945	0.9954	-1.5536	1.2686	1.5028	3.072	-0.6167	3.1149	-2.0142	3.1305	1.8932	-13.9079
-0.2225	1.1476	-0.6284	-0.6714	1.4872	-0.2732	-0.6363	2.2288	2.2874	-0.9641	3.4857	3.2281	0.9837	-1.5106	1.2491	1.6043	2.9783	-0.5894	3.0681	-1.9868	3.1188	1.8502	-13.8415
-0.1678	1.1398	-0.5699	-0.5894	1.495	-0.2459	-0.5582	2.221	2.2757	-0.929	3.474	3.2242	1.0071	-1.4443	1.2608	1.7643	2.8339	-0.5074	3.033	-1.9478	3.1032	1.7682	-13.7908
-0.1522	1.1164	-0.5035	-0.5387	1.4755	-0.2186	-0.5074	2.1976	2.2796	-0.9212	3.4584	3.2164	1.0344	-1.3818	1.2998	1.9322	2.709	-0.4372	3.0134	-1.8775	3.0798	1.6511	-13.6971
-0.1093	1.1008	-0.4528	-0.4255	1.4443	-0.1835	-0.4411	2.1859	2.2913	-0.8666	3.435	3.2281	1.0539	-1.3194	1.3662	2.1196	2.5919	-0.3552	2.9822	-1.8424	3.0642	1.5262	-13.6541
-0.0976	1.0773	-0.3942	-0.3864	1.4521	-0.1366	-0.406	2.1664	2.2952	-0.8392	3.3882	3.2047	1.0578	-1.2686	1.4247	2.2991	2.4826	-0.3123	2.9354	-1.8112	3.0056	1.3584	-13.5487
-0.0195	1.0891	-0.2967	-0.281	1.4833	-0.0976	-0.2967	2.1469	2.2952	-0.7729	3.3647	3.1969	1.0969	-1.1983	1.495	2.4982	2.3616	-0.2147	2.9237	-1.7292	3.0017	1.1905	-13.459
0.039	1.0969	-0.2108	-0.1718	1.4833	-0.0429	-0.2732	2.1117	2.3147	-0.7456	3.3452	3.2086	1.1164	-1.1398	1.6082	2.7207	2.2367	-0.1991	2.9119	-1.7019	2.9627	0.9954	-13.3262
0.1483	1.1242	-0.1327	-0.039	1.4872	0.0586	-0.1561	2.1313	2.3616	-0.6714	3.3413	3.2359	1.1593	-1.0773	1.6785	2.9393	2.1156	-0.0976	2.869	-1.6394	2.9276	0.8431	-13.2365
0.2225	1.1437	-0.0234	0.082	1.5028	0.1249	-0.0898	2.1235	2.4045	-0.6245	3.2789	3.2437	1.1671	-1.011	1.7565	3.1774	1.9829	-0.0429	2.8651	-1.5887	2.8612	0.6675	-13.1545
0.2849	1.1671	0.0586	0.1835	1.5223	0.203	-0.0078	2.1196	2.4162	-0.5894	3.232	3.232	1.1827	-0.9641	1.78	3.3569	1.8853	-0.0312	2.8183	-1.5653	2.83	0.4918	-13.0218
0.406	1.1866	0.1796	0.2928	1.5458	0.2889	0.0742	2.1156	2.424	-0.527	3.1969	3.2398	1.2101	-0.9134	1.8346	3.5365	1.78	0.0312	2.7831	-1.5184	2.7792	0.3591	-12.9281
0.4762	1.253	0.2732	0.3903	1.5848	0.3552	0.1327	2.1039	2.467	-0.5153	3.1696	3.2554	1.2023	-0.8548	1.8814	3.716	1.6629	0.0273	2.748	-1.4833	2.7402	0.203	-12.8188
0.566	1.253	0.3786	0.5035	1.6121	0.4606	0.2186	2.0922	2.5255	-0.4879	3.1461	3.2359	1.1905	-0.8158	1.9088	3.8175	1.6004	0.0468	2.7246	-1.4833	2.6777	0.0742	-12.7485
0.6324	1.2686	0.4411	0.6011	1.6316	0.5074	0.2732	2.0805	2.5645	-0.4567	3.0798	3.2359	1.171	-0.7807	1.9166	3.9151	1.534	0.0625	2.7051	-1.4755	2.6309	-0.0039	-12.6744
0.7221	1.3233	0.5543	0.6636	1.6629	0.6089	0.3279	2.0688	2.5919	-0.4411	3.0525	3.2398	1.1554	-0.7495	1.9517	3.9542	1.4716	0.0742	2.6855	-1.4521	2.588	-0.0625	-12.5924
0.7768	1.3701	0.6206	0.7456	1.7097	0.6909	0.3552	2.0727	2.5997	-0.4177	3.0525	3.2437	1.1476	-0.7299	1.9205	3.9112	1.413	0.0429	2.6621	-1.4521	2.5372	-0.0664	-12.5612
0.8548	1.4091	0.7065	0.8392	1.78	0.7534	0.4216	2.1039	2.6777	-0.4021	3.0369	3.2437	1.1476	-0.7065	1.9556	3.8839	1.3584	0.0429	2.6777	-1.3935	2.5372	-0.0351	-12.526
0.8978	1.4638	0.7807	0.9017	1.8424	0.847	0.4723	2.1313	2.7402	-0.3708	3.0603	3.3062	1.1437	-0.6714	1.9439	3.7395	1.3115	0.082	2.6777	-1.3896	2.5489	0.0234	-12.5065
0.9368	1.5028	0.8548	0.9524	1.901	0.9368	0.5153	2.1586	2.8339	-0.3045	3.0759	3.353	1.171	-0.6636	1.9517	3.6068	1.2764	0.0937	2.6621	-1.3701	2.5372	0.1015	-12.4909
0.9837	1.5458	0.9251	1.0071	1.9283	1.0539	0.5582	2.1937	2.8807	-0.2967	3.1071	3.4077	1.171	-0.6519	1.9322	3.3921	1.253	0.1171	2.709	-1.3428	2.5802	0.2459	-12.4792
1.0227	1.6043	1.011	1.0344	1.9985	1.1476	0.5855	2.221	2.9666	-0.2693	3.154	3.4428	1.1944	-0.6519	1.9088	3.2086	1.2608	0.1405	2.7324	-1.2998	2.627	0.3552	-12.4987
1.0773	1.6746	1.0851	1.0812	2.1196	1.2491	0.648	2.2874	3.0837	-0.2225	3.2203	3.5131	1.2374	-0.6402	1.9049	3.0369	1.2413	0.2108	2.787	-1.2491	2.6777	0.4918	-12.4909
1.1047	1.7526	1.1515	1.0812	2.2015	1.3467	0.6714	2.342	3.1461	-0.2186	3.2593	3.5716	1.2257	-0.6441	1.8697	2.8105	1.253	0.1991	2.8378	-1.2218	2.7558	0.6363	-12.53
1.1086	1.8034	1.2101	1.1164	2.2718	1.4208	0.687	2.3889	3.2125	-0.16	3.3413	3.638	1.2959	-0.6402	1.8697	2.6504	1.2452	0.2459	2.8963	-1.1632	2.8651	0.7573	-12.5456
1.1671	1.8541	1.2725	1.1086	2.3303	1.5106	0.7221	2.4748	3.314	-0.16	3.435	3.72	1.3154	-0.6519	1.8736	2.4865	1.2686	0.281	2.9354	-1.1281	2.9354	0.8822	-12.5729
1.2218	1.9517	1.3545	1.1008	2.4474	1.6238	0.7338	2.545	3.3921	-0.1249	3.5092	3.759	1.3194	-0.6636	1.8619	2.3694	1.2725	0.3201	3.033	-1.0695	3.0212	0.9915	-12.6041
1.2374	2.0024	1.4169	1.1125	2.4826	1.6824	0.7377	2.6231	3.4896	-0.1015	3.6263	3.7941	1.3584	-0.6597	1.8775	2.2367	1.2803	0.3513	3.1032	-1.0539	3.1579	1.1047	-12.6549
1.2803	2.0688	1.4794	1.0656	2.5606	1.7682	0.7299	2.666	3.5443	-0.082	3.72	3.8956	1.3974	-0.6675	1.8502	2.1352	1.3037	0.4138	3.193	-1.0149	3.2515	1.2062	-12.7095
1.292	2.1078	1.5145	1.0617	2.6231	1.8385	0.7495	2.7363	3.6068	-0.0625	3.7668	3.9034	1.413	-0.6753	1.8424	2.1039	1.335	0.4684	3.2711	-0.9602	3.3686	1.2959	-12.7485
1.2959	2.1391	1.5731	1.011	2.6504	1.8893	0.7299	2.7714	3.6731	-0.0429	3.8956	3.9581	1.4599	-0.7065	1.8151	2.0376	1.3506	0.4957	3.353	-0.9251	3.4584	1.3818	-12.8032
1.3076	2.1625	1.616	0.9915	2.6816	1.9634	0.6948	2.7987	3.7317	-0.0586	3.9307	4.0088	1.4599	-0.7182	1.78	2.0337	1.3935	0.5231	3.396	-0.89	3.5482	1.4404	-12.8344
1.3311	2.1625	1.6316	0.9212	2.7246	2.0181	0.7026	2.8612	3.7668	-0.0312	4.0049	4.0556	1.4677	-0.7416	1.7643	2.0493	1.4247	0.5777	3.4857	-0.8627	3.6185	1.4989	-12.8891
1.3272	2.1937	1.6746	0.89	2.7129	2.0142	0.6558	2.8729	3.8136	-0.0429	4.0635	4.0674	1.4833	-0.7534	1.7331	2.0844	1.4833	0.6245	3.5599	-0.8353	3.7512	1.5418	-12.9125
1.3233	2.1976	1.6941	0.8392	2.7558	2.0844	0.6284	2.869	3.8097	-0.0312	4.0791	4.1025	1.4833	-0.7846	1.7058	2.1703	1.5418	0.5972	3.6028	-0.8041	3.7863	1.5418	-12.9827
1.3311	2.2328	1.7214	0.8041	2.7519	2.0883	0.5894	2.8885	3.8449	-0.0625	4.1259	4.0908	1.4521	-0.8275	1.6238	2.2093	1.6121	0.6402	3.6536	-0.7846	3.8527	1.5379	-12.9984
1.3154	2.2288	1.7409	0.769	2.7675	2.1078	0.5582	2.869	3.88	-0.1054	4.1454	4.0986	1.4716	-0.8627	1.5731	2.2796	1.6746	0.6558	3.716	-0.7846	3.919	1.5184	-13.014
1.3428	2.2874	1.7956	0.726	2.7753	2.1391	0.5192	2.8807	3.8605	-0.1093	4.1923	4.0908	1.4482	-0.89	1.5184	2.3577	1.7526	0.6792	3.716	-0.769	3.919	1.4677	-13.0335
1.3233	2.2991	1.7956	0.7104	2.7675	2.1274	0.4762	2.8495	3.9112	-0.1327	4.1493	4.0713	1.4326	-0.9368	1.495	2.4045	1.8346	0.6948	3.7356	-0.7573	3.9463	1.4208	-13.092
1.3428	2.2991	1.8073	0.6402	2.7207	2.1235	0.406	2.787	3.8449	-0.1913	4.0595	4.0322	1.374	-0.9837	1.4091	2.4396	1.9205	0.6948	3.7278	-0.7651	3.9385	1.3584	-13.0998
1.3194	2.303	1.8385	0.6363	2.7285	2.1039	0.3903	2.7519	3.8097	-0.2303	4.0556	3.9698	1.3545	-1.0305	1.3545	2.467	2.0064	0.6831	3.7317	-0.7495	3.9151	1.3076	-13.1311
1.3467	2.3147	1.8229	0.5855	2.6934	2.0766	0.3357	2.7051	3.7824	-0.2693	3.9854	3.9268	1.2803	-1.0773	1.3311	2.4474	2.0805	0.6636	3.6926	-0.7963	3.9034	1.253	-13.1623
1.3076	2.3069	1.8502	0.5309	2.627	2.0298	0.2615	2.6504	3.7121	-0.3474	3.9385	3.8488	1.2296	-1.1086	1.2335	2.4045	2.1547	0.6402	3.6926	-0.8041	3.8878	1.214	-13.1662
1.2842	2.2835	1.819	0.4684	2.5958	2.0024	0.2147	2.5684	3.6575	-0.445	3.8722	3.7629	1.1398	-1.1359	1.1671	2.3225	2.2288	0.6128	3.638	-0.8353	3.8253	1.1866	-13.2326
1.2803	2.264	1.8424	0.4411	2.5333	1.9673	0.1874	2.4943	3.5989	-0.4879	3.8058	3.6965	1.0539	-1.1593	1.1203	2.2718	2.2874	0.5972	3.6419	-0.8666	3.8214	1.1671	-13.256
1.2842	2.2328	1.858	0.406	2.5021	1.9088	0.1093	2.4474	3.5209	-0.5699	3.7121	3.6185	0.9915	-1.1983	1.0422	2.1976	2.3616	0.5621	3.5989	-0.8861	3.7785	1.1593	-13.2599
1.2647	2.1937	1.8541	0.3825	2.4435	1.8971	0.0546	2.4162	3.4584	-0.6089	3.7121	3.5794	0.9095	-1.2218	0.9798	2.1469	2.4123	0.5465	3.595	-0.9056	3.798	1.1359	-13.2989
1.2569	2.143	1.8112	0.3513	2.3694	1.8385	0.0117	2.346	3.3725	-0.6948	3.6497	3.4818	0.8353	-1.2764	0.8744	2.0844	2.5021	0.4762	3.5638	-0.9524	3.7863	1.1476	-13.3145
1.2062	2.0844	1.8151	0.3318	2.346	1.8268	-0.0156	2.3069	3.314	-0.726	3.638	3.4428	0.769	-1.3037	0.8275	2.0376	2.5528	0.4879	3.5599	-0.968	3.7746	1.1281	-13.3536
1.2062	2.0649	1.7956	0.3084	2.303	1.8073	-0.0742	2.2367	3.275	-0.7573	3.6028	3.4116	0.7416	-1.3233	0.7573	2.0142	2.6036	0.4801	3.5599	-0.9798	3.8058	1.1125	-13.3497
1.2101	2.0337	1.819	0.3318	2.2484	1.7917	-0.0859	2.1937	3.2476	-0.7456	3.638	3.4077	0.7143	-1.3428	0.7338	2.0337	2.6426	0.4879	3.5638	-0.968	3.8644	1.1086	-13.3575
1.1905	1.9712	1.8229	0.3396	2.2328	1.7409	-0.0703	2.2015	3.2203	-0.7612	3.6185	3.396	0.6909	-1.3701	0.6558	2.0024	2.6973	0.4879	3.5482	-0.9368	3.8761	1.1086	-13.3848
1.1749	1.9166	1.8151	0.3045	2.1742	1.7058	-0.0937	2.1469	3.1735	-0.7573	3.6341	3.3921	0.7065	-1.3896	0.5855	2.0181	2.7324	0.527	3.5755	-0.9134	3.919	1.1281	-13.3262
1.1086	1.8424	1.7721	0.3279	2.1196	1.6941	-0.1093	2.1117	3.1344	-0.7456	3.6263	3.4038	0.6909	-1.4013	0.5309	2.0103	2.7597	0.5465	3.5677	-0.9251	3.9229	1.1866	-13.3419
1.0891	1.7917	1.819	0.3513	2.0844	1.6785	-0.0937	2.1117	3.1461	-0.7299	3.6419	3.4155	0.7377	-1.4013	0.4723	2.0376	2.7597	0.605	3.556	-0.8978	3.9815	1.2452	-13.3184
1.0773	1.737	1.7526	0.3084	2.0454	1.6472	-0.0898	2.0727	3.1266	-0.7065	3.6809	3.4506	0.7534	-1.4247	0.445	2.0766	2.7831	0.6324	3.5482	-0.8744	3.9932	1.2803	-13.3223
1.0188	1.6746	1.7565	0.3474	1.9946	1.6746	-0.0586	2.0649	3.1032	-0.6597	3.6926	3.474	0.8236	-1.413	0.406	2.1196	2.7753	0.6792	3.5326	-0.8431	3.9815	1.3272	-13.2794
1.0305	1.6355	1.7917	0.3708	1.9907	1.6629	0.0078	2.0454	3.1071	-0.6167	3.716	3.5248	0.89	-1.4052	0.3786	2.2015	2.7597	0.7377	3.5092	-0.7846	4.0088	1.3584	-13.2365
1.0266	1.5848	1.7878	0.3864	1.9634	1.6707	0.0273	2.0454	3.1227	-0.566	3.7043	3.5443	0.9368	-1.4013	0.3786	2.2367	2.7441	0.7924	3.5092	-0.7573	4.0166	1.374	-13.217
1.0617	1.5497	1.7995	0.4528	1.9283	1.6785	0.0703	2.0181	3.154	-0.484	3.716	3.5521	0.9876	-1.3857	0.3552	2.3186	2.7246	0.8509	3.5014	-0.6753	4.0283	1.3857	-13.2013
1.0461	1.4833	1.7956	0.4528	1.9127	1.7058	0.1249	2.022	3.1696	-0.4489	3.7395	3.6146	1.0656	-1.3818	0.3357	2.346	2.7168	0.8861	3.4779	-0.6831	4.0205	1.3974	-13.1623
1.0578	1.4833	1.8463	0.5192	1.9205	1.7448	0.2069	2.0259	3.232	-0.3747	3.7707	3.6614	1.1866	-1.3662	0.3357	2.3616	2.6855	0.9954	3.4818	-0.6128	4.0166	1.413	-13.1818
1.0969	1.4521	1.8658	0.527	1.9283	1.7839	0.2654	2.0181	3.2711	-0.2928	3.8019	3.7043	1.2179	-1.3623	0.2732	2.3694	2.6738	1.0149	3.5092	-0.5816	4.0049	1.4286	-13.1623
1.1437	1.4833	1.9049	0.5972	1.9595	1.8658	0.324	2.0844	3.314	-0.1913	3.8605	3.7824	1.335	-1.335	0.2264	2.3577	2.6426	1.132	3.5092	-0.4957	4.0127	1.4443	-13.1896
1.1905	1.4989	1.94	0.6714	1.9829	1.9439	0.4294	2.1039	3.4233	-0.1054	3.8839	3.8605	1.4638	-1.3311	0.1874	2.342	2.627	1.214	3.5209	-0.445	4.04	1.4716	-13.1779
1.2569	1.5028	2.0064	0.7573	2.0142	2.0415	0.5309	2.1196	3.517	0.0234	3.9424	3.9659	1.6082	-1.3154	0.1522	2.3186	2.5958	1.3194	3.5209	-0.3669	4.0361	1.5028	-13.1974
1.3233	1.5379	2.0805	0.8588	2.0766	2.1313	0.6558	2.2015	3.6497	0.1796	4.0166	4.0713	1.737	-1.292	0.0976	2.3069	2.5606	1.4638	3.5482	-0.242	4.0595	1.5379	-13.256
1.4052	1.5809	2.182	0.9563	2.1117	2.264	0.7573	2.2445	3.7746	0.3357	4.1103	4.204	1.9166	-1.2881	0.0586	2.2913	2.5294	1.577	3.5677	-0.1561	4.0791	1.5575	-13.2794
1.5028	1.6629	2.2757	1.0539	2.2132	2.4162	0.9095	2.3186	3.9307	0.4879	4.1884	4.3562	2.1313	-1.2608	0.039	2.3147	2.4826	1.7097	3.5989	-0.039	4.0986	1.5614	-13.3067
1.5692	1.7019	2.3811	1.1827	2.303	2.5723	1.0734	2.4123	4.0947	0.6831	4.2742	4.5045	2.303	-1.2491	0.0195	2.3381	2.4474	1.8502	3.6185	0.0742	4.1142	1.5692	-13.295
1.6902	1.7917	2.4826	1.292	2.4006	2.7246	1.1983	2.4826	4.2469	0.8314	4.403	4.6568	2.5099	-1.2257	0.0195	2.3499	2.4201	2.022	3.6419	0.1835	4.1142	1.5536	-13.3223
1.7526	1.8814	2.6075	1.4521	2.5099	2.8885	1.3818	2.5723	4.4538	1.0578	4.5006	4.8363	2.7051	-1.2062	0.0586	2.3928	2.3811	2.1625	3.6887	0.3123	4.1142	1.5223	-13.3458
1.8893	1.94	2.7129	1.6004	2.6309	3.0564	1.5184	2.6777	4.6255	1.2257	4.5787	5.0159	2.908	-1.2023	0.0625	2.4279	2.3655	2.3264	3.7121	0.4333	4.1181	1.4872	-13.3575
1.9751	2.0064	2.8417	1.7136	2.7012	3.2242	1.6785	2.7714	4.8051	1.4286	4.688	5.1915	3.1071	-1.1788	0.0664	2.4982	2.3303	2.4826	3.7278	0.5231	4.1142	1.4521	-13.3419
2.0688	2.1078	2.9549	1.8463	2.7987	3.3686	1.8346	2.8417	4.9651	1.5887	4.7778	5.3516	3.3179	-1.1632	0.0976	2.5411	2.303	2.5919	3.7668	0.6206	4.0947	1.4091	-13.3184
2.1781	2.1898	3.029	1.9829	2.8963	3.5248	1.9595	2.9588	5.1369	1.7643	4.8871	5.5311	3.5092	-1.1437	0.1483	2.5723	2.2679	2.7168	3.8097	0.7612	4.122	1.4052	-13.3575
2.221	2.2601	3.1071	2.0532	3.0134	3.6146	2.0766	3.0212	5.2657	1.8893	4.9417	5.6248	3.6263	-1.1476	0.1952	2.6465	2.2601	2.83	3.8566	0.8002	4.1454	1.3779	-13.3536
2.2835	2.303	3.1891	2.1625	3.0759	3.759	2.1469	3.1461	5.3945	2.0142	5.0471	5.7536	3.7512	-1.1476	0.2381	2.6973	2.2484	2.8924	3.8917	0.8783	4.1571	1.3857	-13.3497
2.3108	2.3655	3.2281	2.2249	3.154	3.8253	2.2288	3.1891	5.5155	2.1117	5.0979	5.8629	3.8878	-1.1398	0.3045	2.7597	2.2484	2.9432	3.9268	0.9485	4.1727	1.3935	-13.3848
2.3655	2.3967	3.275	2.264	3.2164	3.9112	2.2796	3.2867	5.6209	2.221	5.1993	5.9449	3.9776	-1.1476	0.3474	2.7753	2.2601	3.033	3.9815	0.9602	4.2274	1.4052	-13.4004
2.3186	2.4435	3.2633	2.2874	3.2711	3.9385	2.3069	3.3179	5.6678	2.264	5.2423	5.9956	4.0166	-1.1749	0.3669	2.787	2.3147	3.0212	4.0439	0.9602	4.2625	1.4638	-13.4355
2.3186	2.4318	3.232	2.2796	3.3218	3.9815	2.3147	3.3999	5.7224	2.3147	5.3164	6.0737	4.0752	-1.1983	0.3591	2.748	2.3577	3.0212	4.1103	0.9719	4.3406	1.5262	-13.4785
2.303	2.4513	3.2281	2.2835	3.3804	3.9815	2.3069	3.4584	5.777	2.3538	5.4023	6.1323	4.1376	-1.2257	0.3981	2.7285	2.3889	3.0369	4.1884	0.9485	4.4304	1.6004	-13.5292
2.2718	2.506	3.2242	2.2874	3.4389	4.0166	2.3264	3.556	5.8278	2.3889	5.4921	6.1986	4.2001	-1.253	0.3825	2.6465	2.4513	3.0408	4.2625	0.9407	4.5397	1.6941	-13.5683
2.2562	2.4943	3.1813	2.2562	3.4779	4.0361	2.3147	3.6107	5.8434	2.4357	5.578	6.2767	4.2274	-1.2647	0.3708	2.5606	2.4865	3.029	4.325	0.89	4.6333	1.7995	-13.619
2.2171	2.5216	3.1774	2.2601	3.5365	4.0556	2.303	3.7043	5.902	2.4552	5.6795	6.3196	4.3094	-1.3076	0.3318	2.4279	2.5411	3.0525	4.4109	0.8939	4.7387	1.9439	-13.6932
2.1625	2.545	3.1852	2.2249	3.595	4.0869	2.303	3.7863	5.9488	2.506	5.7927	6.4133	4.364	-1.3037	0.2849	2.264	2.5841	3.0486	4.4967	0.9017	4.8207	2.1196	-13.7829
2.1391	2.588	3.1969	2.1859	3.6887	4.1376	2.3147	3.8683	5.9995	2.545	5.8981	6.5226	4.4421	-1.335	0.2069	2.1	2.6348	3.0525	4.5865	0.8666	4.9573	2.2679	-13.822
2.1	2.5997	3.193	2.1547	3.7239	4.0947	2.2874	3.962	6.0308	2.5528	5.98	6.5772	4.5202	-1.3623	0.1366	1.8893	2.6895	3.0759	4.6919	0.8431	5.0393	2.4591	-13.9
2.0688	2.6504	3.2203	2.1352	3.8175	4.1532	2.2718	4.0478	6.1049	2.5919	6.1049	6.6514	4.5943	-1.3935	0.1093	1.7019	2.7363	3.0876	4.7817	0.8275	5.1291	2.6387	-13.9898
2.0766	2.6855	3.2554	2.1039	3.9073	4.2196	2.3069	4.1532	6.1557	2.6504	6.222	6.7451	4.6607	-1.4013	0.0195	1.4872	2.7519	3.0954	4.8793	0.8588	5.2501	2.83	-14.0718
2.0259	2.6934	3.2554	2.061	3.9463	4.2196	2.2796	4.204	6.1791	2.6699	6.3118	6.8075	4.7114	-1.4286	-0.0937	1.2569	2.7987	3.0759	4.9261	0.7924	5.3477	3.0056	-14.1616
2.0259	2.7363	3.2789	2.0298	4.0205	4.2859	2.2913	4.2703	6.2533	2.7051	6.4172	6.8856	4.7661	-1.4365	-0.1561	1.0617	2.8261	3.0798	4.9964	0.7768	5.4296	3.1696	-14.2201
2.0181	2.7636	3.314	1.9751	4.0635	4.3289	2.2796	4.3952	6.2962	2.7051	6.5421	6.9325	4.8051	-1.456	-0.2381	0.8509	2.8612	3.0642	5.0861	0.7534	5.5233	3.3218	-14.3021
1.9985	2.7948	3.3452	1.9322	4.1884	4.3679	2.264	4.4811	6.3118	2.7129	6.6553	6.9949	4.8246	-1.4638	-0.3201	0.7065	2.8807	3.0798	5.133	0.7338	5.5975	3.4662	-14.3802
1.9673	2.7948	3.3413	1.8502	4.2313	4.3835	2.221	4.5436	6.3509	2.6934	6.7529	7.0183	4.809	-1.4911	-0.3864	0.5153	2.9237	3.0369	5.2111	0.726	5.6834	3.5599	-14.4543
1.9088	2.7948	3.353	1.7604	4.2664	4.3835	2.2093	4.6099	6.3626	2.6621	6.8115	7.0144	4.7661	-1.5145	-0.4411	0.3942	2.9744	2.99	5.2852	0.6597	5.7419	3.6614	-14.5324
1.8853	2.8183	3.353	1.698	4.3367	4.4109	2.1898	4.6724	6.3743	2.6348	6.9247	7.0613	4.7153	-1.5262	-0.5348	0.2654	3.0173	2.9588	5.3047	0.6363	5.8005	3.7082	-14.591
1.8463	2.8261	3.3569	1.6433	4.407	4.4343	2.1703	4.7583	6.4094	2.6387	7.0457	7.0574	4.6841	-1.5497	-0.5816	0.1991	3.0447	2.9119	5.3789	0.5816	5.9059	3.677	-14.6495
1.8229	2.869	3.3452	1.5653	4.4382	4.446	2.1235	4.7856	6.4016	2.5958	7.1003	7.0574	4.6255	-1.5848	-0.6363	0.1405	3.0954	2.8612	5.3906	0.5465	5.9527	3.6458	-14.7042
1.7565	2.8495	3.3374	1.5106	4.4733	4.4421	2.1235	4.8441	6.4328	2.5997	7.1589	7.073	4.5748	-1.5965	-0.7221	0.1132	3.1305	2.8339	5.4414	0.5426	6.0347	3.5521	-14.7744
1.7487	2.8807	3.3608	1.4755	4.5202	4.5123	2.1352	4.891	6.4719	2.5723	7.2721	7.112	4.5397	-1.6121	-0.7768	0.1327	3.1579	2.8261	5.4999	0.527	6.1049	3.3921	-14.8252
1.7097	2.9237	3.3452	1.413	4.5982	4.5358	2.1391	4.969	6.4992	2.5763	7.3735	7.1862	4.485	-1.6238	-0.8314	0.1366	3.193	2.7987	5.5194	0.5035	6.1713	3.2125	-14.8642
1.6824	2.9315	3.3491	1.3896	4.6568	4.5982	2.143	5.0237	6.5772	2.5919	7.4633	7.2018	4.4733	-1.6277	-0.8548	0.2381	3.2047	2.8066	5.5663	0.5309	6.2298	3.0095	-14.8798
1.6355	2.9666	3.3686	1.3584	4.6958	4.6255	2.1508	5.09	6.5929	2.5997	7.5843	7.2447	4.4382	-1.6472	-0.9017	0.3123	3.2281	2.8066	5.6209	0.5504	6.3196	2.8105	-14.9032
1.6355	2.9822	3.3647	1.335	4.7583	4.6841	2.1976	5.1369	6.6514	2.6387	7.6546	7.276	4.4304	-1.6394	-0.9837	0.4255	3.2281	2.8105	5.6717	0.605	6.4133	2.5919	-14.9345
1.5692	2.9822	3.3374	1.3037	4.8012	4.727	2.2132	5.1837	6.7022	2.6543	7.7327	7.354	4.3991	-1.6394	-0.9719	0.566	3.2203	2.8261	5.7029	0.6245	6.4719	2.3577	-14.911
1.534	2.99	3.3608	1.292	4.8402	4.7895	2.2445	5.2501	6.7802	2.6621	7.8185	7.3931	4.3718	-1.6394	-0.968	0.6909	3.2125	2.8339	5.7302	0.6324	6.5499	2.143	-14.9032
1.4911	2.9939	3.3296	1.2881	4.8832	4.8363	2.2523	5.2774	6.8232	2.6699	7.881	7.4243	4.3406	-1.6121	-0.9954	0.8002	3.1969	2.8417	5.738	0.648	6.6163	1.9517	-14.8876
1.4365	2.9861	3.2945	1.2413	4.8949	4.8402	2.2796	5.3164	6.8388	2.6738	7.9239	7.4477	4.282	-1.6394	-1.0266	0.9173	3.2047	2.8144	5.7614	0.6558	6.6709	1.7682	-14.9149
1.3662	2.9705	3.275	1.2413	4.9105	4.9261	2.2757	5.3555	6.9012	2.6855	7.9473	7.4828	4.2352	-1.6121	-1.0305	1.0227	3.1579	2.7987	5.8161	0.6675	6.749	1.6238	-14.911
1.3233	2.9588	3.2164	1.1632	4.9105	4.8949	2.264	5.3672	6.8973	2.6309	7.9903	7.4594	4.1649	-1.616	-1.05	1.1086	3.1618	2.7363	5.8356	0.6714	6.8036	1.4989	-14.9032
1.2218	2.9158	3.1501	1.1242	4.93	4.9261	2.2288	5.3711	6.8583	2.5802	7.9981	7.4399	4.04	-1.6004	-1.1008	1.1242	3.1657	2.6777	5.8785	0.6441	6.8778	1.3779	-14.9188
1.1359	2.8846	3.0954	1.0656	4.9144	4.9222	2.2015	5.375	6.831	2.545	7.9669	7.3853	3.9307	-1.6004	-1.1281	1.1515	3.154	2.6036	5.9059	0.6206	6.9247	1.3076	-14.9501
1.0461	2.8144	3.0056	0.9993	4.9261	4.8949	2.1703	5.3711	6.8349	2.4826	7.9747	7.3657	3.841	-1.6121	-1.1788	1.1242	3.1579	2.5411	5.9644	0.5738	6.9715	1.2335	-14.9618
0.9524	2.7753	2.9237	0.9368	4.8832	4.8793	2.1078	5.3438	6.7568	2.4006	7.9317	7.2955	3.7121	-1.6121	-1.2452	1.0969	3.1579	2.4279	5.98	0.5192	7.0261	1.1593	-14.9852
0.8627	2.7207	2.8456	0.9017	4.8715	4.8207	2.0883	5.3047	6.7022	2.3264	7.8693	7.2057	3.5833	-1.6043	-1.3311	1.0188	3.1579	2.3264	5.9839	0.4411	7.0652	1.1437	-15.0047
0.7534	2.666	2.7519	0.8158	4.8207	4.7895	2.0142	5.2462	6.6163	2.2328	7.7834	7.1042	3.4194	-1.6121	-1.4052	0.9485	3.1501	2.2132	5.9527	0.3903	7.0457	1.1359	-15.0437
0.6831	2.5528	2.6426	0.7846	4.7778	4.6919	1.9517	5.1915	6.5265	2.1274	7.7131	7.0222	3.2984	-1.577	-1.4911	0.8548	3.1227	2.1352	5.9722	0.3279	7.0496	1.1593	-15.0711
0.5738	2.4748	2.5684	0.7416	4.7114	4.6724	1.9361	5.1525	6.4406	2.0376	7.6038	6.8895	3.1501	-1.6004	-1.5653	0.7534	3.1227	2.0454	5.9683	0.2576	7.0066	1.1905	-15.0828
0.4606	2.4006	2.4474	0.6792	4.6607	4.6216	1.8502	5.0979	6.343	1.9712	7.4906	6.788	3.0212	-1.577	-1.6511	0.648	3.0993	1.9322	5.9488	0.2108	6.9715	1.2569	-15.1257
0.3474	2.3225	2.3538	0.6402	4.5787	4.6099	1.8307	5.0159	6.2337	1.8502	7.3618	6.6709	2.8885	-1.5653	-1.7175	0.5738	3.0603	1.8736	5.9059	0.1444	6.9247	1.3428	-15.1452
0.242	2.2249	2.2445	0.6011	4.5162	4.5006	1.7448	4.9729	6.1284	1.7878	7.2174	6.5343	2.7675	-1.5497	-1.7839	0.4879	3.0251	1.7604	5.8473	0.0976	6.831	1.4404	-15.1687
0.1366	2.1547	2.1391	0.5504	4.4577	4.4421	1.6941	4.8558	6.0347	1.698	7.0574	6.4328	2.666	-1.5379	-1.7878	0.4177	3.0017	1.6433	5.82	0.0351	6.7412	1.5614	-15.1726
0.0898	2.0376	2.0688	0.5504	4.3952	4.3757	1.6785	4.7739	5.9332	1.6394	6.9168	6.304	2.545	-1.5184	-1.7995	0.3591	2.9588	1.5887	5.7731	0.0156	6.6514	1.6824	-15.1882
-0.0117	1.9712	1.979	0.5153	4.3406	4.3172	1.6277	4.6685	5.8356	1.5536	6.7529	6.1752	2.4396	-1.4794	-1.7995	0.3201	2.908	1.5106	5.7107	-0.0156	6.5812	1.8229	-15.1999
-0.0586	1.8893	1.9049	0.5113	4.2274	4.2469	1.6004	4.5748	5.738	1.456	6.5538	5.9956	2.3069	-1.4833	-1.7878	0.2889	2.8885	1.4326	5.6404	-0.0703	6.464	1.9439	-15.1765
-0.1327	1.8073	1.8385	0.4879	4.1727	4.1884	1.5809	4.485	5.6326	1.4169	6.386	5.8785	2.2367	-1.4599	-1.7761	0.2693	2.8495	1.3974	5.578	-0.1132	6.3587	2.0766	-15.1921
-0.16	1.7526	1.7917	0.4996	4.1181	4.1688	1.5614	4.403	5.5311	1.3506	6.2377	5.7731	2.1352	-1.4404	-1.7643	0.2537	2.8026	1.3272	5.535	-0.1444	6.2494	2.1976	-15.1608
-0.1952	1.6941	1.7292	0.5035	4.04	4.122	1.5653	4.282	5.457	1.2686	6.0581	5.6287	2.0181	-1.4169	-1.7643	0.2147	2.7753	1.2452	5.4687	-0.1835	6.1284	2.3381	-15.1491
-0.2537	1.6238	1.6746	0.527	4.001	4.0869	1.5497	4.1962	5.3789	1.2179	5.8707	5.4726	1.9088	-1.4091	-1.7292	0.1913	2.7558	1.1905	5.3984	-0.2342	6.0152	2.467	-15.1374
-0.2342	1.6043	1.6707	0.5348	3.9581	4.0517	1.5575	4.1493	5.3086	1.1554	5.7224	5.3399	1.8073	-1.3974	-1.7058	0.1796	2.7363	1.1281	5.3555	-0.2654	5.9293	2.6153	-15.0945
-0.2381	1.5965	1.6824	0.5933	3.9424	4.0713	1.5614	4.0908	5.2579	1.1554	5.5546	5.2501	1.7448	-1.3818	-1.6707	0.1718	2.7051	1.0695	5.293	-0.2693	5.8356	2.7558	-15.0984
-0.242	1.5575	1.6629	0.6206	3.9112	4.0439	1.5575	4.0244	5.1915	1.1086	5.414	5.1174	1.6589	-1.3974	-1.6472	0.1639	2.7207	1.0188	5.2306	-0.2967	5.7263	2.8807	-15.0828
-0.16	1.6433	1.7214	0.6792	3.9229	4.083	1.6199	3.9737	5.1915	1.1047	5.2735	5.0705	1.6433	-1.3857	-1.6121	0.1796	2.709	1.0188	5.2189	-0.2849	5.6482	2.9978	-15.0359
-0.1678	1.6472	1.7565	0.7846	3.9112	4.0791	1.655	3.919	5.1447	1.1008	5.1174	4.969	1.577	-1.4013	-1.6082	0.1757	2.7129	0.9563	5.1798	-0.2654	5.5546	3.111	-15.0203
-0.0859	1.6824	1.7917	0.8627	3.9542	4.1259	1.737	3.9034	5.1798	1.1281	5.0159	4.9144	1.5418	-1.3857	-1.5848	0.1913	2.7051	0.9876	5.133	-0.2498	5.4492	3.1579	-14.9969
0.0273	1.7487	1.8893	0.968	3.9581	4.1884	1.819	3.8761	5.1681	1.1632	4.8754	4.8402	1.5262	-1.3935	-1.5575	0.2381	2.7129	0.9837	5.09	-0.2303	5.3516	3.1891	-14.9774
0.0937	1.7995	1.9634	1.0227	4.0049	4.243	1.8697	3.8566	5.2267	1.2296	4.7817	4.8129	1.5418	-1.374	-1.5223	0.2771	2.6973	1.0149	5.0705	-0.1718	5.2657	3.2008	-14.9149
0.1874	1.8893	2.0454	1.1359	4.0439	4.3289	1.9673	3.8527	5.2774	1.2998	4.6529	4.7934	1.5809	-1.3701	-1.4755	0.3474	2.6973	1.0227	5.0198	-0.1054	5.1525	3.154	-14.8798
0.3045	1.9868	2.1586	1.2608	4.1025	4.4265	2.0688	3.8722	5.3399	1.374	4.5982	4.7973	1.6199	-1.3584	-1.4052	0.4099	2.6738	1.0539	5.0003	-0.0312	5.0822	3.111	-14.8213
0.4684	2.0961	2.2757	1.413	4.1845	4.5553	2.1664	3.8917	5.4414	1.4755	4.5241	4.8168	1.6824	-1.3467	-1.3272	0.4801	2.6348	1.1125	4.9768	0.0351	4.9847	3.029	-14.7861
0.6167	2.2054	2.4006	1.5067	4.2469	4.6568	2.2913	3.9073	5.5116	1.5692	4.4421	4.8246	1.737	-1.3428	-1.2413	0.5387	2.6075	1.1749	4.9847	0.1522	4.9066	2.9549	-14.7471
0.7573	2.3186	2.5216	1.655	4.3445	4.7778	2.3694	3.9659	5.6404	1.6433	4.403	4.8676	1.8151	-1.3272	-1.171	0.5816	2.5763	1.2101	4.9534	0.1757	4.8285	2.8768	-14.6768
0.9056	2.4318	2.6582	1.7761	4.4226	4.9066	2.4982	3.9893	5.7614	1.7839	4.364	4.9105	1.8893	-1.3115	-1.0773	0.6245	2.5333	1.2647	4.9495	0.2693	4.77	2.8066	-14.6495
1.0695	2.545	2.7831	1.9088	4.5241	5.0393	2.6036	4.0674	5.8629	1.8619	4.3133	4.9456	1.9673	-1.2764	-0.9798	0.6714	2.4904	1.3194	4.9886	0.3669	4.7114	2.7636	-14.63
1.2101	2.6895	2.9158	2.0064	4.6294	5.1525	2.6973	4.0947	5.9605	1.9634	4.3016	4.9925	2.0181	-1.2686	-0.9017	0.6324	2.4631	1.3428	4.9651	0.4333	4.6529	2.7324	-14.6183
1.2998	2.7636	2.9978	2.1196	4.727	5.3047	2.7636	4.1454	6.0893	2.0493	4.2625	5.0198	2.0532	-1.253	-0.8509	0.6206	2.4357	1.3701	4.969	0.5113	4.5982	2.7402	-14.5988
1.4091	2.8651	3.1266	2.1859	4.8246	5.4062	2.8339	4.2001	6.2103	2.1078	4.2508	5.094	2.1156	-1.2491	-0.8041	0.5582	2.4123	1.4091	4.9768	0.5699	4.5475	2.7792	-14.5988
1.495	3.0134	3.2281	2.2952	4.9417	5.535	2.9354	4.2781	6.3079	2.1859	4.2235	5.1291	2.1742	-1.2179	-0.7182	0.5582	2.3928	1.4404	5.0003	0.6363	4.5241	2.8417	-14.6105
1.5887	3.0993	3.3062	2.3499	5.0276	5.6482	3.0212	4.3718	6.4328	2.2874	4.2274	5.2072	2.2328	-1.2257	-0.687	0.5348	2.3733	1.4833	5.0354	0.7026	4.4889	2.9315	-14.6222
1.6433	3.2164	3.4155	2.4279	5.1447	5.7849	3.072	4.4343	6.5655	2.4045	4.282	5.2891	2.3108	-1.2023	-0.6089	0.5621	2.3577	1.5536	5.0393	0.7495	4.4772	3.0095	-14.6183
1.7253	3.3335	3.5131	2.5333	5.293	5.9137	3.193	4.5514	6.7217	2.4826	4.3094	5.4101	2.4201	-1.1983	-0.5387	0.6128	2.3225	1.6004	5.0744	0.8236	4.4616	3.0915	-14.6534
1.7565	3.4584	3.6419	2.588	5.4179	6.0815	3.275	4.649	6.8661	2.5958	4.3328	5.4765	2.4787	-1.1788	-0.4762	0.687	2.303	1.6472	5.1252	0.8978	4.4343	3.1735	-14.6144
1.8502	3.556	3.7434	2.6621	5.535	6.1947	3.3921	4.7505	7.0066	2.7168	4.3835	5.6092	2.6153	-1.1554	-0.4138	0.7651	2.264	1.7175	5.1252	0.9563	4.4187	3.2789	-14.63
1.8814	3.6458	3.8058	2.7012	5.6326	6.3196	3.4584	4.8246	7.1237	2.8339	4.4499	5.7107	2.7207	-1.171	-0.3942	0.8705	2.2718	1.7565	5.1603	0.9993	4.3991	3.4116	-14.6378
1.9361	3.72	3.8995	2.787	5.7341	6.4601	3.5521	4.93	7.3033	2.9588	4.5162	5.8473	2.8612	-1.1398	-0.3162	1.0149	2.2249	1.8112	5.1642	1.0578	4.3952	3.5482	-14.6417
2.0103	3.8253	4.0088	2.8612	5.8863	6.6046	3.6653	5.0705	7.4438	3.0837	4.5865	5.9761	2.9783	-1.132	-0.2654	1.1827	2.1742	1.8893	5.2501	1.1242	4.403	3.6848	-14.6261
2.022	3.9112	4.1064	2.908	5.9995	6.7646	3.7824	5.1564	7.5882	3.2008	4.6451	6.1362	3.111	-1.1047	-0.2615	1.3272	2.1391	1.9595	5.2579	1.2023	4.3874	3.8488	-14.6144
2.0805	3.9815	4.1767	3.0095	6.1088	6.8973	3.8839	5.2618	7.7483	3.353	4.7309	6.2728	3.2437	-1.0773	-0.2498	1.4443	2.0922	2.0024	5.3125	1.2257	4.3874	4.0205	-14.6066
2.1	4.0166	4.2391	3.0564	6.2181	7.0183	3.9893	5.3789	7.8732	3.474	4.8051	6.3743	3.3491	-1.0695	-0.2459	1.5575	2.0688	2.0571	5.3438	1.2413	4.407	4.1884	-14.5831
2.1781	4.1142	4.3484	3.1383	6.3118	7.1589	4.0908	5.4804	8.0215	3.6107	4.9144	6.5265	3.4936	-1.0305	-0.2186	1.7136	2.0024	2.1039	5.3672	1.2998	4.4226	4.364	-14.5519
2.2406	4.1767	4.4187	3.2125	6.4094	7.2682	4.2157	5.578	8.1386	3.7434	4.9808	6.667	3.6068	-1.0032	-0.2498	1.8151	1.9517	2.1508	5.3984	1.374	4.4577	4.5553	-14.548
2.2601	4.2118	4.4616	3.2711	6.4875	7.3931	4.3094	5.6638	8.2635	3.8683	5.0744	6.8075	3.7239	-0.9876	-0.2967	1.8424	1.9127	2.2015	5.4335	1.4052	4.4772	4.7465	-14.5519
2.3225	4.2586	4.5865	3.3647	6.5929	7.5219	4.4538	5.777	8.3767	4.0127	5.1798	6.9247	3.8449	-0.9485	-0.3747	1.8619	1.8424	2.2406	5.4804	1.4286	4.5202	4.9417	-14.5597
2.3381	4.243	4.6412	3.4155	6.6358	7.6195	4.5397	5.8317	8.4548	4.1259	5.2501	7.0652	3.9542	-0.9329	-0.4372	1.8658	1.8385	2.2757	5.4999	1.4677	4.5162	5.1486	-14.5714
2.3616	4.2625	4.6607	3.4857	6.7022	7.717	4.6216	5.8668	8.5641	4.2313	5.3282	7.151	4.0244	-0.9368	-0.5348	1.8073	1.8112	2.2718	5.5233	1.495	4.5319	5.3516	-14.5597
2.3928	4.2898	4.7505	3.5755	6.7685	7.8185	4.7348	5.9488	8.6734	4.3523	5.4062	7.2838	4.1493	-0.9017	-0.6167	1.7878	1.7761	2.342	5.5624	1.5418	4.5631	5.5702	-14.587
2.4084	4.282	4.809	3.6263	6.8036	7.9317	4.8441	5.9683	8.7827	4.4928	5.4726	7.397	4.2664	-0.9017	-0.7377	1.7487	1.7565	2.3811	5.5819	1.5692	4.5943	5.7888	-14.6378
2.4396	4.3055	4.8597	3.7239	6.8427	7.9981	4.9768	6.023	8.8646	4.6021	5.535	7.5141	4.403	-0.8978	-0.8314	1.7019	1.7526	2.4162	5.5975	1.6043	4.6177	6.0073	-14.6495
2.4631	4.3133	4.9339	3.8058	6.87	8.1152	5.1135	6.0971	8.9778	4.7661	5.6248	7.6624	4.5514	-0.89	-0.929	1.6941	1.7331	2.4982	5.6131	1.6472	4.6294	6.2298	-14.7081
2.4748	4.3094	5.012	3.9073	6.909	8.2362	5.2032	6.1362	9.0871	4.9144	5.6873	7.7639	4.6607	-0.8939	-0.9915	1.6941	1.7448	2.5684	5.6404	1.737	4.6529	6.4055	-14.7276
2.5177	4.3289	5.0705	4.001	6.9598	8.3338	5.3243	6.183	9.2121	5.0588	5.7731	7.92	4.8676	-0.8861	-1.0227	1.7253	1.7253	2.6426	5.656	1.7995	4.6841	6.5382	-14.7705
2.5606	4.3601	5.1447	4.1064	6.9793	8.4431	5.4531	6.1986	9.3252	5.1876	5.82	8.041	5.012	-0.8861	-1.0578	1.7643	1.737	2.7207	5.6443	1.858	4.7075	6.6553	-14.7705
2.6036	4.3484	5.2579	4.1845	7.0339	8.5953	5.6014	6.2923	9.4463	5.3516	5.9059	8.1894	5.1993	-0.8861	-1.0773	1.9127	1.7292	2.8378	5.656	1.9205	4.7192	6.7451	-14.8095
2.6504	4.3913	5.3516	4.3133	7.0613	8.6812	5.7263	6.3079	9.5634	5.4921	5.9722	8.3026	5.375	-0.8939	-1.0539	2.0259	1.7253	2.9158	5.6678	1.9946	4.7426	6.7919	-14.8252
2.6855	4.4226	5.4492	4.3874	7.1198	8.7944	5.82	6.3704	9.7	5.6521	6.0073	8.447	5.5624	-0.89	-1.0461	2.143	1.7136	3.0056	5.6873	2.0961	4.727	6.8739	-14.8603
2.7246	4.4304	5.5194	4.485	7.1315	8.8607	5.9137	6.3587	9.7937	5.7419	6.062	8.5602	5.6834	-0.89	-1.0227	2.2601	1.7409	3.0642	5.6326	2.1156	4.7114	6.9207	-14.9032
2.7948	4.4382	5.6092	4.5787	7.151	8.9466	6.0425	6.4172	9.9069	5.8824	6.0893	8.6422	5.8239	-0.8783	-0.9759	2.3616	1.7331	3.1501	5.6443	2.1586	4.7075	6.9793	-14.9657
2.869	4.4577	5.6248	4.6607	7.1862	9.0286	6.1049	6.425	9.981	5.9488	6.1518	8.7554	5.9254	-0.8978	-0.9446	2.4435	1.7526	3.1735	5.6092	2.1976	4.727	7.0769	-14.9969
2.8807	4.4343	5.6951	4.7114	7.1628	9.0481	6.1557	6.4406	10.0435	5.9995	6.1557	8.8178	6.0464	-0.89	-0.929	2.5138	1.7487	3.2281	5.5975	2.2328	4.7192	7.155	-15.0242
2.8729	4.3991	5.7146	4.7465	7.2018	9.1106	6.2181	6.4445	10.1098	6.0854	6.1869	8.8568	6.1088	-0.9251	-0.9056	2.5606	1.7995	3.2633	5.5624	2.2367	4.6958	7.2486	-15.0789
2.9198	4.4187	5.7458	4.8207	7.1667	9.1418	6.2806	6.4719	10.1879	6.1518	6.2064	8.9661	6.2455	-0.9329	-0.8783	2.5372	1.819	3.3452	5.5311	2.2796	4.6919	7.3618	-15.1062
2.9315	4.3991	5.777	4.8558	7.194	9.1808	6.3313	6.5031	10.2582	6.2298	6.2728	9.0481	6.3469	-0.9485	-0.847	2.5723	1.8346	3.3725	5.5233	2.3108	4.6919	7.4555	-15.1374
2.9471	4.3796	5.7849	4.8871	7.2096	9.2081	6.3626	6.4914	10.3089	6.2728	6.2611	9.1145	6.4133	-0.968	-0.8002	2.5489	1.8697	3.4428	5.4843	2.3577	4.7036	7.5843	-15.1413
2.9549	4.4109	5.8044	4.9456	7.2135	9.2511	6.3938	6.4953	10.3714	6.3548	6.3548	9.1925	6.5187	-0.9719	-0.7807	2.545	1.8853	3.5209	5.4609	2.3889	4.7036	7.7249	-15.1569
2.9393	4.3562	5.8083	4.9808	7.2291	9.2394	6.4484	6.5226	10.4299	6.4016	6.3587	9.2238	6.6163	-0.9915	-0.7651	2.5138	1.9283	3.5794	5.4101	2.4279	4.6997	7.8849	-15.1882
2.9276	4.3289	5.7927	5.0315	7.2213	9.2394	6.4601	6.507	10.4338	6.425	6.3587	9.2901	6.6983	-1.0032	-0.7338	2.4826	1.9478	3.638	5.3594	2.4591	4.6841	8.0371	-15.1882
2.9237	4.3523	5.777	5.0354	7.2057	9.2355	6.4914	6.5187	10.4689	6.4914	6.3782	9.3135	6.7568	-1.0032	-0.7065	2.4084	1.9673	3.7043	5.3203	2.506	4.6685	8.2206	-15.2233
2.8846	4.3016	5.7146	5.0315	7.1628	9.2121	6.5031	6.4875	10.4768	6.5148	6.3821	9.3448	6.8232	-1.011	-0.6753	2.3225	1.9751	3.7551	5.2657	2.545	4.649	8.404	-15.2506
2.8261	4.2703	5.7107	5.0159	7.1589	9.1652	6.4992	6.4719	10.465	6.5538	6.3782	9.3604	6.8739	-1.0188	-0.6636	2.1976	1.9829	3.7785	5.2384	2.5684	4.6255	8.5992	-15.2389
2.7753	4.2547	5.617	5.0003	7.112	9.1067	6.4719	6.4484	10.3948	6.5265	6.3704	9.3565	6.8973	-1.0344	-0.6792	2.0454	1.9868	3.8136	5.1837	2.5723	4.5943	8.8295	-15.2701
2.7168	4.2118	5.5702	4.9612	7.0808	9.0481	6.4211	6.4055	10.3753	6.5109	6.3469	9.3409	6.8934	-1.0227	-0.6675	1.8775	1.9868	3.8214	5.1252	2.5606	4.5475	9.0481	-15.3053
2.6309	4.1884	5.457	4.9066	7.0105	8.9466	6.386	6.3391	10.2972	6.4953	6.3274	9.2862	6.8622	-1.0305	-0.6831	1.698	2.0024	3.8136	5.094	2.545	4.5202	9.3135	-15.3716
2.5489	4.1181	5.3477	4.8402	6.9481	8.8451	6.3157	6.2689	10.1996	6.4328	6.2337	9.2081	6.8193	-1.0149	-0.6987	1.5028	1.9868	3.8058	5.0315	2.5372	4.4499	9.5946	-15.4263
2.4591	4.0752	5.2852	4.7817	6.8817	8.728	6.2455	6.2142	10.1411	6.4094	6.2103	9.1535	6.7646	-1.0071	-0.7065	1.3115	1.979	3.7785	4.9768	2.4865	4.4421	9.8991	-15.4848
2.3108	4.0088	5.1525	4.6841	6.8193	8.607	6.1635	6.1518	10.0162	6.3157	6.1518	9.0481	6.7022	-1.0188	-0.7221	1.1281	1.9673	3.7239	4.9456	2.4435	4.3796	10.2347	-15.5473
2.2132	3.9503	5.0471	4.5631	6.749	8.4977	6.0464	6.0971	9.9147	6.2103	6.0815	8.9466	6.6007	-0.9993	-0.7846	0.9368	1.9556	3.6692	4.93	2.3772	4.3679	10.6212	-15.6566
2.1039	3.9073	4.93	4.4772	6.7061	8.3884	5.9722	6.0503	9.8171	6.1596	6.0659	8.8646	6.507	-0.9954	-0.808	0.7416	1.9439	3.6185	4.9144	2.3303	4.3835	11.0076	-15.7386
1.9751	3.8644	4.8129	4.3562	6.628	8.2518	5.8707	6.0113	9.7117	6.0854	6.0464	8.7866	6.3977	-0.9915	-0.8666	0.5816	1.9322	3.5794	4.9027	2.2913	4.3874	11.3902	-15.8244
1.858	3.8019	4.6724	4.2313	6.5812	8.1191	5.7419	5.9293	9.5907	6.0191	5.9917	8.6851	6.2884	-1.011	-0.9095	0.4177	1.9595	3.5248	4.8676	2.1781	4.364	11.7805	-15.9025
1.7175	3.7395	4.5553	4.1454	6.5343	8.0176	5.6678	5.9137	9.4619	5.9527	5.9917	8.5875	6.1986	-1.0188	-0.9485	0.2967	1.9673	3.4584	4.8832	2.1625	4.403	12.1552	-15.9845
1.6316	3.72	4.4616	4.0361	6.4992	7.9473	5.6014	5.8746	9.4033	5.8981	5.9722	8.5368	6.1323	-0.9993	-0.9876	0.1835	1.979	3.4506	4.8949	2.1391	4.3913	12.5417	-16.0742
1.5497	3.7239	4.3835	3.9542	6.4719	7.8498	5.5546	5.8434	9.3213	5.8707	5.9761	8.4782	6.062	-1.0149	-1.0344	0.0976	1.9985	3.4506	4.9261	2.1039	4.4109	12.9437	-16.1718
1.456	3.6965	4.3133	3.9112	6.464	7.8146	5.5077	5.859	9.2823	5.859	5.9761	8.4548	6.0503	-1.0344	-1.0656	0.039	2.0064	3.4584	4.9261	2.1	4.4499	13.377	-16.246
1.4013	3.677	4.2274	3.8371	6.4367	7.76	5.4726	5.8356	9.2394	5.8395	5.9956	8.4119	6.0269	-1.0344	-1.093	-0.0078	2.0454	3.4818	4.9534	2.1117	4.4733	13.8064	-16.3748
1.3194	3.6692	4.1532	3.7824	6.4484	7.6858	5.4765	5.8239	9.1964	5.8512	6.0034	8.4001	6.0073	-1.0656	-1.1086	-0.0351	2.0805	3.5014	4.969	2.1117	4.485	14.2631	-16.4646
1.2803	3.6731	4.1376	3.7512	6.4367	7.6741	5.457	5.82	9.1964	5.8317	6.0152	8.3689	6.0308	-1.0773	-1.1437	-0.039	2.1117	3.5404	5.0354	2.1313	4.5436	14.7354	-16.5856
1.2452	3.6575	4.1103	3.72	6.4211	7.6312	5.4765	5.8356	9.1418	5.8785	6.0386	8.365	6.0425	-1.0891	-1.1983	0.0078	2.1274	3.6146	5.0627	2.1859	4.5709	15.2623	-16.6754
1.2296	3.6731	4.0674	3.6848	6.4445	7.6351	5.5155	5.8434	9.1457	5.9137	6.0854	8.3338	6.062	-1.1047	-1.1788	0.0507	2.1313	3.6731	5.1096	2.2406	4.6177	15.7971	-16.7847
1.2023	3.677	4.0595	3.7121	6.4289	7.6156	5.5233	5.8239	9.1301	5.941	6.0971	8.3143	6.0815	-1.0969	-1.2569	0.0976	2.1469	3.7082	5.1174	2.2835	4.6685	16.3397	-16.8783
1.1866	3.638	4.0439	3.7082	6.4758	7.6351	5.5741	5.8629	9.1535	5.9917	6.1323	8.3221	6.1088	-1.0851	-1.253	0.1913	2.1196	3.7902	5.1447	2.342	4.7192	16.8627	-16.972
1.2062	3.638	4.0361	3.7239	6.4445	7.6234	5.5858	5.8278	9.1223	6.023	6.1284	8.2713	6.1245	-1.0617	-1.2842	0.2693	2.1	3.8488	5.1798	2.3538	4.77	17.4014	-17.0813
1.2218	3.6341	4.0361	3.7395	6.4406	7.6195	5.6248	5.8512	9.0832	6.0425	6.1791	8.2479	6.1323	-1.0539	-1.2959	0.3552	2.0688	3.9034	5.215	2.4357	4.8051	17.9401	-17.1672
1.2257	3.638	4.0166	3.7356	6.4445	7.596	5.6678	5.859	9.0676	6.0737	6.2025	8.2011	6.1245	-1.0422	-1.292	0.4411	2.0337	3.9463	5.254	2.4904	4.8441	18.4944	-17.2804
1.2686	3.6146	4.0439	3.7551	6.4758	7.596	5.7107	5.8668	9.0403	6.0854	6.1869	8.1542	6.1323	-1.0227	-1.3115	0.5074	1.9985	3.9971	5.2696	2.5411	4.8754	19.0486	-17.3546
1.2842	3.6107	4.0713	3.7668	6.4484	7.5765	5.7224	5.8395	9.0325	6.0737	6.1947	8.1035	6.1166	-0.9876	-1.3467	0.5582	1.9439	4.0361	5.3047	2.588	4.9261	19.6303	-17.4678
1.3233	3.6068	4.0635	3.8175	6.4367	7.5843	5.7458	5.8395	9.013	6.1049	6.1869	8.0488	6.0971	-0.9563	-1.3545	0.6245	1.8736	4.0674	5.2969	2.6504	4.9651	20.208	-17.5497
1.3818	3.5755	4.0947	3.841	6.4523	7.5609	5.8122	5.8395	8.9778	6.101	6.1908	7.9981	6.0971	-0.929	-1.3701	0.6714	1.8112	4.1025	5.3047	2.7207	4.9534	20.7779	-17.6395
1.4247	3.5833	4.0908	3.8839	6.4133	7.5648	5.859	5.82	8.9349	6.0932	6.144	7.9239	6.0776	-0.8978	-1.374	0.7221	1.7448	4.1337	5.2852	2.7831	4.9495	21.3439	-17.7293
1.4443	3.5989	4.1298	3.9229	6.4445	7.5687	5.9098	5.8161	8.9115	6.1674	6.1323	7.8927	6.1166	-0.8509	-1.3506	0.7807	1.6589	4.204	5.2696	2.8573	4.9222	21.9059	-17.7722
1.5028	3.6185	4.1767	3.9737	6.425	7.5648	5.9722	5.8278	8.9154	6.2103	6.1245	7.842	6.101	-0.8158	-1.3428	0.8548	1.5809	4.2508	5.215	2.908	4.8988	22.4485	-17.862
1.5731	3.6341	4.2313	4.0595	6.4406	7.639	6.0698	5.7966	8.9466	6.2689	6.101	7.7951	6.1674	-0.7768	-1.3115	0.929	1.5106	4.3211	5.215	2.9861	4.8676	22.9872	-17.9284
1.6589	3.6731	4.3016	4.1454	6.4484	7.6351	6.1284	5.8317	8.9427	6.3079	6.0932	7.7561	6.1674	-0.7456	-1.2764	1.0188	1.4521	4.3835	5.1681	3.0681	4.8402	23.5102	-17.9869
1.7487	3.7356	4.3796	4.2508	6.4875	7.6936	6.2298	5.8551	8.9739	6.386	6.0893	7.7405	6.2455	-0.7026	-1.2335	1.1125	1.374	4.4733	5.1447	3.193	4.809	24.0216	-18.0494
1.8502	3.8097	4.4499	4.3796	6.5187	7.7249	6.3469	5.8902	9.0052	6.4562	6.0776	7.7209	6.3235	-0.6675	-1.1788	1.2452	1.3194	4.567	5.1213	3.2984	4.7973	24.5095	-18.1118
1.9595	3.8722	4.5436	4.5084	6.5694	7.7873	6.4758	5.9176	9.0442	6.5343	6.0893	7.76	6.4133	-0.648	-1.1593	1.374	1.2725	4.6607	5.0822	3.3843	4.7544	24.974	-18.1782
2.0454	3.9385	4.6412	4.6685	6.6124	7.8537	6.5929	5.9488	9.0989	6.6241	6.1166	7.7561	6.464	-0.6245	-1.0969	1.495	1.2062	4.77	5.0861	3.4936	4.7583	25.4424	-18.225
2.1898	4.0205	4.7231	4.8129	6.6514	7.9083	6.6865	5.9683	9.134	6.7373	6.0971	7.7522	6.5694	-0.5972	-1.05	1.6199	1.1593	4.8597	5.0432	3.5989	4.6841	25.8874	-18.268
2.2796	4.0869	4.8207	4.9261	6.7334	7.9747	6.8036	6.0073	9.1691	6.8115	6.1127	7.7444	6.6124	-0.5855	-1.0422	1.6746	1.1242	4.969	5.0276	3.677	4.688	26.3597	-18.3343
2.3616	4.1727	4.9105	5.09	6.7607	8.0215	6.9168	6.0659	9.1964	6.8778	6.1166	7.7561	6.6904	-0.5699	-0.9954	1.7643	1.1008	5.0705	5.012	3.7512	4.6607	26.8555	-18.3929
2.424	4.2235	5.0042	5.172	6.8075	8.041	6.9988	6.0776	9.2238	6.952	6.1127	7.7405	6.7295	-0.566	-1.011	1.7956	1.0969	5.1486	4.9729	3.8566	4.6255	27.3707	-18.4592
2.4396	4.2625	5.0471	5.2735	6.8349	8.0723	7.0613	6.0854	9.2238	6.9871	6.1205	7.7131	6.7802	-0.5738	-1.0188	1.78	1.1008	5.2228	4.9456	3.9073	4.5787	27.9523	-18.5373
2.4826	4.2977	5.0666	5.3594	6.8349	8.0449	7.112	6.0932	9.1925	6.991	6.0932	7.6819	6.8036	-0.566	-1.0266	1.7565	1.1086	5.2852	4.9261	3.9542	4.5514	28.5535	-18.6388
2.4748	4.3055	5.0705	5.4257	6.8544	8.0644	7.1276	6.0971	9.1691	7.0613	6.0893	7.6897	6.8388	-0.566	-1.0656	1.7097	1.1008	5.3828	4.8832	4.0205	4.5006	29.2209	-18.7442
2.4201	4.2703	5.0315	5.4492	6.8388	7.9786	7.1393	6.0737	9.1262	7.0691	6.0386	7.6234	6.8505	-0.5816	-1.0969	1.6472	1.1593	5.4257	4.8285	4.0244	4.446	29.8884	-18.8301
2.3499	4.2469	5.0237	5.4179	6.8271	7.9473	7.1354	6.0659	9.0676	7.073	6.0269	7.5804	6.87	-0.5933	-1.132	1.5731	1.1515	5.5038	4.7973	4.0635	4.407	30.6184	-18.8964
2.2718	4.1962	4.9183	5.4101	6.7568	7.8693	7.1237	6.0308	9.0013	7.073	5.9956	7.5258	6.8778	-0.6011	-1.1671	1.4599	1.1671	5.5546	4.7622	4.0947	4.3601	31.3834	-19.0369
2.1547	4.1493	4.8441	5.3945	6.7256	7.8029	7.0847	5.9683	8.9271	7.0379	5.9683	7.4828	6.8778	-0.5972	-1.2062	1.4052	1.1632	5.6053	4.6958	4.1142	4.2859	32.1602	-19.1462
1.9868	4.0713	4.7387	5.3282	6.6631	7.7209	7.0574	5.9293	8.8842	7.0418	5.9176	7.4438	6.9129	-0.5972	-1.2218	1.335	1.1749	5.6756	4.6412	4.1454	4.2586	32.9916	-19.2438
1.8658	4.0049	4.6021	5.2384	6.6124	7.6077	6.991	5.8863	8.7749	6.9988	5.902	7.4048	6.9247	-0.5972	-1.2062	1.2881	1.1671	5.6912	4.5826	4.1649	4.1767	33.8309	-19.3804
1.6824	3.8956	4.4382	5.1603	6.5226	7.4867	6.9481	5.8122	8.6968	6.9793	5.8395	7.3501	6.9442	-0.5972	-1.2608	1.2101	1.1632	5.7536	4.5514	4.1532	4.1064	34.7247	-19.4663
1.4872	3.7746	4.282	5.0315	6.425	7.3618	6.8622	5.738	8.5875	6.9364	5.7966	7.3111	6.9286	-0.5933	-1.3311	1.1008	1.1515	5.7927	4.4811	4.1454	4.0439	35.6772	-19.5873
1.2842	3.6146	4.1142	4.8988	6.2845	7.2174	6.8075	5.6638	8.4977	6.909	5.7146	7.2213	6.9325	-0.5855	-1.3506	0.9915	1.1554	5.777	4.4499	4.1688	3.9776	36.6257	-19.7317
1.0695	3.4975	3.9229	4.7583	6.1947	7.0769	6.71	5.5467	8.3923	6.831	5.6912	7.1706	6.8934	-0.5894	-1.3935	0.8705	1.1632	5.7927	4.3835	4.1298	3.8995	37.5859	-19.8215
0.89	3.3921	3.7434	4.5865	6.0815	6.9207	6.6007	5.4921	8.2752	6.7685	5.6443	7.112	6.8817	-0.5738	-1.4013	0.7651	1.132	5.8239	4.3445	4.1259	3.8683	38.5423	-19.9542
0.7026	3.2711	3.5638	4.4538	5.9449	6.7958	6.4992	5.414	8.1737	6.6826	5.6014	7.0652	6.831	-0.5855	-1.4247	0.6441	1.132	5.8161	4.3445	4.1142	3.8331	39.4947	-20.0557
0.5348	3.1383	3.3999	4.2859	5.8707	6.6592	6.3938	5.3282	8.0957	6.6397	5.578	6.991	6.8036	-0.5738	-1.4326	0.5621	1.1008	5.8083	4.3289	4.0713	3.8019	40.3964	-20.1728
0.3552	3.0134	3.2203	4.1493	5.7731	6.5187	6.3352	5.2657	7.9864	6.5851	5.5428	6.9403	6.7763	-0.5699	-1.456	0.4099	1.0851	5.8044	4.3211	4.0517	3.7902	41.2669	-20.2899
0.1913	2.8846	3.0642	3.9815	5.6951	6.4172	6.222	5.1915	7.9044	6.5343	5.5311	6.909	6.7334	-0.5504	-1.5028	0.281	1.0656	5.781	4.3172	4.04	3.7746	42.1373	-20.4148
0	2.7753	2.8885	3.8292	5.5819	6.2884	6.1479	5.1564	7.8341	6.4797	5.5194	6.8895	6.7061	-0.5465	-1.5145	0.1405	1.0461	5.8044	4.3211	4.0283	3.759	42.9883	-20.5319
-0.1405	2.6777	2.7519	3.6965	5.4843	6.1869	6.0698	5.0744	7.76	6.4445	5.496	6.8232	6.6865	-0.5192	-1.5418	0.0195	1.0266	5.781	4.3055	4.0361	3.7278	43.8041	-20.6373
-0.3006	2.5841	2.6192	3.5443	5.4179	6.1049	5.9917	4.9964	7.6858	6.386	5.4765	6.8271	6.6826	-0.5231	-1.5887	-0.1171	1.0032	5.7614	4.2742	4.0049	3.72	44.6589	-20.7466
-0.4294	2.4631	2.4826	3.3999	5.3008	6.0113	5.8824	4.9417	7.6273	6.3509	5.4999	6.7763	6.6514	-0.5113	-1.5965	-0.2498	0.9759	5.7614	4.2586	3.9776	3.6926	45.4825	-20.8793
-0.566	2.3928	2.3694	3.2554	5.2423	5.9137	5.8629	4.8949	7.5882	6.3274	5.4882	6.7568	6.6475	-0.484	-1.6355	-0.3513	0.9368	5.7849	4.2703	4.0361	3.6731	46.3413	-20.973
-0.6792	2.2952	2.2445	3.1579	5.1876	5.859	5.8005	4.848	7.5492	6.304	5.4687	6.7373	6.6436	-0.4567	-1.6511	-0.4216	0.9173	5.7888	4.2469	4.0517	3.6536	47.1805	-21.1136
-0.769	2.2406	2.1859	3.0447	5.133	5.8122	5.7614	4.8441	7.5687	6.3118	5.4921	6.7802	6.71	-0.445	-1.6199	-0.4918	0.8588	5.859	4.2703	4.0595	3.677	48.0315	-21.2189
-0.8627	2.2132	2.1078	2.951	5.0822	5.781	5.7146	4.7895	7.5375	6.3157	5.5077	6.7802	6.71	-0.4372	-1.6472	-0.5231	0.8431	5.8395	4.2469	4.0635	3.6926	48.8551	-21.3439
-0.9485	2.1547	2.0493	2.8612	5.0705	5.7419	5.6912	4.7817	7.5414	6.3391	5.5233	6.8154	6.7334	-0.4333	-1.6355	-0.5465	0.8275	5.8942	4.2469	4.0713	3.6692	49.6631	-21.4805
-1.0071	2.1274	1.9829	2.7558	5.0315	5.699	5.6795	4.7622	7.5531	6.3391	5.5741	6.8271	6.7529	-0.4216	-1.6238	-0.5113	0.808	5.8942	4.2196	4.0869	3.6692	50.4555	-21.6327
-1.0383	2.143	1.9517	2.709	5.0042	5.7107	5.6599	4.7505	7.5492	6.3313	5.5975	6.8232	6.749	-0.406	-1.577	-0.4489	0.7807	5.9176	4.1923	4.1181	3.6575	51.1854	-21.7459
-1.1476	2.0766	1.8971	2.6387	4.9651	5.7107	5.617	4.7348	7.5336	6.3118	5.5624	6.8271	6.7607	-0.4138	-1.6043	-0.4294	0.7924	5.9059	4.1845	4.083	3.6458	51.9349	-21.8708
-1.1632	2.0844	1.8697	2.5841	4.9456	5.6912	5.5897	4.6919	7.5024	6.2923	5.5546	6.7997	6.7334	-0.4177	-1.5887	-0.3825	0.7846	5.8902	4.1532	4.0908	3.6146	52.6609	-21.9918
-1.2101	2.0337	1.8112	2.5177	4.9456	5.6638	5.5936	4.6685	7.4906	6.3001	5.5116	6.7841	6.7139	-0.4255	-1.577	-0.3786	0.808	5.8746	4.1298	4.0674	3.5482	53.3362	-22.1245
-1.2179	2.0766	1.8151	2.4943	4.9495	5.7185	5.5819	4.6841	7.4985	6.2611	5.5311	6.7646	6.6748	-0.406	-1.5809	-0.324	0.7924	5.9059	4.1298	4.0674	3.5794	53.9725	-22.226
-1.2686	2.0376	1.7956	2.4513	4.9027	5.6795	5.5389	4.649	7.4711	6.2494	5.457	6.7256	6.628	-0.4372	-1.5926	-0.3279	0.8275	5.859	4.0869	4.0283	3.5482	54.5658	-22.3392
-1.2179	2.0766	1.8268	2.4318	4.9144	5.7029	5.5428	4.6373	7.4282	6.222	5.4179	6.6748	6.5538	-0.4411	-1.577	-0.281	0.8314	5.8122	4.0674	4.0244	3.4975	55.0927	-22.4212
-1.2374	2.0883	1.8268	2.4631	4.9261	5.7536	5.5467	4.6373	7.4555	6.2181	5.3984	6.6475	6.5031	-0.4255	-1.6004	-0.281	0.8236	5.82	4.0439	4.0517	3.4701	55.5612	-22.4876
-1.1866	2.1235	1.8658	2.4904	4.9495	5.777	5.5624	4.6177	7.4282	6.1986	5.3477	6.6241	6.4562	-0.4528	-1.6004	-0.3045	0.8548	5.8005	4.0361	4.0322	3.4506	55.9788	-22.5344
-1.1515	2.1547	1.901	2.5177	4.9495	5.8161	5.578	4.6138	7.4399	6.1674	5.3008	6.5733	6.3938	-0.4489	-1.6004	-0.3591	0.8431	5.7849	4.0283	4.0244	3.4116	56.3535	-22.5578
-1.1008	2.1937	1.9517	2.5528	4.9534	5.8473	5.578	4.5826	7.4126	6.1401	5.2384	6.4992	6.3352	-0.4411	-1.6355	-0.4099	0.8548	5.7497	3.9971	4.0322	3.3569	56.74	-22.5968
-1.0539	2.2406	1.9985	2.627	4.9729	5.8668	5.6131	4.5553	7.3696	6.1166	5.1876	6.425	6.2572	-0.4489	-1.6199	-0.5348	0.8548	5.7341	4.0049	4.0478	3.275	57.1186	-22.6437
-1.0071	2.2523	2.0337	2.6895	5.0003	5.8785	5.6404	4.5397	7.3814	6.1049	5.094	6.3821	6.1908	-0.4372	-1.6511	-0.605	0.847	5.7146	3.9698	4.0713	3.2359	57.5011	-22.6983
-0.9993	2.2718	2.0766	2.7012	4.9886	5.9098	5.6482	4.5202	7.3384	6.0659	4.9808	6.2767	6.0932	-0.4411	-1.6863	-0.6987	0.8236	5.6951	3.9307	4.0791	3.1813	57.9071	-22.7335
-0.9485	2.2562	2.1352	2.7831	4.9651	5.9254	5.6678	4.4577	7.2838	6.0269	4.9066	6.2025	6.0152	-0.4333	-1.7058	-0.7846	0.8314	5.6443	3.9229	4.0713	3.072	58.3248	-22.7803
-0.9368	2.2445	2.1196	2.8183	4.9456	5.9215	5.6638	4.3874	7.2369	5.9644	4.7622	6.0971	5.902	-0.445	-1.7839	-0.8783	0.8236	5.5819	3.8566	4.0205	2.99	58.7815	-22.8818
-0.9251	2.2054	2.1859	2.8651	4.891	5.902	5.6717	4.325	7.1745	5.9137	4.6255	5.9488	5.7849	-0.4294	-1.8151	-0.9212	0.8197	5.535	3.8292	4.0361	2.908	59.2304	-22.9286
-0.9056	2.1937	2.2015	2.9158	4.8558	5.9059	5.6912	4.2664	7.0964	5.8551	4.5358	5.8629	5.6912	-0.4294	-1.8541	-0.9602	0.808	5.4843	3.8019	4.001	2.8651	59.7027	-23.0184
-0.929	2.1391	2.182	2.9276	4.8129	5.8395	5.6521	4.1688	7.0105	5.7731	4.3679	5.699	5.5233	-0.4489	-1.9244	-1.0305	0.808	5.3789	3.7746	3.9346	2.7714	60.1945	-23.0926
-0.9368	2.0766	2.1898	2.9237	4.7075	5.7888	5.6092	4.0752	6.9012	5.6795	4.2235	5.5194	5.3945	-0.4294	-1.9868	-1.0656	0.8158	5.3008	3.7356	3.8917	2.7012	60.6902	-23.1785
-0.9954	2.0376	2.1547	2.908	4.6255	5.6912	5.5467	3.9815	6.7958	5.5585	4.0986	5.375	5.2306	-0.4411	-2.0844	-1.1047	0.8314	5.1837	3.6887	3.8019	2.6075	61.1899	-23.2682
-1.011	1.94	2.1156	2.9041	4.5514	5.617	5.4882	3.8722	6.628	5.4414	3.919	5.1993	5.0198	-0.4489	-2.1937	-1.1671	0.8392	5.0705	3.6068	3.6965	2.4982	61.7051	-23.3229
-1.0617	1.8814	2.1	2.8963	4.4499	5.5428	5.4531	3.7395	6.5148	5.336	3.7629	5.0042	4.848	-0.4489	-2.2913	-1.2101	0.847	4.9183	3.595	3.6263	2.424	62.1774	-23.4283
-1.0851	1.7956	2.0532	2.8924	4.3523	5.414	5.3867	3.6185	6.3665	5.2032	3.5677	4.8129	4.6529	-0.4606	-2.4006	-1.2218	0.8783	4.7856	3.517	3.5014	2.3381	62.6341	-23.4751
-1.0812	1.7175	2.0142	2.8885	4.2079	5.3047	5.3399	3.5014	6.1908	5.0822	3.4077	4.6177	4.4811	-0.4645	-2.5138	-1.2179	0.8978	4.688	3.4662	3.4116	2.2484	63.044	-23.522
-1.1242	1.6394	1.979	2.83	4.1064	5.2228	5.2423	3.3686	6.0503	4.969	3.2711	4.4655	4.2938	-0.4762	-2.6114	-1.2218	0.9095	4.5592	3.396	3.3296	2.1859	63.4382	-23.5883
-1.1398	1.5926	1.9595	2.8495	3.9893	5.1018	5.215	3.2593	5.9137	4.8558	3.1227	4.2859	4.1493	-0.4996	-2.7168	-1.1593	0.929	4.4187	3.3686	3.2125	2.1117	63.7974	-23.6469
-1.1203	1.534	1.9478	2.8768	3.9112	5.012	5.1798	3.1657	5.7888	4.8051	3.0134	4.161	4.0556	-0.4762	-2.7558	-1.1203	0.9173	4.3523	3.3491	3.1344	2.0844	64.1369	-23.6742
-1.1047	1.4833	1.9088	2.8417	3.8175	4.9222	5.1252	3.072	5.6209	4.6997	2.8846	4.001	3.9151	-0.5035	-2.7831	-1.0227	0.9485	4.2703	3.3179	3.0954	2.0415	64.4648	-23.7249
-1.0969	1.4365	1.8814	2.8417	3.7395	4.8519	5.1252	3.0095	5.5272	4.6724	2.787	3.88	3.8214	-0.484	-2.7987	-0.9251	0.9407	4.204	3.2789	3.0369	2.0181	64.8122	-23.7718
-1.0656	1.4247	1.8775	2.8495	3.6926	4.7739	5.1213	2.9705	5.4492	4.6294	2.7207	3.798	3.7902	-0.4762	-2.7792	-0.8236	0.9173	4.1493	3.2789	2.9978	2.0024	65.1557	-23.8342
-1.0851	1.3857	1.8424	2.8651	3.6028	4.6607	5.0783	2.8768	5.3125	4.567	2.6426	3.6809	3.7004	-0.4762	-2.7558	-0.7456	0.929	4.122	3.232	2.99	1.9907	65.5539	-23.8889
-1.0734	1.3311	1.8112	2.8534	3.5365	4.5826	5.0627	2.8066	5.2111	4.5162	2.5528	3.5755	3.638	-0.4762	-2.6855	-0.6987	0.9017	4.1064	3.2281	2.99	1.9907	65.9872	-23.9357
-1.0734	1.3154	1.7995	2.8495	3.4662	4.5006	5.0549	2.748	5.1252	4.4811	2.5294	3.5365	3.6263	-0.4567	-2.6387	-0.6675	0.8783	4.0869	3.2008	2.9666	2.0103	66.4439	-24.0255
-1.0578	1.2725	1.7448	2.8261	3.4038	4.403	5.0159	2.6895	5.0237	4.4382	2.4357	3.4428	3.6068	-0.4372	-2.5606	-0.6909	0.8275	4.0791	3.2047	2.9588	2.0064	66.9357	-24.0879
-1.0969	1.1866	1.6941	2.7714	3.3101	4.3094	4.969	2.6387	4.9222	4.3991	2.4006	3.3491	3.5599	-0.4333	-2.5216	-0.7221	0.8197	4.1064	3.1696	2.9783	2.0024	67.4666	-24.1972
-1.1242	1.171	1.6238	2.7324	3.2633	4.2118	4.93	2.5489	4.7934	4.3289	2.3147	3.2476	3.5092	-0.406	-2.4045	-0.7885	0.7768	4.0869	3.1774	2.9549	1.9751	68.0091	-24.2987
-1.1593	1.1086	1.5536	2.7129	3.1852	4.1337	4.8832	2.4865	4.6802	4.2859	2.2718	3.1618	3.4545	-0.3747	-2.3069	-0.8861	0.7299	4.083	3.1305	2.9471	1.9595	68.5517	-24.4158
-1.2452	1.0578	1.4638	2.6426	3.0798	4.0049	4.8246	2.4357	4.5631	4.2196	2.2249	3.0525	3.4077	-0.3669	-2.2288	-1.0305	0.7026	4.0674	3.1227	2.9627	1.94	69.1177	-24.5368
-1.335	0.9798	1.3389	2.5333	2.9822	3.8839	4.7192	2.3069	4.3952	4.1103	2.1	2.9158	3.275	-0.3708	-2.1547	-1.2374	0.6987	3.9893	3.0564	2.8885	1.8502	69.6876	-24.6383
-1.3935	0.9017	1.2374	2.424	2.8963	3.7668	4.6333	2.2484	4.2742	4.0244	2.0103	2.7753	3.2125	-0.3435	-2.0298	-1.4169	0.6636	3.9971	3.0251	2.8924	1.7956	70.2341	-24.7515
-1.5145	0.808	1.132	2.3264	2.8026	3.6302	4.5358	2.1547	4.122	3.9346	1.8932	2.6387	3.111	-0.3435	-1.9595	-1.6199	0.6363	3.9542	2.9744	2.8573	1.7058	70.7766	-24.8842
-1.616	0.7416	0.9719	2.221	2.6543	3.4779	4.4421	2.0259	3.9698	3.7785	1.7214	2.4748	3.0056	-0.3357	-1.8502	-1.819	0.6206	3.8878	2.9119	2.8222	1.6043	71.3231	-25.0053
-1.7565	0.6324	0.8509	2.061	2.5489	3.3374	4.2938	1.9244	3.7941	3.6926	1.616	2.3108	2.8963	-0.3396	-1.78	-2.0649	0.6245	3.8136	2.8066	2.7402	1.4794	71.8345	-25.1497
