"FZ"	"FC3"	"FCZ"	"FC4"	"C3"	"CZ"	"C4"	"CP3"	"CPZ"	"CP4"	"P3"	"PZ"	"P4"	"OZ"	"FP1"	"FP2"	"A2"	"P8"	"TP7"	"TP8"	"P7"
0.66	-0.3272	0.4893	0.0683	-1.5561	-0.8449	-0.8421	-2.4466	-2.5974	-1.815	-2.31	-2.916	-2.3356	-0.4125	-0.2361	-0.5007	0.8165	-1.4338	-0.606	-0.5804	-1.064
0.5178	-0.4011	0.3357	-0.0597	-1.6472	-0.916	-0.8762	-2.4636	-2.5917	-1.8036	-2.2986	-2.8818	-2.3129	-0.4324	-0.3585	-0.6344	0.8791	-1.3883	-0.6031	-0.606	-1.0412
0.3784	-0.5235	0.1849	-0.165	-1.7467	-0.99	-0.9274	-2.4665	-2.5661	-1.7809	-2.273	-2.8221	-2.2674	-0.4722	-0.4637	-0.7141	0.9388	-1.3542	-0.6145	-0.6401	-1.0099
0.256	-0.6031	0.0853	-0.2418	-1.7809	-1.0469	-0.9445	-2.4324	-2.5092	-1.7211	-2.2019	-2.7453	-2.1849	-0.4865	-0.5291	-0.8079	0.9701	-1.2859	-0.5917	-0.6259	-0.9786
0.1508	-0.6629	-0.0626	-0.3101	-1.7894	-1.0924	-0.9644	-2.3698	-2.4181	-1.687	-2.128	-2.6656	-2.1166	-0.4922	-0.5946	-0.8677	0.9929	-1.246	-0.5747	-0.6344	-0.9616
0.0427	-0.7254	-0.1479	-0.3727	-1.7894	-1.0867	-0.9388	-2.3157	-2.3129	-1.5988	-2.0455	-2.5661	-2.0227	-0.5064	-0.6429	-0.899	1.0156	-1.1892	-0.6031	-0.6287	-0.9445
-0.0114	-0.7567	-0.2191	-0.3954	-1.7325	-1.0526	-0.8961	-2.1849	-2.1564	-1.5049	-1.9487	-2.4295	-1.8975	-0.5178	-0.6344	-0.8734	1.0185	-1.1123	-0.5889	-0.6287	-0.9047
-0.0768	-0.7482	-0.2475	-0.4153	-1.6927	-0.99	-0.8648	-2.0682	-2.017	-1.4025	-1.8207	-2.2617	-1.7524	-0.5149	-0.6145	-0.8762	1.0099	-1.0298	-0.5747	-0.6287	-0.8535
-0.0853	-0.7197	-0.2703	-0.3954	-1.5874	-0.9217	-0.7852	-1.926	-1.8264	-1.266	-1.7041	-2.1137	-1.6329	-0.4922	-0.623	-0.8108	0.9815	-0.9616	-0.5547	-0.5917	-0.8051
-0.1223	-0.6941	-0.2873	-0.404	-1.4651	-0.8449	-0.7084	-1.7723	-1.6443	-1.1294	-1.5675	-1.9544	-1.4907	-0.4808	-0.5519	-0.7653	0.9587	-0.8648	-0.5291	-0.5576	-0.7738
-0.1252	-0.6657	-0.2646	-0.3812	-1.357	-0.7596	-0.6344	-1.5846	-1.4338	-0.9843	-1.4167	-1.7638	-1.3342	-0.4666	-0.5348	-0.697	0.9132	-0.771	-0.5064	-0.5377	-0.7254
-0.0967	-0.6202	-0.2333	-0.3499	-1.2062	-0.6372	-0.5434	-1.4167	-1.2318	-0.8449	-1.283	-1.5732	-1.1692	-0.4182	-0.4893	-0.623	0.8506	-0.6685	-0.4865	-0.5092	-0.6771
-0.1252	-0.586	-0.2361	-0.3499	-1.0611	-0.5604	-0.495	-1.2404	-1.0441	-0.7197	-1.1237	-1.394	-1.027	-0.4097	-0.458	-0.5263	0.8136	-0.5889	-0.4523	-0.4865	-0.6372
-0.0683	-0.4922	-0.1707	-0.2788	-0.8961	-0.4182	-0.3784	-1.0327	-0.8051	-0.5775	-0.9502	-1.2005	-0.8307	-0.3784	-0.3755	-0.4011	0.734	-0.5064	-0.4011	-0.4637	-0.5547
-0.0853	-0.4438	-0.1422	-0.2503	-0.7368	-0.2959	-0.3016	-0.8506	-0.6003	-0.4267	-0.7937	-1.0156	-0.7027	-0.3499	-0.3101	-0.3414	0.6941	-0.4381	-0.3641	-0.4637	-0.5035
-0.0683	-0.3613	-0.1223	-0.2077	-0.586	-0.1991	-0.2276	-0.6657	-0.404	-0.2959	-0.6259	-0.8051	-0.532	-0.33	-0.2532	-0.2503	0.6344	-0.3556	-0.3158	-0.4552	-0.4438
-0.0626	-0.2959	-0.0711	-0.1935	-0.3926	-0.1109	-0.1593	-0.4865	-0.1878	-0.1422	-0.4694	-0.6316	-0.3613	-0.3072	-0.2219	-0.2134	0.5974	-0.2816	-0.2731	-0.4296	-0.3755
-0.0711	-0.2247	-0.0398	-0.1821	-0.2475	-0.0114	-0.0569	-0.293	-0.0171	-0.037	-0.3072	-0.4552	-0.2077	-0.2816	-0.1451	-0.128	0.5377	-0.2247	-0.2361	-0.4381	-0.3072
-0.0825	-0.1963	-0.0228	-0.165	-0.1024	0.074	-0.0199	-0.1337	0.1565	0.0882	-0.1565	-0.276	-0.0797	-0.256	-0.1394	-0.1081	0.5035	-0.1707	-0.1821	-0.4296	-0.2247
-0.0882	-0.1707	-0.0114	-0.165	0.0142	0.1451	0.0256	0.0341	0.2959	0.1849	-0.0484	-0.1223	0.0541	-0.2447	-0.1422	-0.0996	0.4779	-0.1252	-0.1223	-0.4353	-0.1479
-0.1451	-0.165	-0.0427	-0.202	0.091	0.1792	0.0683	0.1622	0.4239	0.2873	0.0512	0.0085	0.1764	-0.2304	-0.1166	-0.0853	0.4552	-0.0853	-0.0882	-0.4239	-0.0967
-0.2247	-0.1735	-0.0797	-0.2361	0.1792	0.1906	0.0768	0.2703	0.532	0.33	0.1593	0.1479	0.2987	-0.2276	-0.1252	-0.128	0.4267	-0.0711	-0.037	-0.4552	-0.037
-0.3044	-0.1963	-0.1536	-0.3158	0.2219	0.1991	0.0569	0.3585	0.6173	0.3755	0.2418	0.2162	0.3784	-0.2219	-0.1593	-0.1707	0.4267	-0.0484	0.0028	-0.4893	0.0228
-0.3954	-0.2162	-0.2191	-0.3471	0.2589	0.1593	0.0626	0.4466	0.6885	0.4381	0.3357	0.3101	0.4751	-0.2077	-0.1678	-0.2048	0.4068	-0.0085	0.0284	-0.4808	0.0654
-0.4979	-0.276	-0.3044	-0.4552	0.2674	0.1337	0.0199	0.4836	0.7055	0.458	0.3528	0.3613	0.5519	-0.2162	-0.2191	-0.2731	0.4097	0.0142	0.0683	-0.5206	0.0939
-0.623	-0.3385	-0.4523	-0.5576	0.2219	0.0569	-0.0341	0.4779	0.7055	0.4751	0.3613	0.3897	0.6003	-0.2219	-0.2845	-0.3641	0.421	0.0028	0.074	-0.5348	0.1366
-0.751	-0.404	-0.5804	-0.6372	0.2077	-0.0313	-0.0284	0.4922	0.7112	0.4808	0.3841	0.4438	0.6543	-0.2134	-0.3272	-0.4097	0.4239	0.0256	0.091	-0.5491	0.1707
-0.8734	-0.4637	-0.6913	-0.7397	0.1849	-0.1024	-0.0768	0.495	0.6885	0.4836	0.3983	0.4694	0.6998	-0.2276	-0.4182	-0.5064	0.4324	0.0541	0.1309	-0.5832	0.1764
-1.0213	-0.5519	-0.8392	-0.8449	0.1024	-0.1963	-0.1451	0.4979	0.66	0.4666	0.3784	0.4609	0.751	-0.2361	-0.4922	-0.606	0.4523	0.0484	0.1394	-0.6202	0.2048
-1.192	-0.6543	-0.9843	-0.936	0.0541	-0.33	-0.1906	0.4552	0.6202	0.4637	0.3528	0.4666	0.7994	-0.239	-0.5917	-0.7027	0.4694	0.0939	0.165	-0.6259	0.2077
-1.3513	-0.7596	-1.1806	-1.0839	-0.0484	-0.4523	-0.2816	0.421	0.5491	0.4324	0.3016	0.4296	0.788	-0.2788	-0.7254	-0.8335	0.5434	0.0711	0.1622	-0.6771	0.1963
-1.5021	-0.862	-1.3257	-1.1749	-0.1422	-0.5604	-0.33	0.3585	0.5035	0.4068	0.2845	0.4324	0.8165	-0.3044	-0.8136	-0.9473	0.586	0.0996	0.1707	-0.7055	0.2105
-1.6557	-0.9786	-1.4992	-1.3115	-0.2247	-0.6828	-0.4182	0.2959	0.4552	0.3954	0.2304	0.4125	0.8222	-0.3328	-0.9616	-1.0867	0.6742	0.1223	0.1678	-0.7283	0.2134
-1.7894	-1.081	-1.6728	-1.3627	-0.3272	-0.8193	-0.4666	0.2276	0.3869	0.3755	0.1792	0.3841	0.8364	-0.3727	-1.0867	-1.1721	0.7482	0.1309	0.1906	-0.7454	0.1963
-1.926	-1.1778	-1.8207	-1.4452	-0.4296	-0.9246	-0.5092	0.1593	0.3328	0.3784	0.1394	0.3755	0.8449	-0.4239	-1.1721	-1.2887	0.8364	0.1479	0.1878	-0.771	0.165
-2.0483	-1.2717	-1.9544	-1.522	-0.5121	-1.0384	-0.5633	0.1024	0.3016	0.3613	0.0939	0.3841	0.8791	-0.4637	-1.2859	-1.3627	0.9189	0.1878	0.1935	-0.7596	0.1622
-2.1393	-1.3229	-2.0853	-1.5533	-0.5747	-1.0981	-0.5604	0.0455	0.2816	0.3812	0.0797	0.3954	0.8904	-0.5035	-1.3399	-1.4338	0.9872	0.2105	0.2077	-0.7766	0.1337
-2.1905	-1.3997	-2.1877	-1.5988	-0.66	-1.1522	-0.6116	-0.0028	0.2617	0.3954	0.037	0.3954	0.916	-0.5462	-1.3911	-1.4594	1.0668	0.202	0.2077	-0.7454	0.1138
-2.2361	-1.4537	-2.2901	-1.5817	-0.6771	-1.2034	-0.5946	-0.0228	0.2703	0.4324	0.0455	0.3983	0.9502	-0.5604	-1.4111	-1.4594	1.1123	0.2589	0.1935	-0.7311	0.0967
-2.273	-1.4879	-2.3442	-1.5704	-0.7254	-1.2432	-0.5775	-0.0484	0.2845	0.458	0.0199	0.4267	0.9729	-0.5775	-1.4054	-1.4338	1.1493	0.3328	0.1935	-0.7084	0.0768
-2.2275	-1.448	-2.3641	-1.5078	-0.7425	-1.2404	-0.5263	-0.0654	0.2987	0.5178	0.0256	0.4722	1.0327	-0.5917	-1.3684	-1.3371	1.1579	0.3727	0.202	-0.6401	0.0654
-2.2133	-1.4623	-2.3612	-1.4537	-0.7738	-1.2148	-0.5121	-0.0768	0.3414	0.5519	0.0199	0.4922	1.0441	-0.5804	-1.283	-1.2148	1.1379	0.4011	0.1821	-0.6145	0.0597
-2.145	-1.4367	-2.3527	-1.3712	-0.7482	-1.1692	-0.4722	-0.0683	0.3755	0.5974	0.0569	0.5405	1.0782	-0.5491	-1.2176	-1.0754	1.0839	0.4523	0.2048	-0.5633	0.0597
-2.0711	-1.3968	-2.3129	-1.2973	-0.7482	-1.1209	-0.4267	-0.0711	0.404	0.6145	0.0541	0.5576	1.0782	-0.5121	-1.1607	-0.9815	1.0241	0.495	0.1735	-0.5121	0.0455
-1.9715	-1.3542	-2.2503	-1.2204	-0.7226	-1.0896	-0.3954	-0.0597	0.4239	0.6401	0.074	0.5718	1.0725	-0.4893	-1.064	-0.8279	0.9559	0.5149	0.1792	-0.4637	0.0256
-1.8691	-1.2859	-2.1934	-1.0981	-0.6885	-1.0498	-0.3499	-0.0398	0.441	0.6714	0.0768	0.5889	1.0754	-0.4296	-0.9616	-0.6799	0.8563	0.5462	0.1678	-0.4182	0.0171
-1.7553	-1.2176	-2.091	-1.0128	-0.6401	-0.9616	-0.3414	0	0.4694	0.6458	0.0939	0.606	1.0441	-0.3727	-0.8734	-0.569	0.7425	0.569	0.1735	-0.3698	-0.0057
-1.65	-1.1266	-1.9857	-0.8961	-0.5917	-0.8876	-0.2902	0.037	0.5149	0.6486	0.1138	0.6202	1.0327	-0.3129	-0.7795	-0.4267	0.606	0.6031	0.2048	-0.3243	-0.0114
-1.4964	-1.027	-1.8605	-0.7909	-0.5064	-0.8165	-0.256	0.0768	0.5178	0.6742	0.1536	0.623	0.9929	-0.239	-0.7112	-0.2816	0.4722	0.6372	0.1935	-0.2503	-0.0256
-1.3598	-0.9502	-1.7439	-0.6742	-0.4324	-0.7283	-0.2418	0.1451	0.5576	0.6287	0.2048	0.6344	0.9616	-0.1593	-0.6372	-0.202	0.3129	0.6344	0.2105	-0.2361	-0.0142
-1.2204	-0.825	-1.6358	-0.5832	-0.3528	-0.6458	-0.1991	0.1906	0.5747	0.5804	0.2276	0.6401	0.9331	-0.074	-0.5718	-0.0683	0.1422	0.6259	0.1963	-0.1593	0.0057
-1.0782	-0.7624	-1.5021	-0.5035	-0.2503	-0.5633	-0.1878	0.239	0.569	0.5348	0.276	0.6458	0.8449	0.0171	-0.5007	0.0398	-0.0199	0.6429	0.1963	-0.128	-0.0028
-0.9559	-0.6629	-1.3883	-0.4239	-0.165	-0.4694	-0.202	0.2959	0.5434	0.4808	0.3158	0.6202	0.7681	0.091	-0.441	0.1252	-0.1792	0.623	0.1792	-0.0853	0.0028
-0.8335	-0.606	-1.2717	-0.3869	-0.0711	-0.4552	-0.2418	0.3442	0.5434	0.3841	0.33	0.5804	0.6742	0.1508	-0.4182	0.1906	-0.3016	0.5804	0.1565	-0.0711	-0.0142
-0.7141	-0.4893	-1.1692	-0.3385	0.0284	-0.3755	-0.2361	0.3698	0.5064	0.3101	0.3727	0.5576	0.5775	0.2247	-0.3784	0.2418	-0.4523	0.5491	0.1565	-0.0341	0.0284
-0.623	-0.4125	-1.0498	-0.2845	0.0967	-0.3272	-0.2816	0.4296	0.4865	0.2134	0.3926	0.5235	0.495	0.293	-0.3129	0.2703	-0.5804	0.5263	0.128	-0.0284	0.0256
-0.5235	-0.3471	-0.9872	-0.2845	0.1764	-0.3016	-0.2902	0.4722	0.441	0.1223	0.3841	0.495	0.3869	0.3528	-0.2532	0.3129	-0.6771	0.4808	0.0967	-0.0057	0.0228
-0.4495	-0.2703	-0.8648	-0.2646	0.2361	-0.2333	-0.3414	0.5121	0.3869	0.0228	0.3926	0.4381	0.256	0.3812	-0.2219	0.3016	-0.7681	0.4267	0.0853	-0.0142	0.0313
-0.4097	-0.2304	-0.8079	-0.2617	0.2902	-0.2219	-0.404	0.5434	0.3414	-0.1024	0.4153	0.3983	0.165	0.404	-0.1764	0.2902	-0.825	0.3841	0.0512	-0.037	0.0085
-0.3613	-0.1935	-0.7311	-0.2987	0.3385	-0.2105	-0.4666	0.5434	0.2731	-0.2077	0.3897	0.3272	0.0541	0.4438	-0.1451	0.2617	-0.8734	0.3016	0	-0.0171	-0.0142
-0.2902	-0.1337	-0.66	-0.3186	0.3983	-0.1792	-0.4808	0.5804	0.202	-0.2816	0.4011	0.2902	-0.0398	0.4552	-0.0882	0.239	-0.9189	0.2788	-0.0142	-0.0171	-0.0114
-0.2674	-0.1195	-0.569	-0.3357	0.4296	-0.1735	-0.5348	0.569	0.1678	-0.3841	0.367	0.2503	-0.1593	0.4722	-0.0825	0.1337	-0.9473	0.2134	-0.0597	-0.0028	-0.0256
-0.2361	-0.0768	-0.5121	-0.3528	0.4979	-0.1479	-0.5832	0.5718	0.1024	-0.4381	0.3784	0.2077	-0.239	0.4865	-0.0455	0.074	-0.9758	0.1678	-0.0882	0.0228	-0.0313
-0.2475	-0.0427	-0.441	-0.4011	0.4865	-0.1422	-0.5946	0.5604	0.0256	-0.5291	0.3357	0.1508	-0.3442	0.4722	-0.0683	-0.0853	-0.9559	0.1053	-0.1309	0.0313	-0.0427
-0.1963	-0.0171	-0.3841	-0.3954	0.5007	-0.1422	-0.6287	0.532	-0.0256	-0.5889	0.3101	0.0996	-0.4011	0.4666	-0.0427	-0.1906	-0.9331	0.0569	-0.1707	0.0569	-0.091
-0.1963	0.0199	-0.3072	-0.4182	0.5064	-0.1252	-0.6287	0.5178	-0.0797	-0.6316	0.276	0.0484	-0.4722	0.4609	-0.0569	-0.3072	-0.9104	0.0028	-0.1991	0.0711	-0.1166
-0.1678	0.0626	-0.2247	-0.4267	0.5263	-0.1166	-0.6316	0.4779	-0.1394	-0.6856	0.2304	0.0427	-0.5149	0.441	-0.0597	-0.4523	-0.8876	-0.0455	-0.2162	0.0967	-0.128
-0.1422	0.0825	-0.1593	-0.4438	0.5405	-0.1081	-0.6372	0.4666	-0.1707	-0.6998	0.2162	0.0057	-0.569	0.421	-0.0654	-0.5547	-0.8449	-0.0825	-0.2503	0.1451	-0.1394
-0.0967	0.1593	-0.037	-0.404	0.5661	-0.0597	-0.6088	0.4609	-0.1991	-0.6913	0.1792	0.0057	-0.6116	0.4097	-0.0825	-0.6657	-0.8165	-0.091	-0.2674	0.1906	-0.1252
-0.037	0.1878	0.0171	-0.3897	0.5775	-0.0427	-0.5747	0.4324	-0.2333	-0.6799	0.1451	-0.0228	-0.6003	0.3812	-0.074	-0.697	-0.7681	-0.1252	-0.2845	0.2503	-0.1337
0.0171	0.2503	0.1479	-0.3215	0.606	-0.0028	-0.5263	0.3983	-0.2475	-0.6401	0.1508	0.0028	-0.606	0.3641	-0.0284	-0.7454	-0.7368	-0.1366	-0.2987	0.3215	-0.1394
0.0996	0.3385	0.2503	-0.2503	0.6116	0.0512	-0.4438	0.3784	-0.2731	-0.6316	0.1109	-0.0228	-0.6145	0.3528	0.0484	-0.7254	-0.6856	-0.1451	-0.2845	0.3613	-0.1337
0.1849	0.441	0.3613	-0.2077	0.6572	0.1309	-0.3442	0.3755	-0.2617	-0.5661	0.1337	0.0142	-0.5747	0.3186	0.0882	-0.6998	-0.6543	-0.1422	-0.2731	0.4296	-0.1081
0.3044	0.5434	0.5149	-0.0825	0.6913	0.2105	-0.2532	0.3841	-0.202	-0.4865	0.1394	0.0484	-0.532	0.3272	0.2134	-0.5974	-0.6486	-0.1081	-0.2191	0.5235	-0.0711
0.421	0.6429	0.6572	0.0256	0.7112	0.3072	-0.1394	0.3784	-0.1878	-0.404	0.1508	0.0882	-0.4722	0.3101	0.3357	-0.4552	-0.623	-0.1166	-0.2134	0.6031	-0.0626
0.5434	0.7425	0.825	0.1792	0.7311	0.4125	-0.0142	0.4068	-0.1309	-0.3215	0.1792	0.1422	-0.4153	0.3016	0.4779	-0.2816	-0.6145	-0.0825	-0.1764	0.6771	-0.0171
0.7027	0.8563	0.99	0.3186	0.7681	0.5291	0.1223	0.4068	-0.0654	-0.2361	0.1963	0.1935	-0.3641	0.3016	0.5775	-0.1053	-0.6031	-0.0541	-0.1508	0.7539	0.0199
0.8421	0.9616	1.1436	0.4836	0.8079	0.6173	0.2447	0.4182	-0.0284	-0.1081	0.2134	0.2475	-0.3101	0.2987	0.7141	0.0967	-0.5917	-0.0512	-0.1109	0.8307	0.0683
0.9729	1.0867	1.283	0.6344	0.8364	0.734	0.3897	0.4353	0.0541	-0.0057	0.2503	0.2987	-0.2191	0.3072	0.8335	0.3328	-0.6003	-0.0199	-0.0484	0.9018	0.1081
1.101	1.1721	1.4196	0.7766	0.8791	0.8421	0.5178	0.4609	0.1337	0.0967	0.3215	0.3869	-0.1309	0.293	0.9416	0.5377	-0.6031	0.0228	-0.0142	0.9786	0.1451
1.2773	1.2944	1.5761	0.9502	0.899	0.9416	0.6856	0.4495	0.2048	0.2048	0.3442	0.4722	-0.0341	0.3129	1.064	0.7169	-0.623	0.0626	0.0085	1.0412	0.2134
1.3854	1.3598	1.7098	1.0953	0.936	1.0412	0.8051	0.4779	0.293	0.3016	0.3983	0.5348	0.0256	0.3072	1.1351	0.8876	-0.6145	0.1081	0.074	1.0953	0.2703
1.5106	1.4082	1.8435	1.2318	0.9303	1.1294	0.8961	0.4751	0.3385	0.3727	0.4267	0.5889	0.1053	0.3072	1.2062	1.0327	-0.6173	0.1337	0.0967	1.1095	0.2873
1.6273	1.485	1.9516	1.3769	0.9246	1.1948	1.0156	0.4922	0.3954	0.4552	0.4865	0.6429	0.1593	0.3101	1.2631	1.1778	-0.6145	0.165	0.1366	1.1664	0.3556
1.724	1.522	2.0625	1.5135	0.9388	1.2546	1.101	0.5007	0.441	0.5092	0.5092	0.6685	0.1878	0.3072	1.3058	1.2887	-0.6088	0.1735	0.1565	1.1635	0.3585
1.815	1.559	2.1706	1.6614	0.9217	1.3342	1.1977	0.4836	0.495	0.5491	0.5547	0.7254	0.2418	0.3129	1.3456	1.3798	-0.6202	0.1963	0.1963	1.1692	0.4239
1.9146	1.6273	2.256	1.7667	0.916	1.3968	1.2489	0.5092	0.5291	0.5775	0.5804	0.7681	0.2873	0.3158	1.3684	1.4708	-0.6202	0.2162	0.2247	1.1692	0.4523
1.9942	1.6699	2.3698	1.8805	0.9616	1.4679	1.3428	0.5178	0.5718	0.6316	0.6202	0.8165	0.3158	0.33	1.4054	1.5846	-0.6543	0.2418	0.2646	1.1436	0.5064
2.0938	1.6842	2.4608	1.9772	0.9388	1.5334	1.3997	0.5149	0.6003	0.6429	0.6344	0.8335	0.3698	0.3357	1.4111	1.6728	-0.6685	0.256	0.293	1.1351	0.5291
2.1934	1.7126	2.549	2.0711	0.9673	1.5846	1.4423	0.5206	0.6316	0.6629	0.6828	0.8677	0.3897	0.3442	1.448	1.7752	-0.7055	0.2816	0.3243	1.1152	0.5775
2.2816	1.761	2.6372	2.1649	0.9587	1.6159	1.4765	0.5462	0.6287	0.6486	0.7055	0.8449	0.3755	0.367	1.4793	1.8719	-0.734	0.256	0.3385	1.0754	0.6031
2.3954	1.7809	2.7368	2.2645	1.0042	1.6842	1.522	0.5775	0.6429	0.6515	0.7254	0.8506	0.3897	0.3983	1.5334	1.9942	-0.7994	0.2873	0.3613	1.0498	0.6088
2.4807	1.8036	2.8193	2.3413	1.0099	1.7183	1.5334	0.5718	0.6316	0.6287	0.7283	0.8193	0.3698	0.4153	1.6102	2.0767	-0.8279	0.2703	0.3841	1.0156	0.6259
2.6343	1.8691	2.9245	2.4551	1.0412	1.778	1.596	0.6031	0.6458	0.6429	0.7681	0.8222	0.3841	0.4722	1.687	2.1849	-0.9217	0.2816	0.4125	1.0071	0.6429
2.6969	1.8975	2.9729	2.475	1.0725	1.8264	1.6244	0.6145	0.6543	0.6202	0.7738	0.7766	0.3727	0.4893	1.7638	2.2816	-0.9701	0.2646	0.4296	0.9616	0.6515
2.788	1.9203	3.0838	2.5461	1.1123	1.8577	1.6415	0.6259	0.6429	0.5974	0.788	0.7311	0.3585	0.5206	1.8492	2.3499	-1.0213	0.2731	0.4523	0.9445	0.6714
2.8619	1.9231	3.1322	2.5746	1.1152	1.889	1.6301	0.6202	0.6173	0.5775	0.7681	0.6714	0.3158	0.5377	1.9146	2.3954	-1.0697	0.2475	0.4637	0.9075	0.6401
2.9245	1.9317	3.1464	2.6002	1.1123	1.889	1.6244	0.623	0.5889	0.5405	0.734	0.6031	0.2674	0.5491	1.9516	2.384	-1.0839	0.2247	0.4694	0.8591	0.6116
2.9757	1.9089	3.2147	2.5661	1.101	1.8634	1.5903	0.6202	0.5377	0.4779	0.7055	0.4979	0.2048	0.5633	2.0113	2.3755	-1.1095	0.2105	0.4808	0.7937	0.6088
3.0269	1.8947	3.2232	2.5689	1.1067	1.8861	1.5817	0.623	0.5007	0.4353	0.6885	0.441	0.1565	0.5462	2.0142	2.3356	-1.1038	0.1735	0.4836	0.7397	0.6173
3.0184	1.8662	3.2062	2.512	1.064	1.8492	1.5504	0.5917	0.441	0.3926	0.6543	0.3328	0.0939	0.5434	2.0198	2.2446	-1.0924	0.1394	0.5035	0.6885	0.5661
3.0269	1.8548	3.209	2.4551	1.0611	1.8406	1.5135	0.5889	0.3556	0.3158	0.6173	0.2219	0.0142	0.5519	2.0511	2.2076	-1.081	0.0853	0.5121	0.6344	0.5547
3.0156	1.798	3.1976	2.3897	1.0128	1.798	1.4367	0.5576	0.2902	0.2475	0.5491	0.1024	-0.0797	0.5121	2.0426	2.091	-1.0298	0.0512	0.5064	0.5604	0.5149
3.0241	1.7809	3.1549	2.3214	1.0099	1.7638	1.3911	0.5491	0.2219	0.2105	0.4922	-0.0142	-0.1451	0.4979	2.0227	2.0113	-0.9929	0	0.5206	0.5291	0.4865
2.9729	1.7183	3.0867	2.2247	0.9587	1.687	1.32	0.5149	0.1252	0.1422	0.3983	-0.1565	-0.2219	0.4751	2.0198	1.8975	-0.9303	-0.0484	0.5149	0.4466	0.4353
2.9188	1.6699	3.0696	2.1365	0.9246	1.6358	1.2517	0.4865	0.0427	0.0569	0.3385	-0.293	-0.3272	0.4466	2.0085	1.798	-0.8876	-0.1024	0.5206	0.3897	0.4068
2.8249	1.5903	2.9757	1.9971	0.8364	1.5504	1.1436	0.4267	-0.0683	-0.037	0.2475	-0.4324	-0.4267	0.4068	1.9743	1.6529	-0.8023	-0.1821	0.5092	0.3158	0.3499
2.7481	1.5305	2.916	1.8605	0.7539	1.4879	1.0725	0.3528	-0.1963	-0.1223	0.128	-0.5946	-0.5462	0.3613	1.9743	1.5561	-0.7226	-0.2617	0.5121	0.2361	0.2902
2.6713	1.4679	2.8107	1.7467	0.6629	1.4025	0.9701	0.293	-0.2703	-0.2361	0.0171	-0.7681	-0.6429	0.3215	1.9288	1.4822	-0.6316	-0.3129	0.4808	0.1678	0.2304
2.5689	1.3712	2.714	1.6045	0.5804	1.2887	0.8563	0.2077	-0.421	-0.3272	-0.0797	-0.9274	-0.7567	0.2674	1.9288	1.4082	-0.5491	-0.4068	0.4779	0.1024	0.2077
2.4836	1.3058	2.6457	1.5049	0.5178	1.2261	0.771	0.1565	-0.5035	-0.421	-0.1963	-1.0839	-0.8307	0.2276	1.9288	1.3542	-0.4637	-0.4609	0.4751	0.037	0.1337
2.421	1.2574	2.549	1.3997	0.4466	1.1436	0.6828	0.074	-0.5974	-0.4836	-0.2987	-1.2517	-0.9388	0.1764	1.9544	1.3371	-0.3613	-0.5235	0.4751	-0.0228	0.0967
2.3214	1.1721	2.458	1.2773	0.3499	1.0583	0.5917	-0.0171	-0.7055	-0.5718	-0.4324	-1.394	-1.0298	0.1422	1.9772	1.3229	-0.2816	-0.5917	0.4637	-0.0768	0.0142
2.1934	1.1067	2.347	1.1607	0.2418	0.9673	0.4922	-0.1024	-0.8307	-0.6856	-0.5946	-1.5988	-1.1493	0.0825	1.9686	1.3257	-0.1792	-0.6799	0.4438	-0.1451	-0.0626
2.1251	1.0412	2.2332	1.0611	0.1593	0.8705	0.4153	-0.1991	-0.9274	-0.7311	-0.7084	-1.7553	-1.2261	0.0398	1.9829	1.3285	-0.0996	-0.7254	0.4296	-0.1707	-0.128
2.0113	1.0128	2.1308	0.9957	0.0853	0.8279	0.3613	-0.2703	-0.9815	-0.7852	-0.8136	-1.8805	-1.3001	0.0171	2.0312	1.3627	-0.0427	-0.7567	0.4239	-0.202	-0.1906
1.9573	0.9729	2.054	0.936	0.0427	0.7539	0.3186	-0.33	-1.0185	-0.8335	-0.9246	-2.0284	-1.3684	-0.0171	2.0995	1.4281	0.0256	-0.8079	0.4182	-0.2247	-0.2617
1.8918	0.936	1.9601	0.8933	0.0028	0.6913	0.2646	-0.404	-1.0924	-0.8506	-1.0185	-2.1422	-1.3968	-0.0427	2.1365	1.5049	0.0882	-0.8449	0.3698	-0.2361	-0.3272
1.8236	0.9217	1.889	0.8876	-0.0398	0.6458	0.2304	-0.458	-1.1266	-0.8677	-1.1067	-2.2446	-1.4566	-0.0626	2.1934	1.6073	0.128	-0.8762	0.367	-0.2503	-0.3784
1.7894	0.8933	1.8207	0.8335	-0.0825	0.6088	0.2048	-0.5064	-1.1579	-0.9047	-1.2176	-2.3527	-1.5078	-0.0853	2.2304	1.7012	0.1735	-0.9104	0.3072	-0.2532	-0.458
1.7382	0.8933	1.7695	0.8364	-0.1024	0.5804	0.1849	-0.5291	-1.1863	-0.899	-1.266	-2.4124	-1.5192	-0.0996	2.2901	1.8122	0.1906	-0.9246	0.2959	-0.2617	-0.5178
1.7183	0.9189	1.7154	0.8478	-0.1422	0.5974	0.202	-0.5917	-1.1806	-0.9132	-1.3371	-2.4665	-1.5362	-0.0967	2.3186	1.9459	0.1991	-0.936	0.2788	-0.2361	-0.5747
1.7268	0.9075	1.6842	0.8648	-0.1479	0.5832	0.202	-0.6003	-1.1607	-0.8791	-1.3854	-2.4978	-1.5078	-0.1024	2.3698	2.0967	0.1963	-0.9274	0.2447	-0.239	-0.6259
1.7154	0.9644	1.65	0.8961	-0.1166	0.6031	0.2361	-0.6003	-1.1294	-0.8222	-1.4139	-2.4949	-1.5135	-0.0996	2.3698	2.2218	0.1906	-0.9246	0.2162	-0.2048	-0.6629
1.7069	0.9843	1.6472	0.9502	-0.1252	0.6173	0.2674	-0.6458	-1.1095	-0.7966	-1.4623	-2.5262	-1.4907	-0.0996	2.3868	2.3726	0.1849	-0.9445	0.1821	-0.1878	-0.7254
1.7069	1.027	1.6443	0.9985	-0.091	0.6259	0.2959	-0.6372	-1.0583	-0.7567	-1.5106	-2.5063	-1.448	-0.0967	2.3755	2.4636	0.1764	-0.9587	0.1479	-0.1593	-0.7681
1.7382	1.0725	1.65	1.0668	-0.0455	0.6856	0.3414	-0.5974	-0.9957	-0.6913	-1.5078	-2.4836	-1.394	-0.0797	2.3499	2.5433	0.1394	-0.9274	0.1195	-0.1081	-0.7994
1.7695	1.1123	1.7098	1.1465	-0.0171	0.7112	0.3926	-0.5832	-0.9331	-0.6401	-1.5078	-2.4324	-1.3285	-0.0512	2.3527	2.6315	0.0882	-0.8933	0.0683	-0.0853	-0.8563
1.8008	1.1635	1.7439	1.2233	0.0256	0.7795	0.4808	-0.5576	-0.8535	-0.5718	-1.5192	-2.3811	-1.2745	-0.0171	2.3157	2.677	0.0427	-0.8791	0.0427	-0.0484	-0.9104
1.8748	1.2517	1.8036	1.3001	0.1053	0.8364	0.5263	-0.4865	-0.7596	-0.4836	-1.4936	-2.2986	-1.1863	0.0142	2.31	2.751	-0.0341	-0.8449	0.0085	0.0199	-0.9303
1.9231	1.32	1.8748	1.394	0.1935	0.9132	0.5832	-0.441	-0.66	-0.4097	-1.4509	-2.2161	-1.1123	0.0512	2.2873	2.7624	-0.1166	-0.8506	-0.0171	0.0569	-0.9758
2.0056	1.4054	1.9686	1.4936	0.2703	0.9843	0.6629	-0.3727	-0.5633	-0.3499	-1.4367	-2.1109	-1.0099	0.091	2.2844	2.7937	-0.1821	-0.8051	-0.0313	0.0683	-1.0042
2.0654	1.4879	2.0654	1.5817	0.3528	1.0782	0.7368	-0.3072	-0.4381	-0.2703	-1.3854	-1.9971	-0.9104	0.1223	2.2901	2.7567	-0.2674	-0.8023	-0.0541	0.1053	-1.0128
2.1536	1.5675	2.1564	1.6614	0.4637	1.1977	0.7937	-0.2361	-0.3101	-0.1622	-1.3371	-1.8577	-0.8165	0.1821	2.2958	2.7624	-0.3585	-0.751	-0.0882	0.1422	-1.0099
2.2702	1.6671	2.2759	1.7382	0.5661	1.3029	0.8535	-0.1422	-0.1622	-0.074	-1.283	-1.7325	-0.6913	0.2333	2.3214	2.768	-0.4523	-0.6998	-0.0882	0.1878	-1.0498
2.3584	1.7667	2.384	1.8036	0.6742	1.4054	0.9246	-0.0569	0	-0.0028	-1.2091	-1.5561	-0.5832	0.2731	2.3271	2.714	-0.5434	-0.6714	-0.0882	0.2191	-1.0156
2.4807	1.8918	2.5262	1.9061	0.8051	1.5419	0.9985	0.0541	0.1536	0.1138	-1.1152	-1.4025	-0.4751	0.3129	2.3072	2.6884	-0.6372	-0.6259	-0.0967	0.239	-1.0099
2.5718	1.9544	2.6429	1.9487	0.936	1.6756	1.0355	0.165	0.293	0.1735	-1.0185	-1.2489	-0.3585	0.3499	2.3328	2.6742	-0.7226	-0.6003	-0.0683	0.2247	-0.9957
2.6742	2.0739	2.7794	1.9886	1.0554	1.798	1.1038	0.2731	0.4637	0.2674	-0.9274	-1.0754	-0.2447	0.4097	2.384	2.6656	-0.8165	-0.5519	-0.0711	0.2674	-0.9616
2.8022	2.1706	2.9018	2.0426	1.1749	1.9487	1.1635	0.3613	0.6031	0.3328	-0.8449	-0.9104	-0.1309	0.4495	2.3612	2.6173	-0.8904	-0.5064	-0.0569	0.2788	-0.9388
2.8818	2.2275	3.0156	2.0568	1.2603	2.0711	1.1806	0.4466	0.7425	0.3897	-0.7567	-0.7482	-0.0484	0.4779	2.384	2.603	-0.9502	-0.4836	-0.0597	0.2902	-0.9303
2.9786	2.3129	3.1208	2.1024	1.3513	2.1877	1.2204	0.5747	0.8933	0.4353	-0.6885	-0.5804	0.0484	0.5092	2.4011	2.5974	-1.0071	-0.4609	-0.0455	0.276	-0.9018
3.0668	2.3669	3.209	2.091	1.4537	2.3328	1.2489	0.6515	1.0412	0.4808	-0.5917	-0.4296	0.1109	0.5348	2.4636	2.6116	-1.0583	-0.4068	-0.0256	0.2475	-0.8364
3.135	2.4153	3.3114	2.0853	1.5106	2.4295	1.2603	0.7197	1.1664	0.5434	-0.5121	-0.2646	0.2105	0.5462	2.4921	2.6173	-1.081	-0.3869	-0.0114	0.2503	-0.7966
3.2289	2.475	3.3968	2.0739	1.6273	2.5405	1.2773	0.8193	1.3172	0.5747	-0.4125	-0.1166	0.2816	0.5491	2.5746	2.6713	-1.1123	-0.3613	0.0057	0.256	-0.7454
3.2687	2.4836	3.448	2.0113	1.6813	2.6201	1.2404	0.8961	1.394	0.586	-0.3698	0.0171	0.3129	0.5491	2.6201	2.6713	-1.101	-0.3385	0.0199	0.239	-0.6856
3.3114	2.5319	3.4935	1.963	1.7297	2.6998	1.2318	0.9729	1.4964	0.6003	-0.2816	0.1479	0.3442	0.5462	2.6855	2.7168	-1.101	-0.3158	0.0284	0.2219	-0.6202
3.3313	2.5405	3.539	1.9061	1.7638	2.7538	1.1977	0.9815	1.5533	0.569	-0.2304	0.256	0.3528	0.5462	2.7538	2.7709	-1.0953	-0.3215	0.0256	0.2048	-0.5604
3.3399	2.5006	3.5219	1.8093	1.7723	2.7709	1.1408	1.0241	1.5988	0.5633	-0.1593	0.3357	0.3784	0.532	2.768	2.7424	-1.0554	-0.3129	0.0228	0.165	-0.495
3.3342	2.512	3.502	1.7126	1.761	2.7766	1.0526	1.0441	1.6443	0.5348	-0.1053	0.4239	0.3869	0.5235	2.8562	2.7538	-1.0384	-0.3101	0.0455	0.1337	-0.4438
3.3171	2.4807	3.4821	1.6017	1.7809	2.8107	0.9985	1.0668	1.7012	0.4922	-0.0256	0.5121	0.3698	0.4979	2.8932	2.7652	-1.0099	-0.3158	0.0427	0.1053	-0.3784
3.2488	2.4124	3.3911	1.4765	1.7382	2.768	0.8819	1.0697	1.7041	0.4267	0.0057	0.5547	0.33	0.4722	2.9245	2.7368	-0.9502	-0.3357	0.0341	0.0512	-0.3357
3.2005	2.3555	3.3143	1.357	1.7411	2.7197	0.8051	1.0782	1.6728	0.3727	0.0939	0.6088	0.2902	0.4466	2.9359	2.7225	-0.9104	-0.3556	0.0455	0.0398	-0.276
3.0867	2.2901	3.1919	1.2318	1.7041	2.6514	0.6941	1.101	1.6756	0.2902	0.128	0.6401	0.2646	0.441	2.9615	2.6941	-0.8677	-0.3613	0.0569	0.0085	-0.2162
2.9643	2.2446	3.0696	1.0583	1.6529	2.5803	0.5604	1.0668	1.5931	0.1849	0.1622	0.6316	0.1878	0.3926	2.9615	2.6543	-0.8079	-0.3812	0.037	-0.0256	-0.1821
2.8193	2.1308	2.916	0.899	1.5988	2.4836	0.458	1.0327	1.5192	0.0853	0.1878	0.6173	0.1024	0.3727	2.97	2.6286	-0.751	-0.421	0.0313	-0.0825	-0.128
2.6685	2.0312	2.7538	0.7681	1.559	2.384	0.2959	1.0156	1.4708	-0.0114	0.2276	0.6259	0.0398	0.3556	2.9615	2.6059	-0.7169	-0.4353	0.0341	-0.128	-0.0797
2.5149	1.9459	2.5689	0.5917	1.485	2.2474	0.1963	0.9644	1.357	-0.1337	0.2276	0.6031	-0.074	0.3186	2.9274	2.5831	-0.6657	-0.4808	0.037	-0.1309	-0.0199
2.3527	1.8122	2.347	0.4666	1.3826	2.0853	0.037	0.9075	1.2404	-0.2617	0.2162	0.5377	-0.1678	0.3016	2.9103	2.5917	-0.623	-0.5092	0.0228	-0.1764	-0.0028
2.1507	1.6586	2.1536	0.2873	1.3086	1.9032	-0.1223	0.8222	1.0981	-0.3983	0.2191	0.4609	-0.276	0.2703	2.8591	2.5632	-0.5491	-0.5348	-0.0057	-0.2077	0.0256
1.9573	1.5533	1.9203	0.1366	1.2034	1.7382	-0.2646	0.7567	0.9445	-0.532	0.1906	0.367	-0.4125	0.2418	2.8335	2.5831	-0.5064	-0.5718	-0.0199	-0.2475	0.0512
1.7809	1.4537	1.7098	0.037	1.1323	1.5476	-0.3983	0.6885	0.7966	-0.6316	0.1963	0.2674	-0.4979	0.2219	2.7965	2.5831	-0.4694	-0.5775	-0.0057	-0.2503	0.0541
1.5874	1.3229	1.4992	-0.0768	1.0355	1.3769	-0.5121	0.5974	0.6543	-0.7567	0.1309	0.1764	-0.606	0.1963	2.7225	2.5803	-0.4267	-0.6145	-0.0484	-0.2788	0.0569
1.431	1.2404	1.3229	-0.1878	0.9388	1.2148	-0.6202	0.4893	0.5007	-0.8705	0.1109	0.0569	-0.6941	0.1792	2.6969	2.5831	-0.3869	-0.6543	-0.0569	-0.3044	0.0797
1.229	1.1522	1.1038	-0.2475	0.8677	1.0412	-0.7169	0.4239	0.3414	-0.9701	0.0683	-0.037	-0.7766	0.1792	2.6656	2.5974	-0.3698	-0.6173	-0.0597	-0.3016	0.0825
1.0953	1.0697	0.9786	-0.3129	0.7909	0.8904	-0.8051	0.3442	0.2077	-1.0526	0.0228	-0.128	-0.8648	0.1678	2.603	2.586	-0.3556	-0.6316	-0.0541	-0.2674	0.1166
0.9843	0.9985	0.8051	-0.3556	0.6856	0.7681	-0.862	0.2333	0.0597	-1.1351	-0.037	-0.239	-0.936	0.1451	2.4978	2.5405	-0.3129	-0.6429	-0.0654	-0.3072	0.1309
0.8364	0.916	0.6856	-0.3897	0.606	0.6344	-0.9502	0.1337	-0.1138	-1.2347	-0.0967	-0.3784	-1.0241	0.1366	2.4636	2.5461	-0.2959	-0.6515	-0.0768	-0.3158	0.1138
0.7425	0.8506	0.5804	-0.3954	0.5348	0.5149	-0.9929	0.0541	-0.239	-1.2973	-0.1479	-0.4865	-1.0697	0.1422	2.3897	2.5234	-0.293	-0.6287	-0.0768	-0.3016	0.1337
0.6685	0.8023	0.4722	-0.4011	0.4523	0.3869	-1.0327	-0.0541	-0.3841	-1.3598	-0.2134	-0.586	-1.1436	0.1309	2.3242	2.5063	-0.2788	-0.6116	-0.1081	-0.2731	0.1138
0.5917	0.7454	0.3897	-0.3897	0.3385	0.2873	-1.0924	-0.1622	-0.5121	-1.4452	-0.2959	-0.734	-1.2148	0.1337	2.2588	2.4295	-0.2703	-0.6372	-0.1508	-0.2959	0.0996
0.5405	0.6828	0.3442	-0.3755	0.2418	0.2048	-1.1379	-0.276	-0.6515	-1.4907	-0.3897	-0.8335	-1.2546	0.1252	2.1735	2.4124	-0.2816	-0.6031	-0.1479	-0.2788	0.0939
0.5121	0.6372	0.3072	-0.3414	0.1508	0.1422	-1.1692	-0.3641	-0.7624	-1.5448	-0.421	-0.9473	-1.2859	0.1451	2.1052	2.3698	-0.2987	-0.6088	-0.1678	-0.2703	0.0853
0.4893	0.5832	0.2959	-0.3158	0.0569	0.0711	-1.192	-0.4609	-0.8563	-1.5988	-0.4808	-0.9985	-1.3314	0.1479	2.0284	2.2901	-0.3243	-0.6031	-0.1991	-0.2589	0.1053
0.4922	0.5405	0.2845	-0.2845	-0.0597	0.0114	-1.2432	-0.5604	-0.9616	-1.6557	-0.5377	-1.0867	-1.3627	0.1764	1.9516	2.2361	-0.3585	-0.5889	-0.202	-0.2788	0.0967
0.495	0.5235	0.3215	-0.2361	-0.1223	-0.0171	-1.2432	-0.6287	-1.0441	-1.6756	-0.5434	-1.1436	-1.3655	0.1935	1.9061	2.1877	-0.4011	-0.5519	-0.2077	-0.2447	0.1394
0.5291	0.4779	0.3442	-0.2134	-0.1821	-0.0484	-1.2859	-0.6828	-1.0953	-1.7126	-0.5462	-1.1806	-1.394	0.2247	1.8179	2.145	-0.4438	-0.5462	-0.1963	-0.2361	0.1622
0.5377	0.4751	0.3784	-0.1991	-0.293	-0.0711	-1.2773	-0.7539	-1.1607	-1.7268	-0.5405	-1.2119	-1.4167	0.2447	1.7894	2.0967	-0.4836	-0.5206	-0.2134	-0.2447	0.1764
0.5348	0.4267	0.3983	-0.1508	-0.3471	-0.1109	-1.3257	-0.788	-1.2062	-1.778	-0.5149	-1.2347	-1.4111	0.2845	1.7211	1.9942	-0.5434	-0.4893	-0.1991	-0.2361	0.2333
0.5491	0.3755	0.4068	-0.1678	-0.3755	-0.1223	-1.3456	-0.8023	-1.2574	-1.798	-0.4751	-1.2176	-1.4253	0.2873	1.6586	1.9117	-0.5775	-0.4722	-0.1878	-0.2304	0.2959
0.5519	0.3613	0.4353	-0.2048	-0.4353	-0.128	-1.3798	-0.8222	-1.2887	-1.8321	-0.4011	-1.1749	-1.4196	0.3129	1.596	1.7923	-0.6173	-0.458	-0.165	-0.2333	0.3784
0.5519	0.3328	0.4552	-0.239	-0.4751	-0.1394	-1.4367	-0.7909	-1.3143	-1.8577	-0.2845	-1.1067	-1.4111	0.3328	1.5049	1.7041	-0.6515	-0.4466	-0.1422	-0.256	0.4666
0.5121	0.3044	0.4609	-0.2674	-0.5007	-0.1707	-1.4623	-0.7766	-1.3143	-1.8947	-0.1735	-1.0441	-1.394	0.3585	1.4338	1.5675	-0.697	-0.4097	-0.0967	-0.2247	0.5576
0.5007	0.2674	0.4267	-0.3585	-0.5064	-0.1792	-1.5106	-0.6941	-1.2773	-1.9061	0.0142	-0.9189	-1.3428	0.3613	1.3428	1.4281	-0.7254	-0.3698	-0.0199	-0.2304	0.7112
0.4495	0.2532	0.4609	-0.458	-0.4922	-0.1792	-1.5533	-0.6031	-1.2802	-1.9146	0.1707	-0.7966	-1.2916	0.3841	1.2603	1.2916	-0.7596	-0.3243	0.0512	-0.2276	0.8335
0.3897	0.2333	0.404	-0.5519	-0.4979	-0.2048	-1.5988	-0.5291	-1.2318	-1.9146	0.3499	-0.6913	-1.2887	0.3897	1.1664	1.1294	-0.7624	-0.3072	0.1166	-0.2532	0.9701
0.3186	0.1678	0.367	-0.6742	-0.4836	-0.202	-1.6529	-0.4324	-1.1892	-1.9345	0.5348	-0.5576	-1.2233	0.3869	1.0583	0.9758	-0.7653	-0.2703	0.1935	-0.2674	1.1038
0.202	0.1166	0.2816	-0.8307	-0.495	-0.256	-1.7382	-0.3727	-1.1749	-1.9772	0.7112	-0.4552	-1.2176	0.3869	0.9303	0.771	-0.7454	-0.256	0.2532	-0.2959	1.2204
0.0967	0.0569	0.1707	-0.9872	-0.5007	-0.2674	-1.8065	-0.2617	-1.1664	-2.0113	0.8762	-0.33	-1.1749	0.3698	0.7966	0.5718	-0.7283	-0.239	0.3272	-0.3385	1.3798
-0.0171	-0.0057	0.0654	-1.1948	-0.4722	-0.3016	-1.9004	-0.1707	-1.1209	-2.0426	1.0754	-0.1991	-1.1579	0.3499	0.6458	0.3499	-0.7084	-0.2361	0.4011	-0.3841	1.522
-0.1764	-0.0939	-0.0569	-1.3655	-0.495	-0.3698	-2.0198	-0.0996	-1.1465	-2.1109	1.2432	-0.091	-1.155	0.3385	0.5035	0.1422	-0.6714	-0.2162	0.4751	-0.4267	1.6443
-0.3414	-0.165	-0.1593	-1.6244	-0.4979	-0.4182	-2.1251	-0.0398	-1.1607	-2.1849	1.3911	0.0228	-1.1436	0.3129	0.3641	-0.0967	-0.6316	-0.2191	0.5348	-0.5007	1.7723
-0.5263	-0.2589	-0.3698	-1.8605	-0.5832	-0.5291	-2.2645	-0.0114	-1.2062	-2.2787	1.5135	0.1053	-1.155	0.2731	0.1935	-0.3499	-0.5604	-0.2247	0.586	-0.5775	1.8634
-0.7197	-0.3528	-0.5491	-2.1223	-0.6031	-0.6145	-2.3982	0.0114	-1.2375	-2.3698	1.6301	0.1735	-1.1863	0.2361	0.0142	-0.5917	-0.4865	-0.2247	0.6116	-0.66	1.9573
-0.9331	-0.4836	-0.771	-2.384	-0.6913	-0.771	-2.5689	0.0455	-1.3314	-2.4807	1.7154	0.1991	-1.2261	0.2077	-0.1678	-0.8648	-0.404	-0.2532	0.6429	-0.771	2.0198
-1.1692	-0.6344	-1.0042	-2.6628	-0.7909	-0.9416	-2.7538	-0.0114	-1.4594	-2.6173	1.7524	0.1991	-1.3029	0.1422	-0.3641	-1.155	-0.2902	-0.3016	0.6543	-0.8933	2.0767
-1.4253	-0.7966	-1.2603	-2.9558	-0.9075	-1.1209	-2.9416	-0.0569	-1.5846	-2.7339	1.8093	0.1906	-1.3741	0.0825	-0.5747	-1.4452	-0.1906	-0.3442	0.6458	-0.9957	2.1393
-1.6671	-0.9559	-1.5163	-3.2232	-1.0241	-1.3285	-3.1521	-0.1109	-1.7467	-2.8932	1.8236	0.1735	-1.4651	0.0398	-0.7567	-1.6898	-0.0882	-0.4068	0.6401	-1.1294	2.1991
-1.9317	-1.1379	-1.8093	-3.5248	-1.1835	-1.5448	-3.3512	-0.2048	-1.9516	-3.0525	1.8008	0.0825	-1.6017	-0.0199	-0.99	-1.963	0.0455	-0.495	0.6088	-1.283	2.2218
-2.2133	-1.32	-2.0824	-3.8036	-1.3285	-1.7923	-3.5731	-0.3158	-2.1592	-3.2431	1.798	-0.0171	-1.7411	-0.0825	-1.1692	-2.2617	0.1593	-0.5775	0.5804	-1.4367	2.2674
-2.475	-1.522	-2.4068	-4.0795	-1.5305	-2.0597	-3.795	-0.4552	-2.3897	-3.4281	1.7524	-0.1252	-1.8805	-0.1394	-1.4082	-2.5376	0.2816	-0.6714	0.5434	-1.5846	2.2986
-2.7311	-1.7268	-2.7254	-4.3498	-1.6984	-2.3385	-4.0198	-0.5832	-2.6144	-3.6329	1.7098	-0.276	-2.0511	-0.2134	-1.6216	-2.805	0.4097	-0.788	0.5235	-1.7837	2.3413
-3.0241	-1.9345	-3.0497	-4.603	-1.8776	-2.6571	-4.2332	-0.7311	-2.879	-3.8206	1.6358	-0.4267	-2.2417	-0.2703	-1.8008	-3.0383	0.532	-0.9075	0.4637	-1.943	2.3499
-3.2972	-2.1393	-3.3456	-4.8249	-2.0739	-2.9416	-4.4607	-0.9132	-3.1436	-4.0226	1.5362	-0.6372	-2.4068	-0.33	-1.9971	-3.2915	0.6572	-1.0156	0.4353	-2.108	2.3726
-3.6016	-2.3584	-3.7012	-5.061	-2.2787	-3.2488	-4.6741	-1.0754	-3.4138	-4.2161	1.4509	-0.8193	-2.5888	-0.404	-2.1649	-3.4878	0.7852	-1.1522	0.3869	-2.2986	2.3982
-3.8263	-2.5803	-4.034	-5.2402	-2.4864	-3.5589	-4.8846	-1.2631	-3.6983	-4.4294	1.3598	-1.0384	-2.7766	-0.4552	-2.3584	-3.7154	0.9075	-1.283	0.3357	-2.4949	2.421
-4.0738	-2.768	-4.327	-5.4195	-2.6656	-3.8491	-5.0752	-1.3997	-3.9572	-4.5802	1.2745	-1.2375	-2.9444	-0.5206	-2.512	-3.906	1.0156	-1.3883	0.2987	-2.6543	2.4466
-4.3128	-2.97	-4.6144	-5.5617	-2.8477	-4.1165	-5.2175	-1.5504	-4.2132	-4.7168	1.1721	-1.4367	-3.1237	-0.5576	-2.6286	-4.0738	1.1038	-1.5135	0.2646	-2.7766	2.5149
-4.5034	-3.1692	-4.8875	-5.6812	-3.0127	-4.3469	-5.3483	-1.6813	-4.4238	-4.8619	1.1038	-1.6244	-3.2574	-0.6031	-2.7083	-4.199	1.1835	-1.5846	0.2589	-2.916	2.5632
-4.6769	-3.3057	-5.0781	-5.7239	-3.1493	-4.5518	-5.4337	-1.7866	-4.603	-4.9614	1.0327	-1.8008	-3.3797	-0.6145	-2.7766	-4.31	1.229	-1.6785	0.2304	-3.0298	2.64
-4.8448	-3.4593	-5.2886	-5.7864	-3.2915	-4.7651	-5.5048	-1.9061	-4.8107	-5.0553	0.9559	-1.9772	-3.5106	-0.66	-2.8505	-4.4095	1.2916	-1.7553	0.1935	-3.1606	2.6656
-4.9757	-3.5931	-5.4251	-5.7864	-3.3825	-4.8932	-5.5475	-1.9743	-4.9273	-5.1179	0.899	-2.108	-3.5788	-0.6543	-2.8762	-4.4778	1.3058	-1.8008	0.1764	-3.2431	2.7282
-5.0838	-3.6869	-5.5674	-5.7637	-3.4565	-5.024	-5.5674	-2.0284	-5.0695	-5.1321	0.8364	-2.2588	-3.6528	-0.6657	-2.8932	-4.566	1.3143	-1.8321	0.1622	-3.2972	2.8107
-5.152	-3.7666	-5.6385	-5.6983	-3.502	-5.1122	-5.5475	-2.0711	-5.1378	-5.1463	0.7994	-2.3897	-3.7125	-0.6742	-2.8961	-4.6001	1.3172	-1.8548	0.1849	-3.3598	2.8392
-5.1748	-3.7837	-5.6527	-5.6129	-3.5191	-5.1065	-5.4849	-2.0853	-5.1691	-5.1122	0.7738	-2.4523	-3.7125	-0.6344	-2.8733	-4.6371	1.2717	-1.8378	0.1935	-3.3683	2.9188
-5.1805	-3.815	-5.6357	-5.4877	-3.4935	-5.0951	-5.4052	-2.0312	-5.172	-5.0582	0.7766	-2.5177	-3.704	-0.6031	-2.8562	-4.6599	1.2034	-1.7894	0.239	-3.3569	3.0099
-5.1492	-3.795	-5.5674	-5.354	-3.4821	-5.0468	-5.317	-1.9999	-5.152	-4.9785	0.771	-2.5689	-3.6756	-0.5775	-2.8221	-4.6769	1.1408	-1.7581	0.2589	-3.3655	3.0781
-5.0781	-3.7325	-5.4251	-5.1691	-3.4081	-4.9387	-5.1833	-1.9402	-5.0439	-4.8647	0.8079	-2.586	-3.5731	-0.532	-2.7851	-4.6001	1.0526	-1.6642	0.33	-3.3086	3.1464
-4.9614	-3.6471	-5.2402	-4.9927	-3.3029	-4.8021	-5.0468	-1.8122	-4.9358	-4.7566	0.8705	-2.5746	-3.5077	-0.4808	-2.7567	-4.5489	0.9559	-1.5647	0.3926	-3.2574	3.2431
-4.8619	-3.5418	-5.0582	-4.8192	-3.1806	-4.6229	-4.8704	-1.7183	-4.8163	-4.6115	0.9246	-2.5461	-3.4025	-0.4381	-2.7339	-4.4863	0.8791	-1.4423	0.4466	-3.1749	3.3285
-4.7168	-3.4337	-4.8476	-4.6428	-3.0383	-4.4579	-4.7594	-1.5732	-4.657	-4.4693	0.9872	-2.5006	-3.2972	-0.404	-2.6884	-4.4181	0.7994	-1.3485	0.532	-3.1037	3.4081
-4.5489	-3.2887	-4.6058	-4.475	-2.9131	-4.2246	-4.5888	-1.4594	-4.5063	-4.3469	1.0469	-2.4494	-3.1948	-0.3812	-2.6514	-4.3242	0.7311	-1.2489	0.6202	-3.0156	3.4963
-4.3782	-3.135	-4.3384	-4.3071	-2.7168	-3.9999	-4.4294	-1.3172	-4.3299	-4.1962	1.118	-2.4153	-3.0554	-0.3328	-2.6372	-4.2673	0.6856	-1.1266	0.6941	-2.9359	3.5418
-4.2275	-2.9643	-4.0653	-4.1706	-2.5604	-3.7837	-4.2957	-1.1607	-4.1649	-4.0568	1.1778	-2.3527	-2.9387	-0.3243	-2.5945	-4.1592	0.6458	-1.0156	0.7994	-2.8534	3.613
-4.0255	-2.7737	-3.7723	-4.0198	-2.3413	-3.5532	-4.1649	-1.0128	-3.9743	-3.906	1.2489	-2.2873	-2.8136	-0.293	-2.549	-3.997	0.586	-0.899	0.8961	-2.7766	3.6756
-3.8406	-2.5632	-3.5106	-3.8889	-2.1564	-3.3256	-4.0084	-0.8506	-3.8036	-3.7552	1.3285	-2.2247	-2.7083	-0.2788	-2.4722	-3.8605	0.5491	-0.7823	0.99	-2.6799	3.7239
-3.6357	-2.3868	-3.2431	-3.8064	-1.9573	-3.0952	-3.8719	-0.6828	-3.6272	-3.6187	1.3826	-2.1536	-2.5746	-0.2674	-2.4096	-3.7268	0.5149	-0.6657	1.0725	-2.5945	3.7581
-3.4508	-2.2161	-2.97	-3.7012	-1.7894	-2.8961	-3.8007	-0.5718	-3.485	-3.4963	1.4139	-2.0967	-2.4693	-0.2589	-2.3129	-3.5447	0.5007	-0.5804	1.1408	-2.5149	3.7552
-3.2716	-2.017	-2.7225	-3.6244	-1.6187	-2.6969	-3.6642	-0.441	-3.3256	-3.3598	1.4793	-2.0568	-2.3783	-0.239	-2.2304	-3.3882	0.4865	-0.4666	1.192	-2.4295	3.7581
-3.0981	-1.852	-2.4722	-3.5703	-1.4594	-2.512	-3.613	-0.3215	-3.2232	-3.2744	1.5106	-2.0341	-2.2645	-0.2333	-2.1052	-3.1919	0.458	-0.3641	1.2574	-2.3555	3.7069
-2.9103	-1.6842	-2.256	-3.5106	-1.3143	-2.3555	-3.5191	-0.239	-3.0895	-3.1606	1.5334	-2.0028	-2.1792	-0.2247	-1.9459	-3.0013	0.4381	-0.293	1.2887	-2.2588	3.6699
-2.7652	-1.5391	-2.0654	-3.4878	-1.1692	-2.2105	-3.4593	-0.1451	-2.9871	-3.0525	1.5533	-1.9373	-2.0967	-0.2162	-1.8179	-2.788	0.4239	-0.2276	1.3229	-2.2161	3.6357
-2.5945	-1.4054	-1.889	-3.4565	-1.0526	-2.0881	-3.4053	-0.091	-2.8818	-2.9615	1.5504	-1.9203	-2.0028	-0.2105	-1.6813	-2.5888	0.4068	-0.1508	1.3399	-2.1251	3.5646
-2.458	-1.3058	-1.7297	-3.4736	-0.9445	-1.9999	-3.374	-0.0057	-2.8335	-2.8648	1.5448	-1.8975	-1.9373	-0.2162	-1.5448	-2.4153	0.404	-0.1081	1.3485	-2.0682	3.4707
-2.3356	-1.1835	-1.6102	-3.4508	-0.8563	-1.9089	-3.32	0.037	-2.7538	-2.7908	1.5192	-1.8947	-1.8805	-0.2162	-1.3798	-2.2645	0.4182	-0.0455	1.3371	-2.0056	3.3342
-2.2247	-1.101	-1.5078	-3.465	-0.7909	-1.8577	-3.2943	0.0626	-2.6941	-2.7339	1.5049	-1.8719	-1.8065	-0.202	-1.2517	-2.1166	0.4097	-0.0199	1.3257	-1.9402	3.2374
-2.1564	-1.0355	-1.4367	-3.4793	-0.7397	-1.8093	-3.2887	0.0768	-2.6372	-2.6855	1.4594	-1.8634	-1.7524	-0.2162	-1.0981	-1.9886	0.4381	-0.0028	1.2802	-1.9231	3.1009
-2.0682	-0.9843	-1.3826	-3.4793	-0.7055	-1.7695	-3.2488	0.0797	-2.5604	-2.6059	1.4253	-1.815	-1.6842	-0.2219	-0.9559	-1.8378	0.4381	0.0199	1.2432	-1.8292	2.97
-1.9459	-0.9331	-1.3172	-3.4593	-0.6657	-1.7041	-3.1549	0.0996	-2.4949	-2.4893	1.4025	-1.778	-1.5846	-0.2105	-0.8051	-1.6984	0.4239	0.0711	1.2062	-1.7553	2.8306
-1.8634	-0.9047	-1.2859	-3.4565	-0.6629	-1.6699	-3.1464	0.0967	-2.4238	-2.4324	1.3769	-1.7382	-1.5305	-0.2219	-0.6344	-1.5903	0.4267	0.0541	1.1522	-1.7069	2.6628
-1.8122	-0.8705	-1.2375	-3.4081	-0.6685	-1.6102	-3.0525	0.0797	-2.3413	-2.3186	1.3314	-1.6671	-1.4111	-0.2077	-0.4751	-1.4822	0.4097	0.0597	1.0867	-1.6329	2.5006
-1.6955	-0.8421	-1.1721	-3.3626	-0.6572	-1.5419	-2.9786	0.0797	-2.2759	-2.2161	1.2916	-1.613	-1.3001	-0.1878	-0.3101	-1.3399	0.3812	0.0996	1.0241	-1.559	2.3043
-1.5988	-0.8136	-1.0924	-3.2545	-0.6202	-1.4509	-2.8619	0.0683	-2.1564	-2.0853	1.2773	-1.5163	-1.1749	-0.1707	-0.091	-1.1721	0.3499	0.0967	0.9502	-1.4566	2.1336
-1.448	-0.7653	-1.0213	-3.1094	-0.6116	-1.3542	-2.7168	0.0882	-2.0056	-1.9288	1.266	-1.394	-1.0441	-0.1394	0.1309	-0.9872	0.2845	0.1422	0.9104	-1.3285	1.9658
-1.3229	-0.7084	-0.8848	-2.953	-0.5633	-1.2261	-2.5291	0.1081	-1.8207	-1.7667	1.2717	-1.2489	-0.8734	-0.1109	0.3158	-0.8449	0.2219	0.165	0.825	-1.2318	1.7894
-1.1465	-0.6202	-0.7795	-2.7567	-0.5149	-1.0754	-2.3385	0.1422	-1.6273	-1.5704	1.2603	-1.1266	-0.7226	-0.0853	0.4865	-0.6685	0.1536	0.202	0.7738	-1.0981	1.5732
-0.9644	-0.532	-0.6259	-2.5405	-0.4438	-0.8876	-2.1308	0.1792	-1.4025	-1.3741	1.2574	-0.9559	-0.532	-0.0427	0.6828	-0.495	0.0825	0.2532	0.7141	-0.9616	1.394
-0.8051	-0.4239	-0.4751	-2.3214	-0.3954	-0.7141	-1.9459	0.2191	-1.1892	-1.2119	1.2603	-0.8023	-0.3897	-0.0256	0.8677	-0.3556	0.0455	0.239	0.6401	-0.8591	1.2005
-0.5946	-0.2845	-0.3044	-2.0739	-0.3158	-0.532	-1.7126	0.2703	-0.9815	-1.0042	1.2517	-0.6344	-0.1963	0.0057	1.0526	-0.202	-0.0028	0.2418	0.5917	-0.734	0.9815
-0.3897	-0.165	-0.1024	-1.8036	-0.2105	-0.2902	-1.4566	0.3442	-0.7283	-0.8136	1.246	-0.458	-0.0654	0.0228	1.2318	-0.074	-0.0484	0.2219	0.532	-0.6429	0.8051
-0.1991	0.0028	0.1138	-1.5049	-0.1081	-0.074	-1.2148	0.404	-0.4609	-0.6173	1.2432	-0.2731	0.0967	0.0427	1.3854	0.0512	-0.0853	0.2105	0.5007	-0.5235	0.623
0.0228	0.165	0.3357	-1.2204	0.0199	0.1792	-1.0014	0.4779	-0.1878	-0.4296	1.2603	-0.0853	0.2532	0.0569	1.5248	0.1337	-0.1109	0.1849	0.4779	-0.4495	0.4694
0.2333	0.3272	0.5547	-0.9217	0.1451	0.3897	-0.7681	0.5377	0.0455	-0.2646	1.2517	0.0711	0.3641	0.0541	1.6244	0.2048	-0.1138	0.1252	0.4153	-0.3727	0.2816
0.4438	0.5235	0.8222	-0.6173	0.293	0.6458	-0.532	0.6173	0.3016	-0.1366	1.2603	0.2162	0.4609	0.0569	1.7524	0.2987	-0.1138	0.0654	0.4125	-0.3328	0.1109
0.6685	0.7084	1.0355	-0.3158	0.4466	0.8819	-0.3158	0.7027	0.5576	0.0256	1.2631	0.3727	0.5633	0.0569	1.8406	0.3755	-0.1024	-0.0398	0.3841	-0.2959	-0.0228
0.899	0.9047	1.2916	-0.0484	0.5889	1.118	-0.1024	0.7823	0.7852	0.1422	1.2546	0.532	0.6543	0.0228	1.943	0.4239	-0.0654	-0.1195	0.3698	-0.2532	-0.1622
1.118	1.1123	1.5504	0.2503	0.7226	1.3371	0.0825	0.8563	1.0355	0.2589	1.2574	0.6429	0.7084	0.0171	2.0312	0.5121	-0.0341	-0.2361	0.3784	-0.2447	-0.3016
1.3285	1.2802	1.7837	0.4922	0.8876	1.5732	0.2361	0.9189	1.2603	0.33	1.2745	0.7909	0.751	-0.0228	2.0682	0.5434	0.0114	-0.33	0.3585	-0.256	-0.404
1.5391	1.4765	2.0711	0.771	1.0327	1.8008	0.3641	1.0042	1.4708	0.3926	1.283	0.9217	0.8051	-0.0142	2.1564	0.6116	0.0427	-0.4438	0.3812	-0.2475	-0.4722
1.7354	1.6642	2.3299	0.9729	1.1778	2.0369	0.5263	1.064	1.6785	0.4438	1.2887	1.0355	0.8449	-0.0597	2.2105	0.6771	0.1138	-0.5348	0.367	-0.2589	-0.5491
1.9544	1.8406	2.5632	1.1863	1.3399	2.2503	0.6429	1.1266	1.8776	0.5035	1.283	1.1408	0.8648	-0.0853	2.2304	0.7454	0.1764	-0.6202	0.3983	-0.2703	-0.6316
2.1223	1.9886	2.7908	1.3741	1.4423	2.4096	0.7425	1.1835	2.0085	0.5178	1.283	1.2176	0.8364	-0.1223	2.273	0.7738	0.2475	-0.7254	0.3983	-0.2987	-0.66
2.3043	2.1479	3.0184	1.5504	1.5618	2.5974	0.825	1.2517	2.1649	0.5007	1.283	1.2973	0.8535	-0.1565	2.2873	0.8335	0.3044	-0.7966	0.4353	-0.3186	-0.6771
2.4608	2.2617	3.2346	1.6842	1.6642	2.768	0.8876	1.266	2.3043	0.4979	1.2631	1.3655	0.825	-0.1935	2.3015	0.8648	0.3869	-0.8705	0.4296	-0.3357	-0.6885
2.5803	2.3669	3.4281	1.7695	1.7411	2.8847	0.9132	1.3086	2.3925	0.4893	1.2347	1.3968	0.7738	-0.2447	2.2645	0.8677	0.4836	-0.9246	0.4353	-0.3727	-0.7027
2.6941	2.4551	3.5874	1.8349	1.8065	2.9928	0.9104	1.2916	2.475	0.4267	1.1806	1.4082	0.7169	-0.2959	2.2503	0.9132	0.5832	-0.99	0.4523	-0.4353	-0.697
2.7823	2.5518	3.7211	1.9004	1.8634	3.118	0.9274	1.3001	2.5234	0.3926	1.1493	1.4395	0.6657	-0.3442	2.2389	0.9331	0.6771	-1.0412	0.4779	-0.4666	-0.6429
2.8705	2.6315	3.869	1.9174	1.9089	3.2005	0.9303	1.3172	2.5774	0.3129	1.1323	1.4452	0.5974	-0.404	2.1877	0.9388	0.7937	-1.081	0.5007	-0.5206	-0.5946
2.9188	2.6998	3.9458	1.926	1.9573	3.2374	0.899	1.3172	2.5917	0.2276	1.1152	1.4338	0.5235	-0.4694	2.128	0.936	0.9075	-1.1038	0.5092	-0.5519	-0.5491
2.9416	2.7339	4.0198	1.8805	1.9715	3.2716	0.8591	1.2802	2.5774	0.1479	1.0839	1.4167	0.4011	-0.5178	2.0767	0.9274	1.0384	-1.1408	0.532	-0.606	-0.458
2.9587	2.7481	4.0938	1.8492	1.9857	3.2687	0.7937	1.2574	2.5319	0.0626	1.0384	1.3655	0.3414	-0.5747	2.0483	0.9416	1.1493	-1.1721	0.5491	-0.6429	-0.3784
2.9501	2.7937	4.1137	1.7581	1.9601	3.2631	0.751	1.2631	2.5063	-0.037	1.0099	1.3542	0.2418	-0.6259	1.98	0.9473	1.246	-1.1806	0.586	-0.6885	-0.2845
2.9188	2.768	4.1307	1.6728	1.9544	3.2175	0.6429	1.2091	2.4324	-0.1166	0.9673	1.2916	0.1508	-0.6799	1.9459	0.9331	1.357	-1.1948	0.5832	-0.7112	-0.1935
2.9018	2.7624	4.1364	1.5704	1.926	3.1834	0.586	1.1692	2.3755	-0.2077	0.9559	1.2404	0.0654	-0.7425	1.8918	0.9388	1.448	-1.1948	0.6031	-0.7567	-0.1053
2.7937	2.7026	4.0909	1.4594	1.9032	3.1123	0.495	1.1607	2.273	-0.3044	0.9559	1.1835	-0.0142	-0.7681	1.8776	0.9047	1.5192	-1.1863	0.6202	-0.7823	0.0057
2.7481	2.6799	4.0369	1.3314	1.852	3.0412	0.4239	1.1095	2.1763	-0.3727	0.9388	1.1379	-0.0541	-0.7937	1.8605	0.9132	1.5761	-1.155	0.6401	-0.8023	0.1138
2.6884	2.6315	4.0027	1.2062	1.798	2.9672	0.367	1.0668	2.0711	-0.4353	0.9502	1.101	-0.1109	-0.8108	1.8463	0.8904	1.5988	-1.1237	0.6657	-0.7937	0.2361
2.6116	2.5831	3.9231	1.0924	1.7325	2.8505	0.3158	1.0213	1.9601	-0.4865	0.9587	1.064	-0.1764	-0.8136	1.8378	0.9047	1.6159	-1.0782	0.6885	-0.7909	0.3585
2.5063	2.4807	3.8235	0.9445	1.6244	2.7282	0.2219	0.953	1.8321	-0.5377	0.9445	1.0014	-0.2162	-0.8279	1.8548	0.8933	1.6358	-1.0498	0.7169	-0.7738	0.4722
2.4124	2.3669	3.7239	0.825	1.5049	2.5632	0.1337	0.8705	1.687	-0.5917	0.9502	0.9559	-0.2589	-0.8136	1.8548	0.8762	1.6187	-0.99	0.7112	-0.7681	0.5889
2.2588	2.2645	3.5987	0.6515	1.4167	2.421	0.0683	0.7909	1.5305	-0.66	0.9331	0.899	-0.33	-0.8193	1.8435	0.8421	1.6045	-0.9416	0.7141	-0.7823	0.7027
2.1308	2.145	3.4337	0.5235	1.2688	2.2446	-0.0142	0.7055	1.3598	-0.7084	0.9132	0.8307	-0.3812	-0.788	1.852	0.8051	1.5533	-0.8762	0.7226	-0.7681	0.8307
1.9487	1.9857	3.2574	0.367	1.1266	2.0227	-0.1109	0.606	1.1721	-0.7653	0.8876	0.7397	-0.441	-0.7567	1.8036	0.7112	1.4964	-0.8421	0.6998	-0.7823	0.9303
1.7581	1.8321	3.0639	0.1764	0.9502	1.7951	-0.2134	0.4779	0.953	-0.8478	0.8563	0.6429	-0.5121	-0.7226	1.7638	0.6116	1.431	-0.7966	0.6941	-0.788	0.9872
1.5874	1.6642	2.8335	0.0114	0.7766	1.5504	-0.3186	0.3385	0.7482	-0.9047	0.8222	0.5377	-0.5804	-0.6913	1.7041	0.4922	1.3627	-0.7567	0.6657	-0.7852	1.0725
1.3598	1.4679	2.6002	-0.1792	0.5775	1.3115	-0.4097	0.2162	0.5235	-0.9929	0.7852	0.421	-0.6344	-0.6458	1.6244	0.367	1.283	-0.7226	0.6344	-0.7852	1.1436
1.1408	1.2631	2.3413	-0.367	0.3727	1.0498	-0.5291	0.0455	0.293	-1.0839	0.7311	0.2959	-0.734	-0.6088	1.5448	0.2191	1.2034	-0.6828	0.6003	-0.8222	1.2119
0.8848	1.0441	2.0711	-0.5491	0.165	0.751	-0.66	-0.1166	0.0313	-1.1635	0.6771	0.1678	-0.825	-0.5604	1.4253	0.0654	1.1209	-0.6629	0.5462	-0.8222	1.2574
0.6657	0.8279	1.8179	-0.7454	-0.0512	0.4808	-0.7994	-0.2447	-0.2105	-1.229	0.6401	0.0228	-0.8876	-0.5405	1.3257	-0.1223	1.0355	-0.6771	0.4922	-0.8449	1.3143
0.4353	0.6543	1.5277	-0.8819	-0.276	0.2134	-0.8848	-0.4296	-0.4353	-1.3456	0.5917	-0.1024	-0.9929	-0.4722	1.2091	-0.276	0.9303	-0.6458	0.4466	-0.8478	1.3598
0.2219	0.4381	1.2887	-1.0498	-0.4836	-0.0541	-0.9872	-0.5889	-0.6828	-1.4054	0.5405	-0.2418	-1.0327	-0.4153	1.101	-0.4097	0.825	-0.6202	0.3784	-0.8364	1.4367
0.0171	0.2276	1.0156	-1.1977	-0.6828	-0.3186	-1.1067	-0.751	-0.9473	-1.5106	0.5092	-0.4068	-1.1266	-0.3698	0.9957	-0.532	0.7311	-0.5917	0.3129	-0.862	1.4651
-0.1536	0.0541	0.788	-1.3143	-0.8819	-0.5576	-1.1664	-0.9132	-1.1579	-1.5533	0.4808	-0.5149	-1.1721	-0.3272	0.9303	-0.6202	0.623	-0.5491	0.2475	-0.8563	1.5362
-0.3613	-0.165	0.5206	-1.4367	-1.081	-0.8307	-1.2859	-1.064	-1.4025	-1.6586	0.4438	-0.6543	-1.2404	-0.2731	0.8193	-0.7112	0.5235	-0.5263	0.1678	-0.8677	1.5931
-0.532	-0.3215	0.2987	-1.5618	-1.2574	-1.0498	-1.3684	-1.2091	-1.6329	-1.7069	0.4068	-0.8165	-1.3086	-0.2105	0.7311	-0.7596	0.4239	-0.4979	0.1195	-0.8648	1.6329
-0.6913	-0.5035	0.0683	-1.6671	-1.4395	-1.2859	-1.448	-1.3655	-1.8691	-1.8065	0.3755	-0.9701	-1.3854	-0.1508	0.6572	-0.7852	0.3328	-0.4722	0.0341	-0.899	1.6728
-0.8591	-0.6913	-0.128	-1.7382	-1.6073	-1.522	-1.5561	-1.4793	-2.1137	-1.9032	0.3499	-1.1351	-1.4679	-0.1223	0.5718	-0.8364	0.2475	-0.4267	-0.0085	-0.9217	1.7325
-0.9872	-0.8591	-0.3101	-1.8435	-1.7866	-1.6984	-1.6472	-1.613	-2.3356	-2.0142	0.33	-1.3115	-1.5248	-0.0853	0.5149	-0.8506	0.1707	-0.4125	-0.0654	-0.9416	1.7837
-1.1152	-0.9815	-0.5235	-1.9004	-1.9231	-1.8861	-1.7297	-1.7069	-2.549	-2.0881	0.3101	-1.4879	-1.613	-0.0541	0.495	-0.8449	0.1053	-0.3784	-0.1081	-0.953	1.8321
-1.2062	-1.118	-0.6657	-1.963	-2.0312	-2.0654	-1.8236	-1.7723	-2.7567	-2.1706	0.293	-1.6557	-1.687	-0.0114	0.4296	-0.8421	0.0313	-0.367	-0.1707	-0.9786	1.8748
-1.283	-1.2233	-0.8364	-1.9999	-2.128	-2.2161	-1.9061	-1.8406	-2.9387	-2.2332	0.3186	-1.798	-1.7467	0.0142	0.3897	-0.825	-0.0341	-0.3016	-0.1821	-0.9758	1.943
-1.3229	-1.2973	-0.9217	-2.0455	-2.219	-2.3584	-1.9686	-1.8776	-3.135	-2.3186	0.3158	-1.9772	-1.8122	0.0455	0.3983	-0.7397	-0.1053	-0.276	-0.202	-0.9985	2.0113
-1.3655	-1.3542	-1.0213	-2.0198	-2.2588	-2.4551	-2.0341	-1.9146	-3.2858	-2.3868	0.3471	-2.1308	-1.8691	0.0967	0.4637	-0.6401	-0.1792	-0.2304	-0.1935	-0.9985	2.0995
-1.3627	-1.3826	-1.0981	-2.0312	-2.2759	-2.5405	-2.0654	-1.9089	-3.4309	-2.4494	0.4068	-2.2588	-1.926	0.1138	0.4666	-0.5348	-0.2361	-0.1707	-0.1821	-1.0099	2.1649
-1.3598	-1.4139	-1.1863	-2.017	-2.2702	-2.5803	-2.1336	-1.9004	-3.5504	-2.5063	0.4609	-2.4153	-1.9857	0.1508	0.5121	-0.4324	-0.3072	-0.1024	-0.1792	-1.0042	2.2446
-1.3257	-1.4082	-1.1977	-1.9942	-2.2645	-2.6343	-2.1735	-1.8349	-3.667	-2.5291	0.5348	-2.512	-1.9914	0.1849	0.5917	-0.2845	-0.3784	-0.037	-0.1508	-0.9872	2.3299
-1.2802	-1.3911	-1.2318	-1.9516	-2.2247	-2.6571	-2.2105	-1.7467	-3.741	-2.5518	0.6344	-2.6087	-1.9857	0.2105	0.6486	-0.1735	-0.4353	0.0284	-0.091	-0.9758	2.4295
-1.246	-1.3285	-1.2318	-1.9089	-2.1649	-2.6713	-2.2474	-1.6557	-3.8036	-2.5575	0.7482	-2.6685	-1.9857	0.2447	0.7112	-0.0597	-0.495	0.1024	-0.0256	-0.9502	2.5262
-1.192	-1.2859	-1.2204	-1.8548	-2.0796	-2.6429	-2.2446	-1.5163	-3.8349	-2.5718	0.8961	-2.7225	-1.9686	0.2816	0.8051	0.091	-0.5519	0.2105	0.0199	-0.9132	2.6486
-1.1123	-1.1948	-1.2062	-1.8065	-1.9743	-2.6258	-2.2645	-1.3712	-3.8491	-2.5774	1.0298	-2.7624	-1.9544	0.2902	0.8848	0.1735	-0.5832	0.2902	0.0996	-0.8961	2.7794
-1.0384	-1.1123	-1.1664	-1.6984	-1.8378	-2.5718	-2.2674	-1.2176	-3.8519	-2.5518	1.2233	-2.7453	-1.9004	0.3101	0.9701	0.3044	-0.6316	0.3897	0.1963	-0.8648	2.9103
-0.9502	-1.0298	-1.1294	-1.6614	-1.724	-2.5348	-2.2901	-1.0725	-3.8548	-2.549	1.3456	-2.788	-1.8861	0.3158	1.0583	0.404	-0.6316	0.4722	0.2532	-0.8449	3.0013
-0.9018	-0.9473	-1.0896	-1.6102	-1.596	-2.5035	-2.3242	-0.9104	-3.8519	-2.5604	1.5192	-2.7851	-1.8776	0.3243	1.1237	0.4523	-0.6401	0.5576	0.3414	-0.8392	3.118
-0.8392	-0.862	-1.0697	-1.5675	-1.4879	-2.4779	-2.3584	-0.751	-3.8491	-2.5461	1.6671	-2.7908	-1.8577	0.3072	1.1465	0.5206	-0.606	0.6401	0.3812	-0.8563	3.2062
-0.7823	-0.771	-1.027	-1.5533	-1.3769	-2.4409	-2.3584	-0.5917	-3.8491	-2.5348	1.8179	-2.8107	-1.8406	0.2902	1.1892	0.5491	-0.5917	0.7027	0.4694	-0.8449	3.2858
-0.7482	-0.6885	-1.0327	-1.5192	-1.2517	-2.4409	-2.4039	-0.4609	-3.8519	-2.5433	1.9573	-2.8164	-1.815	0.293	1.2375	0.586	-0.5832	0.788	0.532	-0.8506	3.3768
-0.7055	-0.6202	-1.0042	-1.5135	-1.1493	-2.4494	-2.458	-0.3215	-3.869	-2.5774	2.0796	-2.8335	-1.815	0.276	1.2603	0.586	-0.5547	0.8591	0.5718	-0.8961	3.4508
-0.6998	-0.5462	-0.9815	-1.5277	-1.0355	-2.438	-2.5035	-0.1735	-3.8832	-2.5945	2.2048	-2.8193	-1.8065	0.2646	1.2944	0.5889	-0.5206	0.8933	0.6173	-0.9047	3.5362
-0.6685	-0.4751	-0.99	-1.5305	-0.9758	-2.4551	-2.549	-0.0597	-3.8975	-2.6315	2.3186	-2.8363	-1.8036	0.2333	1.2603	0.5661	-0.4722	0.9246	0.6572	-0.9502	3.576
-0.6572	-0.421	-1.0128	-1.5732	-0.899	-2.4893	-2.6116	0.0683	-3.9145	-2.6599	2.4153	-2.8249	-1.8292	0.2191	1.2546	0.5462	-0.4267	0.9701	0.6941	-1.0071	3.6471
-0.6771	-0.3897	-1.0298	-1.6159	-0.8449	-2.5234	-2.6855	0.1678	-3.9316	-2.7254	2.5149	-2.8306	-1.8577	0.1821	1.2375	0.4893	-0.367	1.0384	0.7055	-1.064	3.7182
-0.7084	-0.3641	-1.0668	-1.6813	-0.7852	-2.586	-2.7737	0.2617	-3.9771	-2.7794	2.5917	-2.8392	-1.8975	0.1508	1.2062	0.4296	-0.2959	1.0071	0.7397	-1.1294	3.7524
-0.7311	-0.3186	-1.1038	-1.7496	-0.7368	-2.6258	-2.8306	0.3812	-3.9714	-2.8221	2.714	-2.768	-1.8776	0.1223	1.1806	0.3641	-0.2475	1.0498	0.8023	-1.1863	3.8434
-0.7368	-0.276	-1.1408	-1.8406	-0.6856	-2.6884	-2.879	0.4751	-3.9743	-2.8591	2.8136	-2.7481	-1.889	0.0825	1.1351	0.3016	-0.1849	1.0924	0.8506	-1.246	3.9145
-0.7852	-0.2902	-1.1892	-1.9658	-0.6771	-2.7652	-2.9899	0.5462	-4.0198	-2.9018	2.9103	-2.6912	-1.8947	0.0455	1.0554	0.1991	-0.0967	1.0867	0.8848	-1.2973	3.9828
-0.8478	-0.2902	-1.2603	-2.0654	-0.6572	-2.8221	-3.0554	0.606	-4.0113	-2.97	2.9899	-2.6457	-1.9089	0.0142	1.0042	0.0996	-0.0256	1.1038	0.9388	-1.3627	4.0511
-0.9018	-0.3072	-1.3428	-2.2048	-0.6543	-2.9217	-3.1322	0.6515	-4.0255	-3.0298	3.0753	-2.5803	-1.926	-0.0398	0.9502	0.0057	0.0711	1.118	0.9929	-1.4367	4.1364
-0.9616	-0.3499	-1.4253	-2.3413	-0.6344	-3.0184	-3.2545	0.6913	-4.034	-3.081	3.1578	-2.5149	-1.9317	-0.0711	0.8478	-0.1053	0.1394	1.1436	1.0498	-1.4964	4.1962
-1.027	-0.3613	-1.5391	-2.4893	-0.66	-3.1151	-3.3285	0.7368	-4.0681	-3.1521	3.2261	-2.4665	-1.9459	-0.1138	0.7966	-0.2219	0.2191	1.1351	1.0754	-1.5647	4.2588
-1.118	-0.4097	-1.6358	-2.6628	-0.697	-3.2175	-3.4423	0.7567	-4.108	-3.2289	3.2346	-2.4324	-1.98	-0.1565	0.7254	-0.3528	0.3044	1.1237	1.1038	-1.6415	4.3014
-1.1892	-0.4694	-1.7524	-2.8449	-0.771	-3.3285	-3.5447	0.734	-4.1393	-3.3057	3.2659	-2.3954	-2.0056	-0.1849	0.6742	-0.4552	0.3841	1.1294	1.1351	-1.7069	4.31
-1.2887	-0.5348	-1.8719	-3.0184	-0.8023	-3.4394	-3.6357	0.734	-4.1848	-3.3797	3.2773	-2.3328	-2.0511	-0.2333	0.5804	-0.6344	0.4552	1.1095	1.1749	-1.7809	4.3157
-1.3741	-0.6088	-1.98	-3.1692	-0.8563	-3.5418	-3.7495	0.734	-4.2047	-3.4537	3.2887	-2.3015	-2.0853	-0.256	0.5405	-0.7169	0.5064	1.118	1.1892	-1.8236	4.3441
-1.4623	-0.6998	-2.1109	-3.3655	-0.9331	-3.6443	-3.8548	0.6885	-4.2588	-3.5191	3.2915	-2.2531	-2.1251	-0.293	0.4609	-0.8591	0.5604	1.0924	1.2062	-1.8975	4.3242
-1.5391	-0.7567	-2.1792	-3.4793	-0.9673	-3.7239	-3.9373	0.6714	-4.2531	-3.5731	3.3086	-2.1849	-2.1365	-0.2873	0.4495	-0.99	0.586	1.0953	1.2404	-1.9373	4.327
-1.596	-0.8079	-2.2901	-3.6272	-1.0213	-3.7922	-4.0056	0.6515	-4.2559	-3.6101	3.2972	-2.1024	-2.1706	-0.293	0.421	-1.0697	0.5804	1.1038	1.266	-1.9772	4.3441
-1.6244	-0.8335	-2.3356	-3.7495	-1.0128	-3.8064	-4.0568	0.6572	-4.2161	-3.6414	3.3285	-1.9971	-2.1393	-0.2816	0.4523	-1.1493	0.5604	1.1294	1.3086	-1.98	4.3384
-1.65	-0.8734	-2.3982	-3.8377	-1.0583	-3.8036	-4.0852	0.6685	-4.1421	-3.6443	3.3484	-1.8719	-2.1109	-0.2902	0.4552	-1.2176	0.5348	1.1778	1.3485	-1.9886	4.3441
-1.6699	-0.9047	-2.421	-3.9088	-1.0697	-3.8036	-4.1307	0.6543	-4.0767	-3.6357	3.3712	-1.7325	-2.0625	-0.2532	0.4552	-1.2574	0.5035	1.1892	1.3769	-2.0056	4.3327
-1.6614	-0.8961	-2.4295	-3.9686	-1.0498	-3.7609	-4.1165	0.6913	-3.997	-3.6073	3.4252	-1.559	-2.0142	-0.2333	0.5235	-1.2802	0.4523	1.2233	1.4509	-1.9999	4.3242
-1.6273	-0.9075	-2.421	-4.0255	-1.0298	-3.7154	-4.1051	0.7197	-3.8662	-3.5475	3.4793	-1.3883	-1.943	-0.2048	0.5604	-1.2887	0.4011	1.2717	1.4679	-1.98	4.3384
-1.5846	-0.8904	-2.384	-4.0226	-1.0156	-3.6386	-4.071	0.7368	-3.7268	-3.5162	3.5219	-1.2005	-1.8406	-0.1735	0.6316	-1.2887	0.3471	1.3513	1.4736	-1.98	4.327
-1.5561	-0.8677	-2.3555	-4.0397	-0.9786	-3.5675	-4.0397	0.7823	-3.5874	-3.4366	3.5902	-0.9872	-1.7354	-0.1422	0.7311	-1.2062	0.2873	1.3911	1.5334	-1.9373	4.327
-1.4765	-0.8193	-2.2986	-3.9856	-0.9104	-3.4508	-3.96	0.8392	-3.411	-3.3256	3.6727	-0.7852	-1.6045	-0.1223	0.7994	-1.1522	0.2191	1.4793	1.5761	-1.9061	4.31
-1.3968	-0.7795	-2.2389	-3.9401	-0.8876	-3.3399	-3.9003	0.8734	-3.2175	-3.209	3.7609	-0.5604	-1.4566	-0.0825	0.916	-1.0668	0.1422	1.5476	1.6273	-1.8435	4.3242
-1.3143	-0.7311	-2.1479	-3.8775	-0.8108	-3.1919	-3.8292	0.9445	-3.0127	-3.0981	3.8206	-0.3328	-1.2973	-0.0284	1.0611	-0.9445	0.0626	1.6386	1.6586	-1.8093	4.3014
-1.1806	-0.6543	-2.0113	-3.7637	-0.7397	-3.0468	-3.7268	0.99	-2.805	-2.9501	3.8918	-0.0853	-1.1209	0.0085	1.1835	-0.7994	-0.0427	1.7411	1.6728	-1.7467	4.2758
-1.0583	-0.5462	-1.8975	-3.6556	-0.6543	-2.8961	-3.5959	1.0867	-2.5803	-2.7937	3.9657	0.1479	-0.9473	0.0683	1.3485	-0.6372	-0.1337	1.8492	1.6955	-1.687	4.2673
-0.9018	-0.4722	-1.7581	-3.5305	-0.5775	-2.7396	-3.4622	1.1351	-2.3413	-2.6258	4.0454	0.4068	-0.7681	0.1195	1.4907	-0.4865	-0.2333	1.9573	1.7041	-1.5988	4.2588
-0.7681	-0.367	-1.5874	-3.3768	-0.4865	-2.5291	-3.32	1.2119	-2.108	-2.4437	4.1023	0.6372	-0.5832	0.1678	1.6529	-0.3016	-0.33	2.0625	1.7297	-1.5192	4.2246
-0.5832	-0.2503	-1.4338	-3.1976	-0.3841	-2.3271	-3.1606	1.2717	-1.852	-2.2588	4.1478	0.862	-0.367	0.2105	1.8008	-0.1195	-0.4239	2.1877	1.7069	-1.4395	4.1791
-0.4381	-0.1166	-1.2404	-3.0042	-0.293	-2.1336	-2.9729	1.3257	-1.6017	-2.0739	4.2075	1.0924	-0.1735	0.256	1.9317	0.0711	-0.5149	2.2816	1.7183	-1.3627	4.1137
-0.2788	0.0171	-1.0554	-2.7937	-0.1821	-1.9402	-2.7851	1.3968	-1.3342	-1.8691	4.2758	1.3371	0.0683	0.3072	2.0682	0.2475	-0.6116	2.384	1.7211	-1.246	4.071
-0.0967	0.1536	-0.8791	-2.586	-0.0768	-1.7411	-2.5774	1.4736	-1.064	-1.6557	4.3185	1.5732	0.2731	0.3528	2.1678	0.4438	-0.7027	2.4921	1.687	-1.1436	4.0056
0.0541	0.2987	-0.6771	-2.3499	0.0284	-1.522	-2.3726	1.5277	-0.8136	-1.4395	4.3583	1.815	0.4922	0.3954	2.2759	0.6344	-0.8023	2.6116	1.6842	-1.0498	3.9686
0.2532	0.4893	-0.4466	-2.0938	0.1821	-1.246	-2.1166	1.6415	-0.5007	-1.1892	4.475	2.0824	0.7539	0.4666	2.3954	0.8136	-0.9189	2.751	1.6927	-0.9303	3.9401
0.4438	0.6372	-0.2247	-1.8605	0.2873	-1.0412	-1.8918	1.724	-0.1991	-0.9587	4.5404	2.3612	1.0128	0.5092	2.4949	0.9843	-1.0213	2.8762	1.7098	-0.8136	3.9145
0.6031	0.8279	-0.0171	-1.5846	0.4381	-0.7852	-1.6102	1.852	0.0939	-0.6885	4.6229	2.6343	1.2717	0.5661	2.6059	1.1465	-1.1237	3.0184	1.7126	-0.6657	3.8861
0.7624	1.0042	0.2077	-1.3513	0.5604	-0.5775	-1.3883	1.9544	0.3727	-0.4324	4.7111	2.8989	1.522	0.6116	2.677	1.2574	-1.1977	3.1464	1.7354	-0.5291	3.8548
0.9303	1.1806	0.4097	-1.0469	0.697	-0.3357	-1.1123	2.0739	0.6913	-0.1508	4.8163	3.1862	1.8065	0.6429	2.7424	1.394	-1.2887	3.2716	1.7638	-0.3613	3.8434
1.1095	1.3769	0.6515	-0.7937	0.8307	-0.1166	-0.8279	2.1735	0.9957	0.1024	4.9387	3.4878	2.0967	0.6913	2.8449	1.4964	-1.3627	3.4167	1.798	-0.2247	3.8263
1.2944	1.5305	0.8535	-0.5462	0.9929	0.1252	-0.569	2.3186	1.3086	0.3954	5.0496	3.7751	2.3641	0.7283	2.8961	1.5789	-1.4423	3.5902	1.8292	-0.0427	3.8263
1.4253	1.7183	1.0384	-0.3186	1.118	0.3186	-0.3158	2.4238	1.6017	0.697	5.1833	4.0681	2.6486	0.751	2.9558	1.6273	-1.4907	3.7211	1.8548	0.1195	3.8406
1.5761	1.8577	1.2233	-0.0939	1.2233	0.5092	-0.074	2.5461	1.8492	0.9587	5.2829	4.3384	2.9103	0.7738	3.007	1.6955	-1.5391	3.8576	1.8805	0.2902	3.869
1.6984	1.9942	1.3883	0.1081	1.3513	0.7055	0.1565	2.6486	2.1223	1.2062	5.3796	4.6172	3.1862	0.8079	3.044	1.6984	-1.596	3.9913	1.9544	0.4239	3.9031
1.815	2.1308	1.5561	0.3072	1.4452	0.8762	0.3869	2.7453	2.3868	1.4708	5.4764	4.8875	3.4281	0.8193	3.0696	1.7268	-1.6443	4.125	1.9715	0.5889	3.9145
1.9288	2.2503	1.6984	0.4751	1.5419	1.0156	0.5946	2.8619	2.6315	1.7154	5.5873	5.135	3.667	0.8335	3.1151	1.7496	-1.6614	4.2417	2.0227	0.7397	3.9487
2.0284	2.3129	1.8321	0.6515	1.613	1.1294	0.7852	2.9359	2.8562	1.9516	5.63	5.3882	3.9031	0.8478	3.1777	1.798	-1.6984	4.3725	2.0455	0.9018	3.9572
2.1109	2.3897	1.9459	0.7823	1.6756	1.2802	0.9758	3.0326	3.1009	2.1962	5.7324	5.6158	4.1137	0.8563	3.2033	1.8264	-1.7183	4.4977	2.1024	1.0611	3.9942
2.1905	2.4551	2.0369	0.8904	1.724	1.3712	1.155	3.1123	3.2887	2.3982	5.7978	5.8377	4.327	0.8677	3.2773	1.8634	-1.7354	4.5973	2.1422	1.1977	4.0482
2.2645	2.512	2.1166	0.9929	1.7894	1.4793	1.3143	3.2005	3.5134	2.6286	5.9002	6.0567	4.5546	0.8734	3.3285	1.9146	-1.7496	4.7111	2.1934	1.3655	4.1137
2.3385	2.549	2.1934	1.0981	1.8406	1.5618	1.4765	3.2915	3.7069	2.8392	6.0027	6.2843	4.7509	0.8762	3.4081	1.943	-1.7382	4.7993	2.2503	1.522	4.1763
2.3669	2.5575	2.2446	1.1436	1.8748	1.5988	1.5817	3.3484	3.8918	3.0156	6.0425	6.4977	4.9358	0.8563	3.4252	1.963	-1.7154	4.8988	2.3356	1.6472	4.2531
2.3868	2.5661	2.256	1.1977	1.8833	1.6756	1.7183	3.3996	4.0653	3.1891	6.125	6.6797	5.1065	0.8421	3.4622	1.9686	-1.6813	4.9956	2.3982	1.7837	4.31
2.3868	2.5547	2.2446	1.2148	1.9061	1.6984	1.8008	3.4707	4.236	3.337	6.1961	6.8618	5.263	0.8136	3.502	1.9174	-1.6386	5.0923	2.438	1.9117	4.3868
2.384	2.549	2.219	1.2688	1.9288	1.724	1.9146	3.5219	4.4038	3.5162	6.2786	7.0752	5.4337	0.8165	3.5191	1.8548	-1.6159	5.2175	2.5149	2.0398	4.4664
2.384	2.5177	2.2133	1.2802	1.943	1.7354	1.9914	3.5959	4.5432	3.6642	6.3497	7.2203	5.5958	0.788	3.5134	1.798	-1.5647	5.2971	2.5888	2.1649	4.5461
2.3868	2.4921	2.1934	1.2631	1.9487	1.7638	2.0682	3.6357	4.6912	3.8007	6.4408	7.3853	5.7466	0.7766	3.4963	1.7041	-1.5362	5.428	2.6827	2.3015	4.64
2.3555	2.458	2.1564	1.2745	1.9459	1.7325	2.1564	3.6642	4.8078	3.9117	6.4891	7.519	5.8576	0.7596	3.5248	1.6386	-1.5135	5.5219	2.7424	2.4068	4.7367
2.2958	2.4068	2.1109	1.2574	1.9288	1.7211	2.1649	3.7182	4.896	4.0425	6.5375	7.647	5.977	0.7397	3.4764	1.5135	-1.4765	5.6186	2.8079	2.5149	4.7964
2.2332	2.3527	2.0198	1.2148	1.9117	1.6415	2.2076	3.7069	4.9301	4.1051	6.546	7.7238	6.0595	0.7169	3.411	1.4082	-1.4338	5.684	2.8619	2.6116	4.8533
2.1678	2.2958	1.9459	1.1607	1.8577	1.6159	2.2275	3.7296	4.987	4.1563	6.5631	7.7722	6.1477	0.6998	3.3655	1.283	-1.394	5.7921	2.9274	2.7112	4.9131
2.0739	2.2446	1.8691	1.1294	1.8691	1.5675	2.2474	3.7154	5.0126	4.2019	6.5574	7.8091	6.1733	0.6856	3.3143	1.1465	-1.3399	5.8377	2.9757	2.7766	4.9444
1.9743	2.1849	1.7638	1.0697	1.8292	1.485	2.2275	3.7353	4.987	4.2559	6.5745	7.8262	6.2302	0.6372	3.2147	1.0185	-1.2973	5.9002	3.0383	2.8676	4.9927
1.9203	2.1166	1.6699	1.0128	1.8207	1.4281	2.2218	3.7012	4.9842	4.29	6.5802	7.8034	6.2729	0.6316	3.0952	0.8762	-1.2603	5.9543	3.0525	2.933	5.0183
1.8236	2.0597	1.596	0.9815	1.761	1.3342	2.1905	3.7097	4.9472	4.2531	6.5403	7.7551	6.2502	0.6287	2.9757	0.7397	-1.2347	6.0226	3.1009	3.0042	5.0553
1.7154	2.0341	1.4594	0.9047	1.7439	1.2546	2.1536	3.6756	4.8988	4.2275	6.5204	7.6612	6.2302	0.6031	2.8363	0.6031	-1.1948	6.0539	3.135	3.0383	5.0752
1.65	1.9487	1.3798	0.8563	1.7069	1.1778	2.0995	3.6386	4.8192	4.2104	6.4806	7.5958	6.2046	0.586	2.6799	0.4666	-1.1835	6.0823	3.1578	3.0924	5.0838
1.559	1.9231	1.266	0.7966	1.6813	1.0839	2.0796	3.6443	4.7367	4.1563	6.4493	7.5047	6.1534	0.5832	2.5405	0.3471	-1.1778	6.1051	3.2005	3.1265	5.1321
1.5163	1.9089	1.1778	0.7653	1.6557	1.0185	2.0426	3.6158	4.6713	4.1051	6.4294	7.4222	6.1221	0.5804	2.4096	0.2333	-1.1692	6.1335	3.2318	3.172	5.1691
1.4281	1.8975	1.1379	0.7368	1.6785	0.9701	2.0028	3.6386	4.566	4.0625	6.3981	7.317	6.0738	0.5974	2.2759	0.1337	-1.1749	6.1591	3.2801	3.2118	5.2146
1.394	1.889	1.0583	0.7055	1.6614	0.899	1.9573	3.6471	4.4721	3.9913	6.3867	7.2146	6.0283	0.6003	2.1536	0.0455	-1.1749	6.1392	3.3399	3.2545	5.2715
1.3285	1.8748	0.9815	0.6543	1.6699	0.8222	1.8833	3.6528	4.3441	3.9231	6.3355	7.0865	5.96	0.5917	2.0312	-0.0341	-1.1579	6.1534	3.3797	3.2716	5.2971
1.3058	1.8748	0.9217	0.6316	1.6955	0.7596	1.8378	3.6727	4.2559	3.8576	6.3355	6.9585	5.9002	0.5946	1.926	-0.091	-1.1692	6.1506	3.4508	3.3171	5.3398
1.2404	1.8975	0.8791	0.6202	1.7098	0.6913	1.7723	3.6898	4.1393	3.7808	6.3241	6.8419	5.8291	0.5889	1.8349	-0.1366	-1.1664	6.1534	3.5077	3.337	5.3882
1.1806	1.9288	0.7909	0.5974	1.7268	0.6344	1.7467	3.7012	4.034	3.7097	6.29	6.6854	5.7352	0.5917	1.7268	-0.1764	-1.1607	6.1364	3.5447	3.3655	5.4195
1.1522	1.9601	0.7681	0.5775	1.7695	0.5889	1.6699	3.7467	3.9259	3.63	6.2871	6.5574	5.6556	0.5974	1.6472	-0.2191	-1.1692	6.1307	3.5845	3.3768	5.4707
1.1237	2.0113	0.7084	0.5576	1.8179	0.5491	1.6443	3.7723	3.8206	3.5788	6.2587	6.4152	5.5788	0.6003	1.5817	-0.2418	-1.1863	6.1164	3.6471	3.3939	5.5048
1.101	2.0654	0.697	0.532	1.8719	0.4865	1.5874	3.795	3.6983	3.485	6.2615	6.2758	5.4792	0.623	1.5334	-0.2646	-1.2091	6.0766	3.6784	3.3968	5.5532
1.0924	2.1223	0.6856	0.5519	1.9203	0.5007	1.5846	3.8406	3.5931	3.4508	6.2416	6.1392	5.4109	0.6429	1.5192	-0.2532	-1.2517	6.0368	3.7381	3.411	5.6101
1.0754	2.1735	0.6742	0.5405	1.9857	0.4922	1.5248	3.8975	3.5162	3.3968	6.2302	6.0254	5.3142	0.6543	1.4708	-0.239	-1.283	6.0311	3.7637	3.4281	5.6385
1.0953	2.2218	0.6543	0.5718	2.0853	0.4836	1.5049	3.9373	3.4337	3.3626	6.2217	5.9173	5.2345	0.6657	1.4736	-0.2219	-1.3285	5.9998	3.8178	3.4337	5.6726
1.0867	2.3015	0.6941	0.5661	2.1564	0.5092	1.5021	3.9771	3.3712	3.3228	6.2274	5.8064	5.1577	0.6941	1.4594	-0.2162	-1.3598	6.0083	3.8377	3.4707	5.7039
1.0867	2.4011	0.7141	0.5889	2.2588	0.5348	1.5049	4.0425	3.3313	3.3086	6.2558	5.7068	5.1094	0.6998	1.4964	-0.1565	-1.3997	5.9941	3.8832	3.4878	5.7409
1.0896	2.4608	0.7397	0.6173	2.3299	0.5804	1.5135	4.071	3.2687	3.2858	6.2558	5.6015	5.0297	0.7283	1.4964	-0.1422	-1.431	5.9742	3.8975	3.5077	5.7466
1.1067	2.5149	0.7681	0.623	2.4124	0.6287	1.5106	4.125	3.2488	3.2517	6.253	5.5133	4.9586	0.7141	1.5305	-0.1138	-1.4423	5.9401	3.9174	3.5134	5.7694
1.1379	2.6286	0.8705	0.6828	2.5234	0.7368	1.5732	4.2218	3.2602	3.2744	6.2871	5.4792	4.9529	0.7567	1.5504	-0.0654	-1.4964	5.9827	3.9515	3.5561	5.7893
1.1835	2.7225	0.9331	0.7454	2.6173	0.8079	1.6301	4.2673	3.2887	3.2972	6.3327	5.4422	4.9074	0.7567	1.5817	-0.0427	-1.5163	5.9742	3.9515	3.5959	5.7978
1.2119	2.8107	1.0384	0.7937	2.7282	0.916	1.6728	4.3356	3.3228	3.2972	6.3696	5.4223	4.8875	0.7681	1.613	-0.0199	-1.5362	5.997	3.9771	3.6272	5.8348
1.2631	2.8932	1.1379	0.8506	2.8193	1.0412	1.7439	4.3953	3.3939	3.3598	6.4351	5.4479	4.896	0.7795	1.6529	-0.0256	-1.5476	6.0055	3.9942	3.6613	5.8604
1.3172	2.9814	1.2517	0.9331	2.9018	1.1607	1.8349	4.4778	3.4906	3.4138	6.4977	5.4422	4.9216	0.7795	1.6415	-0.0171	-1.5533	6.0425	4.0084	3.704	5.8519
1.357	3.0724	1.3513	1.0156	3.007	1.3172	1.9231	4.5489	3.5532	3.4935	6.5602	5.465	4.9529	0.788	1.6529	-0.0484	-1.5561	6.0311	4.0226	3.7438	5.8519
1.4167	3.1464	1.5021	1.1067	3.0895	1.4537	2.0028	4.603	3.6585	3.5703	6.6086	5.4934	4.9643	0.8051	1.6756	-0.0541	-1.5761	6.0709	3.9999	3.795	5.8661
1.4651	3.2232	1.613	1.1749	3.172	1.5817	2.1024	4.6741	3.7467	3.63	6.6712	5.5219	4.9956	0.7823	1.6842	-0.0455	-1.5732	6.0738	3.9942	3.8292	5.8462
1.5049	3.3143	1.724	1.2773	3.2431	1.7041	2.2361	4.7196	3.8633	3.7353	6.7082	5.5361	5.0354	0.7994	1.6785	-0.1223	-1.5647	6.0937	3.9714	3.8861	5.849
1.5334	3.3854	1.852	1.3655	3.2858	1.8577	2.3356	4.7708	3.9629	3.7922	6.7452	5.5759	5.0752	0.7852	1.6642	-0.1536	-1.5533	6.088	3.9316	3.8975	5.8433
1.6102	3.465	1.9829	1.4537	3.337	1.9829	2.4523	4.7964	4.0511	3.8946	6.7907	5.6129	5.0923	0.7795	1.6557	-0.1451	-1.5305	6.0994	3.906	3.9373	5.8064
1.65	3.5219	2.108	1.5476	3.4025	2.0796	2.5518	4.8163	4.1421	3.997	6.8191	5.6328	5.1463	0.7738	1.6756	-0.1735	-1.522	6.1164	3.8633	3.9856	5.7864
1.7211	3.5987	2.2361	1.6614	3.448	2.1934	2.6713	4.8448	4.2445	4.0909	6.8362	5.6755	5.189	0.7653	1.7098	-0.1451	-1.5135	6.1307	3.7979	4.0255	5.7637
1.7411	3.6357	2.3698	1.7467	3.4906	2.2873	2.7396	4.8562	4.3043	4.1649	6.8305	5.684	5.2089	0.7482	1.7098	-0.1622	-1.4793	6.1108	3.7552	4.0369	5.7096
1.8207	3.6869	2.4779	1.8463	3.5106	2.3783	2.8505	4.8533	4.4038	4.2445	6.8561	5.7182	5.2402	0.7368	1.7098	-0.1451	-1.4623	6.1136	3.704	4.0568	5.6783
1.9004	3.7581	2.6087	1.9516	3.5504	2.475	2.9729	4.8875	4.4607	4.3327	6.8504	5.7295	5.2601	0.7254	1.6955	-0.1166	-1.4537	6.0965	3.6556	4.0767	5.6243
1.9402	3.8235	2.6855	2.0455	3.5675	2.5518	3.0582	4.8761	4.5006	4.3925	6.8476	5.7267	5.3	0.7226	1.7297	-0.0853	-1.4338	6.0482	3.5845	4.0681	5.5816
2.0142	3.8633	2.8022	2.1564	3.5931	2.6002	3.1692	4.8875	4.566	4.4579	6.8476	5.7608	5.3398	0.7141	1.6927	-0.0512	-1.4167	6.0539	3.5333	4.0767	5.5617
2.0625	3.9231	2.8676	2.256	3.5931	2.6457	3.2517	4.8932	4.6144	4.5148	6.8561	5.7921	5.391	0.6941	1.6642	-0.0114	-1.3911	6.014	3.465	4.071	5.5048
2.0824	3.9572	2.9416	2.3043	3.5987	2.6713	3.3313	4.8903	4.6343	4.5859	6.8447	5.8007	5.4195	0.6828	1.6728	0.0028	-1.357	5.9714	3.4081	4.0482	5.4564
2.1393	3.98	3.0184	2.4011	3.6158	2.7112	3.3797	4.9045	4.6826	4.6371	6.8476	5.8547	5.4764	0.6629	1.6244	0.0171	-1.3399	5.9543	3.3768	4.0369	5.4479
2.2161	4.0568	3.0895	2.5063	3.6329	2.7368	3.4593	4.9301	4.7452	4.7026	6.8789	5.8917	5.5162	0.6657	1.6301	0.0768	-1.3342	5.9372	3.3427	4.0169	5.4195
2.273	4.0938	3.1521	2.5689	3.6585	2.7424	3.5248	4.933	4.7282	4.7338	6.859	5.923	5.5361	0.6458	1.6329	0.1138	-1.3115	5.9002	3.32	3.997	5.4166
2.3157	4.1194	3.1948	2.64	3.6699	2.7624	3.5845	4.9415	4.7708	4.7879	6.8817	5.9913	5.5788	0.6458	1.5846	0.1678	-1.2916	5.8718	3.3029	3.9714	5.4052
2.347	4.1819	3.2261	2.7311	3.6841	2.7368	3.613	4.9301	4.7566	4.8135	6.8902	6.0112	5.5901	0.6316	1.5903	0.2333	-1.2631	5.8405	3.2801	3.9231	5.4223
2.4324	4.2047	3.2887	2.7965	3.7125	2.7453	3.6699	4.9415	4.8107	4.8334	6.8988	6.0738	5.593	0.6287	1.5817	0.2703	-1.2404	5.7808	3.2574	3.8861	5.391
2.4978	4.2445	3.3399	2.8619	3.7381	2.7851	3.7211	4.9785	4.7907	4.859	6.9045	6.1051	5.6158	0.6003	1.6073	0.3727	-1.2062	5.7324	3.2545	3.8462	5.4166
2.5803	4.29	3.3996	2.933	3.7552	2.7652	3.7239	4.9728	4.8107	4.8704	6.9272	6.1449	5.6129	0.5661	1.6159	0.404	-1.1579	5.667	3.2545	3.795	5.4166
2.6543	4.3469	3.4679	3.0099	3.8036	2.805	3.7723	4.9757	4.8107	4.8818	6.9642	6.2018	5.6186	0.569	1.6642	0.4979	-1.1237	5.6129	3.2602	3.7581	5.4536
2.7823	4.401	3.5362	3.0753	3.8462	2.8249	3.778	5.0126	4.8419	4.8988	6.9841	6.2758	5.6129	0.5519	1.7126	0.5718	-1.0697	5.5503	3.2972	3.7125	5.4849
2.8221	4.4693	3.5987	3.1322	3.8975	2.8477	3.7894	5.0354	4.8619	4.8619	7.0154	6.344	5.5901	0.5121	1.7809	0.6316	-1.0156	5.4764	3.3228	3.667	5.5219
2.9074	4.5404	3.6727	3.1834	3.9401	2.879	3.8064	5.0781	4.9017	4.8476	7.0353	6.4038	5.5702	0.4751	1.8463	0.6941	-0.9473	5.3825	3.337	3.5788	5.5361
3.0099	4.5774	3.7239	3.2289	3.9771	2.9074	3.7979	5.1065	4.9188	4.8078	7.0695	6.4664	5.5304	0.4381	1.9174	0.771	-0.8677	5.3085	3.3655	3.5134	5.5617
3.0668	4.64	3.795	3.2545	4.0425	2.97	3.7694	5.135	4.9671	4.7566	7.0951	6.5318	5.4678	0.3983	1.9857	0.7681	-0.7852	5.189	3.3911	3.4337	5.5873
3.172	4.7054	3.869	3.2915	4.1137	3.0127	3.7865	5.1776	5.0041	4.7196	7.1548	6.6029	5.4422	0.367	2.0568	0.8051	-0.7141	5.0923	3.4224	3.3854	5.6271
3.2232	4.8078	3.9544	3.3256	4.1933	3.0724	3.7723	5.2232	5.0382	4.7026	7.2259	6.7082	5.428	0.3215	2.0967	0.8108	-0.6372	4.987	3.4935	3.3399	5.6755
3.3057	4.8789	4.0141	3.3313	4.2502	3.1208	3.7637	5.2829	5.0951	4.6627	7.2914	6.7821	5.3654	0.276	2.1422	0.7823	-0.5547	4.9102	3.5305	3.2687	5.7125
3.374	4.9557	4.1023	3.3399	4.3299	3.209	3.7211	5.3654	5.1435	4.6001	7.3312	6.876	5.337	0.2475	2.1678	0.7738	-0.4836	4.8021	3.5874	3.2118	5.758
3.4053	4.9984	4.1535	3.2972	4.3811	3.2517	3.6955	5.3939	5.1833	4.5546	7.3511	6.9386	5.3	0.1991	2.1536	0.7197	-0.3954	4.6798	3.6272	3.1806	5.7779
3.4366	5.0638	4.2132	3.2801	4.4238	3.2773	3.6727	5.4223	5.2061	4.4778	7.371	6.9927	5.2345	0.1394	2.1365	0.6657	-0.2873	4.5888	3.6898	3.1123	5.7836
3.4167	5.0923	4.2161	3.2175	4.438	3.3228	3.6073	5.4138	5.2146	4.3925	7.3568	6.9898	5.1492	0.0967	2.0938	0.5519	-0.1849	4.4408	3.7097	3.0298	5.7751
3.4821	5.1549	4.2957	3.2005	4.5034	3.3569	3.5874	5.4707	5.2431	4.3384	7.354	7.0467	5.1179	0.0597	2.0426	0.5121	-0.091	4.3441	3.7495	2.97	5.7893
3.485	5.2004	4.3356	3.1777	4.5404	3.4081	3.5134	5.4877	5.2687	4.29	7.3597	7.1065	5.0582	0.0057	2.0255	0.4125	-0.0142	4.2303	3.8036	2.9018	5.812
3.4707	5.2175	4.3583	3.118	4.566	3.4025	3.4565	5.4849	5.2829	4.2161	7.3056	7.1093	4.9984	-0.0398	1.9573	0.3016	0.0768	4.1364	3.815	2.8648	5.8035
3.448	5.226	4.3725	3.0525	4.5546	3.4138	3.3882	5.4764	5.2658	4.1279	7.2686	7.115	4.9159	-0.091	1.8634	0.1792	0.1707	4.0084	3.8178	2.7709	5.7921
3.4309	5.2658	4.3925	3.0013	4.5774	3.4224	3.3427	5.4536	5.263	4.0539	7.2259	7.1121	4.8647	-0.1166	1.8406	0.0967	0.2219	3.9117	3.8633	2.7112	5.7722
3.411	5.2801	4.3982	2.916	4.5774	3.4451	3.2858	5.465	5.2289	3.9913	7.1918	7.1235	4.8163	-0.1451	1.7667	-0.0398	0.276	3.795	3.8889	2.64	5.7637
3.411	5.2857	4.3896	2.8534	4.5461	3.4309	3.246	5.428	5.189	3.9231	7.1065	7.115	4.7452	-0.1593	1.7098	-0.1479	0.3186	3.6926	3.8946	2.5974	5.7438
3.3114	5.2829	4.3725	2.8107	4.5205	3.4167	3.1749	5.391	5.189	3.8662	7.0382	7.0922	4.6912	-0.1707	1.6301	-0.2674	0.3528	3.6158	3.9003	2.5433	5.721
3.2659	5.2402	4.3384	2.7368	4.4778	3.411	3.0981	5.3426	5.1549	3.815	6.9841	7.0609	4.6286	-0.1935	1.5675	-0.4153	0.3698	3.5362	3.8975	2.4722	5.6954
3.1919	5.2118	4.2986	2.6912	4.4607	3.374	3.0355	5.3142	5.1094	3.7125	6.8874	7.0296	4.5745	-0.1878	1.5106	-0.5206	0.3841	3.4394	3.9088	2.4238	5.6556
3.1265	5.189	4.2616	2.6116	4.4294	3.3427	3.0099	5.2573	5.0838	3.6756	6.822	7.0069	4.5262	-0.1935	1.4509	-0.6458	0.3755	3.3655	3.9145	2.3641	5.6271
3.0639	5.1577	4.1905	2.549	4.3697	3.3057	2.9672	5.2004	5.0553	3.6386	6.7366	6.9784	4.5034	-0.1764	1.3826	-0.7454	0.3585	3.2943	3.9145	2.3242	5.63
2.9814	5.1151	4.1194	2.4864	4.3014	3.2602	2.9274	5.1549	5.007	3.6016	6.6712	6.9471	4.492	-0.165	1.32	-0.8591	0.33	3.2204	3.8975	2.2588	5.6158
2.9046	5.0468	4.0653	2.4807	4.2303	3.2374	2.8818	5.0895	4.9643	3.5561	6.5858	6.9244	4.455	-0.1394	1.2603	-0.953	0.2959	3.1606	3.8946	2.2161	5.6044
2.8306	5.0382	4.0056	2.4494	4.1848	3.1948	2.8989	5.0638	4.9614	3.5504	6.5261	6.9045	4.4437	-0.1081	1.2375	-1.0014	0.2361	3.0952	3.8861	2.1905	5.6015
2.7652	4.9842	3.9572	2.4181	4.162	3.1777	2.8847	5.024	4.933	3.5675	6.4749	6.9016	4.4408	-0.0967	1.2119	-1.0128	0.1735	3.0696	3.8861	2.1735	5.6414
2.7083	4.9387	3.906	2.4295	4.1108	3.1322	2.8961	5.0013	4.9444	3.5931	6.4265	6.8931	4.4351	-0.0569	1.1948	-0.9786	0.0996	3.0468	3.8861	2.1706	5.6812
2.6599	4.8903	3.8633	2.4807	4.0767	3.135	2.9302	4.9785	4.9472	3.6101	6.3753	6.8902	4.4522	-0.0085	1.1977	-0.936	0.0171	3.0412	3.8775	2.1763	5.7011
2.6201	4.8448	3.8235	2.4779	4.0283	3.1265	2.9843	4.9216	4.9273	3.6585	6.3184	6.8789	4.4607	0.0228	1.1863	-0.8819	-0.0541	3.007	3.8747	2.1792	5.7239
2.5689	4.7822	3.8093	2.5035	3.98	3.0952	3.0241	4.8619	4.9301	3.6898	6.2644	6.876	4.4778	0.0683	1.1948	-0.7653	-0.1536	2.9871	3.8434	2.1735	5.7466
2.5376	4.7651	3.7495	2.5461	3.9373	3.0753	3.0753	4.822	4.9188	3.7438	6.1989	6.8561	4.475	0.1223	1.2318	-0.6543	-0.2532	2.953	3.832	2.1763	5.7409
2.5319	4.6713	3.7325	2.603	3.8804	3.0525	3.1208	4.7594	4.9131	3.7723	6.1051	6.8277	4.4408	0.1764	1.2404	-0.4751	-0.3357	2.9302	3.778	2.182	5.7267
2.5006	4.6001	3.7239	2.6628	3.8462	3.0184	3.1663	4.7026	4.896	3.7922	6.0339	6.8077	4.4721	0.2219	1.246	-0.3414	-0.441	2.953	3.7467	2.1877	5.7096
2.4836	4.5347	3.6841	2.6884	3.8036	2.9899	3.1806	4.6542	4.8875	3.8605	5.9628	6.7907	4.4863	0.2674	1.266	-0.2247	-0.532	2.9387	3.704	2.182	5.6755
2.4722	4.4693	3.667	2.7339	3.7609	2.9501	3.2517	4.5831	4.8761	3.8918	5.8889	6.7537	4.4807	0.3215	1.2688	-0.0768	-0.6401	2.933	3.6158	2.2247	5.6385
2.4352	4.4038	3.6443	2.7709	3.7154	2.9217	3.2858	4.5262	4.8505	3.9487	5.7978	6.7509	4.5034	0.3471	1.2603	0.0398	-0.7084	2.9444	3.5504	2.2417	5.593
2.4039	4.2957	3.6044	2.768	3.65	2.8989	3.3086	4.4693	4.8363	3.9828	5.7352	6.7224	4.5319	0.3954	1.2375	0.1394	-0.788	2.9672	3.4736	2.2474	5.5418
2.3499	4.2019	3.5589	2.7794	3.5817	2.8591	3.3171	4.3725	4.7737	4.0198	5.6499	6.7025	4.5432	0.421	1.2005	0.2191	-0.8392	2.9899	3.3712	2.256	5.4707
2.3385	4.0909	3.5305	2.7993	3.4963	2.7851	3.3143	4.2644	4.7338	4.034	5.5845	6.674	4.5546	0.4438	1.1749	0.256	-0.9018	3.0212	3.2659	2.273	5.4223
2.2645	3.9771	3.4423	2.768	3.3882	2.6827	3.2887	4.1563	4.6599	4.0255	5.4906	6.6484	4.5688	0.4722	1.1067	0.2447	-0.9303	3.0554	3.1493	2.2588	5.3483
2.2019	3.8178	3.3626	2.7055	3.3143	2.6343	3.2403	4.0795	4.6001	4.0255	5.4195	6.6427	4.603	0.4865	1.0156	0.202	-0.9673	3.1009	3.0269	2.2617	5.3028
2.1422	3.6756	3.2631	2.6173	3.1606	2.4949	3.1749	3.9544	4.5176	3.9942	5.3569	6.6086	4.6001	0.495	0.9189	0.1252	-0.9758	3.1379	2.9501	2.2361	5.2516
2.017	3.5219	3.1436	2.5433	3.0497	2.3612	3.0895	3.8633	4.4124	3.96	5.2914	6.5972	4.6144	0.4779	0.8023	0.0199	-0.9786	3.2033	2.8278	2.2105	5.2032
1.9345	3.3683	3.0127	2.438	2.9188	2.2816	3.0042	3.7666	4.3356	3.9031	5.2402	6.5659	4.6257	0.4836	0.6913	-0.128	-0.953	3.2631	2.714	2.1905	5.1492
1.8264	3.2033	2.8904	2.3015	2.7937	2.145	2.8733	3.6642	4.2218	3.8406	5.1947	6.5403	4.6286	0.4552	0.5661	-0.3101	-0.9274	3.3427	2.64	2.1735	5.1293
1.7069	3.0696	2.7709	2.1706	2.6713	2.0085	2.7481	3.5589	4.0994	3.7637	5.1492	6.5204	4.6314	0.4296	0.4267	-0.5149	-0.8677	3.4025	2.5376	2.1336	5.0809
1.5789	2.9217	2.6201	2.0142	2.5774	1.8548	2.6201	3.5049	3.9885	3.7154	5.1435	6.5147	4.6599	0.4097	0.2788	-0.7567	-0.8165	3.4764	2.4921	2.1223	5.0866
1.4338	2.7965	2.5006	1.8662	2.4921	1.7496	2.4864	3.4252	3.9231	3.6471	5.1463	6.5147	4.6741	0.3641	0.1479	-0.9929	-0.7567	3.5618	2.4267	2.1194	5.1321
1.3257	2.6543	2.3669	1.7325	2.4267	1.6216	2.3242	3.3569	3.8206	3.5845	5.1663	6.5233	4.7026	0.3186	0.0284	-1.2034	-0.6685	3.65	2.3783	2.0881	5.1577
1.1863	2.5632	2.2247	1.5647	2.3499	1.5106	2.1905	3.3313	3.7182	3.5162	5.1805	6.5204	4.7367	0.2845	-0.1024	-1.4566	-0.5747	3.7495	2.3328	2.0711	5.2061
1.0554	2.4494	2.1166	1.3798	2.256	1.3911	2.0369	3.3143	3.65	3.4281	5.2089	6.5033	4.7594	0.2219	-0.2532	-1.7325	-0.4523	3.8605	2.3157	2.0455	5.2459
0.9303	2.3897	1.9829	1.246	2.2361	1.2916	1.9231	3.3	3.5731	3.3797	5.2516	6.5403	4.7623	0.1622	-0.3812	-1.9857	-0.33	3.9515	2.3157	2.0426	5.3256
0.8279	2.3385	1.9061	1.1095	2.2304	1.2261	1.8321	3.3399	3.5532	3.3228	5.3398	6.5745	4.8363	0.1195	-0.5121	-2.1934	-0.2304	4.0596	2.3612	2.054	5.4308
0.7254	2.3299	1.8321	0.9843	2.273	1.1977	1.7467	3.3569	3.4736	3.3057	5.4138	6.6228	4.8647	0.0398	-0.6202	-2.4238	-0.091	4.1421	2.4096	2.0597	5.5503
0.6685	2.3328	1.8093	0.8904	2.3356	1.2034	1.7098	3.4366	3.4992	3.3313	5.5475	6.6826	4.9529	-0.0114	-0.7226	-2.6571	0.0199	4.2588	2.475	2.1024	5.6812
0.5889	2.3356	1.7524	0.8023	2.3726	1.2091	1.6557	3.5362	3.5134	3.3342	5.6414	6.7565	5.007	-0.0768	-0.8421	-2.8505	0.1565	4.3242	2.5746	2.1479	5.8206
0.5149	2.4011	1.761	0.7482	2.4608	1.2546	1.6472	3.63	3.5675	3.3342	5.7551	6.822	5.0695	-0.1422	-0.9502	-3.081	0.2845	4.4067	2.677	2.1649	5.9486
0.441	2.4437	1.7638	0.6714	2.5461	1.3285	1.6386	3.7211	3.6187	3.3456	5.8718	6.8959	5.1236	-0.2134	-1.0412	-3.2858	0.4097	4.4835	2.7624	2.1905	6.0539
0.3954	2.5376	1.8065	0.6202	2.6543	1.4395	1.687	3.8292	3.6955	3.3968	6.0027	6.9984	5.1776	-0.2589	-1.1607	-3.4736	0.5149	4.5319	2.879	2.2361	6.1819
0.3727	2.6173	1.8349	0.6202	2.788	1.5504	1.7211	3.943	3.8036	3.4565	6.0994	7.0752	5.2374	-0.3215	-1.2347	-3.6613	0.6287	4.5603	2.9871	2.2674	6.2758
0.3499	2.7026	1.9032	0.6429	2.9074	1.6842	1.7809	4.0568	3.906	3.5276	6.1989	7.169	5.3	-0.367	-1.3285	-3.8434	0.7226	4.5944	3.118	2.2986	6.3639
0.3926	2.8392	1.9886	0.7197	3.0383	1.8406	1.8748	4.1763	4.0596	3.6073	6.3042	7.2743	5.354	-0.3926	-1.4139	-3.98	0.7937	4.6087	3.2318	2.3214	6.4721
0.3897	2.9871	2.1024	0.751	3.172	2.017	1.963	4.273	4.1962	3.6613	6.381	7.3483	5.3796	-0.441	-1.4537	-4.1165	0.862	4.5831	3.3484	2.3555	6.5062
0.4353	3.0838	2.219	0.825	3.3057	2.1934	2.0824	4.3669	4.3356	3.7552	6.4436	7.4279	5.4251	-0.4694	-1.5163	-4.2161	0.9331	4.5518	3.4224	2.3669	6.5176
0.4865	3.2289	2.3328	0.936	3.465	2.421	2.2019	4.4949	4.5176	3.8491	6.5147	7.5531	5.4621	-0.4751	-1.5504	-4.2616	0.9388	4.5233	3.5077	2.421	6.5574
0.5377	3.3512	2.4665	1.0583	3.5731	2.6258	2.3499	4.5973	4.6769	3.9373	6.5602	7.6527	5.4877	-0.5007	-1.596	-4.3014	0.9701	4.4693	3.5675	2.4437	6.5147
0.6173	3.4992	2.6116	1.2176	3.704	2.8505	2.5063	4.6855	4.8903	4.0511	6.5858	7.7551	5.5418	-0.4865	-1.6102	-4.3128	0.9701	4.4238	3.6272	2.4921	6.4806
0.7283	3.6414	2.7794	1.3684	3.8434	3.0924	2.6827	4.7907	5.0724	4.1763	6.6314	7.866	5.5845	-0.4893	-1.65	-4.273	0.9786	4.3583	3.6414	2.512	6.3867
0.8478	3.7751	2.9615	1.5561	3.9999	3.3114	2.8705	4.8988	5.2943	4.3014	6.6484	7.9656	5.647	-0.4922	-1.6415	-4.2388	0.9644	4.31	3.6812	2.5547	6.3071
0.9673	3.9088	3.135	1.7297	4.1137	3.5561	3.0724	4.9956	5.4934	4.4664	6.6655	8.0936	5.7182	-0.4637	-1.6557	-4.1791	0.936	4.2559	3.6898	2.6258	6.1762
1.1237	4.0226	3.3256	1.963	4.2588	3.815	3.283	5.0895	5.7182	4.6115	6.6797	8.2302	5.7921	-0.4609	-1.6756	-4.1051	0.9018	4.2132	3.6955	2.677	6.0624
1.2973	4.1819	3.5561	2.2048	4.4181	4.0824	3.5276	5.2232	5.96	4.7964	6.7224	8.381	5.9031	-0.4182	-1.6329	-3.9885	0.8307	4.2019	3.7012	2.7823	5.9287
1.4736	4.2929	3.7694	2.4267	4.5432	4.3128	3.7581	5.3256	6.2274	4.9899	6.7224	8.5374	6.0197	-0.3954	-1.6187	-3.8918	0.7766	4.1905	3.6898	2.8591	5.7978
1.6699	4.4181	3.9828	2.7168	4.694	4.5859	4.0255	5.4394	6.4692	5.2032	6.7281	8.6768	6.1421	-0.3585	-1.5846	-3.7524	0.6941	4.2132	3.6756	2.97	5.6499
1.8548	4.5347	4.2189	2.9729	4.822	4.8419	4.2957	5.5418	6.6968	5.4024	6.711	8.8276	6.2758	-0.3158	-1.5874	-3.6613	0.6088	4.2104	3.6357	3.0639	5.4906
2.0483	4.6257	4.4238	3.2346	4.9472	5.0866	4.529	5.6129	6.9102	5.6015	6.6968	8.9642	6.4009	-0.2589	-1.5647	-3.5191	0.5206	4.2218	3.5788	3.1806	5.3114
2.2332	4.7338	4.6428	3.5162	5.0923	5.3085	4.7538	5.6869	7.1264	5.7836	6.6854	9.0609	6.5119	-0.2361	-1.5277	-3.4195	0.4353	4.2616	3.5475	3.2858	5.1151
2.3925	4.7879	4.8391	3.704	5.1805	5.5333	4.9643	5.7239	7.2914	5.9799	6.657	9.1405	6.6171	-0.1991	-1.5135	-3.3541	0.3755	4.2986	3.4423	3.3968	4.9074
2.5518	4.8761	5.0326	3.9657	5.2374	5.7039	5.1663	5.758	7.4507	6.1136	6.5546	9.1747	6.6826	-0.1565	-1.4992	-3.2403	0.3129	4.3014	3.3512	3.4679	4.6855
2.7083	4.9358	5.2203	4.1819	5.3313	5.9173	5.3654	5.7893	7.61	6.2615	6.4692	9.2458	6.7537	-0.1252	-1.4822	-3.1891	0.2503	4.31	3.2659	3.5618	4.4835
2.8705	4.9956	5.4081	4.3925	5.4223	6.088	5.5247	5.8149	7.738	6.3952	6.3924	9.2657	6.8248	-0.0996	-1.4822	-3.1606	0.1764	4.3356	3.1521	3.613	4.2559
3.0326	5.0496	5.593	4.5603	5.4877	6.2416	5.6812	5.8007	7.8291	6.4749	6.2729	9.2657	6.859	-0.0768	-1.4679	-3.1066	0.1366	4.3242	3.0355	3.6556	4.0539
3.1521	5.0923	5.758	4.731	5.5389	6.3725	5.7694	5.7893	7.903	6.529	6.1733	9.2572	6.8675	-0.0541	-1.4594	-3.0753	0.0967	4.2957	2.9473	3.6784	3.832
3.32	5.152	5.923	4.8647	5.5873	6.5546	5.9002	5.795	8.0083	6.5944	6.0852	9.2572	6.8874	-0.037	-1.4452	-3.0468	0.0569	4.2787	2.8136	3.6898	3.6471
3.448	5.1776	6.0937	4.9757	5.6726	6.6854	5.9628	5.7864	8.051	6.6342	5.9628	9.2088	6.8703	-0.0228	-1.3911	-3.0156	0.0313	4.236	2.7197	3.6812	3.4366
3.5675	5.2345	6.2701	5.1122	5.7039	6.822	6.0197	5.7495	8.1249	6.6484	5.8547	9.1832	6.8447	-0.0028	-1.3285	-2.9757	-0.0114	4.1706	2.6286	3.6585	3.2631
3.7438	5.3028	6.4123	5.2004	5.7665	6.9727	6.0965	5.7466	8.1932	6.6655	5.795	9.1519	6.822	0.0114	-1.2802	-2.9473	-0.0427	4.1307	2.5205	3.6101	3.0781
3.8889	5.3825	6.62	5.3085	5.8746	7.1434	6.1648	5.7808	8.3013	6.7025	5.7438	9.1604	6.8077	0.0398	-1.1892	-2.8989	-0.1053	4.0881	2.4523	3.613	2.9672
4.0625	5.4877	6.8191	5.4337	5.9799	7.3369	6.2331	5.795	8.3952	6.711	5.6812	9.1804	6.7878	0.0711	-1.118	-2.8221	-0.1565	4.0369	2.3641	3.5703	2.8477
4.2246	5.5958	7.0296	5.5475	6.0681	7.5275	6.3127	5.8263	8.4976	6.7167	5.6385	9.1775	6.7765	0.1024	-1.0156	-2.751	-0.2134	3.9657	2.3299	3.5248	2.7311
4.364	5.7039	7.206	5.6129	6.1733	7.6726	6.3583	5.8604	8.5744	6.7395	5.6158	9.1889	6.7366	0.1138	-0.9132	-2.6685	-0.2361	3.8662	2.2787	3.4736	2.6144
4.5546	5.8462	7.408	5.7011	6.2985	7.8575	6.4237	5.9173	8.6939	6.7537	5.6129	9.2458	6.7167	0.1422	-0.8193	-2.5461	-0.2873	3.778	2.2531	3.4081	2.549
4.7225	5.9941	7.6128	5.8177	6.4351	8.0794	6.4863	5.9742	8.8304	6.7651	5.6214	9.2771	6.6797	0.1565	-0.7027	-2.4523	-0.3243	3.6926	2.2361	3.3399	2.5006
4.8732	6.1563	7.8091	5.8832	6.546	8.2615	6.5489	6.051	8.9585	6.7679	5.6243	9.3169	6.6371	0.1678	-0.6116	-2.3954	-0.3357	3.5675	2.2048	3.2602	2.4267
5.0183	6.3327	8.0054	5.9714	6.7224	8.4748	6.6427	6.1108	9.0666	6.785	5.6414	9.3454	6.5688	0.1764	-0.5092	-2.3271	-0.3499	3.4508	2.1962	3.1834	2.3868
5.1833	6.4806	8.216	6.0652	6.8931	8.6797	6.6826	6.2075	9.2031	6.7935	5.6527	9.3937	6.5432	0.1678	-0.404	-2.2674	-0.3471	3.2858	2.2076	3.081	2.3527
5.3227	6.6854	8.4122	6.1193	7.0069	8.8788	6.7708	6.2758	9.3624	6.8021	5.6755	9.4421	6.4806	0.1678	-0.2987	-2.1934	-0.3328	3.1293	2.2332	2.9871	2.3242
5.4906	6.876	8.6228	6.2558	7.2203	9.1092	6.8561	6.3867	9.5274	6.8419	5.7409	9.5104	6.4493	0.1536	-0.1991	-2.1109	-0.3044	2.9871	2.2588	2.9018	2.2986
5.6414	7.0553	8.8077	6.3383	7.4137	9.3397	6.9528	6.5119	9.7067	6.8703	5.7864	9.5843	6.3924	0.1337	-0.1081	-2.054	-0.2532	2.8107	2.2816	2.8136	2.273
5.8291	7.2771	9.0495	6.4692	7.6128	9.6014	7.0809	6.6883	9.9428	6.9557	5.8661	9.6953	6.4095	0.1053	-0.0085	-1.9601	-0.2247	2.6912	2.3527	2.7823	2.2958
5.9884	7.4962	9.2373	6.6171	7.8262	9.8432	7.2174	6.8447	10.1675	7.0496	5.9486	9.8176	6.4038	0.0768	0.0427	-1.889	-0.1451	2.5348	2.4011	2.7168	2.3242
6.1648	7.7266	9.4819	6.748	8.0794	10.1391	7.4052	7.0353	10.452	7.1662	6.0937	9.9883	6.4721	0.0398	0.1366	-1.8093	-0.0996	2.4352	2.5092	2.6998	2.3555
6.3497	7.9656	9.738	6.9187	8.3212	10.4691	7.5958	7.2515	10.7792	7.3227	6.2302	10.1675	6.5346	0.0142	0.2276	-1.7354	-0.0313	2.3555	2.6144	2.7055	2.4096
6.5318	8.216	9.994	7.1178	8.6	10.8105	7.8177	7.4763	11.1035	7.5247	6.4009	10.3809	6.6541	-0.0142	0.2959	-1.6756	0.0256	2.2759	2.7225	2.7225	2.4836
6.7196	8.4322	10.2386	7.2715	8.8646	11.1348	8.0367	7.738	11.4449	7.7153	6.5745	10.6199	6.7708	-0.0597	0.3016	-1.6159	0.1109	2.2133	2.8249	2.7453	2.549
6.9102	8.6967	10.5061	7.5019	9.1405	11.4847	8.3041	7.9969	11.8062	7.9599	6.7679	10.8531	6.9443	-0.0853	0.3556	-1.5675	0.1735	2.2161	2.9558	2.8363	2.6343
7.1235	8.9727	10.7877	7.738	9.4421	11.8431	8.6	8.2729	12.2158	8.2387	6.9898	11.1518	7.1548	-0.1109	0.3897	-1.4992	0.2247	2.2474	3.1123	2.9359	2.7083
7.3028	9.223	11.0893	7.9599	9.7778	12.2414	8.9044	8.5801	12.6312	8.5516	7.2373	11.4676	7.3767	-0.1366	0.4552	-1.4281	0.2674	2.3015	3.2517	3.0611	2.8221
7.5332	9.5274	11.3937	8.2529	10.0822	12.6397	9.2373	8.8703	13.0551	8.8816	7.4507	11.7606	7.6413	-0.1622	0.4979	-1.3513	0.3129	2.3982	3.411	3.209	2.9188
7.7835	9.8062	11.6952	8.4976	10.4093	13.0494	9.5843	9.1775	13.5045	9.2031	7.7096	12.0992	7.9428	-0.1707	0.5291	-1.2859	0.3471	2.4864	3.5561	3.3797	3.0184
8.0026	10.0879	12.0053	8.8134	10.7593	13.4818	9.9286	9.5104	13.9341	9.573	7.94	12.4235	8.2017	-0.1935	0.5718	-1.1806	0.3812	2.6315	3.7467	3.5874	3.1208
8.2273	10.378	12.304	9.0865	11.0779	13.8602	10.3098	9.8261	14.3381	9.9314	8.1704	12.7307	8.5004	-0.202	0.6173	-1.118	0.4097	2.768	3.8861	3.7694	3.2204
8.4464	10.6227	12.6084	9.3596	11.3624	14.2414	10.6341	10.1561	14.7563	10.2899	8.3952	13.0266	8.7935	-0.2247	0.6344	-1.0583	0.4523	2.9473	4.0255	3.9629	3.3342
8.691	10.8958	12.9213	9.6725	11.7066	14.651	11.0153	10.4577	15.1887	10.6426	8.6057	13.3339	9.095	-0.2333	0.7283	-0.9388	0.4637	3.1208	4.1791	4.199	3.4394
8.9499	11.1917	13.2514	9.994	12.0508	15.0635	11.388	10.7849	15.6041	11.0324	8.8418	13.6383	9.3994	-0.2447	0.7795	-0.8364	0.4808	3.3029	4.3327	4.4095	3.5589
9.186	11.4847	13.5757	10.3069	12.3751	15.4703	11.7436	11.0864	16.0109	11.4079	9.0552	13.9341	9.7038	-0.2503	0.788	-0.7425	0.5121	3.4821	4.4863	4.6201	3.6471
9.4279	11.7578	13.9	10.6369	12.7251	15.8828	12.1475	11.405	16.4035	11.7834	9.2714	14.2243	10.0025	-0.2674	0.8791	-0.6145	0.5121	3.6841	4.6314	4.8562	3.7666
9.6754	12.0053	14.1958	10.9186	13.0067	16.2783	12.4719	11.6725	16.779	12.1419	9.462	14.5059	10.3183	-0.2589	0.9303	-0.4865	0.5092	3.8719	4.7566	5.0667	3.8662
9.9143	12.2613	14.5287	11.2514	13.3054	16.6595	12.8303	11.9598	17.1517	12.4889	9.6412	14.7563	10.5999	-0.2503	0.99	-0.3528	0.5092	4.0283	4.9017	5.263	3.9174
10.1391	12.543	14.8815	11.553	13.6013	17.072	13.1945	12.2386	17.5215	12.8332	9.8261	15.0322	10.893	-0.2617	1.0355	-0.2333	0.5121	4.1677	5.0126	5.4451	4.0312
10.4008	12.7876	15.1859	11.8773	13.9142	17.4561	13.5301	12.5032	17.8885	13.1802	10.0082	15.3053	11.1917	-0.2617	1.1067	-0.1337	0.495	4.3441	5.1179	5.6442	4.0938
10.6483	13.0238	15.5159	12.1817	14.2129	17.8259	13.8658	12.7535	18.2441	13.5216	10.1818	15.5699	11.4875	-0.2475	1.2204	0.0313	0.4751	4.4892	5.1976	5.8291	4.162
10.9043	13.3083	15.8544	12.5088	14.5116	18.2412	14.2101	13.0209	18.6054	13.8658	10.3667	15.8544	11.7749	-0.2247	1.32	0.1792	0.441	4.6172	5.3028	5.9913	4.2075
11.1319	13.5444	16.1645	12.8161	14.8132	18.6196	14.5059	13.2713	18.9695	14.1788	10.5544	16.1275	12.011	-0.2077	1.4111	0.293	0.4239	4.7282	5.3796	6.1278	4.2787
11.4079	13.7691	16.4803	13.1034	15.0863	18.9894	14.8331	13.5216	19.3194	14.4661	10.7024	16.3722	12.267	-0.2105	1.5334	0.4353	0.4097	4.822	5.4507	6.2558	4.2929
11.6383	13.9996	16.7904	13.3993	15.3509	19.3507	15.1347	13.735	19.6523	14.7449	10.8531	16.6225	12.4975	-0.1991	1.687	0.5547	0.3926	4.8846	5.5276	6.3753	4.3185
11.9171	14.2214	17.0862	13.6809	15.6126	19.695	15.4049	13.9597	19.9851	15.0152	11.0068	16.8586	12.7051	-0.2048	1.8406	0.7027	0.3784	4.9102	5.6158	6.4664	4.3583
12.1305	14.4661	17.4162	13.9512	15.9028	20.0591	15.6752	14.1816	20.3009	15.2627	11.1518	17.1061	12.9043	-0.1935	2.0028	0.8108	0.3926	4.9273	5.667	6.5489	4.3811
12.3638	14.6624	17.6751	14.1759	16.156	20.3919	15.9198	14.3808	20.611	15.4959	11.2912	17.3081	13.0778	-0.2105	2.1621	0.9018	0.4068	4.933	5.7125	6.5944	4.401
12.5515	14.8644	17.9482	14.4206	16.3693	20.6907	16.1531	14.5685	20.887	15.6752	11.4022	17.5016	13.203	-0.2191	2.3186	1.0128	0.421	4.9045	5.7751	6.6029	4.4266
12.7592	15.0322	18.1815	14.5771	16.6111	20.978	16.3124	14.7677	21.1714	15.8544	11.5188	17.6666	13.3054	-0.2361	2.4551	1.0896	0.4836	4.7964	5.8149	6.6001	4.4266
12.9185	15.22	18.4091	14.7449	16.8245	21.2255	16.4774	14.9128	21.4047	15.9824	11.6156	17.7889	13.3737	-0.276	2.623	1.1465	0.5462	4.6855	5.8633	6.5489	4.4038
13.0835	15.4134	18.6395	14.9014	17.0549	21.4787	16.6396	15.092	21.6579	16.0934	11.7578	17.9596	13.4391	-0.293	2.7794	1.1749	0.5775	4.5888	5.9543	6.5119	4.4494
13.1945	15.5642	18.8045	15.0209	17.2114	21.7205	16.7335	15.2314	21.8827	16.2157	11.8261	18.0677	13.4647	-0.3471	2.9217	1.2005	0.6543	4.4294	5.9856	6.4208	4.4465
13.3196	15.7008	18.9752	15.1005	17.3878	21.9196	16.8273	15.3878	22.079	16.2783	11.9342	18.1786	13.4818	-0.3755	3.0212	1.2091	0.7397	4.2701	6.0283	6.3639	4.475
13.422	15.8572	19.089	15.1773	17.5471	22.1074	16.9155	15.5216	22.2553	16.3352	12.0423	18.2924	13.4875	-0.421	3.1464	1.2119	0.8279	4.1023	6.0852	6.2445	4.4892
13.4932	15.9426	19.1914	15.2086	17.7348	22.2297	16.9383	15.6553	22.409	16.3636	12.1475	18.3664	13.4761	-0.4751	3.2403	1.2176	0.9388	3.96	6.1506	6.1563	4.5034
13.5387	16.0791	19.2825	15.2115	17.8714	22.3748	16.9867	15.7861	22.5199	16.3864	12.2613	18.4518	13.4619	-0.5291	3.2972	1.246	1.0498	3.7894	6.1989	6.0339	4.5518
13.5899	16.1787	19.3479	15.2172	18.0108	22.4943	16.9838	15.8914	22.6593	16.3807	12.3467	18.52	13.4135	-0.6003	3.3512	1.2233	1.1778	3.613	6.2672	5.9116	4.5831
13.6155	16.2641	19.4076	15.2029	18.1417	22.5996	16.9753	16.0166	22.7503	16.3665	12.4605	18.5855	13.3851	-0.6429	3.4053	1.2204	1.2717	3.4764	6.3298	5.7978	4.6371
13.607	16.3522	19.4019	15.1375	18.2327	22.6223	16.9326	16.1047	22.8328	16.3153	12.5458	18.594	13.3225	-0.7112	3.4138	1.192	1.4025	3.3228	6.3725	5.6442	4.6684
13.5842	16.3949	19.4275	15.0749	18.3266	22.6707	16.8814	16.1844	22.8584	16.2441	12.6454	18.6139	13.2713	-0.7795	3.4025	1.1721	1.5334	3.1976	6.4294	5.5133	4.7509
13.5415	16.4518	19.3962	14.9867	18.3693	22.6735	16.7989	16.2299	22.8613	16.1673	12.6938	18.6139	13.1831	-0.8421	3.3939	1.1351	1.6586	3.0525	6.4777	5.3967	4.8078
13.4875	16.4689	19.328	14.8786	18.4262	22.665	16.7135	16.284	22.8528	16.0735	12.7478	18.5855	13.0864	-0.8904	3.3143	1.1067	1.7638	2.9473	6.4977	5.2744	4.8761
13.3964	16.4945	19.2967	14.7648	18.4688	22.6422	16.5998	16.3153	22.7589	15.971	12.7905	18.52	12.9839	-0.9445	3.2346	1.0412	1.8662	2.8648	6.5233	5.1805	4.9159
13.2969	16.4575	19.1886	14.6197	18.4461	22.5796	16.4689	16.3124	22.6621	15.843	12.8076	18.4318	12.8673	-1.0042	3.1578	1.027	1.963	2.7908	6.5403	5.0638	4.9643
13.2144	16.466	19.0947	14.4604	18.4318	22.5114	16.3466	16.3181	22.554	15.7065	12.8332	18.2981	12.7364	-1.0412	3.0554	0.9473	2.0597	2.7225	6.5233	4.9614	5.0098
13.1063	16.4035	18.9524	14.3125	18.4062	22.4004	16.1872	16.2584	22.4175	15.5386	12.8047	18.1559	12.5857	-1.081	2.933	0.916	2.1365	2.6543	6.5432	4.8676	5.0667
12.9555	16.3352	18.8187	14.1446	18.3152	22.261	15.9995	16.1872	22.2212	15.3594	12.7563	17.9795	12.4064	-1.1323	2.8107	0.8762	2.2304	2.5888	6.529	4.768	5.0781
12.799	16.2697	18.6537	13.9199	18.2355	22.1273	15.8316	16.1076	22.0221	15.1631	12.7051	17.8003	12.25	-1.1635	2.6799	0.8051	2.2844	2.5433	6.4948	4.6741	5.1151
12.6482	16.1844	18.5001	13.7293	18.1388	21.9538	15.6439	16.045	21.8115	14.964	12.6255	17.6211	12.0907	-1.1892	2.5604	0.7539	2.3413	2.5063	6.4664	4.5632	5.152
12.4889	16.082	18.3095	13.5216	18.0364	21.7945	15.4533	15.9255	21.5555	14.7534	12.5458	17.4077	11.9342	-1.1948	2.4324	0.66	2.3726	2.4779	6.4208	4.492	5.2061
12.2926	15.9511	18.1132	13.2855	17.8742	21.5868	15.2484	15.8288	21.2966	14.5401	12.4576	17.1943	11.7436	-1.2091	2.2759	0.5263	2.4011	2.4636	6.3668	4.4095	5.2459
12.0935	15.8032	17.9112	13.0465	17.7121	21.399	15.0265	15.7008	21.0434	14.3068	12.3524	16.9611	11.5501	-1.2119	2.1308	0.3897	2.4153	2.4437	6.3156	4.3213	5.2488
11.8574	15.624	17.6609	12.8019	17.5784	21.1544	14.7876	15.5528	20.7845	14.0877	12.25	16.7704	11.3794	-1.2261	1.9686	0.2418	2.4124	2.438	6.2502	4.2303	5.2857
11.6127	15.4846	17.4134	12.5601	17.3906	20.9609	14.5884	15.4533	20.5285	13.8687	12.1589	16.5485	11.2059	-1.2034	1.7894	0.0825	2.3783	2.438	6.1762	4.1649	5.2943
11.3766	15.2997	17.1659	12.3125	17.2114	20.6992	14.3438	15.2997	20.2611	13.6183	12.048	16.338	11.0181	-1.1977	1.613	-0.1166	2.3669	2.4437	6.1051	4.071	5.3028
11.112	15.0664	16.8928	12.0167	17.0179	20.446	14.0821	15.1403	19.9738	13.3765	11.9086	16.1019	10.8162	-1.1863	1.4054	-0.3072	2.3442	2.4324	6.0055	3.9828	5.2943
10.8218	14.8815	16.6111	11.755	16.8444	20.1957	13.8374	15.0038	19.675	13.1518	11.7891	15.8999	10.6625	-1.1579	1.2204	-0.5092	2.2986	2.421	5.9059	3.9003	5.3
10.5516	14.6396	16.3409	11.4733	16.614	19.9282	13.587	14.853	19.3877	12.8872	11.6725	15.6894	10.4577	-1.155	1.0327	-0.7197	2.256	2.3783	5.7864	3.7723	5.2829
10.2557	14.3665	16.0393	11.1746	16.4063	19.6381	13.3054	14.6624	19.1004	12.6255	11.5103	15.4504	10.25	-1.1209	0.8392	-0.916	2.2161	2.3385	5.6556	3.6556	5.2431
9.9599	14.1247	15.7178	10.8901	16.1844	19.3536	13.0038	14.4974	18.7846	12.3609	11.3737	15.2172	10.0424	-1.0953	0.6202	-1.1522	2.1678	2.2958	5.5475	3.5475	5.2289
9.6298	13.8374	15.3822	10.5914	15.9369	19.0776	12.7336	14.3011	18.4603	12.0935	11.2144	14.9611	9.7892	-1.0725	0.4267	-1.3826	2.108	2.2674	5.3967	3.4053	5.172
9.2998	13.5558	15.0834	10.2813	15.6809	18.7818	12.4349	14.0792	18.1559	11.7891	11.0324	14.688	9.5701	-1.0526	0.1849	-1.6443	2.0853	2.182	5.2658	3.2517	5.1037
8.9784	13.24	14.7221	9.9627	15.4277	18.4432	12.1049	13.8914	17.8401	11.4961	10.8617	14.4206	9.3112	-1.0412	-0.0228	-1.8947	2.0426	2.0853	5.1378	3.081	5.0496
8.6199	12.9612	14.3751	9.6384	15.1659	18.1673	11.8147	13.6952	17.5158	11.223	10.7024	14.156	9.0637	-1.0298	-0.3044	-2.1849	2.0255	1.9772	5.0041	2.8932	4.9785
8.2757	12.6482	14.0166	9.2799	14.9071	17.8316	11.4875	13.4476	17.1801	10.9129	10.5089	13.8801	8.802	-1.0241	-0.5291	-2.4466	2.0341	1.8833	4.8533	2.7026	4.9017
7.9485	12.3438	13.6752	8.967	14.6766	17.5528	11.1831	13.2713	16.8672	10.6512	10.3752	13.6724	8.5744	-1.0071	-0.7197	-2.6941	2.0056	1.7723	4.7225	2.5376	4.8732
7.5986	12.0537	13.3253	8.6427	14.4234	17.2455	10.8731	13.0636	16.5599	10.3581	10.2216	13.4334	8.3411	-1.0185	-0.9445	-2.9899	2.0227	1.6358	4.6201	2.3214	4.822
7.2743	11.7891	13.0038	8.3354	14.1845	16.9497	10.5943	12.8986	16.2925	10.0907	10.085	13.2087	8.1278	-1.0213	-1.1749	-3.2687	2.0198	1.5704	4.5319	2.1621	4.7851
6.9329	11.4847	12.6539	8.014	13.9512	16.6652	10.2813	12.7165	16.0194	9.8432	9.9911	13.0351	7.9343	-1.0441	-1.3883	-3.5276	2.0625	1.4594	4.4209	1.9857	4.7424
6.62	11.223	12.3325	7.7209	13.735	16.4063	10.0167	12.5885	15.7861	9.6327	9.883	12.8645	7.7636	-1.0583	-1.5874	-3.7694	2.0824	1.3655	4.3384	1.8264	4.694
6.3184	11.0039	12.0195	7.4393	13.5728	16.1673	9.8119	12.4548	15.5585	9.4506	9.8233	12.7478	7.6356	-1.0583	-1.7695	-4.0454	2.108	1.2887	4.2644	1.7012	4.6684
6.0254	10.782	11.7464	7.1747	13.3595	15.9568	9.5815	12.3325	15.385	9.2686	9.7835	12.6539	7.4962	-1.0839	-1.9601	-4.236	2.1393	1.2546	4.2047	1.596	4.6599
5.7921	10.5857	11.5075	6.9301	13.2371	15.7491	9.3738	12.2215	15.22	9.1576	9.7664	12.58	7.4222	-1.0953	-2.108	-4.438	2.1592	1.2432	4.1421	1.4651	4.6371
5.5475	10.415	11.2969	6.7053	13.0949	15.5557	9.2117	12.1447	15.0778	9.0267	9.7721	12.5288	7.3653	-1.101	-2.219	-4.6087	2.1735	1.2148	4.0994	1.3883	4.6371
5.3426	10.2699	11.0807	6.5261	12.9811	15.3878	9.0182	12.0793	14.964	8.9329	9.7522	12.4804	7.2914	-1.1123	-2.3612	-4.7424	2.2076	1.2204	4.0852	1.3143	4.6428
5.1293	10.1135	10.8844	6.3298	12.8787	15.2342	8.9186	12.0082	14.8729	8.8532	9.7835	12.4548	7.2658	-1.1209	-2.4409	-4.8875	2.2304	1.2233	4.0539	1.3001	4.6144
4.9643	10.0196	10.7507	6.179	12.8132	15.109	8.8077	11.9882	14.8046	8.7963	9.8205	12.4576	7.2515	-1.1465	-2.5149	-4.9785	2.256	1.2546	4.0482	1.266	4.6371
4.8306	9.8944	10.5999	6.0823	12.7421	15.0038	8.7366	11.9456	14.7506	8.7764	9.8432	12.4918	7.2572	-1.1408	-2.5689	-5.0695	2.2645	1.2973	4.0454	1.283	4.6428
4.7082	9.8517	10.5118	5.9543	12.6767	14.944	8.6598	11.9456	14.7307	8.7536	9.903	12.5259	7.2771	-1.1465	-2.5917	-5.0781	2.2787	1.3115	4.0511	1.2745	4.6542
4.64	9.8148	10.4492	5.8832	12.6767	14.8701	8.6114	11.937	14.7108	8.7451	9.9456	12.5487	7.28	-1.1465	-2.5604	-5.1065	2.2787	1.3371	4.0767	1.32	4.6457
4.5944	9.8005	10.3923	5.8177	12.6653	14.8189	8.6142	11.9513	14.7193	8.7991	9.9911	12.5942	7.3255	-1.1436	-2.5433	-5.1122	2.2816	1.394	4.0767	1.3798	4.6428
4.5802	9.8318	10.3809	5.8149	12.7051	14.8189	8.6313	11.9769	14.7563	8.8276	10.031	12.6653	7.3682	-1.1465	-2.475	-5.0496	2.2787	1.4196	4.1194	1.431	4.6513
4.566	9.8261	10.3752	5.812	12.7307	14.8189	8.6341	12.0167	14.7762	8.8788	10.0736	12.745	7.4422	-1.1493	-2.3954	-5.0126	2.2702	1.4594	4.1478	1.5305	4.6542
4.5973	9.9058	10.398	5.812	12.8019	14.853	8.6683	12.0963	14.8559	8.9329	10.1533	12.8388	7.5161	-1.1379	-2.3271	-4.9159	2.2417	1.522	4.1876	1.6073	4.64
4.6684	9.9855	10.4605	5.8917	12.8588	14.8871	8.7451	12.1589	14.9469	9.0324	10.213	12.9384	7.6157	-1.1294	-2.1962	-4.805	2.2218	1.5504	4.2502	1.7183	4.6457
4.7651	10.1021	10.543	5.9742	12.9612	14.9725	8.8447	12.2585	15.0692	9.1348	10.3211	13.0807	7.7466	-1.1067	-2.1109	-4.6912	2.1849	1.6301	4.29	1.8463	4.6656
4.859	10.2216	10.6227	6.0539	13.0465	15.0408	8.9414	12.341	15.1773	9.2401	10.415	13.2144	7.8632	-1.081	-1.963	-4.529	2.1251	1.687	4.3327	1.9686	4.64
4.9842	10.3724	10.7479	6.1847	13.1745	15.1574	9.0751	12.4662	15.3452	9.3966	10.4947	13.3765	8.0026	-1.0412	-1.7894	-4.3441	2.0654	1.761	4.3669	2.1109	4.6513
5.1293	10.526	10.8674	6.3213	13.3111	15.2883	9.2145	12.5657	15.4874	9.5331	10.58	13.5415	8.1391	-1.0042	-1.6642	-4.1535	2.0056	1.8292	4.4152	2.2474	4.6371
5.3028	10.6711	11.0153	6.4777	13.4334	15.4049	9.3311	12.6682	15.6609	9.701	10.6625	13.7008	8.3098	-0.9673	-1.4992	-3.9344	1.9174	1.9004	4.438	2.384	4.6229
5.4678	10.8731	11.1775	6.6655	13.5614	15.5329	9.5161	12.7848	15.8345	9.8404	10.7337	13.8545	8.4492	-0.9246	-1.3172	-3.6926	1.8349	1.963	4.4664	2.5319	4.5859
5.6726	11.0608	11.3681	6.8533	13.7208	15.7207	9.6867	12.8901	16.0109	10.0196	10.819	14.0365	8.6085	-0.8591	-1.1379	-3.4537	1.7126	2.0483	4.5006	2.6884	4.5831
5.8803	11.2258	11.5359	7.024	13.8545	15.8857	9.8546	12.9868	16.1986	10.1903	10.8503	14.1902	8.7679	-0.8079	-0.9673	-3.2289	1.5931	2.0853	4.5148	2.8278	4.5347
6.0624	11.4335	11.718	7.2316	13.9882	16.0251	10.0082	13.0864	16.3437	10.3411	10.8844	14.3153	8.8959	-0.7482	-0.8108	-3.0326	1.4793	2.1166	4.5205	2.9444	4.4949
6.2416	11.5729	11.8631	7.4023	14.1048	16.1588	10.1505	13.1489	16.466	10.4805	10.8873	14.432	8.9812	-0.6941	-0.6828	-2.8562	1.3769	2.1109	4.5034	3.0582	4.4266
6.4038	11.718	12.0167	7.5844	14.2243	16.3124	10.2899	13.1916	16.6168	10.5743	10.8901	14.5259	9.0637	-0.6401	-0.569	-2.6799	1.2773	2.0967	4.4863	3.1208	4.3413
6.5745	11.8488	12.1817	7.7409	14.2983	16.4575	10.4008	13.24	16.7505	10.6625	10.8418	14.5714	9.1121	-0.5889	-0.441	-2.5348	1.1863	2.091	4.438	3.1891	4.2303
6.7366	11.9996	12.3268	7.9144	14.395	16.6026	10.5345	13.2883	16.8785	10.7649	10.7877	14.6539	9.1576	-0.5377	-0.3499	-2.4437	1.0697	2.054	4.4323	3.246	4.1421
6.9045	12.1561	12.5117	8.0737	14.4917	16.7477	10.6711	13.3111	16.9952	10.8531	10.7507	14.7079	9.1747	-0.4893	-0.256	-2.3242	0.9644	1.9971	4.4152	3.2915	4.0454
7.0325	12.2272	12.6369	8.2046	14.5458	16.8643	10.7422	13.331	17.0834	10.91	10.6625	14.7506	9.1718	-0.4495	-0.1678	-2.2503	0.8819	1.9032	4.3697	3.2943	3.943
7.1548	12.3467	12.7535	8.3411	14.5799	16.9923	10.8389	13.3139	17.1801	10.9385	10.563	14.7449	9.1718	-0.4125	-0.0797	-2.1621	0.8079	1.8122	4.31	3.2858	3.8007
7.2601	12.4377	12.873	8.4578	14.6368	17.109	10.9186	13.3225	17.2569	10.9641	10.4861	14.762	9.1519	-0.3698	-0.0341	-2.0995	0.7425	1.7041	4.2758	3.283	3.667
7.3653	12.5003	12.9953	8.5772	14.6738	17.2057	11.0011	13.3282	17.3593	11.0096	10.398	14.7591	9.1007	-0.3499	0.0683	-2.0227	0.6913	1.6017	4.2218	3.2687	3.5362
7.4734	12.5686	13.1063	8.6341	14.6852	17.2996	11.0551	13.294	17.402	11.0011	10.2586	14.7563	9.0552	-0.3328	0.0939	-1.9829	0.66	1.4907	4.1592	3.2403	3.3797
7.5389	12.5857	13.1831	8.7309	14.6852	17.3935	11.1035	13.2656	17.4788	11.0124	10.1533	14.7506	9.0068	-0.3101	0.1366	-1.926	0.606	1.3883	4.0938	3.2204	3.2346
7.6328	12.617	13.2798	8.7821	14.6681	17.4703	11.1547	13.2115	17.5044	11.0096	10.0167	14.6909	8.9186	-0.293	0.2276	-1.8548	0.569	1.2631	4.0255	3.172	3.0838
7.6612	12.6113	13.331	8.8532	14.634	17.53	11.1974	13.1632	17.5386	10.984	9.8944	14.6283	8.839	-0.2674	0.2731	-1.7837	0.5235	1.1635	3.96	3.1493	2.9217
7.6982	12.5913	13.368	8.8845	14.6027	17.5528	11.2031	13.1006	17.5329	10.9527	9.7579	14.56	8.7394	-0.2418	0.2987	-1.7411	0.4836	1.0441	3.8918	3.1009	2.768
7.7295	12.5629	13.3879	8.8873	14.5628	17.5698	11.1974	13.0351	17.5272	10.9328	9.6242	14.4889	8.6598	-0.2247	0.3471	-1.6671	0.4296	0.9246	3.8292	3.0497	2.623
7.7266	12.5202	13.4249	8.8987	14.5116	17.5812	11.223	12.9498	17.5016	10.8901	9.4421	14.3893	8.5346	-0.1878	0.4296	-1.5988	0.3698	0.8449	3.778	3.0042	2.4949
7.7238	12.4605	13.3851	8.8788	14.4177	17.5499	11.1661	12.8246	17.4418	10.7934	9.2799	14.2556	8.4009	-0.1735	0.4722	-1.5334	0.3186	0.7197	3.704	2.933	2.3413
7.7096	12.4121	13.3481	8.856	14.3409	17.4873	11.1547	12.7279	17.3593	10.6938	9.0836	14.0877	8.2302	-0.1252	0.5235	-1.4594	0.256	0.623	3.6357	2.8847	2.1877
7.6783	12.3182	13.3054	8.8191	14.267	17.4333	11.1035	12.5999	17.2797	10.6199	8.9129	13.9	8.0766	-0.0996	0.569	-1.394	0.1906	0.5291	3.5589	2.8335	2.0682
7.5872	12.2272	13.1945	8.7195	14.1503	17.3451	11.0181	12.4548	17.1431	10.4776	8.6854	13.6895	7.9087	-0.0853	0.6145	-1.3285	0.1536	0.4125	3.4935	2.7481	1.9032
7.5303	12.1305	13.092	8.6341	14.028	17.2484	10.91	12.3154	17.0066	10.3553	8.4891	13.4562	7.7124	-0.0398	0.6572	-1.2546	0.091	0.2987	3.4281	2.6429	1.7695
7.4194	11.9825	12.9555	8.5232	13.9085	17.0948	10.8247	12.1732	16.8416	10.1874	8.27	13.2144	7.4962	-0.037	0.6486	-1.2688	0.0683	0.2134	3.3427	2.5774	1.6386
7.28	11.8318	12.8019	8.4037	13.789	16.9497	10.6512	12.0423	16.6879	10.0424	8.0737	12.9839	7.3312	-0.0142	0.6629	-1.2546	0.0398	0.1109	3.2716	2.4779	1.5391
7.189	11.7037	12.6539	8.2785	13.6383	16.7875	10.5345	11.8744	16.5201	9.903	7.8774	12.7507	7.1577	-0.0085	0.6458	-1.2916	0.0142	0.0398	3.2346	2.3783	1.4281
7.0268	11.5359	12.4776	8.0936	13.5301	16.6225	10.3923	11.7464	16.3522	9.7351	7.6897	12.5174	6.9642	0.0057	0.606	-1.3257	-0.0114	-0.0427	3.1834	2.3129	1.3314
6.8675	11.3794	12.304	7.9628	13.3964	16.4461	10.2472	11.607	16.173	9.6213	7.5104	12.2926	6.8334	0.0171	0.5633	-1.3712	-0.0341	-0.1109	3.1379	2.2076	1.266
6.694	11.2144	12.102	7.7978	13.2684	16.2925	10.1021	11.4762	15.991	9.4734	7.3597	12.085	6.6712	0.0341	0.4922	-1.4992	-0.0569	-0.1622	3.0981	2.128	1.192
6.5261	11.0437	11.9057	7.6299	13.1233	16.0905	9.9314	11.3425	15.8032	9.3141	7.189	11.8574	6.5176	0.0284	0.4353	-1.6073	-0.0597	-0.1991	3.0611	2.0198	1.1778
6.3469	10.8787	11.7294	7.4848	12.9925	15.9255	9.8005	11.2429	15.6439	9.1946	7.0439	11.681	6.4009	0.0313	0.3471	-1.7126	-0.074	-0.2333	3.0269	1.926	1.1607
6.1563	10.7052	11.5302	7.3312	12.8758	15.7605	9.6668	11.1319	15.4561	9.0836	6.9471	11.4875	6.2758	0.0256	0.2589	-1.852	-0.0797	-0.2646	2.9814	1.8463	1.1635
5.9913	10.5374	11.3197	7.1634	12.7279	15.5813	9.5217	10.9954	15.274	8.9812	6.822	11.2856	6.1677	0.0228	0.1707	-1.9942	-0.0654	-0.2703	2.9672	1.7638	1.155
5.7921	10.3695	11.1234	7.0069	12.5913	15.3964	9.3624	10.893	15.1119	8.8703	6.7167	11.0921	6.0795	0.0284	0.037	-2.1536	-0.0398	-0.2987	2.9046	1.6699	1.1493
5.6186	10.1874	10.9527	6.8476	12.4548	15.2001	9.2145	10.7735	14.9241	8.7565	6.6029	10.8987	5.9571	0.0085	-0.0398	-2.3186	-0.0171	-0.3158	2.8904	1.5903	1.1664
5.4166	10.0253	10.7479	6.7025	12.3353	15.0351	9.0893	10.6711	14.7677	8.6654	6.5147	10.7223	5.8604	-0.0085	-0.1707	-2.4665	0.0171	-0.3072	2.8562	1.522	1.2148
5.2829	9.883	10.5829	6.5688	12.1646	14.8786	8.9385	10.5601	14.5714	8.5431	6.4152	10.5146	5.7608	-0.0313	-0.2617	-2.6173	0.0569	-0.3215	2.8164	1.4054	1.2091
5.1264	9.738	10.4435	6.4436	12.0451	14.7136	8.8276	10.4463	14.4007	8.4492	6.3042	10.3126	5.6584	-0.0455	-0.3499	-2.714	0.0939	-0.3272	2.7737	1.3342	1.2318
5.0041	9.6242	10.2671	6.3611	11.9541	14.5458	8.7309	10.361	14.2783	8.3838	6.2473	10.1448	5.5873	-0.0512	-0.4011	-2.8249	0.1138	-0.3272	2.768	1.2688	1.2773
4.9216	9.4876	10.1419	6.2274	11.8403	14.4035	8.6085	10.2529	14.0906	8.2785	6.1847	9.9684	5.4849	-0.0853	-0.458	-2.9074	0.1536	-0.3556	2.7368	1.1692	1.32
4.7993	9.3909	10.0253	6.125	11.718	14.2812	8.5061	10.1818	13.9398	8.1932	6.0994	9.7948	5.3682	-0.0996	-0.5007	-2.9757	0.1991	-0.3698	2.6855	1.101	1.3399
4.7452	9.3198	9.9399	6.0539	11.6184	14.1389	8.4407	10.1249	13.8118	8.1164	6.0595	9.6498	5.3114	-0.1309	-0.5291	-3.0412	0.2503	-0.3897	2.6543	1.0384	1.3769
4.7082	9.2316	9.8546	6.0226	11.5444	14.0536	8.3639	10.0594	13.6866	8.051	6.0254	9.5189	5.2658	-0.1422	-0.5206	-3.0468	0.2845	-0.4125	2.6543	0.9985	1.4338
4.6826	9.1804	9.792	5.9628	11.4875	13.9626	8.307	10.0281	13.6155	7.9997	5.9998	9.4108	5.2118	-0.1593	-0.4779	-3.0582	0.3328	-0.4125	2.6457	0.9331	1.4566
4.694	9.1263	9.7436	5.9145	11.4306	13.8886	8.2529	9.9826	13.4932	7.9514	5.997	9.3169	5.1805	-0.1963	-0.4779	-3.0696	0.3983	-0.4239	2.6372	0.8848	1.5078
4.7026	9.132	9.7123	5.9173	11.405	13.8374	8.2245	9.9684	13.4562	7.9372	6.0453	9.2799	5.152	-0.2191	-0.421	-3.0269	0.4466	-0.4438	2.6514	0.8392	1.5761
4.7481	9.1491	9.7237	5.9429	11.3823	13.8232	8.2273	10.0025	13.4021	7.9343	6.0994	9.2429	5.1663	-0.2503	-0.3272	-2.9786	0.5092	-0.4353	2.6656	0.8136	1.6358
4.8078	9.1519	9.7465	5.9486	11.3908	13.7833	8.2416	10.0082	13.3908	7.9457	6.1762	9.2572	5.1947	-0.2845	-0.2532	-2.953	0.569	-0.4267	2.6827	0.7766	1.6955
4.8846	9.1775	9.7721	5.997	11.4193	13.7976	8.2586	10.0566	13.405	7.9685	6.2758	9.2771	5.2232	-0.33	-0.1707	-2.8591	0.6515	-0.4523	2.7026	0.7596	1.778
4.9842	9.2316	9.8404	6.0709	11.4819	13.8545	8.3098	10.1476	13.4363	8.0566	6.3668	9.3624	5.3142	-0.3528	-0.0711	-2.7851	0.7027	-0.3983	2.7197	0.7823	1.8548
5.0667	9.2913	9.92	6.1392	11.5188	13.8715	8.3582	10.2017	13.4619	8.0993	6.4749	9.4307	5.3455	-0.3755	0.0341	-2.6998	0.7567	-0.4011	2.7737	0.7937	1.926
5.2004	9.3539	10.0025	6.2302	11.5871	13.9341	8.4322	10.2785	13.5131	8.1704	6.6115	9.5189	5.4166	-0.4068	0.165	-2.5917	0.8108	-0.3897	2.8221	0.8136	1.9971
5.3256	9.4563	10.1078	6.3014	11.681	13.9967	8.526	10.3468	13.5643	8.2643	6.7025	9.6128	5.4849	-0.4267	0.3016	-2.4807	0.8535	-0.3812	2.8449	0.825	2.0455
5.4678	9.5417	10.2358	6.4066	11.7521	14.0877	8.6427	10.4349	13.6383	8.3639	6.8334	9.7266	5.5816	-0.4324	0.4381	-2.3783	0.8677	-0.367	2.8932	0.8762	2.0881
5.5901	9.6498	10.3496	6.509	11.8318	14.156	8.7309	10.5203	13.7037	8.4578	6.9386	9.8205	5.6357	-0.4495	0.586	-2.2446	0.8933	-0.3926	2.9558	0.9075	2.1336
5.7295	9.7323	10.4805	6.62	11.9029	14.2442	8.8105	10.5999	13.7748	8.5346	7.0894	9.9342	5.7068	-0.458	0.7226	-2.1308	0.916	-0.3784	2.9672	0.9416	2.1507
5.8746	9.8432	10.6227	6.7366	11.9968	14.3409	8.9357	10.6967	13.8602	8.6313	7.1975	10.0452	5.7808	-0.4552	0.8421	-2.0198	0.9303	-0.3841	2.9871	0.9815	2.1763
6.0396	9.9599	10.7763	6.8732	12.0878	14.4348	9.0751	10.7906	13.9569	8.7423	7.3113	10.1761	5.8604	-0.4523	1.0071	-1.8605	0.9132	-0.4267	3.007	1.0327	2.2161
6.162	10.0907	10.9356	6.9699	12.1618	14.5515	9.2145	10.8901	14.0365	8.876	7.4222	10.3098	5.9514	-0.4523	1.0725	-1.7581	0.9075	-0.4267	3.0184	1.101	2.2105
6.344	10.1903	11.0893	7.0951	12.2727	14.6909	9.3425	10.9641	14.1389	9.0068	7.5389	10.4207	6.014	-0.4381	1.1948	-1.6386	0.8791	-0.4438	3.0269	1.1579	2.219
6.5005	10.3126	11.2713	7.2146	12.378	14.8103	9.4677	11.075	14.2556	9.1235	7.6641	10.58	6.0852	-0.4296	1.2603	-1.5277	0.8648	-0.4353	3.0582	1.2432	2.1962
6.6655	10.452	11.4534	7.3597	12.469	14.9526	9.6128	11.1746	14.3893	9.2373	7.7722	10.7337	6.2018	-0.4097	1.3798	-1.3826	0.8136	-0.4324	3.081	1.2887	2.2105
6.7935	10.58	11.6042	7.4877	12.5942	15.0834	9.7465	11.2457	14.523	9.3482	7.8803	10.8787	6.2957	-0.4011	1.448	-1.2887	0.788	-0.4182	3.081	1.3655	2.1792
6.9471	10.6967	11.755	7.61	12.6625	15.1944	9.8631	11.3396	14.6084	9.4705	7.977	10.9897	6.3924	-0.3641	1.5448	-1.1522	0.7425	-0.4267	3.0668	1.4594	2.1564
7.0553	10.8133	11.9086	7.6982	12.7251	15.3167	9.9741	11.4136	14.7307	9.5473	8.0879	11.1177	6.4664	-0.3499	1.5789	-1.0697	0.7169	-0.4267	3.044	1.5163	2.0739
7.169	10.9015	12.0622	7.8034	12.799	15.4277	10.0651	11.479	14.8217	9.6384	8.1391	11.2429	6.5432	-0.33	1.6529	-0.9872	0.6543	-0.4381	3.007	1.5761	2.0369
7.2544	10.9783	12.139	7.8632	12.8303	15.4732	10.1135	11.5046	14.8615	9.7067	8.1733	11.3168	6.5716	-0.3072	1.7012	-0.9132	0.6344	-0.4666	2.9501	1.6244	1.9601
7.3284	11.0381	12.2727	7.9116	12.8844	15.5784	10.1846	11.5217	14.9497	9.7778	8.179	11.3908	6.6001	-0.3016	1.7382	-0.8478	0.6031	-0.4808	2.879	1.6927	1.8492
7.3909	11.1177	12.3524	7.9656	12.8986	15.6325	10.2529	11.516	14.9896	9.792	8.1847	11.4079	6.6171	-0.2731	1.7581	-0.8023	0.5633	-0.5064	2.8136	1.7268	1.7041
7.4279	11.1661	12.4292	8.0225	12.927	15.678	10.2785	11.5046	15.0265	9.8148	8.1704	11.4449	6.6371	-0.2646	1.7752	-0.7624	0.5377	-0.5661	2.7396	1.7382	1.5704
7.5133	11.2087	12.5003	8.0623	12.9498	15.7434	10.3155	11.4904	15.0607	9.8603	8.1221	11.4534	6.62	-0.2333	1.8179	-0.7368	0.4836	-0.5974	2.6343	1.7723	1.431
7.5303	11.2002	12.5231	8.0339	12.9128	15.7463	10.324	11.4164	15.0265	9.8375	8.0538	11.4193	6.5688	-0.239	1.8008	-0.7283	0.4893	-0.6572	2.5348	1.7581	1.2603
7.5218	11.2116	12.5601	8.0339	12.8929	15.7804	10.3468	11.3595	15.0237	9.8119	7.9457	11.3681	6.5403	-0.2418	1.8093	-0.7141	0.4722	-0.7397	2.438	1.7524	1.0867
7.5474	11.2343	12.5885	8.051	12.8758	15.7804	10.3382	11.2884	14.9953	9.8091	7.8461	11.3254	6.4834	-0.2276	1.8036	-0.6941	0.4381	-0.8023	2.3612	1.7467	0.9274
7.536	11.2372	12.5999	8.0538	12.8332	15.8003	10.3468	11.2116	14.9583	9.7806	7.7409	11.2543	6.4436	-0.2077	1.7866	-0.6742	0.4267	-0.8677	2.2901	1.7382	0.7482
7.5389	11.2116	12.5771	8.0339	12.7791	15.7861	10.3155	11.1177	14.9412	9.7351	7.6043	11.1974	6.3725	-0.2048	1.7553	-0.697	0.4239	-0.9331	2.1905	1.7012	0.5718
7.5133	11.1888	12.5515	8.0197	12.7194	15.7634	10.3126	11.021	14.8729	9.7067	7.4678	11.1063	6.3014	-0.202	1.7638	-0.7141	0.4153	-1.0042	2.091	1.6756	0.3897
7.4934	11.1945	12.5344	8.0225	12.6767	15.7434	10.3126	10.9157	14.816	9.6725	7.354	11.0153	6.2046	-0.1935	1.7496	-0.7141	0.3983	-1.0583	2.0312	1.6728	0.2276
7.499	11.1803	12.5373	8.0367	12.617	15.7378	10.3183	10.8133	14.7819	9.6611	7.2174	10.9698	6.1819	-0.1849	1.7382	-0.7226	0.3755	-1.1209	1.9459	1.6472	0.0825
7.482	11.1405	12.4975	8.0396	12.5316	15.7178	10.2699	10.6938	14.7108	9.6298	7.0553	10.8332	6.0766	-0.1735	1.7268	-0.6998	0.3698	-1.1607	1.8918	1.6386	-0.1081
7.4791	11.1206	12.4804	8.0367	12.5003	15.6951	10.3041	10.5943	14.6795	9.59	6.913	10.7706	6.0453	-0.1735	1.7297	-0.6885	0.3641	-1.2176	1.8321	1.6273	-0.2617
7.4848	11.075	12.4292	8.0367	12.3922	15.6439	10.2614	10.4691	14.5941	9.553	6.7565	10.6824	5.96	-0.1678	1.7524	-0.6401	0.3585	-1.2517	1.7325	1.5874	-0.4153
7.4564	11.0494	12.3865	8.0566	12.304	15.5671	10.2472	10.3496	14.5344	9.4876	6.5858	10.5999	5.8974	-0.1764	1.7723	-0.5917	0.3784	-1.2916	1.687	1.5675	-0.5377
7.4734	10.9868	12.3666	8.0595	12.2158	15.5159	10.2244	10.1988	14.4462	9.4307	6.3896	10.4833	5.8206	-0.1935	1.815	-0.5462	0.3926	-1.3143	1.6073	1.5305	-0.7141
7.4848	10.9356	12.2955	8.0709	12.1447	15.4504	10.2159	10.068	14.3665	9.3937	6.2217	10.3866	5.7637	-0.1935	1.8776	-0.4381	0.4125	-1.3229	1.5476	1.5192	-0.8478
7.4905	10.8759	12.2528	8.0822	12.048	15.3878	10.1789	9.9456	14.2983	9.3454	6.0453	10.2785	5.6983	-0.2105	1.9203	-0.367	0.4296	-1.3428	1.4537	1.5021	-0.99
7.4791	10.8332	12.2187	8.1221	11.9541	15.3253	10.159	9.8233	14.2471	9.2885	5.8889	10.1789	5.6556	-0.2105	1.9942	-0.2447	0.4381	-1.3115	1.3826	1.485	-1.1237
7.4649	10.7792	12.139	8.1078	11.8517	15.2541	10.1277	9.6754	14.1475	9.2202	5.6926	10.0651	5.5731	-0.2333	2.0654	-0.1138	0.4609	-1.3342	1.2944	1.4679	-1.246
7.4877	10.7251	12.0736	8.1192	11.7521	15.1546	10.1249	9.553	14.0678	9.1576	5.5133	9.957	5.5048	-0.2361	2.1194	-0.0114	0.4779	-1.3257	1.1835	1.4765	-1.3911
7.4621	10.6711	12.0167	8.1192	11.6781	15.1034	10.0907	9.4193	13.9996	9.1007	5.3256	9.8574	5.4564	-0.2418	2.1849	0.1252	0.4865	-1.3143	1.1067	1.4822	-1.4964
7.4507	10.5971	11.9456	8.1363	11.5871	15.0095	10.0594	9.2771	13.9028	9.0467	5.1378	9.7522	5.3967	-0.2475	2.2617	0.2247	0.5064	-1.2887	1.0298	1.4992	-1.6017
7.4535	10.5459	11.8517	8.1278	11.4904	14.9327	10.0253	9.1462	13.8602	8.9869	4.987	9.6498	5.3284	-0.2646	2.2986	0.2959	0.5235	-1.2489	0.9303	1.5021	-1.7012
7.4052	10.4605	11.7237	8.105	11.3937	14.8331	9.9684	9.0267	13.7691	8.9129	4.822	9.5644	5.2886	-0.2703	2.384	0.3812	0.5348	-1.2091	0.8535	1.4936	-1.761
7.3483	10.3837	11.6241	8.068	11.2912	14.7506	9.9086	8.8731	13.7122	8.839	4.6627	9.4876	5.2345	-0.2731	2.4039	0.4552	0.5519	-1.1579	0.7937	1.5163	-1.8406
7.3483	10.3211	11.5416	8.0197	11.2002	14.6368	9.8603	8.7508	13.661	8.7792	4.5461	9.4165	5.2089	-0.2959	2.4551	0.5291	0.5661	-1.1152	0.7084	1.5248	-1.8975
7.2771	10.2443	11.425	7.9713	11.1149	14.5458	9.7806	8.637	13.5956	8.6939	4.4124	9.3425	5.1748	-0.293	2.4807	0.6031	0.5633	-1.0384	0.6543	1.5504	-1.9487
7.2146	10.1846	11.2941	7.9116	11.0267	14.4462	9.7209	8.5147	13.5444	8.6455	4.31	9.2771	5.152	-0.2674	2.5177	0.6515	0.5377	-0.9616	0.6003	1.5704	-1.9743
7.1463	10.1277	11.1888	7.8461	10.9556	14.3637	9.6355	8.435	13.4818	8.5687	4.2161	9.2714	5.1236	-0.256	2.512	0.7055	0.5149	-0.8961	0.5633	1.596	-1.9971
7.0666	10.0253	11.058	7.7409	10.8617	14.2328	9.5502	8.3525	13.4249	8.4947	4.125	9.2316	5.0667	-0.2418	2.5149	0.7425	0.4808	-0.8307	0.5206	1.596	-1.9686
6.987	9.9712	10.9328	7.6811	10.7877	14.1276	9.4648	8.2643	13.3794	8.4208	4.0397	9.2003	5.0638	-0.2162	2.5461	0.7852	0.4296	-0.7482	0.4836	1.6386	-1.943
6.9045	9.8887	10.7877	7.5588	10.6967	14.0052	9.3567	8.2245	13.3168	8.3354	4.0056	9.1604	5.0183	-0.1764	2.5433	0.8136	0.3841	-0.6771	0.4609	1.6728	-1.926
6.785	9.7948	10.654	7.4393	10.6028	13.8715	9.2429	8.1135	13.24	8.2302	3.9259	9.0979	4.9671	-0.1735	2.5461	0.8364	0.3528	-0.6088	0.4552	1.6614	-1.8861
6.6968	9.7123	10.526	7.3426	10.5203	13.7634	9.1292	8.0709	13.1632	8.1505	3.9003	9.0637	4.9188	-0.1565	2.5291	0.8307	0.2987	-0.5377	0.4751	1.6927	-1.8179
6.6029	9.6213	10.398	7.2146	10.4549	13.6553	9.0154	8.0253	13.1034	8.014	3.8747	9.0125	4.8704	-0.1337	2.5348	0.8165	0.2646	-0.5064	0.4438	1.6756	-1.7553
6.4806	9.5388	10.2842	7.0837	10.3752	13.533	8.8674	7.94	13.038	7.9144	3.8462	8.9186	4.7822	-0.1195	2.5632	0.8364	0.2333	-0.4922	0.4836	1.6557	-1.6927
6.3981	9.462	10.1533	6.9756	10.2955	13.4249	8.7622	7.8973	12.964	7.8148	3.8178	8.8845	4.7225	-0.0939	2.5575	0.8307	0.1849	-0.4637	0.5121	1.6529	-1.5903
6.2814	9.3653	10.0196	6.7964	10.2159	13.3196	8.6057	7.8404	12.8645	7.6641	3.8007	8.7849	4.5944	-0.0939	2.5661	0.8051	0.1707	-0.4808	0.5519	1.6187	-1.5391
6.1648	9.2316	9.9058	6.6484	10.1277	13.203	8.4663	7.7835	12.7848	7.499	3.7922	8.6967	4.4835	-0.074	2.5291	0.7539	0.1479	-0.5235	0.5804	1.5732	-1.4537
6.0681	9.1576	9.7721	6.5033	10.085	13.1034	8.3098	7.7352	12.6682	7.3938	3.7723	8.5772	4.3555	-0.0711	2.5604	0.7482	0.1366	-0.5775	0.6401	1.5248	-1.394
5.9799	9.0723	9.6981	6.3725	10.0338	13.0209	8.2046	7.7124	12.6141	7.2771	3.7723	8.5118	4.273	-0.0626	2.5661	0.7055	0.1366	-0.6316	0.6941	1.4679	-1.2802
5.8832	8.9727	9.5986	6.2046	10.0054	12.9441	8.0396	7.738	12.5401	7.1434	3.7922	8.4521	4.1763	-0.0626	2.5604	0.6486	0.128	-0.697	0.7482	1.4025	-1.192
5.8007	8.8902	9.536	6.0795	9.9599	12.8787	7.9315	7.7124	12.4975	7.0126	3.832	8.398	4.0625	-0.0683	2.5461	0.5889	0.1422	-0.7795	0.8079	1.3172	-1.0867
5.7125	8.8532	9.4734	5.9799	9.9428	12.8132	7.849	7.7494	12.4576	6.9272	3.8918	8.344	3.9913	-0.0882	2.5234	0.5064	0.1764	-0.8392	0.8933	1.246	-0.9929
5.6641	8.8077	9.4449	5.8775	9.9342	12.8275	7.7409	7.7864	12.432	6.8561	3.9458	8.307	3.8946	-0.1081	2.4893	0.4182	0.2048	-0.9274	0.9701	1.1778	-0.8677
5.6101	8.7565	9.4193	5.8234	9.9371	12.799	7.6555	7.8319	12.432	6.7622	4.0283	8.2871	3.8406	-0.1223	2.4466	0.3357	0.2418	-1.0071	1.0554	1.1123	-0.771
5.556	8.7166	9.4421	5.721	9.9968	12.8132	7.6043	7.9116	12.4207	6.7338	4.125	8.2814	3.8206	-0.1422	2.4068	0.239	0.2703	-1.0668	1.1692	1.0298	-0.6486
5.5418	8.711	9.4563	5.6726	10.0111	12.8047	7.5446	7.9741	12.4463	6.6627	4.2104	8.2871	3.7694	-0.165	2.3527	0.128	0.3215	-1.1493	1.2717	0.9445	-0.5291
5.5105	8.6996	9.4535	5.63	10.048	12.8104	7.4848	8.0367	12.4377	6.6342	4.2986	8.2757	3.7097	-0.1935	2.2787	0.0228	0.3841	-1.229	1.3314	0.8677	-0.4466
5.4792	8.7024	9.5018	5.6271	10.0992	12.8588	7.445	8.1192	12.469	6.5944	4.3896	8.2928	3.6841	-0.2191	2.2076	-0.0853	0.421	-1.3115	1.4281	0.8136	-0.3442
5.5133	8.7252	9.5701	5.6072	10.1448	12.8957	7.4478	8.1847	12.4776	6.5716	4.4721	8.2729	3.6471	-0.2304	2.1564	-0.1707	0.4808	-1.3826	1.4992	0.7254	-0.2646
5.519	8.7792	9.6441	5.6214	10.2017	12.9213	7.4165	8.2842	12.4804	6.5176	4.5546	8.2529	3.6044	-0.2703	2.0853	-0.2816	0.5519	-1.4651	1.5903	0.6401	-0.1963
5.5674	8.8048	9.7209	5.6129	10.2586	12.9782	7.408	8.3497	12.4861	6.5033	4.6201	8.2359	3.5418	-0.3129	2.0198	-0.3528	0.6173	-1.5761	1.6529	0.532	-0.1138
5.6072	8.876	9.7806	5.6328	10.3297	13.0238	7.408	8.4094	12.4918	6.4521	4.6969	8.2046	3.502	-0.3442	1.9886	-0.4381	0.7055	-1.6842	1.724	0.421	-0.0683
5.6584	8.9528	9.8887	5.6584	10.3894	13.0693	7.4137	8.4891	12.5032	6.4379	4.7282	8.1591	3.4508	-0.4011	1.9686	-0.4637	0.7937	-1.778	1.7752	0.3528	-0.0114
5.7551	9.0267	9.9826	5.7011	10.4662	13.1233	7.408	8.5573	12.506	6.4095	4.7851	8.1022	3.374	-0.4296	1.9544	-0.4836	0.8762	-1.8918	1.8093	0.2959	0.0256
5.832	9.1263	10.0822	5.7523	10.5174	13.1717	7.4336	8.5744	12.5117	6.3924	4.8249	8.0623	3.3313	-0.4836	1.9373	-0.5064	0.9616	-2.0056	1.8548	0.1878	0.0284
5.9372	9.26	10.2102	5.8177	10.6085	13.2542	7.4791	8.6569	12.5288	6.3639	4.8704	7.9997	3.2858	-0.5235	1.9686	-0.4922	1.0526	-2.1024	1.8918	0.1252	0.0541
6.0709	9.3795	10.361	5.9258	10.6824	13.3651	7.5133	8.7423	12.5487	6.381	4.9131	7.9685	3.2431	-0.5519	2.0142	-0.441	1.1152	-2.1792	1.9146	0.0626	0.0711
6.2189	9.5075	10.5288	6.0226	10.7849	13.459	7.61	8.7935	12.5913	6.4066	4.9728	7.9628	3.2147	-0.5804	2.1166	-0.3471	1.1635	-2.2588	1.9573	0.0512	0.091
6.3981	9.6668	10.708	6.1421	10.8617	13.5757	7.684	8.8504	12.6283	6.455	4.9956	7.9343	3.2147	-0.6003	2.2019	-0.2191	1.2034	-2.3129	1.9601	0.0085	0.0939
6.5688	9.829	10.893	6.2758	10.9612	13.7208	7.8063	8.893	12.6795	6.4806	5.0496	7.8945	3.1862	-0.6202	2.2986	-0.128	1.229	-2.3925	1.9886	-0.037	0.0996
6.7679	10.0224	11.0637	6.4351	11.0608	13.8431	7.8916	8.9585	12.7364	6.5261	5.0895	7.8945	3.1806	-0.6287	2.4267	0.0284	1.2404	-2.4238	2.0028	-0.0398	0.1053
6.9585	10.2045	11.24	6.5915	11.1462	13.9939	8.014	8.9869	12.8047	6.5745	5.1122	7.8547	3.1606	-0.6202	2.5604	0.2191	1.2489	-2.4693	2.0198	-0.0597	0.0711
7.1207	10.3439	11.4363	6.7224	11.2087	14.1162	8.1192	9.0068	12.8531	6.6171	5.1037	7.8091	3.1293	-0.6316	2.6742	0.3585	1.2603	-2.5234	2.0056	-0.0654	0.0284
7.3113	10.5032	11.6184	6.8646	11.2884	14.2727	8.2188	9.021	12.9071	6.6541	5.0923	7.7693	3.1151	-0.6287	2.8193	0.5348	1.2404	-2.5661	1.9971	-0.0626	0.0028
7.5218	10.6796	11.8062	7.0268	11.3567	14.4035	8.3297	9.0438	12.9384	6.7053	5.0895	7.738	3.0895	-0.6145	2.9501	0.7055	1.2261	-2.5803	1.9829	-0.037	-0.0228
7.684	10.8389	12.0025	7.169	11.405	14.5429	8.4578	9.0154	12.9982	6.748	5.0781	7.6726	3.0468	-0.6003	3.1066	0.8705	1.2034	-2.623	1.9658	-0.0313	-0.1081
7.8518	10.9612	12.1732	7.2971	11.4306	14.6624	8.5403	8.9983	13.0095	6.7821	5.0269	7.5844	3.0013	-0.5889	3.209	1.027	1.1806	-2.6713	1.9402	-0.0199	-0.1565
7.9912	11.0608	12.3296	7.3966	11.4619	14.7591	8.6142	8.9442	13.0124	6.7964	4.9501	7.5133	2.9359	-0.5832	3.3825	1.1749	1.1493	-2.714	1.9174	0.0085	-0.2276
8.1562	11.1974	12.5174	7.5047	11.5046	14.8672	8.7138	8.9414	13.0295	6.8305	4.9102	7.4308	2.8989	-0.5661	3.5276	1.3285	1.118	-2.7624	1.8805	0.0228	-0.3129
8.2871	11.277	12.6397	7.6242	11.4875	14.9469	8.765	8.876	13.001	6.8077	4.8135	7.3198	2.8335	-0.5434	3.6699	1.4793	1.0953	-2.7993	1.8264	0.0284	-0.4182
8.4066	11.3481	12.7706	7.701	11.4648	15.018	8.8048	8.802	12.9726	6.7964	4.7026	7.2117	2.7595	-0.532	3.8206	1.5931	1.0725	-2.8648	1.778	0.037	-0.5405
8.5175	11.405	12.8815	7.7665	11.4449	15.0749	8.839	8.7337	12.9327	6.7651	4.6144	7.0752	2.6742	-0.5348	3.9544	1.6984	1.064	-2.9046	1.7411	0.0398	-0.66
8.6114	11.4762	13.0067	7.8319	11.4306	15.1176	8.8703	8.6654	12.8929	6.7537	4.5546	6.9898	2.5917	-0.5235	4.1137	1.8036	1.0355	-2.933	1.7012	0.0597	-0.7397
8.7081	11.5018	13.0864	7.8689	11.3994	15.1375	8.8703	8.5744	12.8388	6.7224	4.4522	6.8874	2.5063	-0.5121	4.2275	1.9203	1.0241	-2.9786	1.6386	0.0597	-0.8478
8.7508	11.5274	13.1859	7.9172	11.3794	15.1489	8.8873	8.5232	12.7649	6.6826	4.3669	6.7651	2.4409	-0.5121	4.3498	1.9914	1.0042	-2.9928	1.5874	0.0853	-0.9644
8.8646	11.5615	13.2684	7.9628	11.351	15.1802	8.8959	8.4492	12.708	6.6854	4.2758	6.6968	2.4011	-0.4751	4.4721	2.1109	0.9701	-3.0269	1.5675	0.1053	-1.0526
8.9073	11.5587	13.3083	7.9628	11.2799	15.1603	8.8959	8.3468	12.6397	6.6228	4.2132	6.5659	2.3271	-0.4722	4.5774	2.1763	0.936	-3.0582	1.5163	0.1223	-1.1579
8.9272	11.553	13.3566	7.9656	11.2372	15.1062	8.856	8.2871	12.5231	6.5915	4.1194	6.4692	2.2702	-0.4552	4.6798	2.2332	0.8904	-3.0724	1.4907	0.1593	-1.2802
8.9499	11.4819	13.3424	7.9514	11.1775	15.0948	8.802	8.196	12.4064	6.546	4.0198	6.3611	2.2133	-0.4182	4.7651	2.2844	0.8335	-3.0867	1.4423	0.1622	-1.3911
