"FZ"	"FC3"	"FCZ"	"FC4"	"C3"	"CZ"	"C4"	"CP3"	"CPZ"	"CP4"	"P3"	"PZ"	"P4"	"OZ"	"FP1"	"FP2"	"A2"	"P8"	"TP7"	"TP8"	"P7"	"VEOG"	"HEOG"
-0.1505	-0.4457	-0.7206	-0.4775	-0.6859	-1.0013	-0.6309	-0.8508	-1.2154	-0.6164	-1.0418	-1.1113	-0.5035	0.7669	-0.026	0.3299	-1.5396	0.3675	-0.3646	0.5383	-0.9926	-0.5817	0.1621
-0.0666	-0.3849	-0.654	-0.4023	-0.6396	-0.9203	-0.5441	-0.7842	-1.1431	-0.5469	-0.9724	-1.0765	-0.4486	0.7466	0.081	0.3762	-1.4933	0.382	-0.3068	0.5556	-0.9289	-0.5325	0.1302
0	-0.3299	-0.5354	-0.3125	-0.5296	-0.8421	-0.4659	-0.7003	-1.0679	-0.4717	-0.9029	-0.9984	-0.3907	0.6945	0.2026	0.4543	-1.4093	0.3994	-0.1997	0.5875	-0.8537	-0.5064	0.0839
0.0666	-0.2489	-0.4601	-0.2402	-0.4486	-0.7842	-0.408	-0.6251	-1.0129	-0.4283	-0.8566	-0.9695	-0.3646	0.6511	0.2691	0.4717	-1.3138	0.4254	-0.1447	0.6048	-0.7929	-0.463	0.0434
0.1187	-0.1534	-0.3704	-0.136	-0.3588	-0.6945	-0.3212	-0.573	-0.9232	-0.3588	-0.7871	-0.9174	-0.3299	0.5961	0.3849	0.4891	-1.2068	0.4428	-0.0897	0.6135	-0.7032	-0.4572	-0.0116
0.1852	-0.1187	-0.2807	-0.0637	-0.301	-0.6511	-0.2778	-0.5325	-0.8769	-0.3212	-0.764	-0.8653	-0.2894	0.5296	0.4312	0.5006	-1.065	0.4514	-0.0405	0.6077	-0.6569	-0.4572	-0.0492
0.246	-0.0405	-0.2026	0.0116	-0.217	-0.5643	-0.2344	-0.4659	-0.8045	-0.2662	-0.7148	-0.8334	-0.2576	0.4543	0.5006	0.5325	-0.9145	0.463	0.0087	0.5933	-0.6019	-0.492	-0.0955
0.3183	0.0376	-0.1302	0.0666	-0.1621	-0.5064	-0.1505	-0.4023	-0.7293	-0.1997	-0.6338	-0.7727	-0.2489	0.3762	0.5701	0.5209	-0.7727	0.4457	0.0405	0.5759	-0.5614	-0.5238	-0.1476
0.3733	0.1129	-0.0376	0.1215	-0.0955	-0.4312	-0.0926	-0.3675	-0.683	-0.1418	-0.5933	-0.7293	-0.2055	0.3212	0.6164	0.5469	-0.6453	0.4514	0.0637	0.5788	-0.4717	-0.5788	-0.2026
0.4399	0.1534	0.0289	0.1592	-0.0434	-0.3994	-0.0666	-0.3444	-0.6482	-0.1302	-0.5441	-0.7148	-0.1968	0.2431	0.6453	0.5354	-0.4949	0.4399	0.0897	0.5585	-0.463	-0.654	-0.2605
0.4688	0.2055	0.0752	0.1852	-0.0029	-0.3328	-0.0608	-0.3183	-0.6193	-0.1013	-0.5296	-0.6859	-0.1881	0.1534	0.654	0.5267	-0.3299	0.408	0.0897	0.5412	-0.4196	-0.7351	-0.301
0.5093	0.2431	0.0781	0.1823	0.0376	-0.3096	-0.0347	-0.2778	-0.5788	-0.0897	-0.4775	-0.6743	-0.1852	0.0868	0.6627	0.5354	-0.1852	0.3936	0.0955	0.5354	-0.3704	-0.8392	-0.3531
0.5267	0.2691	0.1042	0.1968	0.0579	-0.2981	-0.0145	-0.2576	-0.5354	-0.0839	-0.4601	-0.6627	-0.1794	0.0058	0.6801	0.5035	-0.0376	0.3646	0.0868	0.4891	-0.3299	-0.955	-0.4283
0.5643	0.3183	0.1302	0.2084	0.0984	-0.2662	-0.0058	-0.2199	-0.4978	-0.0608	-0.4254	-0.6309	-0.1765	-0.0347	0.6482	0.5122	0.0695	0.3328	0.0897	0.4775	-0.2836	-1.0765	-0.4717
0.5585	0.3328	0.1447	0.1997	0.1389	-0.2431	-0.0116	-0.2113	-0.4717	-0.0666	-0.408	-0.6164	-0.1707	-0.1013	0.6164	0.4978	0.191	0.3068	0.1042	0.4283	-0.272	-1.1807	-0.518
0.5556	0.327	0.1447	0.1736	0.1244	-0.2402	-0.0116	-0.1852	-0.4659	-0.0637	-0.382	-0.6019	-0.1707	-0.1418	0.6077	0.4717	0.2662	0.2836	0.11	0.3762	-0.2315	-1.2907	-0.5672
0.5672	0.3415	0.1273	0.165	0.1418	-0.2373	-0.0087	-0.1736	-0.4341	-0.0839	-0.3444	-0.5759	-0.165	-0.1707	0.5643	0.4341	0.3357	0.2662	0.0897	0.3386	-0.2199	-1.3775	-0.6164
0.5643	0.3444	0.1013	0.1621	0.1707	-0.2113	0	-0.1158	-0.4167	-0.0666	-0.3183	-0.5354	-0.1534	-0.1968	0.5238	0.382	0.3791	0.246	0.0984	0.272	-0.191	-1.4325	-0.6367
0.5643	0.3473	0.1273	0.1563	0.1794	-0.2055	0.0087	-0.1071	-0.3965	-0.0666	-0.2691	-0.5006	-0.1476	-0.2084	0.4891	0.3617	0.3965	0.2402	0.1158	0.2431	-0.1476	-1.4672	-0.6627
0.5296	0.3386	0.136	0.1418	0.1997	-0.2257	0.026	-0.0955	-0.3646	-0.0405	-0.217	-0.4688	-0.1158	-0.217	0.463	0.3096	0.408	0.2141	0.1273	0.1823	-0.1302	-1.4643	-0.6685
0.5035	0.3154	0.0984	0.11	0.1997	-0.2084	0.0087	-0.0666	-0.3617	-0.0434	-0.2113	-0.4428	-0.1244	-0.217	0.4167	0.2489	0.4109	0.2199	0.1302	0.1621	-0.1158	-1.4498	-0.6772
0.4833	0.3039	0.0723	0.0955	0.2084	-0.2113	0.0145	-0.0318	-0.3502	-0.0608	-0.165	-0.3936	-0.1129	-0.2141	0.382	0.2113	0.408	0.1968	0.1447	0.1215	-0.1013	-1.3891	-0.6772
0.4486	0.3039	0.0579	0.081	0.2257	-0.1968	0.0058	-0.0087	-0.3212	-0.0492	-0.1302	-0.3415	-0.0666	-0.1968	0.356	0.1447	0.3849	0.2026	0.1505	0.0955	-0.0839	-1.308	-0.6453
0.4109	0.2633	0.0174	0.055	0.2141	-0.1852	-0.0058	0.0145	-0.2923	-0.0434	-0.0955	-0.2894	-0.0521	-0.1794	0.3386	0.0926	0.3531	0.165	0.1707	0.0839	-0.081	-1.1894	-0.6222
0.3588	0.217	0	0.0058	0.2141	-0.1765	-0.0318	0.0521	-0.272	-0.0579	-0.0637	-0.2547	-0.0289	-0.165	0.3154	0.081	0.327	0.165	0.1881	0.0608	-0.0752	-1.065	-0.5875
0.3183	0.2026	-0.0289	-0.0637	0.217	-0.1534	-0.0376	0.0839	-0.2402	-0.0579	-0.0145	-0.2084	-0.0145	-0.1621	0.2894	0.0434	0.3125	0.1476	0.1794	0.0521	-0.0579	-0.9174	-0.5441
0.2576	0.1881	-0.0289	-0.0897	0.2402	-0.1447	-0.055	0.1215	-0.2141	-0.055	0.0463	-0.1505	0.026	-0.1447	0.2547	0.0029	0.2807	0.1215	0.2055	0.0376	-0.0203	-0.7466	-0.4891
0.2228	0.1881	-0.0608	-0.1129	0.2373	-0.1302	-0.0695	0.1563	-0.165	-0.0608	0.0781	-0.0955	0.0405	-0.1389	0.2576	-0.0116	0.2633	0.1187	0.2431	0.0087	-0.0145	-0.5643	-0.4543
0.1765	0.165	-0.0521	-0.1563	0.2373	-0.1244	-0.081	0.2084	-0.1042	-0.0318	0.1273	-0.0232	0.0723	-0.1389	0.2084	-0.0203	0.2373	0.1158	0.2605	-0.0058	0.0029	-0.3994	-0.4023
0.1418	0.165	-0.0579	-0.1997	0.2547	-0.0868	-0.0926	0.2373	-0.0463	-0.0232	0.191	0.0376	0.11	-0.1158	0.2141	-0.0174	0.2141	0.0955	0.2923	-0.0347	0.0318	-0.2286	-0.3502
0.0752	0.1534	-0.0666	-0.2373	0.2315	-0.0868	-0.11	0.2344	-0.0376	-0.0289	0.2055	0.081	0.1215	-0.11	0.1534	-0.0203	0.1997	0.0926	0.3212	-0.0492	0.0116	-0.0637	-0.3096
0.0926	0.1621	-0.0347	-0.272	0.2489	-0.0376	-0.0926	0.2749	0.0232	-0.0116	0.2431	0.1592	0.1534	-0.0984	0.1447	0.0232	0.1678	0.0695	0.327	-0.0897	0.0405	0.0579	-0.2894
0.0492	0.1939	-0.0405	-0.2952	0.272	0	-0.1158	0.2923	0.055	0	0.2894	0.2257	0.1707	-0.0926	0.1215	0.0318	0.1621	0.0521	0.3444	-0.0781	0.0579	0.191	-0.246
0.055	0.1968	0.0087	-0.3096	0.3068	0.0492	-0.1273	0.3299	0.1129	0.0289	0.327	0.2778	0.1939	-0.0897	0.0897	0.0608	0.1621	0.0666	0.3531	-0.11	0.0666	0.2691	-0.2055
0.0463	0.2576	0.0405	-0.3039	0.3125	0.0839	-0.1071	0.3502	0.1736	0.0463	0.3531	0.3154	0.2055	-0.0926	0.0666	0.0926	0.1765	0.0521	0.3531	-0.1187	0.0723	0.3357	-0.1852
0.0984	0.2894	0.11	-0.2923	0.3357	0.1158	-0.0752	0.3994	0.2489	0.081	0.4051	0.3733	0.2547	-0.0955	0.0637	0.1187	0.1678	0.0695	0.3733	-0.1071	0.1244	0.3762	-0.165
0.1302	0.3386	0.1678	-0.2662	0.3646	0.1968	-0.0492	0.4514	0.3212	0.1187	0.4428	0.4572	0.2691	-0.0984	0.0434	0.1476	0.1881	0.0781	0.3849	-0.0608	0.1563	0.3704	-0.1476
0.1678	0.3704	0.2113	-0.2373	0.3791	0.2547	-0.0232	0.4949	0.382	0.1621	0.463	0.4978	0.3154	-0.1215	0.0376	0.1678	0.2141	0.0781	0.4225	-0.0666	0.191	0.3617	-0.1331
0.2055	0.4399	0.2865	-0.1707	0.4514	0.3328	0.0666	0.5556	0.4572	0.2113	0.518	0.5701	0.3531	-0.1273	0.0579	0.2084	0.2315	0.0868	0.4601	-0.0116	0.2344	0.3241	-0.1331
0.2662	0.4688	0.3502	-0.0955	0.4775	0.3936	0.1331	0.5933	0.5267	0.2923	0.5788	0.654	0.4399	-0.1447	0.0723	0.191	0.2576	0.0926	0.463	0.026	0.2981	0.2489	-0.1418
0.3068	0.5325	0.408	-0.0318	0.518	0.4514	0.2084	0.6453	0.573	0.3531	0.6164	0.7032	0.4514	-0.1592	0.1187	0.1765	0.2749	0.1129	0.5151	0.0579	0.3212	0.1765	-0.1389
0.3849	0.5614	0.4804	0.0492	0.5614	0.5151	0.2633	0.6945	0.6685	0.4138	0.654	0.764	0.4978	-0.1678	0.1592	0.1736	0.301	0.1534	0.5151	0.0926	0.3675	0.0897	-0.1621
0.4283	0.599	0.5759	0.1129	0.5846	0.5701	0.3415	0.7177	0.7177	0.4486	0.7061	0.8306	0.5383	-0.1707	0.2113	0.1505	0.327	0.1592	0.5209	0.1302	0.408	-0.0289	-0.1707
0.4688	0.6511	0.6135	0.2315	0.628	0.6193	0.4196	0.7466	0.7756	0.5006	0.7206	0.8769	0.5441	-0.1968	0.2518	0.1013	0.3588	0.191	0.5527	0.1505	0.4572	-0.1244	-0.1968
0.4833	0.6396	0.6598	0.3039	0.6077	0.654	0.4688	0.7669	0.8074	0.5325	0.7437	0.9	0.5585	-0.2141	0.2894	0.0347	0.4051	0.1794	0.5383	0.1968	0.4978	-0.2228	-0.2199
0.4862	0.6367	0.6685	0.356	0.6193	0.6916	0.4949	0.7698	0.8363	0.5498	0.7524	0.9029	0.5527	-0.2431	0.3183	-0.026	0.463	0.1678	0.5267	0.2055	0.5209	-0.3212	-0.2315
0.5238	0.6424	0.7322	0.4283	0.6338	0.7119	0.5469	0.79	0.8653	0.5846	0.7727	0.9463	0.5701	-0.2633	0.3444	-0.0839	0.5064	0.1621	0.5209	0.2257	0.5441	-0.3965	-0.2431
0.5354	0.6338	0.7322	0.4659	0.6164	0.7148	0.5527	0.7669	0.8508	0.5961	0.7871	0.9261	0.5701	-0.2952	0.3444	-0.1389	0.5585	0.1418	0.5093	0.2055	0.573	-0.4746	-0.2373
0.5209	0.6106	0.7148	0.4775	0.6222	0.709	0.5788	0.7785	0.8595	0.5585	0.7842	0.9376	0.5209	-0.3241	0.3502	-0.1968	0.6164	0.1129	0.4891	0.1678	0.6048	-0.5383	-0.2518
0.4949	0.599	0.7206	0.5238	0.6367	0.7032	0.5904	0.764	0.845	0.5643	0.764	0.9318	0.5354	-0.3386	0.356	-0.2228	0.6569	0.1158	0.4688	0.1418	0.6424	-0.5961	-0.2286
0.4688	0.5383	0.6974	0.5122	0.5933	0.6974	0.573	0.7408	0.8219	0.5354	0.7669	0.9058	0.5006	-0.3791	0.2662	-0.2778	0.7235	0.0781	0.4601	0.1013	0.6656	-0.5846	-0.2141
0.4109	0.463	0.6367	0.4949	0.5441	0.6424	0.5527	0.7264	0.8045	0.4978	0.7524	0.8653	0.463	-0.408	0.2084	-0.3444	0.7871	0.0289	0.4312	0.0347	0.6453	-0.5643	-0.1852
0.3704	0.4225	0.6077	0.4486	0.5267	0.6396	0.5122	0.6974	0.764	0.4717	0.7495	0.8392	0.4225	-0.4283	0.1273	-0.3965	0.8248	0.0521	0.3907	0.0203	0.6569	-0.5209	-0.1389
0.3183	0.3531	0.5238	0.4167	0.4804	0.5933	0.4572	0.6511	0.7437	0.4225	0.7177	0.7958	0.3675	-0.4572	0.0723	-0.4225	0.8682	0.0289	0.3762	-0.0087	0.6598	-0.4514	-0.1042
0.2633	0.2923	0.4659	0.3878	0.4717	0.5527	0.4283	0.654	0.7293	0.3994	0.7408	0.7814	0.3617	-0.4688	-0.0058	-0.4457	0.9174	0.026	0.3502	-0.0347	0.7032	-0.3675	-0.0521
0.1823	0.2431	0.4109	0.3096	0.4428	0.5093	0.3878	0.6193	0.7003	0.3617	0.7206	0.7466	0.3328	-0.4891	-0.0781	-0.4254	0.9405	0.0203	0.3212	-0.0521	0.6945	-0.2749	0.0029
0.1158	0.1621	0.3386	0.2286	0.408	0.4457	0.3154	0.5817	0.6367	0.3068	0.6974	0.6916	0.3068	-0.5093	-0.1707	-0.4341	0.981	0.0116	0.3039	-0.0984	0.6772	-0.1765	0.0492
0.0463	0.11	0.2778	0.1765	0.3531	0.4138	0.2836	0.5498	0.6077	0.301	0.6859	0.6685	0.2865	-0.4949	-0.2402	-0.4283	0.9637	0.0029	0.2778	-0.0984	0.709	-0.0666	0.11
-0.026	0.0521	0.1968	0.1013	0.2952	0.3299	0.2431	0.5093	0.5701	0.2431	0.6453	0.6106	0.2633	-0.4833	-0.3386	-0.4109	0.9347	0	0.2315	-0.1042	0.683	0.0405	0.1707
-0.1389	-0.0463	0.1013	0.0116	0.2547	0.2778	0.1621	0.463	0.5122	0.1794	0.5961	0.5701	0.2084	-0.4601	-0.4486	-0.3791	0.9029	-0.0405	0.165	-0.1215	0.628	0.1447	0.2547
-0.1997	-0.1013	0.0318	-0.081	0.2026	0.2026	0.0608	0.3994	0.4486	0.1187	0.5788	0.4949	0.1707	-0.4254	-0.5498	-0.3791	0.8219	-0.0579	0.1273	-0.1534	0.6019	0.2576	0.3212
-0.2749	-0.1505	-0.0492	-0.1389	0.1707	0.1273	0.0058	0.356	0.4051	0.0723	0.518	0.4457	0.1244	-0.3849	-0.6367	-0.3965	0.7408	-0.0955	0.0666	-0.2026	0.5527	0.3762	0.3907
-0.3299	-0.2084	-0.1331	-0.1968	0.0897	0.0608	-0.0463	0.2894	0.3357	0.0116	0.4746	0.3762	0.0897	-0.3386	-0.7264	-0.4051	0.6482	-0.11	0.0289	-0.246	0.5064	0.4746	0.4688
-0.4023	-0.2691	-0.191	-0.2518	0.0203	-0.0145	-0.1158	0.2228	0.2865	-0.055	0.4341	0.3125	0.0376	-0.2807	-0.7842	-0.4312	0.5325	-0.1621	-0.0174	-0.2981	0.4428	0.5701	0.5325
-0.4572	-0.3154	-0.2373	-0.2923	-0.0203	-0.0463	-0.1621	0.1852	0.2431	-0.1013	0.3936	0.2662	0.0145	-0.2141	-0.8479	-0.4167	0.4109	-0.1592	-0.0521	-0.3125	0.4051	0.6367	0.6106
-0.4978	-0.3675	-0.3039	-0.327	-0.081	-0.1042	-0.1997	0.136	0.2113	-0.1187	0.3328	0.2055	-0.0232	-0.1505	-0.8682	-0.4543	0.2865	-0.1881	-0.0868	-0.3444	0.3646	0.709	0.6801
-0.5238	-0.4023	-0.3183	-0.3386	-0.1389	-0.1447	-0.2431	0.055	0.1563	-0.1621	0.2894	0.1418	-0.0608	-0.0897	-0.9058	-0.492	0.165	-0.2113	-0.1563	-0.3588	0.2894	0.764	0.7495
-0.5614	-0.4341	-0.3733	-0.382	-0.1592	-0.1852	-0.2691	0.0029	0.1158	-0.1852	0.2315	0.0984	-0.0695	-0.0318	-0.9087	-0.4601	0.0434	-0.2489	-0.1736	-0.3733	0.2257	0.7727	0.7842
-0.5469	-0.4254	-0.3791	-0.3617	-0.2055	-0.2141	-0.2807	-0.0405	0.0463	-0.2084	0.1823	0.0579	-0.1158	0.026	-0.8942	-0.463	-0.0839	-0.2257	-0.1881	-0.3646	0.1707	0.7929	0.8103
-0.518	-0.4254	-0.3531	-0.3183	-0.2286	-0.2055	-0.2576	-0.0752	0.0405	-0.1968	0.1563	0.0289	-0.1389	0.0868	-0.7958	-0.4514	-0.2055	-0.2431	-0.2373	-0.3531	0.1244	0.7727	0.8363
-0.5267	-0.4225	-0.3502	-0.3068	-0.2576	-0.2113	-0.2605	-0.1215	0.0174	-0.2026	0.0897	-0.026	-0.1592	0.1447	-0.7669	-0.4051	-0.3068	-0.2402	-0.2344	-0.3675	0.0637	0.7727	0.8392
-0.4949	-0.437	-0.3444	-0.2691	-0.2836	-0.2199	-0.2373	-0.1939	-0.0289	-0.2084	0.026	-0.081	-0.191	0.1852	-0.683	-0.3849	-0.3936	-0.272	-0.2605	-0.3444	0.0087	0.7264	0.8277
-0.4312	-0.4109	-0.3125	-0.2084	-0.3039	-0.2113	-0.1968	-0.2315	-0.0347	-0.1968	-0.0174	-0.1129	-0.191	0.2228	-0.573	-0.3328	-0.463	-0.2605	-0.2605	-0.3357	-0.0405	0.6627	0.7842
-0.3907	-0.4051	-0.2836	-0.1794	-0.3096	-0.1997	-0.1852	-0.2489	-0.055	-0.1939	-0.0637	-0.1621	-0.191	0.2547	-0.463	-0.301	-0.5325	-0.2344	-0.2605	-0.3068	-0.0868	0.6135	0.7669
-0.3675	-0.3849	-0.2286	-0.1187	-0.3386	-0.1852	-0.1563	-0.2778	-0.0521	-0.1765	-0.1129	-0.2026	-0.1881	0.2807	-0.3791	-0.2576	-0.5904	-0.2228	-0.2807	-0.2228	-0.1302	0.5585	0.7206
-0.327	-0.382	-0.2286	-0.0723	-0.3588	-0.1621	-0.1302	-0.3299	-0.0723	-0.1765	-0.1852	-0.2315	-0.2141	0.2865	-0.327	-0.2518	-0.6135	-0.2489	-0.2952	-0.2113	-0.2084	0.4891	0.6714
-0.2836	-0.3617	-0.1823	-0.0318	-0.356	-0.1563	-0.081	-0.3357	-0.0839	-0.1476	-0.217	-0.2489	-0.217	0.327	-0.2605	-0.2344	-0.6627	-0.2055	-0.3125	-0.136	-0.2489	0.4196	0.6367
-0.2749	-0.3444	-0.1534	0.0203	-0.3617	-0.1534	-0.0695	-0.3733	-0.0897	-0.11	-0.2576	-0.2662	-0.217	0.3241	-0.2286	-0.2373	-0.6714	-0.191	-0.3444	-0.0752	-0.2836	0.3415	0.5701
-0.2402	-0.3096	-0.1244	0.0897	-0.356	-0.1215	-0.026	-0.3849	-0.1071	-0.0926	-0.2952	-0.2778	-0.1997	0.3212	-0.1794	-0.2055	-0.6772	-0.1678	-0.3675	-0.0058	-0.3154	0.246	0.5151
-0.2257	-0.3154	-0.0897	0.1331	-0.3849	-0.1187	0.0058	-0.4109	-0.1273	-0.0579	-0.356	-0.2952	-0.1881	0.3183	-0.165	-0.1939	-0.6772	-0.1621	-0.3849	0.0289	-0.356	0.1736	0.4688
-0.2199	-0.2807	-0.0781	0.1765	-0.4023	-0.0637	0.0405	-0.4138	-0.1273	-0.0347	-0.3791	-0.301	-0.165	0.3299	-0.1534	-0.1852	-0.6714	-0.1302	-0.4138	0.0521	-0.3849	0.0984	0.408
-0.217	-0.3154	-0.0608	0.1794	-0.3994	-0.0723	0.0666	-0.4428	-0.1244	-0.0116	-0.408	-0.2894	-0.1534	0.3299	-0.1505	-0.1563	-0.6569	-0.136	-0.4486	0.0781	-0.4109	0.0376	0.3762
-0.2257	-0.3212	-0.0637	0.2199	-0.4196	-0.0579	0.0781	-0.4688	-0.1273	0	-0.4312	-0.2952	-0.1534	0.3068	-0.1302	-0.1042	-0.6453	-0.1244	-0.463	0.0781	-0.4167	0.0058	0.3299
-0.2228	-0.3068	-0.0723	0.2344	-0.4428	-0.0376	0.0839	-0.463	-0.1129	0.0232	-0.4399	-0.2691	-0.1563	0.301	-0.1215	-0.0608	-0.628	-0.11	-0.4775	0.0897	-0.4196	-0.0174	0.2836
-0.2228	-0.3154	-0.055	0.2489	-0.4283	-0.0232	0.0926	-0.4688	-0.0926	0.0203	-0.4601	-0.2547	-0.1302	0.2923	-0.1331	-0.0029	-0.599	-0.1302	-0.4978	0.0695	-0.4341	0.0058	0.2315
-0.2257	-0.3299	-0.0434	0.2662	-0.437	-0.0116	0.1013	-0.4659	-0.0955	0.0376	-0.4601	-0.2402	-0.1302	0.2836	-0.136	0.0376	-0.5875	-0.1129	-0.5267	0.055	-0.4196	0.055	0.2141
-0.2402	-0.3762	-0.0897	0.2749	-0.4457	0.0203	0.1129	-0.4804	-0.0637	0.0405	-0.4688	-0.2084	-0.1244	0.2749	-0.1331	0.081	-0.5527	-0.136	-0.5701	0.0203	-0.437	0.1244	0.1794
-0.2807	-0.3646	-0.0608	0.2286	-0.4399	0.0116	0.0897	-0.4717	-0.0752	0.0145	-0.463	-0.2026	-0.1331	0.2489	-0.1042	0.0926	-0.5238	-0.1592	-0.5788	-0.0087	-0.4283	0.2402	0.1331
-0.272	-0.3762	-0.0752	0.2315	-0.437	0.0405	0.0781	-0.5035	-0.0637	0.0347	-0.4688	-0.1852	-0.1273	0.2373	-0.0984	0.1158	-0.4891	-0.1939	-0.6077	-0.0752	-0.4283	0.3704	0.1215
-0.3154	-0.4023	-0.081	0.1997	-0.4312	0.0521	0.0579	-0.4775	-0.0637	0.0203	-0.463	-0.1621	-0.1389	0.2113	-0.0723	0.1418	-0.4399	-0.246	-0.6106	-0.1302	-0.3907	0.5325	0.1158
-0.3415	-0.4023	-0.1418	0.1736	-0.4341	0.0405	0.0203	-0.4746	-0.0492	0	-0.463	-0.1476	-0.1447	0.1852	-0.0839	0.1302	-0.4051	-0.2836	-0.6077	-0.1707	-0.3646	0.7235	0.0897
-0.3965	-0.4399	-0.1534	0.11	-0.4399	0.0666	0.0058	-0.4949	-0.0579	-0.0203	-0.4457	-0.1071	-0.1476	0.1621	-0.081	0.136	-0.3444	-0.3154	-0.6077	-0.2257	-0.3183	0.9087	0.0695
-0.463	-0.4428	-0.1939	0.0666	-0.4283	0.0752	-0.0463	-0.4717	-0.0463	-0.0376	-0.4167	-0.0926	-0.1736	0.1389	-0.0868	0.1447	-0.2923	-0.3588	-0.5933	-0.2952	-0.2547	1.1084	0.0608
-0.4891	-0.4601	-0.2547	-0.0087	-0.4572	0.0781	-0.0955	-0.4688	-0.055	-0.0839	-0.3965	-0.0723	-0.191	0.1042	-0.1071	0.0984	-0.2228	-0.4341	-0.573	-0.3849	-0.2055	1.282	0.0492
-0.5498	-0.5064	-0.2952	-0.081	-0.4514	0.0781	-0.1476	-0.4659	-0.055	-0.1244	-0.382	-0.0781	-0.2257	0.0666	-0.1187	0.0926	-0.1621	-0.4978	-0.5498	-0.463	-0.1244	1.4296	0.0203
-0.6251	-0.5354	-0.3704	-0.1534	-0.4543	0.0521	-0.217	-0.4486	-0.0579	-0.1707	-0.356	-0.0376	-0.2344	0.0376	-0.1621	0.0695	-0.0868	-0.5585	-0.5151	-0.5296	-0.0579	1.5627	0.0145
-0.7032	-0.5412	-0.4225	-0.2402	-0.4572	0.0463	-0.3039	-0.437	-0.055	-0.1997	-0.3473	-0.0318	-0.2807	-0.0058	-0.217	-0.0058	-0.0087	-0.6019	-0.4862	-0.5817	0.0058	1.6553	-0.0029
-0.7669	-0.5846	-0.4659	-0.3154	-0.4688	0.026	-0.356	-0.4167	-0.0781	-0.2344	-0.301	-0.0203	-0.3096	-0.0434	-0.2662	-0.0492	0.0521	-0.654	-0.3965	-0.6193	0.0868	1.7161	-0.0434
-0.845	-0.628	-0.5325	-0.4225	-0.5093	-0.0203	-0.4717	-0.4399	-0.0955	-0.2662	-0.272	-0.026	-0.327	-0.0723	-0.3704	-0.1302	0.1389	-0.7206	-0.382	-0.7032	0.1563	1.7392	-0.055
-0.9	-0.6424	-0.6106	-0.5035	-0.5151	-0.0463	-0.5267	-0.4399	-0.0839	-0.3328	-0.2489	-0.026	-0.3617	-0.1215	-0.4428	-0.2141	0.2199	-0.7871	-0.3502	-0.7466	0.2084	1.7566	-0.0723
-1.0215	-0.709	-0.7061	-0.5846	-0.5498	-0.0926	-0.6048	-0.4601	-0.1244	-0.3762	-0.246	-0.0405	-0.3994	-0.1621	-0.5441	-0.3096	0.2865	-0.8306	-0.3154	-0.7871	0.2778	1.7566	-0.0926
-1.036	-0.7293	-0.7582	-0.6396	-0.5614	-0.1418	-0.6511	-0.4514	-0.1505	-0.4109	-0.2373	-0.0347	-0.4399	-0.1881	-0.6424	-0.408	0.3473	-0.8537	-0.3096	-0.819	0.3444	1.7335	-0.11
-1.0968	-0.79	-0.8248	-0.7206	-0.6048	-0.1736	-0.7177	-0.4717	-0.1765	-0.4572	-0.2257	-0.0376	-0.4601	-0.2141	-0.7264	-0.518	0.3936	-0.8913	-0.2952	-0.8566	0.3878	1.7248	-0.11
-1.1576	-0.8421	-0.8913	-0.7698	-0.6338	-0.2199	-0.7466	-0.5035	-0.2055	-0.4978	-0.2141	-0.0405	-0.4746	-0.2431	-0.7987	-0.6309	0.4428	-0.9174	-0.2894	-0.874	0.4254	1.7132	-0.1158
-1.2068	-0.8653	-0.9579	-0.819	-0.6627	-0.2633	-0.7785	-0.4862	-0.2113	-0.5122	-0.1939	-0.0318	-0.4659	-0.246	-0.874	-0.7408	0.4659	-0.9	-0.2547	-0.8682	0.4717	1.7161	-0.0955
-1.2299	-0.8826	-0.9752	-0.8711	-0.6772	-0.2952	-0.819	-0.4746	-0.2084	-0.5209	-0.1678	-0.0289	-0.4804	-0.2518	-0.9087	-0.8392	0.4833	-0.8942	-0.2576	-0.874	0.5093	1.7045	-0.0781
-1.2791	-0.9261	-1.0331	-0.8942	-0.7264	-0.3241	-0.819	-0.463	-0.1939	-0.5064	-0.1418	-0.0145	-0.4572	-0.2547	-0.9695	-0.9261	0.4891	-0.8566	-0.2344	-0.845	0.5614	1.7103	-0.0781
-1.3167	-0.9492	-1.0736	-0.9261	-0.7351	-0.3531	-0.8219	-0.4949	-0.2228	-0.4891	-0.1273	0.0029	-0.4428	-0.2518	-0.9897	-1.0071	0.4804	-0.8074	-0.2199	-0.8306	0.5933	1.7363	-0.0434
-1.363	-0.9781	-1.1113	-0.9347	-0.7669	-0.3994	-0.8306	-0.5035	-0.2257	-0.4486	-0.1389	0.0087	-0.408	-0.2402	-1.036	-1.065	0.4428	-0.7553	-0.2199	-0.8248	0.6164	1.7711	-0.0203
-1.3949	-0.9897	-1.1315	-0.9463	-0.7871	-0.3994	-0.8045	-0.5006	-0.2084	-0.4341	-0.1129	0.0405	-0.3704	-0.2026	-1.0621	-1.1518	0.3791	-0.6916	-0.2257	-0.7466	0.6511	1.8347	0.0203
-1.4064	-0.9926	-1.1489	-0.9203	-0.819	-0.408	-0.7842	-0.5064	-0.1939	-0.382	-0.11	0.0608	-0.2923	-0.1476	-1.0707	-1.1807	0.2836	-0.5846	-0.2084	-0.6569	0.6974	1.8926	0.0781
-1.4122	-1.0215	-1.1344	-0.9376	-0.8132	-0.4167	-0.7524	-0.5354	-0.1997	-0.3502	-0.0984	0.0839	-0.2489	-0.1013	-1.1199	-1.2125	0.1765	-0.5209	-0.246	-0.6077	0.6859	1.9621	0.1215
-1.418	-1.0013	-1.1373	-0.9145	-0.8334	-0.4109	-0.7293	-0.5441	-0.165	-0.3039	-0.1013	0.0839	-0.1968	-0.026	-1.1315	-1.256	0.0434	-0.4196	-0.2749	-0.4833	0.6916	2.0257	0.1881
-1.4007	-0.9955	-1.1373	-0.9058	-0.8769	-0.4399	-0.6945	-0.5585	-0.1678	-0.2547	-0.1013	0.1013	-0.136	0.0318	-1.1691	-1.2357	-0.0955	-0.3357	-0.3328	-0.3965	0.6656	2.0605	0.2807
-1.392	-1.0129	-1.1315	-0.8769	-0.9058	-0.4457	-0.6772	-0.6019	-0.1736	-0.217	-0.1158	0.1187	-0.081	0.11	-1.1662	-1.1981	-0.2402	-0.2141	-0.3617	-0.2952	0.6598	2.0865	0.3675
-1.3572	-0.9666	-1.091	-0.8219	-0.9	-0.4196	-0.6019	-0.6135	-0.1273	-0.1534	-0.1273	0.1389	-0.0174	0.1881	-1.1547	-1.1778	-0.3878	-0.0984	-0.4225	-0.1939	0.6424	2.1183	0.4428
-1.308	-0.9637	-1.0679	-0.7669	-0.9232	-0.3733	-0.5354	-0.6396	-0.11	-0.1013	-0.1505	0.1534	0.0376	0.2605	-1.146	-1.1199	-0.5325	0.0087	-0.463	-0.1042	0.6019	2.1328	0.5122
-1.2328	-0.9116	-1.0129	-0.6916	-0.9289	-0.3531	-0.4804	-0.6656	-0.081	-0.0174	-0.1678	0.1794	0.11	0.3386	-1.0852	-1.0563	-0.683	0.1244	-0.5151	0.0232	0.5672	2.1212	0.5961
-1.1489	-0.8884	-0.9521	-0.6193	-0.9579	-0.3154	-0.4167	-0.6916	-0.0723	0.0376	-0.1707	0.1968	0.2026	0.3965	-1.0331	-0.9579	-0.8132	0.2344	-0.5383	0.1302	0.518	2.1154	0.654
-1.0592	-0.8479	-0.8711	-0.5296	-0.9492	-0.2662	-0.3241	-0.6801	-0.0232	0.1158	-0.1997	0.2084	0.2547	0.4775	-0.9897	-0.8508	-0.9521	0.3878	-0.5933	0.2633	0.4746	2.1039	0.7322
-0.955	-0.8016	-0.79	-0.4167	-0.9318	-0.2026	-0.2315	-0.6801	0.0203	0.1881	-0.2113	0.246	0.3328	0.5296	-0.8942	-0.7148	-1.0707	0.4804	-0.6193	0.3646	0.4486	2.072	0.7727
-0.8306	-0.7322	-0.7032	-0.3241	-0.9174	-0.1563	-0.1244	-0.6801	0.055	0.2576	-0.2084	0.272	0.408	0.5846	-0.7727	-0.573	-1.1923	0.6019	-0.6164	0.4949	0.4341	2.0518	0.8219
-0.7206	-0.6888	-0.6396	-0.2402	-0.9145	-0.1215	-0.0608	-0.6945	0.0666	0.3125	-0.2431	0.2894	0.4486	0.6309	-0.6598	-0.4167	-1.282	0.6916	-0.6338	0.5759	0.4051	2.0084	0.8653
-0.573	-0.6019	-0.5296	-0.1331	-0.8855	-0.0839	0.0318	-0.6685	0.1071	0.3617	-0.2315	0.3096	0.5006	0.6916	-0.5122	-0.2605	-1.4007	0.8219	-0.6135	0.6685	0.3936	1.9794	0.8826
-0.4543	-0.5498	-0.437	-0.0608	-0.8682	-0.0434	0.0926	-0.6656	0.1273	0.3965	-0.246	0.3125	0.5354	0.7322	-0.3588	-0.1042	-1.4817	0.8595	-0.6135	0.7148	0.3849	1.9418	0.9058
-0.3357	-0.492	-0.3415	0.0145	-0.8421	0.0058	0.1331	-0.6598	0.1563	0.4428	-0.2518	0.327	0.5527	0.764	-0.246	0.0492	-1.5338	0.9029	-0.6453	0.7524	0.3502	1.9244	0.9087
-0.2489	-0.4486	-0.2662	0.0897	-0.8334	0.0434	0.1968	-0.6627	0.1476	0.437	-0.2691	0.3096	0.5498	0.7929	-0.1071	0.1823	-1.5743	0.8913	-0.6511	0.7495	0.3241	1.9187	0.9
-0.1418	-0.4138	-0.2199	0.1331	-0.819	0.0376	0.1968	-0.6801	0.1505	0.4225	-0.2778	0.2749	0.5238	0.7842	0.0087	0.2576	-1.5772	0.8653	-0.628	0.7206	0.2865	1.9129	0.8826
-0.0405	-0.3733	-0.1302	0.1852	-0.8132	0.055	0.2315	-0.6685	0.1418	0.4283	-0.301	0.2576	0.4978	0.764	0.1187	0.3241	-1.5367	0.8392	-0.6338	0.6743	0.2807	1.9447	0.8566
0	-0.3617	-0.1013	0.1707	-0.8306	0.0347	0.217	-0.6916	0.0926	0.3733	-0.3299	0.191	0.4283	0.7148	0.1881	0.3675	-1.4441	0.7785	-0.6424	0.6193	0.2402	1.991	0.8045
0.0781	-0.3183	-0.0926	0.2055	-0.7929	0.026	0.2228	-0.6916	0.0897	0.3357	-0.3588	0.1563	0.3791	0.6656	0.2633	0.3936	-1.337	0.709	-0.683	0.5441	0.2084	2.0489	0.7611
0.1158	-0.2952	-0.0463	0.1939	-0.7785	0.0232	0.1852	-0.6859	0.0579	0.2923	-0.3588	0.1013	0.3154	0.5875	0.3125	0.3588	-1.2039	0.6222	-0.6974	0.4601	0.1794	2.1241	0.6974
0.1534	-0.2778	-0.0347	0.1939	-0.8103	-0.0203	0.1447	-0.6945	0.0116	0.2199	-0.3936	0.0405	0.2344	0.5064	0.3531	0.3241	-1.0476	0.5006	-0.7408	0.3531	0.1389	2.2109	0.6193
0.1736	-0.2894	-0.0434	0.1563	-0.8161	-0.026	0.0868	-0.7293	-0.0608	0.1476	-0.4428	-0.0058	0.1476	0.4428	0.3704	0.2633	-0.8942	0.3531	-0.7669	0.246	0.0897	2.3007	0.5527
0.1881	-0.3039	-0.0492	0.11	-0.8045	-0.0666	0.0637	-0.7379	-0.1215	0.0781	-0.4717	-0.0723	0.0579	0.3415	0.3849	0.2084	-0.7119	0.1939	-0.8277	0.1187	0.0376	2.4077	0.4833
0.1765	-0.3125	-0.0608	0.0897	-0.8508	-0.0984	-0.0289	-0.7871	-0.1968	-0.0087	-0.5238	-0.1678	-0.0463	0.2576	0.3762	0.1273	-0.5383	0.0405	-0.8566	0.0087	-0.0145	2.5293	0.4138
0.1678	-0.3386	-0.0926	0.0318	-0.8653	-0.1476	-0.11	-0.8334	-0.2749	-0.1331	-0.5846	-0.2547	-0.1534	0.1621	0.3588	0.026	-0.3357	-0.1244	-0.9521	-0.1592	-0.0695	2.6508	0.3386
0.1592	-0.3502	-0.1013	-0.026	-0.8711	-0.191	-0.1534	-0.845	-0.3357	-0.1852	-0.6367	-0.3154	-0.2373	0.0695	0.3125	-0.0695	-0.1592	-0.2981	-0.9724	-0.2778	-0.11	2.755	0.2633
0.1302	-0.3907	-0.1447	-0.081	-0.9261	-0.2691	-0.2431	-0.9087	-0.4428	-0.2894	-0.709	-0.4225	-0.3675	-0.0203	0.2923	-0.1707	0.026	-0.4601	-1.0331	-0.408	-0.1678	2.865	0.1997
0.1158	-0.408	-0.1736	-0.1331	-0.9261	-0.2894	-0.2981	-0.9521	-0.5093	-0.3704	-0.7524	-0.518	-0.4746	-0.1042	0.2778	-0.2547	0.2055	-0.6048	-1.0707	-0.5267	-0.2055	2.9344	0.1187
0.1071	-0.4341	-0.2026	-0.1476	-0.9608	-0.3473	-0.3617	-0.9752	-0.573	-0.4399	-0.8074	-0.573	-0.5585	-0.1997	0.2199	-0.3444	0.3965	-0.7408	-1.1199	-0.6367	-0.2344	3.0097	0.0492
0.0897	-0.4428	-0.2141	-0.191	-1.0013	-0.3936	-0.4167	-1.0187	-0.6482	-0.5122	-0.8624	-0.6743	-0.6396	-0.2923	0.1997	-0.4225	0.5701	-0.8595	-1.1199	-0.7437	-0.272	3.0386	-0.0405
0.0868	-0.4457	-0.2489	-0.2431	-1.0244	-0.4341	-0.4775	-1.0331	-0.7148	-0.5788	-0.8769	-0.7495	-0.7379	-0.3849	0.1563	-0.4978	0.7264	-0.981	-1.1228	-0.819	-0.272	3.0675	-0.1273
0.0695	-0.4833	-0.2402	-0.272	-1.0389	-0.4688	-0.518	-1.0534	-0.7842	-0.6309	-0.9145	-0.7987	-0.7987	-0.4514	0.1129	-0.5325	0.8855	-1.0765	-1.1373	-0.9029	-0.2547	3.0791	-0.2084
0.0347	-0.4891	-0.2923	-0.3125	-1.0707	-0.518	-0.5701	-1.0939	-0.8334	-0.7003	-0.9637	-0.8537	-0.8769	-0.5383	0.0637	-0.6077	1.0592	-1.201	-1.1518	-1.0158	-0.2373	3.0762	-0.2923
0.0232	-0.5122	-0.2952	-0.356	-1.1026	-0.5441	-0.599	-1.0997	-0.8769	-0.7495	-0.9666	-0.8884	-0.9289	-0.6135	-0.0116	-0.6743	1.2039	-1.2531	-1.1344	-1.0968	-0.2228	3.082	-0.3675
-0.026	-0.5383	-0.3212	-0.3936	-1.1142	-0.6019	-0.6598	-1.1199	-0.9289	-0.7727	-0.981	-0.9376	-0.9752	-0.6916	-0.0752	-0.7148	1.3428	-1.3515	-1.1113	-1.1778	-0.1707	3.082	-0.4283
-0.0608	-0.5585	-0.3502	-0.4283	-1.1199	-0.599	-0.6627	-1.1113	-0.9521	-0.819	-0.9955	-0.9579	-1.0129	-0.7466	-0.1302	-0.7437	1.4759	-1.4296	-1.0881	-1.2646	-0.1244	3.0907	-0.5006
-0.0868	-0.6222	-0.3878	-0.4804	-1.1518	-0.6482	-0.7351	-1.146	-1.0071	-0.8595	-1.0071	-0.9839	-1.0563	-0.8219	-0.1852	-0.7553	1.6119	-1.4643	-1.0765	-1.3283	-0.1013	3.0907	-0.5412
-0.1302	-0.6367	-0.4109	-0.5209	-1.1691	-0.6453	-0.7582	-1.1315	-1.0244	-0.8884	-0.9926	-1.0215	-1.0765	-0.8711	-0.2373	-0.7437	1.7248	-1.5048	-1.0563	-1.392	-0.0347	3.0994	-0.5904
-0.1621	-0.6482	-0.4341	-0.5585	-1.1749	-0.6801	-0.8045	-1.1113	-1.0418	-0.9058	-0.9839	-1.0215	-1.0968	-0.9261	-0.2633	-0.7408	1.8203	-1.5569	-1.0244	-1.4441	0.026	3.1283	-0.6251
-0.1881	-0.654	-0.4428	-0.573	-1.1836	-0.6859	-0.8161	-1.0997	-1.0447	-0.8971	-0.9637	-1.0013	-1.1055	-0.9608	-0.246	-0.6945	1.8955	-1.5743	-1.0215	-1.4788	0.1129	3.1573	-0.6743
-0.2257	-0.6743	-0.4833	-0.6019	-1.1634	-0.7061	-0.8277	-1.0765	-1.0476	-0.8971	-0.9347	-1.0129	-1.0765	-0.9897	-0.2749	-0.6772	1.9592	-1.5743	-0.9897	-1.499	0.1852	3.1978	-0.7003
-0.2778	-0.7119	-0.5006	-0.6135	-1.1662	-0.7119	-0.8595	-1.0447	-1.0679	-0.9145	-0.9058	-1.0042	-1.0736	-1.0273	-0.2633	-0.6453	2.0228	-1.5859	-0.9405	-1.5077	0.2691	3.2151	-0.7437
-0.2923	-0.7264	-0.5585	-0.6453	-1.1605	-0.7264	-0.8566	-1.0302	-1.0563	-0.9	-0.8653	-0.9897	-1.0476	-1.0447	-0.2402	-0.5904	2.0663	-1.5453	-0.9087	-1.5106	0.3531	3.2354	-0.7698
-0.3386	-0.7264	-0.5904	-0.6627	-1.1402	-0.7582	-0.8624	-0.9868	-1.0563	-0.9145	-0.8161	-0.955	-1.0071	-1.0621	-0.2373	-0.5585	2.1126	-1.528	-0.8392	-1.447	0.4283	3.2585	-0.7871
-0.3588	-0.7148	-0.6222	-0.6685	-1.1402	-0.7611	-0.8566	-0.981	-1.036	-0.874	-0.7553	-0.9347	-0.9637	-1.0881	-0.191	-0.5614	2.156	-1.4846	-0.8016	-1.3949	0.5412	3.2788	-0.8074
-0.3994	-0.7206	-0.6569	-0.6569	-1.1228	-0.7814	-0.8421	-0.9405	-1.0273	-0.8537	-0.7177	-0.9203	-0.9347	-1.1228	-0.1736	-0.5354	2.1994	-1.4209	-0.7466	-1.3312	0.6338	3.3106	-0.8248
-0.408	-0.7206	-0.6801	-0.654	-1.1055	-0.764	-0.8132	-0.8942	-1.0273	-0.8363	-0.6598	-0.8884	-0.8971	-1.1315	-0.1042	-0.5296	2.2399	-1.3428	-0.6714	-1.2589	0.7524	3.328	-0.8508
-0.3762	-0.7003	-0.6685	-0.6309	-1.0505	-0.7495	-0.7871	-0.8537	-0.9926	-0.7727	-0.5933	-0.8363	-0.8508	-1.1547	-0.0405	-0.5093	2.2804	-1.2646	-0.5961	-1.172	0.8421	3.3425	-0.8595
-0.4196	-0.6743	-0.7119	-0.6193	-1.0476	-0.7437	-0.7756	-0.8103	-0.9724	-0.7785	-0.5383	-0.8248	-0.8016	-1.1749	-0.0029	-0.5614	2.3296	-1.1778	-0.5267	-1.0794	0.9637	3.3974	-0.8711
-0.4341	-0.654	-0.7061	-0.6019	-1.0129	-0.7437	-0.7582	-0.7842	-0.9492	-0.7524	-0.4978	-0.8161	-0.7698	-1.2125	0.0145	-0.5875	2.4019	-1.1084	-0.4341	-0.9984	1.065	3.4466	-0.8624
-0.4688	-0.6453	-0.7351	-0.5875	-1.0042	-0.7437	-0.764	-0.7379	-0.9289	-0.7437	-0.4312	-0.7814	-0.7379	-1.2299	0.081	-0.6222	2.454	-1.065	-0.3675	-0.9434	1.1489	3.5045	-0.8624
-0.4543	-0.6164	-0.7408	-0.6019	-0.9666	-0.7235	-0.7727	-0.6888	-0.9087	-0.7177	-0.3646	-0.7466	-0.7264	-1.2589	0.0695	-0.6511	2.5032	-1.0158	-0.272	-0.9058	1.2444	3.574	-0.8797
-0.4717	-0.6135	-0.7611	-0.6367	-0.9608	-0.7322	-0.7698	-0.6772	-0.9145	-0.7351	-0.3299	-0.7437	-0.7235	-1.2965	0.0839	-0.7293	2.5466	-0.981	-0.1852	-0.8942	1.3457	3.6579	-0.8769
-0.4833	-0.5904	-0.7842	-0.6627	-0.9174	-0.7379	-0.7785	-0.6453	-0.9174	-0.7437	-0.272	-0.7148	-0.7408	-1.3052	0.081	-0.7756	2.5727	-0.9724	-0.0955	-0.8826	1.4412	3.7563	-0.8682
-0.5035	-0.5788	-0.8103	-0.6916	-0.9	-0.7379	-0.8103	-0.6193	-0.9492	-0.7958	-0.2402	-0.7437	-0.7698	-1.3196	0.0839	-0.8334	2.6074	-0.9579	-0.0203	-0.8711	1.5425	3.8518	-0.8769
-0.5151	-0.599	-0.8392	-0.7119	-0.8797	-0.7235	-0.8537	-0.6135	-0.9637	-0.845	-0.2141	-0.7698	-0.8161	-1.3254	0.026	-0.8855	2.6277	-0.9839	0.0521	-0.9261	1.6235	3.9647	-0.845
-0.5238	-0.5904	-0.8537	-0.7524	-0.8595	-0.7669	-0.9087	-0.5933	-1.0013	-0.9087	-0.1794	-0.7929	-0.8913	-1.3138	0.0434	-0.9318	2.6161	-1.0273	0.1331	-0.9232	1.7074	4.0573	-0.8334
-0.5585	-0.6019	-0.9116	-0.8566	-0.8826	-0.8277	-1.0129	-0.5846	-1.0707	-0.9955	-0.1823	-0.8826	-0.9868	-1.3109	0.0029	-1.0129	2.5958	-1.0765	0.1881	-1.0013	1.7826	4.1846	-0.8363
-0.5788	-0.6222	-0.9637	-0.9087	-0.9	-0.8566	-1.0881	-0.5961	-1.0997	-1.0881	-0.191	-0.9405	-1.091	-1.2762	-0.0376	-1.0476	2.5177	-1.146	0.2402	-1.065	1.8	4.2917	-0.8132
-0.6193	-0.654	-1.0042	-0.9868	-0.9318	-0.9405	-1.1662	-0.6106	-1.1981	-1.1807	-0.1997	-1.0331	-1.2097	-1.227	-0.0666	-1.1142	2.428	-1.1923	0.2923	-1.1402	1.8492	4.4103	-0.8045
-0.6511	-0.683	-1.0679	-1.0939	-0.9868	-1.0071	-1.2907	-0.6772	-1.2994	-1.2936	-0.2402	-1.1199	-1.3341	-1.1749	-0.1013	-1.2039	2.3267	-1.2965	0.3039	-1.2473	1.8608	4.529	-0.8045
-0.6916	-0.7177	-1.1402	-1.1952	-1.0215	-1.0823	-1.3862	-0.7148	-1.4122	-1.418	-0.2836	-1.2154	-1.4441	-1.1055	-0.1476	-1.2646	2.2081	-1.3717	0.3039	-1.337	1.8579	4.6331	-0.7958
-0.7206	-0.79	-1.2039	-1.3023	-1.0794	-1.172	-1.4904	-0.7582	-1.5222	-1.5396	-0.3125	-1.3167	-1.5945	-1.0447	-0.2055	-1.3109	2.0923	-1.4672	0.2836	-1.447	1.8434	4.7344	-0.7785
-0.7987	-0.8392	-1.2907	-1.3891	-1.1634	-1.2646	-1.6148	-0.8103	-1.609	-1.664	-0.3646	-1.4209	-1.7074	-0.9752	-0.2547	-1.392	1.9418	-1.5859	0.272	-1.5714	1.8145	4.8039	-0.7553
-0.8595	-0.9145	-1.3659	-1.4933	-1.2299	-1.3659	-1.7132	-0.8624	-1.7219	-1.7855	-0.3994	-1.5135	-1.829	-0.9058	-0.2981	-1.4441	1.7884	-1.6871	0.2315	-1.6814	1.7798	4.8704	-0.7206
-0.9289	-0.9752	-1.4441	-1.5888	-1.2907	-1.4585	-1.8174	-0.9318	-1.8232	-1.8695	-0.4457	-1.5974	-1.9389	-0.8421	-0.3646	-1.4846	1.6466	-1.7855	0.1852	-1.7971	1.7335	4.9167	-0.6916
-0.9637	-1.0244	-1.5106	-1.664	-1.3457	-1.5396	-1.8984	-0.9695	-1.8781	-1.9447	-0.4457	-1.6408	-2.0084	-0.7495	-0.4109	-1.4962	1.4701	-1.8463	0.1447	-1.881	1.7016	4.9486	-0.6772
-1.0389	-1.0621	-1.5859	-1.745	-1.4151	-1.6061	-1.9679	-1.0042	-1.9505	-2.0113	-0.4804	-1.6785	-2.0836	-0.6772	-0.5006	-1.5482	1.3428	-1.9302	0.0752	-1.9794	1.6611	4.9688	-0.6251
-1.0968	-1.1344	-1.6611	-1.8058	-1.4643	-1.6669	-2.0286	-1.0418	-1.9939	-2.0749	-0.4486	-1.69	-2.0894	-0.599	-0.5527	-1.5714	1.1691	-1.936	0.0376	-2.0228	1.6322	4.9717	-0.5817
-1.1373	-1.1691	-1.6958	-1.8434	-1.5193	-1.7161	-2.0749	-1.036	-2.0171	-2.0634	-0.4109	-1.638	-2.0634	-0.5267	-0.6338	-1.6003	1.0071	-1.9331	0.0232	-2.0576	1.6408	4.9949	-0.5238
-1.2328	-1.2241	-1.7248	-1.8753	-1.5193	-1.7248	-2.0923	-1.01	-1.9939	-2.0315	-0.356	-1.5743	-2.0113	-0.4457	-0.7119	-1.6466	0.8682	-1.8984	0.0087	-2.0691	1.6466	5.0122	-0.4746
-1.2531	-1.2473	-1.7421	-1.881	-1.5193	-1.7103	-2.0807	-0.9579	-1.9273	-1.965	-0.2373	-1.447	-1.9013	-0.382	-0.7524	-1.6611	0.7235	-1.8058	0.0232	-2.0836	1.6987	5.0296	-0.4167
-1.308	-1.2878	-1.7537	-1.9013	-1.5077	-1.6871	-2.0836	-0.8855	-1.8405	-1.8666	-0.1042	-1.2907	-1.7479	-0.3154	-0.8277	-1.6987	0.6019	-1.7277	0.0289	-2.0489	1.7595	5.0933	-0.3762
-1.337	-1.2444	-1.7421	-1.8781	-1.4498	-1.6235	-2.0373	-0.7669	-1.7016	-1.7277	0.0839	-1.0765	-1.5425	-0.2518	-0.8797	-1.7103	0.4862	-1.5888	0.0579	-2.0228	1.8666	5.1512	-0.3125
-1.3572	-1.2589	-1.719	-1.8724	-1.392	-1.5338	-1.9881	-0.6424	-1.5482	-1.5945	0.2807	-0.8421	-1.3138	-0.1968	-0.9145	-1.7016	0.3965	-1.4585	0.1187	-1.9505	1.9852	5.2032	-0.2749
-1.3833	-1.2646	-1.7074	-1.8579	-1.3428	-1.4701	-1.9534	-0.5122	-1.3775	-1.4325	0.492	-0.6106	-1.0881	-0.1678	-0.9637	-1.7132	0.3299	-1.3109	0.1823	-1.8695	2.0749	5.2669	-0.217
-1.392	-1.2473	-1.6727	-1.8405	-1.2646	-1.363	-1.8897	-0.3473	-1.1981	-1.2328	0.7235	-0.2981	-0.8074	-0.136	-0.9781	-1.719	0.2633	-1.1547	0.2605	-1.7826	2.2312	5.3103	-0.1736
-1.3862	-1.1981	-1.6032	-1.7711	-1.1315	-1.2183	-1.7884	-0.1621	-0.9521	-1.0129	0.9839	0.0608	-0.4659	-0.1187	-1.0129	-1.7306	0.2199	-0.9637	0.3299	-1.6843	2.373	5.3393	-0.1505
-1.3862	-1.172	-1.5482	-1.7537	-1.0187	-1.0939	-1.69	-0.0029	-0.7264	-0.79	1.2733	0.3849	-0.1505	-0.11	-1.0505	-1.6814	0.2026	-0.7814	0.4023	-1.5859	2.5264	5.3248	-0.1215
-1.3399	-1.1344	-1.4875	-1.6611	-0.9058	-0.9232	-1.5627	0.2055	-0.4486	-0.5412	1.5453	0.7437	0.1852	-0.0984	-1.0621	-1.6929	0.1852	-0.6048	0.4717	-1.4759	2.6566	5.2843	-0.1013
-1.3196	-1.1228	-1.4238	-1.6235	-0.8016	-0.7698	-1.4672	0.3965	-0.1997	-0.3039	1.8318	1.1257	0.5296	-0.1013	-1.0794	-1.6987	0.1736	-0.3994	0.5643	-1.3601	2.7955	5.238	-0.0608
-1.2849	-1.0447	-1.3428	-1.5338	-0.6685	-0.6106	-1.3486	0.599	0.1013	-0.0405	2.0981	1.5164	0.8855	-0.0897	-1.0563	-1.6756	0.1592	-0.1823	0.6338	-1.2386	2.9315	5.1396	-0.0434
-1.2762	-1.0302	-1.2762	-1.4672	-0.5556	-0.4486	-1.2386	0.7785	0.3646	0.1939	2.3846	1.8695	1.2097	-0.0839	-1.0823	-1.6814	0.1563	0.0318	0.6859	-1.1257	3.0791	5.047	-0.026
-1.2617	-1.0042	-1.2183	-1.3949	-0.4457	-0.3068	-1.0997	0.9926	0.6598	0.4399	2.6595	2.2775	1.554	-0.0868	-1.0736	-1.7306	0.1447	0.2113	0.7408	-1.0302	3.1804	4.9486	0.0145
-1.2646	-0.9724	-1.1431	-1.3052	-0.3299	-0.1273	-0.9868	1.1662	0.9405	0.6569	2.9576	2.6682	1.8984	-0.0839	-1.0968	-1.774	0.1389	0.3675	0.7958	-0.8855	3.3193	4.8415	0.026
-1.2299	-0.9289	-1.065	-1.1749	-0.2026	0.0463	-0.8248	1.4035	1.2212	0.9347	3.2267	3.0502	2.237	-0.0637	-1.1431	-1.8145	0.1013	0.5701	0.8566	-0.7524	3.4466	4.7026	0.055
-1.2299	-0.9087	-1.0187	-1.1113	-0.11	0.1881	-0.7061	1.5685	1.5048	1.1807	3.4929	3.4264	2.5611	-0.0637	-1.1749	-1.8897	0.0868	0.7495	0.9029	-0.6338	3.545	4.5811	0.0868
-1.1981	-0.8566	-0.9405	-0.9868	0.0203	0.3473	-0.5441	1.774	1.7826	1.4498	3.7679	3.8286	2.9228	-0.0434	-1.227	-1.9418	0.0608	0.9376	0.9521	-0.4775	3.6753	4.4335	0.1042
-1.1576	-0.8016	-0.8653	-0.8653	0.1244	0.4978	-0.4109	1.9679	2.0605	1.7045	4.0023	4.1904	3.2354	-0.0203	-1.2936	-2.0344	0.0203	1.1373	1.0042	-0.3096	3.7852	4.3003	0.1505
-1.1894	-0.7756	-0.79	-0.7466	0.246	0.654	-0.2547	2.1328	2.3238	1.9389	4.2396	4.5174	3.5595	-0.0058	-1.3486	-2.101	-0.0174	1.3196	1.0476	-0.1563	3.9097	4.1672	0.1881
-1.1605	-0.7206	-0.7553	-0.6309	0.3415	0.764	-0.1158	2.3325	2.5958	2.1704	4.4856	4.9081	3.8749	0.0347	-1.4383	-2.1791	-0.0637	1.499	1.0881	0.0232	4.0341	4.0515	0.2373
-1.1228	-0.7032	-0.7003	-0.5325	0.4543	0.9	0.0232	2.5032	2.8331	2.3788	4.6968	5.2293	4.1614	0.055	-1.5338	-2.2891	-0.1302	1.6871	1.1199	0.1765	4.1065	3.9647	0.2865
-1.1055	-0.6598	-0.6424	-0.4109	0.5469	1.036	0.136	2.6421	3.0618	2.564	4.9081	5.5071	4.4219	0.0926	-1.5945	-2.3614	-0.2141	1.8666	1.1344	0.3617	4.1962	3.8547	0.3502
-1.0968	-0.6193	-0.5961	-0.3154	0.6453	1.1489	0.2865	2.7753	3.2788	2.7579	5.0846	5.7878	4.6534	0.1244	-1.7277	-2.4569	-0.272	2.0084	1.1402	0.4891	4.2598	3.8055	0.3936
-1.1315	-0.6222	-0.5875	-0.2344	0.6916	1.2531	0.3791	2.8852	3.4409	2.9026	5.2235	6.0425	4.8415	0.1592	-1.8347	-2.5698	-0.3444	2.1531	1.117	0.6367	4.3061	3.7447	0.463
-1.1055	-0.6077	-0.5614	-0.1505	0.7379	1.3399	0.4572	2.9778	3.6087	3.0589	5.3566	6.2422	5.0354	0.2113	-1.9418	-2.6508	-0.4341	2.2804	1.0968	0.7466	4.3351	3.7071	0.518
-1.1199	-0.5788	-0.5469	-0.1013	0.7871	1.4093	0.518	3.0589	3.7245	3.1312	5.4666	6.3724	5.1367	0.2373	-2.0605	-2.7405	-0.5006	2.3817	1.0447	0.8392	4.3495	3.6984	0.5904
-1.1547	-0.6251	-0.5469	-0.0434	0.7814	1.4441	0.5527	3.1167	3.8084	3.218	5.5389	6.5084	5.2351	0.2662	-2.1646	-2.8389	-0.5556	2.4511	0.9839	0.9116	4.3206	3.6926	0.6511
-1.1489	-0.628	-0.5412	0	0.819	1.5077	0.5846	3.137	3.8836	3.2759	5.5968	6.6068	5.3016	0.3039	-2.2572	-2.8881	-0.6309	2.5148	0.9145	0.9376	4.3003	3.6926	0.7293
-1.1923	-0.6309	-0.5498	0.0145	0.8219	1.5164	0.599	3.1399	3.9299	3.3019	5.6026	6.6328	5.3335	0.3212	-2.3441	-2.9605	-0.6772	2.538	0.819	0.9752	4.2598	3.6868	0.7958
-1.2212	-0.6251	-0.5383	0.0232	0.8074	1.528	0.6077	3.1167	3.956	3.3019	5.5968	6.656	5.3364	0.3762	-2.3962	-3.001	-0.7495	2.5785	0.7495	1.0042	4.2106	3.7129	0.8566
-1.2617	-0.6656	-0.5672	0.0232	0.7871	1.5193	0.5846	3.0994	3.9502	3.273	5.5679	6.6299	5.2959	0.3965	-2.4598	-3.0589	-0.819	2.6074	0.6309	0.9926	4.1122	3.7389	0.9347
-1.2791	-0.6685	-0.5875	0.0145	0.7524	1.5193	0.5701	3.0386	3.9473	3.2499	5.5274	6.5779	5.2438	0.4399	-2.5032	-3.0791	-0.9	2.6219	0.5556	0.9984	4.0254	3.7852	0.9897
-1.2704	-0.6743	-0.5933	-0.0145	0.7293	1.5511	0.5325	2.972	3.8894	3.1978	5.455	6.5026	5.1627	0.4688	-2.5351	-3.0936	-0.9637	2.6335	0.4312	0.9781	3.901	3.8286	1.0447
-1.2733	-0.6743	-0.5961	-0.0029	0.6974	1.5425	0.5006	2.8968	3.8605	3.1341	5.3595	6.4071	5.0817	0.518	-2.5409	-3.1081	-1.036	2.645	0.3328	0.9781	3.7708	3.901	1.1142
-1.2589	-0.654	-0.5672	0.0029	0.6656	1.5714	0.5006	2.8418	3.8229	3.0878	5.2467	6.2914	4.9631	0.5469	-2.5495	-3.1254	-1.1257	2.6132	0.2113	0.9579	3.629	3.9878	1.1662
-1.256	-0.628	-0.5209	-0.0087	0.6309	1.5859	0.4949	2.7463	3.765	3.0328	5.1193	6.1524	4.8502	0.5875	-2.5582	-3.0907	-1.1923	2.5785	0.0984	0.9289	3.438	4.0804	1.2097
-1.1576	-0.5933	-0.4688	0.0087	0.628	1.6061	0.4833	2.6769	3.7447	2.9605	5.0007	6.0078	4.7055	0.6193	-2.5437	-3.0994	-1.2733	2.5293	-0.026	0.9405	3.2383	4.1962	1.2473
-1.091	-0.5556	-0.3994	0.0608	0.6106	1.6611	0.492	2.6016	3.6897	2.8881	4.8415	5.8544	4.5753	0.6627	-2.5177	-3.0328	-1.3428	2.4482	-0.1447	0.9174	3.0618	4.309	1.2502
-0.981	-0.4833	-0.2865	0.1013	0.599	1.7074	0.4891	2.4974	3.6521	2.8245	4.691	5.675	4.4132	0.6945	-2.4396	-2.9923	-1.4093	2.3383	-0.2373	0.8769	2.865	4.4306	1.256
-0.8537	-0.4051	-0.1823	0.1534	0.6048	1.7595	0.5035	2.4309	3.6058	2.7492	4.5145	5.4955	4.2454	0.7148	-2.3759	-2.8939	-1.4585	2.2138	-0.3299	0.8392	2.6653	4.5376	1.2415
-0.7148	-0.3125	-0.0232	0.2228	0.6222	1.8608	0.5325	2.3556	3.5595	2.7	4.3669	5.319	4.0833	0.7495	-2.2457	-2.755	-1.499	2.0778	-0.4167	0.8045	2.4888	4.6505	1.2154
-0.5354	-0.2228	0.1215	0.301	0.6685	1.9273	0.5614	2.2949	3.5335	2.6074	4.2193	5.1454	3.927	0.7582	-2.1183	-2.645	-1.528	1.91	-0.5035	0.7408	2.2775	4.7836	1.172
-0.3502	-0.0897	0.3241	0.3878	0.6974	2.0315	0.5933	2.2659	3.5335	2.5582	4.0775	4.9688	3.7447	0.7611	-1.9534	-2.483	-1.5338	1.7624	-0.5904	0.6772	2.0749	4.8936	1.1315
-0.136	0.0347	0.5151	0.4891	0.7698	2.1328	0.654	2.1994	3.519	2.4888	3.9212	4.7894	3.5798	0.7582	-1.7479	-2.3296	-1.5309	1.5511	-0.6511	0.6193	1.8695	5.0238	1.0823
0.0868	0.1852	0.7264	0.5875	0.8334	2.2688	0.7264	2.1907	3.5277	2.4454	3.7881	4.6303	3.4206	0.7379	-1.5425	-2.1531	-1.5048	1.3601	-0.7148	0.5469	1.6582	5.1627	1.0187
0.3039	0.3386	0.955	0.7032	0.9058	2.4048	0.7871	2.1617	3.5335	2.3788	3.6347	4.4798	3.2701	0.7235	-1.3109	-1.9997	-1.4614	1.1836	-0.7785	0.4833	1.4151	5.2814	0.9608
0.5788	0.5296	1.1952	0.8653	1.0071	2.5611	0.8855	2.1646	3.5537	2.3441	3.4987	4.3351	3.1457	0.6888	-1.0765	-1.8145	-1.3833	0.9926	-0.8537	0.4225	1.2183	5.4348	0.8884
0.8334	0.7003	1.4556	1.0129	1.1315	2.7203	0.9666	2.1675	3.5884	2.3325	3.3859	4.2106	3.0039	0.6338	-0.819	-1.638	-1.2878	0.7929	-0.8942	0.3617	1.0273	5.5823	0.819
1.0881	0.8826	1.7016	1.1778	1.227	2.891	1.0592	2.1791	3.6405	2.3007	3.2614	4.092	2.8881	0.5643	-0.5672	-1.4585	-1.1518	0.5788	-0.9174	0.3068	0.8161	5.7299	0.764
1.3804	1.0765	1.9852	1.3688	1.3804	3.0762	1.201	2.2283	3.7042	2.3296	3.2007	4.0196	2.8158	0.5035	-0.327	-1.2907	-1.0215	0.3994	-0.9463	0.2807	0.6453	5.9065	0.6974
1.6958	1.2994	2.2833	1.5598	1.5106	3.2759	1.3254	2.263	3.8026	2.3441	3.1225	3.9589	2.729	0.4312	-0.0463	-1.1055	-0.8913	0.2315	-0.9579	0.246	0.4746	6.0627	0.6424
1.9939	1.5251	2.5843	1.7884	1.6958	3.5248	1.5048	2.3412	3.9039	2.399	3.0791	3.9357	2.6827	0.3444	0.2113	-0.8971	-0.7235	0.0521	-0.9666	0.1968	0.3183	6.2248	0.599
2.3151	1.7537	2.8997	2.0547	1.8781	3.7621	1.6814	2.4425	4.0457	2.4656	3.0618	3.9531	2.6884	0.2807	0.437	-0.7032	-0.5788	-0.0839	-0.955	0.1823	0.1997	6.3984	0.5585
2.6595	2.0055	3.2528	2.3151	2.0894	4.0167	1.8868	2.5351	4.2048	2.5264	3.0502	3.9733	2.6711	0.2084	0.6916	-0.5296	-0.437	-0.2257	-0.9376	0.165	0.0752	6.5952	0.5006
2.9865	2.2775	3.5971	2.6016	2.3151	4.2975	2.1039	2.6653	4.3843	2.6364	3.0704	4.0312	2.6798	0.136	0.981	-0.3386	-0.3039	-0.3531	-0.9058	0.1621	-0.0318	6.792	0.4833
3.3251	2.5003	3.9502	2.8737	2.5409	4.5782	2.3441	2.8013	4.5782	2.7579	3.137	4.1296	2.7405	0.0781	1.227	-0.0955	-0.1736	-0.4688	-0.8711	0.1592	-0.1215	6.9975	0.463
3.6984	2.7926	4.3409	3.2065	2.8129	4.8878	2.59	2.9634	4.8068	2.9055	3.1891	4.2367	2.8216	0.0058	1.473	0.1158	-0.0434	-0.5614	-0.8306	0.1852	-0.2113	7.2145	0.4399
4.0457	3.0762	4.6794	3.5219	3.0473	5.1917	2.8331	3.137	5.0354	3.0531	3.247	4.3698	2.9171	-0.0579	1.7392	0.3328	0.0752	-0.6714	-0.7842	0.191	-0.2691	7.4345	0.4457
4.393	3.3483	5.047	3.8402	3.3222	5.4926	3.1225	3.3164	5.2785	3.2267	3.3627	4.5376	3.0183	-0.0984	2.0344	0.5759	0.1563	-0.7177	-0.6945	0.2894	-0.3068	7.6428	0.4543
4.7663	3.6463	5.4029	4.1643	3.6058	5.8081	3.4061	3.5248	5.5245	3.4293	3.5016	4.7373	3.1688	-0.136	2.2804	0.8334	0.246	-0.7814	-0.6424	0.3588	-0.3039	7.8541	0.4601
5.0962	3.927	5.7502	4.4856	3.8778	6.0975	3.655	3.7216	5.7589	3.6145	3.6203	4.9167	3.2991	-0.1823	2.5611	1.0881	0.3386	-0.8132	-0.5614	0.4138	-0.3125	8.0711	0.4804
5.4145	4.1759	6.057	4.7981	4.1528	6.3811	3.9212	3.927	6.0106	3.8171	3.7476	5.1106	3.4466	-0.2113	2.8129	1.3486	0.3994	-0.8248	-0.4486	0.5296	-0.2923	8.2824	0.5064
5.7068	4.4508	6.3984	5.0933	4.4045	6.6415	4.1585	4.1267	6.2653	3.9994	3.8952	5.3074	3.6232	-0.246	3.0531	1.5772	0.4746	-0.8421	-0.3646	0.599	-0.2518	8.482	0.5296
6.002	4.6881	6.6849	5.3827	4.6766	6.9338	4.4161	4.3467	6.5171	4.2164	4.0312	5.5418	3.8026	-0.272	3.2875	1.8781	0.5267	-0.8624	-0.2344	0.6685	-0.2084	8.673	0.5817
6.2711	4.9283	6.9367	5.6634	4.9312	7.1798	4.6476	4.5261	6.7457	4.4103	4.2193	5.7849	3.9878	-0.2923	3.519	2.1675	0.5817	-0.8653	-0.1505	0.7437	-0.1592	8.8206	0.6338
6.5258	5.1743	7.2116	5.8746	5.1714	7.4171	4.882	4.7373	6.9888	4.5955	4.3901	6.0396	4.1701	-0.3183	3.7418	2.4309	0.6338	-0.8595	-0.0289	0.8132	-0.0781	8.9682	0.6888
6.792	5.4	7.4692	6.1409	5.4087	7.666	5.0962	4.9486	7.2637	4.8184	4.5782	6.3174	4.3872	-0.3386	3.9415	2.7174	0.6482	-0.8479	0.0781	0.9029	-0.0029	9.1042	0.7264
6.983	5.5939	7.6718	6.3579	5.6171	7.8714	5.2756	5.128	7.4894	5.0036	4.7402	6.5518	4.6013	-0.3675	4.118	2.9981	0.709	-0.8045	0.1765	0.9666	0.1013	9.2171	0.7785
7.1856	5.782	7.8888	6.546	5.8196	8.0798	5.484	5.3248	7.7354	5.2119	4.9573	6.8238	4.827	-0.3965	4.3061	3.2701	0.7611	-0.7466	0.2865	1.0621	0.2055	9.2952	0.8334
7.3476	5.9267	8.0595	6.711	5.9962	8.2679	5.646	5.484	7.9438	5.3971	5.1222	7.0959	5.0586	-0.4254	4.4364	3.464	0.8219	-0.6801	0.3965	1.1605	0.3068	9.3705	0.9
7.5184	6.0917	8.239	6.8528	6.1785	8.43	5.8139	5.6692	8.1608	5.6055	5.3364	7.3853	5.2901	-0.4283	4.5637	3.736	0.8479	-0.599	0.5122	1.3052	0.4023	9.3994	0.9289
7.6544	6.2393	8.3663	6.9743	6.3348	8.5544	5.9586	5.8052	8.3692	5.7733	5.51	7.6457	5.5187	-0.4457	4.6679	3.9184	0.8797	-0.5093	0.6251	1.4122	0.5325	9.3965	0.9839
7.7528	6.3579	8.4618	7.0698	6.4621	8.6904	6.0772	5.9586	8.5602	5.9412	5.6663	7.9148	5.7444	-0.4601	4.7605	4.0775	0.9	-0.4167	0.7119	1.5106	0.6367	9.3792	1.0215
7.8338	6.4071	8.537	7.1566	6.5807	8.7859	6.1727	6.0541	8.702	6.0859	5.8428	8.1348	5.9528	-0.463	4.8386	4.2483	0.9116	-0.3357	0.8132	1.5945	0.7698	9.3213	1.0765
7.8656	6.4563	8.5862	7.1885	6.6184	8.8409	6.2508	6.1438	8.8293	6.2016	5.9875	8.3692	6.1293	-0.4601	4.9283	4.3582	0.9058	-0.2402	0.8913	1.664	0.9029	9.2402	1.1026
7.9119	6.5344	8.6094	7.2	6.682	8.8872	6.3029	6.1988	8.9335	6.3377	6.1524	8.5746	6.3145	-0.4543	4.9602	4.4653	0.8682	-0.1534	0.9781	1.7566	1.0244	9.1332	1.1199
7.9119	6.5431	8.6267	7.2261	6.7139	8.8988	6.3232	6.2595	9.0058	6.4158	6.2653	8.757	6.4708	-0.4225	4.9891	4.5116	0.8421	-0.055	1.0563	1.8203	1.1373	9.0029	1.146
7.8772	6.5287	8.5804	7.1885	6.6965	8.8785	6.2914	6.2798	9.0406	6.4737	6.3782	8.8843	6.5952	-0.4196	4.9949	4.5521	0.8045	0.0463	1.1286	1.8781	1.2646	8.8785	1.1576
7.8078	6.4737	8.5139	7.1508	6.6502	8.8206	6.2943	6.2653	9.0608	6.4968	6.4679	9.0174	6.7254	-0.3936	4.9399	4.5348	0.7814	0.1071	1.1634	1.8926	1.3862	8.7628	1.1749
7.7383	6.4158	8.401	7.0727	6.5836	8.7309	6.2306	6.2393	9.0203	6.4852	6.5402	9.1245	6.818	-0.3907	4.9023	4.4711	0.7495	0.1707	1.2125	1.91	1.4759	8.6412	1.1547
7.6226	6.2885	8.2708	7.0004	6.4939	8.6354	6.1582	6.1872	8.9711	6.465	6.5865	9.1882	6.8788	-0.3762	4.8531	4.4132	0.7235	0.246	1.2328	1.8724	1.5916	8.5312	1.1315
7.4431	6.1524	8.1174	6.8644	6.3695	8.5081	6.0685	6.1206	8.8901	6.4245	6.6155	9.246	6.9483	-0.3588	4.7692	4.2975	0.7003	0.3039	1.2444	1.8463	1.6929	8.4444	1.0997
7.2753	6.0049	7.9177	6.7283	6.2016	8.3258	5.9528	5.9817	8.7772	6.3377	6.627	9.2808	6.9743	-0.3675	4.6679	4.1412	0.7061	0.3762	1.2357	1.8029	1.7826	8.3431	1.0534
7.0669	5.8254	7.7209	6.5981	6.028	8.1666	5.8341	5.9036	8.6846	6.2914	6.6531	9.2779	7.038	-0.356	4.5724	4.0052	0.7003	0.4514	1.2444	1.7711	1.881	8.265	1.0187
6.8644	5.6287	7.501	6.4245	5.866	7.9901	5.6894	5.7907	8.5544	6.2161	6.6328	9.2981	7.0727	-0.356	4.4682	3.8605	0.6888	0.5093	1.2357	1.7219	1.9765	8.1608	0.9724
6.6097	5.4116	7.2492	6.2132	5.6576	7.7644	5.51	5.6547	8.4097	6.1351	6.627	9.2837	7.0698	-0.3791	4.3438	3.6984	0.7322	0.5441	1.172	1.6727	2.0489	8.0566	0.9203
6.3463	5.1743	7.0062	6.0425	5.4377	7.5473	5.3653	5.5158	8.2476	6.0425	6.6039	9.2547	7.0872	-0.3762	4.2483	3.5479	0.7408	0.6193	1.1518	1.6177	2.1241	7.9467	0.874
6.0888	4.9486	6.7428	5.8544	5.2177	7.3303	5.2148	5.3566	8.1087	5.9759	6.5605	9.2258	7.119	-0.3965	4.1267	3.3801	0.7669	0.6685	1.1199	1.5859	2.2052	7.8367	0.8334
5.8283	4.691	6.4795	5.6431	4.9949	7.1306	5.0499	5.2032	7.9148	5.8717	6.5373	9.1997	7.1248	-0.4138	3.9675	3.2383	0.79	0.7437	1.0679	1.554	2.2601	7.7238	0.8132
5.5389	4.4248	6.1698	5.4058	4.7373	6.873	4.856	5.0412	7.7094	5.7531	6.4708	9.0898	7.0988	-0.4254	3.8142	3.0704	0.8219	0.7842	0.9926	1.5048	2.3151	7.6254	0.7756
5.2611	4.1557	5.8775	5.2206	4.4913	6.6328	4.7026	4.8647	7.5271	5.646	6.4071	9.0406	7.0872	-0.4254	3.6868	2.8968	0.845	0.8769	0.9434	1.473	2.3788	7.5328	0.7669
4.9486	3.872	5.5968	4.9862	4.2164	6.3579	4.529	4.6939	7.3187	5.5303	6.3377	8.9538	7.0525	-0.4457	3.4901	2.6827	0.874	0.9463	0.8769	1.418	2.4309	7.4663	0.7669
4.6245	3.5884	5.2582	4.7547	3.9415	6.0888	4.3032	4.4827	7.093	5.4174	6.2277	8.812	6.9975	-0.463	3.3367	2.4859	0.9116	1.0187	0.7929	1.3486	2.4454	7.4055	0.7756
4.2946	3.2788	4.9486	4.5087	3.6637	5.8168	4.1209	4.3206	6.8759	5.2872	6.1293	8.6962	6.957	-0.4746	3.1254	2.2544	0.9376	1.1142	0.7032	1.3109	2.4801	7.3766	0.7727
3.9704	2.9691	4.5926	4.254	3.3917	5.5418	3.9357	4.1354	6.6531	5.1569	6.0483	8.5775	6.8904	-0.492	2.946	2.0547	0.9724	1.1981	0.6309	1.2704	2.5119	7.3361	0.7929
3.6174	2.6769	4.2367	3.9791	3.0936	5.2293	3.7042	3.927	6.4071	5.0122	5.9267	8.4068	6.8123	-0.5122	2.729	1.8405	0.9955	1.2849	0.5556	1.2444	2.5119	7.3129	0.7987
3.2933	2.3759	3.9068	3.7274	2.8245	4.9515	3.5103	3.7563	6.1843	4.8936	5.8225	8.265	6.7399	-0.5238	2.5524	1.6061	1.0158	1.3688	0.4688	1.1981	2.5524	7.3042	0.8103
2.9344	2.0576	3.5595	3.4611	2.538	4.6418	3.2846	3.5508	5.9412	4.7721	5.7126	8.1058	6.656	-0.5325	2.3267	1.3746	1.0331	1.4209	0.3936	1.1402	2.5669	7.2869	0.8016
2.5785	1.7421	3.2296	3.2093	2.2717	4.3611	3.1023	3.3685	5.7126	4.636	5.5939	7.938	6.5779	-0.5383	2.0952	1.1055	1.0447	1.4904	0.3068	1.1142	2.5322	7.2869	0.8248
2.2254	1.447	2.8708	2.9373	1.9823	4.0717	2.8823	3.163	5.4753	4.4971	5.4724	7.7644	6.5026	-0.5325	1.8955	0.8971	1.0563	1.5598	0.191	1.0621	2.5177	7.2898	0.8334
1.8868	1.1286	2.5553	2.7058	1.7277	3.7939	2.6913	2.9749	5.2235	4.3785	5.3537	7.5849	6.4187	-0.5296	1.6264	0.6396	1.0476	1.6119	0.0637	0.9984	2.4974	7.2984	0.8508
1.5656	0.8537	2.2515	2.4714	1.4846	3.5392	2.5148	2.8187	5.0528	4.2917	5.2467	7.446	6.355	-0.5209	1.4035	0.4051	1.0158	1.6756	-0.0579	0.981	2.4772	7.2926	0.8682
1.2646	0.5556	1.9563	2.2717	1.2502	3.3396	2.3556	2.6566	4.8647	4.2077	5.1483	7.3245	6.3087	-0.5006	1.1894	0.2315	0.9752	1.7421	-0.1534	0.9666	2.4482	7.2782	0.9058
0.9897	0.3096	1.6929	2.0749	1.0302	3.1081	2.2138	2.5148	4.6968	4.1007	5.0586	7.1914	6.2769	-0.4862	0.9695	-0.0087	0.9521	1.7884	-0.2894	0.9145	2.399	7.255	0.9608
0.7119	0.0666	1.4412	1.9042	0.8508	2.9142	2.0923	2.347	4.5434	4.0862	4.9775	7.0872	6.2653	-0.4514	0.7785	-0.1215	0.8826	1.8637	-0.3675	0.9058	2.3701	7.2203	1.0013
0.4804	-0.1794	1.1865	1.7508	0.6772	2.7174	1.9765	2.2254	4.4306	4.0399	4.8936	6.9801	6.2508	-0.4254	0.5556	-0.2923	0.8363	1.9273	-0.4949	0.8942	2.3354	7.1798	1.0534
0.2373	-0.3791	0.9984	1.6177	0.5209	2.5785	1.9187	2.1097	4.309	4.0254	4.8415	6.8846	6.2682	-0.3907	0.408	-0.4457	0.7553	2.0315	-0.5904	0.8971	2.3007	7.1132	1.1113
0.0492	-0.5788	0.8016	1.5077	0.3588	2.4222	1.8347	1.9939	4.1817	4.0139	4.7605	6.8007	6.2769	-0.3531	0.2199	-0.5961	0.683	2.1154	-0.7003	0.9	2.2775	7.064	1.1981
-0.1418	-0.7582	0.6135	1.3891	0.2286	2.2891	1.7826	1.9129	4.0862	3.9878	4.7171	6.7225	6.2914	-0.3154	0.0723	-0.7003	0.6135	2.2052	-0.8103	0.9318	2.2486	6.9946	1.256
-0.3154	-0.9289	0.437	1.2878	0.0984	2.1994	1.7248	1.7942	4.0081	3.9849	4.6823	6.6531	6.2885	-0.2749	-0.1013	-0.845	0.5383	2.2775	-0.9203	0.9695	2.2515	6.9454	1.3225
-0.4601	-1.0823	0.2894	1.2241	-0.0174	2.0749	1.6756	1.7248	3.9444	3.9849	4.6331	6.5634	6.3232	-0.2402	-0.2344	-0.9289	0.4746	2.3788	-1.0129	1.0013	2.2196	6.8788	1.3862
-0.6193	-1.2444	0.165	1.1605	-0.1129	1.9881	1.6293	1.664	3.8663	3.9994	4.6042	6.4795	6.3406	-0.217	-0.3588	-1.0244	0.4023	2.4569	-1.1055	1.0418	2.2167	6.8325	1.4585
-0.7437	-1.3457	0.0666	1.1055	-0.2055	1.9302	1.6177	1.5888	3.8055	4.0428	4.5811	6.4389	6.3637	-0.191	-0.4949	-1.1142	0.3473	2.5466	-1.1749	1.0592	2.2081	6.7602	1.5453
-0.8306	-1.4498	-0.0289	1.0765	-0.2402	1.8926	1.6206	1.5656	3.7852	4.0602	4.5897	6.4245	6.4042	-0.1563	-0.5875	-1.1518	0.2807	2.6595	-1.256	1.1055	2.2312	6.6994	1.6032
-0.9492	-1.5453	-0.1013	1.065	-0.3039	1.8695	1.6293	1.5164	3.7708	4.0891	4.6071	6.3897	6.4505	-0.1244	-0.6859	-1.1836	0.2199	2.7724	-1.3196	1.1836	2.2341	6.6386	1.6727
-0.9926	-1.6235	-0.136	1.0823	-0.3241	1.881	1.6524	1.5396	3.765	4.1846	4.6418	6.3869	6.5431	-0.081	-0.7582	-1.1923	0.1447	2.8997	-1.3659	1.2357	2.2804	6.5807	1.7392
-1.0244	-1.6293	-0.1505	1.1228	-0.3502	1.8637	1.7219	1.5685	3.8113	4.2627	4.6852	6.4042	6.6444	-0.0463	-0.8277	-1.1952	0.0695	3.0357	-1.4093	1.3254	2.3007	6.5113	1.8174
-1.0273	-1.6987	-0.1621	1.1315	-0.3299	1.91	1.7508	1.5714	3.8257	4.3553	4.7286	6.4245	6.7168	-0.0058	-0.8971	-1.1576	-0.0116	3.1862	-1.418	1.3833	2.3527	6.4534	1.8781
-0.9984	-1.69	-0.11	1.201	-0.3125	1.9476	1.8521	1.6264	3.9097	4.474	4.7894	6.465	6.847	0.0376	-0.9318	-1.1113	-0.1042	3.354	-1.4209	1.5309	2.4193	6.3955	1.9418
-0.9637	-1.6785	-0.055	1.2675	-0.2807	2.0113	1.936	1.6756	3.9704	4.5666	4.8589	6.5229	6.957	0.081	-0.9261	-1.0389	-0.1881	3.5132	-1.418	1.6119	2.4743	6.3377	2.0113
-0.9058	-1.6553	0.0203	1.3688	-0.2315	2.1068	2.0518	1.7624	4.0602	4.7229	4.9602	6.5923	7.093	0.1302	-0.9289	-0.9434	-0.2778	3.6666	-1.4064	1.7306	2.5351	6.2711	2.0807
-0.8334	-1.6148	0.1187	1.4788	-0.1505	2.2023	2.1531	1.8405	4.1557	4.8502	5.0499	6.656	7.2232	0.1794	-0.8913	-0.8334	-0.3675	3.8113	-1.3862	1.8434	2.6219	6.2219	2.1357
-0.7524	-1.5367	0.1881	1.5743	-0.0926	2.3238	2.2862	1.9447	4.2714	4.9862	5.1483	6.7341	7.3708	0.2315	-0.8769	-0.7495	-0.4688	3.9155	-1.3428	1.9447	2.6855	6.1814	2.2109
-0.6801	-1.5106	0.301	1.6958	0.0058	2.4193	2.3904	2.0286	4.3698	5.1338	5.2351	6.8152	7.4808	0.2576	-0.8392	-0.6511	-0.5412	4.0486	-1.2907	2.0286	2.7608	6.1177	2.2688
-0.5585	-1.4585	0.3936	1.8145	0.0868	2.5322	2.5119	2.1241	4.4537	5.2467	5.3277	6.8644	7.6168	0.2981	-0.7611	-0.5383	-0.6338	4.1701	-1.2444	2.1212	2.8389	6.0656	2.3383
-0.4659	-1.3804	0.5035	1.9187	0.1621	2.674	2.6392	2.2312	4.5811	5.3827	5.4463	6.9483	7.7615	0.3502	-0.6743	-0.4399	-0.7379	4.2888	-1.1431	2.2052	2.9344	6.0164	2.373
-0.3878	-1.3225	0.599	2.0431	0.2518	2.7955	2.7724	2.3151	4.691	5.51	5.5389	7.0264	7.8685	0.3936	-0.599	-0.3415	-0.8219	4.3872	-1.0881	2.2833	3.0068	5.9933	2.4338
-0.2691	-1.2357	0.7293	2.1675	0.3646	2.9402	2.9026	2.4511	4.8241	5.6431	5.6663	7.1219	7.9843	0.4457	-0.5122	-0.2605	-0.9232	4.5058	-1.036	2.3962	3.1052	5.947	2.4743
-0.2055	-1.1807	0.8074	2.2717	0.4254	3.0299	3.0039	2.5553	4.9225	5.7473	5.7415	7.174	8.0711	0.4978	-0.3936	-0.1505	-1.0215	4.6013	-0.9608	2.4656	3.1544	5.9267	2.5235
-0.1302	-1.1257	0.9232	2.399	0.5354	3.163	3.111	2.6913	5.0643	5.8833	5.8631	7.2666	8.2042	0.5527	-0.2778	-0.0637	-1.1344	4.7373	-0.8711	2.5582	3.2643	5.9151	2.5698
-0.0608	-1.0679	0.9984	2.5119	0.6251	3.2962	3.2093	2.7984	5.1772	5.9904	5.9817	7.365	8.3084	0.6106	-0.1997	0.026	-1.2357	4.8357	-0.8103	2.6335	3.3454	5.9151	2.6074
0.0405	-0.9897	1.0621	2.6277	0.7206	3.4119	3.3048	2.8997	5.2872	6.1206	6.0714	7.4489	8.4271	0.6772	-0.0781	0.136	-1.3601	4.9225	-0.7351	2.7	3.4206	5.9209	2.6508
0.0492	-0.9666	1.1373	2.7	0.7698	3.5219	3.4003	2.9807	5.3711	6.2074	6.193	7.5415	8.5168	0.7322	0.0232	0.2084	-1.473	4.9949	-0.6627	2.7579	3.5016	5.947	2.6884
0.081	-0.9261	1.1749	2.7608	0.8277	3.629	3.4582	3.0675	5.4811	6.3	6.2885	7.6312	8.6094	0.7756	0.1187	0.2952	-1.5801	5.0557	-0.5961	2.8042	3.5479	5.9846	2.7347
0.1447	-0.9087	1.2299	2.8476	0.9203	3.7447	3.5392	3.1804	5.5766	6.4042	6.3811	7.7065	8.6962	0.8421	0.2141	0.3733	-1.6929	5.1106	-0.5267	2.8534	3.629	6.0367	2.7492
0.1678	-0.874	1.2531	2.92	0.9897	3.8286	3.6058	3.2614	5.6634	6.4766	6.4766	7.802	8.7859	0.8913	0.3502	0.463	-1.7942	5.1483	-0.4601	2.9084	3.6868	6.0975	2.7782
0.191	-0.8508	1.3138	2.9981	1.0563	3.9068	3.6753	3.383	5.7647	6.5923	6.5431	7.8917	8.8669	0.9463	0.4601	0.5585	-1.8897	5.183	-0.408	2.9865	3.7274	6.1669	2.7955
0.1881	-0.8508	1.3254	3.0473	1.1084	3.9936	3.7274	3.4553	5.8168	6.6589	6.6328	7.9554	8.9422	0.9868	0.5643	0.6367	-1.9823	5.2148	-0.3531	3.027	3.7766	6.2393	2.81
0.2084	-0.8566	1.3341	3.1225	1.1894	4.0804	3.7968	3.5566	5.9094	6.7573	6.7225	8.048	9.0348	1.0331	0.6945	0.7582	-2.0865	5.2438	-0.2923	3.1254	3.8113	6.3145	2.8273
0.2141	-0.8595	1.3457	3.1486	1.2473	4.1354	3.8229	3.6232	5.9788	6.8325	6.7804	8.1145	9.0984	1.0823	0.8074	0.8132	-2.1849	5.2727	-0.2489	3.192	3.8489	6.4013	2.8621
0.2141	-0.9087	1.3138	3.2007	1.2762	4.173	3.8663	3.6811	6.0049	6.8817	6.847	8.1695	9.1332	1.1257	0.9434	0.9203	-2.263	5.3045	-0.2315	3.2904	3.8605	6.4534	2.8765
0.1852	-0.9232	1.3052	3.2296	1.3196	4.2367	3.8663	3.7592	6.0685	6.9338	6.9338	8.2129	9.1968	1.1662	1.0273	0.9781	-2.3441	5.3219	-0.1765	3.3743	3.9068	6.5518	2.8997
0.1736	-0.9695	1.2762	3.2614	1.3572	4.254	3.8865	3.8229	6.0743	6.9714	6.9859	8.2621	9.2287	1.1865	1.1084	1.0302	-2.3933	5.3248	-0.1505	3.4756	3.9415	6.6531	2.9489
0.1505	-1.0042	1.2415	3.2643	1.3862	4.254	3.8778	3.8778	6.0946	7.0004	7.0409	8.2968	9.2605	1.2154	1.2183	1.0534	-2.4425	5.345	-0.081	3.5392	3.9733	6.7573	2.9518
0.1215	-1.0592	1.1923	3.247	1.4007	4.2569	3.8605	3.927	6.1206	7.0119	7.1045	8.3171	9.2663	1.2299	1.2936	1.0823	-2.4714	5.374	-0.0521	3.6029	4.037	6.8672	2.9981
0.1129	-1.091	1.1605	3.2412	1.4238	4.2338	3.8402	3.9791	6.1148	7.0293	7.1827	8.3518	9.2894	1.2357	1.3746	1.1055	-2.4685	5.4145	-0.0232	3.6753	4.0804	6.9917	3.0299
0.0289	-1.1605	1.0881	3.2007	1.4325	4.2106	3.7823	4.0081	6.109	7.0206	7.2232	8.3634	9.2779	1.2299	1.4296	1.1431	-2.4685	5.4608	0.0174	3.7302	4.118	7.1017	3.0328
0.0058	-1.1865	1.036	3.2007	1.447	4.1904	3.7563	4.063	6.0859	7.0351	7.284	8.3865	9.2605	1.2154	1.473	1.1431	-2.4425	5.4724	0.0434	3.7592	4.1846	7.229	3.0646
-0.0608	-1.2502	0.955	3.1225	1.4325	4.1383	3.6955	4.092	6.0772	6.9801	7.31	8.3981	9.2663	1.2039	1.5106	1.1315	-2.4164	5.5216	0.0666	3.8026	4.2164	7.3418	3.082
-0.1013	-1.2965	0.8826	3.0386	1.4412	4.0978	3.6203	4.1238	6.0598	6.9425	7.3534	8.4097	9.2547	1.1691	1.5135	1.1199	-2.3672	5.5389	0.0666	3.8055	4.2425	7.446	3.0994
-0.1418	-1.3457	0.8277	2.9807	1.4441	4.0659	3.5306	4.1267	6.0338	6.9078	7.3881	8.4184	9.2084	1.146	1.5309	1.1055	-2.3267	5.5852	0.0839	3.8026	4.2569	7.5502	3.1052
-0.1621	-1.3659	0.764	2.9373	1.4585	4.037	3.4843	4.1643	6.028	6.8962	7.4316	8.4473	9.2113	1.1373	1.5743	1.1026	-2.2949	5.5939	0.055	3.8373	4.2772	7.637	3.0936
-0.1707	-1.3833	0.7177	2.8823	1.4614	4.0023	3.409	4.1817	6.028	6.8441	7.4547	8.4647	9.1795	1.1286	1.5714	1.1286	-2.2515	5.6142	0.0318	3.8113	4.2772	7.7412	3.082
-0.1823	-1.418	0.6685	2.7608	1.4614	3.9647	3.3251	4.1817	6.0396	6.8094	7.4721	8.4965	9.1505	1.091	1.5685	1.1257	-2.2138	5.5852	0.0376	3.8084	4.2888	7.8164	3.0646
-0.2084	-1.4209	0.6135	2.7	1.4788	3.9357	3.2643	4.2106	6.0541	6.8007	7.501	8.5197	9.1216	1.0765	1.6322	1.1662	-2.1646	5.5737	0.0203	3.7881	4.254	7.8599	3.0328
-0.191	-1.4325	0.599	2.6103	1.4759	3.9155	3.1601	4.2425	6.0512	6.7283	7.5126	8.5486	9.084	1.0505	1.6148	1.1778	-2.1241	5.5621	0.0029	3.765	4.2569	7.9091	3.0039
-0.1939	-1.4122	0.5788	2.5322	1.5193	3.9155	3.0878	4.2685	6.0714	6.7081	7.5502	8.5833	9.0695	1.036	1.6408	1.2415	-2.0691	5.5187	0.0116	3.7331	4.2512	7.9467	2.9576
-0.1852	-1.4064	0.5614	2.4454	1.5164	3.8865	3.0039	4.2772	6.0743	6.6184	7.5473	8.5804	8.9972	1.0042	1.6785	1.2965	-2.0113	5.4753	0.0463	3.6521	4.2569	7.9409	2.9142
-0.1852	-1.3978	0.5469	2.3499	1.5338	3.8749	2.9228	4.2917	6.0714	6.5547	7.5734	8.6007	8.9509	0.9521	1.719	1.3688	-1.936	5.4116	0.081	3.5769	4.2714	7.9206	2.8476
-0.1621	-1.3775	0.4978	2.2399	1.5627	3.8836	2.8273	4.3351	6.0859	6.5026	7.5647	8.6123	8.8988	0.9203	1.7595	1.4672	-1.8521	5.3595	0.1244	3.519	4.2888	7.8772	2.7724
-0.1707	-1.3775	0.4949	2.1183	1.5627	3.8749	2.729	4.3467	6.1033	6.4389	7.5676	8.6036	8.8177	0.8711	1.7798	1.5309	-1.7595	5.2669	0.165	3.4264	4.3032	7.8454	2.6855
-0.165	-1.3659	0.4659	2.0402	1.6032	3.8663	2.6248	4.3669	6.1004	6.3782	7.5618	8.6094	8.7309	0.8248	1.8232	1.6119	-1.6553	5.1569	0.2113	3.3338	4.338	7.7991	2.6132
-0.1621	-1.3486	0.437	1.8955	1.6148	3.8489	2.4945	4.3814	6.0946	6.2798	7.5705	8.6152	8.6499	0.7756	1.8521	1.7045	-1.5453	5.0586	0.2749	3.2412	4.3785	7.7412	2.5293
-0.1823	-1.3283	0.3936	1.7826	1.6206	3.8286	2.4106	4.3987	6.0975	6.193	7.5849	8.6383	8.5718	0.6974	1.8839	1.7711	-1.4209	4.9486	0.3675	3.1312	4.4074	7.7036	2.4569
-0.1852	-1.308	0.3849	1.6669	1.638	3.8315	2.318	4.4479	6.1351	6.1235	7.6052	8.673	8.5023	0.6396	1.9158	1.8087	-1.2965	4.8357	0.4283	3.0357	4.4827	7.666	2.3672
-0.1968	-1.2907	0.3299	1.6003	1.6495	3.8229	2.2254	4.474	6.1553	6.0627	7.6399	8.6875	8.43	0.573	1.9273	1.8492	-1.1662	4.7431	0.4775	2.9344	4.5405	7.6341	2.292
-0.2141	-1.2791	0.3241	1.499	1.7074	3.8489	2.1386	4.5203	6.2103	6.0049	7.6602	8.7136	8.3923	0.5122	1.9418	1.8897	-1.036	4.6216	0.5672	2.8447	4.5811	7.6052	2.2254
-0.2315	-1.2762	0.2778	1.4093	1.719	3.8315	2.0199	4.5434	6.2248	5.9383	7.692	8.7454	8.3287	0.437	1.9013	1.9302	-0.9174	4.5174	0.628	2.7492	4.636	7.5849	2.1646
-0.217	-1.2212	0.3212	1.3601	1.7508	3.8807	2.0026	4.6042	6.3029	5.9065	7.7441	8.8206	8.3171	0.382	1.9447	1.9708	-0.8103	4.4103	0.6974	2.6595	4.6823	7.5473	2.101
-0.1997	-1.1865	0.3183	1.3167	1.7942	3.9241	1.9592	4.665	6.3637	5.8746	7.7759	8.8843	8.2997	0.3415	1.9302	1.9679	-0.709	4.3061	0.7379	2.5698	4.7315	7.5097	2.0402
-0.1852	-1.1489	0.3444	1.2965	1.8347	3.9733	1.9273	4.7142	6.4361	5.8486	7.8367	8.9364	8.2824	0.2923	1.91	2.0026	-0.6077	4.2164	0.8016	2.5119	4.7894	7.4808	1.9679
-0.1621	-1.1228	0.3328	1.2675	1.8839	4.0139	1.8724	4.7489	6.5026	5.8254	7.8483	8.9682	8.2534	0.2286	1.8926	1.9679	-0.4775	4.1036	0.8132	2.4135	4.8126	7.4373	1.9042
-0.136	-1.0621	0.3762	1.2762	1.9331	4.0862	1.8839	4.8184	6.6068	5.8399	7.9091	9.0261	8.2505	0.1765	1.8897	1.9852	-0.382	4.011	0.8479	2.3527	4.8415	7.4026	1.8318
-0.1331	-1.0476	0.4109	1.2444	1.9736	4.1354	1.8579	4.8676	6.682	5.8515	7.9351	9.1013	8.2708	0.1129	1.8376	1.9244	-0.2576	3.9126	0.8537	2.2978	4.856	7.3737	1.7769
-0.0926	-1.0158	0.4543	1.2531	2.0142	4.202	1.8637	4.8965	6.7746	5.8544	7.9582	9.1476	8.2679	0.0666	1.8463	1.8984	-0.1563	3.8373	0.8884	2.2515	4.856	7.3708	1.7103
-0.1013	-0.9608	0.4862	1.282	2.0605	4.2512	1.8434	4.9486	6.8412	5.8457	7.9727	9.1911	8.265	0.0232	1.8087	1.8116	-0.0666	3.7852	0.9	2.2023	4.8791	7.3824	1.6437
-0.1042	-0.9666	0.5093	1.2444	2.1097	4.3032	1.8579	4.9804	6.902	5.8746	7.9814	9.2287	8.2476	-0.0347	1.7537	1.7219	0.0347	3.7129	0.9087	2.182	4.8589	7.4258	1.5714
-0.1071	-0.9434	0.5122	1.256	2.1415	4.3495	1.8434	5.018	6.9512	5.8631	7.9901	9.2605	8.2447	-0.081	1.7363	1.583	0.1331	3.6782	0.9203	2.1444	4.8531	7.501	1.5193
-0.1042	-0.9232	0.5209	1.2675	2.1589	4.4161	1.8405	5.0672	7.0553	5.8891	8.0161	9.301	8.2621	-0.1187	1.6756	1.4267	0.2257	3.6434	0.9318	2.1299	4.8386	7.5936	1.4527
-0.1158	-0.9145	0.5412	1.2299	2.2023	4.4566	1.8318	5.0788	7.1335	5.9036	8.0074	9.3242	8.2679	-0.1736	1.6698	1.282	0.3212	3.6463	0.9405	2.101	4.8444	7.6949	1.3833
-0.1302	-0.9	0.5527	1.2386	2.2428	4.4913	1.8347	5.1164	7.1769	5.9007	8.019	9.3734	8.2737	-0.2113	1.6235	1.1315	0.4023	3.6434	0.9521	2.1039	4.8676	7.8222	1.337
-0.165	-0.9087	0.5267	1.2444	2.2659	4.5405	1.8232	5.1425	7.2261	5.9065	8.0248	9.3936	8.2824	-0.2489	1.5801	0.9724	0.4746	3.6753	0.9521	2.0865	4.8647	7.938	1.2994
-0.1852	-0.9029	0.5325	1.2212	2.2891	4.5868	1.8087	5.1975	7.2898	5.9441	8.0595	9.4399	8.291	-0.2836	1.5482	0.819	0.5441	3.7071	0.9666	2.101	4.8907	8.0653	1.2646
-0.2286	-0.9087	0.5354	1.1952	2.3238	4.6331	1.8261	5.2061	7.339	5.9615	8.0509	9.4602	8.3084	-0.3125	1.5019	0.6974	0.6019	3.765	0.9781	2.1386	4.9023	8.1811	1.2299
-0.2373	-0.8913	0.5383	1.1894	2.3672	4.6679	1.8376	5.2698	7.4287	5.9991	8.048	9.5123	8.3489	-0.3299	1.4788	0.5498	0.6453	3.8518	0.9868	2.2225	4.9139	8.291	1.1923
-0.2836	-0.8913	0.5325	1.1749	2.399	4.72	1.8376	5.2987	7.4894	6.0164	8.0509	9.5354	8.3923	-0.3415	1.4672	0.4196	0.6656	3.9791	1.01	2.2804	4.9167	8.3981	1.1836
-0.2894	-0.8971	0.5325	1.1691	2.4338	4.7865	1.8463	5.3161	7.5415	6.0975	8.0537	9.5759	8.4213	-0.3531	1.473	0.3588	0.6656	4.0804	0.9781	2.4048	4.9196	8.4676	1.1547
-0.3125	-0.874	0.5469	1.1662	2.4917	4.8328	1.8781	5.374	7.6457	6.1669	8.048	9.6251	8.482	-0.3328	1.4614	0.2981	0.6367	4.228	0.9984	2.5148	4.9341	8.5718	1.1634
-0.327	-0.8421	0.6048	1.172	2.538	4.8965	1.9158	5.4	7.7267	6.2161	8.0682	9.6599	8.5544	-0.3068	1.4817	0.2576	0.5904	4.3553	0.9897	2.619	4.9312	8.6383	1.146
-0.3068	-0.8334	0.5961	1.1923	2.5495	4.9833	1.9563	5.4377	7.7991	6.3145	8.074	9.6888	8.6152	-0.2952	1.5135	0.2199	0.5412	4.4711	0.9868	2.7318	4.9312	8.7425	1.1576
-0.3531	-0.8306	0.6251	1.1807	2.5756	5.0065	1.9679	5.4608	7.8656	6.3579	8.0451	9.6975	8.6557	-0.2633	1.4846	0.1852	0.4891	4.6013	0.9781	2.8389	4.9196	8.8409	1.1836
-0.3502	-0.819	0.6453	1.1865	2.6132	5.0614	2.0171	5.4782	7.9177	6.4245	8.0364	9.7177	8.7107	-0.2199	1.499	0.2141	0.4023	4.6997	0.9752	2.9286	4.9139	8.9306	1.2154
-0.3762	-0.8537	0.6424	1.1662	2.6306	5.1106	2.0344	5.4811	7.9756	6.4708	8.0045	9.738	8.7251	-0.1621	1.4933	0.2084	0.2981	4.801	0.9463	3.0126	4.8907	9.0406	1.2589
-0.4109	-0.8479	0.6569	1.146	2.6537	5.1598	2.046	5.4811	7.9988	6.4997	7.964	9.7091	8.7454	-0.0984	1.499	0.2084	0.1736	4.8733	0.9058	3.0762	4.8299	9.1534	1.3167
-0.4312	-0.8624	0.6453	1.146	2.6595	5.183	2.0605	5.4869	8.0277	6.5113	7.9351	9.712	8.7309	-0.0376	1.4962	0.2141	0.0347	4.9457	0.8826	3.1138	4.8097	9.2489	1.392
-0.4717	-0.8826	0.6511	1.1084	2.6566	5.2119	2.0518	5.4811	8.0335	6.4997	7.8888	9.6859	8.728	0.0463	1.4933	0.2373	-0.1158	4.9891	0.845	3.1341	4.7865	9.3473	1.4585
-0.5209	-0.9058	0.5961	1.0823	2.645	5.2264	2.0663	5.4608	8.0566	6.5055	7.8396	9.6541	8.7165	0.136	1.4498	0.2113	-0.2865	5.0065	0.8219	3.163	4.746	9.4775	1.554
-0.5556	-0.9289	0.6048	1.0158	2.6306	5.2177	2.0199	5.4608	8.074	6.4881	7.8078	9.6222	8.673	0.2199	1.4412	0.2084	-0.4572	5.0354	0.7987	3.1544	4.6852	9.5673	1.6235
-0.6077	-0.9521	0.5701	1.0042	2.6508	5.238	2.0286	5.4319	8.0972	6.4968	7.7441	9.6078	8.6586	0.3154	1.4093	0.2141	-0.6482	5.0499	0.7958	3.1573	4.6389	9.6917	1.7335
-0.6396	-0.9608	0.5701	0.9724	2.645	5.2467	2.0142	5.4348	8.1319	6.5084	7.7036	9.602	8.6325	0.4023	1.3428	0.2026	-0.8248	5.0557	0.7756	3.1688	4.5897	9.8017	1.8145
-0.6801	-0.9434	0.5701	0.9434	2.6653	5.3045	2.0315	5.4492	8.1637	6.5344	7.6891	9.6107	8.6383	0.5093	1.3167	0.1823	-1.0273	5.0441	0.764	3.1862	4.5492	9.9174	1.9158
-0.7379	-0.9145	0.5788	0.9058	2.6827	5.3422	2.0113	5.4492	8.1927	6.5229	7.666	9.6049	8.6123	0.5875	1.282	0.1794	-1.201	5.0094	0.7582	3.2036	4.4856	10.0158	1.9968
-0.7235	-0.874	0.5961	0.9	2.7232	5.3971	2.0373	5.4724	8.2621	6.5663	7.6602	9.6222	8.6267	0.683	1.2762	0.2055	-1.3717	5.018	0.7553	3.218	4.4393	10.0968	2.0923
-0.709	-0.8132	0.6135	0.8855	2.755	5.4724	2.0634	5.5013	8.2939	6.5836	7.6428	9.6454	8.6296	0.7495	1.2415	0.1939	-1.5193	4.9746	0.7698	3.2585	4.3756	10.1605	2.1617
-0.683	-0.7408	0.654	0.9058	2.8187	5.5505	2.0981	5.536	8.3923	6.6299	7.6573	9.6917	8.6412	0.8219	1.2212	0.2055	-1.6582	4.9515	0.7756	3.3019	4.3409	10.1981	2.2428
-0.6569	-0.6424	0.7437	0.9145	2.8997	5.6431	2.1704	5.591	8.4705	6.6965	7.6949	9.7091	8.6499	0.8913	1.2241	0.2315	-1.7826	4.9167	0.7871	3.3425	4.3264	10.1923	2.2833
-0.5933	-0.5527	0.7814	0.9637	2.9865	5.7242	2.2225	5.6373	8.5631	6.7399	7.7123	9.7525	8.6412	0.9376	1.227	0.2518	-1.8868	4.8762	0.8363	3.3801	4.2975	10.1576	2.3325
-0.5354	-0.408	0.8653	1.0042	3.0618	5.8254	2.2833	5.7068	8.6267	6.7978	7.7325	9.7901	8.6817	0.9752	1.2357	0.2807	-1.9592	4.8531	0.8624	3.4235	4.2714	10.0824	2.3701
-0.4399	-0.2749	0.9463	1.065	3.1573	5.9094	2.3527	5.7647	8.7193	6.8325	7.7586	9.8393	8.6962	0.9897	1.1894	0.3212	-1.9765	4.8213	0.9029	3.4814	4.283	9.9782	2.3846
-0.3473	-0.1331	1.0389	1.1228	3.2759	6.0078	2.4251	5.8225	8.8033	6.8962	7.8049	9.8711	8.6933	0.9724	1.2097	0.3588	-1.9708	4.7981	0.955	3.5016	4.2801	9.8595	2.3962
-0.2402	0.0289	1.1605	1.2039	3.3917	6.1177	2.5119	5.8949	8.8843	6.9627	7.8483	9.9203	8.7193	0.9608	1.2299	0.4225	-1.9389	4.7836	1.01	3.5508	4.3148	9.7149	2.4251
-0.1592	0.1823	1.2357	1.3109	3.464	6.2074	2.5872	5.9701	8.948	7.0322	7.8888	9.9608	8.728	0.9232	1.2386	0.4312	-1.8724	4.7836	1.0881	3.6029	4.3409	9.5759	2.4309
-0.0203	0.327	1.3543	1.3833	3.629	6.3058	2.674	6.0541	9.0521	7.1219	7.9611	10.0187	8.7772	0.8913	1.2357	0.518	-1.8029	4.8213	1.1981	3.7013	4.4074	9.4197	2.4338
0.0637	0.4978	1.447	1.499	3.7187	6.3811	2.7579	6.1351	9.1303	7.1711	8.0132	10.0476	8.8033	0.8479	1.256	0.5383	-1.6987	4.8415	1.2646	3.7621	4.4624	9.275	2.428
0.1476	0.6367	1.5193	1.5627	3.8315	6.4708	2.7926	6.2016	9.1824	7.2029	8.0624	10.0997	8.8438	0.7958	1.2791	0.5556	-1.5916	4.9052	1.3399	3.8547	4.5492	9.1419	2.4251
0.2026	0.79	1.583	1.6148	3.9241	6.5287	2.8679	6.2508	9.2258	7.2579	8.129	10.1287	8.8496	0.7379	1.2849	0.5846	-1.4817	4.9225	1.4064	3.8981	4.6013	9.0348	2.4106
0.2662	0.8942	1.6437	1.6871	4.0312	6.5779	2.9171	6.3232	9.2952	7.31	8.1811	10.1663	8.8727	0.6859	1.3052	0.573	-1.3978	4.9573	1.4962	3.9415	4.6534	8.9335	2.3904
0.3096	1.0273	1.7016	1.745	4.1093	6.627	2.9576	6.4013	9.3502	7.3361	8.2245	10.1895	8.8756	0.6627	1.3283	0.6164	-1.3225	4.9833	1.5453	3.9849	4.7402	8.8669	2.373
0.3415	1.1344	1.7277	1.7769	4.1991	6.656	2.9952	6.4418	9.3792	7.3679	8.2505	10.256	8.8901	0.6251	1.337	0.6251	-1.2704	5.0122	1.6177	4.0167	4.7923	8.8235	2.3267
0.3878	1.2068	1.7682	1.7855	4.2396	6.6878	2.9894	6.4708	9.3792	7.3766	8.2824	10.2589	8.893	0.6106	1.3775	0.6482	-1.2357	5.0325	1.6814	4.037	4.8068	8.7772	2.292
0.3646	1.2849	1.7942	1.8029	4.3293	6.6907	2.9865	6.5026	9.3907	7.3824	8.3055	10.2705	8.8959	0.599	1.4122	0.6569	-1.2183	5.0557	1.7219	4.0399	4.8299	8.7628	2.263
0.3878	1.3399	1.7942	1.8203	4.3669	6.7139	3.001	6.5431	9.3965	7.3708	8.32	10.2907	8.9132	0.5933	1.4151	0.6598	-1.2125	5.0499	1.7798	4.037	4.8618	8.7714	2.2225
0.3646	1.4007	1.8	1.8058	4.3987	6.7081	2.9778	6.5229	9.3907	7.3592	8.3316	10.3081	8.8814	0.5933	1.4267	0.6222	-1.1981	5.0412	1.7826	4.011	4.8791	8.7888	2.1617
0.3241	1.4151	1.7855	1.7624	4.4219	6.7225	2.9576	6.5402	9.3849	7.339	8.3171	10.2965	8.8727	0.5933	1.4383	0.6106	-1.1981	5.047	1.8087	4.0052	4.8676	8.8293	2.1183
0.2981	1.447	1.7421	1.745	4.4393	6.7225	2.9344	6.5402	9.3907	7.2955	8.3229	10.3023	8.8496	0.5933	1.4585	0.573	-1.2039	5.0325	1.829	3.9762	4.882	8.8872	2.0749
0.2576	1.4614	1.7508	1.6785	4.4306	6.7197	2.9084	6.5489	9.3676	7.255	8.3229	10.2792	8.8033	0.599	1.447	0.5643	-1.2212	5.0065	1.8463	3.9473	4.8936	8.9566	2.0431
0.2113	1.4875	1.7074	1.6408	4.445	6.6994	2.8708	6.5344	9.3792	7.2087	8.3229	10.2676	8.7483	0.5933	1.4412	0.4949	-1.2241	4.9631	1.8376	3.956	4.8907	9.029	2.0026
0.1678	1.473	1.6698	1.5714	4.4364	6.7023	2.8245	6.5229	9.3271	7.1566	8.3026	10.2502	8.6991	0.5961	1.4007	0.4804	-1.2241	4.9283	1.8347	3.9386	4.882	9.1245	1.9708
0.0897	1.4643	1.6408	1.5019	4.4421	6.6589	2.7868	6.491	9.3097	7.1045	8.2795	10.2329	8.6701	0.628	1.3949	0.4543	-1.2589	4.9081	1.8318	3.9386	4.8791	9.1997	1.9389
0.0376	1.4585	1.583	1.4556	4.4277	6.6502	2.7232	6.4795	9.2981	7.064	8.2419	10.1952	8.6238	0.6251	1.3457	0.4312	-1.2704	4.8791	1.829	3.9473	4.8676	9.2866	1.9158
-0.0145	1.4701	1.5714	1.4035	4.4277	6.6357	2.6798	6.4881	9.2866	7.038	8.2245	10.1981	8.5689	0.6251	1.3543	0.3994	-1.3023	4.8676	1.8608	3.927	4.8618	9.3531	1.8926
-0.0492	1.4759	1.5482	1.3515	4.4335	6.6415	2.6335	6.4621	9.2721	6.9946	8.2013	10.1663	8.537	0.6453	1.3196	0.3733	-1.3109	4.8676	1.829	3.9126	4.8386	9.4486	1.8695
-0.1013	1.4209	1.5135	1.282	4.4103	6.627	2.5698	6.4216	9.275	6.9425	8.1637	10.1518	8.482	0.6453	1.2733	0.3357	-1.3312	4.8676	1.8058	3.8865	4.7952	9.5354	1.8608
-0.1505	1.4527	1.5251	1.2646	4.4364	6.6502	2.5582	6.4418	9.2808	6.9425	8.1637	10.1779	8.482	0.6685	1.2791	0.3039	-1.363	4.8531	1.7855	3.8518	4.801	9.6251	1.8145
-0.1881	1.4498	1.5338	1.2212	4.4393	6.6676	2.5322	6.3955	9.3039	6.8846	8.1203	10.175	8.4415	0.6859	1.2531	0.2633	-1.3833	4.8155	1.7566	3.8084	4.7749	9.7438	1.7971
-0.2084	1.4383	1.5367	1.2068	4.4364	6.7052	2.5061	6.3782	9.2923	6.8701	8.0856	10.1808	8.4068	0.6974	1.1923	0.1881	-1.4267	4.801	1.6958	3.7418	4.7402	9.8769	1.774
-0.1939	1.4788	1.5859	1.201	4.4711	6.766	2.5177	6.3666	9.33	6.8817	8.0711	10.2126	8.4242	0.7351	1.1662	0.1476	-1.4788	4.7692	1.6553	3.7129	4.7113	10.0042	1.7653
-0.1852	1.5135	1.6437	1.2125	4.5	6.8354	2.5148	6.3782	9.3907	6.8846	8.0537	10.2329	8.43	0.7466	1.1113	0.0781	-1.528	4.7402	1.6235	3.6405	4.6476	10.146	1.7479
-0.1592	1.5309	1.7161	1.227	4.5116	6.8991	2.5409	6.3666	9.4226	6.8788	8.0364	10.256	8.4155	0.7698	1.0852	0.0058	-1.5656	4.691	1.5627	3.5942	4.5782	10.2676	1.7335
-0.1302	1.5743	1.8029	1.308	4.5521	7.0004	2.564	6.384	9.4978	6.9164	8.0161	10.2994	8.4097	0.8045	1.0621	-0.0434	-1.6119	4.6563	1.5106	3.5537	4.5319	10.421	1.7248
-0.0984	1.609	1.8695	1.3341	4.5782	7.0611	2.6045	6.3695	9.5441	6.9338	7.9843	10.3081	8.4068	0.7929	1.0187	-0.1389	-1.6293	4.6042	1.4643	3.4929	4.4682	10.5599	1.7335
-0.055	1.6669	1.9679	1.3862	4.5955	7.1364	2.6364	6.3753	9.5904	6.9483	7.9611	10.3486	8.4271	0.8219	1.0331	-0.1997	-1.6495	4.5666	1.3949	3.464	4.4074	10.6988	1.7335
0.0289	1.7479	2.1154	1.4701	4.6708	7.2579	2.7058	6.4129	9.7033	6.9975	7.9727	10.392	8.4502	0.8219	1.0187	-0.246	-1.664	4.5492	1.363	3.4669	4.3785	10.7798	1.7335
0.1013	1.829	2.2283	1.5685	4.7084	7.3592	2.7839	6.4245	9.7554	7.064	7.9611	10.4181	8.4907	0.8306	1.0418	-0.2894	-1.6756	4.5058	1.337	3.4553	4.3495	10.8898	1.7421
0.1389	1.8868	2.3527	1.6322	4.7576	7.4518	2.8389	6.4505	9.8248	7.1017	7.9525	10.447	8.4994	0.8277	1.036	-0.2981	-1.6669	4.5029	1.3023	3.4409	4.3235	10.9534	1.7508
0.2113	1.936	2.4656	1.7306	4.8126	7.5473	2.9113	6.4563	9.8943	7.1537	7.938	10.4702	8.4965	0.8219	1.0389	-0.3212	-1.6582	4.4798	1.2617	3.4438	4.2772	10.9997	1.7566
0.2923	2.0315	2.6045	1.8058	4.8704	7.6457	2.9836	6.491	9.955	7.2116	7.9322	10.4933	8.5341	0.819	1.0765	-0.2981	-1.6553	4.4971	1.2589	3.4785	4.2656	11.0229	1.7653
0.3965	2.127	2.7376	1.9302	4.9486	7.7499	3.0791	6.5316	10.0274	7.2521	7.9496	10.5251	8.5428	0.819	1.0823	-0.2691	-1.6524	4.5261	1.227	3.4987	4.2425	11.0026	1.7711
0.4688	2.1849	2.8534	2.0228	4.9717	7.7933	3.1515	6.5344	10.0766	7.2753	7.9351	10.5223	8.5573	0.8074	1.1257	-0.2402	-1.6293	4.5116	1.2328	3.5045	4.2048	10.9592	1.7942
0.599	2.2949	3.0155	2.1415	5.0788	7.9293	3.2614	6.5865	10.1663	7.3563	7.9496	10.5599	8.6007	0.8045	1.1315	-0.1534	-1.6351	4.5434	1.2646	3.5277	4.2338	10.9303	1.8145
0.6974	2.4396	3.1833	2.2601	5.1396	8.0132	3.354	6.6213	10.2386	7.4489	7.9698	10.6062	8.6354	0.8016	1.1894	-0.0955	-1.6351	4.5753	1.256	3.574	4.2425	10.8724	1.8232
0.8045	2.5409	3.3222	2.3875	5.238	8.1029	3.4582	6.6647	10.2994	7.5213	7.9669	10.6583	8.6904	0.8045	1.2039	-0.0116	-1.6408	4.61	1.2878	3.5942	4.2656	10.7972	1.8579
0.9289	2.6421	3.4785	2.4888	5.3219	8.1869	3.574	6.711	10.3949	7.611	7.9814	10.7046	8.7454	0.8219	1.227	0.0926	-1.664	4.6418	1.2878	3.6232	4.2975	10.7335	1.8753
1.0331	2.7608	3.6319	2.59	5.3942	8.2968	3.6753	6.7457	10.4846	7.6515	7.9872	10.7335	8.7772	0.8248	1.2531	0.1736	-1.6785	4.6563	1.3052	3.6232	4.3119	10.6988	1.9013
1.1662	2.8737	3.7766	2.6913	5.4608	8.3923	3.7534	6.7717	10.5309	7.7267	7.9727	10.7596	8.8264	0.8363	1.282	0.2576	-1.6958	4.6708	1.2994	3.6492	4.3061	10.6322	1.9216
1.2791	2.9807	3.9415	2.7984	5.536	8.4676	3.8315	6.8036	10.6062	7.8049	7.9727	10.7943	8.8698	0.8421	1.3109	0.3791	-1.7161	4.691	1.3109	3.6492	4.3235	10.5599	1.9505
1.4093	3.0733	4.063	2.8852	5.5997	8.5312	3.9415	6.8296	10.6641	7.8627	7.9698	10.7885	8.8843	0.8595	1.308	0.4688	-1.7392	4.7055	1.3023	3.6782	4.3351	10.5223	1.9968
1.5251	3.1746	4.2106	2.9576	5.6778	8.6181	4.0254	6.873	10.7393	7.9264	7.9727	10.8059	8.9248	0.8913	1.3486	0.5672	-1.7711	4.7142	1.3109	3.6897	4.3524	10.4759	2.0402
1.6524	3.2962	4.3553	3.0762	5.7415	8.7165	4.1007	6.873	10.7711	7.9843	7.9611	10.8001	8.9595	0.8971	1.3862	0.6945	-1.8145	4.7171	1.3196	3.6868	4.3901	10.4094	2.0691
1.8029	3.4119	4.5261	3.1833	5.8225	8.8091	4.1788	6.9164	10.8348	8.0422	7.9727	10.8232	9.0029	0.9174	1.418	0.7756	-1.8492	4.7402	1.3572	3.71	4.419	10.3804	2.1126
1.9621	3.5364	4.7026	3.2904	5.9036	8.9132	4.3235	6.9714	10.91	8.1406	8.0045	10.8579	9.0579	0.9521	1.4296	0.8855	-1.8984	4.7576	1.3746	3.765	4.4653	10.3399	2.1444
2.0807	3.6463	4.8502	3.4119	5.9701	8.9798	4.4074	6.9975	10.9505	8.1984	8.0161	10.8493	9.0782	0.9463	1.4585	0.9521	-1.91	4.7489	1.4035	3.7794	4.4856	10.3081	2.1646
2.2457	3.7852	5.0296	3.5277	6.0541	9.0956	4.5087	7.064	11.02	8.2795	8.0161	10.8869	9.0956	0.9579	1.473	1.0476	-1.9447	4.7547	1.4354	3.7823	4.5145	10.2994	2.1936
2.4425	3.9241	5.2495	3.7302	6.2045	9.22	4.691	7.1508	11.1242	8.3779	8.0856	10.9361	9.1708	0.9926	1.499	1.1199	-1.9852	4.7836	1.4962	3.8344	4.5897	10.2821	2.2167
2.6248	4.0746	5.4405	3.8778	6.3145	9.3647	4.8299	7.2203	11.2168	8.4676	8.1377	10.9766	9.2055	1.0013	1.554	1.2039	-2.0026	4.7923	1.5685	3.8865	4.6505	10.285	2.2196
2.836	4.2569	5.675	4.0688	6.4274	9.521	4.9746	7.31	11.3094	8.5602	8.1869	11.0345	9.2547	1.0129	1.5859	1.2849	-2.0315	4.8184	1.6293	3.9328	4.7113	10.3023	2.2225
3.0704	4.4421	5.9267	4.2801	6.6039	9.7033	5.1772	7.4287	11.4396	8.6991	8.3055	11.1155	9.3444	1.0389	1.6582	1.3862	-2.072	4.8415	1.7248	3.9936	4.8097	10.3284	2.2167
3.2788	4.6187	6.1351	4.4682	6.7341	9.874	5.3335	7.5299	11.5583	8.7946	8.3721	11.1994	9.4226	1.0418	1.6958	1.418	-2.0749	4.856	1.8318	4.0341	4.8589	10.3689	2.2109
3.5219	4.8213	6.4129	4.691	6.902	10.0505	5.5129	7.6718	11.6711	8.9277	8.4676	11.3065	9.4775	1.0389	1.7826	1.5019	-2.0836	4.8589	1.9302	4.0949	4.9428	10.4181	2.1965
3.7563	5.0209	6.6907	4.911	7.0785	10.2473	5.7068	7.8309	11.8361	9.0695	8.5746	11.4165	9.5586	1.0331	1.8695	1.6003	-2.0807	4.8965	2.0634	4.1904	5.0412	10.4731	2.1791
3.9878	5.2495	6.9598	5.128	7.2579	10.4441	5.9036	7.9467	11.9576	9.2113	8.6904	11.5206	9.6425	1.0187	1.9736	1.6814	-2.0489	4.9254	2.1617	4.2193	5.1598	10.528	2.1646
4.2251	5.4463	7.229	5.3393	7.4373	10.6554	6.1061	8.1174	12.1371	9.3386	8.8351	11.6335	9.7496	1.0071	2.0547	1.7306	-2.0142	4.9486	2.2833	4.3061	5.2524	10.6235	2.1328
4.4769	5.6171	7.4981	5.5042	7.5936	10.8464	6.2653	8.2476	12.2557	9.4775	8.9422	11.7695	9.8306	0.9781	2.1328	1.7855	-1.9621	4.9833	2.4048	4.3756	5.3364	10.7393	2.1097
4.6679	5.7965	7.7325	5.6836	7.7615	11.0345	6.4187	8.4039	12.4293	9.602	9.055	11.8737	9.903	0.9405	2.2196	1.8232	-1.8926	4.9978	2.4801	4.4335	5.4319	10.8637	2.0981
4.8704	5.9991	8.0017	5.8775	7.9698	11.2544	6.5894	8.5746	12.5856	9.7409	9.2142	12.0097	10.0042	0.9203	2.318	1.8666	-1.829	5.0499	2.5872	4.5203	5.5274	10.9911	2.0865
5.0267	6.1669	8.2274	6.0164	8.1058	11.4194	6.7023	8.7222	12.7332	9.8595	9.3473	12.1168	10.0882	0.8797	2.3527	1.881	-1.7566	5.0759	2.6769	4.5637	5.6489	11.1473	2.0605
5.209	6.3145	8.4213	6.1351	8.2766	11.619	6.8383	8.864	12.8663	9.9782	9.4833	12.247	10.1837	0.8363	2.373	1.8781	-1.6785	5.128	2.7839	4.6505	5.7328	11.3354	2.0518
5.3393	6.4824	8.6123	6.2711	8.4213	11.7608	6.9685	8.9972	13.0023	10.0824	9.6107	12.3801	10.2676	0.7871	2.3817	1.8261	-1.5945	5.1801	2.8679	4.6997	5.8428	11.5206	2.0605
5.4666	6.5952	8.7859	6.3753	8.5457	11.9084	7.0843	9.1042	13.1239	10.1981	9.7467	12.5075	10.3486	0.7553	2.3904	1.8087	-1.5077	5.2438	2.9373	4.7634	5.9238	11.703	2.0489
5.5621	6.6849	8.9161	6.4505	8.6615	12.03	7.1711	9.22	13.257	10.3052	9.8682	12.6232	10.4296	0.7148	2.3499	1.745	-1.4325	5.3132	3.0155	4.8299	5.9875	11.8708	2.0749
5.6344	6.7254	9.0116	6.5084	8.7367	12.1226	7.229	9.2952	13.3351	10.3949	9.9753	12.7187	10.5078	0.6714	2.263	1.664	-1.3543	5.3856	3.0618	4.8936	6.0685	12.03	2.0836
5.6923	6.8094	9.1361	6.5692	8.8351	12.2297	7.3071	9.3734	13.4306	10.4731	10.0708	12.8055	10.6091	0.6511	2.2225	1.6177	-1.3023	5.4984	3.0965	4.9949	6.1322	12.1718	2.1183
5.7184	6.8441	9.1997	6.6386	8.864	12.3078	7.3881	9.4312	13.4856	10.5657	10.1374	12.875	10.6872	0.6251	2.1126	1.5077	-1.2502	5.5737	3.1196	5.0412	6.1988	12.3165	2.1415
5.7502	6.8759	9.301	6.7081	8.919	12.3801	7.446	9.4862	13.558	10.6669	10.2155	12.9589	10.8087	0.6019	2.0142	1.4238	-1.2068	5.6952	3.163	5.1367	6.2711	12.4467	2.1675
5.7936	6.8817	9.33	6.7399	8.9306	12.438	7.4981	9.5325	13.5985	10.7277	10.2792	13.0197	10.8724	0.5933	1.9071	1.3399	-1.1865	5.8225	3.1862	5.2177	6.3116	12.5567	2.2023
5.7907	6.9222	9.4197	6.8036	8.9538	12.4872	7.5676	9.547	13.6477	10.8087	10.3313	13.0834	10.9621	0.5672	1.8232	1.2646	-1.1402	5.9007	3.1804	5.264	6.3348	12.6637	2.2167
5.8428	6.9222	9.4631	6.8615	8.9827	12.5364	7.6341	9.5702	13.6882	10.8927	10.392	13.147	11.0518	0.5701	1.7248	1.172	-1.1315	6.0222	3.2267	5.345	6.3811	12.7506	2.2225
5.8312	6.9396	9.492	6.9425	8.9856	12.5682	7.6862	9.5904	13.7345	10.9534	10.4296	13.1846	11.1329	0.5527	1.6408	1.1257	-1.1257	6.1322	3.2528	5.4319	6.4361	12.8461	2.2457
5.8602	6.9338	9.5325	6.9888	8.9769	12.5885	7.7267	9.5933	13.7721	10.9997	10.4528	13.1933	11.1907	0.5585	1.5569	1.0736	-1.1199	6.2624	3.2672	5.5129	6.4563	12.9416	2.2399
5.8457	6.9309	9.5875	7.0322	8.974	12.6145	7.773	9.5875	13.7837	11.0316	10.4731	13.1904	11.2197	0.5498	1.5077	0.9926	-1.1228	6.3203	3.2817	5.5216	6.4852	13.0255	2.2515
5.8631	6.9396	9.6136	7.0756	8.9856	12.6203	7.8136	9.6165	13.8213	11.0924	10.4991	13.2078	11.2631	0.5672	1.4441	0.9289	-1.1286	6.4129	3.2672	5.6084	6.5229	13.1065	2.263
5.866	6.9483	9.628	7.0901	8.9798	12.6406	7.8599	9.5875	13.7895	11.1126	10.4962	13.176	11.2573	0.5759	1.392	0.8769	-1.1518	6.4737	3.2846	5.62	6.5605	13.1904	2.2544
5.8254	6.9454	9.6512	7.1335	8.9885	12.6464	7.8685	9.5817	13.7605	11.1329	10.4673	13.121	11.2573	0.5875	1.3399	0.8363	-1.1807	6.5026	3.2904	5.6287	6.5576	13.2281	2.2399
5.8283	6.9164	9.6367	7.1161	8.9595	12.5856	7.8685	9.573	13.7229	11.0808	10.4557	13.0457	11.211	0.599	1.2675	0.7524	-1.1952	6.5431	3.2672	5.6344	6.5894	13.2773	2.237
5.7936	6.928	9.6454	7.148	8.9711	12.5914	7.8743	9.573	13.6911	11.0721	10.4586	12.9734	11.1734	0.6222	1.2097	0.709	-1.2415	6.5605	3.2614	5.6287	6.6126	13.3322	2.2138
5.7907	6.9107	9.6628	7.1566	8.948	12.5509	7.8772	9.5441	13.6419	11.0374	10.4325	12.8981	11.1126	0.6251	1.1576	0.6424	-1.2646	6.5316	3.2788	5.5997	6.6155	13.3583	2.2138
5.7733	6.9309	9.6541	7.1508	8.9566	12.5509	7.8946	9.573	13.6072	11.0084	10.4412	12.8229	11.0547	0.6482	1.0794	0.5875	-1.3052	6.5605	3.2933	5.5621	6.6676	13.3959	2.1791
5.7444	6.9367	9.6454	7.1595	8.9827	12.5277	7.8599	9.5904	13.558	10.9997	10.4441	12.7535	10.9679	0.6511	1.036	0.5238	-1.3167	6.5547	3.3106	5.5274	6.7023	13.4162	2.1704
5.7444	6.9627	9.6714	7.1508	9.0116	12.5162	7.8801	9.6251	13.5146	10.9477	10.4904	12.684	10.884	0.6511	0.9579	0.4543	-1.3138	6.5344	3.3569	5.4984	6.7602	13.4306	2.1299
5.7589	7.0004	9.6975	7.1711	9.0753	12.5104	7.8714	9.6946	13.503	10.9332	10.5772	12.6464	10.8319	0.6453	0.9116	0.3791	-1.3052	6.52	3.4206	5.455	6.8267	13.4538	2.0836
5.7791	7.038	9.7467	7.2029	9.139	12.5306	7.9091	9.7785	13.5174	10.9332	10.6496	12.6406	10.7914	0.6453	0.8653	0.3154	-1.3225	6.5489	3.5219	5.4377	6.9367	13.4682	2.0402
5.7791	7.0901	9.7843	7.2261	9.2113	12.5625	7.9438	9.8972	13.5522	10.9332	10.7682	12.6608	10.7769	0.6453	0.8248	0.2286	-1.3052	6.5489	3.6145	5.4492	7.0553	13.4914	2.0113
5.8283	7.1422	9.8422	7.2406	9.3213	12.629	7.964	10.0129	13.584	10.9448	10.9216	12.6811	10.7624	0.6367	0.79	0.1476	-1.2907	6.5547	3.7274	5.429	7.1943	13.5059	1.9534
5.8746	7.229	9.8914	7.2869	9.4428	12.684	8.0045	10.1605	13.6419	10.9708	11.0981	12.7419	10.7538	0.6251	0.8074	0.0955	-1.2791	6.5402	3.8663	5.4261	7.3505	13.5117	1.8897
5.8862	7.3013	9.9435	7.3245	9.5383	12.7621	8.0335	10.3139	13.7027	10.9997	11.2718	12.8287	10.7769	0.6135	0.7929	0.0116	-1.2444	6.5402	3.9936	5.429	7.5039	13.5435	1.8029
5.9354	7.3795	9.9985	7.3361	9.7004	12.8461	8.0798	10.4875	13.8068	11.0345	11.4888	12.9271	10.7943	0.5933	0.7785	-0.0695	-1.1981	6.52	4.1528	5.4405	7.6862	13.5666	1.7277
5.947	7.4576	10.0679	7.3592	9.8335	12.9242	8.0972	10.6814	13.9081	11.0721	11.7232	13.04	10.8319	0.5556	0.7582	-0.1939	-1.1286	6.5171	4.2946	5.4145	7.8714	13.5985	1.6293
5.9557	7.556	10.1026	7.3824	9.9782	12.9908	8.1087	10.8869	14.0181	11.1068	11.9518	13.1702	10.8406	0.5093	0.7611	-0.2981	-1.0331	6.4737	4.4566	5.4029	8.0624	13.6303	1.5338
5.9759	7.6486	10.1518	7.3939	10.1489	13.092	8.1435	11.0866	14.1338	11.1329	12.221	13.3409	10.8898	0.4688	0.7379	-0.4023	-0.9637	6.4592	4.6013	5.3856	8.2795	13.6621	1.4238
5.9499	7.7094	10.1547	7.3766	10.2763	13.1326	8.1348	11.2515	14.2265	11.1531	12.4583	13.4682	10.9129	0.4312	0.7119	-0.5354	-0.8653	6.41	4.7373	5.345	8.4589	13.6506	1.3167
5.9238	7.7904	10.1663	7.3621	10.4094	13.1991	8.1174	11.428	14.3277	11.156	12.684	13.6187	10.9361	0.3733	0.6569	-0.6743	-0.7524	6.3608	4.856	5.3074	8.6499	13.6477	1.2125
5.9007	7.8309	10.1345	7.3187	10.5107	13.2252	8.0943	11.5756	14.4117	11.1415	12.901	13.7663	10.9563	0.3154	0.6135	-0.8045	-0.6424	6.3087	4.9949	5.2351	8.8004	13.5782	1.1084
5.8515	7.8714	10.1171	7.2695	10.6496	13.283	8.0798	11.7319	14.484	11.1444	13.1326	13.8879	10.994	0.2605	0.5672	-0.9058	-0.5325	6.2827	5.1193	5.1946	9.0029	13.5117	1.0187
5.7762	7.9235	10.1026	7.2319	10.7711	13.3091	8.0798	11.9113	14.5911	11.1415	13.3612	14.047	11.0316	0.2055	0.4978	-0.9955	-0.4196	6.2306	5.2467	5.1598	9.1766	13.4104	0.9579
5.6981	7.9322	10.0563	7.174	10.8377	13.338	8.0364	12.0242	14.6692	11.13	13.5753	14.1773	11.0547	0.1418	0.4486	-1.0968	-0.3096	6.1698	5.3537	5.1454	9.33	13.3033	0.8942
5.6605	7.9727	10.0071	7.1248	10.9477	13.3901	8.0277	12.192	14.7618	11.1502	13.7953	14.3422	11.0981	0.0955	0.3849	-1.1981	-0.1997	6.1496	5.4782	5.1454	9.492	13.1962	0.8132
5.5823	7.9988	9.9869	7.0872	11.0258	13.4075	8.0017	12.3136	14.8573	11.1444	14.0036	14.4811	11.1358	0.0434	0.2923	-1.2936	-0.0926	6.109	5.5737	5.1656	9.6367	13.1036	0.7756
5.5245	8.0335	9.9608	7.0525	11.1097	13.4451	7.9959	12.4699	14.9731	11.1502	14.2149	14.6258	11.1936	-0.0116	0.2257	-1.3746	0.0203	6.1148	5.6663	5.2061	9.7901	13.0197	0.7495
5.5042	8.0856	9.9666	7.0467	11.1965	13.5088	7.9988	12.5856	15.0657	11.2052	14.4059	14.8052	11.2515	-0.0608	0.1968	-1.4441	0.1071	6.1206	5.7705	5.2351	9.929	12.9387	0.7177
5.4521	8.1232	9.9406	7.0264	11.2833	13.5609	8.0364	12.7129	15.1814	11.2486	14.5708	14.9499	11.3325	-0.1071	0.1158	-1.528	0.2026	6.1351	5.8544	5.2987	10.0563	12.8895	0.7177
5.4116	8.1637	9.9406	7.0293	11.3615	13.6245	8.0248	12.8316	15.2712	11.2862	14.7271	15.0773	11.4049	-0.1563	0.0608	-1.5511	0.2749	6.164	5.9267	5.3595	10.1808	12.8345	0.7322
5.3769	8.1984	9.9319	7.0264	11.4541	13.6911	8.0827	12.9445	15.3898	11.3325	14.8863	15.222	11.4686	-0.165	0.0289	-1.5859	0.3241	6.219	6.0135	5.4434	10.2878	12.7969	0.7322
5.3653	8.2592	9.9637	7.0496	11.5322	13.7519	8.1058	13.0631	15.4737	11.3846	15.0194	15.3551	11.538	-0.1852	-0.0174	-1.6322	0.3473	6.2508	6.0743	5.51	10.3891	12.7708	0.7698
5.3508	8.291	9.9695	7.0525	11.5901	13.8184	8.1521	13.121	15.5605	11.4338	15.1033	15.4622	11.5409	-0.191	-0.0666	-1.6351	0.3531	6.2856	6.138	5.5621	10.4731	12.7303	0.8074
5.345	8.3113	9.9782	7.0756	11.6538	13.8705	8.1753	13.1962	15.6531	11.4541	15.1959	15.5287	11.5756	-0.1765	-0.1187	-1.6408	0.3299	6.3145	6.1872	5.6287	10.5309	12.7303	0.8624
5.3306	8.3576	10.0013	7.0698	11.7088	13.9457	8.1753	13.2425	15.7168	11.4599	15.2306	15.5721	11.5525	-0.1476	-0.1273	-1.6148	0.2836	6.3319	6.2306	5.675	10.5946	12.7043	0.9029
5.2611	8.3808	9.9927	7.0496	11.7348	13.9573	8.1724	13.2599	15.7313	11.4367	15.2364	15.5982	11.5235	-0.136	-0.1939	-1.6235	0.2373	6.3261	6.2595	5.675	10.5975	12.7129	0.9608
5.238	8.4271	9.9898	7.038	11.7666	14.0123	8.155	13.2715	15.7371	11.4309	15.2364	15.5779	11.4686	-0.0984	-0.1881	-1.6148	0.165	6.2943	6.2682	5.6807	10.6004	12.7535	1.0418
5.1917	8.4155	9.9869	7.0235	11.7695	14.0181	8.1319	13.2801	15.74	11.3731	15.1814	15.5316	11.3962	-0.0608	-0.2402	-1.6264	0.0868	6.2798	6.2769	5.6778	10.5599	12.7911	1.1142
5.1106	8.4126	9.9406	6.9656	11.7608	14.021	8.0856	13.2338	15.7197	11.3268	15.112	15.4737	11.3036	-0.0029	-0.2605	-1.6322	-0.0087	6.2422	6.2393	5.6605	10.528	12.8518	1.1691
5.0557	8.4184	9.9174	6.9483	11.7898	14.0441	8.074	13.2049	15.6995	11.3123	15.0425	15.4101	11.2168	0.0492	-0.2952	-1.6611	-0.1187	6.193	6.2132	5.6489	10.4817	12.9155	1.2444
4.9746	8.3981	9.9001	6.8846	11.7811	14.0268	8.0306	13.1615	15.656	11.2284	14.9499	15.3146	11.1097	0.1071	-0.3328	-1.7363	-0.2257	6.138	6.1785	5.6373	10.421	13.0168	1.3109
4.9167	8.4155	9.8509	6.8615	11.7695	14.0239	8.0161	13.1094	15.6242	11.1647	14.8342	15.2393	10.9997	0.1592	-0.3791	-1.8174	-0.3357	6.0627	6.138	5.6084	10.3313	13.1152	1.3775
4.8126	8.375	9.8364	6.792	11.7406	14.0152	7.9698	13.0631	15.5634	11.0895	14.73	15.1467	10.8869	0.2084	-0.4312	-1.936	-0.4428	5.9672	6.0859	5.5679	10.2213	13.2252	1.4296
4.7489	8.3663	9.7988	6.7717	11.7001	13.9863	7.938	12.985	15.5229	11.02	14.5911	15.057	10.7769	0.272	-0.4717	-2.0257	-0.5701	5.8775	6.028	5.5042	10.1287	13.3236	1.4933
4.6968	8.3518	9.7727	6.7225	11.674	13.9805	7.9091	12.9068	15.4795	10.9679	14.4782	14.9673	10.6756	0.327	-0.5238	-2.1328	-0.6656	5.7676	5.9557	5.4753	10.0187	13.4306	1.5511
4.636	8.32	9.7264	6.6849	11.6364	13.9776	7.8599	12.82	15.4187	10.8927	14.3248	14.84	10.5454	0.382	-0.5498	-2.2659	-0.7727	5.646	5.8717	5.4116	9.8769	13.5232	1.5801
4.555	8.2679	9.6859	6.6473	11.6248	13.9486	7.8309	12.7187	15.3551	10.7914	14.1686	14.7155	10.421	0.4138	-0.5614	-2.3643	-0.8566	5.5216	5.8052	5.345	9.7525	13.5956	1.6293
4.5058	8.2129	9.6512	6.6155	11.567	13.9255	7.802	12.6117	15.2712	10.7161	14.0065	14.5969	10.311	0.4543	-0.5875	-2.4772	-0.9347	5.3769	5.7242	5.2756	9.602	13.6592	1.6727
4.4682	8.1955	9.6136	6.6068	11.512	13.8965	7.7788	12.5248	15.2104	10.6554	13.8589	14.4753	10.2039	0.492	-0.599	-2.5698	-1.01	5.2756	5.646	5.1917	9.4718	13.7055	1.7016
4.3987	8.1377	9.5499	6.575	11.4396	13.8416	7.7412	12.3744	15.0946	10.557	13.6564	14.3191	10.0679	0.5209	-0.6222	-2.6479	-1.0534	5.1222	5.5679	5.1251	9.3068	13.7432	1.7479
4.3264	8.0711	9.5181	6.5402	11.3412	13.7895	7.7036	12.2383	14.9876	10.4644	13.4393	14.1483	9.9203	0.5238	-0.6424	-2.7318	-1.0823	4.9804	5.4579	5.0267	9.1361	13.7663	1.7682
4.2656	8.0132	9.4689	6.5229	11.2602	13.7171	7.6573	12.1139	14.8949	10.3631	13.2454	13.9949	9.7872	0.5354	-0.7003	-2.7955	-1.1026	4.8444	5.3537	4.9457	8.974	13.7721	1.7942
4.2309	7.9206	9.4139	6.4766	11.1589	13.6419	7.6312	11.9461	14.7705	10.2792	13.0428	13.8358	9.6657	0.5469	-0.7177	-2.81	-1.1084	4.7229	5.2409	4.8791	8.8264	13.7432	1.8174
4.1585	7.8367	9.3415	6.4476	11.0374	13.5406	7.5705	11.7666	14.5882	10.1518	12.8229	13.6303	9.5325	0.5354	-0.7929	-2.8389	-1.091	4.5868	5.1309	4.8184	8.6528	13.6911	1.829
4.0978	7.7701	9.3039	6.4476	10.9187	13.4596	7.556	11.6161	14.4638	10.0592	12.6203	13.4625	9.3907	0.5296	-0.8074	-2.8331	-1.0707	4.4769	5.047	4.746	8.5052	13.6274	1.855
4.0457	7.6891	9.2229	6.4129	10.7972	13.3438	7.4952	11.4396	14.3075	9.9464	12.3859	13.2686	9.2605	0.5035	-0.8277	-2.8158	-1.0158	4.3698	4.9399	4.6766	8.3373	13.5088	1.8521
3.9791	7.5878	9.1621	6.3463	10.6698	13.2367	7.4576	11.2776	14.1744	9.8682	12.1689	13.092	9.1621	0.4688	-0.8855	-2.8013	-0.9463	4.2946	4.8647	4.6447	8.1955	13.3814	1.855
3.9212	7.5357	9.0811	6.3463	10.5338	13.1326	7.4229	11.0866	14.0326	9.8103	11.9663	12.9502	9.0898	0.4196	-0.8826	-2.7116	-0.874	4.2048	4.7749	4.6013	8.0682	13.2454	1.8608
3.8634	7.446	9.0058	6.3261	10.4123	13.0139	7.3824	10.9129	13.8965	9.7467	11.7666	12.8142	9.0116	0.3994	-0.8971	-2.6537	-0.7842	4.1528	4.7084	4.5463	7.9467	13.1065	1.8434
3.8113	7.365	8.9364	6.3058	10.2965	12.9271	7.3708	10.7393	13.7663	9.7091	11.5698	12.7014	8.9566	0.327	-0.8769	-2.5929	-0.6801	4.0891	4.6158	4.5232	7.8107	12.9531	1.8029
3.7852	7.2984	8.8756	6.2914	10.2184	12.8576	7.3679	10.6091	13.6708	9.6888	11.3788	12.6059	8.919	0.2981	-0.8624	-2.5032	-0.6048	4.0399	4.5579	4.4971	7.7065	12.8229	1.7942
3.7302	7.2348	8.812	6.2827	10.0911	12.7535	7.3476	10.4644	13.5724	9.6657	11.1936	12.5133	8.9248	0.2373	-0.8363	-2.4569	-0.4978	3.9965	4.5145	4.419	7.6081	12.7158	1.7566
3.6811	7.1393	8.7454	6.2537	9.9724	12.6869	7.3332	10.2994	13.4769	9.6454	11.0171	12.438	8.9046	0.1852	-0.7785	-2.3904	-0.4023	3.9589	4.4624	4.3785	7.4865	12.6117	1.7421
3.6087	7.0611	8.6933	6.2393	9.8538	12.603	7.339	10.1403	13.3756	9.6165	10.829	12.3512	8.8988	0.1418	-0.7408	-2.3354	-0.2836	3.9299	4.3901	4.3119	7.3766	12.548	1.7161
3.5971	6.9946	8.647	6.2537	9.7235	12.5248	7.3187	9.9985	13.2975	9.6165	10.6612	12.2933	8.9017	0.1013	-0.6656	-2.2544	-0.2257	3.8836	4.3438	4.2454	7.2811	12.5133	1.6814
3.5277	6.9193	8.592	6.2219	9.6454	12.4727	7.3158	9.8567	13.1933	9.602	10.4673	12.2152	8.8988	0.0752	-0.5672	-2.2109	-0.1592	3.8547	4.2801	4.1788	7.1595	12.5133	1.6698
3.4785	6.8007	8.5283	6.1872	9.4949	12.3859	7.2811	9.683	13.1123	9.5933	10.2878	12.1139	8.8843	0.0376	-0.5064	-2.1762	-0.0868	3.7939	4.2164	4.1209	7.0235	12.5509	1.6408
3.4264	6.711	8.4763	6.1959	9.3849	12.3078	7.31	9.5267	12.9965	9.5702	10.1055	12.0358	8.8756	0.0116	-0.4457	-2.156	-0.0434	3.7331	4.147	4.0283	6.8875	12.6232	1.6235
3.3801	6.6126	8.4068	6.1698	9.2634	12.2152	7.2869	9.3502	12.901	9.5267	9.9116	11.9113	8.8525	-0.0058	-0.3444	-2.1068	-0.0145	3.6811	4.1036	3.982	6.7746	12.7216	1.6119
3.3483	6.491	8.3518	6.1293	9.1332	12.1428	7.2666	9.1795	12.7592	9.4804	9.6888	11.7927	8.7859	-0.0289	-0.2807	-2.0663	0.0289	3.5884	3.9965	3.9068	6.6386	12.8113	1.5888
3.2875	6.3869	8.3113	6.109	8.9827	12.0416	7.2348	8.9972	12.6174	9.4312	9.4862	11.6538	8.7165	-0.0463	-0.2141	-2.0431	0.0637	3.4872	3.9241	3.82	6.5402	12.9358	1.5772
3.2325	6.3116	8.2534	6.0656	8.8727	11.9461	7.2174	8.8206	12.4988	9.3763	9.2721	11.5062	8.6499	-0.0608	-0.1447	-2.0402	0.0868	3.4061	3.8431	3.765	6.3869	13.0631	1.5974
3.2036	6.2364	8.2187	6.0685	8.7628	11.8853	7.1914	8.6673	12.3772	9.3184	9.0782	11.3586	8.5891	-0.0608	-0.0521	-2.0257	0.1013	3.3135	3.7968	3.71	6.274	13.2078	1.6206
3.1949	6.1351	8.1753	6.0309	8.6441	11.7956	7.1943	8.4965	12.2326	9.2287	8.8872	11.2023	8.482	-0.0695	0.0145	-2.0171	0.1158	3.218	3.7158	3.6376	6.164	13.3438	1.6322
3.1515	6.0801	8.1521	6.0367	8.537	11.7174	7.1971	8.3605	12.0994	9.1476	8.6933	11.0634	8.401	-0.0608	0.0521	-1.9823	0.0984	3.1399	3.6434	3.5769	6.057	13.4769	1.6466
3.1862	6.0367	8.1695	6.0685	8.4618	11.6798	7.2145	8.2129	11.9895	9.1303	8.5312	10.9505	8.32	-0.055	0.1273	-1.9852	0.081	3.0704	3.5798	3.5277	5.9528	13.6129	1.6843
3.2065	6.057	8.1811	6.109	8.3837	11.6451	7.2377	8.0972	11.9026	9.0956	8.3721	10.8377	8.2737	-0.0318	0.1939	-1.9563	0.055	2.9778	3.5364	3.4698	5.8573	13.7432	1.7132
3.2701	6.0772	8.2245	6.1467	8.3518	11.6219	7.2811	7.993	11.8216	9.0637	8.2303	10.7219	8.2042	-0.0232	0.2373	-1.9679	0.0289	2.9055	3.4727	3.4524	5.7676	13.8763	1.7624
3.3483	6.083	8.2997	6.2161	8.3142	11.6306	7.3332	7.9177	11.7579	9.029	8.1145	10.6322	8.1521	0.0058	0.3039	-1.9042	-0.0289	2.8331	3.4438	3.3888	5.6778	13.9978	1.7798
3.4148	6.1496	8.3721	6.3116	8.3026	11.6538	7.42	7.857	11.7174	9.0608	7.9959	10.5888	8.1435	0.0203	0.3704	-1.8955	-0.0666	2.7637	3.3859	3.3743	5.5852	14.1136	1.8405
3.5566	6.2045	8.4734	6.4274	8.2939	11.6914	7.5039	7.7933	11.6856	9.0637	7.8946	10.5136	8.1319	0.0492	0.4486	-1.8839	-0.11	2.7174	3.328	3.3946	5.4926	14.2149	1.8868
3.6897	6.2856	8.5862	6.5431	8.3113	11.7579	7.6139	7.7615	11.6769	9.0869	7.8078	10.4933	8.1087	0.0521	0.518	-1.8463	-0.1418	2.6537	3.2991	3.4003	5.3942	14.2756	1.9273
3.8229	6.3695	8.6991	6.6936	8.3316	11.8332	7.7441	7.7267	11.6914	9.1274	7.7123	10.4557	8.1319	0.0723	0.6135	-1.8116	-0.1794	2.6248	3.247	3.4235	5.2959	14.3248	1.9823
3.9531	6.491	8.8467	6.8615	8.3837	11.9026	7.8541	7.7065	11.6943	9.1853	7.6457	10.4268	8.1492	0.0984	0.683	-1.7595	-0.217	2.5958	3.1978	3.464	5.2293	14.3683	2.0402
4.1383	6.6328	9.0145	7.0351	8.4386	12.0126	8.019	7.7267	11.7261	9.2634	7.6023	10.4152	8.1666	0.1129	0.764	-1.7219	-0.246	2.5582	3.1833	3.5161	5.1743	14.3885	2.0836
4.2772	6.7225	9.1505	7.1769	8.4849	12.0965	8.1492	7.7296	11.7406	9.3213	7.5271	10.3804	8.1955	0.1071	0.8855	-1.6351	-0.2518	2.5293	3.1081	3.5653	5.0817	14.3711	2.1357
4.4393	6.8759	9.3126	7.3881	8.5689	12.1891	8.32	7.7296	11.7869	9.3763	7.4865	10.3718	8.2245	0.1244	1.0013	-1.5453	-0.272	2.5466	3.0849	3.6376	5.0325	14.3509	2.1733
4.5897	6.9801	9.437	7.5357	8.6181	12.2557	8.4444	7.7267	11.7927	9.4081	7.4373	10.3341	8.2274	0.136	1.1315	-1.4209	-0.2605	2.5235	3.0212	3.7013	4.9688	14.3017	2.2254
4.7084	7.093	9.5759	7.6891	8.6759	12.3454	8.5718	7.747	11.7898	9.4747	7.4142	10.3052	8.2274	0.1158	1.2125	-1.2994	-0.2373	2.5003	2.9952	3.7939	4.8965	14.2785	2.2399
4.8733	7.2029	9.6975	7.8483	8.7107	12.4091	8.6933	7.7586	11.8014	9.5065	7.3824	10.2792	8.2129	0.1013	1.3283	-1.1749	-0.2141	2.4859	2.9981	3.8576	4.8531	14.2265	2.2717
4.992	7.31	9.8364	7.9814	8.7599	12.4901	8.7946	7.7557	11.81	9.5383	7.339	10.2415	8.2187	0.0781	1.4064	-1.0794	-0.165	2.4627	2.9691	3.9184	4.8068	14.2033	2.2891
5.1425	7.4113	9.9464	8.1174	8.8235	12.5422	8.9132	7.7615	11.7927	9.5759	7.3303	10.2068	8.21	0.0492	1.5193	-0.9463	-0.1215	2.4454	2.9605	3.9618	4.7634	14.2004	2.3151
5.2611	7.501	10.0824	8.2592	8.8698	12.5856	9.029	7.7846	11.7782	9.6251	7.3274	10.175	8.2187	0.0347	1.6293	-0.79	-0.0897	2.4338	2.9634	4.0023	4.7634	14.1975	2.318
5.3653	7.5705	10.1923	8.3837	8.919	12.6377	9.1332	7.8107	11.7782	9.6541	7.3303	10.1258	8.2071	0	1.6929	-0.7119	-0.0405	2.4511	2.9663	4.0659	4.7373	14.2525	2.3209
5.4926	7.6631	10.2936	8.5197	8.9827	12.6753	9.2287	7.828	11.7869	9.683	7.3476	10.0853	8.2158	-0.0058	1.7682	-0.5961	-0.0116	2.4627	2.9981	4.1267	4.7286	14.2988	2.3296
5.591	7.7528	10.421	8.6615	9.0174	12.7361	9.3589	7.8512	11.7898	9.7525	7.3476	10.0737	8.2419	-0.0145	1.8781	-0.492	0.0376	2.4917	3.0068	4.1701	4.7518	14.3856	2.3383
5.7097	7.8251	10.5251	8.8148	9.0898	12.7766	9.4747	7.8801	11.784	9.8046	7.3621	10.0563	8.2795	-0.0463	1.9476	-0.4023	0.0666	2.5466	3.056	4.2396	4.7692	14.5043	2.3267
5.7965	7.9148	10.6293	8.9306	9.1419	12.8142	9.5962	7.9062	11.784	9.8682	7.3679	10.0158	8.3113	-0.0637	2.0315	-0.3241	0.1302	2.5814	3.0733	4.2975	4.7923	14.6345	2.3383
5.9209	8.0161	10.7538	9.0579	9.2026	12.8866	9.7091	7.9322	11.8014	9.9637	7.4084	9.9985	8.3547	-0.0926	2.1328	-0.2373	0.1592	2.6653	3.1167	4.3611	4.8213	14.756	2.3296
5.9904	8.0624	10.8406	9.1795	9.2142	12.9213	9.8277	7.9727	11.8014	10.0332	7.4026	9.984	8.4155	-0.1071	2.1936	-0.1418	0.2026	2.7347	3.1717	4.4219	4.8531	14.9094	2.3296
6.0743	8.1348	10.9245	9.2866	9.2605	12.9473	9.9435	8.0219	11.8014	10.0824	7.4576	9.9637	8.4734	-0.1215	2.2949	-0.0347	0.2315	2.8245	3.2151	4.5058	4.9225	15.0425	2.318
6.1351	8.1984	11.0026	9.4023	9.2808	12.956	10.0419	8.0364	11.81	10.1634	7.4865	9.9261	8.5544	-0.1447	2.3499	0.055	0.2894	2.9026	3.2788	4.5782	4.9862	15.1728	2.3064
6.2103	8.2361	11.0663	9.4949	9.3039	12.9589	10.1403	8.0306	11.7811	10.2242	7.5242	9.8885	8.6036	-0.1736	2.4251	0.1794	0.3386	2.9894	3.3367	4.6071	5.0528	15.2798	2.3122
6.2798	8.2968	11.1271	9.5788	9.3415	12.9763	10.201	8.0769	11.7522	10.2734	7.5328	9.8393	8.6557	-0.1968	2.509	0.3068	0.3907	3.082	3.3946	4.6679	5.128	15.3435	2.3267
6.2856	8.3345	11.156	9.6425	9.3647	12.9416	10.2415	8.0798	11.7174	10.3139	7.556	9.764	8.6904	-0.2199	2.5958	0.4312	0.4312	3.1659	3.4727	4.7055	5.1888	15.4158	2.3325
6.3174	8.3518	11.1878	9.7033	9.3618	12.9039	10.2936	8.0972	11.6596	10.3776	7.5936	9.7062	8.7367	-0.2489	2.645	0.5209	0.4804	3.218	3.5277	4.7431	5.2727	15.4708	2.3527
6.3029	8.3663	11.1734	9.7091	9.3271	12.8345	10.3168	8.0827	11.5872	10.3949	7.6052	9.6136	8.7454	-0.272	2.6769	0.6511	0.5296	3.2904	3.5942	4.7692	5.3508	15.4795	2.3875
6.329	8.346	11.1647	9.7351	9.3386	12.7882	10.3428	8.0653	11.5149	10.4123	7.6197	9.5354	8.7801	-0.2865	2.7347	0.7495	0.5498	3.3656	3.6608	4.7807	5.4405	15.465	2.4396
6.3145	8.3605	11.1444	9.7351	9.3068	12.6927	10.3399	8.0422	11.4194	10.4181	7.6399	9.4515	8.7743	-0.3068	2.7232	0.8132	0.5817	3.4235	3.7274	4.7749	5.5158	15.4506	2.4598
6.2914	8.3316	11.1126	9.7554	9.2866	12.6203	10.3573	8.0537	11.3412	10.4383	7.6515	9.3821	8.8091	-0.301	2.7839	0.8942	0.5846	3.4843	3.791	4.801	5.5939	15.413	2.5061
6.3116	8.3229	11.0866	9.7554	9.2576	12.5567	10.3515	8.0132	11.2631	10.4383	7.6718	9.301	8.8206	-0.2981	2.8042	0.955	0.5846	3.5074	3.8142	4.8213	5.6605	15.3435	2.5611
6.2711	8.291	11.0432	9.7583	9.2113	12.4843	10.3341	7.9901	11.1994	10.4296	7.6833	9.2316	8.8062	-0.2836	2.8418	1.0215	0.5701	3.5682	3.8576	4.8386	5.7444	15.2856	2.6248
6.2885	8.2505	11.0229	9.7756	9.2142	12.4062	10.3313	7.9814	11.1184	10.4499	7.7065	9.1824	8.8322	-0.2778	2.8765	1.0621	0.5441	3.6	3.901	4.856	5.8225	15.2104	2.6537
6.3029	8.2447	11.0142	9.7959	9.1968	12.3628	10.3573	8.0132	11.0866	10.4817	7.747	9.1274	8.864	-0.2547	2.8997	1.1084	0.4862	3.6637	3.9415	4.8907	5.9036	15.138	2.7087
6.3145	8.2129	10.9621	9.8017	9.1853	12.2991	10.3486	7.9901	11.0432	10.4904	7.773	9.1013	8.8843	-0.2315	2.9344	1.1142	0.4514	3.7158	3.9618	4.8994	5.9528	15.0859	2.7608
6.3348	8.1869	10.9592	9.8277	9.1737	12.2557	10.3631	8.0103	11.0171	10.557	7.8338	9.0869	8.9132	-0.1997	2.9691	1.1605	0.4109	3.7881	4.0225	4.9312	6.0164	15.0454	2.81
6.3521	8.1782	10.965	9.8393	9.1737	12.247	10.3949	8.0074	10.9824	10.5512	7.8425	9.0782	8.9364	-0.1823	2.9981	1.1807	0.3617	3.8373	4.0544	4.9515	6.0859	15.0223	2.8389
6.3637	8.1377	10.9419	9.8422	9.1505	12.1862	10.3776	7.9872	10.9534	10.5801	7.8714	9.055	8.948	-0.1678	3.0299	1.1662	0.3212	3.8634	4.0862	4.9573	6.1235	15.0252	2.865
6.3724	8.129	10.9361	9.8943	9.139	12.1689	10.4065	8.0248	10.9477	10.6004	7.9091	9.0348	8.9422	-0.1447	3.0675	1.2097	0.2691	3.9184	4.1007	4.9949	6.1611	15.0252	2.9026
6.3869	8.0566	10.8927	9.8711	9.1158	12.1313	10.4065	7.9988	10.8869	10.5888	7.938	9.0087	8.9364	-0.1273	3.082	1.1807	0.2402	3.9589	4.1122	5.0036	6.1872	15.0454	2.9228
6.3926	8.0248	10.8637	9.8711	9.084	12.0792	10.4094	7.9872	10.8377	10.5917	7.9235	8.9827	8.919	-0.11	3.1052	1.1981	0.2055	3.982	4.147	5.0296	6.1872	15.0657	2.9344
6.3811	7.9698	10.8464	9.8885	9.0377	12.0242	10.3949	7.9582	10.7914	10.5859	7.9206	8.9451	8.9046	-0.0839	3.163	1.1807	0.1534	4.0225	4.1499	5.0557	6.2335	15.1033	2.9344
6.3406	7.8888	10.7856	9.8653	8.974	11.975	10.3747	7.9206	10.7219	10.5454	7.8859	8.8727	8.8583	-0.0839	3.1775	1.146	0.1331	4.0196	4.1557	5.0614	6.2103	15.1467	2.9402
6.2798	7.8251	10.7422	9.8538	8.9046	11.9055	10.3428	7.8685	10.6467	10.4904	7.8859	8.8409	8.8033	-0.0695	3.1978	1.091	0.1158	4.0428	4.1585	5.0701	6.2161	15.2104	2.946
6.2566	7.7586	10.6843	9.8335	8.8611	11.8563	10.3226	7.8483	10.5859	10.4644	7.8454	8.7772	8.7599	-0.0579	3.2238	1.0968	0.0839	4.0515	4.1817	5.0557	6.2103	15.2712	2.9315
6.193	7.6833	10.6004	9.8161	8.7859	11.7753	10.2994	7.7759	10.4991	10.3949	7.8107	8.6991	8.6875	-0.0579	3.2441	1.0592	0.0781	4.0196	4.1817	5.0557	6.2219	15.3464	2.9171
6.1264	7.5994	10.5396	9.7669	8.7078	11.6943	10.23	7.7238	10.4036	10.3341	7.7528	8.6296	8.621	-0.0463	3.2238	1.0042	0.0752	4.0225	4.1499	5.0296	6.2045	15.4332	2.92
6.0888	7.5299	10.4673	9.738	8.6441	11.6364	10.2126	7.6978	10.3226	10.2589	7.7209	8.5775	8.5168	-0.0521	3.2267	0.9724	0.0781	3.9849	4.173	5.0267	6.2161	15.5056	2.9026
6.0164	7.4808	10.392	9.6859	8.5978	11.5641	10.1605	7.6457	10.2415	10.1895	7.6718	8.482	8.4271	-0.0666	3.2325	0.9521	0.1042	3.9704	4.1759	5.0094	6.2132	15.5866	2.8997
5.973	7.4055	10.2994	9.6338	8.5197	11.5033	10.1055	7.5965	10.146	10.1142	7.6168	8.3952	8.3258	-0.0868	3.2267	0.9318	0.136	3.9155	4.1991	5.0036	6.2161	15.6676	2.9113
5.8833	7.3187	10.2184	9.573	8.4589	11.428	10.0476	7.5328	10.0592	10.0274	7.5705	8.3229	8.2042	-0.1042	3.1978	0.9203	0.1997	3.8692	4.1817	4.9515	6.2335	15.7486	2.9431
5.837	7.2695	10.1547	9.5007	8.3952	11.3702	9.9782	7.4952	9.9608	9.9377	7.5039	8.2303	8.1058	-0.1476	3.1891	0.9289	0.272	3.791	4.2048	4.9283	6.2508	15.8181	2.9836
5.7415	7.2	10.0419	9.4081	8.3345	11.2805	9.8972	7.4576	9.848	9.8335	7.4316	8.1087	7.9582	-0.1852	3.1746	0.9405	0.3531	3.7042	4.2193	4.8849	6.2508	15.876	3.0444
5.6692	7.1306	9.9753	9.3097	8.2592	11.1936	9.7988	7.3766	9.7351	9.7293	7.3361	8.0074	7.8222	-0.2228	3.1341	0.9261	0.4283	3.6347	4.2251	4.8473	6.2422	15.9281	3.0994
5.5592	7.0293	9.8393	9.1997	8.1724	11.0692	9.6801	7.2926	9.5991	9.5846	7.2174	7.8309	7.6254	-0.2865	3.0675	0.8971	0.5383	3.4872	4.1991	4.7258	6.2219	15.9917	3.163
5.4608	6.9656	9.7235	9.0724	8.074	10.9505	9.5759	7.2145	9.4428	9.4255	7.0988	7.6804	7.4345	-0.3415	2.9778	0.9058	0.6511	3.3685	4.2135	4.665	6.2103	15.9946	3.2238
5.3364	6.8759	9.5817	8.9364	8.0017	10.8059	9.466	7.1248	9.2808	9.2779	6.9801	7.4981	7.2261	-0.3849	2.9257	0.9232	0.7698	3.2325	4.228	4.5637	6.1988	16.0033	3.2962
5.1801	6.7168	9.411	8.8033	7.8483	10.638	9.2808	6.983	9.0724	9.0666	6.7862	7.2782	6.9772	-0.4688	2.836	0.8624	0.9058	3.082	4.2164	4.4248	6.1496	15.9599	3.3598
5.0412	6.6126	9.2634	8.6673	7.7412	10.4615	9.1216	6.8557	8.8727	8.8554	6.6328	7.0409	6.7283	-0.5238	2.7318	0.8595	1.0331	2.9113	4.1991	4.283	6.109	15.8962	3.4293
4.8733	6.4679	9.0493	8.4734	7.582	10.2531	8.9277	6.6936	8.6296	8.6267	6.4332	6.7862	6.4534	-0.5846	2.6306	0.7929	1.1576	2.7232	4.1817	4.1036	6.0656	15.821	3.5132
4.6823	6.3	8.8467	8.291	7.42	10.0216	8.728	6.5084	8.375	8.3663	6.2161	6.5084	6.1611	-0.6598	2.4974	0.7379	1.2878	2.5351	4.1296	3.9184	5.9962	15.6966	3.574
4.5	6.164	8.6412	8.1	7.2869	9.8103	8.5081	6.3463	8.1174	8.1058	5.9788	6.2393	5.8515	-0.7032	2.3643	0.6888	1.3978	2.347	4.0775	3.7129	5.9209	15.5663	3.629
4.3467	6.0454	8.456	7.9496	7.1161	9.5846	8.3345	6.164	7.857	7.8251	5.7878	5.973	5.565	-0.7466	2.2775	0.6251	1.4962	2.127	4.0023	3.5103	5.8081	15.4274	3.6839
4.1528	5.8891	8.2274	7.7672	6.9627	9.356	8.1145	5.9643	7.5791	7.5502	5.5418	5.6807	5.2524	-0.8132	2.1589	0.5441	1.6235	1.9187	3.9386	3.3019	5.7155	15.2712	3.736
4.0225	5.7473	8.0451	7.6023	6.8007	9.1563	7.938	5.7936	7.3476	7.3129	5.3364	5.4261	4.9775	-0.8653	2.0489	0.4833	1.7335	1.7219	3.846	3.1081	5.6026	15.112	3.7708
3.901	5.6315	7.8599	7.446	6.6589	8.9566	7.773	5.6229	7.1248	7.0785	5.1222	5.1859	4.7229	-0.9116	1.965	0.4138	1.8058	1.5598	3.7679	2.92	5.4666	14.9702	3.8026
3.7216	5.5274	7.6862	7.3129	6.5171	8.7599	7.6052	5.4463	6.9078	6.8412	4.911	4.9457	4.4798	-0.955	1.8492	0.3212	1.8984	1.3515	3.6695	2.7232	5.3277	14.8515	3.8315
3.6058	5.4029	7.5242	7.1827	6.3724	8.5978	7.4373	5.2698	6.6878	6.6242	4.6968	4.7344	4.2425	-0.9926	1.7653	0.2691	1.9679	1.1894	3.5479	2.5553	5.1888	14.7734	3.8518
3.5248	5.293	7.3737	7.0872	6.2537	8.4531	7.3216	5.1222	6.5113	6.4476	4.5087	4.5203	4.0225	-1.0071	1.6843	0.2055	2.0055	1.0476	3.4582	2.4425	5.0614	14.7155	3.8894
3.3801	5.1714	7.2261	6.957	6.1061	8.2824	7.1798	4.9573	6.3261	6.2566	4.3148	4.2946	3.8026	-1.036	1.6003	0.1592	2.0605	0.874	3.3135	2.2862	4.911	14.7184	3.8981
3.2556	5.0528	7.0727	6.8441	5.9643	8.1464	7.0727	4.8097	6.164	6.1148	4.1383	4.1122	3.6376	-1.0447	1.5367	0.0868	2.0865	0.7379	3.2238	2.1704	4.7663	14.7531	3.9126
3.1283	4.8936	6.8875	6.7283	5.8081	7.9756	6.9454	4.6389	5.9962	5.9267	3.9386	3.9386	3.4235	-1.065	1.4498	0.0029	2.1039	0.6338	3.0994	2.0431	4.6245	14.8284	3.9068
3.001	4.746	6.7341	6.6068	5.675	7.8483	6.8123	4.4769	5.8341	5.7676	3.7534	3.7505	3.2354	-1.065	1.3601	-0.0781	2.1154	0.5267	2.9836	1.9418	4.474	14.9731	3.9299
2.8389	4.5492	6.5518	6.4563	5.4926	7.6689	6.682	4.2946	5.6373	5.5968	3.5508	3.5277	3.0733	-1.0679	1.3023	-0.1968	2.1126	0.4196	2.8505	1.8434	4.3032	15.138	3.9155
2.7058	4.3814	6.3724	6.3174	5.3364	7.5155	6.5431	4.1383	5.4782	5.4203	3.3656	3.3367	2.8823	-1.0621	1.227	-0.272	2.0894	0.3212	2.7405	1.7711	4.1933	15.3377	3.9328
2.538	4.1643	6.1756	6.164	5.1541	7.365	6.3955	3.9675	5.3016	5.2669	3.1688	3.1544	2.7116	-1.0476	1.1691	-0.3994	2.0634	0.2431	2.6277	1.7161	4.0515	15.5519	3.927
2.3672	3.9762	5.9991	6.0078	5.0036	7.2087	6.2711	3.8026	5.1425	5.1251	3.0068	2.972	2.5698	-1.0273	1.0939	-0.492	2.0344	0.1939	2.5032	1.6756	3.9704	15.7747	3.9126
2.237	3.791	5.811	5.8631	4.8213	7.0553	6.138	3.6492	4.9717	4.9862	2.8418	2.781	2.4048	-1.0071	1.0447	-0.5933	1.9823	0.1505	2.4019	1.6408	3.8634	15.9773	3.9068
2.0518	3.5913	5.646	5.7184	4.6331	6.8933	6.0049	3.4814	4.8184	4.8357	2.674	2.6074	2.2544	-0.9752	1.0215	-0.6685	1.9244	0.1215	2.2746	1.6351	3.7418	16.1654	3.9039
1.9244	3.4235	5.4579	5.5505	4.4827	6.7312	5.8775	3.328	4.6389	4.7171	2.5409	2.4251	2.1241	-0.9405	0.9521	-0.7495	1.8492	0.1042	2.2023	1.6119	3.6579	16.3708	3.8894
1.7855	3.2296	5.2843	5.4377	4.3322	6.601	5.7531	3.1804	4.5087	4.5955	2.3817	2.2717	1.9679	-0.9058	0.8595	-0.845	1.774	0.0723	2.0807	1.583	3.5479	16.5445	3.8807
1.6814	3.0791	5.1569	5.3103	4.1904	6.4939	5.6518	3.0502	4.3698	4.4856	2.2659	2.1386	1.8637	-0.8508	0.8161	-0.8797	1.6843	0.0492	1.965	1.5974	3.4698	16.6747	3.8605
1.5569	2.9344	4.992	5.2004	4.0457	6.3695	5.5274	2.9344	4.2367	4.4074	2.1357	1.9881	1.7653	-0.8103	0.7553	-0.9347	1.5916	0.055	1.8695	1.5974	3.3685	16.7905	3.8547
1.4759	2.7926	4.8647	5.1164	3.9126	6.274	5.4579	2.8302	4.1441	4.3438	2.0315	1.8839	1.6785	-0.7698	0.7032	-0.9897	1.5193	0.0174	1.7826	1.6003	3.2759	16.8917	3.8489
1.3688	2.6827	4.7402	5.0122	3.8084	6.1698	5.3827	2.7116	4.0399	4.2483	1.9389	1.7479	1.5945	-0.7322	0.6974	-0.981	1.447	0.0579	1.6843	1.6235	3.2036	16.9352	3.846
1.2849	2.5524	4.6331	4.9602	3.6839	6.0859	5.3393	2.6392	3.956	4.1962	1.8405	1.6524	1.5338	-0.6945	0.6627	-0.9926	1.3775	0.0463	1.6351	1.6524	3.1196	16.9757	3.8576
1.2212	2.4801	4.5058	4.8907	3.6058	6.0106	5.2669	2.5553	3.8547	4.1383	1.7508	1.5598	1.4817	-0.6714	0.6424	-0.9868	1.3225	0.0984	1.5569	1.6814	3.0531	16.9988	3.8605
1.1749	2.3875	4.4277	4.8647	3.5219	5.9441	5.2293	2.483	3.8026	4.1354	1.6814	1.473	1.447	-0.6424	0.654	-0.9463	1.2762	0.1331	1.4875	1.7248	2.9894	17.0075	3.8692
1.1344	2.318	4.3293	4.8444	3.4293	5.8573	5.2119	2.3904	3.7158	4.1151	1.6119	1.3746	1.3862	-0.6309	0.6772	-0.9232	1.2328	0.1881	1.4643	1.7682	2.9315	16.9988	3.8952
1.0707	2.2572	4.2454	4.7836	3.3454	5.7965	5.1512	2.3412	3.6319	4.0833	1.5598	1.2762	1.3312	-0.6048	0.7032	-0.9087	1.201	0.2402	1.4238	1.8434	2.9113	16.993	3.9068
1.0042	2.1762	4.1643	4.7692	3.2759	5.7068	5.1454	2.263	3.5711	4.0573	1.4788	1.201	1.3052	-0.6019	0.6945	-0.8942	1.1865	0.272	1.3891	1.8955	2.9084	16.9757	3.9212
0.9376	2.1039	4.0746	4.7344	3.2238	5.6142	5.1135	2.1965	3.4698	4.0515	1.4325	1.091	1.2473	-0.5961	0.7611	-0.8653	1.1749	0.3154	1.3978	1.9505	2.9171	16.9641	3.9531
0.8769	2.0171	3.9647	4.6794	3.1023	5.51	5.047	2.127	3.3598	4.0052	1.3746	0.955	1.1981	-0.6135	0.764	-0.8653	1.1807	0.3241	1.3688	1.9823	2.891	16.9583	3.9675
0.7958	1.9389	3.8749	4.6013	3.0357	5.4145	4.9891	2.0634	3.2614	3.9647	1.3225	0.8682	1.146	-0.6019	0.7987	-0.8479	1.1691	0.3646	1.3659	1.9939	2.8794	16.9699	3.9849
0.7061	1.8753	3.7621	4.5521	2.9576	5.3016	4.9225	2.0055	3.1515	3.9097	1.2617	0.7669	1.1113	-0.6019	0.7756	-0.8682	1.1691	0.382	1.3572	2.0228	2.8968	16.9988	4.0052
0.6222	1.8029	3.6521	4.4711	2.8881	5.2061	4.8733	1.9476	3.0502	3.872	1.2386	0.6598	1.0534	-0.6077	0.7814	-0.8913	1.172	0.3965	1.3543	2.0286	2.9171	17.0596	4.0052
0.5209	1.7479	3.5537	4.393	2.8245	5.102	4.8097	1.8926	2.9576	3.8431	1.2154	0.5643	0.9984	-0.5875	0.7611	-0.9058	1.1634	0.4109	1.3428	2.0431	2.9315	17.1377	4.0023
0.4283	1.6698	3.4611	4.3235	2.7695	5.0094	4.7749	1.8637	2.8794	3.8084	1.1923	0.4746	0.9695	-0.5875	0.7379	-0.9376	1.146	0.4428	1.3399	2.0749	2.9228	17.2651	4.0167
0.3328	1.5916	3.3685	4.2512	2.7	4.9254	4.6939	1.8116	2.8013	3.7766	1.1576	0.4312	0.9405	-0.5759	0.7148	-0.9752	1.1199	0.4486	1.3572	2.0691	2.9431	17.4213	4.0023
0.2315	1.5569	3.2817	4.1904	2.6769	4.8357	4.6621	1.7942	2.7347	3.7679	1.1662	0.3762	0.9434	-0.5585	0.7061	-1.0071	1.0968	0.4601	1.3399	2.0605	2.9576	17.5979	3.9994
0.1476	1.499	3.2007	4.1209	2.6161	4.7634	4.5955	1.7508	2.6595	3.7476	1.1518	0.301	0.9376	-0.5267	0.683	-1.0736	1.0447	0.4572	1.3746	2.0431	2.9663	17.812	4.0023
0.0579	1.4238	3.1254	4.0746	2.5698	4.7055	4.5695	1.7363	2.6016	3.7418	1.1778	0.2605	0.9405	-0.5151	0.6656	-1.1228	1.0042	0.4746	1.3804	2.0489	2.9807	18.0493	3.9936
-0.0232	1.3659	3.0502	3.9994	2.5611	4.6447	4.5376	1.7306	2.5466	3.7274	1.1865	0.2402	0.9232	-0.4804	0.6598	-1.1807	0.9492	0.492	1.3978	2.0749	2.9981	18.3069	3.9791
-0.1158	1.3167	2.9663	3.9589	2.5235	4.5753	4.5029	1.7103	2.4888	3.7129	1.1662	0.1968	0.9203	-0.463	0.6627	-1.2617	0.9	0.4833	1.418	2.0749	3.0183	18.5934	3.982
-0.1968	1.2473	2.8881	3.9184	2.4801	4.4798	4.4913	1.6814	2.4251	3.71	1.1489	0.1447	0.9232	-0.4457	0.6685	-1.3601	0.8479	0.4862	1.447	2.0749	3.0039	18.8856	3.982
-0.2807	1.1836	2.8302	3.8634	2.4425	4.4306	4.4479	1.6698	2.3788	3.6926	1.1518	0.1331	0.9463	-0.4138	0.6859	-1.4325	0.7987	0.5035	1.4672	2.0836	3.0155	19.1577	3.9647
-0.3646	1.1199	2.755	3.8257	2.3962	4.3611	4.4248	1.6408	2.3354	3.6782	1.1489	0.0781	0.9376	-0.3936	0.6743	-1.5425	0.7524	0.5006	1.5164	2.101	3.0212	19.4615	3.9502
-0.4457	1.0592	2.6855	3.7766	2.3499	4.2917	4.3843	1.6119	2.2544	3.6434	1.1344	0.0232	0.9376	-0.3588	0.6859	-1.6206	0.6916	0.5209	1.5222	2.0952	3.0328	19.7393	3.9184
-0.5006	0.9897	2.5611	3.6984	2.318	4.1817	4.3322	1.5743	2.1762	3.6261	1.1228	-0.0232	0.9289	-0.3415	0.6627	-1.664	0.6627	0.492	1.5396	2.0778	3.056	19.9911	3.9126
-0.6106	0.9087	2.4801	3.6463	2.263	4.0833	4.2888	1.5309	2.0836	3.5913	1.1026	-0.0781	0.9145	-0.327	0.683	-1.7653	0.6367	0.4688	1.5627	2.0778	3.0618	20.2371	3.8981
-0.7148	0.8421	2.3614	3.574	2.2138	3.9791	4.254	1.5106	1.9881	3.5595	1.0476	-0.1707	0.8682	-0.3096	0.7032	-1.7971	0.6164	0.4804	1.5425	2.0952	3.0704	20.4397	3.8778
-0.7814	0.764	2.292	3.5421	2.1589	3.8981	4.202	1.473	1.9013	3.5306	1.0418	-0.2141	0.8421	-0.3154	0.6888	-1.8492	0.6135	0.4775	1.5801	2.0952	3.0849	20.6278	3.872
-0.8306	0.7235	2.2081	3.4669	2.1444	3.8171	4.1614	1.4643	1.8492	3.4987	1.0418	-0.2402	0.8306	-0.3096	0.7177	-1.8232	0.6048	0.5093	1.6148	2.1183	3.1167	20.7869	3.8489
-0.8653	0.7177	2.1762	3.4582	2.1154	3.7766	4.1672	1.4701	1.8174	3.4929	1.0794	-0.2402	0.8566	-0.3039	0.7351	-1.8	0.5961	0.5412	1.6524	2.1502	3.1775	20.9403	3.8431
-0.8769	0.7032	2.1531	3.4322	2.1097	3.71	4.1441	1.4933	1.774	3.4785	1.0997	-0.2605	0.845	-0.3183	0.7871	-1.7421	0.599	0.5527	1.7132	2.182	3.1891	21.0619	3.846
-0.8769	0.7061	2.127	3.4582	2.1646	3.7071	4.173	1.5482	1.7624	3.5132	1.1402	-0.2315	0.8624	-0.3068	0.8161	-1.6698	0.6106	0.6077	1.7421	2.2515	3.2267	21.1632	3.8489
-0.8797	0.7148	2.1126	3.4235	2.1762	3.6782	4.1875	1.5859	1.7682	3.5364	1.1749	-0.2199	0.8884	-0.3096	0.8508	-1.5974	0.6164	0.6338	1.7769	2.3267	3.2962	21.2789	3.8229
-0.8334	0.7582	2.1357	3.4669	2.2254	3.71	4.2193	1.6524	1.8087	3.5884	1.2502	-0.1563	0.9521	-0.3183	0.9376	-1.4875	0.6193	0.6714	1.8261	2.3788	3.3367	21.3715	3.8026
-0.8103	0.8103	2.1791	3.5421	2.2862	3.7331	4.3003	1.7479	1.8579	3.6434	1.3109	-0.0897	1.0042	-0.3125	1.0071	-1.3486	0.6077	0.7235	1.855	2.4685	3.383	21.4844	3.7852
-0.7582	0.8653	2.2023	3.5942	2.3209	3.7534	4.364	1.7942	1.9158	3.6955	1.3775	-0.0116	1.0621	-0.3096	1.0997	-1.2531	0.6019	0.7698	1.881	2.5495	3.4351	21.5886	3.7708
-0.6859	0.9376	2.2544	3.6637	2.3701	3.791	4.4277	1.8521	1.965	3.7418	1.447	0.0955	1.146	-0.3039	1.1634	-1.1431	0.5875	0.8277	1.9187	2.6132	3.4727	21.7333	3.7389
-0.6396	0.9955	2.292	3.7187	2.4019	3.8373	4.4827	1.9216	2.0113	3.8026	1.4788	0.1563	1.1605	-0.3068	1.256	-1.0447	0.573	0.8508	1.9244	2.6364	3.4872	21.8664	3.7245
-0.6048	1.036	2.3238	3.7794	2.454	3.8778	4.5319	1.9765	2.0981	3.8576	1.5222	0.2141	1.2039	-0.2778	1.3023	-0.9955	0.5383	0.874	1.9331	2.7	3.5016	22.0429	3.7158
-0.5817	1.0331	2.3441	3.7968	2.4685	3.8894	4.5666	2.0113	2.1068	3.8865	1.5569	0.2547	1.2357	-0.2662	1.3428	-0.9318	0.5064	0.8884	1.9071	2.7318	3.464	22.2252	3.6926
-0.5412	1.0794	2.3701	3.8402	2.4714	3.9039	4.5753	2.0315	2.1357	3.9155	1.5772	0.2778	1.2415	-0.2257	1.4122	-0.8682	0.4341	0.8797	1.8724	2.7608	3.4669	22.396	3.6897
-0.5093	1.0794	2.3933	3.8489	2.4772	3.9097	4.61	2.0344	2.1531	3.9039	1.5656	0.2952	1.2299	-0.1881	1.4267	-0.8508	0.3444	0.845	1.8781	2.7405	3.4351	22.587	3.7129
-0.4891	1.0939	2.3759	3.846	2.4569	3.8865	4.61	2.0286	2.1531	3.8894	1.5453	0.2865	1.1923	-0.1389	1.4354	-0.8016	0.2547	0.8161	1.8463	2.7318	3.4148	22.7722	3.7129
-0.4978	1.0736	2.3643	3.8431	2.4251	3.8576	4.5926	1.9794	2.1097	3.8402	1.5077	0.2605	1.1286	-0.0839	1.4296	-0.7871	0.1418	0.7351	1.7971	2.7058	3.3569	22.9834	3.7216
-0.4746	1.0823	2.3759	3.8489	2.4164	3.8431	4.5724	1.9736	2.1183	3.82	1.4759	0.2373	1.0707	-0.0203	1.4498	-0.7611	0.0116	0.6714	1.774	2.6942	3.3019	23.1773	3.7187
-0.463	1.0794	2.3614	3.8257	2.4019	3.8113	4.555	1.9447	2.0894	3.7766	1.4296	0.1997	0.9984	0.0579	1.4325	-0.7495	-0.136	0.6106	1.6958	2.674	3.2672	23.3944	3.7274
-0.4746	1.0765	2.3499	3.8286	2.3701	3.7997	4.5348	1.91	2.0807	3.7389	1.3891	0.1765	0.9261	0.1389	1.447	-0.7177	-0.2981	0.5556	1.664	2.6392	3.218	23.5969	3.7447
-0.4428	1.0939	2.3238	3.82	2.3499	3.8055	4.5203	1.9013	2.0605	3.6897	1.3543	0.1389	0.8421	0.2257	1.4354	-0.6974	-0.4601	0.4775	1.6003	2.6045	3.1601	23.8053	3.7476
-0.4196	1.0997	2.3556	3.8344	2.3643	3.7968	4.4856	1.8781	2.0489	3.6637	1.3138	0.1129	0.7958	0.301	1.447	-0.6511	-0.6193	0.4196	1.5598	2.5553	3.1052	23.9905	3.7331
-0.3531	1.1199	2.3759	3.8373	2.3643	3.7881	4.4624	1.8753	2.0518	3.6232	1.2907	0.1013	0.7379	0.3791	1.4643	-0.628	-0.7785	0.3588	1.554	2.5553	3.0589	24.1757	3.736
-0.2836	1.1836	2.4454	3.8749	2.3933	3.8257	4.5029	1.881	2.0749	3.6174	1.2733	0.1244	0.7119	0.4659	1.5106	-0.5498	-0.9347	0.3212	1.5511	2.5177	3.0502	24.3407	3.7302
-0.2113	1.227	2.4888	3.9184	2.4106	3.8344	4.5145	1.8868	2.0894	3.5971	1.2502	0.11	0.6859	0.5122	1.5453	-0.518	-1.0505	0.2633	1.5193	2.5003	3.0097	24.5056	3.71
-0.0984	1.2936	2.5843	3.9994	2.4859	3.9097	4.5521	1.9447	2.1733	3.629	1.2617	0.1534	0.6685	0.5904	1.6582	-0.4486	-1.1749	0.2228	1.5569	2.5061	2.9981	24.6329	3.7042
0.0174	1.3688	2.6364	4.0573	2.5235	3.9473	4.5984	1.9389	2.1704	3.6261	1.2444	0.1447	0.628	0.6309	1.745	-0.3444	-1.2617	0.1823	1.5569	2.5032	2.9605	24.7516	3.6926
0.1302	1.4643	2.7058	4.118	2.5727	3.9936	4.6418	1.9881	2.2254	3.6608	1.2415	0.1968	0.6482	0.6714	1.8695	-0.2489	-1.3543	0.1563	1.5945	2.5235	2.972	24.8616	3.6753
0.2373	1.5077	2.7521	4.173	2.5987	4.0341	4.6418	1.9881	2.2659	3.6666	1.2386	0.1823	0.5817	0.6888	1.9997	-0.1678	-1.4064	0.0926	1.6206	2.5351	2.9373	24.9513	3.6666
0.3502	1.5859	2.81	4.2222	2.6392	4.0544	4.6708	1.9852	2.2515	3.6376	1.2183	0.1476	0.5441	0.7148	2.1328	-0.0695	-1.4209	0.0376	1.6322	2.5322	2.9286	25.0439	3.6405
0.4486	1.6524	2.8476	4.2454	2.6479	4.0544	4.6939	1.9708	2.2457	3.5971	1.1605	0.1273	0.492	0.7032	2.2804	0.0434	-1.4498	-0.0521	1.6524	2.5293	2.8881	25.1162	3.6232
0.5296	1.7016	2.8939	4.2946	2.6711	4.0659	4.7229	1.9794	2.2254	3.5942	1.1286	0.0926	0.4225	0.7264	2.4454	0.1794	-1.4527	-0.1302	1.6408	2.5148	2.8679	25.1683	3.6116
0.5788	1.7103	2.8621	4.2917	2.6537	4.0023	4.6708	1.8897	2.1646	3.5248	1.0563	0.0058	0.3299	0.7003	2.5785	0.2691	-1.4296	-0.2373	1.6351	2.4598	2.7868	25.2783	3.574
0.6019	1.6843	2.8302	4.283	2.6103	3.9473	4.6303	1.8347	2.0894	3.4293	0.9666	-0.1013	0.2055	0.6888	2.7116	0.3762	-1.3949	-0.3415	1.609	2.4048	2.7261	25.3593	3.5479
0.6309	1.6929	2.81	4.2598	2.5929	3.8923	4.584	1.7711	2.0084	3.3569	0.8682	-0.1997	0.0984	0.6801	2.8592	0.5093	-1.3601	-0.4717	1.5772	2.3556	2.6537	25.4809	3.5161
0.6193	1.6524	2.7376	4.2164	2.5235	3.7968	4.5058	1.6669	1.8984	3.2672	0.7466	-0.3328	-0.0347	0.6598	2.9894	0.5933	-1.3052	-0.5933	1.5164	2.2428	2.564	25.6313	3.4814
0.6222	1.6235	2.6769	4.1209	2.4598	3.7129	4.4016	1.6032	1.8	3.1544	0.6511	-0.4225	-0.1736	0.6164	3.1138	0.6772	-1.2415	-0.7032	1.4846	2.1675	2.4917	25.7905	3.438
0.6396	1.6032	2.645	4.0573	2.4222	3.6405	4.3177	1.5309	1.7016	3.0531	0.5527	-0.5383	-0.2894	0.5875	3.2846	0.7814	-1.1894	-0.8711	1.4585	2.0605	2.3962	25.9844	3.4003
0.6019	1.5396	2.5437	3.9647	2.3614	3.5335	4.2338	1.4441	1.5859	2.9315	0.4399	-0.654	-0.4428	0.5267	3.3801	0.845	-1.0707	-0.9926	1.418	1.9621	2.3064	26.2101	3.3714
0.6048	1.4962	2.4859	3.901	2.3093	3.4785	4.1557	1.3717	1.499	2.8302	0.3444	-0.7582	-0.5469	0.4833	3.4958	0.9261	-0.9897	-1.1142	1.3717	1.8781	2.2341	26.4127	3.3164
0.6193	1.4846	2.4714	3.8431	2.3007	3.4553	4.1093	1.3341	1.4441	2.7839	0.2662	-0.8421	-0.6396	0.437	3.6608	1.0389	-0.8942	-1.2357	1.3254	1.7826	2.1444	26.6326	3.2788
0.5904	1.4962	2.4454	3.8113	2.263	3.4148	4.0341	1.3167	1.3833	2.7145	0.1881	-0.8942	-0.7206	0.382	3.7881	1.1286	-0.7814	-1.3457	1.3196	1.6958	2.0778	26.8294	3.2383
0.6135	1.4643	2.4164	3.7737	2.2341	3.3656	4.0196	1.2733	1.3399	2.6711	0.0984	-0.981	-0.7814	0.3212	3.9212	1.2444	-0.6685	-1.4354	1.2907	1.6466	2.0055	27.006	3.2065
0.6598	1.4788	2.4569	3.7852	2.2428	3.3685	4.0023	1.2617	1.3196	2.6624	0.0347	-1.0187	-0.8248	0.2778	4.0746	1.3804	-0.5498	-1.5048	1.2531	1.6032	1.9563	27.1564	3.1544
0.6627	1.4817	2.4425	3.7505	2.2196	3.3483	3.9762	1.2328	1.2704	2.6277	-0.0521	-1.065	-0.874	0.2113	4.1643	1.4759	-0.4341	-1.5772	1.2444	1.554	1.8637	27.3069	3.111
0.6974	1.5164	2.454	3.7823	2.2254	3.3425	3.9675	1.2212	1.2357	2.6045	-0.1071	-1.1373	-0.9174	0.1592	4.2772	1.5974	-0.3125	-1.6322	1.2328	1.5077	1.829	27.4256	3.0704
0.7466	1.554	2.509	3.791	2.2428	3.3483	3.9878	1.1778	1.2183	2.5958	-0.1968	-1.1691	-0.9463	0.0897	4.3727	1.7161	-0.1968	-1.6756	1.2328	1.4701	1.7711	27.5442	3.0241
0.764	1.5974	2.5206	3.8229	2.2601	3.3598	3.982	1.1778	1.1981	2.59	-0.2431	-1.2241	-0.9608	0.0579	4.4393	1.8	-0.1071	-1.719	1.2328	1.4759	1.7103	27.6629	2.9836
0.7582	1.6148	2.5235	3.8402	2.2428	3.354	4.0023	1.146	1.1489	2.5727	-0.3154	-1.2762	-0.9984	-0.0029	4.4827	1.8492	-0.0058	-1.7884	1.2531	1.4614	1.6582	27.7844	2.9228
0.7756	1.6524	2.5466	3.8547	2.2486	3.3396	4.011	1.1315	1.1257	2.5553	-0.3878	-1.3138	-1.0273	-0.0637	4.4971	1.8753	0.0868	-1.8463	1.2675	1.4498	1.6206	27.9089	2.8621
0.7814	1.6582	2.5582	3.872	2.2399	3.3164	4.0254	1.0997	1.065	2.5553	-0.4514	-1.3746	-1.0534	-0.1013	4.4913	1.9129	0.1794	-1.8463	1.282	1.4846	1.5627	28.0449	2.7926
0.7929	1.6785	2.5553	3.9328	2.2312	3.3048	4.0515	1.0707	1.0389	2.5322	-0.5325	-1.4035	-1.0881	-0.1187	4.4971	1.8781	0.246	-1.8666	1.2878	1.4962	1.5598	28.2098	2.7116
0.7698	1.6756	2.5669	3.956	2.1994	3.2759	4.0833	1.0244	1.01	2.5119	-0.6019	-1.4846	-1.1055	-0.1707	4.4798	1.8232	0.3154	-1.8753	1.2994	1.4904	1.5309	28.369	2.6306
0.7698	1.6871	2.5553	3.9965	2.1907	3.2672	4.0775	0.9955	0.9637	2.5235	-0.6511	-1.5338	-1.1344	-0.1997	4.4016	1.7335	0.3762	-1.8695	1.3283	1.5425	1.528	28.5513	2.538
0.7582	1.6843	2.5611	4.0139	2.1589	3.2383	4.092	0.9492	0.9261	2.4945	-0.7148	-1.5916	-1.146	-0.2344	4.3756	1.664	0.4399	-1.91	1.3341	1.5222	1.4904	28.751	2.4714
0.7553	1.6785	2.5495	4.063	2.1328	3.2122	4.118	0.9434	0.8942	2.4743	-0.7814	-1.6437	-1.1489	-0.2489	4.3409	1.5453	0.5006	-1.8984	1.3312	1.5453	1.4904	28.9536	2.3701
