"FZ"	"FC3"	"FCZ"	"FC4"	"C3"	"CZ"	"C4"	"CP3"	"CPZ"	"CP4"	"P3"	"PZ"	"P4"	"OZ"	"FP1"	"FP2"	"A2"	"P8"	"TP7"	"TP8"	"P7"
0.2266	0.2518	0.0979	-0.0811	0.3832	0.3329	0.3888	0.5147	0.9567	1.2001	-0.1902	0.8308	1.8267	0.2825	0.2602	-0.663	-0.5595	1.3847	-0.677	0.898	-0.8644
0.2322	0.3077	0.0783	-0.1511	0.5175	0.2965	0.3077	0.6434	0.9651	1.105	-0.042	0.8336	1.7008	0.207	0.2741	-0.649	-0.4112	1.2533	-0.5259	0.8728	-0.7357
0.2042	0.3888	0.0727	-0.2126	0.6546	0.3077	0.2182	0.7805	0.9819	1.0351	0.0951	0.8252	1.5806	0.1511	0.3217	-0.6406	-0.2909	1.133	-0.3805	0.8812	-0.5959
0.2098	0.4084	0.042	-0.2714	0.7609	0.3049	0.1147	0.8868	0.9763	0.9036	0.207	0.7917	1.4631	0.0727	0.3273	-0.6378	-0.1455	1.0127	-0.2294	0.8532	-0.5035
0.2042	0.4812	0.0476	-0.3189	0.9036	0.3245	0.0252	1.0043	0.9819	0.8057	0.3525	0.7861	1.3372	0.0168	0.3749	-0.5791	-0.0336	0.87	-0.0867	0.8308	-0.3721
0.221	0.5399	0.0476	-0.3637	1.0127	0.2825	-0.0532	1.0854	0.9763	0.6966	0.4616	0.7581	1.2029	-0.0504	0.4084	-0.5371	0.0951	0.7273	0.0224	0.7889	-0.249
0.2658	0.6322	0.0615	-0.3805	1.119	0.3105	-0.0895	1.1777	0.9623	0.6322	0.6126	0.7609	1.1078	-0.0811	0.442	-0.4812	0.1818	0.621	0.165	0.7525	-0.1119
0.2797	0.6994	0.0727	-0.3721	1.2141	0.3329	-0.1539	1.2728	0.9763	0.5511	0.7161	0.7273	1.0127	-0.1399	0.47	-0.428	0.2797	0.4868	0.2602	0.7078	0
0.3049	0.7637	0.1007	-0.386	1.312	0.3553	-0.179	1.368	0.9875	0.4812	0.8392	0.7245	0.9008	-0.1678	0.5203	-0.3413	0.3413	0.3721	0.3525	0.649	0.1231
0.3189	0.8504	0.1315	-0.3637	1.3987	0.3497	-0.2014	1.4239	0.9819	0.4084	0.9483	0.7217	0.7945	-0.2098	0.5511	-0.2602	0.4252	0.263	0.4448	0.5735	0.2098
0.3832	0.9315	0.1734	-0.3273	1.5134	0.4028	-0.165	1.533	0.9959	0.3749	1.0602	0.7161	0.6938	-0.221	0.6015	-0.1846	0.4504	0.1706	0.5511	0.4951	0.3329
0.4308	1.0211	0.2322	-0.2769	1.5973	0.4728	-0.1678	1.5973	0.9959	0.3385	1.1805	0.7133	0.6266	-0.2434	0.6658	-0.0867	0.4924	0.0755	0.6518	0.442	0.4224
0.4588	1.1078	0.2965	-0.2378	1.6477	0.5007	-0.1427	1.6365	0.9903	0.2769	1.2672	0.6798	0.5371	-0.2686	0.7133	0.0252	0.5259	-0.0308	0.7106	0.3525	0.5147
0.5091	1.1414	0.3469	-0.193	1.6953	0.5287	-0.1287	1.6869	0.9735	0.249	1.3707	0.6406	0.4392	-0.2853	0.7385	0.1287	0.5763	-0.1203	0.7553	0.3021	0.5791
0.5735	1.2337	0.386	-0.1119	1.7428	0.5735	-0.1119	1.7092	0.9735	0.1734	1.4351	0.5763	0.3329	-0.3021	0.7973	0.2378	0.5959	-0.2322	0.7777	0.1902	0.635
0.6238	1.3148	0.4616	-0.0532	1.7484	0.5819	-0.0867	1.7176	0.9371	0.1203	1.491	0.5259	0.2378	-0.3189	0.8336	0.3385	0.6238	-0.3133	0.8364	0.0811	0.7022
0.6742	1.34	0.5035	-0.014	1.7568	0.6182	-0.0476	1.7288	0.8784	0.0727	1.519	0.4588	0.1399	-0.3441	0.8812	0.4112	0.6546	-0.4	0.8476	-0.042	0.7385
0.7106	1.4015	0.5595	0.0699	1.74	0.6015	-0.0112	1.6897	0.8252	0.0056	1.5386	0.3553	-0.0056	-0.3441	0.9623	0.5399	0.6826	-0.5063	0.884	-0.1958	0.7833
0.7833	1.4407	0.6098	0.1091	1.712	0.6182	0.0084	1.6645	0.7525	-0.028	1.5302	0.2797	-0.1119	-0.3581	1.0043	0.6602	0.7106	-0.5707	0.9148	-0.3525	0.8085
0.8504	1.4351	0.6742	0.1483	1.6421	0.635	0.028	1.6057	0.6798	-0.1259	1.5078	0.1623	-0.2546	-0.3805	1.0714	0.7441	0.7357	-0.6826	0.9092	-0.5315	0.8169
0.8896	1.4575	0.6994	0.193	1.5806	0.621	0.0476	1.5218	0.607	-0.2042	1.4743	0.0699	-0.3721	-0.3832	1.1274	0.8169	0.7497	-0.7581	0.9064	-0.691	0.8113
0.9148	1.4491	0.7106	0.179	1.4715	0.5847	0.0252	1.4183	0.4616	-0.3077	1.4127	-0.0923	-0.5203	-0.4084	1.1497	0.8812	0.7721	-0.8616	0.8896	-0.8588	0.8224
0.9232	1.4099	0.7273	0.221	1.3707	0.5399	0.0252	1.3008	0.3637	-0.3832	1.34	-0.2322	-0.6574	-0.3944	1.1693	0.9539	0.7945	-0.9539	0.8364	-1.0155	0.8169
0.9427	1.3624	0.7106	0.207	1.2449	0.4924	0.0084	1.1581	0.235	-0.4728	1.2533	-0.3777	-0.8308	-0.4168	1.1665	0.9483	0.828	-1.063	0.8085	-1.147	0.8029
0.9064	1.3036	0.6854	0.1818	1.105	0.442	-0.0196	1.0183	0.1147	-0.5903	1.147	-0.5315	-0.9651	-0.4364	1.1637	0.9875	0.8476	-1.1553	0.7497	-1.2589	0.7861
0.9064	1.2505	0.635	0.1623	0.9595	0.3553	-0.042	0.8476	-0.0364	-0.7078	1.0183	-0.705	-1.133	-0.4448	1.1386	0.9959	0.8644	-1.2421	0.6854	-1.312	0.7609
0.8476	1.1274	0.5763	0.0979	0.7917	0.2825	-0.1175	0.6938	-0.1958	-0.8224	0.8728	-0.8588	-1.2924	-0.47	1.0966	0.9707	0.898	-1.3288	0.6126	-1.3707	0.7245
0.8252	1.0574	0.5399	0.0699	0.6154	0.207	-0.1483	0.5035	-0.3413	-0.926	0.7329	-1.0043	-1.4547	-0.4616	1.0826	0.9847	0.9148	-1.3596	0.5567	-1.3847	0.691
0.7385	0.9427	0.456	0.014	0.4196	0.1007	-0.2182	0.3301	-0.5091	-1.0546	0.5511	-1.1861	-1.6225	-0.4896	1.0043	0.9092	0.9623	-1.4435	0.442	-1.4127	0.6322
0.6826	0.8113	0.3721	-0.0532	0.249	-0.0112	-0.2769	0.1399	-0.6378	-1.1497	0.3888	-1.326	-1.782	-0.5063	0.9483	0.87	0.9791	-1.4994	0.3525	-1.3875	0.6098
0.6406	0.7106	0.3189	-0.1035	0.0839	-0.0923	-0.3273	-0.0587	-0.7749	-1.2533	0.2098	-1.4715	-1.9023	-0.5063	0.9371	0.8616	0.9903	-1.5134	0.2797	-1.354	0.5847
0.5595	0.5679	0.2518	-0.1678	-0.1119	-0.2266	-0.3693	-0.2546	-0.9539	-1.3875	0.0364	-1.6113	-2.0757	-0.5203	0.9008	0.7833	1.0211	-1.5386	0.1846	-1.3232	0.5315
0.4896	0.4504	0.1734	-0.2126	-0.2825	-0.2965	-0.4224	-0.4504	-1.0686	-1.4854	-0.1259	-1.754	-2.2016	-0.5259	0.8588	0.7329	1.0267	-1.6085	0.0895	-1.2672	0.4951
0.4112	0.3049	0.0811	-0.2909	-0.4448	-0.3888	-0.5091	-0.6462	-1.2197	-1.5889	-0.2993	-1.8827	-2.3303	-0.5399	0.8252	0.6966	1.049	-1.6421	-0.028	-1.27	0.4448
0.3553	0.1874	0.0112	-0.3497	-0.6098	-0.4784	-0.5679	-0.8085	-1.3288	-1.6757	-0.4364	-1.9918	-2.445	-0.5371	0.7581	0.6126	1.0602	-1.6617	-0.1231	-1.2113	0.4084
0.2741	0.0364	-0.0476	-0.414	-0.7973	-0.5791	-0.6182	-1.0099	-1.4463	-1.754	-0.6126	-2.1037	-2.5569	-0.5399	0.691	0.5427	1.063	-1.7008	-0.2238	-1.1945	0.3525
0.2126	-0.0867	-0.0923	-0.4532	-0.9511	-0.6518	-0.6882	-1.1581	-1.5582	-1.8407	-0.7749	-2.196	-2.6716	-0.5483	0.705	0.4756	1.063	-1.7456	-0.3133	-1.1749	0.2993
0.1511	-0.2294	-0.1595	-0.5007	-1.119	-0.7133	-0.7413	-1.3204	-1.6421	-1.9023	-0.9092	-2.2575	-2.7499	-0.5287	0.635	0.4	1.0434	-1.7372	-0.3972	-1.1665	0.2546
0.0839	-0.3357	-0.1986	-0.5203	-1.2616	-0.7945	-0.7553	-1.4882	-1.754	-1.9638	-1.077	-2.3415	-2.8422	-0.5203	0.6015	0.3301	1.0267	-1.7904	-0.4951	-1.1665	0.1846
0.0476	-0.4364	-0.2462	-0.5623	-1.3819	-0.8364	-0.7917	-1.6113	-1.8127	-2.0086	-1.1861	-2.3946	-2.8982	-0.5091	0.5679	0.2602	1.0015	-1.796	-0.5707	-1.1106	0.1539
0.0084	-0.5399	-0.2658	-0.5455	-1.519	-0.8952	-0.8336	-1.7652	-1.8827	-2.017	-1.312	-2.4254	-2.9289	-0.4951	0.5511	0.1986	0.9763	-1.7904	-0.663	-1.1106	0.1007
0	-0.6126	-0.2602	-0.5399	-1.6169	-0.9483	-0.8532	-1.8715	-1.9302	-2.0505	-1.4127	-2.4701	-2.9653	-0.4756	0.5371	0.1734	0.9288	-1.796	-0.7245	-1.0798	0.1007
-0.0364	-0.7078	-0.2853	-0.5343	-1.6897	-0.9763	-0.842	-1.9526	-1.9358	-2.0421	-1.4882	-2.4562	-2.9989	-0.4588	0.5147	0.1287	0.8924	-1.7708	-0.7637	-1.0686	0.0587
-0.0727	-0.7861	-0.2937	-0.5147	-1.7932	-0.9987	-0.8364	-2.0673	-1.975	-2.0561	-1.5582	-2.459	-2.9793	-0.4364	0.4868	0.0559	0.8616	-1.7708	-0.8057	-1.0295	0.0336
-0.0895	-0.8336	-0.3049	-0.484	-1.8435	-0.9875	-0.8001	-2.1233	-1.961	-2.0309	-1.5834	-2.4002	-2.9429	-0.4112	0.4812	0.0643	0.8197	-1.726	-0.8085	-0.9931	0.0392
-0.0979	-0.8644	-0.2825	-0.4364	-1.8855	-1.0155	-0.7917	-2.1568	-1.9498	-2.0226	-1.6337	-2.3666	-2.9233	-0.3916	0.4672	0.0476	0.7665	-1.7036	-0.8141	-0.9791	0.042
-0.1175	-0.898	-0.2574	-0.3777	-1.8939	-0.9959	-0.7553	-2.1652	-1.9107	-1.9918	-1.6365	-2.2855	-2.8674	-0.3777	0.4392	-0.0084	0.7441	-1.6813	-0.7945	-0.9679	0.0559
-0.1343	-0.9092	-0.2434	-0.3105	-1.8911	-0.9791	-0.7161	-2.154	-1.8827	-1.9218	-1.6309	-2.21	-2.8002	-0.3553	0.3693	-0.0364	0.7106	-1.6113	-0.7385	-0.9539	0.0923
-0.1371	-0.9343	-0.2322	-0.263	-1.8603	-0.9483	-0.6742	-2.1289	-1.8323	-1.8547	-1.6057	-2.1037	-2.7079	-0.3469	0.3581	-0.0476	0.677	-1.575	-0.7189	-0.9204	0.1007
-0.1371	-0.9092	-0.1902	-0.193	-1.8267	-0.9232	-0.6154	-2.0897	-1.7484	-1.7624	-1.5722	-1.9974	-2.6268	-0.3357	0.2825	-0.0671	0.6574	-1.4994	-0.691	-0.8924	0.1287
-0.165	-0.9064	-0.165	-0.1287	-1.7624	-0.8868	-0.5567	-2.0281	-1.6365	-1.6785	-1.5078	-1.8687	-2.5177	-0.3161	0.179	-0.1007	0.621	-1.4239	-0.6434	-0.8812	0.1231
-0.179	-0.9008	-0.1623	-0.0867	-1.726	-0.8224	-0.5175	-1.9582	-1.5582	-1.5973	-1.4379	-1.7428	-2.389	-0.3021	0.1175	-0.1203	0.6182	-1.3484	-0.5847	-0.8616	0.1455
-0.207	-0.8728	-0.1483	-0.0252	-1.6645	-0.7861	-0.456	-1.8967	-1.4771	-1.4938	-1.368	-1.5778	-2.2491	-0.2993	0.0364	-0.1371	0.5987	-1.2784	-0.5483	-0.8812	0.165
-0.2294	-0.8672	-0.1595	0	-1.6057	-0.7525	-0.4196	-1.8295	-1.3931	-1.4071	-1.3064	-1.4323	-2.1177	-0.2881	-0.0587	-0.1623	0.5903	-1.1917	-0.5119	-0.9036	0.165
-0.249	-0.8392	-0.1483	0.0559	-1.5162	-0.6966	-0.3832	-1.726	-1.2784	-1.2896	-1.2281	-1.2868	-1.9778	-0.2853	-0.1511	-0.1595	0.5651	-1.0966	-0.4616	-0.9371	0.1623
-0.3021	-0.828	-0.1483	0.0699	-1.4463	-0.6714	-0.3357	-1.6169	-1.1665	-1.1749	-1.147	-1.1246	-1.8183	-0.2937	-0.2574	-0.2154	0.5735	-1.0127	-0.4308	-0.9595	0.1511
-0.3217	-0.7889	-0.1706	0.0783	-1.3624	-0.5931	-0.2993	-1.5078	-1.0518	-1.0434	-1.049	-0.9455	-1.6449	-0.2741	-0.3637	-0.235	0.5679	-0.912	-0.3721	-0.9623	0.1399
-0.3749	-0.7693	-0.1511	0.0727	-1.2784	-0.5539	-0.2462	-1.3763	-0.9315	-0.9511	-0.9567	-0.7721	-1.4575	-0.2853	-0.4644	-0.2741	0.5679	-0.8364	-0.3301	-0.9567	0.1315
-0.3972	-0.7273	-0.1595	0.0951	-1.1749	-0.4924	-0.207	-1.2561	-0.8113	-0.8336	-0.87	-0.6154	-1.3036	-0.2825	-0.5483	-0.2881	0.5623	-0.7329	-0.2965	-0.9595	0.1371
-0.4532	-0.6658	-0.1874	0.0615	-1.0742	-0.4252	-0.1902	-1.1497	-0.7022	-0.7106	-0.7637	-0.4672	-1.1078	-0.2741	-0.6294	-0.3329	0.5455	-0.6322	-0.2462	-0.9176	0.1511
-0.5063	-0.663	-0.2154	0.0532	-0.9763	-0.3832	-0.1762	-1.0323	-0.6154	-0.6098	-0.6658	-0.2965	-0.9371	-0.2853	-0.705	-0.3805	0.5399	-0.5175	-0.1958	-0.87	0.1343
-0.5175	-0.6126	-0.2322	0.0448	-0.8504	-0.3497	-0.1371	-0.8952	-0.4812	-0.456	-0.5567	-0.0951	-0.7189	-0.2574	-0.7609	-0.3805	0.5063	-0.4084	-0.1511	-0.7581	0.1259
-0.5707	-0.5903	-0.2574	-0.0196	-0.7553	-0.2993	-0.1511	-0.7805	-0.3888	-0.3832	-0.4616	0.0308	-0.5483	-0.2658	-0.8672	-0.4224	0.4896	-0.3021	-0.1035	-0.6602	0.1567
-0.6015	-0.5287	-0.2658	-0.042	-0.6574	-0.2574	-0.1427	-0.6574	-0.2714	-0.2714	-0.3553	0.221	-0.3329	-0.2238	-0.8952	-0.4336	0.442	-0.165	-0.0532	-0.5119	0.1511
-0.6266	-0.4728	-0.2797	-0.0532	-0.5371	-0.207	-0.1427	-0.5119	-0.1539	-0.1511	-0.2322	0.3777	-0.1427	-0.1902	-0.9455	-0.4224	0.386	-0.0336	0.0196	-0.386	0.165
-0.6574	-0.4672	-0.3049	-0.0951	-0.4392	-0.1846	-0.1567	-0.386	-0.0671	-0.0504	-0.1259	0.5315	0.0308	-0.165	-0.9819	-0.4756	0.3329	0.1007	0.042	-0.2769	0.1874
-0.677	-0.4252	-0.3357	-0.1231	-0.3273	-0.165	-0.1539	-0.3049	-0.0112	0.0308	-0.0168	0.6854	0.2294	-0.1259	-1.0015	-0.484	0.2574	0.2434	0.0895	-0.1259	0.2098
-0.7245	-0.414	-0.3581	-0.1818	-0.2853	-0.1678	-0.1762	-0.1958	0.0643	0.1287	0.0504	0.8029	0.3888	-0.1091	-1.0379	-0.5063	0.193	0.3357	0.1259	0	0.235
-0.7217	-0.4084	-0.4056	-0.2182	-0.1734	-0.1455	-0.1846	-0.1091	0.1287	0.1762	0.1399	0.9036	0.5707	-0.0727	-1.0462	-0.5063	0.1147	0.4644	0.1455	0.1175	0.2238
-0.7553	-0.4168	-0.4392	-0.2518	-0.1455	-0.1427	-0.193	-0.028	0.1846	0.2714	0.1874	0.9987	0.7133	-0.028	-1.063	-0.5231	0.0504	0.5539	0.1678	0.2238	0.193
-0.8113	-0.4336	-0.5175	-0.2993	-0.1203	-0.179	-0.2154	0.014	0.207	0.2993	0.2126	1.0574	0.8476	0.0112	-1.0854	-0.5707	-0.028	0.649	0.1762	0.2965	0.207
-0.8224	-0.4672	-0.5259	-0.3217	-0.0643	-0.1902	-0.2126	0.0699	0.2406	0.386	0.2462	1.1414	0.9987	0.0532	-1.0826	-0.607	-0.1119	0.7441	0.1874	0.3693	0.1846
-0.8364	-0.4756	-0.5623	-0.3413	-0.0448	-0.1818	-0.2238	0.1343	0.2853	0.456	0.2741	1.1973	1.1442	0.1147	-1.0686	-0.6154	-0.2154	0.8336	0.1734	0.414	0.1315
-0.8169	-0.5007	-0.5903	-0.3441	-0.0196	-0.1874	-0.193	0.1762	0.3049	0.5259	0.2797	1.2505	1.2644	0.1706	-1.077	-0.6434	-0.3413	0.9148	0.1986	0.4756	0.1147
-0.828	-0.5343	-0.6238	-0.3385	0.0056	-0.1846	-0.165	0.1902	0.3273	0.6126	0.2769	1.3064	1.3763	0.2294	-1.0686	-0.6714	-0.4504	0.9903	0.2014	0.5119	0.042
-0.8085	-0.5203	-0.6182	-0.3217	0.0308	-0.179	-0.1175	0.2574	0.3805	0.6938	0.3049	1.3428	1.5274	0.3105	-1.049	-0.6658	-0.6126	1.1134	0.2098	0.5707	0.0476
-0.7917	-0.5679	-0.6042	-0.3049	0.0336	-0.1623	-0.0755	0.2658	0.3916	0.7805	0.2909	1.3596	1.6309	0.3553	-1.0406	-0.6938	-0.7245	1.1609	0.1986	0.6015	-0.028
-0.8001	-0.5959	-0.6126	-0.263	0.0504	-0.1483	-0.0168	0.3161	0.4252	0.8728	0.2993	1.3959	1.7596	0.4336	-1.0323	-0.7078	-0.8672	1.2644	0.2042	0.6658	-0.0532
-0.7665	-0.6042	-0.5875	-0.2238	0.0643	-0.1259	0.0252	0.3077	0.442	0.9455	0.2825	1.4127	1.8687	0.4979	-1.049	-0.705	-0.9931	1.3232	0.1762	0.7357	-0.1231
-0.7357	-0.6126	-0.5735	-0.1678	0.0895	-0.1007	0.0923	0.3525	0.5147	1.0546	0.2993	1.4547	1.975	0.5707	-1.0099	-0.6798	-1.1302	1.4295	0.1706	0.8476	-0.1678
-0.7022	-0.6098	-0.5399	-0.0951	0.0979	-0.042	0.1874	0.386	0.5679	1.147	0.2909	1.4882	2.0673	0.6378	-1.0015	-0.6574	-1.27	1.491	0.1455	0.926	-0.2182
-0.677	-0.607	-0.4979	-0.0224	0.1399	-0.0056	0.263	0.4504	0.6266	1.2533	0.2965	1.4966	2.1708	0.7022	-0.9903	-0.6434	-1.3903	1.5917	0.1315	1.0323	-0.263
-0.5903	-0.621	-0.4532	0.0867	0.1706	0.0867	0.3525	0.4784	0.6966	1.3428	0.3189	1.533	2.2687	0.7609	-0.9707	-0.5987	-1.5106	1.6477	0.1035	1.1246	-0.3301
-0.5427	-0.5875	-0.3637	0.1706	0.2266	0.1623	0.4728	0.5203	0.7777	1.4771	0.3245	1.5666	2.3722	0.8141	-0.9148	-0.5315	-1.6197	1.7372	0.0783	1.2337	-0.4168
-0.4979	-0.5455	-0.3021	0.2658	0.2602	0.235	0.5623	0.5735	0.8588	1.5917	0.3609	1.6141	2.4757	0.8616	-0.8924	-0.47	-1.7204	1.8155	0.0615	1.3176	-0.4364
-0.4028	-0.5315	-0.235	0.3693	0.3133	0.3161	0.6798	0.635	0.9288	1.7036	0.3777	1.6197	2.5541	0.9176	-0.8308	-0.3832	-1.8044	1.8771	0.0308	1.3847	-0.5203
-0.3777	-0.4728	-0.165	0.456	0.3665	0.3944	0.7609	0.663	1.0155	1.8183	0.3832	1.6533	2.6156	0.9288	-0.7945	-0.3021	-1.8575	1.9107	0.0252	1.4295	-0.5679
-0.2937	-0.4308	-0.0867	0.5511	0.3805	0.4868	0.8868	0.7161	1.091	1.9162	0.4028	1.698	2.6967	0.9623	-0.7385	-0.2042	-1.9051	1.9498	-0.0084	1.4659	-0.6518
-0.2294	-0.3888	-0.0224	0.6098	0.4336	0.5567	0.9651	0.7357	1.1414	2.003	0.3916	1.6673	2.7079	0.9595	-0.6966	-0.1399	-1.9162	1.9778	-0.0476	1.4966	-0.7273
-0.179	-0.3413	0.0336	0.705	0.4476	0.6238	1.0602	0.7581	1.2113	2.0925	0.3721	1.6897	2.7555	0.9791	-0.6322	-0.0532	-1.9386	2.0253	-0.0559	1.5582	-0.8001
-0.1259	-0.2797	0.0979	0.7945	0.4532	0.6798	1.1497	0.7805	1.2672	2.1484	0.3525	1.6589	2.7863	0.9707	-0.5875	0.0364	-1.9386	2.0421	-0.1007	1.6001	-0.8784
-0.0448	-0.2462	0.193	0.8448	0.4672	0.7469	1.2197	0.7777	1.3176	2.2324	0.3189	1.6309	2.7835	0.9651	-0.5063	0.1091	-1.9246	2.0505	-0.1343	1.6309	-0.9791
0.0028	-0.1818	0.2881	0.926	0.4924	0.8169	1.2952	0.7973	1.3372	2.2827	0.2825	1.6113	2.7863	0.9567	-0.4728	0.1986	-1.8995	2.0393	-0.1595	1.6645	-1.0574
0.0392	-0.1231	0.3273	0.9651	0.4532	0.8476	1.34	0.7497	1.3484	2.2995	0.2434	1.5666	2.7611	0.9343	-0.4196	0.2462	-1.8631	2.0337	-0.193	1.7008	-1.1106
0.1007	-0.0699	0.4112	1.0155	0.4784	0.898	1.4127	0.7273	1.3903	2.3415	0.2042	1.5162	2.7359	0.9204	-0.4	0.3217	-1.8351	2.0281	-0.207	1.754	-1.1637
0.179	-0.028	0.4504	1.0602	0.4504	0.9539	1.4435	0.6826	1.3959	2.3527	0.1623	1.4463	2.6688	0.8896	-0.3777	0.3777	-1.7848	1.975	-0.2741	1.7764	-1.2393
0.2098	0.042	0.5147	1.1022	0.4252	0.9735	1.4687	0.6462	1.4015	2.3554	0.0979	1.3959	2.61	0.8588	-0.3441	0.4168	-1.726	1.9386	-0.2909	1.7904	-1.2896
0.2602	0.0895	0.5511	1.0854	0.3916	1.0015	1.4631	0.5763	1.3847	2.3079	0.0364	1.312	2.5513	0.8364	-0.3413	0.4392	-1.6617	1.8883	-0.3105	1.8127	-1.3512
0.2714	0.1343	0.5847	1.1022	0.3693	1.0183	1.4715	0.5007	1.3624	2.2715	-0.0392	1.2141	2.4394	0.7917	-0.3637	0.4476	-1.5806	1.8239	-0.3525	1.8127	-1.4099
0.2965	0.1539	0.6154	1.077	0.3273	0.9931	1.4407	0.4364	1.3344	2.2016	-0.1035	1.1134	2.3387	0.7609	-0.3749	0.4476	-1.5134	1.7708	-0.386	1.8099	-1.4379
0.3105	0.1846	0.6182	1.0686	0.249	0.9707	1.4267	0.3497	1.27	2.1568	-0.1902	1.0127	2.2044	0.7106	-0.4168	0.442	-1.4239	1.7036	-0.414	1.8016	-1.4603
0.3385	0.221	0.6238	1.0295	0.179	0.9232	1.3791	0.2406	1.1777	2.0645	-0.2686	0.8784	2.0701	0.6714	-0.4196	0.4448	-1.3316	1.5862	-0.4476	1.7652	-1.5218
0.3777	0.2462	0.6406	1.0015	0.1063	0.8952	1.3428	0.1483	1.1078	1.9806	-0.3441	0.7553	1.9498	0.6378	-0.4308	0.4364	-1.27	1.5134	-0.4784	1.7204	-1.5246
0.3832	0.2546	0.6294	0.9455	0.028	0.8532	1.2812	0.0392	0.9847	1.8519	-0.4616	0.5931	1.768	0.5791	-0.442	0.4168	-1.1833	1.4071	-0.5063	1.6337	-1.5302
0.3972	0.2434	0.6294	0.8812	-0.0867	0.7861	1.2113	-0.0727	0.884	1.726	-0.5427	0.4532	1.6029	0.5623	-0.4364	0.3832	-1.119	1.3064	-0.5259	1.5218	-1.5078
0.3805	0.2462	0.5903	0.8141	-0.1986	0.7078	1.1246	-0.2154	0.7329	1.5722	-0.635	0.2546	1.4099	0.5455	-0.442	0.3581	-1.063	1.1721	-0.5791	1.3987	-1.5106
0.386	0.2378	0.5483	0.6994	-0.3133	0.6294	1.0099	-0.3469	0.6015	1.4183	-0.7133	0.0979	1.2113	0.4979	-0.4112	0.3217	-1.0099	1.0406	-0.5875	1.2393	-1.4882
0.4	0.2014	0.5063	0.6322	-0.428	0.5035	0.8952	-0.484	0.4364	1.2505	-0.7805	-0.0727	1.0155	0.4896	-0.3916	0.2909	-0.9679	0.8868	-0.621	1.0658	-1.4407
0.3693	0.1371	0.4336	0.5287	-0.5567	0.3721	0.7665	-0.6154	0.2574	1.0406	-0.8812	-0.2853	0.7973	0.4616	-0.386	0.221	-0.9092	0.7469	-0.635	0.856	-1.4015
0.3581	0.1259	0.3693	0.4448	-0.6742	0.2322	0.6462	-0.7413	0.0895	0.8504	-0.9735	-0.456	0.5623	0.4476	-0.3441	0.1874	-0.8672	0.5875	-0.6406	0.6434	-1.3596
0.3441	0.0336	0.2853	0.3329	-0.8448	0.1147	0.4979	-0.9092	-0.0979	0.6294	-1.0798	-0.6686	0.3105	0.4112	-0.3049	0.1427	-0.8197	0.414	-0.663	0.4392	-1.3036
0.3105	-0.0504	0.2098	0.2098	-0.9791	-0.028	0.3637	-1.0686	-0.2853	0.414	-1.1721	-0.8728	0.0699	0.386	-0.2993	0.1035	-0.7721	0.2686	-0.6546	0.2294	-1.2533
0.2518	-0.1091	0.1147	0.1371	-1.1218	-0.1678	0.1902	-1.2225	-0.5063	0.1986	-1.2533	-1.0798	-0.193	0.3637	-0.263	0.0643	-0.7273	0.1119	-0.6686	0.028	-1.1805
0.221	-0.207	0.0224	0.0056	-1.2728	-0.3105	0.0532	-1.3484	-0.6854	-0.0056	-1.3316	-1.2561	-0.4364	0.3413	-0.2546	0.0448	-0.6882	-0.0643	-0.6826	-0.1287	-1.147
0.2014	-0.3021	-0.0559	-0.0615	-1.4211	-0.4364	-0.0643	-1.4743	-0.8644	-0.2098	-1.4295	-1.4435	-0.6714	0.3301	-0.2322	0.0056	-0.6518	-0.2126	-0.6854	-0.2602	-1.105
0.1623	-0.3832	-0.1427	-0.1483	-1.5526	-0.5791	-0.2434	-1.6057	-1.0434	-0.4112	-1.491	-1.6197	-0.9176	0.3161	-0.193	-0.0112	-0.6182	-0.3693	-0.677	-0.3497	-1.0434
0.0895	-0.4728	-0.2546	-0.2378	-1.6953	-0.7273	-0.3916	-1.726	-1.2057	-0.635	-1.5414	-1.7876	-1.147	0.2937	-0.1678	-0.0084	-0.5903	-0.4951	-0.6686	-0.4392	-0.9763
0.0504	-0.6126	-0.3497	-0.3609	-1.8211	-0.842	-0.5315	-1.8491	-1.3987	-0.8308	-1.6169	-1.961	-1.3875	0.2741	-0.1539	-0.028	-0.5511	-0.6602	-0.6994	-0.5147	-0.9595
-0.0056	-0.7106	-0.4364	-0.4588	-1.9554	-0.9567	-0.663	-1.9638	-1.5498	-1.0239	-1.698	-2.1205	-1.6029	0.2602	-0.1427	-0.0084	-0.5147	-0.7805	-0.6938	-0.5455	-0.9232
-0.042	-0.8057	-0.5063	-0.5007	-2.0701	-1.0658	-0.8029	-2.0673	-1.7176	-1.2085	-1.782	-2.2715	-1.8407	0.2546	-0.0895	0.0168	-0.5035	-0.9148	-0.6798	-0.5847	-0.8812
-0.1147	-0.9455	-0.6015	-0.5931	-2.2128	-1.1889	-0.9371	-2.1764	-1.8547	-1.4043	-1.8743	-2.4086	-2.0505	0.235	-0.0587	0.0504	-0.4784	-1.0462	-0.705	-0.6098	-0.8476
-0.1734	-1.049	-0.6938	-0.649	-2.3359	-1.2728	-1.0351	-2.2715	-2.0114	-1.5666	-1.9358	-2.5457	-2.2491	0.2378	-0.0448	0.0643	-0.4756	-1.1553	-0.7161	-0.5903	-0.828
-0.235	-1.1525	-0.7777	-0.705	-2.4366	-1.3568	-1.1497	-2.3722	-2.1233	-1.726	-2.0365	-2.652	-2.4366	0.221	0.0196	0.1511	-0.47	-1.2533	-0.7329	-0.5875	-0.856
-0.2602	-1.2505	-0.8197	-0.7161	-2.5345	-1.4267	-1.2225	-2.4757	-2.2296	-1.8211	-2.0925	-2.7359	-2.596	0.2322	0.0951	0.2042	-0.4896	-1.3512	-0.7665	-0.5707	-0.8532
-0.2909	-1.3596	-0.8812	-0.7693	-2.624	-1.5134	-1.3148	-2.582	-2.3443	-1.9582	-2.21	-2.8478	-2.7527	0.235	0.1315	0.2937	-0.4784	-1.4603	-0.8085	-0.5791	-0.912
-0.3581	-1.4575	-0.9455	-0.7665	-2.7443	-1.5526	-1.368	-2.6716	-2.4394	-2.0617	-2.2911	-2.9289	-2.9149	0.2406	0.1595	0.3637	-0.47	-1.5442	-0.8616	-0.5707	-0.9567
-0.3721	-1.5218	-0.9819	-0.7721	-2.8002	-1.6085	-1.4043	-2.7415	-2.4981	-2.1317	-2.389	-2.9793	-3.0184	0.249	0.2378	0.4784	-0.4896	-1.6085	-0.9427	-0.5203	-1.0155
-0.3665	-1.6113	-0.9903	-0.7525	-2.8646	-1.6169	-1.4295	-2.8338	-2.5569	-2.21	-2.4925	-3.038	-3.1415	0.2546	0.2797	0.607	-0.4979	-1.6673	-0.9931	-0.4979	-1.091
-0.3944	-1.6673	-1.0239	-0.7385	-2.9317	-1.6561	-1.4463	-2.9289	-2.6128	-2.2603	-2.5904	-3.0772	-3.2506	0.2546	0.3385	0.7189	-0.4951	-1.7456	-1.0882	-0.4616	-1.1693
-0.3665	-1.7064	-1.0267	-0.6854	-2.9653	-1.6645	-1.4295	-2.9961	-2.6492	-2.2995	-2.6855	-3.094	-3.3429	0.2434	0.428	0.8784	-0.5007	-1.8127	-1.1442	-0.3916	-1.2616
-0.3553	-1.7428	-1.0211	-0.635	-3.0073	-1.6841	-1.4323	-3.0576	-2.6772	-2.3471	-2.7751	-3.1164	-3.4353	0.235	0.4756	1.0155	-0.4924	-1.8771	-1.2365	-0.3749	-1.3624
-0.3245	-1.7344	-1.0043	-0.5735	-3.0128	-1.6729	-1.4071	-3.0996	-2.7051	-2.3666	-2.901	-3.1331	-3.5444	0.2434	0.5483	1.1553	-0.4979	-1.9135	-1.3176	-0.3105	-1.4743
-0.2797	-1.7288	-0.9595	-0.484	-3.0073	-1.6281	-1.3568	-3.1164	-2.6688	-2.3219	-2.9849	-3.1108	-3.5556	0.2574	0.6182	1.3036	-0.5119	-1.933	-1.4015	-0.249	-1.5806
-0.2042	-1.6645	-0.8588	-0.4112	-2.9401	-1.5862	-1.312	-3.1052	-2.6492	-2.3247	-3.0548	-3.1108	-3.6031	0.2602	0.7273	1.4407	-0.5175	-2.0002	-1.4854	-0.2182	-1.7036
-0.1455	-1.6337	-0.7973	-0.3077	-2.9149	-1.5218	-1.2561	-3.1052	-2.6184	-2.2995	-3.1219	-3.0576	-3.6255	0.249	0.7665	1.5722	-0.4979	-2.0337	-1.5442	-0.2014	-1.8127
-0.0559	-1.533	-0.7133	-0.207	-2.8198	-1.4603	-1.1581	-3.108	-2.5485	-2.2463	-3.1695	-2.9877	-3.6395	0.2574	0.8672	1.7092	-0.5007	-2.0673	-1.5945	-0.1678	-1.9051
0.0308	-1.4407	-0.6322	-0.1147	-2.7443	-1.3847	-1.0938	-3.052	-2.4729	-2.21	-3.231	-2.9289	-3.6227	0.235	0.9064	1.7988	-0.47	-2.1177	-1.6337	-0.193	-1.9918
0.1567	-1.3288	-0.5007	-0.0084	-2.624	-1.284	-0.9903	-3.0324	-2.3806	-2.1233	-3.259	-2.8394	-3.6143	0.2238	0.9987	1.9162	-0.4504	-2.1372	-1.6701	-0.2294	-2.0701
0.2602	-1.2169	-0.428	0.0867	-2.5289	-1.2057	-0.9092	-2.9905	-2.3219	-2.0869	-3.3066	-2.7667	-3.5751	0.1986	1.0602	1.9946	-0.4	-2.1736	-1.7064	-0.2714	-2.1624
0.3497	-1.0994	-0.3049	0.1958	-2.3862	-1.0854	-0.828	-2.9037	-2.224	-2.0198	-3.2954	-2.6911	-3.5583	0.1762	1.1246	2.0589	-0.3609	-2.2296	-1.712	-0.3357	-2.2324
0.4616	-0.9455	-0.1874	0.2769	-2.238	-0.9847	-0.7301	-2.8086	-2.1037	-1.9302	-3.2954	-2.5541	-3.5024	0.1371	1.2085	2.1093	-0.3021	-2.2827	-1.7288	-0.428	-2.2799
0.5735	-0.7777	-0.0895	0.3609	-2.0729	-0.8644	-0.6406	-2.7219	-1.989	-1.8491	-3.2898	-2.4506	-3.4465	0.1175	1.2644	2.1317	-0.2434	-2.3079	-1.7064	-0.5007	-2.3303
0.6826	-0.635	0.0392	0.4532	-1.9051	-0.7469	-0.5315	-2.6268	-1.8687	-1.768	-3.2422	-2.3247	-3.3653	0.0811	1.3232	2.1456	-0.1734	-2.3359	-1.6505	-0.5679	-2.3331
0.8141	-0.4336	0.179	0.5707	-1.7148	-0.621	-0.414	-2.4813	-1.7064	-1.6477	-3.2087	-2.1652	-3.2842	0.042	1.4015	2.1764	-0.0979	-2.3415	-1.6029	-0.6378	-2.3554
0.9008	-0.2825	0.2881	0.635	-1.5638	-0.4979	-0.3245	-2.3722	-1.5722	-1.5722	-3.1723	-2.0253	-3.2003	0.0252	1.4491	2.1261	-0.0196	-2.3806	-1.5554	-0.6994	-2.3834
1.0351	-0.1175	0.4224	0.7189	-1.3652	-0.3637	-0.2266	-2.2184	-1.4127	-1.4938	-3.1219	-1.8939	-3.108	-0.0308	1.4966	2.1065	0.0587	-2.3806	-1.5078	-0.7385	-2.403
1.119	0.0476	0.5287	0.7833	-1.1609	-0.2322	-0.1539	-2.0589	-1.2672	-1.4155	-3.0688	-1.7624	-3.0045	-0.0755	1.547	2.0813	0.1399	-2.417	-1.4239	-0.7749	-2.3694
1.2365	0.2238	0.6658	0.8504	-0.9483	-0.0979	-0.0252	-1.8995	-1.0854	-1.3064	-2.9513	-1.5834	-2.8898	-0.1035	1.575	2.0421	0.2098	-2.3974	-1.354	-0.7749	-2.3499
1.3288	0.3916	0.7693	0.9148	-0.7749	0.0224	0.0336	-1.7512	-0.9092	-1.2113	-2.8562	-1.4071	-2.7611	-0.1539	1.575	1.989	0.2993	-2.3862	-1.2756	-0.7889	-2.3275
1.3875	0.5371	0.87	0.9511	-0.5735	0.1483	0.1287	-1.5917	-0.7609	-1.119	-2.7471	-1.2672	-2.6576	-0.1762	1.5862	1.9526	0.3609	-2.3666	-1.1861	-0.7973	-2.2939
1.4826	0.6938	0.9763	1.0043	-0.3916	0.2546	0.1902	-1.4267	-0.6042	-1.0239	-2.6352	-1.1134	-2.5261	-0.2266	1.575	1.8771	0.442	-2.3582	-1.105	-0.7749	-2.2436
1.5582	0.8141	1.0938	1.0574	-0.207	0.3777	0.2741	-1.2505	-0.4392	-0.912	-2.4841	-0.9399	-2.3666	-0.2434	1.5554	1.7988	0.4812	-2.2995	-1.0155	-0.7581	-2.1764
1.6169	0.9567	1.1973	1.0826	-0.0168	0.4728	0.3777	-1.0798	-0.263	-0.7777	-2.3527	-0.7637	-2.2184	-0.2462	1.5358	1.7624	0.5035	-2.2436	-0.9511	-0.7078	-2.1065
1.6421	1.0602	1.2589	1.105	0.1427	0.5791	0.4336	-0.9036	-0.1063	-0.6798	-2.1848	-0.5987	-2.0533	-0.263	1.4798	1.6813	0.5259	-2.1904	-0.8336	-0.649	-2.0421
1.7148	1.147	1.326	1.1414	0.2881	0.6686	0.4868	-0.7469	0.0392	-0.5483	-2.0393	-0.456	-1.8883	-0.263	1.4463	1.5722	0.5259	-2.1149	-0.7525	-0.607	-1.9582
1.726	1.2533	1.3931	1.1358	0.4812	0.7497	0.5651	-0.5735	0.179	-0.4392	-1.8687	-0.2714	-1.7232	-0.2602	1.3931	1.4966	0.4979	-2.0226	-0.6434	-0.5259	-1.8771
1.782	1.3288	1.4435	1.1665	0.6294	0.8169	0.6238	-0.428	0.3301	-0.2937	-1.7064	-0.1147	-1.5246	-0.2266	1.3652	1.4407	0.4308	-1.8911	-0.5119	-0.4308	-1.7904
1.7596	1.3819	1.4743	1.133	0.7357	0.8616	0.6938	-0.2797	0.4112	-0.1958	-1.5722	0.0252	-1.3624	-0.2042	1.3008	1.312	0.3944	-1.782	-0.442	-0.3469	-1.726
1.7736	1.4295	1.491	1.1442	0.842	0.9092	0.7413	-0.1595	0.5119	-0.0476	-1.4211	0.1455	-1.147	-0.1678	1.2113	1.2197	0.3329	-1.6701	-0.3525	-0.2686	-1.6645
1.7932	1.4575	1.5134	1.1525	0.9343	0.9651	0.8029	-0.0252	0.6238	0.0895	-1.2589	0.2797	-0.9427	-0.1147	1.1581	1.1274	0.2322	-1.5442	-0.263	-0.1874	-1.5694
1.754	1.4575	1.5302	1.1414	1.0015	0.9819	0.8532	0.0923	0.7133	0.2014	-1.1386	0.4	-0.7553	-0.0783	1.0798	1.0155	0.1511	-1.3875	-0.2126	-0.1259	-1.5386
1.768	1.4687	1.5274	1.1442	1.0826	1.0211	0.9148	0.207	0.8113	0.3693	-0.9819	0.5231	-0.5287	-0.0196	1.0295	0.926	0.0364	-1.2197	-0.1203	-0.0364	-1.4575
1.7288	1.4631	1.505	1.1386	1.1525	1.0295	0.9623	0.3217	0.9008	0.4924	-0.8252	0.6574	-0.3357	0.0308	0.9539	0.8588	-0.0671	-1.0882	-0.0671	0.014	-1.3735
1.7204	1.4547	1.491	1.1497	1.1889	1.0267	0.9987	0.4056	0.9763	0.6406	-0.663	0.7805	-0.1231	0.0923	0.8784	0.7721	-0.1818	-0.9092	-0.0028	0.0559	-1.326
1.6645	1.4295	1.4631	1.1665	1.2365	1.0434	1.0742	0.5287	1.0742	0.8057	-0.5343	0.9232	0.1119	0.1511	0.8364	0.7078	-0.3021	-0.7609	0.0643	0.1091	-1.27
1.6477	1.4099	1.4659	1.1805	1.2644	1.0602	1.133	0.6266	1.1581	0.9483	-0.3609	1.0379	0.3441	0.2098	0.7917	0.6686	-0.4196	-0.6015	0.1231	0.1706	-1.1721
1.6141	1.3875	1.4323	1.1777	1.3092	1.0462	1.1945	0.7357	1.2449	1.1106	-0.2154	1.1665	0.5735	0.2741	0.7385	0.6238	-0.5567	-0.428	0.1874	0.2434	-1.0742
1.547	1.3484	1.3652	1.1749	1.3064	1.0406	1.2421	0.7833	1.312	1.2589	-0.0587	1.2812	0.7805	0.3357	0.6882	0.5931	-0.6826	-0.2714	0.2154	0.3021	-1.0155
1.519	1.2896	1.3176	1.1609	1.3064	1.0323	1.2868	0.8756	1.368	1.3987	0.0951	1.3819	0.9875	0.4	0.6266	0.5875	-0.8085	-0.1455	0.2686	0.3665	-0.926
1.4351	1.2533	1.2505	1.1637	1.3008	0.9791	1.3204	0.9399	1.4071	1.5218	0.2294	1.4687	1.2029	0.4532	0.5651	0.5371	-0.9092	0	0.2993	0.428	-0.8532
1.3819	1.2001	1.1945	1.147	1.312	0.9707	1.3652	1.0211	1.4603	1.6449	0.3665	1.5638	1.4071	0.5119	0.4951	0.5343	-1.0267	0.1623	0.3497	0.5007	-0.7469
1.2868	1.1022	1.077	1.0938	1.2281	0.8924	1.3652	1.0406	1.4715	1.7288	0.47	1.6253	1.5386	0.5483	0.456	0.4812	-1.1022	0.2769	0.3777	0.5455	-0.6602
1.1749	1.0155	0.9819	1.049	1.1917	0.8672	1.3791	1.0826	1.4854	1.8267	0.5931	1.6841	1.6953	0.6015	0.3805	0.4588	-1.1917	0.3972	0.4084	0.5847	-0.5707
1.063	0.9204	0.8588	1.0015	1.1078	0.7945	1.3624	1.105	1.4826	1.8771	0.6882	1.7092	1.8379	0.6182	0.2714	0.414	-1.2533	0.5091	0.456	0.6098	-0.4672
0.9455	0.8169	0.7329	0.9511	1.0406	0.7413	1.3456	1.0798	1.4435	1.9358	0.7301	1.7232	1.9498	0.649	0.2154	0.4	-1.3092	0.6322	0.484	0.6434	-0.4084
0.8057	0.7106	0.5959	0.8672	0.9232	0.6378	1.2952	1.0295	1.4043	1.9694	0.7693	1.7008	2.0533	0.6742	0.0951	0.3581	-1.3456	0.7022	0.5175	0.6574	-0.3273
0.6546	0.5987	0.47	0.7973	0.8252	0.5595	1.2477	0.9735	1.354	2.003	0.7945	1.6729	2.1065	0.6938	0.0056	0.3217	-1.4015	0.7945	0.5315	0.691	-0.2686
0.5427	0.4756	0.3413	0.7189	0.7217	0.456	1.2085	0.912	1.2756	2.003	0.7777	1.6169	2.182	0.7301	-0.0923	0.2825	-1.4603	0.8672	0.5651	0.7301	-0.2098
0.3665	0.3385	0.2014	0.6322	0.5735	0.3273	1.119	0.8113	1.1721	1.9778	0.7078	1.5078	2.1876	0.7413	-0.2154	0.2098	-1.4798	0.9427	0.5763	0.7749	-0.221
0.2238	0.2126	0.0727	0.5091	0.4448	0.2434	1.0546	0.7106	1.0686	1.9554	0.6378	1.3931	2.2016	0.7637	-0.2993	0.1958	-1.5274	1.0127	0.5707	0.8029	-0.1986
0.0643	0.0867	-0.0839	0.3944	0.2574	0.1147	0.9511	0.5651	0.9204	1.8967	0.5287	1.2421	2.168	0.7693	-0.442	0.0923	-1.547	1.0826	0.5679	0.8141	-0.2322
-0.1231	-0.0615	-0.2434	0.2602	0.0755	-0.0252	0.8336	0.4	0.7525	1.796	0.3888	1.0826	2.1121	0.7805	-0.5791	0.0224	-1.5666	1.1162	0.5567	0.8252	-0.2658
-0.2993	-0.2014	-0.4	0.1511	-0.1203	-0.1595	0.7357	0.2126	0.5539	1.712	0.2406	0.8756	2.0393	0.8001	-0.7357	-0.0895	-1.5806	1.1609	0.5203	0.8308	-0.3133
-0.4951	-0.3665	-0.5847	-0.0392	-0.3553	-0.3749	0.5651	0.014	0.3609	1.5666	0.0643	0.6686	1.9051	0.7917	-0.8672	-0.2518	-1.5722	1.1609	0.4616	0.8057	-0.3693
-0.6826	-0.5175	-0.7357	-0.2014	-0.5455	-0.5399	0.4112	-0.1986	0.1259	1.4407	-0.1203	0.4336	1.782	0.7861	-1.0295	-0.3805	-1.561	1.1665	0.4084	0.7469	-0.4196
-0.8756	-0.7189	-0.9483	-0.3665	-0.7973	-0.7413	0.221	-0.4392	-0.1287	1.2756	-0.3385	0.1762	1.5973	0.7693	-1.1917	-0.5231	-1.533	1.1609	0.3497	0.6854	-0.5091
-1.133	-0.8924	-1.1414	-0.5959	-1.0546	-0.9539	0	-0.6854	-0.3916	1.0546	-0.5511	-0.1231	1.4407	0.7441	-1.3819	-0.7106	-1.4994	1.1358	0.2378	0.5959	-0.607
-1.3763	-1.0938	-1.4015	-0.828	-1.3316	-1.2029	-0.2434	-0.9567	-0.6602	0.8197	-0.7609	-0.4	1.2085	0.7469	-1.5386	-0.8728	-1.4631	1.0994	0.1455	0.5203	-0.6966
-1.5889	-1.3372	-1.6393	-1.0742	-1.6057	-1.4575	-0.4924	-1.2365	-0.9623	0.5819	-0.9735	-0.7022	1.0043	0.7106	-1.7148	-1.0546	-1.4239	1.063	0.0252	0.4448	-0.7805
-1.8659	-1.5302	-1.8743	-1.3288	-1.8631	-1.7148	-0.7581	-1.519	-1.2477	0.3357	-1.1945	-0.9763	0.7945	0.7078	-1.8659	-1.2337	-1.3987	1.0071	-0.1091	0.3525	-0.8868
-2.1093	-1.7596	-2.1568	-1.5945	-2.1568	-2.0058	-1.0406	-1.8016	-1.5582	0.042	-1.4155	-1.2868	0.5511	0.6826	-2.0561	-1.4239	-1.3707	0.9427	-0.2238	0.249	-0.9791
-2.3666	-1.989	-2.4114	-1.8799	-2.431	-2.2743	-1.3008	-2.0533	-1.8603	-0.2182	-1.5889	-1.5414	0.3077	0.6826	-2.2212	-1.6337	-1.3707	0.8952	-0.3497	0.1706	-1.0518
-2.6212	-2.2156	-2.666	-2.1484	-2.7191	-2.5401	-1.5973	-2.3191	-2.1456	-0.5007	-1.7568	-1.8127	0.0643	0.6966	-2.375	-1.7904	-1.3707	0.8336	-0.5007	0.0671	-1.1274
-2.887	-2.445	-2.9457	-2.445	-2.9961	-2.8338	-1.8687	-2.5736	-2.4366	-0.7749	-1.9051	-2.0617	-0.1846	0.6966	-2.5485	-1.9722	-1.3707	0.7833	-0.6126	0.0168	-1.1609
-3.1695	-2.6827	-3.2394	-2.7471	-3.2786	-3.1387	-2.1568	-2.8142	-2.7331	-1.0658	-2.0589	-2.2771	-0.4112	0.7022	-2.7135	-2.1512	-1.3791	0.7385	-0.7413	-0.0587	-1.1833
-3.4297	-2.9177	-3.5528	-3.0212	-3.5556	-3.4409	-2.4506	-3.0464	-3.024	-1.3596	-2.1596	-2.4953	-0.6602	0.6966	-2.8562	-2.3107	-1.3931	0.691	-0.8532	-0.0979	-1.2113
-3.7066	-3.1863	-3.8801	-3.3485	-3.8185	-3.7486	-2.7611	-3.2814	-3.3206	-1.6673	-2.2575	-2.7219	-0.9148	0.7106	-3.0492	-2.4841	-1.4099	0.6378	-0.9987	-0.165	-1.2225
-3.9556	-3.4492	-4.1626	-3.6395	-4.0675	-4.0563	-3.052	-3.4716	-3.5639	-1.947	-2.3051	-2.8814	-1.1274	0.7245	-3.2003	-2.652	-1.4323	0.5931	-1.1162	-0.2042	-1.2281
-4.2269	-3.7066	-4.4983	-3.9416	-4.3416	-4.3752	-3.3513	-3.6926	-3.8409	-2.2463	-2.3946	-3.0828	-1.3763	0.7301	-3.3821	-2.8058	-1.4463	0.5343	-1.2644	-0.2658	-1.2253
-4.4843	-3.964	-4.7976	-4.2381	-4.6158	-4.6605	-3.6535	-3.8884	-4.0955	-2.5429	-2.4282	-3.245	-1.6281	0.7413	-3.5304	-2.9345	-1.4743	0.5147	-1.3959	-0.3049	-1.2141
-4.7417	-4.2241	-5.1081	-4.5011	-4.8676	-4.9319	-3.922	-4.0395	-4.3304	-2.8226	-2.4562	-3.3709	-1.8295	0.7553	-3.6814	-3.0884	-1.5022	0.4728	-1.519	-0.3553	-1.2001
-4.9739	-4.4815	-5.4047	-4.778	-5.083	-5.2088	-4.1962	-4.2269	-4.5542	-3.094	-2.4645	-3.494	-2.0617	0.7861	-3.8213	-3.2255	-1.5386	0.4168	-1.6449	-0.4168	-1.1553
-5.206	-4.7529	-5.6956	-5.0242	-5.3068	-5.4998	-4.4871	-4.3612	-4.7668	-3.3429	-2.4478	-3.5695	-2.2715	0.8029	-3.9388	-3.3597	-1.5862	0.3805	-1.768	-0.4951	-1.0966
-5.3991	-5.0046	-5.9558	-5.2788	-5.5166	-5.7208	-4.7249	-4.4843	-4.9403	-3.6199	-2.4338	-3.6647	-2.4757	0.828	-4.0367	-3.4437	-1.6365	0.3217	-1.8827	-0.5511	-1.0462
-5.6341	-5.2508	-6.2215	-5.5361	-5.718	-5.9697	-4.985	-4.5878	-5.1221	-3.8689	-2.4254	-3.7374	-2.6995	0.8588	-4.1374	-3.5779	-1.6869	0.2658	-2.0142	-0.6266	-0.9931
-5.7823	-5.483	-6.4677	-5.7599	-5.8942	-6.1824	-5.2228	-4.6773	-5.2564	-4.0955	-2.3638	-3.7738	-2.887	0.87	-4.2157	-3.6479	-1.7372	0.1902	-2.0757	-0.7022	-0.9092
-5.9753	-5.7124	-6.6747	-5.9642	-6.0509	-6.3866	-5.441	-4.7445	-5.3991	-4.3221	-2.2995	-3.8017	-3.0576	0.9008	-4.2969	-3.7402	-1.7792	0.1259	-2.1988	-0.7749	-0.8588
-6.0984	-5.8914	-6.8929	-6.1348	-6.2159	-6.5572	-5.6313	-4.8284	-5.497	-4.5291	-2.2296	-3.7905	-3.2031	0.9148	-4.3165	-3.7989	-1.8155	0.0504	-2.2491	-0.856	-0.7637
-6.2439	-6.0928	-7.0663	-6.3054	-6.3558	-6.7446	-5.8159	-4.8648	-5.5977	-4.7361	-2.1261	-3.7793	-3.3597	0.9288	-4.3556	-3.8661	-1.8547	-0.0112	-2.2911	-0.9539	-0.6882
-6.3474	-6.2215	-7.251	-6.4425	-6.4481	-6.8649	-5.9781	-4.8704	-5.6257	-4.8731	-2.0309	-3.7094	-3.4101	0.9539	-4.3864	-3.9472	-1.8827	-0.042	-2.3359	-0.9959	-0.5847
-6.4285	-6.3446	-7.3433	-6.5572	-6.546	-6.9517	-6.1068	-4.8704	-5.6704	-4.9934	-1.9246	-3.6283	-3.522	0.9483	-4.3948	-3.9752	-1.8911	-0.1259	-2.3527	-1.0798	-0.5147
-6.4789	-6.4481	-7.4552	-6.6411	-6.6076	-7.0076	-6.2103	-4.8564	-5.6508	-5.1053	-1.7904	-3.5248	-3.5667	0.9511	-4.406	-4.0199	-1.8939	-0.179	-2.3499	-1.1442	-0.4308
-6.5152	-6.5152	-7.5223	-6.6999	-6.6383	-7.0384	-6.2719	-4.8228	-5.6005	-5.1837	-1.6617	-3.4101	-3.6059	0.9399	-4.3752	-4.0283	-1.8771	-0.2574	-2.3191	-1.2085	-0.3525
-6.5013	-6.518	-7.5111	-6.7307	-6.6216	-7.0244	-6.297	-4.7473	-5.5305	-5.2144	-1.5246	-3.2758	-3.6115	0.9176	-4.3556	-4.0311	-1.8463	-0.3385	-2.2939	-1.2728	-0.2658
-6.4481	-6.4873	-7.4776	-6.6831	-6.5824	-6.988	-6.2775	-4.6605	-5.427	-5.1921	-1.3763	-3.1136	-3.5947	0.9036	-4.3109	-4.0227	-1.8155	-0.4056	-2.238	-1.2896	-0.1874
-6.3586	-6.4285	-7.4188	-6.616	-6.4985	-6.8901	-6.2551	-4.5598	-5.2676	-5.1809	-1.2337	-2.9261	-3.5248	0.8784	-4.2269	-3.9696	-1.7624	-0.4644	-2.1624	-1.3092	-0.1287
-6.2019	-6.3362	-7.2817	-6.5152	-6.395	-6.7334	-6.1684	-4.42	-5.1025	-5.1193	-1.0434	-2.7415	-3.4576	0.8392	-4.1262	-3.908	-1.6757	-0.5679	-2.1121	-1.326	-0.0923
-6.0341	-6.1684	-7.1167	-6.3418	-6.2439	-6.5684	-6.0509	-4.2493	-4.9235	-5.0102	-0.884	-2.5121	-3.3513	0.7973	-4.0031	-3.8353	-1.5862	-0.6182	-2.0198	-1.3148	-0.0448
-5.8383	-5.9977	-6.9125	-6.1796	-6.0733	-6.3866	-5.9054	-4.0871	-4.7025	-4.9179	-0.7301	-2.2995	-3.2366	0.7078	-3.8884	-3.7374	-1.4463	-0.7245	-1.9414	-1.3148	0.0056
-5.5949	-5.746	-6.6579	-5.9614	-5.8551	-6.1404	-5.7068	-3.8968	-4.4395	-4.7389	-0.5623	-2.0645	-3.0856	0.649	-3.7234	-3.5639	-1.3092	-0.8448	-1.8631	-1.27	0.042
-5.3151	-5.4942	-6.3502	-5.7068	-5.6257	-5.869	-5.497	-3.6814	-4.1906	-4.5375	-0.4196	-1.8435	-2.9149	0.5651	-3.55	-3.4157	-1.1274	-0.9315	-1.7988	-1.2365	0.0783
-4.9655	-5.1529	-5.9921	-5.3935	-5.3319	-5.5222	-5.1921	-3.4157	-3.8884	-4.2941	-0.2182	-1.5778	-2.7163	0.4756	-3.3569	-3.2674	-0.9511	-1.0546	-1.7148	-1.1693	0.1343
-4.599	-4.8144	-5.6033	-5.0606	-4.9934	-5.1725	-4.8899	-3.1471	-3.5304	-4.0227	-0.042	-1.3008	-2.4757	0.3693	-3.1359	-3.0688	-0.7357	-1.1693	-1.6169	-1.077	0.1678
-4.185	-4.406	-5.1501	-4.6773	-4.6354	-4.7529	-4.5347	-2.8562	-3.1359	-3.7318	0.1567	-1.0183	-2.2184	0.2518	-2.901	-2.8338	-0.5063	-1.284	-1.533	-0.9875	0.1678
-3.757	-3.9752	-4.6577	-4.2801	-4.2661	-4.3109	-4.157	-2.5401	-2.7415	-3.3877	0.3665	-0.7441	-1.933	0.1231	-2.6436	-2.6016	-0.2574	-1.4127	-1.4183	-0.856	0.2378
-3.287	-3.4968	-4.1514	-3.7905	-3.8185	-3.8381	-3.715	-2.1792	-2.3135	-2.9961	0.5931	-0.4168	-1.6421	0	-2.3275	-2.3303	-0.0084	-1.5498	-1.2784	-0.7693	0.2909
-2.7946	-2.9933	-3.5779	-3.3429	-3.3681	-3.3374	-3.245	-1.8295	-1.8519	-2.5625	0.8364	-0.0867	-1.3092	-0.1231	-2.0114	-2.0645	0.2574	-1.7148	-1.1581	-0.6798	0.3609
-2.2715	-2.4673	-2.9793	-2.8226	-2.8534	-2.7863	-2.7639	-1.4099	-1.4071	-2.1317	1.091	0.263	-1.0015	-0.2658	-1.6673	-1.7624	0.5175	-1.8547	-0.9819	-0.5959	0.442
-1.7288	-1.9079	-2.3666	-2.2995	-2.3471	-2.1904	-2.2296	-1.0099	-0.8896	-1.6533	1.354	0.6238	-0.6546	-0.3944	-1.3092	-1.4687	0.7833	-2.0086	-0.8224	-0.5063	0.5231
-1.1833	-1.3596	-1.7428	-1.7568	-1.8295	-1.6253	-1.7148	-0.5707	-0.386	-1.1945	1.6337	0.9819	-0.2909	-0.5343	-0.9595	-1.1218	1.049	-2.182	-0.6154	-0.4504	0.6238
-0.6406	-0.7861	-1.077	-1.1749	-1.3036	-1.0406	-1.133	-0.1455	0.1287	-0.705	1.8799	1.326	0.042	-0.6658	-0.5567	-0.7469	1.312	-2.3694	-0.4532	-0.3972	0.6994
-0.0671	-0.2154	-0.4252	-0.5931	-0.7189	-0.428	-0.5679	0.2993	0.6378	-0.2098	2.1428	1.6505	0.3888	-0.8057	-0.1567	-0.414	1.5778	-2.5485	-0.2406	-0.3609	0.7693
0.4896	0.3357	0.207	-0.042	-0.1846	0.1231	-0.0504	0.7189	1.1162	0.2462	2.3918	1.9498	0.6938	-0.9567	0.2434	-0.0252	1.8771	-2.7443	-0.0224	-0.3413	0.8532
1.0183	0.8784	0.8392	0.5315	0.3497	0.7133	0.5007	1.1302	1.5973	0.6966	2.6184	2.2547	0.9819	-1.0826	0.6742	0.3413	2.1624	-2.9653	0.179	-0.3469	0.8952
1.561	1.4211	1.4407	1.0518	0.87	1.2672	1.0462	1.5666	2.0617	1.1442	2.887	2.5457	1.2533	-1.2393	1.0714	0.7217	2.4506	-3.2059	0.3693	-0.3609	0.9315
2.0897	1.9358	2.0309	1.5973	1.3987	1.8099	1.5694	1.9638	2.5037	1.5806	3.0828	2.803	1.4994	-1.3819	1.4715	1.1162	2.7415	-3.4604	0.5707	-0.3525	0.9595
2.5764	2.4534	2.6352	2.1261	1.9135	2.3443	2.0813	2.3862	2.9457	1.989	3.3094	3.0212	1.7344	-1.5078	1.8743	1.4966	3.0128	-3.6982	0.7861	-0.3497	0.9903
3.0688	2.9233	3.1863	2.6044	2.3918	2.8198	2.5233	2.7415	3.3346	2.3666	3.5024	3.2394	1.9442	-1.6617	2.238	1.8547	3.2954	-3.9416	0.9707	-0.3469	1.0071
3.5164	3.3653	3.715	3.0772	2.8674	3.315	2.9989	3.1303	3.7402	2.7471	3.6954	3.466	2.1568	-1.7848	2.6324	2.2408	3.5332	-4.1654	1.1889	-0.3329	1.0267
3.9416	3.7849	4.2046	3.5248	3.3066	3.7458	3.4101	3.4744	4.1094	3.0968	3.9108	3.6479	2.3191	-1.9079	2.9933	2.5401	3.7738	-4.3836	1.3819	-0.2993	1.0239
4.3304	4.1822	4.6522	3.9136	3.6982	4.1794	3.7989	3.7961	4.4144	3.3877	4.0815	3.8157	2.4757	-2.017	3.3178	2.8702	3.9975	-4.6158	1.5778	-0.2714	1.0127
4.7053	4.5431	5.069	4.2941	4.0815	4.5822	4.143	4.0871	4.7193	3.6814	4.2269	3.9724	2.6156	-2.1009	3.6059	3.1779	4.1934	-4.8256	1.7512	-0.2182	1.0043
5.0774	4.8536	5.4494	4.641	4.4451	4.9123	4.4703	4.378	4.9962	3.9472	4.378	4.1122	2.7471	-2.2016	3.908	3.4772	4.3668	-5.027	1.9274	-0.2014	0.9819
5.3627	5.1585	5.7879	4.9627	4.7417	5.2396	4.7557	4.6214	5.2676	4.1794	4.4843	4.2185	2.8674	-2.2687	4.1374	3.6954	4.5095	-5.1977	2.0673	-0.0895	0.9539
5.6285	5.3711	6.0816	5.248	5.0354	5.5138	5.027	4.8564	5.4802	4.3864	4.6046	4.3193	2.9457	-2.3275	4.35	3.9472	4.6214	-5.3515	2.196	-0.0196	0.9232
5.8662	5.6005	6.3418	5.4914	5.2816	5.7767	5.2536	5.055	5.662	4.5486	4.6829	4.3976	3.0073	-2.375	4.571	4.1766	4.7081	-5.4914	2.2967	0.0643	0.8728
6.1068	5.7711	6.588	5.7292	5.5166	6.0061	5.469	5.22	5.8327	4.6941	4.7613	4.4647	3.0968	-2.403	4.7305	4.378	4.7501	-5.6089	2.3946	0.1706	0.7973
6.2887	5.9194	6.7726	5.939	5.6928	6.1684	5.6341	5.3431	5.9306	4.82	4.7724	4.4983	3.1219	-2.4142	4.8731	4.5682	4.7613	-5.6928	2.4506	0.2686	0.7133
6.4034	5.9865	6.8845	6.0844	5.8103	6.3082	5.7404	5.4159	6.0005	4.8843	4.7557	4.4731	3.1303	-2.3974	4.9655	4.7081	4.764	-5.7487	2.4757	0.4	0.5903
6.5404	6.0705	6.9908	6.1879	5.8998	6.4006	5.8383	5.4746	6.0621	4.9543	4.7473	4.4787	3.1415	-2.3694	5.0858	4.8787	4.7053	-5.7627	2.4981	0.5595	0.4644
6.5992	6.1096	7.0328	6.2775	5.9586	6.4593	5.8802	5.4718	6.0733	4.9906	4.6689	4.4228	3.108	-2.3499	5.1529	4.9934	4.6354	-5.7823	2.4757	0.7133	0.3105
6.6439	6.1096	7.044	6.3418	5.9502	6.4901	5.9278	5.4438	6.0313	4.9683	4.5598	4.3584	3.08	-2.2827	5.2116	5.1081	4.5123	-5.7655	2.4282	0.8588	0.1175
6.6579	6.0565	7.016	6.3726	5.8942	6.4341	5.8914	5.3571	5.9558	4.9487	4.4228	4.2577	3.0156	-2.1988	5.2312	5.1949	4.364	-5.7432	2.3554	1.0127	-0.0867
6.6299	5.9977	6.9712	6.3502	5.8271	6.3922	5.869	5.2676	5.8942	4.8704	4.2661	4.1458	2.9597	-2.1149	5.2564	5.262	4.185	-5.6816	2.2855	1.1861	-0.2853
6.6271	5.9222	6.8789	6.325	5.7348	6.3222	5.7963	5.1557	5.7795	4.7892	4.1374	4.0367	2.8954	-1.9946	5.2732	5.3179	3.964	-5.5781	2.196	1.3568	-0.5091
6.5516	5.8075	6.7866	6.2747	5.6089	6.1991	5.6984	5.0018	5.6452	4.6717	3.9332	3.9024	2.8058	-1.8939	5.2452	5.3123	3.7402	-5.4746	2.0869	1.5022	-0.7078
6.4565	5.6956	6.6439	6.1907	5.455	6.076	5.5921	4.834	5.4914	4.5458	3.7402	3.771	2.7135	-1.7484	5.206	5.3599	3.4772	-5.3375	1.9694	1.6561	-0.9288
6.3642	5.5333	6.4845	6.0816	5.276	5.9222	5.4634	4.6522	5.3235	4.3864	3.5304	3.6003	2.6128	-1.6253	5.1977	5.3431	3.2115	-5.206	1.8463	1.796	-1.1358
6.2607	5.4214	6.3278	5.9446	5.0802	5.7432	5.3012	4.4479	5.1249	4.2185	3.3429	3.452	2.5093	-1.4854	5.1473	5.3431	2.9261	-5.0382	1.7456	1.9218	-1.354
6.1432	5.262	6.1544	5.8187	4.8871	5.5529	5.1165	4.213	4.9291	4.0423	3.1164	3.2646	2.3946	-1.3316	5.083	5.2956	2.638	-4.862	1.6029	2.0253	-1.561
5.9949	5.0941	5.9697	5.6564	4.6549	5.3263	4.9095	3.978	4.6997	3.8325	2.9037	3.1024	2.2771	-1.1833	5.0186	5.2536	2.3554	-4.6885	1.4798	2.1065	-1.7652
5.8271	4.9291	5.7599	5.4522	4.4284	5.1081	4.6829	3.7626	4.4647	3.6003	2.6688	2.8954	2.1261	-1.0518	4.9039	5.2088	2.0813	-4.5151	1.3232	2.1484	-1.9666
5.704	4.7836	5.5529	5.2592	4.1878	4.8759	4.4591	3.4856	4.213	3.3877	2.4366	2.6995	1.9918	-0.9148	4.8088	5.1389	1.8071	-4.35	1.1721	2.1568	-2.1848
5.5501	4.6298	5.3711	5.0718	3.9668	4.6522	4.199	3.231	3.9836	3.1247	2.2128	2.4925	1.8631	-0.7889	4.7025	5.0522	1.5554	-4.1654	1.0155	2.1428	-2.3862
5.4103	4.4759	5.1809	4.8676	3.7122	4.4116	3.9892	2.9597	3.7234	2.873	2.0114	2.3163	1.7092	-0.663	4.613	4.9515	1.3036	-4.0031	0.8532	2.0701	-2.5485
5.2844	4.3109	4.9962	4.6466	3.4716	4.1598	3.7038	2.6967	3.4437	2.6268	1.7792	2.0869	1.5442	-0.5427	4.5151	4.862	1.0742	-3.8437	0.663	1.9918	-2.7583
5.1361	4.1626	4.8116	4.4591	3.2255	3.9388	3.4688	2.4701	3.2003	2.3862	1.5722	1.8939	1.3987	-0.428	4.4144	4.7668	0.8336	-3.6702	0.4868	1.9051	-2.9261
5.0158	4.0255	4.6605	4.2241	3.0017	3.7234	3.2422	2.2296	2.9625	2.1345	1.354	1.6953	1.2421	-0.3329	4.2941	4.6214	0.635	-3.5136	0.3133	1.7512	-3.0548
4.8871	3.8912	4.5151	4.0395	2.7835	3.5136	2.9989	1.961	2.7135	1.9051	1.147	1.5162	1.1134	-0.2378	4.2241	4.5235	0.4504	-3.3625	0.1427	1.6225	-3.2143
4.7752	3.771	4.3556	3.8661	2.5597	3.3038	2.8002	1.74	2.4897	1.6953	0.9595	1.3316	0.9903	-0.1427	4.1318	4.3864	0.2741	-3.2255	-0.0392	1.4938	-3.3262
4.6941	3.6563	4.2297	3.6591	2.3638	3.1219	2.5317	1.5358	2.2659	1.4687	0.7693	1.1553	0.8532	-0.0643	4.0675	4.3025	0.1175	-3.0548	-0.2154	1.3512	-3.4688
4.5766	3.508	4.1094	3.4353	2.1484	2.9429	2.3135	1.3036	2.0673	1.2337	0.5651	0.9791	0.7301	-0.0084	3.992	4.2157	0.0028	-2.9345	-0.3916	1.1889	-3.5863
4.4927	3.4129	3.9836	3.2562	1.9806	2.7415	2.1289	1.0994	1.8883	1.0686	0.3777	0.8057	0.649	0.042	3.9248	4.1066	-0.1231	-2.7863	-0.5679	1.0434	-3.6702
4.4088	3.2954	3.8968	3.0968	1.8071	2.5764	1.8911	0.912	1.6869	0.856	0.2322	0.6742	0.5399	0.1063	3.8968	4.0171	-0.221	-2.6688	-0.7357	0.9008	-3.7542
4.3193	3.1835	3.771	2.8786	1.6561	2.4226	1.7036	0.7301	1.5218	0.6994	0.0839	0.5539	0.4532	0.1595	3.8465	3.9444	-0.3217	-2.5485	-0.8812	0.705	-3.8073
4.2465	3.0912	3.6898	2.7219	1.5162	2.2855	1.5414	0.5763	1.3624	0.5651	-0.0252	0.4672	0.4224	0.207	3.8017	3.8521	-0.414	-2.3946	-0.9819	0.5651	-3.8381
4.157	2.9849	3.6171	2.5597	1.3847	2.1624	1.3819	0.442	1.2225	0.4364	-0.1147	0.3721	0.3805	0.2518	3.7793	3.7486	-0.4924	-2.2547	-1.1022	0.3832	-3.8493
4.0927	2.9037	3.5248	2.389	1.2756	2.0589	1.2365	0.3077	1.1078	0.3385	-0.1986	0.3049	0.3525	0.2797	3.687	3.6647	-0.5567	-2.1205	-1.1889	0.2182	-3.8549
4.0339	2.8422	3.4716	2.2631	1.1693	1.9414	1.0882	0.2378	1.0295	0.263	-0.2462	0.2546	0.3721	0.3049	3.6227	3.5528	-0.6098	-1.9862	-1.2589	0.0671	-3.8241
3.9696	2.7611	3.3877	2.1205	1.0994	1.8715	0.9875	0.1427	0.9567	0.193	-0.2741	0.2266	0.4028	0.3133	3.5192	3.4269	-0.6378	-1.8855	-1.326	-0.0979	-3.7989
3.8605	2.6688	3.3457	1.9862	1.0462	1.768	0.8868	0.0643	0.8728	0.1315	-0.263	0.2014	0.4336	0.3385	3.4101	3.2982	-0.6714	-1.7288	-1.3819	-0.2602	-3.7374
3.8157	2.5876	3.3066	1.8547	0.9539	1.7176	0.7833	0.0056	0.8141	0.0979	-0.2909	0.1902	0.4756	0.3525	3.3122	3.1667	-0.6938	-1.6085	-1.4295	-0.3972	-3.6926
3.7458	2.5457	3.2478	1.7512	0.8896	1.6953	0.7329	-0.0168	0.8057	0.1287	-0.2686	0.2266	0.5735	0.3581	3.2199	3.0184	-0.7245	-1.4603	-1.4435	-0.5091	-3.6199
3.6451	2.4673	3.2059	1.6757	0.8616	1.6449	0.6714	-0.042	0.7833	0.1371	-0.2294	0.249	0.6798	0.3581	3.108	2.8478	-0.7273	-1.3176	-1.4407	-0.6238	-3.5444
3.6003	2.4058	3.1835	1.6001	0.8364	1.6365	0.649	-0.0532	0.8085	0.1902	-0.193	0.3329	0.7945	0.3637	3.0017	2.7191	-0.7357	-1.1665	-1.4491	-0.6854	-3.4744
3.5304	2.3722	3.1527	1.5246	0.8364	1.6337	0.6406	-0.0252	0.8141	0.2462	-0.1371	0.386	0.9176	0.3609	2.8898	2.5681	-0.7385	-1.0295	-1.4351	-0.7245	-3.3933
3.4716	2.3359	3.1247	1.4798	0.8588	1.6617	0.6574	-0.0028	0.8644	0.3637	-0.0392	0.4812	1.0994	0.3693	2.7835	2.3974	-0.7441	-0.8756	-1.4155	-0.7022	-3.3206
3.4101	2.3079	3.0996	1.4211	0.8728	1.6757	0.691	0.0643	0.9315	0.4728	0.0783	0.6182	1.298	0.3749	2.6855	2.2491	-0.7693	-0.6882	-1.3735	-0.6518	-3.231
3.3905	2.2519	3.0828	1.3903	0.8924	1.7148	0.7497	0.1175	1.0211	0.607	0.1902	0.7749	1.5162	0.3888	2.6156	2.1205	-0.7637	-0.5427	-1.3568	-0.5819	-3.1807
3.3122	2.2491	3.0884	1.354	0.9343	1.8016	0.8029	0.221	1.1609	0.7693	0.3497	0.9651	1.7904	0.3749	2.5373	2.0114	-0.7637	-0.3525	-1.3064	-0.4224	-3.094
3.2842	2.2324	3.1219	1.3288	1.0295	1.8743	0.8588	0.3525	1.3008	0.9539	0.5063	1.1805	2.0337	0.3805	2.4645	1.8827	-0.7665	-0.1874	-1.2589	-0.2518	-3.0101
3.259	2.2268	3.1192	1.3428	1.0882	1.975	0.9455	0.4812	1.4603	1.147	0.6994	1.3903	2.2995	0.3944	2.403	1.7876	-0.7777	0.0476	-1.1973	-0.0727	-2.9205
3.2227	2.2463	3.1527	1.34	1.1693	2.0477	1.0406	0.6098	1.6505	1.354	0.9064	1.6729	2.6408	0.4028	2.3778	1.74	-0.7973	0.2518	-1.1497	0.165	-2.8422
3.2115	2.2995	3.1975	1.3484	1.2672	2.1904	1.1609	0.7805	1.8407	1.6253	1.1246	1.961	2.9905	0.4196	2.3582	1.6841	-0.8448	0.4756	-1.0658	0.414	-2.7695
3.1891	2.2995	3.2087	1.34	1.3484	2.3051	1.2644	0.9288	2.0477	1.8407	1.3596	2.2324	3.2954	0.4448	2.3331	1.6617	-0.8672	0.677	-1.049	0.6182	-2.7499
3.2059	2.3303	3.2422	1.4043	1.4715	2.4198	1.3903	1.0938	2.2519	2.1177	1.6057	2.5317	3.6563	0.4672	2.3275	1.6309	-0.9148	0.9036	-1.0043	0.8448	-2.68
3.2003	2.3694	3.2926	1.4295	1.5666	2.5485	1.5386	1.2924	2.4981	2.3918	1.8743	2.8366	4.0031	0.4896	2.3331	1.6197	-0.9623	1.1386	-0.9595	1.0938	-2.652
3.2422	2.4198	3.3513	1.4854	1.6869	2.7079	1.6953	1.4826	2.7471	2.6632	2.1121	3.1723	4.3724	0.5035	2.3694	1.6281	-1.0043	1.3735	-0.9204	1.3092	-2.6016
3.2702	2.4869	3.4101	1.5442	1.8239	2.8534	1.8435	1.6897	3.0017	2.9569	2.4002	3.5052	4.7501	0.5399	2.4114	1.6589	-1.077	1.6029	-0.8588	1.5218	-2.5205
3.2898	2.5177	3.4828	1.6253	1.9358	3.0045	2.0086	1.8967	3.231	3.2506	2.666	3.8465	5.1137	0.5679	2.4338	1.6869	-1.1274	1.8351	-0.7973	1.7232	-2.4925
3.3374	2.5876	3.5332	1.6897	2.0589	3.1527	2.1596	2.0785	3.494	3.5388	2.9709	4.1962	5.483	0.5931	2.4813	1.7092	-1.1833	2.0561	-0.7245	1.9246	-2.403
3.3961	2.6548	3.6171	1.8016	2.2016	3.3066	2.3387	2.3051	3.7682	3.8185	3.3038	4.5486	5.8662	0.6406	2.5121	1.726	-1.2477	2.2855	-0.6658	2.1037	-2.3443
3.4381	2.7387	3.6814	1.8883	2.3527	3.4744	2.5149	2.5289	4.0451	4.1122	3.6115	4.9263	6.2299	0.6546	2.5653	1.7428	-1.2952	2.4869	-0.6015	2.2771	-2.2799
3.4996	2.8002	3.7598	1.989	2.4785	3.6367	2.6995	2.7359	4.3304	4.3976	3.936	5.2844	6.6132	0.6742	2.5876	1.768	-1.3372	2.6967	-0.5287	2.4478	-2.21
3.5751	2.9149	3.8577	2.1009	2.6184	3.8045	2.873	2.9961	4.6046	4.6829	4.2857	5.6704	6.9824	0.6826	2.6268	1.7736	-1.3735	2.9121	-0.4364	2.638	-2.1177
3.6255	3.024	3.9332	2.2324	2.7891	3.9696	3.0604	3.2618	4.9235	5.0214	4.6577	6.0733	7.3601	0.705	2.6772	1.8295	-1.4099	3.1024	-0.3777	2.8198	-2.0393
3.7262	3.1219	4.0451	2.3499	2.9569	4.1682	3.2478	3.5136	5.1949	5.3207	5.027	6.4621	7.7461	0.7357	2.7247	1.8463	-1.4575	3.3066	-0.2937	3.0128	-1.9414
3.7961	3.2394	4.1598	2.4953	3.1415	4.3556	3.4604	3.7961	5.5194	5.6117	5.427	6.8873	8.1294	0.7441	2.7863	1.8379	-1.4826	3.5248	-0.2014	3.1723	-1.8323
3.8801	3.3569	4.2969	2.6436	3.3206	4.5179	3.6758	4.0787	5.8271	5.911	5.8271	7.2957	8.5126	0.7609	2.831	1.8939	-1.5022	3.757	-0.1175	3.3737	-1.7176
3.9892	3.4968	4.3976	2.8002	3.4912	4.7137	3.8857	4.35	6.1264	6.2355	6.2411	7.7014	8.8959	0.7861	2.8898	1.933	-1.5414	3.964	0.0168	3.5583	-1.5834
4.0703	3.5975	4.5095	2.9177	3.6619	4.8648	4.0787	4.6466	6.4117	6.5013	6.6355	8.0846	9.2484	0.7777	2.9541	1.9554	-1.5302	4.171	0.1007	3.7234	-1.4547
4.1458	3.7094	4.6242	3.0632	3.8521	5.041	4.2913	4.9235	6.7139	6.7922	7.0412	8.4735	9.5924	0.7721	3.024	1.9722	-1.5386	4.3472	0.2042	3.8717	-1.3176
4.2102	3.8157	4.6969	3.2003	4.0171	5.1697	4.4675	5.1893	6.9461	7.058	7.4328	8.7896	9.9058	0.7637	3.0492	2.0086	-1.5134	4.5235	0.3021	3.9864	-1.1833
4.2801	3.9164	4.7752	3.3429	4.1626	5.2984	4.6326	5.4662	7.1782	7.2817	7.8133	9.1309	10.2023	0.7581	3.0828	2.0253	-1.5106	4.6969	0.4336	4.1066	-0.9959
4.3752	4.0227	4.8508	3.4604	4.3221	5.4047	4.764	5.7068	7.3936	7.5027	8.2077	9.4498	10.468	0.7469	3.1164	2.0505	-1.491	4.862	0.5483	4.2157	-0.8336
4.4284	4.0899	4.9263	3.5695	4.4228	5.4718	4.8927	5.9306	7.5559	7.6622	8.5294	9.7099	10.689	0.7357	3.1807	2.0533	-1.4575	4.9795	0.6434	4.3053	-0.6686
4.4535	4.1682	4.9878	3.6842	4.5431	5.5641	5.0046	6.146	7.7209	7.8356	8.8371	9.9393	10.8765	0.7217	3.2003	2.0701	-1.4407	5.1193	0.7693	4.378	-0.4896
4.5039	4.1822	5.0326	3.7654	4.6102	5.6033	5.0913	6.3166	7.8161	7.9391	9.1169	10.1212	11.0191	0.6938	3.2115	2.0589	-1.4043	5.2004	0.8784	4.4116	-0.3105
4.5319	4.2213	5.0578	3.8297	4.6941	5.6201	5.1865	6.4873	7.9112	8.0287	9.3714	10.2974	11.1674	0.6966	3.2031	2.0365	-1.3763	5.3012	0.9931	4.4395	-0.1511
4.5263	4.2157	5.027	3.8801	4.7025	5.6033	5.2256	6.6188	7.9503	8.0986	9.5924	10.4065	11.2597	0.6658	3.1863	1.9974	-1.3232	5.3767	1.077	4.4284	0.0252
4.4759	4.1794	4.9962	3.894	4.7053	5.5529	5.2368	6.7027	7.9587	8.0986	9.7771	10.482	11.3017	0.6294	3.1219	1.9414	-1.2728	5.3879	1.1833	4.378	0.2042
4.4479	4.1458	4.9403	3.8912	4.6857	5.5222	5.2284	6.7894	7.9503	8.1322	9.9393	10.552	11.3324	0.6238	3.066	1.9246	-1.2253	5.4298	1.2561	4.3165	0.386
4.3864	4.0591	4.8759	3.8745	4.6661	5.4354	5.1921	6.837	7.914	8.0846	10.0904	10.5743	11.3632	0.5875	2.9961	1.8659	-1.1721	5.455	1.3596	4.199	0.5595
4.3221	3.964	4.792	3.8409	4.6158	5.3515	5.1753	6.9097	7.872	8.0343	10.2554	10.5939	11.3912	0.5763	2.9037	1.8295	-1.133	5.4662	1.4547	4.1262	0.7665
4.2074	3.8045	4.641	3.7486	4.4927	5.2004	5.0746	6.9097	7.7545	7.9587	10.3617	10.5492	11.3408	0.5259	2.7863	1.7092	-1.0658	5.4382	1.5358	3.9612	0.9455
4.0731	3.6563	4.5179	3.6982	4.3892	5.055	5.0102	6.9181	7.6678	7.8748	10.5016	10.5464	11.3129	0.5203	2.6911	1.6561	-1.0295	5.4326	1.6029	3.8325	1.147
3.9276	3.4632	4.3416	3.6087	4.2745	4.8843	4.9207	6.8957	7.5111	7.7769	10.5883	10.4708	11.2485	0.4951	2.5653	1.5722	-0.9875	5.4298	1.6841	3.6674	1.3064
3.7682	3.2478	4.1374	3.4548	4.1178	4.6969	4.7668	6.8425	7.3713	7.6706	10.6723	10.3953	11.1926	0.484	2.4366	1.4854	-0.9483	5.4103	1.7344	3.5164	1.4771
3.5947	3.0184	3.8884	3.3234	3.9612	4.4983	4.6382	6.7866	7.1866	7.5335	10.7506	10.3058	11.1142	0.47	2.3359	1.3707	-0.9343	5.4019	1.7988	3.3625	1.6645
3.3905	2.7415	3.6395	3.1331	3.7682	4.2325	4.4703	6.6971	6.9852	7.3657	10.7534	10.1379	10.9912	0.4392	2.2072	1.2421	-0.898	5.3571	1.8323	3.1919	1.8099
3.1527	2.4701	3.3597	2.9317	3.5556	3.978	4.2745	6.5628	6.753	7.209	10.7534	10.0009	10.8485	0.4308	2.0785	1.1414	-0.8672	5.3263	1.8659	3.0184	1.975
2.9233	2.1876	3.0688	2.7499	3.329	3.6982	4.0871	6.4397	6.5152	7.03	10.7925	9.8526	10.7142	0.442	1.9722	1.0323	-0.8812	5.2844	1.9135	2.873	2.1233
2.6772	1.8659	2.7667	2.5149	3.0912	3.4325	3.8829	6.297	6.2831	6.837	10.7925	9.6596	10.552	0.428	1.8407	0.8952	-0.8644	5.262	1.9274	2.7107	2.2603
2.417	1.5358	2.4478	2.3051	2.859	3.1024	3.6702	6.1376	6.0369	6.616	10.7841	9.4666	10.3701	0.4392	1.7008	0.7777	-0.8728	5.2116	1.9386	2.5709	2.3918
2.154	1.2365	2.1177	2.0617	2.638	2.831	3.452	5.9921	5.8019	6.4285	10.7534	9.2819	10.2135	0.4532	1.5638	0.635	-0.9036	5.1445	1.9666	2.4394	2.5401
1.8911	0.9008	1.782	1.8435	2.375	2.5513	3.2366	5.8327	5.5305	6.2215	10.7198	9.0833	10.026	0.4588	1.4071	0.5147	-0.9288	5.0886	1.9582	2.3163	2.6744
1.6085	0.6154	1.491	1.6169	2.1177	2.2687	3.0324	5.6788	5.3012	6.0061	10.6695	8.8931	9.8498	0.4784	1.2505	0.3693	-0.9595	5.0214	1.9694	2.2044	2.7974
1.3232	0.3217	1.1693	1.3875	1.8771	2.003	2.8366	5.525	5.0886	5.8383	10.6359	8.7448	9.7099	0.5119	1.0966	0.2406	-1.0183	4.9543	2.0198	2.1065	2.9317
1.0742	0.0532	0.856	1.1721	1.6617	1.7624	2.6604	5.3571	4.8871	5.6648	10.5967	8.5854	9.5393	0.5343	0.9176	0.1063	-1.0574	4.8955	2.0505	1.9918	3.0548
0.8169	-0.2266	0.5903	0.9903	1.4491	1.5302	2.4869	5.234	4.7165	5.5194	10.5604	8.4846	9.4106	0.5567	0.7497	-0.014	-1.1078	4.8144	2.1065	1.9218	3.1611
0.5819	-0.4644	0.3133	0.7777	1.27	1.3288	2.3303	5.1053	4.5514	5.3543	10.5464	8.3532	9.2707	0.5735	0.607	-0.1595	-1.1609	4.7501	2.154	1.8183	3.2982
0.3441	-0.6658	0.0643	0.621	1.1134	1.1721	2.2044	5.0382	4.4172	5.2452	10.538	8.2553	9.1672	0.607	0.4392	-0.2322	-1.2225	4.7109	2.1988	1.7876	3.4129
0.1231	-0.8644	-0.1762	0.4616	0.9623	1.0211	2.0757	4.9263	4.3109	5.1445	10.5324	8.2021	9.0917	0.6378	0.2909	-0.3553	-1.2812	4.6633	2.2324	1.726	3.5388
-0.0867	-1.0351	-0.3693	0.3273	0.8085	0.8924	2.0086	4.8564	4.2241	5.083	10.524	8.1182	9.0134	0.677	0.1343	-0.456	-1.34	4.6018	2.2631	1.698	3.6367
-0.2909	-1.1609	-0.5707	0.2126	0.7078	0.7973	1.947	4.7808	4.1738	5.027	10.5296	8.093	8.9434	0.6966	0.0056	-0.5511	-1.3959	4.5514	2.2939	1.6645	3.7374
-0.4308	-1.2868	-0.677	0.1483	0.6238	0.7385	1.9051	4.7221	4.1206	5.0186	10.5268	8.0538	8.9043	0.7217	-0.0895	-0.6238	-1.4239	4.5123	2.2911	1.6449	3.8185
-0.6126	-1.3875	-0.8057	0.0476	0.5595	0.7022	1.8939	4.6969	4.0815	4.985	10.524	8.0427	8.8651	0.7329	-0.2154	-0.7022	-1.4519	4.4619	2.3135	1.6505	3.9248
-0.705	-1.4267	-0.9176	0.0084	0.5287	0.691	1.8883	4.6857	4.1234	5.0158	10.5548	8.0399	8.8455	0.7357	-0.2993	-0.7665	-1.4771	4.4256	2.3303	1.6533	4.0115
-0.8141	-1.4854	-0.9595	-0.0056	0.5315	0.6854	1.9218	4.6773	4.157	5.041	10.5492	8.0427	8.8287	0.7441	-0.3916	-0.8504	-1.4798	4.3724	2.3359	1.698	4.0619
-0.8896	-1.4771	-1.0015	-0.0056	0.5511	0.7525	1.9918	4.7137	4.2325	5.1221	10.5771	8.0902	8.8595	0.7385	-0.4476	-0.912	-1.4854	4.3528	2.3638	1.768	4.1458
-0.9371	-1.4379	-0.9567	0.0392	0.5931	0.8308	2.0729	4.7249	4.3109	5.1949	10.5911	8.1322	8.8567	0.7413	-0.5175	-0.9399	-1.4603	4.3165	2.3778	1.8407	4.1878
-0.9511	-1.4043	-0.9511	0.0979	0.6518	0.9399	2.1624	4.778	4.4339	5.2928	10.6079	8.2049	8.8875	0.7301	-0.5539	-0.9791	-1.4491	4.2885	2.389	1.9218	4.2353
-0.9343	-1.354	-0.8616	0.1874	0.7497	1.0742	2.2855	4.8396	4.5542	5.3879	10.6555	8.2776	8.9211	0.705	-0.5819	-1.0323	-1.4211	4.2521	2.389	2.0002	4.2549
-0.9176	-1.2421	-0.7413	0.2909	0.8728	1.2477	2.4422	4.9627	4.7333	5.5361	10.6918	8.3895	8.9714	0.7022	-0.5987	-1.0323	-1.4099	4.213	2.4114	2.1233	4.2605
-0.8504	-1.0966	-0.5931	0.456	1.0462	1.4659	2.6268	5.0913	4.9487	5.7292	10.7338	8.5182	9.0497	0.691	-0.5511	-1.0267	-1.3903	4.2046	2.4366	2.2575	4.2717
-0.7413	-0.9232	-0.428	0.6182	1.1917	1.7064	2.8282	5.2144	5.1921	5.9054	10.773	8.6749	9.1532	0.6826	-0.4951	-0.9623	-1.3707	4.185	2.4673	2.389	4.2409
-0.6154	-0.7413	-0.207	0.8392	1.3931	1.989	3.0632	5.3571	5.4354	6.0928	10.8345	8.8455	9.2539	0.6714	-0.4252	-0.898	-1.354	4.1598	2.4897	2.5121	4.171
-0.4532	-0.5455	0.0252	1.0574	1.6253	2.2715	3.3066	5.5166	5.7487	6.3278	10.896	9.0469	9.405	0.677	-0.3189	-0.8057	-1.34	4.1542	2.5373	2.6744	4.1234
-0.2686	-0.2937	0.2909	1.3064	1.8659	2.596	3.5639	5.718	6.0649	6.5796	10.9744	9.2987	9.5729	0.6574	-0.1678	-0.649	-1.326	4.171	2.596	2.8086	4.0759
-0.0839	-0.0532	0.5875	1.5414	2.1149	2.9121	3.8381	5.897	6.3782	6.8286	11.0443	9.5169	9.7127	0.6546	-0.0336	-0.5231	-1.3036	4.1654	2.6016	2.9541	3.9584
0.1678	0.1986	0.884	1.8463	2.3806	3.2646	4.1486	6.1152	6.7223	7.1027	11.145	9.7351	9.8918	0.6462	0.1175	-0.3077	-1.3036	4.185	2.6408	3.1164	3.894
0.3972	0.4644	1.1749	2.1345	2.6324	3.5975	4.4256	6.3138	7.058	7.3741	11.2066	9.9953	10.054	0.6462	0.2909	-0.1315	-1.2784	4.1766	2.6576	3.2394	3.7821
0.6266	0.705	1.4966	2.3974	2.9093	3.9304	4.7445	6.5125	7.3964	7.6538	11.2933	10.2163	10.2414	0.6238	0.4364	0.042	-1.2644	4.2046	2.7107	3.3989	3.6702
0.884	0.9763	1.8044	2.7051	3.1947	4.2941	5.0522	6.7251	7.7517	7.9336	11.3828	10.4736	10.4233	0.6322	0.6322	0.2434	-1.2561	4.2297	2.7303	3.5611	3.5611
1.1414	1.2449	2.1345	3.0017	3.4437	4.641	5.3655	6.9209	8.093	8.2049	11.4388	10.7002	10.6191	0.6378	0.8057	0.4364	-1.2644	4.2661	2.7527	3.7234	3.4716
1.3847	1.5106	2.4394	3.2842	3.7178	4.9795	5.6704	7.1307	8.4371	8.5182	11.5171	10.9408	10.8009	0.6294	0.9875	0.5987	-1.2756	4.3332	2.7835	3.8493	3.3793
1.6645	1.7344	2.7639	3.5556	3.964	5.3431	6.0005	7.3237	8.7532	8.7644	11.5786	11.1506	10.9772	0.6518	1.1302	0.7721	-1.3008	4.364	2.8086	3.9975	3.2506
1.9135	1.9694	3.0688	3.8577	4.2018	5.6564	6.311	7.5447	9.0805	9.0665	11.6681	11.3912	11.1618	0.6742	1.2784	0.9092	-1.3512	4.4284	2.8506	4.1486	3.1583
2.1317	2.2016	3.3457	4.1234	4.4563	5.9753	6.602	7.7154	9.4078	9.3379	11.7241	11.6122	11.3269	0.691	1.4183	1.049	-1.3735	4.5095	2.8674	4.2717	3.0828
2.375	2.4086	3.6227	4.4004	4.6801	6.2859	6.8873	7.928	9.7155	9.6148	11.7996	11.8192	11.4863	0.7217	1.533	1.1693	-1.4267	4.5654	2.8898	4.406	3.0101
2.596	2.6044	3.9024	4.6298	4.8955	6.5572	7.1279	8.0902	10.0037	9.8666	11.822	12.0094	11.6402	0.7217	1.6309	1.2477	-1.4519	4.5962	2.9205	4.5095	2.9541
2.817	2.8058	4.171	4.8592	5.1361	6.8789	7.4132	8.2497	10.3226	10.1212	11.9003	12.2416	11.8276	0.7525	1.7204	1.3819	-1.4938	4.6438	2.9877	4.6298	2.9289
3.0212	2.9905	4.4032	5.1249	5.3319	7.1531	7.707	8.4063	10.5855	10.3701	11.9339	12.4486	11.9843	0.7777	1.7988	1.4659	-1.5526	4.7137	3.0184	4.7389	2.887
3.1947	3.1527	4.6354	5.3599	5.525	7.4328	7.9755	8.5993	10.8625	10.6247	12.0122	12.6361	12.1409	0.8085	1.8659	1.5778	-1.6141	4.7529	3.0968	4.8312	2.8758
3.3597	3.2926	4.8592	5.5697	5.6788	7.6874	8.2273	8.7448	11.1422	10.8513	12.043	12.8375	12.2976	0.8392	1.9442	1.6673	-1.6589	4.8564	3.1247	4.9375	2.8786
3.5416	3.4381	5.0913	5.7963	5.8718	7.9503	8.4986	8.8791	11.3884	11.0779	12.1213	13.0249	12.443	0.87	2.0142	1.7708	-1.74	4.8815	3.1919	5.0382	2.8926
3.6786	3.5863	5.2984	6.0089	6.0117	8.1657	8.7084	9.0022	11.6206	11.2989	12.1801	13.2011	12.5997	0.9064	2.0673	1.8771	-1.8127	4.9655	3.231	5.1109	2.9233
3.8409	3.7206	5.5082	6.2075	6.1544	8.4147	8.9294	9.1113	11.8612	11.4947	12.2332	13.3438	12.7536	0.9539	2.1317	1.9554	-1.8995	5.0326	3.2814	5.2088	2.9625
3.978	3.8437	5.6928	6.4117	6.2831	8.6161	9.142	9.2232	12.071	11.6961	12.2752	13.4977	12.8962	0.9903	2.1904	2.0533	-1.9806	5.1137	3.3262	5.304	2.9933
4.1094	3.9836	5.897	6.616	6.4425	8.8399	9.3854	9.3155	12.2584	11.8696	12.3339	13.6599	13.0445	1.0379	2.2491	2.1484	-2.0645	5.1837	3.3681	5.3767	3.0828
4.2269	4.0731	6.0816	6.7894	6.5544	9.0357	9.5812	9.3854	12.4123	12.0346	12.3703	13.7662	13.1396	1.077	2.2827	2.2156	-2.1512	5.262	3.3989	5.455	3.1583
4.3137	4.1374	6.2215	6.9433	6.6132	9.1952	9.7379	9.4246	12.5633	12.1465	12.3815	13.8362	13.2067	1.1134	2.2715	2.2631	-2.2128	5.3179	3.3849	5.497	3.1919
4.42	4.2409	6.367	7.1083	6.6831	9.3547	9.8806	9.4666	12.6808	12.2416	12.3871	13.8669	13.2599	1.1386	2.2631	2.3051	-2.2603	5.3823	3.3821	5.5557	3.2366
4.4731	4.3193	6.4761	7.1782	6.7279	9.4693	9.9925	9.4861	12.7508	12.3032	12.3871	13.9089	13.2739	1.1637	2.2463	2.3275	-2.3247	5.4103	3.3765	5.5473	3.2898
4.5151	4.3696	6.5908	7.2817	6.7726	9.5673	10.068	9.5197	12.8291	12.3703	12.3731	13.9313	13.2991	1.1889	2.2184	2.3219	-2.3666	5.4662	3.3374	5.5585	3.3234
4.5626	4.4144	6.6719	7.3825	6.7838	9.6484	10.1351	9.4973	12.871	12.3703	12.3423	13.8921	13.2739	1.2029	2.1596	2.3359	-2.3918	5.5026	3.2786	5.5613	3.3793
4.585	4.4423	6.7279	7.444	6.8062	9.7323	10.1827	9.4889	12.8878	12.3843	12.306	13.8949	13.2655	1.2337	2.1065	2.3107	-2.4422	5.525	3.2618	5.5669	3.4073
4.5794	4.4899	6.7894	7.4999	6.837	9.7687	10.2135	9.4805	12.9242	12.3507	12.2976	13.8697	13.2151	1.2393	2.0309	2.2827	-2.4701	5.5389	3.2283	5.5585	3.4632
4.6186	4.5123	6.837	7.5167	6.8398	9.8386	10.247	9.4666	12.9606	12.3423	12.278	13.8585	13.1816	1.2672	1.9666	2.2659	-2.5037	5.5893	3.2003	5.5613	3.5472
4.5934	4.5431	6.8733	7.5335	6.8342	9.8666	10.2526	9.433	12.9606	12.2948	12.264	13.8362	13.1396	1.27	1.8911	2.224	-2.5233	5.5781	3.1695	5.5585	3.5751
4.5822	4.5514	6.8929	7.5587	6.8453	9.9113	10.2554	9.4162	12.969	12.2388	12.2528	13.8278	13.0948	1.2924	1.8323	2.182	-2.5709	5.6089	3.1667	5.5837	3.673
4.5738	4.5962	6.9237	7.5531	6.8481	9.9309	10.2275	9.3966	12.9829	12.2248	12.2444	13.8082	13.0501	1.312	1.7484	2.1149	-2.6044	5.6536	3.1527	5.5865	3.729
4.4871	4.585	6.9041	7.5391	6.837	9.9645	10.2051	9.3798	12.9913	12.1633	12.2528	13.8054	13.0137	1.3176	1.6449	2.0114	-2.6212	5.6592	3.1303	5.5641	3.8017
4.42	4.5682	6.8789	7.5307	6.8425	9.9589	10.1827	9.3826	12.9913	12.1017	12.278	13.811	12.9745	1.3456	1.561	1.9218	-2.6576	5.69	3.1192	5.5529	3.8857
4.3444	4.5431	6.8621	7.4944	6.8118	9.9449	10.1519	9.3826	13.0081	12.0514	12.3144	13.8166	12.9494	1.3568	1.4295	1.8044	-2.6883	5.732	3.1192	5.5781	3.9752
4.2325	4.5179	6.8286	7.444	6.7866	9.9477	10.1156	9.3658	13.0053	12.0066	12.3367	13.8054	12.927	1.3568	1.3148	1.6701	-2.7023	5.746	3.0968	5.5669	4.0675
4.1514	4.4591	6.7922	7.4104	6.7894	9.9589	10.0848	9.3798	13.0193	11.9619	12.3703	13.811	12.9018	1.3791	1.1973	1.519	-2.7359	5.7851	3.094	5.5977	4.1514
4.0423	4.4088	6.7111	7.3713	6.7474	9.9393	10.0428	9.3798	13.0109	11.9115	12.4095	13.8026	12.8599	1.3652	1.0714	1.3652	-2.7275	5.8103	3.08	5.6089	4.2745
3.9192	4.364	6.6775	7.3265	6.7362	9.9169	10.0065	9.363	13.0137	11.8696	12.4626	13.8082	12.8151	1.3484	0.926	1.2421	-2.7079	5.8551	3.0884	5.6369	4.3892
3.7933	4.3025	6.616	7.2845	6.7027	9.8946	9.9561	9.3602	13.0081	11.7996	12.4878	13.7886	12.7871	1.3484	0.8224	1.0798	-2.6772	5.8718	3.0912	5.6732	4.4983
3.6758	4.2102	6.5796	7.237	6.6691	9.8778	9.9309	9.3463	13.0025	11.7605	12.5353	13.7886	12.748	1.3232	0.6686	0.9371	-2.6324	5.9054	3.094	5.7208	4.5934
3.5611	4.1374	6.4985	7.195	6.6299	9.8246	9.8946	9.3267	12.9941	11.6961	12.5521	13.7802	12.7032	1.2784	0.5371	0.7777	-2.5625	5.9054	3.1024	5.7711	4.6997
3.4744	4.0815	6.4677	7.1782	6.6048	9.8274	9.8442	9.3183	12.9857	11.6374	12.5773	13.7718	12.6612	1.2561	0.4196	0.6714	-2.5065	5.9362	3.1275	5.8019	4.8116
3.3625	4.0059	6.4369	7.1615	6.574	9.8218	9.8218	9.3211	12.9829	11.587	12.6417	13.7718	12.6277	1.2057	0.3161	0.5511	-2.431	5.9446	3.1583	5.8606	4.9207
3.2758	3.922	6.3782	7.1195	6.5208	9.805	9.7827	9.3211	12.9997	11.5143	12.6948	13.7942	12.6053	1.1721	0.1902	0.4308	-2.3554	5.9642	3.1807	5.9054	5.0102
3.2003	3.8493	6.3642	7.1307	6.5236	9.7883	9.7379	9.3295	13.0165	11.4779	12.7563	13.8026	12.5913	1.1302	0.0727	0.3301	-2.2743	5.9418	3.2338	5.9138	5.1081
3.1247	3.8017	6.367	7.1447	6.5041	9.8218	9.7547	9.3602	13.0585	11.4723	12.8487	13.8585	12.6025	1.1078	-0.0392	0.2266	-2.21	5.9697	3.287	5.9893	5.2172
3.0856	3.7626	6.3726	7.1503	6.5013	9.861	9.7659	9.4106	13.134	11.4527	12.9522	13.9313	12.6417	1.0602	-0.1762	0.1231	-2.1233	5.9865	3.3122	6.0313	5.3263
3.0268	3.7318	6.4061	7.1978	6.5236	9.8974	9.7799	9.4554	13.1816	11.4471	13.0361	13.9984	12.6696	1.0267	-0.2993	0.0476	-2.0561	6.0033	3.3877	6.0733	5.4382
2.9905	3.6926	6.4034	7.2258	6.5432	9.9337	9.805	9.5225	13.2291	11.4667	13.1536	14.0963	12.7116	0.9931	-0.4056	-0.0587	-1.9834	6.0117	3.4632	6.1096	5.511
2.9709	3.7094	6.4705	7.2873	6.5992	10.0121	9.8386	9.6036	13.327	11.5171	13.2767	14.1914	12.7871	0.9623	-0.5315	-0.1483	-1.9246	6.0173	3.5108	6.1208	5.6033
2.9765	3.6954	6.5292	7.3377	6.6439	10.0708	9.8694	9.6931	13.4193	11.5479	13.3914	14.3089	12.8627	0.9288	-0.6406	-0.2238	-1.8575	6.0369	3.5807	6.146	5.7096
2.9485	3.6758	6.5712	7.3825	6.6663	10.1351	9.9002	9.7463	13.5145	11.5758	13.5256	14.3984	12.9382	0.8924	-0.7777	-0.3497	-1.7876	6.0733	3.6283	6.1488	5.7991
2.9597	3.701	6.6523	7.4356	6.7195	10.1939	9.9561	9.8274	13.6012	11.6402	13.6292	14.5075	13.0305	0.8812	-0.8644	-0.4252	-1.7428	6.0788	3.6619	6.1208	5.8439
2.9625	3.7402	6.739	7.5167	6.7698	10.2694	10.0204	9.9253	13.6907	11.7213	13.755	14.6055	13.1452	0.856	-0.9539	-0.5007	-1.7008	6.09	3.7094	6.1012	5.9334
2.9653	3.7486	6.781	7.5755	6.8202	10.3394	10.0568	10.0176	13.7578	11.7716	13.8725	14.7146	13.2095	0.8252	-1.0826	-0.6042	-1.6589	6.1264	3.7626	6.0285	5.9809
2.9709	3.7598	6.837	7.6258	6.8845	10.4177	10.1156	10.0988	13.8585	11.8444	13.9704	14.8069	13.3046	0.8224	-1.1581	-0.6966	-1.6281	6.1824	3.8073	5.9949	6.0705
2.9793	3.7766	6.9097	7.6874	6.9489	10.4792	10.1771	10.1799	13.9369	11.9087	14.06	14.8908	13.3998	0.8169	-1.2756	-0.8113	-1.6169	6.2019	3.8493	5.911	6.0984
3.0184	3.8297	6.9908	7.7237	7.0356	10.5548	10.2526	10.2778	14.0376	12.0066	14.1774	15.0027	13.5228	0.828	-1.3707	-0.8756	-1.6505	6.2663	3.8717	5.8858	6.1852
3.038	3.8745	7.0663	7.7993	7.1027	10.6471	10.289	10.3701	14.1467	12.0738	14.2726	15.0866	13.6319	0.8336	-1.4603	-0.9651	-1.6673	6.3278	3.9024	5.8662	6.2551
3.0464	3.9052	7.1307	7.8384	7.1615	10.6974	10.3422	10.4513	14.2334	12.1829	14.3481	15.1901	13.755	0.8476	-1.5554	-1.063	-1.6897	6.3866	3.9052	5.8131	6.297
3.066	3.9388	7.195	7.9112	7.2482	10.7786	10.4149	10.5548	14.3257	12.2668	14.4152	15.3076	13.8641	0.8588	-1.6309	-1.147	-1.7204	6.4649	3.9164	5.7711	6.3446
3.0884	4.0003	7.279	7.9587	7.3013	10.8569	10.4792	10.6415	14.4264	12.3759	14.5243	15.4195	13.976	0.8952	-1.7008	-1.2253	-1.7792	6.5264	3.936	5.7376	6.4006
3.1667	4.0675	7.3573	8.0259	7.4076	10.9352	10.5548	10.7394	14.5663	12.471	14.6111	15.551	14.1355	0.9232	-1.7596	-1.2616	-1.8519	6.6243	3.9696	5.7404	6.4537
3.1779	4.1011	7.444	8.065	7.4804	11.0135	10.6247	10.8149	14.6474	12.5885	14.7006	15.6797	14.281	0.9679	-1.8239	-1.34	-1.919	6.6999	3.9528	5.7208	6.4985
3.2087	4.1682	7.5223	8.1434	7.5727	11.1031	10.6834	10.938	14.7901	12.7228	14.7817	15.8279	14.446	1.0155	-1.8939	-1.4043	-2.0114	6.8202	3.9472	5.7264	6.5572
3.2506	4.2633	7.6342	8.1993	7.6706	11.2094	10.773	11.0247	14.9356	12.8599	14.8908	15.979	14.6474	1.063	-1.9554	-1.4603	-2.1261	6.9377	3.9612	5.7348	6.6188
3.3094	4.336	7.7126	8.2525	7.7517	11.2933	10.8597	11.1115	15.0475	12.9941	14.9831	16.1301	14.8209	1.147	-2.0309	-1.5106	-2.2575	7.0496	3.9388	5.7348	6.6579
3.3569	4.4032	7.7937	8.3252	7.8608	11.394	10.9604	11.201	15.1538	13.1368	15.081	16.2839	14.9915	1.2113	-2.0729	-1.5442	-2.4002	7.1671	3.95	5.7152	6.7195
3.4129	4.4787	7.9196	8.4091	7.9336	11.5115	11.0639	11.3017	15.3188	13.3046	15.1426	16.4322	15.1985	1.2728	-2.1456	-1.6253	-2.5401	7.3265	3.9416	5.7096	6.7558
3.48	4.5766	8.0231	8.4958	8.0538	11.6122	11.1646	11.4024	15.4559	13.4697	15.2377	16.5944	15.4139	1.3763	-2.1764	-1.6421	-2.7275	7.4748	3.9248	5.7292	6.7922
3.4996	4.6354	8.093	8.549	8.121	11.6905	11.2569	11.4611	15.5706	13.6068	15.2992	16.7343	15.5986	1.4379	-2.2715	-1.712	-2.8674	7.623	3.9388	5.7264	6.823
3.5835	4.7361	8.2189	8.6189	8.1937	11.8052	11.3604	11.5423	15.6965	13.755	15.372	16.8602	15.7776	1.519	-2.3023	-1.7344	-3.0324	7.7713	3.9304	5.7683	6.8761
3.6563	4.8004	8.3112	8.7029	8.2804	11.9143	11.4499	11.6178	15.8251	13.9033	15.4251	16.9889	15.9706	1.6141	-2.3582	-1.7568	-3.2059	7.9364	3.9416	5.8047	6.9097
3.729	4.8787	8.3979	8.784	8.3476	11.9926	11.5618	11.6793	15.9147	14.0376	15.4811	17.084	16.1105	1.6813	-2.4002	-1.7932	-3.3513	8.0762	3.9332	5.8551	6.9293
3.7989	4.9711	8.5294	8.8343	8.4007	12.0906	11.6402	11.7241	16.007	14.1663	15.5146	17.1707	16.2448	1.7736	-2.4282	-1.8071	-3.5164	8.2385	3.9304	5.9054	6.988
3.8633	5.055	8.6329	8.8903	8.4707	12.1689	11.7185	11.7856	16.1077	14.2893	15.5594	17.2518	16.3762	1.8323	-2.459	-1.8211	-3.6451	8.3728	3.9276	5.9781	7.0188
3.9472	5.1445	8.7476	8.9574	8.549	12.2612	11.7996	11.85	16.2028	14.3705	15.5986	17.347	16.4881	1.8967	-2.4813	-1.8211	-3.7821	8.507	3.936	6.0565	7.0719
4.0395	5.2452	8.8539	9.005	8.6441	12.3591	11.8724	11.9059	16.3203	14.4768	15.6601	17.4197	16.5777	1.975	-2.5037	-1.8267	-3.9164	8.6329	3.9416	6.1208	7.1335
4.1178	5.3543	8.9686	9.0385	8.6861	12.4402	11.9283	11.9675	16.3874	14.5663	15.6825	17.512	16.6728	2.0365	-2.4925	-1.8267	-4.0479	8.7672	3.9444	6.1963	7.1978
4.2074	5.4382	9.0833	9.1309	8.7812	12.5437	11.9982	12.0262	16.4742	14.6362	15.7216	17.554	16.7511	2.0925	-2.4869	-1.8491	-4.1598	8.8763	3.95	6.2635	7.237
4.2773	5.5501	9.198	9.156	8.8567	12.6333	12.0794	12.0989	16.5637	14.7118	15.758	17.6379	16.8322	2.1484	-2.4813	-1.8547	-4.2633	8.9994	3.9612	6.3278	7.3125
4.364	5.6536	9.3155	9.2064	8.9434	12.72	12.1353	12.1549	16.6336	14.8209	15.786	17.6854	16.9301	2.1792	-2.4813	-1.8995	-4.3472	9.1057	3.9724	6.3754	7.3825
4.4312	5.7851	9.433	9.2707	9.0469	12.8263	12.208	12.2136	16.7147	14.8992	15.8084	17.733	16.9889	2.224	-2.4757	-1.933	-4.4144	9.2148	3.9696	6.4034	7.4356
4.5067	5.8886	9.5785	9.3351	9.1616	12.9326	12.278	12.2892	16.7959	15.0027	15.8531	17.7973	17.0532	2.2631	-2.4813	-1.975	-4.4815	9.3323	3.9864	6.4397	7.5195
4.5822	6.0285	9.6876	9.3798	9.2539	13.0417	12.3255	12.3591	16.8658	15.0978	15.8783	17.8477	17.126	2.2883	-2.459	-2.0058	-4.5347	9.4106	4.0227	6.4733	7.609
4.6857	6.1404	9.8302	9.4693	9.3714	13.1396	12.4123	12.4346	16.9497	15.1622	15.8979	17.8925	17.1931	2.3079	-2.459	-2.0589	-4.5682	9.5057	4.0423	6.546	7.6958
4.7836	6.2551	9.9505	9.5085	9.4693	13.2347	12.457	12.4794	17.0085	15.2293	15.937	17.9232	17.2351	2.3023	-2.4729	-2.0953	-4.5738	9.5785	4.0591	6.5852	7.7741
4.8508	6.3502	10.0708	9.5729	9.5812	13.3326	12.5242	12.5353	17.0896	15.2936	15.9678	17.9372	17.291	2.2967	-2.5009	-2.1233	-4.571	9.668	4.0955	6.6467	7.8608
4.9291	6.4593	10.1659	9.6456	9.6596	13.4193	12.5969	12.5857	17.1483	15.3692	15.9566	17.9736	17.3414	2.2995	-2.5093	-2.14	-4.5458	9.7491	4.1234	6.7362	7.9615
5.0242	6.5572	10.2806	9.7127	9.7603	13.5033	12.6361	12.6584	17.1987	15.4167	15.993	17.9624	17.3777	2.2715	-2.4925	-2.1792	-4.5123	9.8358	4.1794	6.8286	8.0231
5.0802	6.6383	10.3897	9.7659	9.8442	13.5928	12.6948	12.6948	17.2295	15.4503	15.9902	17.9372	17.4141	2.2463	-2.4981	-2.2352	-4.4451	9.8834	4.199	6.9237	8.1126
5.1529	6.7418	10.482	9.8414	9.9589	13.6515	12.7508	12.7424	17.2938	15.495	16.0014	17.9568	17.4477	2.2184	-2.5149	-2.2212	-4.3976	9.9729	4.2465	7.0244	8.2105
5.2284	6.8146	10.5576	9.8806	10.0093	13.7075	12.7843	12.7731	17.2854	15.5146	15.9846	17.9148	17.4533	2.1736	-2.5345	-2.2603	-4.3109	10.0009	4.2717	7.1083	8.2637
5.2676	6.8677	10.6527	9.9589	10.096	13.783	12.8123	12.8067	17.305	15.537	15.979	17.8673	17.4421	2.1345	-2.5457	-2.2799	-4.2213	10.0596	4.3165	7.2062	8.3476
5.3403	6.9321	10.7114	10.0176	10.1491	13.8334	12.8738	12.8179	17.3218	15.551	15.9734	17.8141	17.4365	2.0897	-2.5485	-2.2883	-4.1402	10.096	4.336	7.3041	8.4063
5.3431	6.9544	10.759	10.0736	10.1827	13.8529	12.9074	12.8123	17.2966	15.5286	15.9203	17.7386	17.4253	2.0421	-2.5681	-2.3107	-4.0507	10.0876	4.3276	7.4076	8.4511
5.3739	6.9768	10.773	10.1128	10.2079	13.8641	12.9102	12.7983	17.2994	15.5258	15.8615	17.6519	17.3917	1.9918	-2.6156	-2.3582	-3.9528	10.1267	4.3165	7.4944	8.4874
5.4075	6.96	10.8121	10.1603	10.2107	13.8809	12.927	12.7731	17.2351	15.4895	15.7776	17.5512	17.319	1.9386	-2.6044	-2.3974	-3.8493	10.1072	4.2913	7.5447	8.507
5.3935	6.9517	10.8317	10.2219	10.1911	13.8557	12.941	12.7284	17.1931	15.4615	15.6713	17.4309	17.2518	1.8855	-2.6436	-2.4282	-3.7514	10.0792	4.2605	7.5839	8.4986
5.4131	6.9209	10.8485	10.2918	10.1827	13.8585	12.941	12.6472	17.1064	15.4167	15.551	17.2658	17.1483	1.8519	-2.6855	-2.4673	-3.6674	10.0344	4.2018	7.6007	8.4707
5.427	6.8873	10.8289	10.3366	10.1435	13.8306	12.9634	12.5745	17.0225	15.3496	15.3943	17.1008	17.0197	1.8044	-2.7247	-2.4645	-3.5807	9.9729	4.0955	7.5867	8.4231
5.4019	6.8314	10.8429	10.4289	10.0904	13.797	12.9773	12.4598	16.905	15.2796	15.2181	16.9329	16.8686	1.7652	-2.7835	-2.4785	-3.5024	9.9085	3.9836	7.5475	8.3951
5.3991	6.8006	10.8121	10.4792	10.0204	13.7494	12.9522	12.3255	16.8015	15.1873	15.0251	16.7399	16.7315	1.74	-2.8394	-2.4841	-3.4465	9.8162	3.8577	7.4999	8.3056
5.3711	6.7362	10.8121	10.5436	9.9505	13.7299	12.969	12.2025	16.7007	15.1258	14.8348	16.5413	16.5721	1.7092	-2.901	-2.5121	-3.3961	9.7407	3.743	7.43	8.2217
5.3963	6.6439	10.7953	10.5771	9.8442	13.6543	12.941	12.0402	16.5637	15.0195	14.5999	16.3203	16.393	1.6925	-2.9429	-2.5065	-3.3485	9.64	3.5751	7.3629	8.1266
5.3795	6.5656	10.7814	10.6387	9.7379	13.6012	12.955	11.9003	16.4182	14.916	14.3593	16.0881	16.2056	1.6953	-2.9877	-2.5289	-3.3513	9.5281	3.4213	7.2957	8.0371
5.3711	6.4481	10.759	10.6583	9.6316	13.5145	12.9158	11.7073	16.2615	14.8013	14.0991	15.8587	16.0014	1.6757	-3.0744	-2.5485	-3.3429	9.3966	3.2478	7.237	7.8916
5.3431	6.3754	10.7058	10.7198	9.4917	13.4501	12.8654	11.5339	16.1189	14.6782	13.839	15.6349	15.7972	1.698	-3.1555	-2.5848	-3.3709	9.2987	3.0688	7.2146	7.7713
5.3347	6.2887	10.6695	10.7674	9.3742	13.3466	12.8123	11.338	15.9398	14.5439	13.5956	15.4083	15.5986	1.7176	-3.2059	-2.5904	-3.4185	9.1812	2.9037	7.181	7.6622
5.304	6.1656	10.6471	10.7618	9.2316	13.2459	12.7396	11.1282	15.758	14.3956	13.3298	15.1622	15.3943	1.7456	-3.2646	-2.6072	-3.4744	9.0861	2.7275	7.1615	7.5055
5.2956	6.0537	10.5967	10.7758	9.0777	13.1396	12.6752	10.9436	15.6069	14.2754	13.0836	14.9607	15.2181	1.7876	-3.3234	-2.6268	-3.5556	8.9966	2.5681	7.1922	7.3713
5.2424	5.9642	10.5156	10.7478	8.9211	13.0137	12.5913	10.7506	15.4027	14.1019	12.8375	14.7369	15.0055	1.8099	-3.3877	-2.638	-3.6199	8.8707	2.4142	7.1699	7.1978
5.1809	5.8271	10.4317	10.7002	8.7784	12.8962	12.4934	10.5576	15.2237	13.9676	12.6193	14.5411	14.8348	1.8519	-3.4353	-2.6604	-3.6842	8.756	2.2296	7.1838	7.03
5.1165	5.7096	10.3142	10.6219	8.6441	12.7508	12.3731	10.3757	15.0475	13.797	12.4123	14.3397	14.653	1.8855	-3.4996	-2.6939	-3.757	8.6637	2.0869	7.1726	6.8677
5.0298	5.5921	10.2135	10.5324	8.4791	12.6305	12.2388	10.2079	14.8628	13.6347	12.2416	14.1691	14.4908	1.9218	-3.5667	-2.7135	-3.8269	8.5714	1.9414	7.1754	6.7167
4.9515	5.483	10.1072	10.4429	8.3616	12.4934	12.1101	10.0624	14.695	13.4893	12.071	14.0264	14.3537	1.9554	-3.6395	-2.7555	-3.894	8.4735	1.7932	7.1699	6.5964
4.848	5.3571	9.9589	10.3058	8.2245	12.3199	11.9451	9.889	14.5299	13.3214	11.9227	13.8557	14.2222	1.9806	-3.7038	-2.7974	-3.9612	8.3979	1.6505	7.1195	6.4509
4.7529	5.2648	9.8302	10.2051	8.1154	12.1829	11.8388	9.7715	14.3733	13.1788	11.794	13.7355	14.1019	2.0281	-3.7849	-2.8646	-4.0255	8.3392	1.5078	7.0831	6.3306
4.6382	5.1473	9.6708	10.0372	8.0035	12.0066	11.6849	9.6288	14.2054	13.0221	11.6737	13.5956	13.9844	2.0645	-3.8857	-2.9149	-4.0927	8.2748	1.3707	7.0048	6.1824
4.5431	5.0606	9.5505	9.9002	7.9	11.8807	11.5423	9.5085	14.0572	12.8934	11.559	13.4781	13.8725	2.0953	-3.9416	-2.9849	-4.1682	8.2133	1.2561	6.9181	6.0453
4.4339	4.985	9.3966	9.7435	7.7993	11.7353	11.408	9.405	13.9061	12.7536	11.4527	13.3662	13.7494	2.1345	-3.9864	-3.066	-4.2325	8.1434	1.1497	6.7838	5.9306
4.3248	4.8704	9.2372	9.5477	7.6678	11.5618	11.2485	9.2539	13.7327	12.5997	11.3324	13.2879	13.6515	2.154	-4.0899	-3.1723	-4.2829	8.0846	1.0295	6.602	5.7795
4.2185	4.764	9.0889	9.3938	7.5643	11.3884	11.1031	9.1141	13.562	12.4822	11.201	13.1732	13.5452	2.1792	-4.1178	-3.2394	-4.3444	8.0119	0.912	6.4341	5.6564
4.1122	4.7053	8.9686	9.2372	7.4804	11.2541	10.9884	9.0302	13.4529	12.3507	11.1115	13.1088	13.4809	2.2184	-4.1682	-3.3094	-4.4116	7.9783	0.828	6.2551	5.5305
4.0199	4.6102	8.812	9.0861	7.3713	11.1254	10.8597	8.8903	13.3018	12.236	11.0191	13.0389	13.4082	2.2631	-4.2241	-3.4073	-4.4759	7.9364	0.7385	6.0425	5.3963
3.9192	4.5403	8.6945	8.9099	7.2594	10.9632	10.6974	8.756	13.148	12.0878	10.8653	12.9745	13.313	2.2715	-4.2661	-3.508	-4.5151	7.8384	0.6238	5.7879	5.2452
3.8549	4.4731	8.6049	8.7504	7.1754	10.8625	10.5855	8.6413	13.0137	11.9871	10.7897	12.941	13.2851	2.2939	-4.3248	-3.6255	-4.5486	7.7909	0.4979	5.5473	5.1081
3.7682	4.3864	8.5266	8.6021	7.1111	10.759	10.4904	8.5434	12.9298	11.9031	10.703	12.9326	13.2599	2.3219	-4.3724	-3.729	-4.6074	7.7685	0.4588	5.3319	4.9962
3.7094	4.3668	8.4259	8.4483	7.0552	10.6946	10.4009	8.4874	12.8654	11.8248	10.6331	12.9606	13.2683	2.3359	-4.4339	-3.8465	-4.6466	7.7321	0.3832	5.0941	4.8871
3.6507	4.3081	8.3672	8.342	6.9964	10.6359	10.3114	8.4035	12.8151	11.7772	10.5883	13.0333	13.2991	2.361	-4.4843	-3.95	-4.6829	7.7433	0.3385	4.8955	4.7696
3.5975	4.2745	8.3392	8.2133	6.9824	10.5911	10.2526	8.3783	12.8011	11.7549	10.5799	13.1228	13.3466	2.389	-4.5123	-4.0647	-4.7305	7.7126	0.2518	4.7389	4.6577
3.6003	4.2885	8.3	8.135	6.9489	10.5632	10.2163	8.356	12.8095	11.7605	10.5855	13.2739	13.4361	2.4086	-4.5319	-4.1486	-4.7808	7.7433	0.2322	4.5822	4.5822
3.5835	4.2633	8.3084	8.0427	6.9628	10.552	10.1547	8.3504	12.8151	11.7493	10.6107	13.3914	13.5452	2.4198	-4.5291	-4.199	-4.8004	7.7881	0.179	4.4535	4.4759
3.5891	4.2605	8.3056	7.9447	6.96	10.5464	10.1128	8.3616	12.8431	11.7661	10.6527	13.59	13.6655	2.4338	-4.5375	-4.2913	-4.8312	7.7993	0.1371	4.3836	4.3808
3.5863	4.2773	8.3224	7.9028	6.9824	10.5632	10.0904	8.3811	12.9074	11.78	10.7254	13.7774	13.8278	2.4394	-4.5263	-4.3332	-4.8704	7.8552	0.1091	4.3137	4.3304
3.6059	4.3109	8.3392	7.8245	6.9964	10.5855	10.0708	8.4091	12.9745	11.8276	10.7981	13.9648	13.976	2.4618	-4.4759	-4.3864	-4.8871	7.9224	0.0783	4.3053	4.2689
3.5891	4.2997	8.3448	7.7517	7.0412	10.6051	10.0372	8.4483	13.0613	11.864	10.8988	14.1858	14.1579	2.4701	-4.4563	-4.4451	-4.8927	8.0119	0.0392	4.3276	4.2269
3.6255	4.336	8.3895	7.7154	7.0775	10.6667	10.0204	8.5266	13.1508	11.9227	11.0191	14.4208	14.3425	2.4897	-4.4088	-4.4787	-4.9207	8.107	0.014	4.3808	4.213
3.6674	4.3696	8.4119	7.6706	7.1167	10.6862	10.0121	8.5798	13.2431	11.9815	11.1422	14.6474	14.5159	2.4841	-4.3528	-4.4843	-4.9235	8.1965	0.0168	4.4367	4.2074
3.6758	4.3584	8.4147	7.609	7.1419	10.7422	9.9729	8.6497	13.3382	12.0262	11.2597	14.8936	14.6894	2.4869	-4.3416	-4.5542	-4.9319	8.3112	0.0056	4.5319	4.1934
3.6786	4.3612	8.4399	7.5587	7.181	10.7394	9.9309	8.6945	13.4277	12.0738	11.3744	15.0866	14.9048	2.4729	-4.3109	-4.613	-4.9095	8.3979	-0.0168	4.6298	4.1822
3.7178	4.3892	8.4623	7.5307	7.2174	10.7646	9.9169	8.742	13.5452	12.1465	11.5031	15.3188	15.0978	2.4785	-4.2661	-4.6018	-4.9095	8.5322	-0.0084	4.7361	4.1738
3.729	4.3976	8.4231	7.4692	7.2258	10.7841	9.8722	8.7924	13.6264	12.1941	11.6206	15.5286	15.2936	2.4701	-4.2241	-4.6857	-4.9011	8.6329	-0.0448	4.8256	4.1878
3.7374	4.4116	8.4427	7.43	7.2538	10.7897	9.8358	8.8707	13.7131	12.2584	11.7493	15.7244	15.4587	2.4478	-4.2297	-4.6997	-4.8676	8.7364	-0.0252	4.8983	4.185
3.7402	4.4228	8.4259	7.3769	7.279	10.8177	9.819	8.935	13.8026	12.3088	11.8472	15.9203	15.6377	2.431	-4.2157	-4.7501	-4.834	8.8343	-0.0084	4.9683	4.199
3.7458	4.4144	8.4287	7.3377	7.2845	10.8233	9.7967	9.005	13.8865	12.3955	11.9787	16.1273	15.8307	2.4114	-4.1934	-4.7696	-4.8004	8.9406	-0.0028	5.0438	4.2102
3.7626	4.4312	8.4007	7.3349	7.3013	10.8345	9.7939	9.0665	13.9788	12.4934	12.0989	16.3175	16.0266	2.3974	-4.1962	-4.778	-4.7752	9.0553	0.0056	5.1081	4.2465
3.7682	4.4339	8.4315	7.3013	7.3209	10.8653	9.8106	9.1448	14.0879	12.5857	12.236	16.5105	16.2056	2.3806	-4.1962	-4.8312	-4.7193	9.2036	0.0196	5.1529	4.2829
3.7738	4.4535	8.4259	7.2845	7.3629	10.9072	9.8134	9.212	14.1886	12.678	12.3759	16.7035	16.393	2.361	-4.2046	-4.8564	-4.6773	9.3071	0.0448	5.2144	4.3528
3.7738	4.4927	8.4399	7.2985	7.3601	10.9492	9.8638	9.2987	14.2977	12.7955	12.5074	16.8546	16.5944	2.3387	-4.2102	-4.8843	-4.6438	9.433	0.0923	5.2788	4.4395
3.7961	4.4871	8.4315	7.2985	7.4048	10.9744	9.889	9.3686	14.3761	12.8878	12.6193	17.0113	16.7735	2.3191	-4.2409	-4.9375	-4.6018	9.5561	0.1231	5.3403	4.5235
3.7905	4.4731	8.4119	7.3097	7.4468	10.9912	9.9477	9.4246	14.4404	12.9745	12.7032	17.126	16.9161	2.3023	-4.2689	-4.9599	-4.5654	9.668	0.1706	5.3795	4.6074
3.7821	4.4843	8.4091	7.3153	7.4328	11.0023	9.9449	9.4526	14.488	13.0697	12.7703	17.1791	17.0308	2.2939	-4.3025	-5.0158	-4.5319	9.7799	0.1706	5.4298	4.6661
3.7402	4.4815	8.4007	7.3237	7.4244	10.9884	9.9925	9.4721	14.5075	13.148	12.8263	17.2323	17.1148	2.2883	-4.336	-5.0746	-4.5235	9.8806	0.1874	5.483	4.7249
3.6954	4.4647	8.3811	7.3461	7.4076	10.9604	10.0065	9.4498	14.502	13.1676	12.8347	17.2071	17.1539	2.2743	-4.392	-5.1249	-4.5151	9.9421	0.2042	5.511	4.7724
3.6674	4.4479	8.3448	7.3657	7.3713	10.9576	10.0288	9.4078	14.488	13.2067	12.8375	17.1875	17.1847	2.2855	-4.4144	-5.1837	-4.5179	10.04	0.2322	5.5445	4.8144
3.6227	4.4228	8.3	7.3657	7.2957	10.9128	10.068	9.363	14.4404	13.2011	12.7871	17.1036	17.1735	2.2967	-4.4647	-5.2088	-4.5375	10.096	0.2378	5.5921	4.834
3.5639	4.3808	8.2609	7.3573	7.2482	10.8737	10.0792	9.3211	14.3789	13.1788	12.7284	16.9861	17.126	2.3051	-4.5291	-5.3151	-4.5654	10.1435	0.2322	5.6229	4.8424
3.5024	4.3388	8.2245	7.3405	7.1699	10.773	10.054	9.2008	14.3005	13.1508	12.6333	16.8378	17.0364	2.3275	-4.585	-5.3935	-4.6102	10.1631	0.207	5.6536	4.8564
3.4716	4.3053	8.1881	7.3377	7.0971	10.7338	10.0484	9.1169	14.211	13.12	12.5353	16.6868	16.9637	2.375	-4.641	-5.4746	-4.6661	10.1911	0.1902	5.6816	4.8536
3.3793	4.2381	8.1266	7.3265	7.0244	10.6527	10.0344	9.0274	14.0711	13.0613	12.4179	16.5049	16.8378	2.389	-4.6913	-5.5753	-4.7221	10.1883	0.193	5.6844	4.834
3.3178	4.1682	8.065	7.3097	6.9405	10.5939	10.0037	8.9183	13.9537	13.0081	12.2948	16.3175	16.7091	2.4226	-4.7864	-5.6844	-4.7948	10.1883	0.1678	5.7068	4.8088
3.2562	4.1262	8.0287	7.279	6.8425	10.524	9.9729	8.8008	13.8278	12.9074	12.1493	16.1217	16.5553	2.4478	-4.8228	-5.7935	-4.8396	10.1547	0.1623	5.6984	4.7752
3.1835	4.0759	7.9923	7.265	6.7586	10.4792	9.9505	8.6749	13.7047	12.8207	12.029	15.937	16.407	2.4757	-4.9095	-5.8746	-4.9067	10.124	0.1539	5.7292	4.778
3.1303	4.0059	7.9252	7.2174	6.6635	10.3673	9.8946	8.5518	13.5676	12.7256	11.8863	15.7244	16.228	2.4981	-5.0074	-5.9502	-4.9543	10.0848	0.1511	5.746	4.7613
3.0576	3.9752	7.8748	7.181	6.5936	10.331	9.861	8.4231	13.4305	12.6109	11.7465	15.5286	16.0629	2.5289	-5.083	-6.0481	-5.0186	10.0204	0.1371	5.7851	4.7529
2.9877	3.9276	7.8161	7.1335	6.4845	10.2414	9.7771	8.286	13.3018	12.5046	11.6122	15.3188	15.8503	2.5653	-5.1865	-6.1404	-5.0774	9.9701	0.1203	5.8243	4.7305
2.9233	3.8661	7.7657	7.0915	6.3698	10.1631	9.6987	8.1657	13.1424	12.3787	11.4611	15.0978	15.6573	2.5932	-5.2648	-6.2327	-5.1333	9.8862	0.0811	5.8495	4.6997
2.831	3.7989	7.693	6.9936	6.2383	10.0176	9.6008	7.9951	12.9298	12.2108	11.2681	14.8572	15.4167	2.6156	-5.3655	-6.3278	-5.1725	9.7939	0.0615	5.8467	4.6577
2.7611	3.7402	7.6035	6.9013	6.118	9.8974	9.4526	7.8077	12.7144	12.029	11.0835	14.5803	15.1622	2.6296	-5.4634	-6.4145	-5.2144	9.6484	0.0084	5.8802	4.5822
2.6716	3.6591	7.5279	6.8062	5.9753	9.7939	9.3155	7.637	12.471	11.8136	10.8877	14.3117	14.8852	2.652	-5.5641	-6.5041	-5.2592	9.5309	-0.0392	5.8411	4.5291
2.6044	3.5919	7.4328	6.6887	5.8383	9.6428	9.1672	7.4412	12.2584	11.5898	10.6834	14.004	14.6027	2.6688	-5.6536	-6.56	-5.3012	9.4106	-0.0671	5.8271	4.4647
2.5317	3.5192	7.3153	6.532	5.6816	9.4861	8.9686	7.2202	11.9787	11.3352	10.4093	13.6879	14.2838	2.6744	-5.732	-6.6188	-5.3123	9.2344	-0.1287	5.7767	4.3724
2.4422	3.4017	7.1978	6.381	5.5026	9.2875	8.7672	6.9628	11.6877	11.0359	10.1267	13.3354	13.9117	2.68	-5.8047	-6.6579	-5.304	9.0637	-0.2238	5.6928	4.2633
2.3499	3.301	7.0747	6.2187	5.276	9.0889	8.5238	6.6999	11.3604	10.7058	9.819	12.969	13.5564	2.6716	-5.8858	-6.6971	-5.3012	8.8399	-0.3077	5.5641	4.1206
2.2967	3.2059	6.96	6.0425	5.083	8.8791	8.3224	6.4285	11.0303	10.3897	9.5113	12.5913	13.176	2.6744	-5.8914	-6.6859	-5.3012	8.6273	-0.4084	5.4242	4.0003
2.2156	3.0996	6.8453	5.869	4.8452	8.6665	8.051	6.1152	10.689	10.0456	9.1644	12.1969	12.7871	2.6632	-5.9306	-6.6831	-5.2872	8.3979	-0.5315	5.2452	3.8409
2.1792	2.9849	6.7139	5.6844	4.6298	8.4343	7.8049	5.8159	10.3477	9.7239	8.8036	11.836	12.4011	2.6604	-5.939	-6.6467	-5.2732	8.1657	-0.6546	5.0438	3.6926
2.1093	2.859	6.6076	5.5026	4.3976	8.2497	7.5671	5.511	10.0176	9.3882	8.4567	11.4499	12.0374	2.652	-5.9418	-6.616	-5.2536	7.9475	-0.7665	4.834	3.5304
2.0561	2.7639	6.5041	5.3487	4.1906	8.0594	7.3125	5.2424	9.7267	9.0413	8.1042	11.1003	11.6458	2.6436	-5.911	-6.5796	-5.234	7.7209	-0.8588	4.5934	3.3709
2.003	2.652	6.3838	5.1585	3.9696	7.8412	7.0719	4.9599	9.3826	8.7112	7.7461	10.7394	11.3241	2.6184	-5.9054	-6.518	-5.2004	7.472	-0.9903	4.3444	3.2031
1.9862	2.5848	6.3082	4.9906	3.7849	7.6678	6.8453	4.7109	9.1057	8.4175	7.4496	10.4513	10.994	2.61	-5.8467	-6.4593	-5.1697	7.2342	-1.0798	4.0731	3.0632
1.9722	2.5289	6.2243	4.8284	3.6031	7.5055	6.616	4.4535	8.812	8.1154	7.1111	10.1323	10.6806	2.582	-5.7795	-6.3698	-5.1277	7.0104	-1.1637	3.7989	2.9149
1.9526	2.4813	6.174	4.6773	3.4465	7.3797	6.4229	4.2269	8.5826	7.858	6.8425	9.8946	10.4317	2.5653	-5.7096	-6.2719	-5.0941	6.8314	-1.2365	3.5611	2.7863
1.947	2.4058	6.1096	4.5431	3.2814	7.2398	6.2355	4.0115	8.3308	7.6063	6.5684	9.668	10.1855	2.5401	-5.5893	-6.2159	-5.0326	6.6243	-1.3008	3.3066	2.6883
1.9582	2.3834	6.0677	4.4256	3.1611	7.1391	6.0677	3.8269	8.135	7.3964	6.339	9.4638	9.9785	2.5177	-5.5305	-6.1488	-4.9878	6.4509	-1.3652	3.0772	2.596
1.9442	2.3638	6.0173	4.2885	3.0352	7.0048	5.8578	3.6535	7.9308	7.1587	6.1124	9.2707	9.7799	2.4673	-5.4522	-6.0816	-4.9067	6.2551	-1.4015	2.831	2.4981
1.9498	2.3527	5.9781	4.1626	2.9373	6.8873	5.6872	3.4744	7.7685	6.9544	5.925	9.0693	9.598	2.431	-5.3907	-6.0369	-4.8396	6.0928	-1.4575	2.6184	2.403
1.9498	2.3331	5.9362	4.0507	2.831	6.8062	5.5473	3.3541	7.6007	6.7614	5.7292	8.9211	9.4302	2.3918	-5.29	-5.9837	-4.7696	5.9586	-1.4798	2.4114	2.3275
1.9386	2.3415	5.9418	3.9528	2.7443	6.7027	5.4159	3.2031	7.4384	6.5908	5.5361	8.7532	9.2623	2.3638	-5.2368	-5.9474	-4.6745	5.8103	-1.5302	2.2324	2.2463
1.9694	2.3247	5.9194	3.8493	2.6604	6.6383	5.2704	3.0912	7.2678	6.395	5.3459	8.5854	9.0917	2.3023	-5.1389	-5.9194	-4.5766	5.6424	-1.5638	2.0309	2.1624
1.9582	2.3443	5.9026	3.757	2.5988	6.5404	5.1585	2.9681	7.1307	6.2439	5.1725	8.4091	8.9015	2.2519	-5.0774	-5.8327	-4.4787	5.483	-1.6057	1.8659	2.0729
1.9806	2.3554	5.8802	3.6702	2.5457	6.5041	5.027	2.8926	7.0188	6.076	5.0214	8.2553	8.7588	2.1932	-4.9878	-5.7963	-4.3528	5.3291	-1.6057	1.7176	2.0226
2.0393	2.4282	5.9138	3.6423	2.5541	6.4789	4.9263	2.8478	6.9069	5.939	4.8787	8.1462	8.6217	2.1372	-4.8787	-5.718	-4.2437	5.1725	-1.6141	1.575	1.9834
2.0869	2.4813	5.939	3.5919	2.5541	6.4229	4.8592	2.7891	6.8425	5.8047	4.7417	8.0035	8.4567	2.0729	-4.7529	-5.6396	-4.1206	5.0102	-1.6057	1.4547	1.933
2.154	2.5429	5.9921	3.5779	2.5792	6.4369	4.7808	2.7443	6.7754	5.6648	4.6354	7.8692	8.3112	1.9974	-4.6382	-5.5529	-3.9864	4.8452	-1.6309	1.354	1.9079
2.2659	2.6632	6.0677	3.5863	2.6352	6.4621	4.7417	2.7359	6.7362	5.5613	4.5514	7.7685	8.1769	1.9386	-4.5179	-5.4634	-3.8577	4.6969	-1.5862	1.2756	1.8771
2.3638	2.8086	6.1879	3.6087	2.7275	6.4929	4.7165	2.7723	6.7139	5.497	4.4787	7.6902	8.0287	1.8659	-4.35	-5.3543	-3.7094	4.5291	-1.5694	1.1861	1.8659
2.5065	2.9821	6.2998	3.6814	2.8646	6.5964	4.7473	2.831	6.753	5.4578	4.4423	7.6426	7.9336	1.8044	-4.1682	-5.234	-3.5723	4.3612	-1.5134	1.1553	1.8939
2.6548	3.1527	6.4565	3.7486	2.9933	6.7083	4.7808	2.9121	6.8118	5.4131	4.4423	7.6035	7.8217	1.7344	-4.0367	-5.1361	-3.4213	4.2018	-1.4603	1.1162	1.9051
2.831	3.3933	6.6523	3.894	3.1891	6.8649	4.8676	3.0324	6.9041	5.4354	4.4647	7.5923	7.7545	1.6421	-3.8325	-5.027	-3.2674	4.0199	-1.3987	1.0434	1.9274
3.0296	3.5919	6.8565	4.0227	3.3709	7.0104	4.9822	3.1583	7.0104	5.4522	4.4983	7.6035	7.6902	1.5554	-3.673	-4.9179	-3.0912	3.8549	-1.3176	1.0379	1.9638
3.2954	3.8745	7.1055	4.1962	3.6227	7.2426	5.1193	3.3318	7.1447	5.511	4.5598	7.6622	7.6314	1.4882	-3.466	-4.7585	-2.9541	3.7262	-1.2085	1.0015	2.017
3.5332	4.1402	7.3713	4.3836	3.8996	7.4524	5.2816	3.5136	7.2901	5.5949	4.6298	7.7042	7.5951	1.4183	-3.2366	-4.6577	-2.803	3.5528	-1.091	0.9847	2.0645
3.7961	4.4535	7.665	4.6074	4.143	7.693	5.469	3.7094	7.4776	5.6928	4.7305	7.7657	7.5419	1.326	-3.0408	-4.5095	-2.6464	3.3821	-0.9623	0.9427	2.0981
4.0927	4.7585	7.9811	4.8704	4.4479	7.9923	5.7012	3.9136	7.6566	5.8075	4.8312	7.8133	7.5139	1.2589	-2.8002	-4.3276	-2.5009	3.2422	-0.8169	0.926	2.168
4.4088	5.0886	8.3	5.1669	4.7724	8.2972	5.9725	4.1878	7.8664	5.9586	4.9543	7.8916	7.486	1.1889	-2.5317	-4.185	-2.3638	3.0996	-0.6742	0.8756	2.2296
4.7249	5.4019	8.6441	5.441	5.0997	8.5826	6.2159	4.4004	8.0846	6.09	5.0746	7.9475	7.4608	1.1134	-2.2771	-4.0199	-2.2156	2.9513	-0.5091	0.8448	2.2631
5.0662	5.7683	9.0357	5.746	5.4494	8.9099	6.4929	4.6494	8.3168	6.2803	5.1557	8.0063	7.4552	1.0462	-1.9806	-3.8269	-2.0869	2.8394	-0.3413	0.8224	2.2883
5.4159	6.132	9.4106	6.0537	5.8131	9.2735	6.8118	4.9235	8.5658	6.4397	5.3068	8.0874	7.4328	0.9791	-1.7092	-3.6199	-1.9498	2.6883	-0.1874	0.8057	2.3415
5.8019	6.4929	9.8078	6.367	6.1628	9.6008	7.0887	5.1697	8.8036	6.5964	5.4159	8.1434	7.4216	0.9064	-1.4015	-3.4101	-1.8155	2.5625	-0.028	0.7833	2.375
6.1768	6.8789	10.2163	6.739	6.5656	9.9589	7.4272	5.469	9.0553	6.8258	5.5529	8.2581	7.4188	0.842	-1.0938	-3.2227	-1.6925	2.4422	0.1734	0.8029	2.4198
6.5376	7.265	10.6135	7.0719	6.9321	10.3282	7.7154	5.7292	9.3379	6.9936	5.676	8.3084	7.4104	0.7917	-0.8197	-2.9989	-1.5638	2.3107	0.3637	0.8085	2.4422
6.9265	7.6566	11.0415	7.416	7.3153	10.6611	8.0566	6.0117	9.6064	7.1978	5.7935	8.4119	7.3964	0.7245	-0.5371	-2.7555	-1.4407	2.2072	0.5567	0.8588	2.4645
7.3405	8.1014	11.4667	7.7881	7.7321	11.0639	8.3923	6.3418	9.9002	7.4356	5.9446	8.5266	7.4272	0.6714	-0.2658	-2.5317	-1.3288	2.1233	0.7525	0.9232	2.5121
7.7237	8.4874	11.9059	8.1378	8.1126	11.4779	8.7196	6.6411	10.2023	7.665	6.0984	8.6385	7.4664	0.6266	0.014	-2.2911	-1.2281	2.0505	0.9343	1.0295	2.5233
8.1014	8.8931	12.3116	8.4791	8.5126	11.8444	9.0525	6.9544	10.4904	7.886	6.2523	8.7504	7.5083	0.5623	0.2741	-2.0226	-1.1218	1.9862	1.119	1.133	2.5653
8.4958	9.3071	12.7619	8.8175	8.9211	12.1885	9.3547	7.2678	10.7786	8.0986	6.4145	8.8651	7.5531	0.5091	0.5567	-1.7512	-1.0043	1.9442	1.3288	1.2616	2.5932
8.8455	9.7043	13.1648	9.1393	9.3127	12.5381	9.6512	7.5643	11.0555	8.3504	6.5656	8.9714	7.6314	0.4532	0.7861	-1.533	-0.912	1.919	1.505	1.4267	2.596
9.2064	10.0988	13.534	9.4721	9.6931	12.8878	9.9253	7.8524	11.3352	8.5686	6.739	9.0917	7.707	0.4084	1.0015	-1.2784	-0.8252	1.9274	1.7092	1.6001	2.6156
9.4973	10.4596	13.9089	9.7575	10.0652	13.2095	10.1939	8.1294	11.5618	8.7672	6.8845	9.1728	7.7769	0.3581	1.2309	-1.0714	-0.7469	1.9246	1.8855	1.7764	2.6436
9.8274	10.8037	14.2586	10.0121	10.4205	13.5256	10.4401	8.4091	11.8164	8.9994	7.0468	9.2763	7.8748	0.3441	1.4127	-0.8476	-0.6854	1.9722	2.0421	2.0058	2.666
10.1072	11.1478	14.5579	10.2359	10.7534	13.8222	10.6191	8.6497	12.0206	9.1504	7.1782	9.3463	7.9531	0.2965	1.5582	-0.6546	-0.6154	2.003	2.1848	2.1736	2.6911
10.3477	11.4192	14.846	10.4485	11.0527	14.0656	10.8121	8.8735	12.1969	9.3239	7.3041	9.4106	8.0231	0.2825	1.6869	-0.484	-0.5791	2.0505	2.3359	2.3527	2.7247
10.5939	11.6933	15.0922	10.6191	11.3464	14.2558	10.9632	9.1085	12.3479	9.4721	7.4216	9.4777	8.121	0.263	1.8071	-0.3441	-0.5315	2.1652	2.4618	2.5345	2.7415
10.7702	11.9535	15.3132	10.773	11.5982	14.4628	11.0835	9.3071	12.4766	9.5952	7.5419	9.5169	8.1909	0.2518	1.8771	-0.2238	-0.5035	2.2575	2.5541	2.6995	2.7499
10.9604	12.1717	15.509	10.8877	11.8276	14.6222	11.1646	9.4749	12.5857	9.7351	7.6314	9.5477	8.2832	0.2462	1.9218	-0.1259	-0.4924	2.3582	2.652	2.8394	2.7667
11.1059	12.3619	15.6937	10.9884	12.0458	14.7705	11.2457	9.6428	12.7032	9.8078	7.7461	9.6064	8.3644	0.2462	1.9946	-0.0504	-0.4951	2.4897	2.7191	2.9681	2.7918
11.2345	12.5214	15.8223	11.0555	12.2332	14.86	11.2961	9.7855	12.7703	9.8834	7.8273	9.626	8.4735	0.2518	2.0365	0.0168	-0.5007	2.6156	2.7751	3.0912	2.8114
11.3408	12.6612	15.9426	11.1226	12.4151	14.9607	11.3352	9.9337	12.8347	9.9897	7.9391	9.6652	8.5826	0.2741	2.0701	0.0476	-0.5287	2.7667	2.803	3.2199	2.8226
11.4024	12.7955	16.021	11.159	12.5577	15.0279	11.3352	10.0372	12.8962	10.054	8.0399	9.7127	8.7056	0.2937	2.1177	0.0755	-0.5791	2.9149	2.845	3.301	2.859
11.4639	12.8822	16.0853	11.1534	12.7032	15.081	11.3324	10.1827	12.9522	10.1267	8.1518	9.7855	8.8483	0.3105	2.1121	0.0643	-0.621	3.1108	2.8954	3.3681	2.9205
11.4695	12.9522	16.0797	11.1115	12.8011	15.0838	11.2933	10.2666	12.969	10.1519	8.2748	9.8554	8.9798	0.3469	2.1289	0.0671	-0.6742	3.301	2.901	3.4213	2.9485
11.4415	12.9662	16.0517	11.0639	12.8599	15.0642	11.2457	10.3338	12.9745	10.1883	8.356	9.8862	9.1197	0.3693	2.1345	0.028	-0.7329	3.4688	2.8982	3.4325	2.9373
11.436	12.9997	16.0322	11.0331	12.9186	15.0223	11.2122	10.4121	12.9801	10.2554	8.493	9.9757	9.3043	0.4252	2.1317	0.0028	-0.8364	3.6954	2.9177	3.4548	2.9989
11.3324	12.9522	15.9566	10.938	12.9158	14.9384	11.1338	10.4261	12.9466	10.2666	8.5965	10.0065	9.461	0.47	2.0981	-0.0532	-0.9315	3.8996	2.8982	3.4744	3.0128
11.2261	12.8627	15.8531	10.8177	12.899	14.8348	11.0247	10.4373	12.8962	10.2666	8.6497	10.0344	9.626	0.5147	2.0421	-0.165	-1.0267	4.0899	2.859	3.4688	2.9961
11.1059	12.7955	15.7021	10.689	12.8431	14.7257	10.9072	10.4289	12.8375	10.3002	8.7504	10.0736	9.7994	0.5735	1.9806	-0.2658	-1.1497	4.3193	2.8114	3.4632	3.0128
10.9492	12.6584	15.5566	10.5436	12.7424	14.5691	10.7841	10.3869	12.7368	10.2638	8.7784	10.0764	9.9617	0.635	1.8827	-0.3777	-1.27	4.5319	2.7527	3.4576	2.9765
10.773	12.4682	15.3328	10.3561	12.6053	14.3593	10.6079	10.3002	12.5689	10.2051	8.8008	10.054	10.0792	0.6826	1.7764	-0.5483	-1.3735	4.7277	2.6632	3.4213	2.9429
10.5548	12.278	15.109	10.1575	12.443	14.1495	10.4261	10.2023	12.4346	10.1463	8.812	10.0428	10.2107	0.7469	1.6505	-0.7245	-1.4994	4.9375	2.596	3.4465	2.9177
10.3254	12.071	14.8348	9.9337	12.2416	13.8977	10.2247	10.0512	12.2584	10.0652	8.7952	9.9813	10.3086	0.8057	1.5162	-0.9148	-1.6141	5.1361	2.4953	3.4353	2.9093
10.082	11.836	14.5747	9.6792	12.0234	13.6264	10.0037	9.9225	12.0514	9.9701	8.7532	9.9365	10.3953	0.8756	1.3596	-1.1106	-1.7568	5.3235	2.4114	3.4213	2.8926
9.7771	11.5367	14.239	9.3994	11.7772	13.3298	9.7519	9.7127	11.808	9.861	8.6889	9.8526	10.4345	0.9232	1.1749	-1.3008	-1.8575	5.4606	2.2771	3.3765	2.8086
9.5141	11.2737	13.9229	9.1141	11.5115	13.0557	9.5113	9.5421	11.5842	9.7239	8.6301	9.7547	10.5044	0.9931	0.9763	-1.5162	-1.989	5.6061	2.1848	3.3765	2.7723
9.184	10.9632	13.5928	8.8287	11.2206	12.7508	9.2428	9.3379	11.3604	9.5757	8.5574	9.6736	10.5268	1.063	0.7889	-1.7232	-2.1093	5.7404	2.0589	3.3262	2.7275
8.8567	10.6667	13.2403	8.507	10.9212	12.4095	8.9602	9.0861	11.1031	9.4022	8.4539	9.5645	10.5324	1.0994	0.5259	-1.9918	-2.1904	5.8215	1.9107	3.3094	2.68
8.5462	10.3254	12.8599	8.2133	10.5995	12.085	8.6917	8.8847	10.8429	9.2484	8.3755	9.4777	10.5464	1.1581	0.2853	-2.2128	-2.2827	5.9474	1.8211	3.2814	2.6604
8.2021	10.0065	12.4822	7.8496	10.2862	11.7716	8.4007	8.6357	10.5883	9.0637	8.2637	9.3463	10.5324	1.1833	0.014	-2.4394	-2.3638	6.0033	1.6953	3.2255	2.6156
7.8552	9.6736	12.1297	7.5447	9.9729	11.4332	8.1294	8.3867	10.331	8.8959	8.2189	9.2791	10.4904	1.2281	-0.2378	-2.6744	-2.4394	6.0788	1.5945	3.1583	2.596
7.4832	9.3323	11.7353	7.1782	9.626	11.0891	7.8468	8.1378	10.0624	8.7224	8.1294	9.1672	10.4513	1.2589	-0.5119	-2.901	-2.4925	6.1208	1.4631	3.0772	2.582
7.1391	8.9798	11.366	6.8453	9.3015	10.7618	7.5615	7.9028	9.8022	8.5238	8.0119	9.0329	10.4009	1.284	-0.7833	-3.1331	-2.5457	6.1348	1.3791	3.0268	2.5653
6.781	8.6637	10.9688	6.5069	8.9686	10.4149	7.2706	7.6622	9.5421	8.342	7.9224	8.9211	10.3338	1.3008	-1.0351	-3.3513	-2.5792	6.1768	1.2728	2.9485	2.6016
6.4285	8.3	10.6107	6.2075	8.6217	10.0848	7.0076	7.4104	9.2763	8.1518	7.8189	8.7924	10.2498	1.3148	-1.2784	-3.5444	-2.6268	6.16	1.1805	2.8674	2.6016
6.0816	7.9587	10.2303	5.8299	8.286	9.7211	6.7223	7.1531	8.9714	7.9475	7.6958	8.6441	10.1435	1.3288	-1.5358	-3.7877	-2.6464	6.1404	1.0854	2.7918	2.6352
5.7404	7.6398	9.8526	5.5026	7.9727	9.4022	6.4341	6.8901	8.714	7.7181	7.6007	8.4986	10.0316	1.3372	-1.754	-4.0115	-2.666	6.118	0.9791	2.7191	2.6827
5.3823	7.2873	9.461	5.1585	7.6342	9.0497	6.1544	6.616	8.4063	7.5027	7.472	8.3112	9.8722	1.3428	-2.0198	-4.2381	-2.6688	6.0928	0.898	2.6072	2.7219
5.0046	6.9349	9.0749	4.7892	7.2845	8.7001	5.8774	6.3558	8.1182	7.265	7.3013	8.107	9.7043	1.3428	-2.2855	-4.4927	-2.652	6.0117	0.7777	2.5037	2.7303
4.6605	6.6216	8.7252	4.4339	6.9461	8.3755	5.5865	6.0844	7.8077	7.016	7.1391	7.8916	9.4917	1.3344	-2.5373	-4.7668	-2.6408	5.9194	0.691	2.3918	2.7555
4.3248	6.2887	8.3588	4.0843	6.6467	8.0482	5.3068	5.8467	7.5279	6.767	6.9964	7.6818	9.2819	1.3288	-2.7974	-4.9822	-2.6324	5.8467	0.6126	2.2855	2.8086
4.0003	5.9837	8.0259	3.7961	6.3642	7.7293	5.0354	5.6117	7.237	6.5264	6.8537	7.4748	9.0581	1.3204	-3.024	-5.2284	-2.61	5.7264	0.5231	2.1652	2.8226
3.6758	5.7096	7.7098	3.494	6.09	7.4608	4.7752	5.3935	6.9796	6.2719	6.6831	7.2398	8.8231	1.3064	-3.2255	-5.4214	-2.5876	5.6229	0.4616	2.0533	2.8702
3.3765	5.4326	7.3908	3.1975	5.8467	7.1782	4.5235	5.1781	6.7167	6.0173	6.532	7.0272	8.5742	1.2728	-3.4744	-5.6424	-2.5205	5.4802	0.3777	1.9358	2.8954
3.08	5.1893	7.1055	2.9065	5.6285	6.9153	4.2633	4.9767	6.4537	5.7851	6.353	6.8174	8.3084	1.2393	-3.6786	-5.8523	-2.4618	5.3263	0.3105	1.7932	2.9121
2.7918	4.9655	6.823	2.6492	5.4075	6.6943	4.0535	4.8144	6.2243	5.5697	6.2103	6.6188	8.0147	1.2001	-3.8884	-6.0369	-2.3834	5.1809	0.2574	1.6477	2.9457
2.5401	4.7585	6.5628	2.4254	5.2592	6.4845	3.8325	4.6745	6.0257	5.3459	6.1068	6.4341	7.7685	1.1693	-4.0871	-6.1824	-2.3107	4.999	0.2266	1.5302	2.9849
2.3359	4.5906	6.3362	2.2547	5.1417	6.3054	3.6535	4.5626	5.8271	5.1445	5.9697	6.2663	7.5223	1.1246	-4.2157	-6.2859	-2.2324	4.806	0.2126	1.4099	2.9877
2.1093	4.4228	6.1432	2.0841	5.0074	6.1152	3.4884	4.4647	5.6452	4.9571	5.8411	6.0593	7.2482	1.0798	-4.3668	-6.3782	-2.1456	4.613	0.1986	1.2561	2.9793
1.8939	4.2745	5.9474	1.8939	4.9319	5.9306	3.2954	4.392	5.4886	4.7557	5.7599	5.9054	6.9824	1.0211	-4.5319	-6.5208	-2.0337	4.42	0.207	1.1106	2.9793
1.754	4.185	5.7907	1.7736	4.8899	5.8355	3.1695	4.3444	5.3515	4.5962	5.662	5.7767	6.7558	0.9987	-4.6186	-6.5348	-1.961	4.2325	0.2182	0.9875	2.9905
1.5917	4.0871	5.6508	1.6141	4.8536	5.7068	3.0045	4.2997	5.234	4.3976	5.5529	5.6145	6.4733	0.9399	-4.7417	-6.6216	-1.8435	3.9948	0.2518	0.8476	2.9821
1.4798	4.0171	5.5305	1.4966	4.8396	5.6089	2.873	4.2493	5.1109	4.2465	5.4466	5.4662	6.2019	0.8728	-4.7836	-6.6663	-1.7288	3.7514	0.2741	0.7078	2.9653
1.3875	3.9975	5.4382	1.4407	4.862	5.5445	2.7918	4.2773	5.0298	4.115	5.3655	5.3235	5.9586	0.842	-4.806	-6.6719	-1.6561	3.5388	0.3273	0.6238	2.9709
1.3372	3.9864	5.3879	1.3847	4.9179	5.4886	2.7023	4.2773	4.9431	3.978	5.2508	5.2088	5.6816	0.8029	-4.8032	-6.6495	-1.5889	3.329	0.3888	0.5231	2.9737
1.3288	4.0087	5.3795	1.3624	5.0018	5.441	2.638	4.3193	4.8787	3.8409	5.1669	5.0886	5.4242	0.7581	-4.7501	-6.6132	-1.5022	3.0744	0.4504	0.4364	2.9905
1.3232	4.0759	5.3795	1.3624	5.0718	5.4382	2.582	4.3332	4.8172	3.7206	5.0746	4.9459	5.1753	0.7189	-4.6745	-6.5292	-1.4211	2.8534	0.5203	0.3693	2.9457
1.4071	4.1878	5.441	1.4071	5.206	5.4746	2.6044	4.392	4.8004	3.6115	4.9711	4.8396	4.9403	0.691	-4.5235	-6.3866	-1.3707	2.6212	0.6015	0.3609	2.8982
1.4994	4.2857	5.4858	1.4603	5.3012	5.4886	2.5681	4.4507	4.7752	3.4884	4.8508	4.7025	4.6633	0.649	-4.3752	-6.2691	-1.2812	2.3666	0.677	0.2993	2.845
1.6337	4.4339	5.5781	1.5274	5.4578	5.5473	2.5792	4.5151	4.764	3.3961	4.7389	4.6074	4.3892	0.6182	-4.1738	-6.0984	-1.2253	2.1484	0.7665	0.2602	2.7723
1.8099	4.6298	5.746	1.6505	5.6396	5.6341	2.6296	4.599	4.7892	3.3513	4.6522	4.5263	4.1598	0.5987	-3.9276	-5.8914	-1.1861	1.9107	0.8476	0.2797	2.666
1.9974	4.848	5.9026	1.8044	5.8383	5.7571	2.68	4.7109	4.8284	3.3094	4.5598	4.4451	3.95	0.5539	-3.6842	-5.7012	-1.1078	1.7036	0.9399	0.249	2.596
2.2268	5.083	6.1208	1.9666	6.0677	5.9054	2.7611	4.8228	4.9123	3.2758	4.4871	4.4004	3.7374	0.5231	-3.4241	-5.469	-1.0518	1.5162	1.0379	0.2714	2.5065
2.4897	5.3515	6.3782	2.1904	6.2803	6.0844	2.8842	4.9711	5.0018	3.2926	4.4479	4.3696	3.5863	0.5091	-3.1164	-5.2004	-1.0127	1.3036	1.1637	0.2825	2.3918
2.8002	5.648	6.6495	2.3974	6.5544	6.2803	3.0212	5.1305	5.1417	3.3122	4.42	4.3724	3.4325	0.4784	-2.8058	-4.9291	-0.9567	1.1246	1.2728	0.3077	2.3051
3.0996	5.9893	6.9405	2.6464	6.8342	6.5208	3.2003	5.276	5.2928	3.3625	4.3696	4.3808	3.315	0.4588	-2.4841	-4.6466	-0.912	0.9875	1.3875	0.3301	2.2128
3.4548	6.3054	7.2594	2.8898	7.1027	6.7279	3.3821	5.4606	5.4382	3.4213	4.378	4.3948	3.2143	0.4308	-2.1428	-4.378	-0.8672	0.8336	1.5134	0.3525	2.14
3.771	6.6299	7.5447	3.1639	7.3601	6.9517	3.5639	5.6117	5.5641	3.4856	4.3388	4.4004	3.1331	0.4028	-1.8183	-4.0787	-0.8057	0.6826	1.5917	0.3497	2.0198
4.1318	7.002	7.8916	3.4381	7.6398	7.2454	3.7458	5.7795	5.7208	3.5751	4.35	4.4284	3.0856	0.3972	-1.4743	-3.7989	-0.7917	0.5651	1.7204	0.3609	1.9722
4.4899	7.3265	8.1993	3.7094	7.886	7.4748	3.95	5.911	5.8355	3.6479	4.3193	4.4256	3.0184	0.3916	-1.1162	-3.4856	-0.7721	0.4672	1.8211	0.3553	1.8715
4.8508	7.6482	8.5014	3.9668	8.1014	7.665	4.1262	6.0453	5.9558	3.743	4.2661	4.4116	2.9597	0.3637	-0.8085	-3.2283	-0.7301	0.3413	1.8939	0.3581	1.7904
5.2004	7.9979	8.8147	4.2213	8.3112	7.8692	4.3304	6.1516	6.0593	3.8241	4.2353	4.3976	2.9289	0.3693	-0.4756	-2.9541	-0.7413	0.2825	1.9778	0.3777	1.7148
5.5194	8.2637	9.1085	4.4619	8.4763	8.0762	4.5123	6.2103	6.1208	3.8689	4.1514	4.3248	2.859	0.3553	-0.1818	-2.7023	-0.7189	0.193	2.0393	0.3525	1.5694
5.8327	8.5154	9.4134	4.7025	8.6553	8.2301	4.6633	6.2775	6.16	3.9444	4.0815	4.2381	2.7946	0.3609	0.1231	-2.4701	-0.7133	0.1315	2.0785	0.3581	1.4519
6.1264	8.7644	9.6512	4.9039	8.77	8.3895	4.8032	6.2943	6.1684	3.9696	3.9808	4.1318	2.7303	0.3525	0.3665	-2.2436	-0.691	0.0951	2.1121	0.3441	1.3288
6.4089	9.005	9.8694	5.0941	8.8735	8.493	4.9431	6.3194	6.1879	4.0143	3.8549	4.0171	2.6855	0.3385	0.6462	-2.017	-0.6826	0.0504	2.1317	0.3525	1.2029
6.6355	9.1924	10.068	5.2396	8.9462	8.5854	5.0242	6.3026	6.1656	4.0535	3.7374	3.8912	2.638	0.3273	0.8448	-1.8519	-0.649	-0.014	2.1261	0.3497	1.0826
6.8398	9.3547	10.261	5.3571	8.991	8.6441	5.0913	6.2691	6.0984	4.0563	3.6283	3.743	2.582	0.3105	1.0462	-1.6953	-0.6126	-0.0084	2.14	0.3637	0.9679
7.0356	9.5029	10.4037	5.4634	8.9994	8.7001	5.1781	6.2355	6.0453	4.0619	3.5108	3.5947	2.5317	0.2881	1.2281	-1.5694	-0.5763	-0.014	2.1093	0.3553	0.8644
7.223	9.6316	10.5464	5.5669	9.0106	8.728	5.2648	6.1824	5.9865	4.0871	3.3877	3.452	2.5065	0.2741	1.368	-1.4379	-0.5371	0	2.1149	0.4224	0.7413
7.3853	9.7407	10.6834	5.6285	9.0106	8.77	5.304	6.1264	5.9138	4.0815	3.2478	3.2954	2.4673	0.2518	1.5134	-1.3652	-0.5035	0.0252	2.1065	0.4392	0.6658
7.5111	9.8358	10.7814	5.6984	8.9966	8.8008	5.3711	6.0733	5.8495	4.1234	3.1639	3.1527	2.4701	0.235	1.6225	-1.2924	-0.4784	0.0587	2.0757	0.5231	0.5847
7.609	9.8834	10.8653	5.7208	8.949	8.7672	5.4103	6.0005	5.7487	4.1346	3.0744	2.9933	2.4506	0.2238	1.6925	-1.2533	-0.4448	0.1483	2.0785	0.5903	0.5259
7.6846	9.9141	10.9156	5.7515	8.8875	8.7336	5.4214	5.9026	5.6229	4.1458	2.9261	2.8394	2.459	0.2126	1.7792	-1.2057	-0.4252	0.2154	2.0561	0.677	0.4616
7.7657	9.9393	10.9632	5.7236	8.8036	8.6861	5.4354	5.7907	5.4774	4.1262	2.8002	2.652	2.4282	0.1986	1.8407	-1.1749	-0.4084	0.3021	2.003	0.7665	0.3832
7.8049	9.9225	10.9632	5.718	8.7056	8.6161	5.4103	5.6704	5.3487	4.1402	2.6576	2.4729	2.4086	0.2126	1.8883	-1.1749	-0.4168	0.4224	1.9302	0.8504	0.3189
7.8217	9.8918	10.966	5.7068	8.5742	8.5098	5.4047	5.5333	5.1977	4.1066	2.5009	2.2463	2.3806	0.2182	1.9442	-1.1805	-0.4252	0.5315	1.8547	0.9343	0.2574
7.7993	9.7994	10.9128	5.6341	8.4063	8.4203	5.3571	5.3487	4.999	4.0423	2.3079	1.9974	2.3387	0.2154	1.961	-1.1945	-0.428	0.6434	1.7596	1.0406	0.1511
7.7685	9.6959	10.8345	5.5725	8.2077	8.2664	5.2788	5.1557	4.7836	4.0059	2.0897	1.7596	2.3107	0.2294	1.9666	-1.2365	-0.4308	0.7665	1.6197	1.1218	0.0811
7.7154	9.5645	10.731	5.4774	8.0203	8.1238	5.22	4.9599	4.5794	3.9136	1.8855	1.4826	2.2491	0.2238	1.975	-1.2616	-0.4476	0.898	1.5106	1.2169	-0.028
7.6146	9.4022	10.6135	5.3543	7.7965	7.9308	5.1165	4.7109	4.3109	3.8101	1.6505	1.1973	2.1764	0.2266	1.9806	-1.3232	-0.4644	1.0183	1.354	1.3092	-0.1063
7.5055	9.2567	10.4708	5.2424	7.5895	7.7657	5.0382	4.4815	4.0983	3.7402	1.4351	0.9288	2.1233	0.2546	1.961	-1.3652	-0.4951	1.1553	1.2197	1.4099	-0.1678
7.4188	9.0693	10.303	5.0886	7.3685	7.623	4.9235	4.2577	3.8437	3.6311	1.1861	0.6462	2.0449	0.263	1.9218	-1.4239	-0.5091	1.2924	1.0826	1.491	-0.2238
7.2426	8.8483	10.1407	4.9571	7.1447	7.3964	4.7976	4.0227	3.5751	3.5248	0.9511	0.3553	1.9526	0.2574	1.8351	-1.5526	-0.5007	1.4155	0.9315	1.5862	-0.2797
7.0775	8.6357	9.9533	4.8116	6.8817	7.1922	4.6522	3.7793	3.2898	3.4017	0.7133	0.0587	1.8267	0.2378	1.7596	-1.6057	-0.4896	1.5274	0.7777	1.6449	-0.3609
6.9377	8.4259	9.7799	4.6522	6.6439	7.0216	4.5123	3.5583	3.0464	3.3038	0.4868	-0.2182	1.7596	0.2462	1.6589	-1.7204	-0.4784	1.6505	0.663	1.7064	-0.3581
6.7698	8.1937	9.5757	4.4871	6.4089	6.8146	4.4144	3.3346	2.8114	3.1863	0.3049	-0.4672	1.6785	0.2238	1.533	-1.8183	-0.4532	1.7456	0.5315	1.7624	-0.3525
6.6076	7.9503	9.3826	4.35	6.1824	6.6243	4.2577	3.1387	2.5792	3.0688	0.1343	-0.7273	1.5722	0.2238	1.4267	-1.933	-0.4392	1.8435	0.4364	1.8044	-0.3749
6.4229	7.7433	9.1924	4.1822	5.9781	6.4173	4.1066	2.9429	2.3415	2.9625	-0.0392	-0.9679	1.4547	0.1958	1.3036	-2.0393	-0.414	1.9526	0.3525	1.8044	-0.3497
6.2187	7.4916	9.0106	4.0451	5.7683	6.2299	3.9975	2.7723	2.1233	2.8646	-0.1595	-1.1861	1.3959	0.193	1.1749	-2.1624	-0.3832	2.0281	0.2909	1.8323	-0.3105
6.0145	7.2454	8.798	3.9052	5.5585	6.0537	3.8437	2.6184	1.9023	2.7387	-0.2741	-1.4267	1.2812	0.1818	1.0323	-2.2855	-0.3665	2.1009	0.2434	1.8211	-0.2518
5.8467	7.0188	8.6049	3.7486	5.3459	5.8774	3.6982	2.431	1.6813	2.6072	-0.3944	-1.6057	1.1721	0.1818	0.8896	-2.4086	-0.3581	2.1876	0.1902	1.7876	-0.1958
5.6564	6.8006	8.3951	3.6227	5.1781	5.6872	3.5751	2.2799	1.4743	2.5009	-0.4951	-1.8071	1.0574	0.1874	0.7385	-2.5401	-0.3637	2.238	0.1371	1.7512	-0.1315
5.4802	6.5656	8.2441	3.5108	4.9906	5.5026	3.4492	2.154	1.2952	2.3554	-0.5623	-2.0114	0.9707	0.1762	0.5875	-2.6688	-0.3609	2.2855	0.1175	1.6617	-0.0587
5.2564	6.3446	8.0427	3.3485	4.8004	5.3403	3.2786	2.0086	1.091	2.2352	-0.6042	-2.2044	0.842	0.193	0.4112	-2.8058	-0.3944	2.3247	0.0839	1.5834	0.0196
5.0941	6.1264	7.8552	3.2031	4.6466	5.1641	3.1331	1.8995	0.9176	2.0813	-0.6518	-2.3527	0.7189	0.2014	0.2518	-2.9121	-0.414	2.3443	0.0839	1.4994	0.0923
4.8983	5.8858	7.6706	3.0716	4.4927	5.0046	3.0017	1.7848	0.7441	1.9274	-0.6938	-2.5065	0.5763	0.2238	0.0755	-2.9653	-0.4448	2.3443	0.0951	1.3959	0.1874
4.7081	5.662	7.5111	2.9401	4.336	4.8592	2.8254	1.698	0.5931	1.7876	-0.6826	-2.6184	0.4588	0.2574	-0.1119	-3.0968	-0.484	2.3219	0.0923	1.312	0.2741
4.5235	5.4718	7.3349	2.7807	4.1878	4.6801	2.6576	1.6141	0.4644	1.6225	-0.6826	-2.7135	0.2714	0.2658	-0.2546	-3.1275	-0.5203	2.2715	0.0979	1.1833	0.3553
4.3724	5.3068	7.1838	2.6548	4.1066	4.5598	2.5037	1.5554	0.3693	1.4966	-0.6294	-2.7863	0.1427	0.3049	-0.3916	-3.1807	-0.5847	2.2519	0.1427	1.0826	0.4756
4.2353	5.1361	7.0524	2.5093	3.992	4.4256	2.3694	1.561	0.2714	1.3456	-0.5819	-2.831	-0.0084	0.3189	-0.5175	-3.1723	-0.6238	2.1624	0.1706	0.9763	0.5707
4.0983	4.9962	6.9237	2.3974	3.936	4.3444	2.2268	1.5526	0.2266	1.1889	-0.4812	-2.8114	-0.1455	0.3497	-0.6294	-3.2059	-0.677	2.0981	0.2014	0.8476	0.6798
3.978	4.8704	6.8062	2.2771	3.8773	4.2353	2.0869	1.5806	0.1818	1.063	-0.3777	-2.7974	-0.263	0.3637	-0.7329	-3.1779	-0.7385	1.9862	0.2238	0.7245	0.7721
3.9192	4.7976	6.739	2.1708	3.8577	4.1822	1.989	1.6393	0.207	0.9819	-0.2238	-2.7303	-0.3832	0.4224	-0.8057	-3.1359	-0.8224	1.8967	0.2853	0.6126	0.8588
3.8269	4.7277	6.6719	2.1065	3.8605	4.1402	1.9162	1.7008	0.2294	0.898	-0.0951	-2.6352	-0.4784	0.4588	-0.8504	-3.0828	-0.9036	1.7876	0.3217	0.5147	0.9483
3.7738	4.6913	6.6188	2.0393	3.8717	4.143	1.8463	1.8016	0.2965	0.8392	0.0839	-2.5093	-0.5903	0.4951	-0.8756	-3.0128	-0.9791	1.6841	0.3581	0.4028	1.0071
3.7542	4.6941	6.6048	2.0142	3.9472	4.1794	1.7876	1.9246	0.4112	0.7581	0.2574	-2.3275	-0.6378	0.5455	-0.8476	-2.9233	-1.0966	1.5694	0.4	0.3049	1.063
3.7346	4.6773	6.5964	1.9442	4.0059	4.1934	1.7624	2.0253	0.5035	0.7245	0.4364	-2.154	-0.6938	0.6098	-0.8476	-2.845	-1.2113	1.4407	0.4336	0.2322	1.0938
3.7402	4.7137	6.602	1.9246	4.0787	4.2493	1.7652	2.154	0.635	0.6938	0.6098	-1.947	-0.7357	0.6742	-0.8085	-2.7359	-1.326	1.2952	0.4476	0.165	1.077
3.7738	4.7613	6.602	1.9135	4.1514	4.2941	1.7484	2.2911	0.7581	0.6882	0.7581	-1.74	-0.7693	0.7329	-0.7497	-2.6324	-1.4435	1.1721	0.4588	0.0783	1.0518
3.7821	4.82	6.616	1.8995	4.2241	4.3612	1.754	2.3834	0.9092	0.677	0.8952	-1.547	-0.8252	0.7833	-0.6854	-2.5485	-1.5498	0.9931	0.4476	0.0028	1.0099
3.8409	4.8815	6.6607	1.9135	4.3109	4.4423	1.7624	2.5177	1.0323	0.6658	1.0071	-1.326	-0.8644	0.828	-0.5735	-2.417	-1.6477	0.842	0.4448	-0.042	0.9343
3.9192	4.9711	6.7223	1.9218	4.4172	4.5207	1.7652	2.624	1.1917	0.6658	1.1162	-1.1162	-0.912	0.884	-0.4672	-2.3219	-1.754	0.6742	0.4532	-0.0727	0.8364
4.0115	5.083	6.7978	1.961	4.5291	4.6186	1.8044	2.7415	1.3847	0.7133	1.2253	-0.884	-0.9092	0.9148	-0.3693	-2.1988	-1.8435	0.4979	0.4252	-0.0923	0.7301
4.1094	5.1949	6.8537	1.9834	4.6354	4.7137	1.8379	2.8618	1.5134	0.7245	1.3064	-0.6686	-0.9623	0.9623	-0.2294	-2.0897	-1.919	0.3357	0.4028	-0.1287	0.5931
4.2102	5.3347	6.9293	2.0281	4.7417	4.82	1.8631	2.9737	1.6953	0.7469	1.3791	-0.4196	-0.9651	0.9763	-0.0727	-1.9722	-1.961	0.1315	0.3525	-0.1706	0.4532
4.3304	5.4718	7.0244	2.0617	4.8396	4.9487	1.9023	3.0744	1.8743	0.7721	1.4435	-0.1986	-0.9847	0.9875	0.0979	-1.8407	-1.9946	-0.0727	0.3273	-0.221	0.2825
4.5039	5.6313	7.1754	2.1289	4.9962	5.1053	2.0002	3.2115	2.0841	0.828	1.5302	0.0811	-0.9539	1.0071	0.2993	-1.6953	-2.0309	-0.2294	0.3049	-0.2434	0.1539
4.6661	5.8075	7.3377	2.2016	5.1557	5.2424	2.0701	3.3374	2.2967	0.912	1.6393	0.3693	-0.9148	1.0127	0.4951	-1.5862	-2.0309	-0.3888	0.2909	-0.2602	0.0112
4.8899	6.0425	7.5139	2.2939	5.3151	5.4382	2.154	3.4968	2.5317	1.0099	1.7428	0.6602	-0.8448	1.0183	0.6994	-1.4127	-2.0449	-0.5315	0.3105	-0.2825	-0.1203
5.0774	6.2355	7.7098	2.4086	5.4998	5.6369	2.2743	3.6395	2.7667	1.133	1.8659	0.9875	-0.7469	1.0127	0.9455	-1.2616	-2.0142	-0.7078	0.3105	-0.2769	-0.2909
5.2844	6.4481	7.9084	2.4953	5.6676	5.8131	2.3415	3.7849	2.9989	1.2393	1.9666	1.2896	-0.6322	0.9819	1.1777	-1.1246	-1.9554	-0.8784	0.3161	-0.2741	-0.4112
5.511	6.6887	8.1154	2.6156	5.8606	6.0341	2.4925	3.9528	3.2394	1.3931	2.0925	1.6225	-0.5063	0.9595	1.4155	-0.9595	-1.9302	-0.9931	0.3357	-0.2266	-0.5063
5.7404	6.8957	8.3336	2.6883	6.0397	6.2355	2.6044	4.0675	3.4716	1.5246	2.2072	1.9386	-0.3944	0.9343	1.6365	-0.8169	-1.8687	-1.133	0.3553	-0.2014	-0.6294
5.953	7.1167	8.5378	2.7918	6.1963	6.4034	2.7051	4.171	3.6898	1.6589	2.2799	2.2212	-0.2266	0.8868	1.8659	-0.6798	-1.7792	-1.2393	0.3749	-0.1315	-0.7497
6.1516	7.3153	8.728	2.8898	6.3166	6.5712	2.845	4.2885	3.8801	1.7848	2.3554	2.4785	-0.0671	0.8308	2.0477	-0.5595	-1.6841	-1.354	0.3609	-0.0643	-0.8616
6.3474	7.4776	8.8903	2.9541	6.4481	6.7307	2.9373	4.3444	4.0479	1.9162	2.3918	2.7135	0.0504	0.8029	2.2603	-0.47	-1.6057	-1.4463	0.3665	0.0056	-0.9567
6.5544	7.6678	9.0749	3.0688	6.5516	6.8761	3.0884	4.4004	4.1934	2.0561	2.4394	2.9317	0.2266	0.7665	2.4282	-0.386	-1.5246	-1.519	0.3413	0.1119	-1.0462
6.7223	7.7713	9.2288	3.1275	6.6048	7.002	3.1639	4.4116	4.2997	2.1568	2.445	3.0884	0.3553	0.7078	2.5988	-0.3217	-1.4323	-1.5973	0.3077	0.1678	-1.1693
6.8705	7.8972	9.3686	3.2227	6.6383	7.1055	3.273	4.4004	4.3976	2.2995	2.4226	3.2506	0.4979	0.677	2.7079	-0.3021	-1.354	-1.6729	0.2853	0.2378	-1.2756
6.9796	7.9587	9.4721	3.2618	6.616	7.1894	3.3653	4.3612	4.4367	2.389	2.3582	3.3457	0.6266	0.6378	2.8002	-0.2769	-1.2728	-1.7064	0.249	0.2658	-1.3707
7.1055	8.0231	9.5589	3.3262	6.6104	7.2622	3.4688	4.2829	4.5067	2.4981	2.2883	3.4269	0.7833	0.607	2.8814	-0.2462	-1.2141	-1.7316	0.1818	0.3049	-1.4659
7.2174	8.079	9.6512	3.3737	6.5824	7.3293	3.5583	4.2046	4.5347	2.6436	2.1792	3.494	0.926	0.5931	2.9457	-0.2546	-1.1749	-1.7344	0.1371	0.3161	-1.5246
7.3069	8.0846	9.7183	3.4409	6.5069	7.3769	3.6702	4.1346	4.557	2.7303	2.0953	3.5304	1.0686	0.5679	2.9737	-0.2518	-1.1246	-1.7428	0.0811	0.3357	-1.6281
7.402	8.1098	9.7994	3.508	6.4593	7.4216	3.771	4.0367	4.5738	2.859	1.9862	3.5751	1.2309	0.5763	3.0324	-0.2378	-1.119	-1.7008	0.0168	0.3581	-1.7148
7.4664	8.0958	9.8498	3.5611	6.3894	7.458	3.8633	3.922	4.5654	2.9737	1.8715	3.6031	1.3875	0.5567	3.0212	-0.2434	-1.1106	-1.6673	-0.028	0.3273	-1.7848
7.5363	8.0902	9.9169	3.6563	6.325	7.4916	3.9836	3.8017	4.5906	3.1108	1.7652	3.6087	1.5722	0.5623	3.0017	-0.2294	-1.1246	-1.6169	-0.0755	0.3189	-1.8631
7.5979	8.0594	9.9365	3.757	6.2215	7.486	4.0899	3.6535	4.5682	3.2338	1.6057	3.5891	1.7176	0.5791	3.0101	-0.2182	-1.1497	-1.5526	-0.1678	0.2853	-1.9946
7.6398	7.9895	9.9617	3.8129	6.1152	7.5055	4.1878	3.5164	4.5542	3.3737	1.4603	3.5583	1.9274	0.5959	2.9849	-0.2238	-1.1833	-1.4463	-0.2462	0.2741	-2.0729
7.6678	7.9419	9.9785	3.908	6.0061	7.5027	4.3053	3.3681	4.4983	3.5416	1.312	3.5248	2.0841	0.6154	2.9373	-0.2266	-1.2337	-1.3568	-0.3021	0.263	-2.1289
7.7154	7.8888	9.9925	3.9696	5.8858	7.5139	4.3892	3.2171	4.4647	3.6535	1.1218	3.4884	2.2631	0.6686	2.9093	-0.2294	-1.2952	-1.2477	-0.3888	0.2378	-2.2352
7.6986	7.7853	9.9701	4.0563	5.7264	7.4916	4.4815	3.0632	4.3808	3.7766	0.9288	3.4269	2.4226	0.6938	2.8618	-0.2182	-1.3735	-1.1581	-0.4672	0.2294	-2.3359
7.7209	7.7126	9.9701	4.1262	5.6089	7.4468	4.5654	2.887	4.3193	3.8884	0.7525	3.3206	2.582	0.7441	2.7863	-0.2154	-1.4771	-1.0043	-0.5259	0.2406	-2.3974
7.6958	7.6398	9.9477	4.1542	5.4438	7.416	4.6466	2.7331	4.2269	4.0059	0.5735	3.2143	2.6855	0.7973	2.7443	-0.2546	-1.5778	-0.8784	-0.5987	0.2741	-2.5009
7.6734	7.5195	9.9085	4.2465	5.2872	7.3517	4.7277	2.5569	4.1039	4.1011	0.3385	3.0408	2.7891	0.8588	2.6744	-0.2881	-1.6953	-0.7441	-0.6602	0.3161	-2.582
7.6426	7.402	9.8918	4.2829	5.1473	7.2957	4.7836	2.3722	3.9808	4.1654	0.1483	2.9093	2.8674	0.926	2.5904	-0.3021	-1.8295	-0.5847	-0.7106	0.4056	-2.6492
7.637	7.3153	9.833	4.3416	5.0046	7.2426	4.8368	2.168	3.8381	4.2381	-0.0811	2.7303	2.9429	0.9987	2.5233	-0.3077	-1.9694	-0.4532	-0.7833	0.5063	-2.7471
7.5727	7.1838	9.7603	4.3808	4.8256	7.1531	4.8536	1.9974	3.6814	4.2829	-0.3273	2.5233	2.9653	1.0602	2.431	-0.3721	-2.1149	-0.3217	-0.8252	0.6126	-2.8086
7.5279	7.0608	9.7099	4.4032	4.6829	7.0608	4.8843	1.8071	3.5416	4.3221	-0.5567	2.3275	2.9765	1.147	2.3471	-0.3749	-2.2659	-0.2042	-0.8588	0.7273	-2.8898
7.486	6.9852	9.6512	4.4675	4.5822	7.0132	4.8759	1.6393	3.3877	4.3304	-0.7637	2.1289	2.9597	1.2141	2.2855	-0.3609	-2.4002	-0.0839	-0.926	0.8616	-2.9541
7.4412	6.8677	9.612	4.4451	4.4312	6.9125	4.8927	1.4603	3.2227	4.3193	-1.0015	1.8939	2.9261	1.2616	2.1932	-0.3832	-2.5149	0.0336	-0.9595	1.0071	-3.0101
7.3825	6.7614	9.5701	4.5011	4.336	6.8398	4.8871	1.326	3.0772	4.3221	-1.2029	1.6869	2.8618	1.3176	2.154	-0.3469	-2.6268	0.1427	-0.9987	1.1525	-3.0464
7.3573	6.7167	9.5449	4.5067	4.2381	6.7838	4.9039	1.1973	2.9401	4.3137	-1.4043	1.5022	2.7918	1.3735	2.1037	-0.3245	-2.7247	0.2238	-1.0071	1.2868	-3.0912
7.3349	6.6411	9.5337	4.5542	4.1542	6.7195	4.9095	1.0658	2.817	4.2885	-1.6113	1.2756	2.6855	1.4071	2.0729	-0.3133	-2.7779	0.2574	-1.049	1.4155	-3.1108
7.3153	6.588	9.5001	4.5822	4.0703	6.6579	4.8815	0.9847	2.6772	4.2801	-1.7904	1.0518	2.596	1.4183	2.0673	-0.2266	-2.8198	0.2993	-1.0602	1.5302	-3.1359
7.2957	6.56	9.4917	4.6214	4.0451	6.6188	4.8759	0.884	2.5541	4.2269	-1.933	0.8364	2.4562	1.4267	2.0365	-0.1958	-2.8478	0.3049	-1.0714	1.6337	-3.1359
7.2985	6.5125	9.4833	4.6549	3.9948	6.574	4.8536	0.8057	2.3974	4.1486	-2.0981	0.6126	2.2855	1.4155	2.0421	-0.1315	-2.8338	0.3245	-1.0658	1.7148	-3.1387
7.2957	6.5069	9.4973	4.6661	3.9724	6.518	4.8228	0.7441	2.2883	4.0871	-2.2463	0.3972	2.1037	1.4071	2.0449	-0.1287	-2.8002	0.2965	-1.0267	1.7932	-3.108
7.2734	6.4509	9.4693	4.6885	3.9416	6.4593	4.792	0.6406	2.1568	3.9975	-2.4058	0.1483	1.9079	1.3596	2.0142	-0.1035	-2.7079	0.2406	-1.0099	1.8407	-3.1052
7.2734	6.4537	9.4889	4.7221	3.908	6.4285	4.7864	0.5959	2.0281	3.8996	-2.5541	-0.0923	1.6729	1.3036	2.017	-0.0559	-2.6072	0.1623	-0.9288	1.8939	-3.0828
7.2734	6.4761	9.5197	4.7221	3.894	6.381	4.7557	0.5707	1.8995	3.8017	-2.6827	-0.3413	1.4239	1.2477	2.0421	-0.0336	-2.4841	0.0755	-0.8812	1.9302	-3.0324
7.2706	6.4761	9.5085	4.7249	3.8884	6.3306	4.7025	0.5203	1.7652	3.6758	-2.8338	-0.5903	1.1358	1.1721	2.0393	-0.0727	-2.3359	-0.0392	-0.7917	1.9582	-2.9849
7.3237	6.4901	9.5477	4.7389	3.922	6.3194	4.6829	0.484	1.6253	3.5472	-2.9429	-0.8224	0.8588	1.091	2.0505	-0.0448	-2.1736	-0.1511	-0.6882	1.9694	-2.9149
7.3293	6.518	9.5729	4.7501	3.922	6.2551	4.627	0.4672	1.4798	3.3793	-3.08	-1.1106	0.5455	0.9931	2.0645	-0.0699	-1.9806	-0.2965	-0.5595	1.9526	-2.845
7.3517	6.5516	9.6064	4.7333	3.964	6.2299	4.5682	0.4672	1.354	3.2199	-3.1779	-1.3903	0.2126	0.9008	2.0869	-0.0951	-1.7792	-0.4364	-0.4448	1.961	-2.7695
7.3713	6.616	9.6512	4.7109	4.0003	6.2159	4.5207	0.4672	1.2253	3.052	-3.2702	-1.6589	-0.1091	0.7889	2.1121	-0.1119	-1.5582	-0.6182	-0.3105	1.9135	-2.68
7.4552	6.6915	9.6987	4.7501	4.0675	6.2019	4.4731	0.5035	1.1134	2.9037	-3.3485	-1.8939	-0.4448	0.677	2.1624	-0.1175	-1.3428	-0.7973	-0.1511	1.8967	-2.5541
7.4832	6.7866	9.7575	4.7333	4.1598	6.2103	4.4312	0.5623	1.0267	2.7163	-3.3765	-2.1149	-0.7721	0.5427	2.1988	-0.1427	-1.0798	-0.9987	-0.0056	1.8295	-2.4645
7.5755	6.8789	9.8358	4.7417	4.2493	6.2327	4.3836	0.6182	0.9679	2.5317	-3.4101	-2.3694	-1.1358	0.4168	2.2324	-0.1455	-0.8224	-1.2169	0.1203	1.7596	-2.3527
7.6314	7.03	9.9309	4.778	4.4032	6.2747	4.3556	0.7497	0.9092	2.3834	-3.4101	-2.5513	-1.4771	0.2741	2.3163	-0.1203	-0.5427	-1.4463	0.2937	1.6729	-2.2408
7.7601	7.1587	10.054	4.82	4.5514	6.3474	4.3276	0.87	0.8784	2.238	-3.3737	-2.7163	-1.8155	0.1287	2.3862	-0.1007	-0.2518	-1.6869	0.4336	1.5582	-2.1317
7.8636	7.3377	10.2079	4.8312	4.7473	6.4397	4.3388	1.0434	0.87	2.0729	-3.3094	-2.8534	-2.1205	-0.0308	2.4673	-0.0699	0.0504	-1.9442	0.6042	1.4323	-2.0058
8.0063	7.5223	10.3589	4.8955	4.9515	6.5152	4.3137	1.2001	0.9148	1.947	-3.2227	-2.9569	-2.4058	-0.1678	2.5485	-0.028	0.3469	-2.2072	0.7525	1.3176	-1.9358
8.1266	7.7209	10.5016	4.9347	5.1837	6.6467	4.3388	1.3959	0.9511	1.8044	-3.1164	-3.024	-2.6967	-0.3189	2.6268	0.014	0.6434	-2.4841	0.8924	1.1609	-1.8099
8.2385	7.9056	10.6527	4.9822	5.3991	6.7558	4.3276	1.5806	0.9987	1.6729	-2.9737	-3.1108	-2.9989	-0.4672	2.7023	0.0727	0.9371	-2.8002	1.0183	1.0155	-1.7372
8.4063	8.1266	10.8177	5.0466	5.6424	6.8985	4.3528	1.8127	1.0854	1.575	-2.831	-3.1527	-3.2534	-0.5847	2.8086	0.1147	1.1861	-3.052	1.1497	0.8616	-1.6729
8.535	8.356	11.0135	5.1053	5.8914	7.0328	4.3696	2.0253	1.1609	1.4519	-2.6827	-3.1835	-3.5388	-0.7329	2.8954	0.1818	1.4519	-3.3513	1.2337	0.691	-1.6449
8.7112	8.5798	11.1842	5.1809	6.1432	7.1699	4.3864	2.2491	1.2421	1.354	-2.5485	-3.2143	-3.7738	-0.8448	2.9961	0.2406	1.6729	-3.6227	1.326	0.5063	-1.6113
8.8343	8.7588	11.3241	5.2312	6.3754	7.3181	4.4228	2.4897	1.3372	1.2728	-2.389	-3.2087	-4.0031	-0.9371	3.0772	0.2909	1.8771	-3.8884	1.368	0.3665	-1.5973
9.0022	8.9882	11.4975	5.3375	6.6299	7.486	4.4675	2.6967	1.4631	1.2001	-2.2212	-3.1807	-4.185	-1.0211	3.1611	0.3721	2.0337	-4.143	1.4491	0.2014	-1.5889
9.1644	9.1644	11.6821	5.3991	6.8509	7.6202	4.4955	2.9233	1.5806	1.1246	-2.0645	-3.1555	-4.4004	-1.0854	3.2366	0.4588	2.168	-4.4032	1.5022	0.042	-1.6029
9.2987	9.363	11.8612	5.511	7.058	7.7909	4.5235	3.1415	1.712	1.0602	-1.8855	-3.0856	-4.5878	-1.1386	3.315	0.5455	2.2687	-4.6242	1.5106	-0.0923	-1.6365
9.4582	9.5645	12.0178	5.6033	7.265	7.9559	4.6018	3.3821	1.8603	1.0574	-1.7036	-3.0156	-4.7193	-1.1693	3.3961	0.5931	2.3359	-4.8424	1.5526	-0.2322	-1.6449
9.6344	9.7687	12.1745	5.718	7.472	8.1182	4.6773	3.5807	2.0086	1.0602	-1.519	-2.9177	-4.8144	-1.1861	3.4968	0.6882	2.3554	-5.0242	1.561	-0.3805	-1.7092
9.7715	9.9533	12.3731	5.8299	7.6902	8.2916	4.7557	3.7877	2.1876	1.0714	-1.326	-2.7918	-4.9179	-1.1693	3.5528	0.7749	2.3359	-5.1809	1.5694	-0.4896	-1.7428
9.9729	10.1435	12.5577	5.9781	7.8748	8.4651	4.8396	3.992	2.3554	1.0966	-1.1274	-2.652	-4.9767	-1.147	3.6283	0.9008	2.2967	-5.3347	1.561	-0.6322	-1.7876
10.1267	10.2918	12.7256	6.1068	8.0874	8.6637	4.9655	4.185	2.5513	1.1665	-0.9204	-2.4673	-4.9739	-1.1106	3.7206	1.0183	2.2212	-5.4326	1.5526	-0.7217	-1.8631
10.3198	10.4708	12.9186	6.2747	8.2692	8.8539	5.0913	4.4172	2.7443	1.2393	-0.705	-2.2827	-4.9739	-1.0546	3.8073	1.1442	2.1065	-5.5278	1.5414	-0.8141	-1.9051
10.51	10.6499	13.1032	6.4369	8.4371	9.0441	5.22	4.613	2.9569	1.3456	-0.4756	-2.0645	-4.9039	-0.9903	3.9052	1.2896	1.9834	-5.5921	1.5442	-0.884	-1.9722
10.6974	10.7814	13.2935	6.5936	8.5965	9.2036	5.3655	4.8032	3.1723	1.4603	-0.249	-1.8407	-4.8368	-0.9148	3.9948	1.4351	1.8351	-5.6313	1.5414	-0.912	-2.0142
10.8569	10.9156	13.4445	6.7586	8.7392	9.3798	5.497	4.9767	3.3765	1.5834	-0.0587	-1.6085	-4.7333	-0.8308	4.0759	1.5806	1.6757	-5.6229	1.5246	-0.9595	-2.0785
11.0079	11.0191	13.5928	6.9181	8.8595	9.5281	5.6257	5.1389	3.5639	1.7204	0.1455	-1.4043	-4.6102	-0.7329	4.1766	1.726	1.4715	-5.6089	1.505	-0.9288	-2.1205
11.1478	11.0723	13.7019	7.0524	8.949	9.6652	5.7432	5.2732	3.7318	1.8659	0.3441	-1.1889	-4.4703	-0.6434	4.2689	1.8715	1.2756	-5.5753	1.4938	-0.9204	-2.1792
11.2793	11.117	13.783	7.1615	8.9994	9.7603	5.8634	5.3655	3.8549	1.9862	0.5063	-1.0071	-4.3304	-0.5231	4.3472	1.9918	1.049	-5.5194	1.4575	-0.8672	-2.2659
