"FZ"	"FC3"	"FCZ"	"FC4"	"C3"	"CZ"	"C4"	"CP3"	"CPZ"	"CP4"	"P3"	"PZ"	"P4"	"OZ"	"FP1"	"FP2"	"A2"	"P8"	"TP7"	"TP8"	"P7"
0.8644	0.3693	0.6546	0.4364	0.3819	0.386	0.4028	0.0923	0.0965	-0.1469	0.0546	-0.0252	-0.0839	-0.3021	0.7385	1.0029	0.6084	-0.3567	-0.5245	-0.4322	-0.3986
0.8015	0.3189	0.5707	0.3819	0.3189	0.3399	0.3693	0.0713	0.0546	-0.1637	0.0168	-0.0671	-0.1301	-0.3399	0.6798	0.9777	0.6672	-0.3819	-0.4742	-0.4532	-0.3651
0.7175	0.2937	0.491	0.3021	0.3021	0.2769	0.2811	0.0546	-0.0084	-0.2098	-0.0168	-0.1259	-0.1846	-0.3651	0.663	0.9525	0.7092	-0.407	-0.4364	-0.5119	-0.3525
0.6252	0.2518	0.4322	0.2518	0.2518	0.235	0.2056	0.021	-0.0797	-0.256	-0.0084	-0.1595	-0.2392	-0.3693	0.6462	0.9483	0.7259	-0.4364	-0.3819	-0.5035	-0.3105
0.5329	0.1804	0.3273	0.1553	0.172	0.1846	0.1469	-0.0252	-0.1301	-0.3063	-0.0671	-0.235	-0.3231	-0.386	0.5749	0.8854	0.7511	-0.4993	-0.3902	-0.5581	-0.3231
0.4364	0.0965	0.256	0.0671	0.0923	0.1007	0.0546	-0.0755	-0.193	-0.3315	-0.0923	-0.2811	-0.386	-0.3777	0.5455	0.877	0.7427	-0.5539	-0.3483	-0.5833	-0.3147
0.3567	-0.0084	0.1385	-0.0336	0.0084	0.0168	-0.042	-0.1217	-0.2728	-0.4112	-0.1637	-0.3273	-0.449	-0.3609	0.4993	0.8518	0.7175	-0.5749	-0.3273	-0.6336	-0.3189
0.2224	-0.0881	0.0504	-0.1133	-0.0755	-0.0336	-0.1049	-0.1553	-0.3525	-0.4574	-0.2308	-0.4028	-0.5161	-0.3483	0.449	0.8476	0.6924	-0.6168	-0.3315	-0.6588	-0.3021
0.0797	-0.1846	-0.0839	-0.235	-0.1846	-0.1595	-0.2014	-0.2434	-0.428	-0.5497	-0.3105	-0.5161	-0.6084	-0.3483	0.3525	0.7721	0.684	-0.7092	-0.3693	-0.7133	-0.3609
-0.021	-0.2644	-0.1385	-0.3315	-0.2644	-0.2056	-0.2895	-0.2853	-0.5161	-0.5707	-0.3777	-0.5791	-0.6756	-0.3105	0.3357	0.7805	0.6252	-0.7092	-0.3483	-0.7469	-0.3777
-0.1637	-0.3693	-0.2728	-0.4574	-0.3693	-0.3063	-0.3902	-0.3651	-0.5791	-0.6588	-0.4532	-0.6672	-0.7763	-0.2895	0.2853	0.7133	0.6001	-0.7553	-0.3609	-0.8057	-0.3944
-0.2853	-0.4448	-0.3735	-0.5581	-0.4532	-0.3902	-0.5077	-0.4658	-0.6756	-0.6924	-0.5287	-0.7385	-0.8518	-0.2979	0.1888	0.6042	0.5665	-0.8308	-0.386	-0.856	-0.4154
-0.3986	-0.5623	-0.4616	-0.642	-0.5455	-0.4742	-0.5749	-0.5119	-0.7301	-0.7553	-0.5833	-0.8183	-0.9315	-0.2811	0.1511	0.5245	0.5455	-0.8644	-0.3944	-0.8686	-0.4784
-0.5119	-0.642	-0.5455	-0.7301	-0.6504	-0.5371	-0.6168	-0.5833	-0.7721	-0.7973	-0.6714	-0.898	-0.9945	-0.2392	0.1301	0.4532	0.4868	-0.856	-0.407	-0.8686	-0.491
-0.6001	-0.6924	-0.6294	-0.8099	-0.7217	-0.6001	-0.705	-0.621	-0.8183	-0.8476	-0.7259	-0.9232	-1.07	-0.2182	0.0881	0.3525	0.4238	-0.9022	-0.428	-0.8938	-0.5287
-0.6798	-0.7553	-0.7133	-0.9148	-0.7637	-0.6588	-0.7973	-0.6756	-0.8644	-0.8812	-0.7637	-0.9861	-1.0994	-0.1972	0.0546	0.2602	0.3819	-0.8938	-0.4658	-0.9232	-0.5581
-0.7301	-0.7721	-0.7259	-0.9735	-0.8057	-0.6882	-0.8224	-0.7092	-0.8728	-0.8812	-0.8015	-0.9693	-1.1246	-0.1762	0.0294	0.2056	0.3189	-0.8938	-0.4364	-0.919	-0.5623
-0.7763	-0.8015	-0.7679	-1.0197	-0.8183	-0.7175	-0.8602	-0.7469	-0.9148	-0.9106	-0.8308	-1.0239	-1.1623	-0.1553	-0.0084	0.1175	0.2853	-0.9022	-0.449	-0.8938	-0.5665
-0.7721	-0.7931	-0.7637	-1.112	-0.8518	-0.7469	-0.8644	-0.7427	-0.9064	-0.9148	-0.8392	-1.049	-1.1833	-0.1217	-0.0168	0.1091	0.2266	-0.8812	-0.4196	-0.898	-0.5455
-0.7805	-0.7847	-0.7511	-1.1288	-0.8476	-0.7469	-0.8938	-0.7469	-0.898	-0.9357	-0.8644	-1.0448	-1.1959	-0.1133	-0.042	0.0629	0.2014	-0.8602	-0.4448	-0.856	-0.5371
-0.8099	-0.7637	-0.7469	-1.1372	-0.8476	-0.7092	-0.9022	-0.7595	-0.9274	-0.9483	-0.9022	-1.0658	-1.1665	-0.0797	-0.0504	0.0168	0.1595	-0.8434	-0.4112	-0.835	-0.5413
-0.7721	-0.6882	-0.7175	-1.1456	-0.7931	-0.7008	-0.8812	-0.7511	-0.9106	-0.9022	-0.8938	-1.0532	-1.1581	-0.0797	0	0.0126	0.1301	-0.8057	-0.3777	-0.7679	-0.5161
-0.7175	-0.6462	-0.6546	-1.1372	-0.7553	-0.6714	-0.8728	-0.7092	-0.8938	-0.8854	-0.8938	-1.0616	-1.1288	-0.0797	0.021	-0.0629	0.1217	-0.7973	-0.407	-0.7511	-0.5287
-0.6462	-0.5665	-0.6126	-1.0994	-0.7008	-0.6084	-0.8015	-0.6714	-0.8434	-0.8434	-0.8518	-1.0155	-1.0616	-0.0378	0.0713	-0.0587	0.0671	-0.7175	-0.3777	-0.684	-0.5203
-0.5245	-0.4532	-0.5245	-1.0239	-0.5917	-0.5413	-0.7469	-0.6294	-0.7805	-0.7805	-0.8518	-0.9609	-0.9861	-0.0336	0.1511	-0.0504	0.0336	-0.6588	-0.3315	-0.5959	-0.4658
-0.4532	-0.3567	-0.449	-0.9567	-0.5077	-0.4826	-0.6714	-0.5581	-0.7217	-0.7008	-0.7847	-0.8938	-0.9315	-0.0126	0.235	-0.0546	0.0042	-0.5749	-0.3063	-0.4993	-0.4574
-0.3525	-0.235	-0.3483	-0.9022	-0.4406	-0.4322	-0.6252	-0.5077	-0.6672	-0.6336	-0.7679	-0.8518	-0.8476	0.0042	0.3231	-0.0294	-0.0042	-0.5287	-0.2686	-0.4406	-0.4364
-0.2392	-0.1469	-0.2476	-0.8266	-0.3315	-0.3315	-0.5371	-0.449	-0.6126	-0.5749	-0.7133	-0.7763	-0.7595	0.0084	0.4196	0.0168	-0.0252	-0.4616	-0.2224	-0.3567	-0.3819
-0.1469	-0.0378	-0.1553	-0.7092	-0.235	-0.2518	-0.4616	-0.3944	-0.5539	-0.4993	-0.6546	-0.6798	-0.6756	0.0168	0.5119	0.0546	-0.0587	-0.3902	-0.2182	-0.3063	-0.3525
0.0126	0.1091	-0.0252	-0.621	-0.1175	-0.1595	-0.3567	-0.3105	-0.4574	-0.3986	-0.5623	-0.5917	-0.5539	0.0294	0.6294	0.193	-0.0755	-0.3063	-0.1427	-0.1846	-0.2895
0.1385	0.2056	0.0587	-0.491	-0.021	-0.0923	-0.2644	-0.2602	-0.3651	-0.3021	-0.4742	-0.4951	-0.4616	0.0336	0.7133	0.256	-0.0881	-0.2392	-0.1133	-0.1217	-0.2308
0.2686	0.3063	0.193	-0.3735	0.0965	0.0126	-0.1553	-0.1637	-0.2434	-0.2014	-0.3944	-0.3609	-0.3483	0.042	0.8728	0.3986	-0.0965	-0.1678	-0.0713	-0.0294	-0.1762
0.4028	0.428	0.2895	-0.2602	0.2098	0.1133	-0.0629	-0.1007	-0.1511	-0.1049	-0.2937	-0.256	-0.214	0.0504	0.9651	0.4742	-0.1091	-0.0923	-0.0713	0.0252	-0.1343
0.5287	0.5329	0.428	-0.1427	0.3021	0.2434	0.021	0.0168	-0.0252	0.021	-0.2098	-0.1511	-0.1007	0.0755	1.0574	0.5917	-0.1427	0.0042	0	0.0839	-0.1007
0.6084	0.6001	0.4993	-0.0671	0.3567	0.2728	0.1049	0.0797	0.0504	0.0965	-0.1091	-0.0629	-0.0294	0.0546	1.1162	0.6756	-0.1385	0.0504	-0.0168	0.1804	-0.0629
0.7008	0.705	0.5959	0.021	0.4196	0.3315	0.1553	0.1259	0.1301	0.1678	-0.0504	0.0294	0.0797	0.0671	1.2043	0.8141	-0.1469	0.1301	0.0126	0.214	-0.0126
0.7637	0.7175	0.6252	0.1049	0.47	0.3735	0.2392	0.1804	0.2014	0.2434	0.0378	0.0923	0.1511	0.0713	1.2505	0.9357	-0.1637	0.2014	0.0126	0.2769	0.0168
0.7847	0.7385	0.6672	0.1678	0.4993	0.407	0.2895	0.2056	0.256	0.3147	0.1091	0.172	0.214	0.0797	1.2672	1.0406	-0.1678	0.2182	0	0.3273	0.0587
0.8308	0.7805	0.7385	0.2266	0.5035	0.4574	0.3147	0.2518	0.3147	0.386	0.172	0.2476	0.2895	0.0881	1.2924	1.1665	-0.1762	0.2686	-0.0084	0.3651	0.0587
0.8141	0.7847	0.7301	0.256	0.5161	0.4658	0.3357	0.2518	0.3777	0.4448	0.2266	0.2979	0.3273	0.0965	1.2421	1.2169	-0.1888	0.3021	-0.0546	0.3693	0.0755
0.8183	0.7511	0.7133	0.2811	0.491	0.4868	0.3483	0.2811	0.3777	0.4784	0.2769	0.3063	0.3609	0.0965	1.2043	1.2421	-0.193	0.3189	-0.0755	0.3944	0.0462
0.8015	0.7511	0.6924	0.2979	0.4742	0.5035	0.3777	0.2937	0.4238	0.4993	0.3063	0.3609	0.407	0.1091	1.1497	1.2672	-0.2098	0.3147	-0.1007	0.4196	0.0671
0.7973	0.7133	0.684	0.2853	0.47	0.4826	0.3819	0.2895	0.4826	0.5371	0.3651	0.4112	0.4406	0.1091	1.0868	1.2505	-0.214	0.3567	-0.1385	0.4448	0.0881
0.7595	0.663	0.6546	0.3147	0.4406	0.4616	0.3525	0.2644	0.4868	0.5707	0.407	0.4196	0.4868	0.0965	0.9735	1.2001	-0.1888	0.3567	-0.1469	0.4448	0.0797
0.7133	0.621	0.6126	0.3273	0.4154	0.4742	0.3567	0.2937	0.4993	0.5497	0.4406	0.4742	0.5035	0.1007	0.9315	1.1414	-0.193	0.3819	-0.1804	0.47	0.0965
0.6966	0.5791	0.5791	0.3483	0.3483	0.449	0.3483	0.2895	0.5245	0.5875	0.4826	0.47	0.5287	0.0839	0.8099	1.0742	-0.1637	0.3693	-0.172	0.4448	0.0839
0.6504	0.5581	0.5581	0.3483	0.3609	0.4742	0.3902	0.2602	0.5413	0.6001	0.5497	0.5077	0.5371	0.0797	0.7553	0.9651	-0.1469	0.3777	-0.2014	0.4448	0.1091
0.6042	0.5203	0.5245	0.3777	0.2853	0.4406	0.3651	0.2602	0.5623	0.5959	0.5791	0.5371	0.5623	0.0671	0.663	0.8602	-0.1133	0.3693	-0.1846	0.4112	0.0839
0.5917	0.4784	0.4951	0.3944	0.3021	0.4448	0.3944	0.2728	0.5707	0.621	0.621	0.5707	0.621	0.0587	0.6126	0.7553	-0.0881	0.386	-0.2056	0.4238	0.1091
0.5833	0.4574	0.5035	0.4322	0.2602	0.449	0.4322	0.2686	0.5791	0.6672	0.6714	0.5959	0.6126	0.0126	0.5455	0.6294	-0.0504	0.3651	-0.2182	0.3902	0.0965
0.6042	0.4028	0.4826	0.4951	0.2476	0.449	0.4364	0.2937	0.5833	0.6756	0.7008	0.6001	0.663	0.0126	0.4574	0.4742	-0.0042	0.4112	-0.2518	0.4154	0.1133
0.5959	0.3567	0.4826	0.5287	0.2308	0.4532	0.4742	0.2686	0.6294	0.7133	0.7637	0.642	0.6798	-0.0084	0.4238	0.3651	0.0336	0.428	-0.1846	0.4322	0.1259
0.6042	0.3357	0.47	0.5791	0.2014	0.4532	0.4951	0.2686	0.621	0.7343	0.7931	0.6462	0.7092	-0.0336	0.3483	0.2014	0.0755	0.428	-0.193	0.4322	0.1301
0.5707	0.2811	0.4574	0.6042	0.1553	0.47	0.4993	0.2811	0.6252	0.7385	0.8015	0.6714	0.7343	-0.0546	0.2937	0.0797	0.1217	0.4364	-0.1553	0.4154	0.1385
0.5581	0.2266	0.4406	0.6336	0.1637	0.4574	0.5035	0.2937	0.642	0.7217	0.7973	0.6756	0.7427	-0.0755	0.2518	-0.0797	0.1595	0.428	-0.1469	0.3986	0.1301
0.5917	0.2182	0.4532	0.6882	0.1637	0.4574	0.5581	0.3441	0.6294	0.7385	0.7973	0.705	0.8099	-0.0797	0.2476	-0.1511	0.1762	0.4448	-0.1133	0.4028	0.1637
0.5875	0.1553	0.4784	0.7133	0.1217	0.449	0.5665	0.3021	0.6504	0.7385	0.8224	0.7217	0.8224	-0.0965	0.1888	-0.2602	0.2266	0.4238	-0.0839	0.3693	0.1427
0.5623	0.1049	0.4448	0.7217	0.1133	0.4322	0.5623	0.3063	0.6126	0.7427	0.8308	0.7133	0.8392	-0.1301	0.1259	-0.3273	0.2686	0.4238	-0.0587	0.3483	0.1511
0.5161	0.0378	0.4154	0.7469	0.0965	0.4196	0.5497	0.2728	0.5959	0.7217	0.8057	0.6882	0.8224	-0.1553	0.0546	-0.4448	0.3021	0.407	-0.0587	0.3189	0.1595
0.5035	0	0.407	0.7427	0.0671	0.4154	0.5287	0.2602	0.6294	0.6966	0.7931	0.6882	0.835	-0.1511	0.0462	-0.4951	0.3021	0.4154	-0.0252	0.3021	0.1595
0.449	-0.0546	0.3777	0.7343	0.021	0.3819	0.5455	0.2518	0.5833	0.6882	0.7427	0.6798	0.8099	-0.172	-0.0378	-0.5539	0.3399	0.3693	0.0042	0.256	0.1385
0.4112	-0.1007	0.3609	0.7385	0.0084	0.3567	0.5287	0.2518	0.5707	0.6714	0.7469	0.642	0.8141	-0.172	-0.1007	-0.5749	0.3399	0.3651	0.0252	0.2266	0.1427
0.3693	-0.1049	0.3525	0.7217	0.0252	0.3483	0.5077	0.2182	0.5287	0.642	0.705	0.6126	0.7889	-0.1637	-0.1385	-0.5707	0.3315	0.3483	0.0462	0.1972	0.1678
0.3147	-0.1553	0.3147	0.6882	0.0252	0.3189	0.4616	0.1846	0.5245	0.5833	0.684	0.6168	0.7553	-0.1846	-0.1972	-0.5455	0.3525	0.3189	0.0755	0.172	0.1511
0.3063	-0.1553	0.3063	0.6924	0	0.2476	0.4951	0.1637	0.5119	0.5749	0.642	0.5749	0.7385	-0.1511	-0.2098	-0.4868	0.3189	0.3105	0.1133	0.1469	0.1595
0.2644	-0.1637	0.2769	0.663	0.0042	0.235	0.4574	0.1678	0.4826	0.5245	0.621	0.5497	0.7217	-0.1678	-0.2434	-0.4658	0.3273	0.2686	0.1259	0.1301	0.172
0.2056	-0.172	0.2644	0.6462	0.021	0.2308	0.4196	0.1217	0.449	0.491	0.5833	0.5497	0.7092	-0.1553	-0.256	-0.3944	0.3231	0.2434	0.1637	0.1301	0.2056
0.1972	-0.1595	0.2434	0.6504	0.021	0.2098	0.3986	0.1511	0.4406	0.4742	0.5581	0.5497	0.6588	-0.1427	-0.2686	-0.3273	0.2979	0.2518	0.2266	0.0797	0.172
0.1427	-0.1553	0.2224	0.6168	0.0252	0.1804	0.3944	0.1385	0.4238	0.3986	0.5413	0.4951	0.6546	-0.1301	-0.2769	-0.2769	0.2811	0.2476	0.2518	0.0839	0.2056
0.1385	-0.1091	0.2098	0.5959	0.0462	0.172	0.3651	0.1511	0.4322	0.3693	0.5497	0.5245	0.6378	-0.1343	-0.3147	-0.235	0.2476	0.2224	0.2769	0.0755	0.2518
0.1343	-0.0965	0.1846	0.5707	0.0713	0.1469	0.3399	0.1301	0.3902	0.3231	0.491	0.4993	0.5917	-0.1091	-0.3063	-0.2014	0.2182	0.2098	0.3063	0.0629	0.2728
0.0839	-0.0629	0.1553	0.5203	0.0923	0.1385	0.2937	0.1343	0.3986	0.2895	0.491	0.5035	0.5791	-0.0797	-0.3441	-0.1637	0.1804	0.214	0.3483	0.0713	0.2769
0.0755	-0.0713	0.1553	0.4993	0.0923	0.1091	0.2602	0.1217	0.3651	0.2518	0.4616	0.4784	0.5497	-0.0629	-0.3944	-0.1511	0.1469	0.1972	0.3735	0.0504	0.2895
0.0546	-0.0084	0.1259	0.4616	0.1343	0.0881	0.2686	0.1217	0.3525	0.2224	0.4574	0.491	0.5287	-0.0378	-0.3944	-0.1175	0.0713	0.1846	0.3819	0.0587	0.3441
0.021	0.0042	0.0923	0.3986	0.1049	0.0755	0.1888	0.1091	0.3231	0.172	0.4364	0.47	0.5035	-0.0084	-0.4322	-0.0923	0.0462	0.214	0.4238	0.0587	0.3273
-0.0084	0.0504	0.0713	0.3609	0.1469	0.021	0.1888	0.1049	0.3399	0.1217	0.3902	0.449	0.449	0.0042	-0.4322	-0.1133	-0.021	0.193	0.428	0.0797	0.3693
-0.0378	0.0671	0.0587	0.3525	0.1888	0.0462	0.1888	0.1511	0.2895	0.1007	0.3735	0.4322	0.449	0.0378	-0.4448	-0.0504	-0.0755	0.2434	0.47	0.1049	0.3819
-0.0755	0.0587	0.0168	0.2769	0.172	0.0126	0.1553	0.1469	0.2518	0.0881	0.3315	0.4238	0.4238	0.0504	-0.4532	-0.0881	-0.1259	0.2434	0.4868	0.1049	0.3986
-0.1343	0.0546	-0.0336	0.2182	0.1427	-0.0084	0.0923	0.1091	0.214	0.042	0.2937	0.386	0.3651	0.0881	-0.4951	-0.1469	-0.1762	0.2602	0.4658	0.1175	0.3944
-0.1972	0.0713	-0.0839	0.1678	0.1804	-0.0587	0.0797	0.1301	0.1846	0.021	0.2476	0.3483	0.3483	0.1343	-0.5119	-0.2476	-0.2602	0.3021	0.4993	0.1511	0.4448
-0.2686	0.0671	-0.1385	0.1049	0.1678	-0.0881	0.042	0.1133	0.1595	0.0168	0.2308	0.3441	0.3021	0.1678	-0.5623	-0.3483	-0.3441	0.3231	0.5035	0.172	0.4532
-0.3525	0.0504	-0.2182	0.0839	0.1678	-0.172	0.0252	0.1175	0.1091	0.0042	0.1762	0.3273	0.2728	0.2014	-0.5917	-0.4574	-0.4028	0.3273	0.5287	0.1846	0.47
-0.4196	0.0084	-0.2476	0.0336	0.1427	-0.1553	-0.0168	0.1133	0.0839	-0.0042	0.1427	0.2811	0.256	0.2392	-0.6378	-0.6462	-0.4742	0.3525	0.5497	0.2056	0.4826
-0.4826	-0.0294	-0.3315	-0.0294	0.1175	-0.2014	-0.021	0.0965	0.0378	-0.0462	0.1049	0.214	0.1972	0.2602	-0.7008	-0.7721	-0.5371	0.3567	0.5245	0.2308	0.5077
-0.5497	-0.042	-0.386	-0.0462	0.1133	-0.2392	-0.0629	0.0965	0.021	-0.0587	0.0839	0.2056	0.1049	0.2769	-0.7721	-0.9357	-0.5875	0.3483	0.5287	0.2392	0.5035
-0.6252	-0.0881	-0.449	-0.1217	0.0671	-0.2895	-0.1133	0.0923	-0.0713	-0.0881	0.0042	0.1469	0.0629	0.2895	-0.898	-1.1497	-0.6126	0.3693	0.5455	0.2434	0.4826
-0.684	-0.1175	-0.4868	-0.1301	0.0755	-0.2728	-0.1301	0.0881	-0.0923	-0.0797	-0.042	0.0923	0.042	0.3231	-1.0071	-1.2672	-0.6546	0.3609	0.5455	0.2769	0.4658
-0.7427	-0.1427	-0.5455	-0.1846	0.0881	-0.3189	-0.1511	0.1259	-0.1049	-0.1175	-0.0629	0.0587	-0.0168	0.3525	-1.1036	-1.4057	-0.6966	0.3651	0.5371	0.2979	0.4658
-0.8141	-0.1595	-0.5959	-0.1972	0.0755	-0.3231	-0.1553	0.1049	-0.1175	-0.1469	-0.0923	0.0504	-0.0504	0.3609	-1.1959	-1.5064	-0.7259	0.3651	0.5203	0.2853	0.4322
-0.8434	-0.2014	-0.6168	-0.2098	0.0755	-0.3399	-0.1595	0.1301	-0.1469	-0.1595	-0.1217	0.021	-0.0839	0.3819	-1.2672	-1.5526	-0.7637	0.3902	0.5329	0.3441	0.3944
-0.8686	-0.2182	-0.6084	-0.2014	0.0587	-0.3231	-0.1385	0.1217	-0.1343	-0.1595	-0.1888	-0.0126	-0.1049	0.4154	-1.3386	-1.6029	-0.8099	0.3777	0.5287	0.3609	0.3525
-0.8854	-0.2434	-0.663	-0.2224	0.0671	-0.3567	-0.1637	0.1133	-0.1301	-0.1678	-0.1972	-0.0504	-0.1427	0.4154	-1.4099	-1.6113	-0.8224	0.407	0.4784	0.3735	0.2895
-0.9148	-0.2434	-0.6462	-0.214	0.0629	-0.3231	-0.172	0.1259	-0.1888	-0.193	-0.2602	-0.1091	-0.1804	0.407	-1.4603	-1.5987	-0.8266	0.3944	0.4658	0.3819	0.2308
-0.9064	-0.256	-0.663	-0.2308	0.0546	-0.3399	-0.1804	0.1385	-0.1804	-0.2266	-0.2979	-0.1343	-0.2224	0.407	-1.498	-1.5862	-0.8308	0.3609	0.4322	0.3693	0.1846
-0.919	-0.2644	-0.6378	-0.2014	0.0671	-0.3273	-0.1846	0.0923	-0.1762	-0.2518	-0.3441	-0.1637	-0.2728	0.4196	-1.5064	-1.519	-0.8434	0.3777	0.4196	0.3693	0.1217
-0.9274	-0.2769	-0.621	-0.193	0.042	-0.3105	-0.1888	0.0797	-0.1595	-0.3021	-0.3819	-0.2014	-0.2895	0.4196	-1.4771	-1.4225	-0.8476	0.3693	0.407	0.3651	0.0587
-0.9274	-0.3021	-0.6168	-0.1385	0.021	-0.3483	-0.2182	0.0713	-0.1888	-0.3315	-0.4406	-0.2476	-0.3483	0.4028	-1.4896	-1.3218	-0.8224	0.3735	0.3735	0.3441	0
-0.877	-0.2686	-0.5623	-0.1259	0.0629	-0.3315	-0.1678	0.0881	-0.1553	-0.3231	-0.428	-0.2602	-0.3441	0.407	-1.4519	-1.2085	-0.8141	0.3189	0.3777	0.3273	-0.021
-0.8728	-0.2476	-0.5413	-0.1049	0.0546	-0.3147	-0.1888	0.0755	-0.1343	-0.3483	-0.5119	-0.2895	-0.3819	0.3944	-1.4183	-1.1036	-0.7805	0.3315	0.3441	0.3399	-0.1091
-0.8434	-0.2308	-0.4951	-0.0587	0.0629	-0.2937	-0.1804	0.0629	-0.1427	-0.3902	-0.5077	-0.3231	-0.4154	0.3525	-1.3428	-0.9735	-0.7133	0.3273	0.3651	0.3063	-0.1385
-0.8099	-0.2308	-0.4448	-0.0294	0.0629	-0.2853	-0.1804	0.0713	-0.1091	-0.3819	-0.5287	-0.3441	-0.4616	0.3357	-1.2966	-0.8728	-0.642	0.2853	0.3525	0.3021	-0.1678
-0.8015	-0.2014	-0.3986	-0.0126	0.0755	-0.2518	-0.1595	0.0336	-0.0923	-0.3986	-0.5371	-0.3525	-0.4742	0.2853	-1.2756	-0.7889	-0.5539	0.2644	0.3651	0.2644	-0.2308
-0.7595	-0.1762	-0.3735	0.0252	0.0755	-0.256	-0.1637	0.0378	-0.0797	-0.4154	-0.5329	-0.3735	-0.4951	0.235	-1.2001	-0.7175	-0.4658	0.214	0.3441	0.2308	-0.2811
-0.705	-0.1678	-0.2853	0.0462	0.0881	-0.2182	-0.1595	0.0378	-0.1007	-0.4238	-0.5791	-0.4238	-0.5413	0.1846	-1.1539	-0.5917	-0.3525	0.1804	0.3525	0.1804	-0.2895
-0.6462	-0.1385	-0.2308	0.1007	0.1091	-0.1888	-0.1637	0.021	-0.0546	-0.4574	-0.5665	-0.4364	-0.5623	0.1175	-1.0994	-0.5497	-0.2434	0.1091	0.3819	0.1049	-0.3357
-0.6168	-0.1007	-0.1637	0.1175	0.0965	-0.1553	-0.1385	0.0294	-0.0462	-0.4826	-0.6084	-0.4574	-0.6042	0.0713	-1.0323	-0.47	-0.1385	0.0629	0.386	0.1007	-0.3483
-0.5875	-0.0671	-0.1091	0.1469	0.1175	-0.1259	-0.1511	0.0126	-0.0462	-0.5077	-0.6714	-0.4826	-0.6252	0.0084	-0.9609	-0.3441	0	-0.0084	0.3902	0.0168	-0.3902
-0.5119	-0.0336	-0.0546	0.214	0.1511	-0.0671	-0.1049	0.0336	0.0126	-0.5077	-0.6882	-0.5203	-0.6672	-0.0294	-0.877	-0.2518	0.1007	-0.0797	0.4154	-0.0168	-0.4112
-0.4784	-0.042	-0.0084	0.2434	0.1385	-0.0629	-0.1091	0.0084	-0.0168	-0.5203	-0.6966	-0.5665	-0.684	-0.0965	-0.8099	-0.1637	0.2224	-0.1511	0.4154	-0.0923	-0.4322
-0.4364	-0.0378	0.042	0.2769	0.1469	-0.0126	-0.1007	-0.0462	-0.0336	-0.5455	-0.7217	-0.6042	-0.7595	-0.172	-0.7343	-0.1049	0.3315	-0.256	0.4322	-0.1637	-0.449
-0.3777	0.042	0.1049	0.3273	0.1762	0.042	-0.0462	-0.0294	-0.0084	-0.5287	-0.6756	-0.5749	-0.7385	-0.2098	-0.6588	0	0.4238	-0.3021	0.449	-0.193	-0.407
-0.3273	0.0462	0.1427	0.3693	0.172	0.0713	-0.0294	-0.0839	-0.0084	-0.4993	-0.7175	-0.6168	-0.7679	-0.256	-0.5791	0.0462	0.5287	-0.3735	0.4658	-0.2392	-0.3944
-0.3189	0.0336	0.172	0.3944	0.1595	0.0587	0	-0.042	-0.0168	-0.5035	-0.7092	-0.6168	-0.7343	-0.3147	-0.4826	0.0965	0.6294	-0.4322	0.4868	-0.2686	-0.3777
-0.235	0.0797	0.2224	0.47	0.1595	0.0923	0.0336	-0.0671	0.0126	-0.449	-0.6672	-0.5749	-0.7175	-0.3609	-0.3693	0.1385	0.7175	-0.4532	0.5119	-0.2266	-0.3231
-0.1804	0.1049	0.2895	0.5581	0.1972	0.1762	0.0671	-0.0126	0.042	-0.3693	-0.6294	-0.5665	-0.6882	-0.3986	-0.2308	0.1888	0.7973	-0.4238	0.5413	-0.2644	-0.2392
-0.0965	0.1301	0.3567	0.621	0.2182	0.2014	0.1637	-0.0336	0.1175	-0.3231	-0.6042	-0.5203	-0.6252	-0.4406	-0.1049	0.1888	0.8854	-0.4238	0.5665	-0.214	-0.1972
-0.0462	0.1637	0.3944	0.6672	0.2476	0.2308	0.2308	-0.0168	0.1007	-0.235	-0.5581	-0.491	-0.5665	-0.4993	0.0294	0.1595	1.0029	-0.428	0.6042	-0.1804	-0.1595
-0.021	0.1595	0.4364	0.7637	0.2895	0.2686	0.2895	-0.0168	0.1804	-0.1511	-0.5161	-0.4154	-0.5077	-0.5455	0.172	0.1133	1.0742	-0.4028	0.6294	-0.1175	-0.0965
0.0126	0.1888	0.4238	0.7805	0.3189	0.2895	0.3483	-0.0126	0.2182	-0.0378	-0.4658	-0.3902	-0.4322	-0.5875	0.3021	0.0839	1.1581	-0.3441	0.6336	-0.0546	-0.0629
0.0378	0.2056	0.4196	0.835	0.2895	0.3021	0.3777	-0.0126	0.2266	0.0168	-0.4616	-0.3735	-0.3944	-0.642	0.4658	0.0504	1.2463	-0.3105	0.6588	-0.0252	0.0168
0.0504	0.1888	0.4028	0.8183	0.3357	0.2937	0.4028	-0.0252	0.2518	0.0755	-0.4532	-0.3525	-0.3483	-0.6672	0.5707	-0.0084	1.3302	-0.2811	0.6546	0.0084	0.0546
0.0042	0.1678	0.3651	0.8141	0.3315	0.235	0.4238	-0.042	0.2686	0.1133	-0.4364	-0.3273	-0.2937	-0.7217	0.6462	-0.0504	1.4141	-0.2686	0.6336	0.0587	0.0713
-0.0587	0.1133	0.2602	0.7385	0.2811	0.2014	0.3902	-0.0923	0.2518	0.1511	-0.428	-0.3063	-0.2979	-0.7805	0.6966	-0.0965	1.5148	-0.256	0.6252	0.0671	0.1049
-0.1301	0.0797	0.1637	0.684	0.256	0.1637	0.3777	-0.1091	0.1888	0.1553	-0.449	-0.3147	-0.256	-0.8183	0.7217	-0.1217	1.5945	-0.2098	0.6042	0.0965	0.1133
-0.2266	0	0.0462	0.6042	0.2014	0.0923	0.3399	-0.1595	0.1762	0.1678	-0.4868	-0.3399	-0.2937	-0.8476	0.6798	-0.2392	1.6575	-0.2182	0.5623	0.1049	0.0965
-0.3189	-0.0671	-0.0629	0.5287	0.172	0.042	0.3147	-0.1972	0.1637	0.1595	-0.4993	-0.3525	-0.2937	-0.8644	0.6336	-0.2853	1.712	-0.1762	0.5497	0.1469	0.1049
-0.4448	-0.1553	-0.1678	0.4238	0.1301	-0.0126	0.2979	-0.214	0.1343	0.1553	-0.5035	-0.3441	-0.2979	-0.9064	0.6001	-0.3902	1.775	-0.1846	0.5329	0.1595	0.1007
-0.5287	-0.2098	-0.3021	0.3273	0.1091	-0.0923	0.2392	-0.2224	0.0797	0.1427	-0.4951	-0.3441	-0.3357	-0.9441	0.5077	-0.491	1.8337	-0.1888	0.5329	0.1553	0.1343
-0.6798	-0.3021	-0.4406	0.2056	0.0462	-0.1678	0.1637	-0.2937	0.042	0.0755	-0.5203	-0.3777	-0.3525	-0.9777	0.4196	-0.6168	1.9176	-0.1762	0.4784	0.1385	0.1175
-0.8183	-0.3819	-0.5749	0.0797	0	-0.2476	0.1049	-0.3105	-0.0042	0.0252	-0.5455	-0.3735	-0.4196	-1.0239	0.2686	-0.7092	1.989	-0.193	0.428	0.0923	0.1133
-0.9315	-0.4616	-0.6882	-0.0546	-0.042	-0.3189	0.042	-0.3189	-0.0252	-0.0084	-0.5497	-0.3651	-0.4448	-1.0365	0.1301	-0.7637	2.0477	-0.2056	0.4406	0.0713	0.1049
-1.0574	-0.491	-0.8224	-0.1553	-0.0755	-0.3609	-0.0294	-0.3777	-0.0797	-0.0671	-0.5413	-0.407	-0.5035	-1.0742	0.0378	-0.8099	2.1065	-0.2476	0.4196	0.0629	0.0713
-1.1539	-0.5581	-0.9064	-0.2769	-0.0797	-0.4406	-0.0839	-0.386	-0.1133	-0.1301	-0.5497	-0.3902	-0.5203	-1.0868	-0.0965	-0.8476	2.1694	-0.2434	0.4238	0.0042	0.0378
-1.2924	-0.6001	-1.0448	-0.3986	-0.1259	-0.4993	-0.1385	-0.4112	-0.1553	-0.1972	-0.5455	-0.3735	-0.6001	-1.1414	-0.2308	-0.8644	2.2366	-0.2644	0.3902	-0.0378	0.042
-1.4015	-0.6504	-1.1246	-0.5371	-0.1259	-0.5623	-0.2224	-0.3944	-0.1678	-0.2518	-0.5119	-0.3441	-0.6462	-1.1665	-0.3483	-0.856	2.2911	-0.2769	0.407	-0.0881	-0.0042
-1.519	-0.6798	-1.2337	-0.621	-0.1678	-0.6168	-0.2728	-0.428	-0.214	-0.3315	-0.5119	-0.3357	-0.6504	-1.2085	-0.4532	-0.8728	2.3499	-0.3315	0.3944	-0.1888	-0.0168
-1.6113	-0.705	-1.3092	-0.705	-0.1888	-0.684	-0.3777	-0.4616	-0.2602	-0.4322	-0.5119	-0.3777	-0.7427	-1.2253	-0.5791	-0.8224	2.4128	-0.3441	0.4028	-0.2518	-0.0629
-1.6911	-0.7679	-1.4057	-0.8183	-0.2056	-0.7595	-0.4574	-0.4742	-0.3147	-0.4951	-0.5371	-0.3693	-0.7889	-1.263	-0.6546	-0.7511	2.4799	-0.4238	0.3944	-0.3357	-0.0797
-1.775	-0.7931	-1.4938	-0.9357	-0.2434	-0.835	-0.5413	-0.5119	-0.3483	-0.5707	-0.5329	-0.4196	-0.8812	-1.284	-0.7385	-0.6882	2.5303	-0.4658	0.3986	-0.3944	-0.0923
-1.8295	-0.8015	-1.5568	-0.9987	-0.2224	-0.8518	-0.6084	-0.5203	-0.4028	-0.663	-0.5287	-0.407	-0.9567	-1.3134	-0.7847	-0.6084	2.5723	-0.5077	0.3944	-0.4951	-0.0923
-1.8925	-0.8141	-1.5987	-1.0868	-0.2518	-0.9106	-0.6966	-0.5371	-0.4616	-0.7301	-0.5497	-0.4238	-1.0281	-1.3218	-0.8686	-0.5455	2.6058	-0.5917	0.3986	-0.5623	-0.1133
-1.9512	-0.8141	-1.6617	-1.1665	-0.235	-0.9567	-0.7469	-0.5665	-0.4658	-0.8141	-0.5455	-0.4154	-1.0742	-1.3302	-0.9315	-0.4784	2.6226	-0.6294	0.4196	-0.6588	-0.1343
-1.9974	-0.8266	-1.6953	-1.2882	-0.2602	-1.0365	-0.8392	-0.5875	-0.5581	-0.9106	-0.5917	-0.4574	-1.2043	-1.3512	-0.9987	-0.4658	2.6562	-0.7259	0.4028	-0.7637	-0.1804
-2.0771	-0.8434	-1.754	-1.3344	-0.2434	-1.1078	-0.9274	-0.621	-0.5749	-1.0029	-0.6042	-0.491	-1.2589	-1.3512	-1.0532	-0.407	2.673	-0.8057	0.4238	-0.8434	-0.2098
-2.0771	-0.8308	-1.754	-1.4267	-0.2476	-1.1456	-0.9609	-0.6462	-0.6168	-1.0868	-0.6168	-0.5077	-1.3428	-1.3638	-1.1162	-0.4364	2.6814	-0.8728	0.4112	-0.9399	-0.2182
-2.1149	-0.8266	-1.796	-1.4645	-0.2769	-1.1791	-1.0155	-0.6546	-0.6756	-1.1414	-0.6294	-0.5581	-1.4183	-1.3721	-1.1497	-0.4658	2.7065	-0.9106	0.4196	-1.0155	-0.2182
-2.1358	-0.8015	-1.7666	-1.5106	-0.2686	-1.2169	-1.0616	-0.6798	-0.705	-1.2169	-0.6588	-0.5665	-1.4603	-1.3638	-1.1791	-0.4784	2.6981	-1.0029	0.3986	-1.0742	-0.2308
-2.1358	-0.7847	-1.7498	-1.5232	-0.2602	-1.2211	-1.0952	-0.6672	-0.7385	-1.2547	-0.663	-0.5749	-1.519	-1.3805	-1.2379	-0.5497	2.7023	-1.0365	0.4238	-1.1456	-0.214
-2.1275	-0.7595	-1.7582	-1.5484	-0.2392	-1.2547	-1.1372	-0.7133	-0.7805	-1.305	-0.6924	-0.6126	-1.5903	-1.3805	-1.2672	-0.5875	2.7149	-1.0952	0.407	-1.1959	-0.2434
-2.1694	-0.7553	-1.7414	-1.5568	-0.235	-1.3008	-1.1749	-0.7175	-0.7973	-1.3428	-0.705	-0.6336	-1.6071	-1.3805	-1.3176	-0.7008	2.7191	-1.1623	0.3986	-1.2421	-0.2602
-2.0897	-0.7175	-1.6994	-1.5358	-0.214	-1.2756	-1.1581	-0.7133	-0.8099	-1.326	-0.7008	-0.642	-1.6533	-1.3554	-1.347	-0.8057	2.6855	-1.1917	0.407	-1.3092	-0.2769
-2.0729	-0.705	-1.6491	-1.5106	-0.2182	-1.2756	-1.1581	-0.7133	-0.8392	-1.3763	-0.7343	-0.6672	-1.6575	-1.3512	-1.3512	-0.9441	2.6772	-1.2169	0.428	-1.3428	-0.2728
-2.0142	-0.6504	-1.6197	-1.4729	-0.1804	-1.2924	-1.1539	-0.7175	-0.8392	-1.3805	-0.7427	-0.6756	-1.7246	-1.3428	-1.3889	-1.0742	2.6478	-1.2672	0.4406	-1.3805	-0.2811
-1.9386	-0.5791	-1.5316	-1.3931	-0.1762	-1.2756	-1.1204	-0.7217	-0.8518	-1.3889	-0.7511	-0.7008	-1.7204	-1.3302	-1.3428	-1.1665	2.6268	-1.2966	0.4532	-1.4057	-0.2518
-1.8211	-0.5245	-1.4687	-1.3176	-0.1385	-1.2253	-1.1036	-0.7133	-0.8266	-1.3889	-0.7511	-0.7469	-1.7204	-1.3008	-1.284	-1.2547	2.5639	-1.3386	0.4742	-1.4225	-0.2308
-1.712	-0.4658	-1.4057	-1.2253	-0.0965	-1.2379	-1.0574	-0.684	-0.835	-1.3763	-0.7679	-0.7427	-1.733	-1.2882	-1.2547	-1.2966	2.5303	-1.3847	0.4826	-1.4393	-0.2182
-1.6281	-0.4112	-1.2924	-1.133	-0.0755	-1.1749	-1.0071	-0.7133	-0.8308	-1.3428	-0.7931	-0.7763	-1.7498	-1.2714	-1.1539	-1.305	2.4967	-1.4183	0.5245	-1.4309	-0.1846
-1.5148	-0.3819	-1.2421	-1.049	-0.0462	-1.1497	-0.9861	-0.6924	-0.8015	-1.3386	-0.8099	-0.7889	-1.7666	-1.2672	-1.0742	-1.3008	2.4632	-1.4603	0.5497	-1.4435	-0.1762
-1.3805	-0.3273	-1.1497	-0.9399	-0.0252	-1.1288	-0.9315	-0.6882	-0.7973	-1.3302	-0.8308	-0.8099	-1.7288	-1.2337	-0.9651	-1.2672	2.438	-1.4812	0.5749	-1.4435	-0.1888
-1.2379	-0.2686	-1.07	-0.8015	-0.0042	-1.0742	-0.8728	-0.663	-0.7637	-1.3008	-0.835	-0.8015	-1.7204	-1.2085	-0.8434	-1.1875	2.396	-1.5106	0.6001	-1.4225	-0.1846
-1.133	-0.2602	-1.0071	-0.7301	0.0084	-1.049	-0.7847	-0.684	-0.7385	-1.2589	-0.8686	-0.8308	-1.7162	-1.1959	-0.7133	-1.091	2.3624	-1.5232	0.6168	-1.3973	-0.1846
-1.0406	-0.2392	-0.9441	-0.642	0.042	-1.0365	-0.7343	-0.6756	-0.7259	-1.2463	-0.877	-0.8141	-1.712	-1.1917	-0.5959	-0.9819	2.3415	-1.5274	0.6084	-1.4015	-0.1888
-0.898	-0.2182	-0.877	-0.5329	0.0252	-0.9903	-0.6672	-0.6924	-0.6588	-1.1875	-0.9064	-0.8266	-1.6701	-1.1539	-0.428	-0.8308	2.2953	-1.5358	0.6336	-1.326	-0.2014
-0.8099	-0.1888	-0.8057	-0.47	0.0546	-0.9819	-0.6168	-0.6882	-0.7008	-1.1749	-0.919	-0.8434	-1.6659	-1.1581	-0.3315	-0.6798	2.2995	-1.5232	0.6336	-1.3092	-0.2434
-0.7175	-0.1637	-0.7805	-0.3819	0.0462	-0.9483	-0.5623	-0.7217	-0.6798	-1.1078	-0.9609	-0.8644	-1.6155	-1.1414	-0.1762	-0.5035	2.2617	-1.5064	0.6546	-1.2714	-0.2895
-0.642	-0.1972	-0.7721	-0.3651	-0.0126	-0.9777	-0.5455	-0.7595	-0.6924	-1.1036	-1.0155	-0.8854	-1.6239	-1.1581	-0.1007	-0.3902	2.2701	-1.5022	0.6126	-1.2882	-0.3315
-0.5497	-0.1888	-0.7553	-0.2686	-0.021	-0.9567	-0.4826	-0.7763	-0.6504	-1.049	-1.0448	-0.8896	-1.5694	-1.1204	-0.021	-0.2392	2.2324	-1.4645	0.6084	-1.2001	-0.4154
-0.5161	-0.2308	-0.7595	-0.2853	-0.0462	-1.0155	-0.4658	-0.835	-0.7092	-1.0323	-1.1204	-0.9232	-1.5526	-1.1246	0.0713	-0.0965	2.2282	-1.4351	0.5749	-1.2043	-0.4993
-0.4742	-0.2224	-0.7595	-0.256	-0.1049	-1.0448	-0.428	-0.8686	-0.7427	-1.0365	-1.1623	-0.9651	-1.5526	-1.1246	0.1678	0.0126	2.2072	-1.4435	0.5455	-1.1749	-0.5749
-0.449	-0.2769	-0.7805	-0.2392	-0.1217	-1.07	-0.3986	-0.9064	-0.7511	-1.0113	-1.2295	-1.0197	-1.5358	-1.0994	0.1804	0.0881	2.182	-1.4057	0.5203	-1.1539	-0.6168
-0.449	-0.3063	-0.8476	-0.2644	-0.1804	-1.1372	-0.3902	-0.9609	-0.8308	-1.0197	-1.3092	-1.0742	-1.561	-1.1078	0.1762	0.1259	2.182	-1.4015	0.5119	-1.1078	-0.7092
-0.4448	-0.3441	-0.9106	-0.2895	-0.235	-1.1791	-0.3777	-1.0029	-0.856	-1.0029	-1.3386	-1.0994	-1.5862	-1.091	0.2182	0.1972	2.1484	-1.3721	0.4993	-1.0742	-0.7427
-0.4658	-0.386	-0.9525	-0.3105	-0.2644	-1.2589	-0.407	-1.0574	-0.8938	-1.0281	-1.4183	-1.1414	-1.5987	-1.0742	0.2056	0.1762	2.1149	-1.3218	0.4616	-1.0532	-0.7889
-0.5035	-0.4322	-1.0323	-0.3777	-0.3021	-1.3302	-0.4196	-1.0952	-0.9693	-1.0994	-1.4183	-1.2211	-1.6701	-1.0616	0.1804	0.1301	2.0771	-1.3344	0.4574	-1.0365	-0.8099
-0.5665	-0.4658	-1.1372	-0.3902	-0.3567	-1.3973	-0.4238	-1.1539	-1.0239	-1.1372	-1.4729	-1.2798	-1.712	-1.0406	0.1217	0.0713	2.0477	-1.3176	0.407	-1.0281	-0.8644
-0.5959	-0.4951	-1.1917	-0.4406	-0.3777	-1.4477	-0.449	-1.1707	-1.0574	-1.1581	-1.5064	-1.3134	-1.7288	-1.0071	0.0965	-0.0042	1.9764	-1.2589	0.4238	-0.9693	-0.8854
-0.663	-0.5287	-1.2589	-0.5161	-0.3902	-1.5064	-0.4574	-1.1665	-1.1497	-1.2085	-1.5148	-1.3512	-1.7918	-0.9903	0.021	-0.1175	1.9344	-1.284	0.428	-0.9609	-0.898
-0.7217	-0.5665	-1.347	-0.5791	-0.4406	-1.582	-0.5329	-1.2547	-1.1917	-1.2756	-1.5358	-1.4141	-1.9051	-0.9693	-0.0839	-0.2644	1.9093	-1.3428	0.3651	-0.9525	-0.9525
-0.7973	-0.6252	-1.4309	-0.7133	-0.47	-1.6701	-0.6084	-1.2505	-1.284	-1.3512	-1.5652	-1.4687	-1.9764	-0.9819	-0.1637	-0.4196	1.9176	-1.3512	0.3441	-0.9693	-0.9441
-0.8518	-0.6714	-1.5274	-0.7595	-0.491	-1.7204	-0.6882	-1.284	-1.3512	-1.4519	-1.5987	-1.498	-2.0687	-0.9819	-0.214	-0.4784	1.9176	-1.3638	0.3525	-0.9735	-0.9735
-0.9064	-0.6714	-1.6155	-0.8728	-0.4993	-1.8127	-0.7637	-1.3176	-1.3931	-1.5694	-1.6071	-1.5694	-2.1988	-0.9903	-0.2769	-0.5791	1.9386	-1.4183	0.3189	-1.0365	-0.9945
-0.9819	-0.7133	-1.6827	-0.9441	-0.5161	-1.8589	-0.8602	-1.2756	-1.4812	-1.6533	-1.5987	-1.6071	-2.2911	-1.0113	-0.3525	-0.6252	1.9806	-1.4603	0.2937	-1.07	-0.9987
-1.0532	-0.7469	-1.7708	-1.0365	-0.5707	-1.968	-0.9903	-1.3596	-1.5652	-1.8085	-1.6071	-1.6449	-2.4338	-1.049	-0.4028	-0.6588	2.0603	-1.5316	0.2602	-1.1581	-1.0155
-1.1036	-0.8057	-1.8673	-1.1623	-0.6042	-2.0519	-1.1204	-1.3889	-1.6659	-1.9554	-1.6365	-1.712	-2.5639	-1.0868	-0.4784	-0.705	2.1275	-1.6071	0.214	-1.2463	-1.0281
-1.1875	-0.8476	-1.9596	-1.284	-0.6336	-2.1191	-1.2169	-1.4057	-1.7246	-2.0855	-1.6197	-1.7498	-2.6772	-1.1288	-0.5077	-0.7092	2.2072	-1.6701	0.193	-1.305	-1.0239
-1.2379	-0.8854	-2.0309	-1.3302	-0.642	-2.1988	-1.3344	-1.4309	-1.7834	-2.1988	-1.6365	-1.775	-2.7821	-1.1623	-0.5539	-0.6924	2.2869	-1.7288	0.172	-1.3721	-1.0281
-1.2882	-0.9022	-2.1065	-1.4477	-0.6462	-2.2743	-1.4351	-1.4477	-1.8379	-2.3205	-1.6113	-1.7876	-2.8744	-1.2127	-0.6294	-0.7008	2.3792	-1.8044	0.1469	-1.4561	-1.0281
-1.3386	-0.9567	-2.1652	-1.5232	-0.6924	-2.3247	-1.5652	-1.4687	-1.8841	-2.4506	-1.5987	-1.8002	-2.9709	-1.2505	-0.6798	-0.705	2.4673	-1.8589	0.1175	-1.5148	-1.0365
-1.3889	-1.0406	-2.2533	-1.6449	-0.7343	-2.4002	-1.6743	-1.4938	-1.9302	-2.5471	-1.561	-1.7666	-3.0212	-1.305	-0.7469	-0.7511	2.5471	-1.9051	0.0965	-1.6113	-1.0113
-1.4561	-1.0826	-2.3331	-1.7708	-0.7763	-2.4715	-1.7666	-1.5106	-1.9428	-2.6142	-1.5316	-1.7666	-3.08	-1.326	-0.8183	-0.7847	2.6226	-1.9638	0.0587	-1.6533	-1.0071
-1.5442	-1.1078	-2.438	-1.8589	-0.8266	-2.5387	-1.8967	-1.5358	-1.9848	-2.7107	-1.5022	-1.7498	-3.1303	-1.3638	-0.898	-0.8602	2.7191	-1.9932	0.0168	-1.712	-1.0071
-1.5903	-1.1875	-2.5093	-1.9764	-0.8476	-2.5974	-1.9764	-1.5568	-1.9974	-2.7695	-1.4771	-1.7498	-3.1723	-1.4057	-0.9483	-0.8938	2.7863	-2.0309	-0.0126	-1.7456	-0.9987
-1.6869	-1.263	-2.6394	-2.1149	-0.9399	-2.6814	-2.1065	-1.6029	-2.0477	-2.8534	-1.4267	-1.6911	-3.1681	-1.4351	-1.0323	-0.9357	2.8366	-2.0351	-0.0084	-1.8085	-0.9609
-1.7498	-1.3176	-2.7191	-2.2156	-0.9903	-2.7443	-2.1358	-1.6071	-2.0184	-2.845	-1.3638	-1.6701	-3.1555	-1.4561	-1.0365	-0.9483	2.8954	-2.0142	-0.021	-1.8085	-0.9651
-1.8631	-1.4099	-2.845	-2.3205	-1.0868	-2.8702	-2.2449	-1.6365	-2.0645	-2.8744	-1.3092	-1.6071	-3.1345	-1.4938	-1.0784	-1.0029	2.9625	-2.01	-0.0923	-1.8421	-0.9651
-1.9512	-1.5022	-2.9205	-2.4002	-1.1581	-2.9373	-2.3499	-1.712	-2.0855	-2.9163	-1.3008	-1.561	-3.0968	-1.5274	-1.1162	-1.0281	3.017	-2.01	-0.0965	-1.8841	-0.9399
-2.0603	-1.5987	-3.0674	-2.5429	-1.2547	-3.0045	-2.3876	-1.7624	-2.0813	-2.8954	-1.2463	-1.4771	-3.017	-1.5442	-1.1288	-1.0826	3.059	-1.9932	-0.1259	-1.8925	-0.9022
-2.1736	-1.6911	-3.1597	-2.6226	-1.368	-3.1178	-2.4296	-1.7918	-2.0939	-2.8912	-1.1833	-1.4057	-2.9541	-1.582	-1.1707	-1.1288	3.1178	-1.9806	-0.1385	-1.9176	-0.8728
-2.2324	-1.7792	-3.273	-2.6855	-1.4687	-3.1639	-2.4757	-1.8463	-2.0645	-2.8156	-1.112	-1.347	-2.8534	-1.5987	-1.2001	-1.1497	3.1723	-1.9428	-0.1804	-1.9386	-0.8392
-2.3582	-1.8967	-3.3863	-2.7401	-1.5652	-3.2101	-2.4673	-1.8715	-2.0435	-2.7737	-1.0574	-1.2505	-2.7695	-1.6323	-1.1791	-1.1665	3.2352	-1.8883	-0.1972	-1.9596	-0.8141
-2.4338	-1.968	-3.4618	-2.7695	-1.6323	-3.252	-2.4506	-1.9009	-2.0016	-2.6772	-0.9399	-1.1078	-2.6016	-1.6701	-1.1497	-1.1497	3.2898	-1.796	-0.1888	-1.9302	-0.7427
-2.5345	-2.0351	-3.55	-2.8072	-1.733	-3.2898	-2.4548	-1.9302	-1.9596	-2.5848	-0.856	-0.9651	-2.4673	-1.6994	-1.1162	-1.1288	3.3527	-1.754	-0.193	-1.926	-0.7092
-2.6268	-2.1107	-3.6297	-2.803	-1.775	-3.3443	-2.4128	-1.9218	-1.8799	-2.4673	-0.7259	-0.7805	-2.2827	-1.7372	-1.0658	-1.0784	3.4367	-1.6785	-0.1595	-1.9009	-0.6168
-2.6855	-2.1652	-3.6758	-2.8156	-1.8253	-3.336	-2.3834	-1.9051	-1.796	-2.3792	-0.5917	-0.6294	-2.1233	-1.7708	-1.0155	-1.0197	3.5038	-1.6281	-0.1343	-1.8883	-0.5413
-2.7527	-2.224	-3.7556	-2.8114	-1.8589	-3.3653	-2.3415	-1.8757	-1.7162	-2.2449	-0.4658	-0.4532	-1.9428	-1.8127	-0.9861	-0.9525	3.5793	-1.5568	-0.0797	-1.8925	-0.47
-2.845	-2.2785	-3.8101	-2.8366	-1.8841	-3.336	-2.2785	-1.8253	-1.6491	-2.1149	-0.3357	-0.2476	-1.7456	-1.8547	-0.9148	-0.9022	3.6591	-1.5022	-0.0336	-1.8715	-0.3819
-2.9289	-2.3079	-3.8479	-2.8702	-1.8967	-3.3024	-2.2324	-1.7918	-1.5694	-1.9848	-0.2014	-0.0797	-1.5652	-1.9009	-0.9357	-0.8812	3.7514	-1.3931	0.042	-1.8127	-0.2686
-2.9751	-2.2869	-3.9024	-2.8828	-1.9009	-3.315	-2.1904	-1.796	-1.4519	-1.8883	-0.042	0.1133	-1.3973	-1.9512	-0.8896	-0.8938	3.8521	-1.3721	0.0881	-1.8379	-0.1678
-3.0464	-2.2869	-3.9276	-2.8954	-1.9009	-3.294	-2.1652	-1.7372	-1.3847	-1.8044	0.0839	0.3231	-1.2169	-2.0016	-0.8644	-0.9315	3.9612	-1.3428	0.1511	-1.8002	-0.0504
-3.0926	-2.2701	-3.9528	-2.9247	-1.8883	-3.2562	-2.1149	-1.6617	-1.2966	-1.6533	0.2392	0.491	-1.0658	-2.0351	-0.8812	-0.9693	4.0493	-1.2714	0.214	-1.796	0.0587
-3.1723	-2.2911	-3.9864	-2.9583	-1.8757	-3.2646	-2.1065	-1.6197	-1.2295	-1.582	0.3819	0.6378	-0.919	-2.0981	-0.8728	-1.0029	4.1416	-1.2295	0.2769	-1.7918	0.172
-3.2772	-2.2743	-4.0031	-3.017	-1.8337	-3.2269	-2.0435	-1.5736	-1.1665	-1.4938	0.5161	0.835	-0.7595	-2.14	-0.9148	-1.0952	4.2381	-1.1959	0.3525	-1.8085	0.2979
-3.315	-2.2533	-4.0325	-3.017	-1.8253	-3.2185	-2.0519	-1.54	-1.07	-1.4309	0.6504	0.9903	-0.6462	-2.182	-0.9693	-1.1623	4.3221	-1.1623	0.3944	-1.8169	0.386
-3.3989	-2.2785	-4.0619	-3.0632	-1.7834	-3.1933	-2.0351	-1.4729	-1.0197	-1.3512	0.7217	1.1456	-0.5119	-2.2282	-1.0113	-1.2085	4.406	-1.1288	0.4616	-1.8127	0.4826
-3.4996	-2.2491	-4.0535	-3.0758	-1.7792	-3.1723	-2.0226	-1.4561	-0.9483	-1.2547	0.8518	1.3134	-0.3902	-2.2491	-1.0281	-1.2547	4.4689	-1.0826	0.4993	-1.8169	0.5665
-3.5374	-2.2533	-4.0829	-3.0716	-1.7162	-3.1555	-1.9764	-1.3805	-0.8686	-1.1959	0.9525	1.4267	-0.2769	-2.2617	-1.07	-1.2421	4.4899	-1.0323	0.5539	-1.7918	0.6546
-3.6339	-2.2659	-4.1164	-3.1261	-1.7036	-3.1849	-1.9974	-1.3638	-0.8518	-1.1833	0.9861	1.5568	-0.2056	-2.2575	-1.1036	-1.263	4.5193	-1.0113	0.5749	-1.8211	0.6924
-3.7178	-2.2785	-4.1206	-3.1471	-1.7204	-3.1807	-1.9932	-1.3554	-0.7889	-1.1204	1.0448	1.6491	-0.1343	-2.2701	-1.1456	-1.2379	4.5109	-0.9945	0.5665	-1.8295	0.7343
-3.7766	-2.3037	-4.1542	-3.1765	-1.7204	-3.1807	-2.0058	-1.326	-0.7805	-1.091	1.0952	1.7162	-0.0546	-2.2659	-1.1917	-1.2379	4.5067	-0.9399	0.5749	-1.8253	0.7721
-3.8437	-2.3457	-4.192	-3.2059	-1.712	-3.1975	-2.0226	-1.3386	-0.8015	-1.07	1.0952	1.7624	0.0168	-2.2491	-1.1959	-1.2085	4.4689	-0.9106	0.5497	-1.8127	0.7511
-3.9654	-2.3834	-4.2381	-3.231	-1.7372	-3.2101	-2.0729	-1.3512	-0.7847	-1.0826	1.1372	1.8127	0.0671	-2.2282	-1.2421	-1.1875	4.427	-0.8644	0.5329	-1.8002	0.7469
-4.0283	-2.4632	-4.2759	-3.3066	-1.7498	-3.252	-2.0981	-1.3721	-0.7973	-1.07	1.1246	1.8421	0.1343	-2.2114	-1.2882	-1.1581	4.385	-0.8141	0.4826	-1.8295	0.7301
-4.129	-2.5135	-4.3514	-3.3485	-1.7918	-3.315	-2.1317	-1.4225	-0.8392	-1.1372	1.0658	1.8505	0.1427	-2.1736	-1.305	-1.1372	4.3221	-0.7679	0.449	-1.8253	0.705
-4.2423	-2.6058	-4.3976	-3.4241	-1.8421	-3.3821	-2.1862	-1.4812	-0.8308	-1.1497	1.0239	1.8379	0.1678	-2.1442	-1.3302	-1.1372	4.2633	-0.7259	0.428	-1.8463	0.6714
-4.3053	-2.6562	-4.4479	-3.4576	-1.8925	-3.4073	-2.2198	-1.5148	-0.8854	-1.1414	0.9567	1.8211	0.1762	-2.1191	-1.3805	-1.1414	4.192	-0.6798	0.386	-1.8547	0.6294
-4.427	-2.7695	-4.4983	-3.508	-1.9974	-3.4744	-2.2533	-1.561	-0.9525	-1.1707	0.8854	1.7708	0.1972	-2.0939	-1.4015	-1.1833	4.1332	-0.6546	0.3315	-1.8295	0.5917
-4.5319	-2.8534	-4.5948	-3.55	-2.0309	-3.5416	-2.3205	-1.6365	-1.0406	-1.2672	0.8224	1.6869	0.1678	-2.0855	-1.4477	-1.2253	4.1122	-0.5959	0.3189	-1.8505	0.5665
-4.6116	-2.9625	-4.6661	-3.6087	-2.1358	-3.6003	-2.3876	-1.7162	-1.1372	-1.3092	0.7301	1.6155	0.1511	-2.0603	-1.4687	-1.263	4.0829	-0.5665	0.3021	-1.8505	0.4993
-4.6871	-3.0674	-4.7165	-3.6507	-2.182	-3.6633	-2.4506	-1.775	-1.1791	-1.3218	0.6546	1.5568	0.1385	-2.0393	-1.4896	-1.3386	4.0409	-0.5287	0.2518	-1.8463	0.4868
-4.771	-3.1807	-4.8046	-3.6884	-2.2659	-3.743	-2.5009	-1.8505	-1.2966	-1.3973	0.5791	1.4477	0.1049	-2.0267	-1.54	-1.4435	4.0325	-0.5245	0.235	-1.8715	0.4238
-4.7962	-3.252	-4.8214	-3.701	-2.3582	-3.7807	-2.5387	-1.8967	-1.3638	-1.4519	0.5161	1.3428	0.0252	-2.01	-1.5694	-1.5232	3.9822	-0.4826	0.214	-1.8505	0.3819
-4.8927	-3.3989	-4.9137	-3.7514	-2.438	-3.8773	-2.5974	-2.0058	-1.4603	-1.5526	0.4112	1.2589	-0.0168	-2.0016	-1.6197	-1.6491	3.978	-0.4993	0.1804	-1.8547	0.3483
-4.9809	-3.4744	-4.9892	-3.7849	-2.5555	-3.957	-2.6646	-2.0687	-1.5568	-1.6239	0.3273	1.1204	-0.0755	-1.9974	-1.7078	-1.8463	3.9444	-0.5203	0.1469	-1.8757	0.3189
-5.0648	-3.5919	-5.0648	-3.8227	-2.652	-4.0409	-2.7107	-2.1442	-1.6785	-1.6743	0.2392	1.0113	-0.1427	-1.9932	-1.7918	-1.9638	3.936	-0.5119	0.1427	-1.8631	0.2853
-5.1109	-3.6549	-5.1025	-3.8017	-2.6939	-4.0661	-2.7275	-2.1862	-1.7246	-1.7498	0.1762	0.9022	-0.214	-1.9722	-1.8337	-2.1233	3.9066	-0.4951	0.1343	-1.8547	0.2728
-5.1907	-3.7682	-5.1487	-3.8311	-2.8114	-4.1248	-2.7737	-2.2575	-1.8337	-1.8169	0.1049	0.7973	-0.2937	-1.9764	-1.9051	-2.2617	3.8982	-0.5119	0.1343	-1.8589	0.2476
-5.2284	-3.8311	-5.22	-3.8059	-2.9037	-4.1836	-2.7863	-2.3499	-1.947	-1.8925	0.021	0.6672	-0.3609	-1.9806	-1.9806	-2.4086	3.8898	-0.5455	0.1259	-1.8589	0.2098
-5.2578	-3.8982	-5.2536	-3.8101	-2.9793	-4.2255	-2.7905	-2.3792	-1.989	-1.9386	-0.0504	0.5497	-0.4238	-1.9596	-1.9722	-2.5513	3.8731	-0.5581	0.1301	-1.8589	0.1846
-5.283	-3.9528	-5.2662	-3.7891	-3.017	-4.2507	-2.7863	-2.4422	-2.0477	-1.9554	-0.0923	0.47	-0.5077	-1.9386	-2.0016	-2.6939	3.8395	-0.5707	0.1259	-1.8085	0.1762
-5.2956	-3.9654	-5.2872	-3.7556	-3.0758	-4.2717	-2.7988	-2.5219	-2.1317	-2.0519	-0.1427	0.3651	-0.5371	-1.9386	-2.0184	-2.866	3.8353	-0.6001	0.1091	-1.7708	0.1553
-5.2914	-4.0157	-5.2914	-3.7346	-3.1178	-4.2633	-2.7779	-2.5597	-2.1862	-2.0309	-0.2056	0.2644	-0.6001	-1.9344	-1.989	-2.9709	3.8269	-0.6001	0.1301	-1.775	0.1343
-5.2578	-4.0241	-5.2536	-3.6716	-3.1429	-4.2255	-2.7317	-2.6016	-2.1778	-2.0603	-0.235	0.214	-0.6294	-1.9093	-1.9344	-3.0632	3.7933	-0.6042	0.1217	-1.7204	0.172
-5.2284	-4.0241	-5.2578	-3.6171	-3.1849	-4.2423	-2.7233	-2.6058	-2.2533	-2.0855	-0.2895	0.1301	-0.7092	-1.9176	-1.8589	-3.1723	3.7807	-0.6462	0.1511	-1.6701	0.1553
-5.2032	-4.0241	-5.2284	-3.5542	-3.1849	-4.2046	-2.6562	-2.6226	-2.2659	-2.0813	-0.3105	0.0713	-0.7595	-1.9051	-1.8421	-3.2772	3.7724	-0.6504	0.172	-1.6071	0.1637
-5.1319	-3.9738	-5.1529	-3.4744	-3.1723	-4.1542	-2.5974	-2.6016	-2.2491	-2.0729	-0.2979	0.0546	-0.7763	-1.8967	-1.7162	-3.3192	3.7304	-0.6588	0.235	-1.5652	0.2266
-5.0228	-3.9024	-5.1109	-3.3989	-3.1345	-4.1039	-2.5387	-2.6058	-2.2491	-2.0687	-0.3063	-0.0042	-0.8392	-1.8841	-1.6113	-3.2688	3.722	-0.7008	0.2518	-1.5022	0.2686
-4.9473	-3.8731	-5.0774	-3.3318	-3.101	-4.0619	-2.4925	-2.5806	-2.2659	-2.0645	-0.3147	-0.0504	-0.8938	-1.8799	-1.5064	-3.2143	3.7178	-0.7637	0.2769	-1.4645	0.2895
-4.8676	-3.7975	-4.9683	-3.2772	-3.059	-3.9612	-2.417	-2.5597	-2.2324	-2.0477	-0.3105	-0.0881	-0.9357	-1.8631	-1.3889	-3.1136	3.7178	-0.8057	0.3357	-1.4267	0.3525
-4.7543	-3.743	-4.9053	-3.2059	-3.0296	-3.9024	-2.375	-2.5303	-2.2366	-2.0603	-0.3147	-0.1175	-0.9819	-1.8841	-1.3218	-2.9583	3.7052	-0.856	0.3609	-1.3931	0.4028
-4.6368	-3.6465	-4.8214	-3.1261	-2.9625	-3.8563	-2.2911	-2.5261	-2.2156	-2.0267	-0.3189	-0.1259	-1.0365	-1.8925	-1.2169	-2.7946	3.7136	-0.898	0.4196	-1.3889	0.4322
-4.5444	-3.5667	-4.7291	-3.0254	-2.9331	-3.7346	-2.2324	-2.4673	-2.1904	-2.0309	-0.3273	-0.172	-1.0742	-1.8799	-1.0616	-2.5806	3.7094	-0.9483	0.4448	-1.3386	0.4406
-4.4018	-3.466	-4.6452	-2.9541	-2.803	-3.6339	-2.1191	-2.4128	-2.14	-2.0184	-0.3105	-0.172	-1.1623	-1.8631	-0.9148	-2.354	3.6758	-1.049	0.4742	-1.305	0.4742
-4.2759	-3.3905	-4.5612	-2.8912	-2.7443	-3.5583	-2.0771	-2.4002	-2.1233	-1.989	-0.3315	-0.1846	-1.1959	-1.8631	-0.8099	-2.1358	3.6674	-1.133	0.4784	-1.326	0.4532
-4.1164	-3.2604	-4.4312	-2.8072	-2.673	-3.4451	-2.0016	-2.3289	-2.0561	-1.9806	-0.3231	-0.2182	-1.2505	-1.8169	-0.6588	-1.8883	3.6171	-1.1917	0.4993	-1.3008	0.428
-3.9612	-3.1471	-4.3137	-2.6897	-2.5806	-3.3192	-1.9093	-2.2701	-2.0267	-1.9722	-0.3315	-0.2308	-1.3386	-1.8253	-0.4658	-1.6449	3.5667	-1.2924	0.5077	-1.2924	0.3819
-3.8437	-3.0338	-4.2088	-2.6016	-2.5009	-3.2269	-1.8421	-2.2324	-1.968	-1.926	-0.3399	-0.2308	-1.4015	-1.7792	-0.3902	-1.4309	3.5164	-1.368	0.5119	-1.2924	0.3063
-3.6591	-2.9457	-4.0787	-2.5093	-2.3834	-3.0926	-1.7498	-2.1946	-1.9218	-1.9176	-0.3819	-0.2602	-1.4812	-1.7498	-0.1972	-1.2001	3.4576	-1.4603	0.491	-1.284	0.3021
-3.4618	-2.8156	-3.9444	-2.4044	-2.2659	-2.9835	-1.6197	-2.0729	-1.8421	-1.8757	-0.3609	-0.2476	-1.5148	-1.7204	-0.0378	-0.9651	3.3821	-1.5232	0.5035	-1.2589	0.235
-3.2982	-2.7233	-3.7975	-2.3163	-2.1484	-2.8366	-1.54	-2.0393	-1.7708	-1.8589	-0.3777	-0.2434	-1.5945	-1.6911	0.1343	-0.7385	3.3108	-1.6239	0.4742	-1.2295	0.1888
-3.1219	-2.5764	-3.6716	-2.2072	-2.0267	-2.7107	-1.4309	-1.9512	-1.6869	-1.8379	-0.3902	-0.235	-1.6281	-1.6407	0.2476	-0.5371	3.231	-1.6785	0.4658	-1.2169	0.1301
-2.9541	-2.4799	-3.508	-2.0771	-1.8841	-2.6058	-1.3218	-1.8841	-1.6281	-1.8044	-0.3819	-0.2224	-1.6743	-1.6029	0.407	-0.3273	3.1765	-1.7918	0.449	-1.2253	0.0881
-2.7611	-2.3499	-3.3695	-1.9722	-1.7708	-2.4883	-1.2547	-1.8253	-1.5652	-1.8044	-0.386	-0.2014	-1.733	-1.5903	0.6001	-0.1091	3.1136	-1.8799	0.4406	-1.2127	0
-2.5723	-2.2072	-3.1933	-1.8505	-1.6113	-2.3163	-1.1162	-1.6994	-1.4477	-1.7414	-0.3315	-0.2014	-1.7792	-1.5484	0.7175	0.1804	3.0506	-1.947	0.4448	-1.1833	-0.0168
-2.3918	-2.0645	-2.9877	-1.7246	-1.4729	-2.1862	-1.0281	-1.5987	-1.3721	-1.7204	-0.3105	-0.193	-1.8421	-1.5274	0.8602	0.4154	3.017	-2.0184	0.4196	-1.2001	-0.0797
-2.2198	-1.926	-2.8366	-1.6113	-1.3302	-2.0729	-0.9064	-1.5106	-1.2672	-1.6953	-0.2644	-0.1427	-1.8757	-1.5106	1.0029	0.6714	2.9709	-2.0687	0.4364	-1.1497	-0.0923
-2.0184	-1.7666	-2.6478	-1.4393	-1.1833	-1.9009	-0.7805	-1.3889	-1.1791	-1.6365	-0.235	-0.1217	-1.9093	-1.4896	1.1581	0.9693	2.9457	-2.1275	0.47	-1.1204	-0.1049
-1.8169	-1.5945	-2.4422	-1.3428	-0.9987	-1.7414	-0.7092	-1.2672	-1.0448	-1.5903	-0.1553	-0.0462	-1.8799	-1.4896	1.2966	1.2169	2.9331	-2.1652	0.4742	-1.0826	-0.1217
-1.6365	-1.4477	-2.2282	-1.2043	-0.8686	-1.582	-0.5707	-1.1581	-0.9274	-1.5358	-0.1049	0.0294	-1.8883	-1.4687	1.3889	1.4351	2.9247	-2.1904	0.5245	-1.0658	-0.1343
-1.4267	-1.284	-2.0351	-1.0239	-0.7217	-1.4477	-0.428	-1.0155	-0.7973	-1.4896	0	0.1595	-1.8295	-1.4896	1.5316	1.6911	2.9205	-2.203	0.5203	-0.9777	-0.1469
-1.2127	-1.0868	-1.796	-0.8728	-0.5245	-1.2714	-0.2811	-0.877	-0.6672	-1.368	0.0965	0.2476	-1.7498	-1.4854	1.6785	1.9428	2.9121	-2.2072	0.5539	-0.9274	-0.1511
-0.9945	-0.919	-1.6071	-0.7175	-0.3902	-1.0952	-0.1595	-0.7175	-0.5119	-1.284	0.2014	0.3567	-1.6533	-1.498	1.8337	2.1526	2.9247	-2.1862	0.5959	-0.8518	-0.1427
-0.8015	-0.705	-1.3763	-0.5665	-0.2266	-0.9357	0.0168	-0.5623	-0.3399	-1.1539	0.2769	0.4826	-1.5736	-1.498	1.9638	2.3666	2.9457	-2.14	0.6504	-0.7343	-0.1385
-0.5665	-0.5329	-1.133	-0.3902	-0.0336	-0.7469	0.1637	-0.3819	-0.1678	-1.0365	0.3944	0.6378	-1.4687	-1.5022	2.1568	2.5555	2.9457	-2.0981	0.6798	-0.6504	-0.1301
-0.4028	-0.3525	-0.9693	-0.2224	0.0881	-0.5791	0.2937	-0.2602	-0.0336	-0.9022	0.5203	0.7553	-1.3302	-1.5022	2.2953	2.6855	2.9625	-2.0477	0.705	-0.5413	-0.1049
-0.2098	-0.1972	-0.7595	-0.0587	0.2224	-0.4406	0.4742	-0.1385	0.0923	-0.7763	0.6252	0.8686	-1.2043	-1.519	2.4422	2.7527	2.9877	-1.9848	0.7427	-0.4616	-0.0713
-0.042	-0.0797	-0.6126	0.0839	0.3189	-0.3315	0.6126	-0.021	0.2182	-0.6798	0.7217	0.9735	-1.0826	-1.519	2.5639	2.7946	2.9961	-1.9512	0.8308	-0.3609	-0.0336
0.0881	0.0252	-0.4784	0.1972	0.4154	-0.2224	0.7092	0.0923	0.3147	-0.5917	0.8099	1.0532	-1.0197	-1.5316	2.6478	2.7233	3.0254	-1.9135	0.835	-0.3105	-0.0546
0.2098	0.1217	-0.3609	0.3147	0.4993	-0.1217	0.8099	0.1846	0.3902	-0.4951	0.8896	1.133	-0.9232	-1.5442	2.7527	2.6772	3.038	-1.8925	0.8854	-0.256	0.0168
0.3021	0.2056	-0.2644	0.3944	0.5539	-0.0923	0.9022	0.2811	0.47	-0.3944	0.9525	1.1791	-0.8602	-1.5652	2.8072	2.5848	3.08	-1.8799	0.9022	-0.235	0.042
0.3693	0.256	-0.1846	0.47	0.6168	-0.0126	0.9651	0.3315	0.5245	-0.3441	1.0532	1.2672	-0.7931	-1.5652	2.8366	2.5009	3.1052	-1.8547	0.9232	-0.1678	0.1049
0.4112	0.3273	-0.1217	0.5245	0.663	0.0378	1.0323	0.3944	0.5791	-0.2811	1.1078	1.3218	-0.7343	-1.5987	2.8744	2.3876	3.1513	-1.8505	0.9609	-0.1385	0.1511
0.4993	0.3777	-0.0378	0.5749	0.6966	0.0713	1.0868	0.4574	0.6336	-0.2434	1.1917	1.347	-0.7133	-1.6155	2.9163	2.3037	3.1849	-1.8589	1.0029	-0.1091	0.1804
0.5161	0.3819	0	0.5917	0.7217	0.0587	1.1078	0.4784	0.6588	-0.2056	1.263	1.368	-0.684	-1.6365	2.9415	2.224	3.2394	-1.8925	1.0239	-0.1385	0.2182
0.5623	0.4574	0.0378	0.6462	0.7511	0.0965	1.1581	0.5623	0.6924	-0.1762	1.3512	1.3931	-0.6588	-1.6617	2.9499	2.1862	3.2898	-1.9218	1.0658	-0.0965	0.2686
0.6168	0.4742	0.0713	0.6924	0.7721	0.1259	1.1959	0.6168	0.7217	-0.1217	1.4435	1.4435	-0.6294	-1.6827	2.9961	2.1652	3.3234	-1.9386	1.1372	-0.1091	0.3651
0.6798	0.5119	0.1217	0.684	0.8015	0.1553	1.2253	0.6798	0.7595	-0.0965	1.4896	1.498	-0.5959	-1.7036	3.0045	2.1904	3.3737	-1.989	1.1749	-0.1133	0.428
0.7595	0.5875	0.1595	0.7469	0.8602	0.2014	1.284	0.7427	0.8266	-0.0462	1.6029	1.5526	-0.5413	-1.733	3.0422	2.1946	3.4115	-2.0016	1.2547	-0.0923	0.5119
0.8183	0.6798	0.2769	0.8224	0.9525	0.235	1.3428	0.8099	0.9106	-0.0084	1.6994	1.6071	-0.5203	-1.733	3.0758	2.2533	3.4492	-2.0226	1.284	-0.0797	0.5497
0.8854	0.7259	0.3063	0.8434	0.9777	0.2728	1.3512	0.8602	0.9274	0.0378	1.7624	1.6701	-0.4616	-1.7624	3.1387	2.3205	3.4996	-2.0435	1.3386	-0.1217	0.5917
0.9735	0.8141	0.3735	0.8938	1.0323	0.3063	1.3847	0.9441	0.9987	0.0629	1.8295	1.6743	-0.4448	-1.7792	3.1849	2.3499	3.5248	-2.1149	1.3763	-0.1301	0.6252
1.091	0.8518	0.4112	0.9483	1.0952	0.3693	1.4351	0.9987	1.0281	0.0839	1.8841	1.7036	-0.4532	-1.7876	3.252	2.4044	3.5458	-2.1317	1.4309	-0.1217	0.6714
1.1707	0.9483	0.4658	1.0071	1.1372	0.4154	1.4729	1.0155	1.0616	0.1343	1.9512	1.7204	-0.4154	-1.7834	3.3611	2.4673	3.5583	-2.1778	1.4603	-0.1175	0.6588
1.2589	1.0574	0.5287	1.0616	1.2169	0.4574	1.5148	1.07	1.112	0.1553	2.0184	1.7582	-0.3819	-1.8127	3.4409	2.5429	3.5583	-2.203	1.5064	-0.1259	0.6966
1.3638	1.1372	0.5749	1.091	1.2672	0.4784	1.5568	1.1246	1.112	0.1553	2.0393	1.7414	-0.4196	-1.8127	3.5793	2.6268	3.5709	-2.2408	1.5274	-0.1175	0.705
1.4771	1.2295	0.6882	1.1497	1.3176	0.5245	1.5903	1.1959	1.1539	0.1637	2.0771	1.7666	-0.3735	-1.8085	3.7262	2.7149	3.5667	-2.2659	1.561	-0.1259	0.7301
1.5694	1.2798	0.7217	1.1959	1.3596	0.5539	1.6029	1.1959	1.1456	0.1469	2.1023	1.7792	-0.3986	-1.8169	3.8563	2.824	3.5877	-2.3163	1.5778	-0.1469	0.7133
1.6743	1.3638	0.7763	1.2421	1.4099	0.5917	1.6281	1.2085	1.1372	0.1678	2.1107	1.7582	-0.4364	-1.8211	3.9948	2.9163	3.6129	-2.3624	1.5945	-0.1637	0.7259
1.7792	1.4477	0.8224	1.2882	1.4351	0.6001	1.6323	1.2379	1.1162	0.1427	2.1233	1.733	-0.4616	-1.8463	4.1668	3.0716	3.6297	-2.4506	1.6281	-0.2182	0.7092
1.9093	1.5232	0.8518	1.3008	1.5064	0.6294	1.6113	1.2463	1.0826	0.0881	2.1484	1.7372	-0.5119	-1.8505	4.3137	3.2143	3.6465	-2.5345	1.6029	-0.256	0.6756
1.9974	1.5778	0.919	1.3344	1.5232	0.6042	1.5903	1.2589	1.0281	0.0546	2.1442	1.6994	-0.5665	-1.8505	4.4521	3.3569	3.6591	-2.5723	1.6281	-0.2937	0.6546
2.1107	1.6701	0.9693	1.326	1.5484	0.6084	1.5778	1.2505	1.0029	0.0168	2.1191	1.6785	-0.5959	-1.8715	4.5822	3.487	3.7094	-2.652	1.6071	-0.3525	0.5959
2.1778	1.7372	0.9777	1.3847	1.5778	0.6168	1.5652	1.2421	0.9651	-0.0126	2.1107	1.6994	-0.6546	-1.8673	4.7165	3.68	3.7136	-2.7191	1.6323	-0.407	0.6001
2.2491	1.7624	1.0155	1.3763	1.5484	0.6168	1.519	1.2463	0.9106	-0.0923	2.0981	1.6407	-0.6924	-1.9051	4.813	3.7933	3.7682	-2.7988	1.6197	-0.491	0.5539
2.3289	1.8211	1.0113	1.3763	1.5652	0.6126	1.4938	1.2463	0.9064	-0.1259	2.1023	1.6407	-0.7469	-1.9135	4.8969	3.9066	3.7891	-2.8534	1.6029	-0.5413	0.5119
2.3792	1.8211	1.0406	1.3428	1.5568	0.5833	1.4435	1.2253	0.8308	-0.2098	2.0729	1.6449	-0.7721	-1.9638	4.9389	3.9654	3.8647	-2.9373	1.5862	-0.5959	0.4406
2.4212	1.8463	1.0197	1.3302	1.561	0.5665	1.4099	1.1917	0.8057	-0.2476	2.0184	1.6323	-0.7931	-1.9806	5.0144	4.0241	3.9066	-2.9667	1.5694	-0.6756	0.3777
2.4841	1.8757	1.0365	1.3302	1.519	0.5413	1.3721	1.1959	0.7637	-0.2434	2.0142	1.6533	-0.7889	-1.9848	5.0816	4.0871	3.936	-3.0422	1.5148	-0.7008	0.3651
2.4925	1.8673	1.0365	1.3134	1.5022	0.5539	1.3302	1.1749	0.7553	-0.3021	1.9974	1.6575	-0.7889	-1.9974	5.1403	4.0997	3.9654	-3.0464	1.498	-0.7553	0.3063
2.5051	1.8715	1.0071	1.2589	1.4812	0.5161	1.2882	1.1707	0.7092	-0.3441	1.9932	1.6533	-0.7931	-2.0351	5.1655	4.0703	4.0325	-3.0842	1.4561	-0.8266	0.2811
2.5135	1.8463	0.9945	1.2547	1.4729	0.5371	1.2547	1.1456	0.7217	-0.3819	2.0142	1.6659	-0.7889	-2.0687	5.22	4.0451	4.0619	-3.1261	1.4267	-0.8644	0.2476
2.5261	1.8253	0.9441	1.1875	1.4687	0.4826	1.2043	1.1497	0.6756	-0.3986	1.9974	1.6953	-0.7847	-2.0729	5.262	3.9654	4.0997	-3.1639	1.3889	-0.898	0.2308
2.5051	1.8421	0.9609	1.1372	1.4225	0.4616	1.1833	1.1372	0.6672	-0.4154	1.9722	1.6785	-0.7763	-2.1107	5.2956	3.9822	4.15	-3.1849	1.3805	-0.9483	0.214
2.4799	1.8002	0.9148	1.0994	1.3973	0.4322	1.1078	1.1204	0.6588	-0.4574	1.9722	1.6659	-0.8141	-2.1149	5.3291	3.8689	4.1878	-3.2143	1.3512	-1.0155	0.2098
2.4632	1.8002	0.8644	1.0532	1.4057	0.3944	1.07	1.133	0.6462	-0.5161	2.0016	1.6701	-0.8057	-2.14	5.3291	3.8353	4.2213	-3.231	1.3344	-1.0532	0.2518
2.396	1.7582	0.8476	0.9903	1.3554	0.3525	1.0113	1.1288	0.6001	-0.5833	2.0142	1.6743	-0.8266	-2.1652	5.3333	3.7514	4.2759	-3.2898	1.326	-1.1581	0.2769
2.3415	1.7372	0.7679	0.8728	1.3302	0.2937	0.9315	1.091	0.5539	-0.6378	2.0226	1.6323	-0.8686	-2.182	5.3123	3.6716	4.3053	-3.3276	1.2882	-1.2421	0.3063
2.2491	1.6701	0.6882	0.7679	1.2505	0.2308	0.8392	1.0406	0.5203	-0.7175	2.0351	1.6155	-0.9106	-2.1988	5.2788	3.5583	4.3682	-3.4031	1.2798	-1.3386	0.3105
2.1694	1.5945	0.6252	0.684	1.2295	0.1637	0.7511	1.0281	0.47	-0.7805	2.0435	1.5736	-0.9441	-2.2282	5.2242	3.4451	4.4018	-3.4618	1.2798	-1.4519	0.3651
2.0771	1.54	0.5245	0.5707	1.1665	0.0713	0.6756	0.9903	0.428	-0.8434	2.0981	1.5987	-0.9861	-2.2366	5.1151	3.315	4.4395	-3.5164	1.2463	-1.5442	0.3944
2.01	1.4812	0.449	0.4868	1.1078	0.0126	0.5875	0.9609	0.407	-0.9064	2.1275	1.5652	-1.0281	-2.2408	5.0732	3.2269	4.4521	-3.5709	1.2966	-1.6407	0.4868
1.8757	1.3889	0.3441	0.3525	1.0448	-0.0965	0.4742	0.9274	0.3525	-1.0029	2.1652	1.5736	-1.0574	-2.2701	5.006	3.0758	4.4857	-3.6423	1.284	-1.7414	0.5539
1.8295	1.3428	0.2769	0.2518	0.9945	-0.1469	0.3819	0.9148	0.3063	-1.049	2.2282	1.5526	-1.07	-2.2701	4.9389	3.0003	4.5025	-3.6549	1.305	-1.8044	0.6252
1.7414	1.2127	0.1804	0.0755	0.898	-0.2602	0.2769	0.8812	0.2434	-1.1665	2.224	1.5526	-1.1288	-2.2995	4.8885	2.9205	4.5486	-3.7304	1.284	-1.9386	0.6588
1.6113	1.1539	0.0755	-0.0378	0.8518	-0.3273	0.1595	0.8812	0.2056	-1.2421	2.2617	1.5484	-1.1665	-2.3079	4.8424	2.845	4.5738	-3.8017	1.2882	-2.0435	0.7259
1.5652	1.07	-0.0462	-0.1553	0.7595	-0.4532	0.0378	0.8057	0.1133	-1.3721	2.2911	1.5148	-1.2169	-2.3247	4.7836	2.803	4.6158	-3.8689	1.305	-2.1568	0.8015
1.498	1.0071	-0.1469	-0.2895	0.6714	-0.5455	-0.1007	0.7469	0.0504	-1.4896	2.3121	1.4854	-1.2882	-2.3582	4.7459	2.7527	4.6703	-3.9234	1.3092	-2.2701	0.8602
1.4183	0.9148	-0.2266	-0.4238	0.5875	-0.6504	-0.2392	0.7217	-0.0168	-1.5736	2.3582	1.4519	-1.3428	-2.3666	4.7039	2.7065	4.6997	-4.0031	1.3176	-2.3624	0.9399
1.3386	0.835	-0.3441	-0.5665	0.5329	-0.7511	-0.3651	0.6882	-0.0713	-1.6994	2.3666	1.4183	-1.4225	-2.396	4.6284	2.6855	4.7333	-4.0745	1.347	-2.4925	0.9945
1.2421	0.7637	-0.4658	-0.705	0.428	-0.8644	-0.5119	0.6252	-0.1888	-1.8211	2.3624	1.3554	-1.5316	-2.4086	4.5696	2.6268	4.771	-4.1668	1.347	-2.5806	1.0448
1.1749	0.6588	-0.5665	-0.8728	0.3986	-0.9441	-0.6168	0.5665	-0.2308	-1.9554	2.3834	1.3302	-1.5903	-2.4296	4.5025	2.5974	4.7878	-4.2465	1.3638	-2.7023	1.091
1.133	0.6001	-0.6714	-1.0071	0.2769	-1.0868	-0.7931	0.5203	-0.3231	-2.0687	2.375	1.2505	-1.7246	-2.4464	4.5025	2.5764	4.8172	-4.3095	1.3638	-2.8114	1.1497
1.0574	0.47	-0.7721	-1.1497	0.1846	-1.2001	-0.9483	0.4364	-0.428	-2.1988	2.3373	1.1539	-1.8253	-2.4422	4.4479	2.5471	4.834	-4.385	1.326	-2.9625	1.1581
0.9861	0.3735	-0.898	-1.2463	0.1007	-1.305	-1.0574	0.3693	-0.5119	-2.3163	2.3289	1.1162	-1.926	-2.4548	4.4312	2.5177	4.834	-4.4899	1.3176	-3.0506	1.1917
0.9441	0.3105	-1.0113	-1.3721	0.0294	-1.3847	-1.1623	0.2895	-0.6001	-2.4338	2.3247	1.0574	-1.9974	-2.4506	4.4102	2.5219	4.8088	-4.557	1.3092	-3.1513	1.2127
0.8686	0.214	-1.1162	-1.5064	-0.0881	-1.5106	-1.3134	0.2266	-0.6756	-2.5303	2.3289	1.0113	-2.0729	-2.4338	4.3934	2.4967	4.813	-4.599	1.263	-3.2185	1.2295
0.8392	0.1007	-1.2001	-1.5862	-0.1595	-1.6029	-1.3805	0.1511	-0.7637	-2.6226	2.3037	0.9735	-2.14	-2.417	4.385	2.4757	4.7794	-4.6535	1.2505	-3.2856	1.2337
0.8141	0.0587	-1.2966	-1.6659	-0.2308	-1.6617	-1.4812	0.1133	-0.8015	-2.6688	2.3205	0.9525	-2.182	-2.3876	4.3934	2.5093	4.7459	-4.62	1.2463	-3.3234	1.2379
0.7847	0.0042	-1.3638	-1.733	-0.2811	-1.7372	-1.5526	0.0671	-0.8518	-2.7527	2.3037	0.9483	-2.2156	-2.3792	4.3766	2.5177	4.7165	-4.6158	1.2085	-3.3611	1.2421
0.7637	-0.0252	-1.4351	-1.7498	-0.3567	-1.7834	-1.6197	0.0336	-0.9274	-2.7863	2.3037	0.919	-2.2449	-2.354	4.3892	2.5429	4.6703	-4.6284	1.1791	-3.3695	1.2547
0.7469	-0.042	-1.4771	-1.7708	-0.3735	-1.8127	-1.6365	0.0252	-0.9315	-2.7821	2.3163	0.9483	-2.2449	-2.3373	4.4186	2.61	4.6242	-4.5906	1.1749	-3.3779	1.2966
0.7343	-0.0839	-1.5064	-1.7834	-0.4364	-1.8463	-1.6617	-0.0084	-0.9693	-2.8156	2.3582	0.9735	-2.2198	-2.3121	4.4521	2.6562	4.5696	-4.5277	1.1749	-3.3653	1.3302
0.705	-0.0881	-1.5652	-1.8085	-0.4742	-1.9009	-1.6827	-0.0252	-0.9945	-2.8156	2.3708	0.9525	-2.2659	-2.2911	4.4941	2.6855	4.5235	-4.5067	1.1623	-3.3401	1.3512
0.7008	-0.1049	-1.5862	-1.8002	-0.5119	-1.9218	-1.7078	-0.0504	-0.9861	-2.8366	2.3624	0.9525	-2.2575	-2.2533	4.5151	2.7611	4.4857	-4.4689	1.1456	-3.3192	1.3721
0.6672	-0.1259	-1.6617	-1.8547	-0.5497	-1.9554	-1.7666	-0.0839	-1.07	-2.8702	2.3247	0.9022	-2.2785	-2.2743	4.5403	2.7946	4.4857	-4.4563	1.1162	-3.3443	1.3596
0.6504	-0.1175	-1.6827	-1.8631	-0.5539	-2.0058	-1.7792	-0.0713	-1.0574	-2.845	2.3205	0.9022	-2.2701	-2.2449	4.5822	2.8786	4.4228	-4.427	1.1288	-3.3108	1.4183
0.6336	-0.1091	-1.7288	-1.8841	-0.5959	-2.0645	-1.8253	-0.1259	-1.1036	-2.9037	2.2953	0.8644	-2.3247	-2.2408	4.6032	2.9373	4.406	-4.4186	1.1246	-3.3234	1.4141
0.5833	-0.1133	-1.7792	-1.9302	-0.6504	-2.1358	-1.8589	-0.1678	-1.1665	-2.9163	2.2743	0.856	-2.375	-2.2156	4.6326	2.9835	4.3682	-4.4144	1.1078	-3.315	1.3889
0.5413	-0.1301	-1.8673	-1.9512	-0.7092	-2.2072	-1.9009	-0.193	-1.1959	-2.9373	2.2282	0.7805	-2.4506	-2.1946	4.6577	3.0087	4.3514	-4.4018	1.1036	-3.3485	1.3554
0.5119	-0.1301	-1.9176	-2.0016	-0.7217	-2.2491	-1.9554	-0.235	-1.2882	-2.9961	2.182	0.7511	-2.5009	-2.182	4.7207	3.0758	4.3179	-4.4102	1.0658	-3.3611	1.368
0.4574	-0.1259	-1.9638	-2.0561	-0.7889	-2.3037	-2.0142	-0.2811	-1.3428	-3.038	2.1233	0.6882	-2.6016	-2.182	4.7459	3.1136	4.3053	-4.4647	1.0616	-3.3905	1.3386
0.407	-0.1385	-1.9974	-2.0855	-0.8099	-2.4002	-2.0771	-0.3147	-1.3847	-3.1136	2.0855	0.6168	-2.6855	-2.1736	4.7962	3.1429	4.2843	-4.4815	1.0532	-3.4367	1.3092
0.3986	-0.1469	-2.0561	-2.1317	-0.8602	-2.4422	-2.1275	-0.3525	-1.4645	-3.1597	2.0226	0.5665	-2.7611	-2.1484	4.792	3.1303	4.2507	-4.5151	1.049	-3.4576	1.2798
0.3189	-0.1469	-2.1358	-2.2114	-0.9232	-2.5345	-2.2072	-0.4112	-1.5484	-3.2436	1.9722	0.5077	-2.8702	-2.1442	4.7752	3.0758	4.2381	-4.5864	1.0155	-3.529	1.2001
0.214	-0.1678	-2.1736	-2.2575	-0.9357	-2.5681	-2.2869	-0.4616	-1.6365	-3.2982	1.9051	0.47	-2.9541	-2.1317	4.7794	3.0632	4.2088	-4.6116	0.9819	-3.5542	1.1707
0.1553	-0.2014	-2.2533	-2.3624	-0.9903	-2.6646	-2.3415	-0.5203	-1.6827	-3.3653	1.8547	0.4028	-3.038	-2.1233	4.7543	2.9751	4.1836	-4.6745	0.9357	-3.6213	1.112
0.1007	-0.193	-2.3121	-2.4086	-1.0323	-2.7149	-2.4422	-0.5497	-1.7246	-3.4283	1.8127	0.3315	-3.1136	-2.0855	4.7417	2.9121	4.1374	-4.7081	0.919	-3.6758	1.0994
0.0504	-0.2098	-2.3457	-2.4799	-1.0616	-2.7611	-2.4799	-0.5665	-1.7876	-3.487	1.775	0.3483	-3.1639	-2.0771	4.7543	2.8702	4.0997	-4.7501	0.919	-3.7262	1.0658
-0.0378	-0.2434	-2.3834	-2.5555	-1.091	-2.803	-2.5555	-0.6126	-1.8379	-3.5625	1.733	0.2644	-3.273	-2.0645	4.7585	2.8156	4.0661	-4.8046	0.9022	-3.8017	1.0113
-0.1007	-0.2853	-2.4548	-2.5932	-1.1204	-2.8786	-2.6268	-0.6462	-1.9176	-3.6213	1.6953	0.2182	-3.3443	-2.0645	4.7039	2.7905	4.0535	-4.8717	0.8644	-3.8437	1.0155
-0.1553	-0.3105	-2.5009	-2.6646	-1.1204	-2.9205	-2.6772	-0.684	-1.9512	-3.6549	1.6617	0.2014	-3.4031	-2.0393	4.7207	2.7359	4.0409	-4.9305	0.8476	-3.9192	0.9483
-0.2224	-0.3315	-2.5681	-2.7275	-1.1623	-2.9709	-2.7485	-0.7008	-2.0058	-3.7472	1.6029	0.1343	-3.4954	-2.0267	4.7207	2.6939	4.0241	-5.0018	0.8476	-3.9696	0.9022
-0.256	-0.3357	-2.5974	-2.7905	-1.1749	-3.0338	-2.824	-0.7301	-2.0603	-3.7849	1.5987	0.1091	-3.5416	-2.0309	4.7165	2.6897	4.0367	-5.0438	0.8392	-4.0325	0.8896
-0.3105	-0.3777	-2.6562	-2.8576	-1.1875	-3.0716	-2.9247	-0.7511	-2.1149	-3.8647	1.5442	0.0378	-3.6255	-2.0435	4.7249	2.6478	4.0409	-5.0858	0.8392	-4.1039	0.8602
-0.3777	-0.386	-2.7107	-2.9289	-1.1707	-3.1094	-2.9625	-0.7469	-2.1568	-3.9108	1.5232	0.0336	-3.6884	-2.0435	4.6955	2.631	4.0535	-5.1277	0.8476	-4.1668	0.8644
-0.3902	-0.4154	-2.7443	-2.9919	-1.1917	-3.1597	-3.0422	-0.7595	-2.203	-4.0073	1.5232	0.0042	-3.7514	-2.0603	4.6871	2.5261	4.0577	-5.1865	0.8266	-4.2465	0.8602
-0.4196	-0.4532	-2.7946	-3.0254	-1.1959	-3.1639	-3.1136	-0.7679	-2.224	-4.0577	1.5022	-0.021	-3.8101	-2.0603	4.6787	2.4715	4.0661	-5.2536	0.8266	-4.2633	0.8392
-0.4616	-0.4448	-2.8324	-3.0884	-1.1623	-3.1891	-3.1639	-0.7595	-2.2408	-4.1039	1.5316	-0.0084	-3.8269	-2.0393	4.6703	2.4422	4.0535	-5.2872	0.835	-4.3346	0.877
-0.449	-0.4742	-2.8702	-3.1429	-1.1917	-3.2101	-3.231	-0.7427	-2.2575	-4.171	1.5022	-0.0042	-3.8479	-2.0687	4.6913	2.3373	4.0871	-5.3123	0.8686	-4.3976	0.8812
-0.4616	-0.4742	-2.8786	-3.1807	-1.1917	-3.231	-3.2772	-0.705	-2.2408	-4.192	1.5442	0.0252	-3.8731	-2.0603	4.6703	2.2282	4.0829	-5.3082	0.8434	-4.4018	0.919
-0.449	-0.4658	-2.9079	-3.2101	-1.1623	-3.2101	-3.3024	-0.6882	-2.1778	-4.1836	1.5652	0.0546	-3.8563	-2.0729	4.6913	2.1233	4.0913	-5.283	0.856	-4.427	0.9399
-0.4532	-0.4238	-2.8954	-3.1933	-1.1204	-3.1933	-3.3024	-0.6126	-2.1107	-4.1794	1.6239	0.172	-3.8143	-2.0729	4.6955	2.1023	4.1122	-5.2536	0.877	-4.4647	0.9693
-0.4364	-0.4154	-2.8954	-3.1765	-1.0742	-3.1513	-3.2898	-0.5917	-2.0771	-4.171	1.6659	0.2056	-3.7807	-2.0813	4.7585	1.9974	4.1248	-5.2284	0.8812	-4.4437	0.9777
-0.3902	-0.4154	-2.8702	-3.1681	-1.0658	-3.1303	-3.2688	-0.5665	-2.0184	-4.129	1.6785	0.3063	-3.6716	-2.0855	4.8382	1.9848	4.1374	-5.1823	0.8728	-4.4689	1.0029
-0.3273	-0.3609	-2.8576	-3.1597	-0.9987	-3.0506	-3.2436	-0.5035	-1.947	-4.0661	1.7456	0.4154	-3.5835	-2.0729	4.8885	1.9344	4.1248	-5.1193	0.856	-4.4521	1.0448
-0.256	-0.3231	-2.803	-3.1429	-0.9777	-2.9877	-3.2017	-0.4658	-1.8757	-3.9989	1.8085	0.4826	-3.5248	-2.0897	4.9641	1.9302	4.1416	-5.0522	0.835	-4.3976	1.07
-0.2098	-0.2686	-2.7863	-3.0926	-0.9357	-2.9541	-3.1513	-0.4112	-1.7708	-3.9486	1.8589	0.6042	-3.4115	-2.1065	5.0228	1.968	4.1458	-5.006	0.8518	-4.385	1.0994
-0.172	-0.193	-2.7149	-3.017	-0.8812	-2.8576	-3.059	-0.3609	-1.6869	-3.8395	1.9176	0.7133	-3.294	-2.0981	5.0648	1.9764	4.1374	-4.9389	0.8392	-4.3388	1.0826
-0.0881	-0.172	-2.6436	-2.9709	-0.8518	-2.7946	-3.0087	-0.2895	-1.5862	-3.7724	1.9554	0.7973	-3.1975	-2.1065	5.1151	2.0267	4.15	-4.855	0.8015	-4.2801	1.1372
-0.0168	-0.1343	-2.6226	-2.8996	-0.8057	-2.7107	-2.9499	-0.2728	-1.519	-3.6884	2.0351	0.8896	-3.0884	-2.1149	5.1277	2.1149	4.1668	-4.7794	0.8183	-4.2591	1.1833
0.0294	-0.0923	-2.5764	-2.824	-0.8141	-2.6478	-2.8492	-0.2266	-1.4393	-3.6045	2.0519	0.9777	-3.0087	-2.1233	5.0983	2.182	4.1794	-4.7249	0.7889	-4.2004	1.2001
0.1007	-0.0504	-2.5135	-2.7359	-0.7721	-2.5639	-2.7611	-0.1888	-1.3428	-3.4912	2.1191	1.0742	-2.8828	-2.1275	5.1025	2.2533	4.1878	-4.6661	0.7763	-4.1584	1.2505
0.1343	0.0042	-2.4967	-2.6688	-0.7301	-2.5303	-2.7149	-0.1972	-1.263	-3.4199	2.1442	1.1539	-2.7737	-2.1233	5.0941	2.3499	4.2004	-4.6032	0.7721	-4.1122	1.2966
0.1804	0.0294	-2.4422	-2.631	-0.7175	-2.4883	-2.6352	-0.1511	-1.2001	-3.3863	2.1862	1.2001	-2.7275	-2.1526	5.0564	2.4296	4.2423	-4.5319	0.7301	-4.0787	1.3386
0.2098	0.0546	-2.4254	-2.5723	-0.7008	-2.4212	-2.5387	-0.1637	-1.1372	-3.273	2.2449	1.3134	-2.6562	-2.1526	5.0312	2.5387	4.2507	-4.4983	0.7008	-4.0073	1.3512
0.2476	0.1133	-2.354	-2.5135	-0.6882	-2.354	-2.4673	-0.1385	-1.049	-3.2059	2.2575	1.3638	-2.5555	-2.1778	4.9892	2.6268	4.2927	-4.4605	0.6714	-3.9486	1.3512
0.2937	0.1427	-2.2827	-2.3876	-0.6546	-2.2911	-2.3624	-0.1385	-0.9819	-3.1094	2.3079	1.4477	-2.4799	-2.1904	4.9976	2.7527	4.3053	-4.3892	0.6504	-3.915	1.4057
0.3273	0.1469	-2.2408	-2.2953	-0.642	-2.2449	-2.2995	-0.1469	-0.9315	-3.0003	2.3205	1.498	-2.3918	-2.1988	5.0102	2.9247	4.3346	-4.3346	0.6378	-3.8143	1.4141
0.3399	0.1469	-2.1694	-2.182	-0.663	-2.182	-2.1988	-0.1385	-0.8434	-2.9373	2.3079	1.5652	-2.2869	-2.2156	5.048	3.0884	4.364	-4.2633	0.5917	-3.7514	1.4099
0.4196	0.1637	-2.0687	-2.0645	-0.663	-2.0855	-2.0729	-0.1385	-0.7637	-2.8282	2.3499	1.6323	-2.182	-2.203	5.1361	3.2856	4.3514	-4.192	0.5875	-3.6758	1.3973
0.47	0.1804	-1.989	-1.9176	-0.6504	-2.0142	-1.9512	-0.1427	-0.6588	-2.7023	2.3666	1.733	-2.0561	-2.203	5.1865	3.4912	4.3598	-4.108	0.5665	-3.5583	1.4141
0.5203	0.2224	-1.8841	-1.7582	-0.6168	-1.947	-1.8337	-0.1343	-0.5875	-2.6058	2.3834	1.8127	-1.968	-2.2156	5.2284	3.6549	4.3598	-4.0493	0.5497	-3.466	1.4225
0.5791	0.1888	-1.8002	-1.6533	-0.6252	-1.8883	-1.7162	-0.1972	-0.5203	-2.5093	2.3918	1.8715	-1.8757	-2.203	5.2662	3.8227	4.3556	-3.9738	0.5329	-3.3947	1.3931
0.6462	0.1762	-1.6911	-1.5232	-0.663	-1.7666	-1.5987	-0.2014	-0.4784	-2.3876	2.3834	1.9093	-1.7876	-2.2072	5.3249	3.9822	4.3472	-3.9192	0.47	-3.2982	1.3847
0.7008	0.1972	-1.5903	-1.368	-0.6798	-1.6911	-1.4687	-0.214	-0.4238	-2.3037	2.3457	1.9344	-1.6994	-2.1778	5.3921	4.1458	4.3262	-3.8731	0.4658	-3.1849	1.3721
0.7553	0.1678	-1.498	-1.2463	-0.6924	-1.6449	-1.368	-0.2644	-0.3735	-2.203	2.3415	1.9764	-1.5903	-2.1652	5.3627	4.2255	4.3095	-3.7849	0.4322	-3.1052	1.3554
0.7973	0.1553	-1.4057	-1.1497	-0.7133	-1.5652	-1.2798	-0.2728	-0.3441	-2.1149	2.3247	2.0016	-1.5442	-2.1652	5.3711	4.2717	4.3011	-3.7472	0.386	-3.0758	1.3344
0.8392	0.1637	-1.3176	-1.0239	-0.7427	-1.5232	-1.2169	-0.3021	-0.3147	-2.0393	2.3121	1.989	-1.4854	-2.1694	5.3543	4.3179	4.2927	-3.6842	0.3735	-2.9751	1.305
0.856	0.0965	-1.2421	-0.9274	-0.7973	-1.4519	-1.1414	-0.3567	-0.3147	-1.989	2.2911	2.0267	-1.4225	-2.1484	5.3123	4.3304	4.2885	-3.6674	0.3105	-2.9205	1.2589
0.8854	0.042	-1.1707	-0.8728	-0.8224	-1.4015	-1.0868	-0.3693	-0.2602	-1.9051	2.2743	2.0267	-1.3721	-2.1484	5.2452	4.3388	4.2759	-3.6129	0.2979	-2.8702	1.2211
0.8896	0.0294	-1.0868	-0.7763	-0.8812	-1.3721	-1.0365	-0.4238	-0.2602	-1.8715	2.2575	2.0016	-1.368	-2.1652	5.1487	4.3053	4.2801	-3.5835	0.2098	-2.8366	1.1791
0.9357	-0.0252	-1.0239	-0.6882	-0.9106	-1.2714	-0.9609	-0.4406	-0.2476	-1.7918	2.2408	2.0184	-1.3092	-2.1484	5.0858	4.2801	4.2507	-3.5416	0.1972	-2.7821	1.1581
0.9315	-0.0923	-0.9693	-0.6336	-0.9735	-1.263	-0.8938	-0.4993	-0.2266	-1.7582	2.2156	2.0142	-1.2589	-2.1652	5.0102	4.2339	4.2759	-3.508	0.1595	-2.7527	1.1162
0.9441	-0.1259	-0.8854	-0.5497	-0.9987	-1.2001	-0.835	-0.5161	-0.1553	-1.6743	2.2324	2.0351	-1.2337	-2.1694	4.9011	4.1626	4.2801	-3.4828	0.1007	-2.6855	1.091
0.9609	-0.1637	-0.8183	-0.4364	-1.0532	-1.1246	-0.7763	-0.5581	-0.1175	-1.6281	2.2282	2.0561	-1.1539	-2.161	4.8256	4.0871	4.2759	-3.4115	0.0965	-2.6897	1.0742
0.9651	-0.1804	-0.7637	-0.3693	-1.0742	-1.0826	-0.6882	-0.5875	-0.0965	-1.5484	2.2198	2.0855	-1.0952	-2.182	4.7291	3.9948	4.3095	-3.3779	0.0504	-2.6604	1.0532
0.9651	-0.2392	-0.7092	-0.2895	-1.1036	-1.0029	-0.6336	-0.5917	0.0042	-1.4645	2.2449	2.1191	-1.0281	-2.1946	4.6242	3.9276	4.3304	-3.3066	0.0168	-2.6352	1.0323
0.9819	-0.2644	-0.6672	-0.2014	-1.1497	-0.9735	-0.5497	-0.621	0.0336	-1.3847	2.2324	2.1191	-0.9483	-2.2072	4.5193	3.8479	4.3682	-3.231	-0.0126	-2.5806	1.0155
0.9819	-0.3189	-0.6042	-0.1595	-1.1959	-0.9148	-0.4993	-0.6084	0.0923	-1.3218	2.2575	2.1946	-0.8728	-2.224	4.3892	3.7304	4.4018	-3.1765	-0.0336	-2.5261	0.9945
0.9693	-0.3105	-0.5455	-0.0713	-1.1791	-0.8224	-0.428	-0.5917	0.1762	-1.2463	2.2995	2.2575	-0.7721	-2.2449	4.3179	3.6213	4.4353	-3.1261	-0.0336	-2.5135	1.0113
0.9399	-0.3483	-0.5203	-0.0546	-1.2127	-0.7931	-0.3902	-0.6084	0.2266	-1.1707	2.3163	2.2953	-0.7133	-2.2701	4.171	3.5122	4.4773	-3.101	-0.0713	-2.4967	1.0113
0.9483	-0.386	-0.4951	-0.0084	-1.2337	-0.7343	-0.3273	-0.6042	0.2979	-1.0826	2.3624	2.3457	-0.6294	-2.2911	4.0493	3.4157	4.5193	-3.0045	-0.0587	-2.4883	1.0826
0.919	-0.3986	-0.449	-0.0042	-1.2379	-0.684	-0.2686	-0.5623	0.3399	-1.0113	2.417	2.375	-0.5833	-2.2995	3.9696	3.3276	4.5403	-2.9541	-0.0462	-2.5051	1.0994
0.9064	-0.4112	-0.3986	0.0378	-1.2421	-0.6084	-0.2056	-0.5329	0.4532	-0.9232	2.4925	2.4673	-0.4951	-2.3121	3.8731	3.2688	4.5696	-2.9163	-0.0042	-2.4548	1.1581
0.8854	-0.4238	-0.3609	0.0587	-1.2253	-0.5665	-0.1678	-0.5035	0.5161	-0.8896	2.5429	2.5177	-0.4364	-2.354	3.8185	3.1891	4.6284	-2.8828	0.0462	-2.4799	1.263
0.919	-0.3819	-0.2937	0.0923	-1.1959	-0.4742	-0.0923	-0.4154	0.5959	-0.8015	2.673	2.5974	-0.3693	-2.354	3.7514	3.1136	4.641	-2.8114	0.1007	-2.4506	1.3512
0.919	-0.3609	-0.2392	0.1217	-1.1623	-0.4196	-0.0587	-0.386	0.6714	-0.7217	2.7443	2.6352	-0.2686	-2.375	3.7136	3.0884	4.6787	-2.7443	0.1595	-2.4506	1.4477
0.9525	-0.3147	-0.1762	0.1469	-1.112	-0.3441	-0.021	-0.2979	0.7805	-0.6504	2.8786	2.7443	-0.2098	-2.3918	3.7388	3.0548	4.7123	-2.673	0.2308	-2.4128	1.561
0.9861	-0.2686	-0.0839	0.235	-1.0197	-0.2266	0.0965	-0.2098	0.9022	-0.5539	2.9919	2.8534	-0.0965	-2.4086	3.7514	3.0422	4.7375	-2.6058	0.3147	-2.3708	1.6953
1.0532	-0.2266	0.0252	0.2769	-0.9693	-0.1427	0.1637	-0.1678	0.9567	-0.5077	3.0548	2.9247	-0.0462	-2.4254	3.7766	2.9919	4.7585	-2.5513	0.3777	-2.3582	1.7876
1.1078	-0.1469	0.1133	0.3525	-0.8728	-0.0462	0.256	-0.0671	1.1204	-0.4154	3.2269	3.0422	0.0671	-2.4086	3.7933	2.9247	4.7501	-2.4464	0.4616	-2.2827	1.926
1.1581	-0.1049	0.214	0.3819	-0.8141	0.0671	0.3525	0.0168	1.2253	-0.3567	3.3192	3.1555	0.1427	-2.4212	3.8227	2.8786	4.771	-2.375	0.5161	-2.2701	2.0016
1.2379	-0.021	0.3147	0.449	-0.7092	0.1469	0.4406	0.1259	1.326	-0.2644	3.4325	3.2478	0.2308	-2.4212	3.8689	2.7695	4.7836	-2.3205	0.6126	-2.1946	2.0981
1.3134	0.0336	0.3902	0.5455	-0.6336	0.2853	0.5287	0.2224	1.4435	-0.172	3.5332	3.3695	0.3063	-2.4086	3.9024	2.7065	4.7752	-2.2114	0.684	-2.1526	2.1736
1.3512	0.0713	0.47	0.5749	-0.5833	0.3357	0.5959	0.2895	1.54	-0.1343	3.6045	3.4199	0.3735	-2.417	3.894	2.6226	4.7668	-2.1526	0.7469	-2.1317	2.2324
1.4057	0.1217	0.5749	0.6462	-0.491	0.4238	0.684	0.3693	1.6533	-0.0587	3.701	3.4996	0.4322	-2.4086	3.8898	2.5387	4.7668	-2.0645	0.8308	-2.0729	2.3121
1.4267	0.1595	0.663	0.6882	-0.4154	0.5119	0.7637	0.4532	1.7204	0.0126	3.7724	3.5877	0.5245	-2.3918	3.8773	2.4799	4.7459	-1.989	0.8602	-2.0058	2.3457
1.4477	0.2014	0.7343	0.7217	-0.3651	0.6126	0.8141	0.5203	1.8211	0.0462	3.8143	3.6758	0.5833	-2.4044	3.8647	2.4086	4.7459	-1.947	0.9232	-1.9764	2.417
1.4729	0.235	0.7763	0.7847	-0.2937	0.6546	0.8644	0.5665	1.8715	0.0587	3.8731	3.722	0.6252	-2.396	3.8521	2.3666	4.7375	-1.8967	0.9903	-1.947	2.4841
1.54	0.2644	0.8728	0.8099	-0.2602	0.6924	0.9232	0.6378	1.926	0.1385	3.9402	3.7724	0.663	-2.3708	3.8353	2.3331	4.7123	-1.8127	1.0239	-1.8967	2.5429
1.4854	0.2434	0.9022	0.8686	-0.2266	0.7763	0.9735	0.684	2.0016	0.1804	3.9738	3.8143	0.6756	-2.3792	3.7807	2.3079	4.7207	-1.7624	1.0784	-1.8379	2.6268
1.519	0.2811	0.9609	0.8686	-0.1804	0.8183	1.0071	0.7259	2.0435	0.2014	4.0115	3.8101	0.6882	-2.4002	3.743	2.2953	4.7039	-1.7456	1.1246	-1.8169	2.6897
1.5274	0.2686	1.0197	0.9106	-0.1511	0.9022	1.0574	0.7805	2.0729	0.235	4.0451	3.8311	0.7092	-2.3792	3.6926	2.2617	4.6997	-1.6869	1.1623	-1.7624	2.7611
1.4938	0.2769	1.0532	0.9525	-0.0671	0.9483	1.0994	0.8308	2.1358	0.2728	4.0997	3.8647	0.7343	-2.375	3.6003	2.2701	4.6913	-1.6323	1.2043	-1.7372	2.8156
1.54	0.2937	1.1162	1.0071	-0.0587	0.9819	1.1707	0.8686	2.1736	0.3105	4.1248	3.894	0.7847	-2.3624	3.5542	2.2785	4.6745	-1.5945	1.2463	-1.6827	2.8408
1.519	0.2644	1.1665	1.0532	-0.0336	1.0448	1.2253	0.8938	2.2198	0.3189	4.1416	3.9402	0.8015	-2.3624	3.4912	2.2827	4.6577	-1.5064	1.2672	-1.6575	2.8702
1.54	0.2728	1.2211	1.0784	-0.0294	1.0826	1.2672	0.919	2.2575	0.3735	4.1542	3.9654	0.8266	-2.3373	3.4409	2.3247	4.6452	-1.4729	1.2421	-1.582	2.8912
1.5442	0.2811	1.263	1.1623	-0.0042	1.1497	1.2882	0.9609	2.3331	0.4154	4.1668	3.9989	0.8728	-2.3373	3.4241	2.3415	4.6074	-1.3805	1.2756	-1.5148	2.9247
1.519	0.235	1.305	1.1623	0.0042	1.1917	1.3134	0.9819	2.3792	0.4658	4.192	4.0115	0.9106	-2.3247	3.3695	2.3457	4.6074	-1.3134	1.2672	-1.5022	2.9163
1.5568	0.2014	1.3554	1.2337	0.0126	1.2253	1.368	0.9861	2.4044	0.5035	4.192	4.0283	0.9441	-2.3163	3.3527	2.3415	4.578	-1.2714	1.2714	-1.4099	2.9289
1.5568	0.2098	1.4225	1.2714	0.0084	1.3176	1.4561	1.0029	2.459	0.5623	4.2297	4.108	1.0155	-2.2869	3.336	2.3457	4.5361	-1.1623	1.2672	-1.3512	2.9499
1.5736	0.2224	1.4812	1.3386	0.0042	1.3805	1.5106	1.0281	2.5009	0.6168	4.2381	4.0913	1.0448	-2.2617	3.3443	2.3457	4.4899	-1.07	1.2547	-1.2882	2.9583
1.6197	0.2182	1.519	1.3805	0.0084	1.4435	1.519	0.9987	2.5387	0.6798	4.2046	4.1039	1.1078	-2.2449	3.3234	2.3163	4.4479	-0.9945	1.2127	-1.2505	2.9415
1.6113	0.193	1.5526	1.4351	-0.0336	1.4603	1.5903	0.9567	2.5429	0.7217	4.1752	4.108	1.1246	-2.2198	3.3024	2.3037	4.406	-0.9525	1.1917	-1.2001	2.9457
1.6575	0.1762	1.6197	1.5358	-0.042	1.5526	1.6533	0.9441	2.6058	0.8015	4.1836	4.1206	1.2001	-2.1862	3.3401	2.3457	4.3262	-0.8518	1.1833	-1.1623	2.9121
1.6701	0.172	1.6869	1.5694	-0.0336	1.6113	1.6994	0.9357	2.652	0.8518	4.1962	4.1668	1.2421	-2.1442	3.3276	2.3205	4.2591	-0.7721	1.1623	-1.0658	2.9373
1.6659	0.1301	1.712	1.6197	-0.1007	1.6533	1.7288	0.9106	2.6814	0.898	4.1668	4.171	1.3218	-2.1107	3.3318	2.3289	4.1836	-0.7511	1.1036	-1.0742	2.9079
1.6994	0.1385	1.7414	1.6533	-0.0923	1.7288	1.775	0.8518	2.6855	0.9399	4.1374	4.1836	1.3302	-2.0687	3.2898	2.3205	4.1039	-0.663	1.0574	-0.9777	2.8744
1.733	0.1553	1.8169	1.712	-0.1091	1.7918	1.8421	0.8266	2.7527	1.0323	4.1542	4.2046	1.4057	-2.0142	3.3108	2.3373	3.978	-0.5707	1.0197	-0.9357	2.8492
1.7372	0.1259	1.8463	1.7834	-0.1343	1.8715	1.9218	0.8015	2.7905	1.112	4.108	4.213	1.4267	-1.9722	3.2898	2.3079	3.8857	-0.5119	0.9609	-0.8938	2.7905
1.7624	0.1678	1.8589	1.8295	-0.1427	1.9176	1.9554	0.7805	2.8114	1.1917	4.0787	4.2213	1.4812	-1.9093	3.2856	2.3121	3.7807	-0.4742	0.9106	-0.8183	2.7737
1.7708	0.1427	1.9135	1.8547	-0.1804	1.9638	2.0267	0.7133	2.8324	1.2589	4.0703	4.2171	1.5106	-1.8631	3.2436	2.3037	3.6758	-0.4364	0.8476	-0.7595	2.7317
1.7708	0.1469	1.9344	1.8925	-0.172	2.0309	2.0519	0.6798	2.8576	1.2966	4.0367	4.2088	1.5274	-1.8169	3.1975	2.2911	3.5919	-0.3651	0.8057	-0.7343	2.6855
1.7708	0.1511	1.968	1.9386	-0.1972	2.0981	2.0855	0.6756	2.887	1.3554	3.9738	4.2088	1.561	-1.7666	3.1681	2.2617	3.4912	-0.2769	0.7385	-0.6504	2.6436
1.7834	0.1678	1.9722	1.9638	-0.214	2.1275	2.1442	0.6504	2.9415	1.4183	3.9612	4.2255	1.5903	-1.7036	3.0968	2.2114	3.3905	-0.2476	0.6798	-0.6001	2.6016
1.7708	0.1385	2.0058	1.9974	-0.2308	2.1778	2.1988	0.5959	2.9541	1.4603	3.936	4.2213	1.6029	-1.6659	3.0003	2.1317	3.3024	-0.2182	0.5917	-0.5623	2.5177
1.7204	0.1133	2.0016	2.0058	-0.2728	2.2072	2.2156	0.5581	2.9793	1.4938	3.8857	4.2297	1.6365	-1.6197	2.9205	2.0603	3.2185	-0.193	0.5455	-0.5035	2.4506
1.733	0.1511	2.0309	2.0645	-0.2686	2.2995	2.2743	0.5665	3.0338	1.5652	3.8395	4.2549	1.6911	-1.5736	2.8156	1.9722	3.0926	-0.1259	0.4658	-0.4616	2.438
1.6953	0.1217	2.0477	2.0939	-0.3147	2.3582	2.3457	0.5035	3.0548	1.6113	3.8269	4.2423	1.7078	-1.5064	2.7107	1.8589	2.9877	-0.0965	0.407	-0.4112	2.3666
1.6743	0.1133	2.0351	2.1023	-0.3441	2.3792	2.3834	0.4826	3.0884	1.6533	3.7807	4.2633	1.7456	-1.4603	2.6184	1.7288	2.8828	-0.0671	0.3399	-0.3483	2.3079
1.6575	0.0965	2.0813	2.161	-0.3483	2.4632	2.4632	0.449	3.1471	1.733	3.8059	4.2927	1.775	-1.3889	2.4715	1.5652	2.7401	-0.0252	0.2937	-0.2937	2.2827
1.6407	0.0713	2.0981	2.1526	-0.3986	2.5009	2.4967	0.428	3.1723	1.754	3.7472	4.2969	1.8002	-1.3344	2.3624	1.4015	2.6226	0.0294	0.235	-0.235	2.2575
1.6533	0.0546	2.1358	2.2449	-0.3651	2.5639	2.5723	0.4196	3.2017	1.8044	3.7598	4.3179	1.8379	-1.263	2.2617	1.1959	2.4883	0.0881	0.1846	-0.1762	2.2282
1.6155	0.0252	2.1191	2.2827	-0.3902	2.5932	2.5932	0.3944	3.2269	1.8421	3.7304	4.3388	1.8715	-1.1917	2.182	1.0323	2.375	0.1469	0.1385	-0.1385	2.203
1.6197	-0.0126	2.1442	2.3247	-0.4154	2.6268	2.6855	0.3735	3.2478	1.8841	3.7346	4.343	1.9135	-1.1372	2.0897	0.8602	2.2785	0.1972	0.1259	-0.0881	2.1862
1.5862	-0.042	2.1317	2.3373	-0.4742	2.6184	2.6855	0.3399	3.2269	1.8757	3.701	4.2927	1.8799	-1.1036	1.9848	0.6924	2.1946	0.1972	0.0881	-0.0881	2.1568
1.5862	-0.0546	2.1736	2.3876	-0.4238	2.6772	2.7905	0.3483	3.2646	1.9176	3.7346	4.3346	1.9093	-1.0658	1.8967	0.5329	2.0981	0.2728	0.0881	-0.0252	2.1526
1.6113	-0.1007	2.224	2.459	-0.4658	2.7233	2.8366	0.3651	3.2856	1.9554	3.7472	4.3346	1.9428	-1.0323	1.8463	0.3693	2.0309	0.3147	0.0713	0.0126	2.2072
1.5987	-0.1175	2.182	2.4925	-0.47	2.7317	2.8702	0.3399	3.2856	1.947	3.7514	4.3598	1.9512	-0.9945	1.7414	0.235	1.9848	0.3399	0.0546	0.0252	2.182
1.5945	-0.1175	2.2072	2.5681	-0.4532	2.7779	2.9289	0.3777	3.3401	2.0016	3.8101	4.4018	1.9848	-0.9819	1.6575	0.0881	1.9135	0.3902	0.0965	0.0587	2.2366
1.5945	-0.1385	2.2282	2.5764	-0.4448	2.8072	2.9835	0.4112	3.3443	2.0561	3.8269	4.4353	2.0393	-0.9525	1.5442	-0.0462	1.8673	0.4448	0.0839	0.0671	2.2533
1.5903	-0.1972	2.2198	2.631	-0.4322	2.8198	3.0296	0.4406	3.3989	2.0855	3.9108	4.4731	2.0771	-0.919	1.4561	-0.1511	1.8337	0.5161	0.1301	0.1133	2.2911
1.5945	-0.2182	2.2282	2.673	-0.4448	2.8576	3.0716	0.4448	3.4283	2.1484	3.9654	4.5403	2.1442	-0.9148	1.3428	-0.2602	1.796	0.5833	0.1678	0.1217	2.3331
1.5987	-0.2476	2.2408	2.7023	-0.4196	2.8912	3.1136	0.491	3.4786	2.1988	4.0199	4.5948	2.2072	-0.8938	1.2756	-0.3399	1.7624	0.6546	0.2014	0.1427	2.375
1.5736	-0.2308	2.2617	2.7275	-0.3777	2.9541	3.1849	0.5455	3.5751	2.2953	4.1458	4.7081	2.3415	-0.8854	1.2085	-0.3819	1.7246	0.7553	0.2644	0.193	2.4464
1.561	-0.235	2.2533	2.7401	-0.3693	3.0045	3.2185	0.6042	3.6171	2.3415	4.2381	4.7962	2.4506	-0.8854	1.1204	-0.4028	1.7414	0.835	0.3147	0.2392	2.4883
1.5358	-0.2769	2.2072	2.7443	-0.3399	3.0087	3.2772	0.663	3.6674	2.417	4.2885	4.8885	2.5555	-0.8896	1.0448	-0.4448	1.7582	0.9357	0.3609	0.2686	2.5261
1.5022	-0.2811	2.2282	2.7905	-0.3021	3.0716	3.3443	0.7259	3.743	2.4883	4.3598	5.0018	2.673	-0.9064	0.9903	-0.449	1.775	1.0281	0.4154	0.3231	2.6058
1.4687	-0.2979	2.2282	2.7653	-0.2728	3.0968	3.3737	0.7889	3.7975	2.5932	4.4899	5.1277	2.824	-0.9148	0.9148	-0.5035	1.8002	1.1665	0.4951	0.3986	2.6981
1.4729	-0.2686	2.2366	2.8072	-0.2098	3.1513	3.4157	0.8602	3.8773	2.7065	4.5696	5.2158	2.9625	-0.9022	0.8518	-0.5287	1.8085	1.2924	0.5371	0.4658	2.7611
1.4645	-0.2434	2.2785	2.803	-0.1762	3.2227	3.4828	0.9232	4.0115	2.824	4.6787	5.3669	3.1303	-0.919	0.7721	-0.5455	1.8295	1.4225	0.6042	0.5371	2.8198
1.4519	-0.2476	2.2575	2.8198	-0.1259	3.2646	3.5248	0.9861	4.0451	2.9079	4.7626	5.476	3.2562	-0.9525	0.684	-0.5791	1.8589	1.5484	0.663	0.6126	2.8786
1.4729	-0.235	2.2827	2.8198	-0.0713	3.3192	3.5793	1.0323	4.1206	3.017	4.834	5.5935	3.4073	-0.9399	0.6714	-0.6042	1.8505	1.6743	0.7259	0.6966	2.9247
1.4225	-0.2056	2.2995	2.8072	-0.0336	3.3569	3.6297	1.1162	4.2423	3.1136	4.9305	5.7152	3.5542	-0.9567	0.6252	-0.6378	1.8883	1.7918	0.7847	0.7721	2.9793
1.4477	-0.1511	2.3624	2.8366	0.0546	3.4451	3.7052	1.2211	4.3346	3.2646	5.0354	5.8369	3.7052	-0.9525	0.5959	-0.6462	1.8715	1.9344	0.8392	0.8434	3.0632
1.4435	-0.1217	2.3876	2.866	0.1595	3.5038	3.743	1.284	4.4353	3.3695	5.0941	5.9628	3.8605	-0.9609	0.5917	-0.6546	1.8799	2.0351	0.919	0.9106	3.1303
1.4435	-0.0671	2.4338	2.8702	0.1972	3.5458	3.8353	1.3386	4.4983	3.4618	5.1739	6.0677	3.9948	-0.9735	0.6084	-0.6378	1.9135	2.1442	0.9735	1.0155	3.1681
1.4854	-0.0126	2.459	2.887	0.2811	3.6255	3.8731	1.4393	4.62	3.6213	5.283	6.2187	4.129	-0.9861	0.6001	-0.6126	1.9428	2.2575	1.0406	1.0742	3.2352
1.5022	0.0168	2.5471	2.9037	0.3777	3.7136	3.9192	1.5148	4.6829	3.7178	5.3753	6.3152	4.2549	-1.0071	0.6336	-0.6001	1.9848	2.3624	1.0952	1.1372	3.3024
1.5316	0.0755	2.5974	2.9583	0.4742	3.8185	4.0199	1.6281	4.792	3.8353	5.5054	6.4663	4.4353	-1.0197	0.6546	-0.5791	2.0058	2.4799	1.1833	1.2295	3.3737
1.5274	0.1259	2.6478	2.9625	0.5539	3.8982	4.0745	1.6911	4.9137	3.9318	5.5641	6.5796	4.5486	-1.0574	0.6714	-0.5497	2.0645	2.5261	1.2337	1.263	3.4283
1.582	0.235	2.7485	3.0338	0.6714	4.0115	4.1668	1.8002	5.006	4.0493	5.6942	6.7307	4.6661	-1.0784	0.7217	-0.5245	2.1023	2.6394	1.3386	1.3344	3.5458
1.6365	0.2853	2.8492	3.0506	0.7511	4.0829	4.2465	1.8883	5.1067	4.1542	5.7949	6.8398	4.792	-1.0952	0.7511	-0.4951	2.1484	2.7233	1.4099	1.3889	3.6171
1.6533	0.3609	2.9205	3.0926	0.8308	4.1878	4.2801	1.9638	5.1991	4.2549	5.8998	6.9405	4.9137	-1.112	0.8015	-0.4532	2.2072	2.7779	1.4812	1.4393	3.701
1.733	0.449	3.017	3.1303	0.9525	4.2801	4.3556	2.1023	5.3207	4.3221	6.0299	7.0747	4.985	-1.1456	0.8476	-0.3819	2.2533	2.8324	1.6029	1.4519	3.8143
1.8002	0.5287	3.1178	3.1387	1.0406	4.3766	4.4144	2.2114	5.4005	4.3934	6.1474	7.1545	5.0606	-1.1623	0.8602	-0.2979	2.3079	2.8954	1.712	1.5106	3.9612
1.8589	0.6168	3.1849	3.1807	1.1623	4.4983	4.4689	2.3037	5.5012	4.4605	6.2943	7.272	5.1277	-1.1875	0.919	-0.2518	2.3624	2.9415	1.8169	1.5526	4.0619
1.9009	0.6924	3.2772	3.1933	1.2421	4.5864	4.4899	2.396	5.5599	4.4815	6.3908	7.3391	5.1949	-1.2379	0.8812	-0.2224	2.4506	2.9415	1.9218	1.5232	4.192
1.9638	0.7595	3.3192	3.2101	1.3134	4.6661	4.5109	2.459	5.5977	4.5109	6.5041	7.3895	5.1781	-1.2756	0.877	-0.1804	2.5093	2.9205	2.0226	1.498	4.3095
1.9974	0.8392	3.4157	3.1891	1.4015	4.6997	4.5067	2.5639	5.6522	4.5025	6.5964	7.4188	5.1823	-1.3176	0.8602	-0.193	2.5764	2.9289	2.1275	1.4729	4.4018
2.0687	0.8728	3.4534	3.2059	1.4687	4.7501	4.5361	2.631	5.711	4.5444	6.6845	7.4692	5.1949	-1.3428	0.9064	-0.2266	2.6394	2.9247	2.224	1.4687	4.5109
2.1107	0.919	3.5206	3.2101	1.5148	4.7878	4.5151	2.6772	5.7404	4.5319	6.76	7.5195	5.1697	-1.3763	0.8518	-0.2518	2.7191	2.8786	2.2827	1.4225	4.599
2.1317	0.9903	3.5458	3.2017	1.5736	4.8214	4.5151	2.7275	5.7697	4.5277	6.8272	7.5321	5.1613	-1.4267	0.8266	-0.2937	2.7946	2.866	2.3708	1.3973	4.6661
2.1904	1.0406	3.5961	3.1933	1.6197	4.855	4.5025	2.7653	5.8033	4.5319	6.9111	7.5489	5.1613	-1.4351	0.8099	-0.3441	2.8366	2.8576	2.4128	1.3763	4.7375
2.2114	1.0742	3.6087	3.1849	1.6491	4.8801	4.5151	2.8492	5.8453	4.5403	6.9572	7.5825	5.1529	-1.4561	0.8224	-0.3273	2.8828	2.824	2.4925	1.3218	4.8256
2.2533	1.091	3.6171	3.1681	1.6575	4.8843	4.4983	2.845	5.8285	4.5277	7.0202	7.5909	5.1613	-1.5064	0.8099	-0.3609	2.9583	2.8324	2.5345	1.2798	4.855
2.2911	1.1497	3.6423	3.1555	1.6994	4.9263	4.5025	2.9037	5.8788	4.5109	7.0621	7.6077	5.1193	-1.5148	0.8266	-0.3525	3.0003	2.8324	2.5974	1.2463	4.9263
2.3373	1.1665	3.6297	3.1345	1.7036	4.9263	4.5067	2.9541	5.9208	4.5235	7.1335	7.6454	5.1277	-1.5442	0.877	-0.3609	3.0674	2.845	2.631	1.2253	4.9892
2.375	1.1749	3.6549	3.1597	1.7498	4.9347	4.4857	3.0087	5.9418	4.4941	7.2174	7.6916	5.1361	-1.5736	0.898	-0.3021	3.1178	2.8324	2.7233	1.1456	5.09
2.4086	1.2211	3.6633	3.1639	1.7792	4.9599	4.5109	3.0632	5.9837	4.5319	7.3055	7.7209	5.1403	-1.6029	0.9483	-0.256	3.1555	2.866	2.7905	1.133	5.2074
2.4296	1.2421	3.6926	3.1681	1.8169	4.9641	4.5235	3.1261	6.0257	4.5403	7.4104	7.7419	5.1319	-1.6029	0.9441	-0.2266	3.1807	2.8828	2.8702	1.0826	5.3333
2.4464	1.2589	3.6549	3.1639	1.8127	4.9347	4.5067	3.1639	6.0509	4.5151	7.4902	7.7503	5.0941	-1.6239	0.9148	-0.2056	3.2269	2.8996	2.9499	1.049	5.434
2.4548	1.263	3.6381	3.1555	1.8547	4.9305	4.4899	3.2185	6.0467	4.4731	7.5699	7.7587	5.0564	-1.6407	0.9148	-0.235	3.2394	2.9079	3.0296	1.0113	5.5473
2.4506	1.2505	3.5835	3.1303	1.8547	4.8843	4.4689	3.252	6.0677	4.4521	7.6496	7.7587	5.0018	-1.6449	0.8308	-0.3021	3.2562	2.887	3.101	0.9274	5.648
2.3708	1.2211	3.5038	3.0464	1.8169	4.8046	4.3892	3.2604	6.0047	4.4018	7.679	7.7251	4.9053	-1.6449	0.7553	-0.386	3.2604	2.845	3.1597	0.8644	5.7362
2.3289	1.1581	3.4199	2.9373	1.7834	4.7417	4.2675	3.2646	5.9502	4.2591	7.7251	7.6412	4.7375	-1.6617	0.6336	-0.4993	3.2772	2.7821	3.1891	0.7763	5.8285
2.2575	1.07	3.315	2.8114	1.7498	4.6703	4.1752	3.2604	5.8704	4.1542	7.7629	7.5825	4.6116	-1.6617	0.5287	-0.6504	3.2772	2.7359	3.2646	0.6924	5.9124
2.1904	1.0281	3.2101	2.673	1.7246	4.5486	4.0577	3.2478	5.8243	4.0451	7.7881	7.5237	4.4815	-1.6533	0.449	-0.7637	3.2688	2.631	3.3024	0.6084	5.9628
2.0813	0.9232	3.0674	2.5345	1.6449	4.4563	3.915	3.231	5.7404	3.9024	7.8133	7.4524	4.3137	-1.6659	0.3357	-0.9399	3.273	2.5177	3.3192	0.5077	6.0173
1.9932	0.835	2.9373	2.4128	1.5862	4.343	3.7514	3.1975	5.6606	3.7556	7.8175	7.3559	4.15	-1.6323	0.2769	-1.0658	3.252	2.4464	3.3192	0.4406	6.0635
1.8505	0.7301	2.7653	2.2198	1.5358	4.2675	3.6213	3.1555	5.5809	3.6129	7.851	7.2887	4.0073	-1.6407	0.172	-1.1959	3.2269	2.3205	3.3401	0.3231	6.097
1.7876	0.6462	2.6981	2.1023	1.4896	4.1878	3.4912	3.1387	5.518	3.487	7.83	7.2216	3.8479	-1.6197	0.1217	-1.3428	3.2017	2.2324	3.3485	0.2686	6.118
1.6701	0.5623	2.5177	1.926	1.4141	4.0703	3.336	3.1136	5.4131	3.3485	7.8175	7.1629	3.6968	-1.6323	0.0671	-1.4603	3.1975	2.1065	3.315	0.172	6.118
1.5568	0.4616	2.4296	1.7834	1.3805	3.9696	3.2059	3.059	5.3417	3.1975	7.7923	7.1083	3.5709	-1.6155	0.0336	-1.6029	3.1975	1.9848	3.3108	0.0839	6.1306
1.4519	0.3735	2.3037	1.6323	1.3386	3.8898	3.0884	3.0632	5.2788	3.0884	7.7923	7.0663	3.4283	-1.6029	-0.021	-1.7246	3.1681	1.9009	3.2814	0.0546	6.0844
1.2966	0.2895	2.1694	1.4812	1.2756	3.8059	2.9583	3.0254	5.1991	2.9415	7.7377	7.0076	3.3024	-1.6071	-0.0671	-1.8295	3.1807	1.7834	3.273	-0.0462	6.0802
1.2043	0.2056	2.0561	1.3554	1.2756	3.7052	2.8366	3.0087	5.1403	2.8114	7.7419	6.9489	3.1345	-1.6113	-0.0797	-1.9093	3.1807	1.6617	3.2562	-0.1007	6.097
1.0952	0.1511	1.9596	1.2127	1.2421	3.6633	2.7317	2.9625	5.1151	2.6688	7.6622	6.8691	2.9877	-1.6113	-0.0881	-2.0016	3.1849	1.5148	3.2017	-0.1762	6.0593
0.9945	0.0797	1.8463	1.0448	1.2043	3.5583	2.6394	2.9667	5.027	2.5471	7.658	6.8188	2.8198	-1.6323	-0.0839	-2.0184	3.2017	1.4225	3.1933	-0.235	6.0173
0.8854	0	1.7372	0.9106	1.1917	3.4996	2.5009	2.9205	4.9599	2.4086	7.6202	6.7768	2.7023	-1.6197	-0.0546	-2.0519	3.2269	1.2589	3.1429	-0.3147	5.9963
0.8057	-0.0336	1.6785	0.8266	1.1959	3.4534	2.417	2.9373	4.9263	2.2953	7.5741	6.7181	2.5471	-1.6407	-0.0336	-2.0813	3.2352	1.1539	3.1261	-0.3483	5.9879
0.7385	-0.0504	1.6071	0.7092	1.1833	3.4157	2.3331	2.9457	4.9011	2.1988	7.5531	6.6845	2.4632	-1.6281	0.042	-2.0435	3.2436	1.0197	3.1219	-0.3902	5.9921
0.6546	-0.0587	1.5484	0.6336	1.1875	3.3611	2.2408	2.9457	4.8298	2.0687	7.5027	6.6174	2.3079	-1.6365	0.0965	-2.0561	3.2646	0.8854	3.08	-0.4448	5.9418
0.6084	-0.0923	1.5358	0.5497	1.2463	3.3611	2.2114	2.9751	4.8508	2.0309	7.5111	6.5838	2.224	-1.6617	0.1637	-2.0477	3.2856	0.8015	3.0548	-0.4951	5.9502
0.5539	-0.0755	1.498	0.4574	1.2672	3.3234	2.1442	2.9625	4.8088	1.9386	7.5027	6.5586	2.0981	-1.6785	0.2224	-2.0142	3.3024	0.684	3.0548	-0.5371	5.9208
0.5707	-0.042	1.4854	0.4322	1.3302	3.3527	2.1358	3.0254	4.834	1.9176	7.4734	6.5418	2.0226	-1.6785	0.3231	-1.9428	3.3108	0.621	3.0338	-0.5665	5.9124
0.5161	0.0042	1.498	0.4028	1.3973	3.3653	2.1233	3.059	4.8256	1.8505	7.4734	6.5586	1.9974	-1.6827	0.3651	-1.8925	3.3192	0.5707	3.0338	-0.5539	5.904
0.5035	0.042	1.5022	0.3777	1.4183	3.3695	2.1317	3.0842	4.8214	1.8379	7.4734	6.5712	1.9554	-1.6869	0.4238	-1.8631	3.3276	0.5077	3.017	-0.5497	5.9124
0.4826	0.0587	1.4896	0.3651	1.519	3.3905	2.1107	3.1178	4.8256	1.8044	7.4608	6.546	1.9344	-1.6911	0.4574	-1.8295	3.336	0.4826	2.9961	-0.5539	5.8704
0.4532	0.1007	1.5232	0.3231	1.5568	3.4534	2.1358	3.1471	4.8592	1.8211	7.4482	6.5838	1.9093	-1.7078	0.4826	-1.7792	3.3401	0.4784	2.9877	-0.5455	5.8159
0.4574	0.1259	1.498	0.3021	1.6281	3.4744	2.1568	3.1975	4.8717	1.8169	7.4188	6.6006	1.9428	-1.6827	0.5119	-1.7288	3.336	0.4406	2.9541	-0.5203	5.7907
0.407	0.172	1.4812	0.2895	1.6449	3.4786	2.1736	3.2185	4.8843	1.8044	7.4062	6.6006	1.926	-1.6953	0.5329	-1.6491	3.3485	0.407	2.9331	-0.5287	5.7781
0.386	0.193	1.4812	0.2392	1.7036	3.5416	2.1778	3.2227	4.9011	1.8337	7.3475	6.6257	1.9176	-1.6994	0.5371	-1.582	3.3318	0.386	2.8954	-0.5245	5.7194
0.3399	0.2266	1.4477	0.256	1.7708	3.5416	2.2072	3.2688	4.9095	1.8337	7.3097	6.6299	1.9428	-1.6911	0.5161	-1.498	3.336	0.3986	2.9079	-0.5077	5.7152
0.3063	0.256	1.4687	0.214	1.8211	3.6171	2.2366	3.2898	4.9347	1.8631	7.3139	6.6383	1.9302	-1.6743	0.4951	-1.4225	3.315	0.386	2.8996	-0.4826	5.6732
0.235	0.2392	1.4015	0.1804	1.8044	3.6045	2.2114	3.2898	4.9053	1.8505	7.23	6.6174	1.9135	-1.7036	0.4826	-1.3386	3.3443	0.2979	2.887	-0.5035	5.6019
0.214	0.2644	1.3805	0.1343	1.8253	3.6003	2.203	3.2688	4.8801	1.8253	7.1671	6.5838	1.8631	-1.7204	0.4196	-1.284	3.3737	0.3147	2.8912	-0.5497	5.5809
0.1259	0.2686	1.3134	0.0881	1.8127	3.6255	2.1988	3.2688	4.834	1.7918	7.0873	6.4999	1.8044	-1.7162	0.3567	-1.2463	3.4031	0.2182	2.8786	-0.5749	5.5389
0.1091	0.2769	1.263	0.0168	1.796	3.6045	2.1694	3.2478	4.8046	1.7456	6.9866	6.4453	1.7288	-1.7246	0.3441	-1.1875	3.4241	0.1385	2.8618	-0.5959	5.5054
0.0168	0.2728	1.2379	-0.0462	1.7792	3.6003	2.161	3.2269	4.7501	1.7078	6.8775	6.3446	1.6029	-1.7456	0.3147	-1.1497	3.4702	0.0378	2.8618	-0.6756	5.455
-0.0587	0.2728	1.1749	-0.1259	1.7834	3.5793	2.1275	3.2017	4.6829	1.6701	6.8188	6.2481	1.5274	-1.775	0.2476	-1.1036	3.5164	-0.0462	2.8744	-0.7553	5.4298
-0.1175	0.2853	1.1204	-0.1888	1.7624	3.5583	2.1065	3.1303	4.6284	1.6239	6.6971	6.1684	1.4099	-1.8044	0.2182	-1.1288	3.5667	-0.1385	2.8576	-0.8015	5.3627
-0.1595	0.2853	1.0994	-0.2476	1.7456	3.5667	2.0771	3.1345	4.5948	1.5694	6.5838	6.0886	1.347	-1.8169	0.1888	-1.112	3.5919	-0.2098	2.8996	-0.856	5.3333
-0.2056	0.3147	1.07	-0.2979	1.7498	3.5961	2.0477	3.0758	4.5654	1.5568	6.4831	5.9837	1.2505	-1.8421	0.1804	-1.1288	3.6381	-0.3105	2.8912	-0.9064	5.2704
-0.2224	0.3567	1.07	-0.3357	1.7666	3.6423	2.0603	3.1052	4.5696	1.5526	6.3698	5.9292	1.2001	-1.8505	0.1804	-1.1078	3.6674	-0.3651	2.9247	-0.9567	5.1907
-0.2182	0.3819	1.0952	-0.3147	1.7582	3.6465	2.1065	3.101	4.5277	1.561	6.2565	5.8453	1.1539	-1.8799	0.1972	-1.091	3.701	-0.4112	2.8954	-0.9945	5.1235
-0.214	0.4322	1.0952	-0.3651	1.7918	3.6842	2.1107	3.0968	4.5528	1.5526	6.1348	5.7739	1.1078	-1.8925	0.1972	-1.1497	3.7388	-0.47	2.866	-1.0281	5.0354
-0.1385	0.4784	1.1497	-0.3273	1.8295	3.7472	2.161	3.1052	4.5738	1.582	6.0173	5.7236	1.0532	-1.9093	0.1804	-1.1791	3.7766	-0.5203	2.8954	-1.07	4.9263
-0.1427	0.5329	1.1833	-0.3147	1.8757	3.8017	2.2156	3.0716	4.5696	1.5903	5.8872	5.6355	1.0155	-1.9135	0.1888	-1.2043	3.7849	-0.5623	2.8828	-1.0784	4.7962
-0.0797	0.6042	1.2421	-0.2224	1.9176	3.8898	2.2869	3.1052	4.6284	1.6617	5.7613	5.5641	1.0029	-1.926	0.2224	-1.2505	3.8101	-0.6168	2.887	-1.0952	4.6913
0	0.6546	1.3302	-0.1469	1.9512	3.978	2.3666	3.1136	4.6535	1.6701	5.6271	5.4928	0.9987	-1.9302	0.2476	-1.2882	3.8185	-0.6252	2.8534	-1.0952	4.5696
0.0797	0.7679	1.4309	-0.0504	2.0351	4.0745	2.4841	3.1429	4.6955	1.7288	5.5347	5.4844	1.0029	-1.926	0.2518	-1.368	3.8017	-0.642	2.8828	-1.0994	4.4731
0.1469	0.7931	1.5064	0.0126	2.0855	4.15	2.5387	3.1723	4.7794	1.7876	5.4089	5.434	0.9987	-1.9176	0.2518	-1.4393	3.7933	-0.6882	2.8954	-1.0868	4.3556
0.256	0.9148	1.6197	0.1553	2.1526	4.2507	2.6352	3.2059	4.834	1.8589	5.3123	5.3711	0.9945	-1.9218	0.235	-1.5232	3.7849	-0.6756	2.9331	-1.0574	4.3221
0.3315	0.9567	1.7036	0.2476	2.203	4.3556	2.7317	3.2478	4.8801	1.8883	5.2032	5.3291	0.9987	-1.9135	0.2686	-1.6575	3.7766	-0.7008	2.9373	-1.0574	4.2255
0.4364	1.0113	1.8169	0.3944	2.2617	4.4563	2.8534	3.3066	4.9431	1.9512	5.1277	5.2746	0.9693	-1.9218	0.2476	-1.7918	3.7933	-0.7175	2.9709	-1.0784	4.1206
0.5035	1.0658	1.9135	0.4868	2.3373	4.5361	2.9331	3.3276	5.0144	1.9764	5.0606	5.22	0.9777	-1.926	0.2476	-1.968	3.8143	-0.7217	2.9583	-1.049	4.0619
0.6084	1.1707	2.0351	0.6504	2.4296	4.6913	3.0674	3.3863	5.09	2.0561	5.0186	5.2158	0.9987	-1.9386	0.2518	-2.1023	3.8227	-0.6966	3.0422	-1.0155	4.0493
0.7092	1.2547	2.1484	0.8224	2.5932	4.8004	3.1765	3.4996	5.2032	2.1652	4.9934	5.2326	1.049	-1.9344	0.2686	-2.3079	3.8059	-0.6714	3.1052	-0.9777	4.0157
0.8518	1.3554	2.3289	0.9861	2.7065	4.9473	3.3108	3.5793	5.3165	2.2617	5.0186	5.2956	1.1204	-1.9302	0.3441	-2.4212	3.8059	-0.6336	3.1597	-0.919	4.0115
0.9693	1.5106	2.4841	1.1581	2.8324	5.0774	3.4744	3.7052	5.4298	2.3415	5.027	5.3501	1.2463	-1.926	0.4154	-2.5429	3.8059	-0.5623	3.1975	-0.8728	3.9948
1.1288	1.6239	2.6478	1.3638	2.9961	5.2578	3.6549	3.8353	5.5893	2.5219	5.0774	5.4382	1.3805	-1.9009	0.5035	-2.631	3.7766	-0.5035	3.273	-0.7763	4.0367
1.2924	1.7792	2.8114	1.5526	3.1681	5.4424	3.8143	3.9696	5.7446	2.6478	5.1613	5.5515	1.5106	-1.9009	0.5917	-2.6981	3.764	-0.4112	3.3443	-0.7217	4.0535
1.4393	1.9806	3.0212	1.775	3.3653	5.6564	4.0157	4.1374	5.9753	2.8198	5.2872	5.6816	1.6911	-1.8799	0.7385	-2.6897	3.7304	-0.2853	3.4492	-0.6042	4.1164
1.6071	2.1736	3.231	2.0309	3.5751	5.8453	4.2297	4.3388	6.1474	3.0045	5.4047	5.8285	1.8967	-1.8925	0.877	-2.6814	3.7178	-0.1762	3.5332	-0.4742	4.1836
1.7918	2.375	3.4115	2.2575	3.7933	6.0635	4.4144	4.5025	6.3572	3.1849	5.5264	5.9753	2.0645	-1.8589	1.0197	-2.6016	3.6842	-0.1007	3.6297	-0.3735	4.2423
1.968	2.5723	3.6339	2.4799	3.9948	6.2817	4.641	4.6661	6.5796	3.3737	5.6858	6.1893	2.2659	-1.8505	1.1749	-2.4799	3.6549	0.042	3.7262	-0.2728	4.3053
2.1568	2.7527	3.7975	2.7107	4.192	6.4957	4.855	4.8508	6.7558	3.5583	5.8201	6.3404	2.4422	-1.8421	1.305	-2.3708	3.6255	0.1049	3.8143	-0.1553	4.385
2.2659	2.8954	3.9696	2.887	4.3724	6.6719	5.0102	5.0144	6.9656	3.7136	5.9544	6.5125	2.6394	-1.8253	1.368	-2.2533	3.6255	0.2098	3.894	-0.0587	4.4479
2.438	3.0758	4.1542	3.1178	4.5612	6.8523	5.2074	5.1529	7.1377	3.8773	6.0928	6.6677	2.7863	-1.8715	1.4729	-2.1191	3.6381	0.2644	3.9822	0.0084	4.5109
2.5387	3.1849	4.2927	3.273	4.6703	6.995	5.3543	5.2578	7.2845	4.0031	6.1935	6.7936	2.9247	-1.8463	1.519	-1.9848	3.6507	0.2853	4.0745	0.0587	4.578
2.6226	3.3024	4.3976	3.3989	4.8004	7.1419	5.4382	5.3837	7.3727	4.0913	6.311	6.9069	3.0045	-1.8757	1.4896	-1.9176	3.6968	0.3105	4.1416	0.0671	4.62
2.7107	3.3779	4.5193	3.55	4.9137	7.2636	5.5725	5.5012	7.5027	4.2088	6.4034	7.0286	3.1429	-1.8841	1.5232	-1.8547	3.7136	0.3441	4.2339	0.1091	4.7081
2.7695	3.4451	4.6032	3.6633	5.0144	7.3685	5.6858	5.5935	7.6412	4.2759	6.5041	7.1419	3.2478	-1.8967	1.4812	-1.796	3.764	0.3399	4.3179	0.0923	4.7752
2.8324	3.529	4.7081	3.764	5.1067	7.486	5.7697	5.6732	7.7042	4.364	6.6299	7.2552	3.3318	-1.926	1.4645	-1.775	3.8017	0.3315	4.3892	0.1007	4.8843
2.8534	3.5374	4.7626	3.8353	5.1781	7.5657	5.8578	5.7613	7.8426	4.4647	6.7265	7.3936	3.4031	-1.9554	1.3638	-1.8253	3.8521	0.3189	4.4731	0.0839	4.9557
2.9079	3.6171	4.8424	3.9444	5.241	7.6664	5.9669	5.8495	7.9224	4.557	6.8188	7.4818	3.4576	-1.989	1.2882	-1.7708	3.9066	0.3147	4.5528	0.0839	5.0396
2.9289	3.6339	4.9095	4.0115	5.2956	7.7671	6.0677	5.904	7.9937	4.6284	6.9027	7.5993	3.5751	-2.01	1.2672	-1.7708	3.978	0.3105	4.6326	0.0671	5.1109
2.9457	3.6591	4.9515	4.0493	5.3459	7.851	6.118	5.946	8.0734	4.6703	7.016	7.6958	3.6171	-2.0351	1.1456	-1.7792	4.0325	0.2853	4.6955	0.0504	5.2032
2.9583	3.7052	5.0186	4.108	5.3837	7.9098	6.1516	6.0047	8.1783	4.7501	7.0915	7.8007	3.7052	-2.0813	1.0994	-1.7498	4.0871	0.2602	4.7752	0.0336	5.2452
2.9583	3.7052	5.0354	4.1122	5.3879	7.9517	6.2145	6.0341	8.2035	4.8172	7.1377	7.8888	3.7766	-2.0939	1.0155	-1.733	4.1416	0.2602	4.792	0.0671	5.2494
2.9331	3.6926	5.0564	4.1332	5.4214	8.0021	6.2439	6.0635	8.279	4.8298	7.1754	7.9517	3.8479	-2.1191	0.9735	-1.7666	4.192	0.2518	4.8004	0.0587	5.2536
2.9289	3.6842	5.0396	4.129	5.3921	8.0063	6.2565	6.0635	8.2664	4.8634	7.188	7.9811	3.8647	-2.161	0.8812	-1.8127	4.2549	0.2308	4.8046	0.0168	5.241
2.9121	3.701	5.0564	4.1374	5.3795	8.0482	6.2817	6.0719	8.2958	4.8885	7.188	8.0608	3.915	-2.1694	0.8644	-1.8421	4.2843	0.2098	4.8172	0.0084	5.22
2.8954	3.6633	5.0564	4.1458	5.3669	8.0734	6.2565	6.0593	8.2916	4.8969	7.1671	8.0566	3.9108	-2.1862	0.877	-1.8673	4.3262	0.1762	4.7878	-0.021	5.1781
2.9373	3.6968	5.09	4.1878	5.3753	8.0776	6.3026	6.0844	8.3168	4.9095	7.1838	8.1154	3.9822	-2.203	0.8602	-1.8673	4.3346	0.1762	4.7752	-0.0126	5.1529
2.8996	3.6465	5.0774	4.1458	5.3753	8.0692	6.2523	6.0257	8.2874	4.8927	7.1671	8.1238	3.957	-2.2156	0.8812	-1.9302	4.3724	0.1385	4.7333	-0.1091	5.0816
2.9205	3.68	5.0774	4.1584	5.3753	8.086	6.2817	6.0341	8.3042	4.9389	7.188	8.1238	4.0283	-2.2282	0.898	-1.8967	4.385	0.1385	4.6997	-0.1049	5.0312
2.9121	3.68	5.0774	4.1458	5.3627	8.1028	6.2271	6.0593	8.2832	4.8927	7.1712	8.1364	3.9906	-2.2282	0.9735	-1.8463	4.3976	0.0965	4.6577	-0.1343	4.985
2.9457	3.722	5.1025	4.1416	5.4131	8.1154	6.2439	6.0593	8.2623	4.8759	7.1838	8.1322	3.9989	-2.2156	1.0155	-1.7414	4.3724	0.0797	4.6829	-0.1385	4.9934
2.9625	3.7178	5.069	4.0997	5.4592	8.1028	6.1893	6.0635	8.2706	4.8717	7.2006	8.1406	4.0073	-2.2408	1.07	-1.6827	4.4018	0.0629	4.6494	-0.172	4.9557
2.9919	3.7094	5.1109	4.1122	5.4508	8.1448	6.1977	6.0928	8.3042	4.9011	7.2342	8.2035	4.0409	-2.1988	1.1707	-1.4687	4.3598	0.0713	4.6535	-0.1385	4.9683
3.0003	3.764	5.069	4.0997	5.4802	8.149	6.1935	6.1096	8.3084	4.9263	7.2636	8.2035	4.0409	-2.2156	1.2672	-1.2966	4.3598	0.0546	4.6577	-0.1595	4.9892
3.038	3.7975	5.1025	4.1332	5.5389	8.1699	6.2313	6.1516	8.342	4.9641	7.3307	8.2664	4.1248	-2.2072	1.3596	-1.091	4.343	0.1091	4.6494	-0.1301	5.0186
3.0506	3.8185	5.0983	4.1668	5.6019	8.1993	6.2607	6.2061	8.3839	5.0018	7.4146	8.3126	4.1836	-2.1904	1.4393	-0.8854	4.3262	0.1637	4.6787	-0.0839	5.0354
3.1052	3.8521	5.1193	4.1626	5.6522	8.2287	6.2984	6.2313	8.4175	5.0606	7.4566	8.3714	4.2591	-2.1778	1.519	-0.642	4.3137	0.2098	4.6997	-0.0546	5.1067
3.0968	3.8605	5.1193	4.1668	5.6732	8.2497	6.3026	6.2943	8.4385	5.1655	7.5237	8.4385	4.3514	-2.1694	1.5526	-0.4951	4.2885	0.2811	4.6661	0.0126	5.1235
3.1387	3.8731	5.1151	4.1878	5.7278	8.2623	6.353	6.353	8.4972	5.22	7.5909	8.4805	4.4521	-2.1442	1.5945	-0.2811	4.2423	0.3609	4.6913	0.0797	5.1655
3.1261	3.8857	5.1193	4.192	5.7823	8.3252	6.4034	6.4075	8.5392	5.3333	7.6538	8.5644	4.5403	-2.1233	1.6239	-0.1553	4.2004	0.449	4.6913	0.1217	5.2032
3.1471	3.8731	5.1067	4.2046	5.8369	8.3378	6.4579	6.4411	8.6021	5.4256	7.7209	8.6609	4.6494	-2.0855	1.6449	-0.0252	4.1374	0.5581	4.7123	0.2392	5.241
3.1429	3.8689	5.1109	4.2507	5.8285	8.3588	6.4957	6.5041	8.6399	5.476	7.7587	8.6945	4.7501	-2.0771	1.6113	0.0923	4.0871	0.6756	4.7165	0.3357	5.2956
3.101	3.8269	5.0354	4.2255	5.8201	8.3126	6.525	6.5083	8.6189	5.5222	7.8133	8.707	4.8172	-2.0645	1.6197	0.1259	4.0703	0.7343	4.6871	0.386	5.3333
3.1052	3.8185	5.0312	4.2801	5.8704	8.363	6.5922	6.5754	8.6861	5.6187	7.8678	8.7784	4.9305	-2.0184	1.6491	0.2098	3.9738	0.8686	4.7459	0.4868	5.4089
3.08	3.7514	4.9976	4.2717	5.8537	8.3126	6.6006	6.567	8.6861	5.669	7.872	8.7742	4.9683	-1.9932	1.6491	0.193	3.9528	0.9483	4.7207	0.5497	5.4089
3.0422	3.7388	4.9599	4.3011	5.8578	8.2958	6.6299	6.6048	8.6903	5.7362	7.9056	8.77	5.0102	-1.9722	1.6911	0.2098	3.9024	0.9945	4.7207	0.6252	5.4886
3.0422	3.7178	4.9347	4.2885	5.8537	8.279	6.6845	6.6132	8.6609	5.7739	7.9182	8.77	5.0522	-1.9596	1.7036	0.1553	3.8605	1.0868	4.7249	0.6882	5.5305
2.9877	3.6758	4.8676	4.3053	5.8495	8.2119	6.6551	6.5922	8.6189	5.7739	7.914	8.728	5.0438	-1.947	1.7288	0.0462	3.8269	1.1456	4.7123	0.7595	5.5851
2.9877	3.6171	4.813	4.3053	5.8243	8.1573	6.6719	6.5922	8.6021	5.8201	7.9056	8.7154	5.0816	-1.9135	1.754	-0.0629	3.7766	1.2253	4.7123	0.8057	5.5851
2.9331	3.5416	4.792	4.2927	5.7865	8.1364	6.6593	6.5628	8.5728	5.7949	7.9098	8.6651	5.0774	-1.9009	1.775	-0.2728	3.7472	1.2337	4.7039	0.8518	5.6145
2.9205	3.5332	4.7291	4.3011	5.7655	8.0608	6.6719	6.5502	8.5098	5.8369	7.8804	8.5896	5.0564	-1.8673	1.7918	-0.491	3.6926	1.284	4.7123	0.9064	5.6271
2.8618	3.4912	4.6829	4.3011	5.732	7.9895	6.6551	6.5125	8.4511	5.8327	7.7965	8.5224	5.0102	-1.8505	1.7792	-0.7847	3.6549	1.3176	4.7081	0.9777	5.5851
2.7946	3.4367	4.5864	4.2675	5.6774	7.8972	6.6425	6.4873	8.3839	5.8033	7.7671	8.4427	4.985	-1.8295	1.7414	-1.1414	3.5961	1.3554	4.6787	1.0113	5.5599
2.7233	3.3863	4.4899	4.2423	5.6313	7.8426	6.6006	6.4327	8.3042	5.7949	7.6832	8.3336	4.9515	-1.8044	1.6575	-1.5064	3.5583	1.4057	4.6074	1.07	5.5012
2.6394	3.3276	4.3976	4.2046	5.5977	7.7377	6.5628	6.3698	8.2329	5.7446	7.5825	8.2245	4.8759	-1.7792	1.6071	-1.8883	3.5206	1.4141	4.6116	1.1162	5.4173
2.5639	3.2562	4.2885	4.1542	5.497	7.6412	6.5083	6.2775	8.0944	5.7404	7.4272	8.1112	4.8214	-1.7624	1.498	-2.2911	3.5122	1.4225	4.5151	1.1539	5.2788
2.4673	3.1723	4.2381	4.1164	5.4424	7.5489	6.4705	6.1935	8.0063	5.6816	7.3391	7.9811	4.7501	-1.775	1.4099	-2.6772	3.4828	1.4351	4.4647	1.1749	5.1739
2.3582	3.1136	4.1039	4.0745	5.3753	7.4188	6.3908	6.1096	7.8678	5.6271	7.1838	7.8091	4.6829	-1.7624	1.3008	-3.0254	3.4786	1.4645	4.3808	1.1749	5.0522
2.2575	3.0338	3.9989	4.0199	5.2536	7.3349	6.3362	6.0089	7.7461	5.5431	7.0244	7.6412	4.5822	-1.7624	1.2211	-3.3443	3.466	1.4771	4.3514	1.1875	4.9011
2.1317	2.9331	3.8521	3.9528	5.1487	7.1922	6.2523	5.8914	7.6077	5.5096	6.8565	7.4986	4.4731	-1.754	1.1078	-3.6381	3.4786	1.4309	4.2759	1.2043	4.7333
2.0561	2.9289	3.7933	3.915	5.1025	7.0915	6.2145	5.7949	7.4818	5.4424	6.7223	7.3097	4.385	-1.7498	1.0616	-3.8479	3.4492	1.4519	4.2213	1.2253	4.6494
1.9512	2.8282	3.6758	3.8395	5.0102	6.9572	6.1138	5.6816	7.3055	5.3795	6.5334	7.1167	4.2423	-1.7498	1.0281	-4.0409	3.4618	1.4141	4.1794	1.2085	4.5444
1.8673	2.7485	3.5583	3.7891	4.9347	6.8314	6.0425	5.5977	7.1587	5.2662	6.3866	6.9363	4.1458	-1.7708	0.9777	-4.213	3.5164	1.4015	4.1206	1.1917	4.4479
1.8211	2.7569	3.4954	3.6926	4.8801	6.7181	5.9544	5.497	7.0244	5.1949	6.2607	6.7726	3.9948	-1.7792	1.0281	-4.2885	3.5248	1.3763	4.1248	1.1791	4.3682
1.7288	2.7107	3.4031	3.6255	4.8088	6.6006	5.8537	5.434	6.8859	5.0858	6.1516	6.5964	3.8437	-1.8002	1.0113	-4.3472	3.5667	1.3344	4.108	1.1539	4.2843
1.6323	2.652	3.2856	3.5248	4.7501	6.4957	5.7487	5.3375	6.7432	5.006	6.0467	6.4243	3.7262	-1.8505	1.0406	-4.364	3.6465	1.3218	4.1248	1.1204	4.2675
1.5736	2.6016	3.1975	3.4534	4.7123	6.3908	5.6732	5.2872	6.6216	4.9599	5.9418	6.2691	3.6171	-1.8505	1.0448	-4.2927	3.6758	1.3134	4.129	1.1078	4.2465
1.5148	2.5639	3.1261	3.3569	4.6619	6.2984	5.5683	5.2368	6.5208	4.8592	5.8956	6.1516	3.487	-1.8673	1.0952	-4.2004	3.7178	1.326	4.1542	1.1036	4.2297
1.3805	2.5135	3.038	3.2478	4.6116	6.181	5.455	5.1487	6.3824	4.7836	5.8201	6.0005	3.3905	-1.8967	1.1707	-4.0577	3.764	1.3008	4.1542	1.0616	4.213
1.3596	2.5261	2.9961	3.1387	4.5906	6.1012	5.3627	5.1403	6.2901	4.6913	5.7781	5.8872	3.3234	-1.9051	1.2001	-3.8982	3.7556	1.347	4.213	1.049	4.213
1.263	2.5051	2.9079	3.0254	4.5654	6.0509	5.2662	5.1067	6.1726	4.62	5.6942	5.7487	3.2059	-1.9009	1.2505	-3.7052	3.7682	1.3428	4.2381	1.0281	4.1962
1.1581	2.4464	2.803	2.9205	4.5025	5.9376	5.1697	5.0186	6.0635	4.5193	5.6187	5.6396	3.1052	-1.9135	1.2672	-3.4828	3.7849	1.3302	4.2381	0.9861	4.1626
1.091	2.4212	2.7317	2.8114	4.4731	5.8998	5.0774	5.006	5.9837	4.4605	5.5851	5.5305	3.0422	-1.9176	1.3008	-3.273	3.7766	1.347	4.2297	0.9777	4.129
1.0448	2.4464	2.6814	2.7107	4.4731	5.8704	5.0144	4.9809	5.8956	4.3892	5.5557	5.4382	3.0045	-1.8757	1.3596	-3.0212	3.7304	1.3973	4.2465	0.9819	4.1122
0.9819	2.3918	2.61	2.5974	4.4353	5.7991	4.9011	4.9641	5.8285	4.3095	5.5054	5.3543	2.9331	-1.8799	1.3889	-2.845	3.7136	1.4141	4.2507	0.9987	4.0829
0.9148	2.3876	2.5555	2.4841	4.4353	5.7571	4.8424	4.9305	5.7446	4.2423	5.4886	5.2998	2.8912	-1.8463	1.3931	-2.6939	3.6591	1.4561	4.2423	1.0071	4.0745
0.8183	2.3624	2.4883	2.396	4.4228	5.7194	4.7459	4.9053	5.7068	4.2088	5.497	5.1865	2.845	-1.8463	1.3931	-2.5261	3.6297	1.5022	4.2549	1.0029	4.0955
0.7847	2.3666	2.4044	2.3037	4.4018	5.6816	4.6745	4.8927	5.6564	4.1542	5.4634	5.1403	2.8072	-1.8002	1.3721	-2.4422	3.5709	1.5484	4.2759	1.0323	4.0661
0.6798	2.3205	2.3666	2.1946	4.385	5.6396	4.6032	4.8676	5.5851	4.0451	5.476	5.069	2.7527	-1.7876	1.3302	-2.3834	3.529	1.5736	4.2801	1.0155	4.0871
0.5665	2.3205	2.2575	2.0729	4.3556	5.5641	4.4983	4.834	5.4928	3.9822	5.4844	4.9725	2.6688	-1.7666	1.284	-2.3666	3.4954	1.582	4.2549	0.9903	4.1164
0.4868	2.2911	2.1778	1.9638	4.343	5.497	4.4395	4.8298	5.4298	3.9066	5.497	4.9347	2.6394	-1.7582	1.1917	-2.3876	3.4702	1.6071	4.2465	0.9777	4.1248
0.3902	2.2953	2.0645	1.8589	4.3053	5.4466	4.3262	4.8004	5.3711	3.7807	5.5054	4.8424	2.5555	-1.733	1.1497	-2.396	3.4325	1.5945	4.2507	0.9315	4.1458
0.2811	2.2617	1.989	1.7666	4.2759	5.3711	4.2171	4.7752	5.304	3.7136	5.5264	4.792	2.4799	-1.7162	1.0868	-2.4044	3.3989	1.5987	4.2507	0.9106	4.1374
0.193	2.2408	1.926	1.6869	4.2633	5.3123	4.1458	4.7794	5.2326	3.6465	5.5389	4.7249	2.4422	-1.7078	1.0323	-2.4212	3.3737	1.6155	4.2591	0.8812	4.171
0.1301	2.2449	1.8295	1.5945	4.2213	5.2662	4.0703	4.7459	5.1571	3.529	5.5809	4.6703	2.3415	-1.6994	0.9567	-2.4548	3.3611	1.5945	4.2465	0.8266	4.1752
0.042	2.2156	1.7582	1.5316	4.2046	5.1697	3.957	4.7459	5.0858	3.4576	5.5683	4.599	2.2911	-1.6785	0.9483	-2.4506	3.3318	1.582	4.213	0.7763	4.129
-0.0168	2.1694	1.6953	1.4687	4.1374	5.1319	3.8857	4.7249	5.0396	3.3779	5.5809	4.5654	2.2491	-1.6785	0.8602	-2.5009	3.3192	1.5568	4.2088	0.7175	4.15
-0.1091	2.2072	1.6071	1.3973	4.1122	5.0774	3.8101	4.7039	4.9892	3.2856	5.5893	4.5151	2.203	-1.6533	0.8015	-2.5513	3.2814	1.5232	4.171	0.7092	4.1332
-0.193	2.161	1.5526	1.3344	4.0829	5.0144	3.7262	4.6535	4.9137	3.231	5.5641	4.4563	2.14	-1.6533	0.7092	-2.652	3.2604	1.5148	4.1332	0.6252	4.0997
-0.2937	2.1233	1.4812	1.2756	4.0325	4.9515	3.6549	4.6242	4.8634	3.1471	5.5851	4.4144	2.1023	-1.6071	0.6084	-2.7695	3.2143	1.4938	4.0703	0.5917	4.0829
-0.3777	2.1065	1.4309	1.2211	3.9696	4.8969	3.5961	4.599	4.7962	3.1052	5.5683	4.3556	2.0687	-1.6113	0.4826	-2.9289	3.1807	1.4812	4.0283	0.5287	4.0451
-0.47	2.0687	1.3889	1.1749	3.9444	4.8382	3.5164	4.5654	4.7375	3.0254	5.5473	4.3179	1.9932	-1.5903	0.3609	-3.0926	3.1471	1.4393	3.9738	0.4784	4.0115
-0.5329	2.0687	1.3134	1.1246	3.9024	4.7459	3.4492	4.5486	4.6871	2.9667	5.5431	4.2969	1.968	-1.5694	0.2602	-3.294	3.1219	1.4099	3.9108	0.4238	3.957
-0.6504	2.0016	1.2421	1.0323	3.8395	4.6997	3.336	4.5025	4.5864	2.8744	5.5012	4.2465	1.8841	-1.5652	0.1007	-3.5038	3.1219	1.3302	3.8647	0.3105	3.9234
-0.7511	1.947	1.1917	0.9525	3.8059	4.6032	3.2604	4.4437	4.5277	2.803	5.497	4.1794	1.8085	-1.5862	0.042	-3.7052	3.1261	1.2882	3.8395	0.2308	3.8731
-0.8224	1.9135	1.1204	0.877	3.7262	4.5361	3.1597	4.3892	4.406	2.7275	5.4634	4.0913	1.7036	-1.5903	-0.0042	-3.894	3.1303	1.2211	3.7472	0.1511	3.8395
-0.919	1.8715	1.0532	0.8057	3.7052	4.4479	3.0884	4.3472	4.3346	2.652	5.4173	4.0493	1.6365	-1.5903	-0.1217	-4.0577	3.1471	1.1456	3.7178	0.0923	3.7724
-0.9903	1.8127	1.0197	0.7469	3.6633	4.3892	3.0003	4.2969	4.2717	2.5974	5.3963	3.9864	1.5442	-1.6029	-0.1511	-4.2255	3.1597	1.0658	3.6758	-0.0336	3.7682
-1.0742	1.7582	0.9567	0.6546	3.5877	4.2969	2.887	4.2423	4.1794	2.4799	5.3921	3.9444	1.4309	-1.6281	-0.1888	-4.3892	3.1849	0.9735	3.6339	-0.1343	3.7136
-1.1162	1.6994	0.9441	0.6084	3.5458	4.2465	2.803	4.2171	4.1206	2.4086	5.3669	3.8898	1.347	-1.6197	-0.2098	-4.5319	3.2017	0.9064	3.6255	-0.2182	3.6758
-1.1456	1.6533	0.898	0.5455	3.5206	4.2088	2.7485	4.171	4.0535	2.3247	5.3249	3.8269	1.2421	-1.6155	-0.1972	-4.6577	3.2059	0.8183	3.5961	-0.3189	3.6674
-1.1791	1.6533	0.8812	0.4826	3.4954	4.1458	2.6604	4.1374	4.0241	2.2827	5.3459	3.8563	1.2043	-1.6197	-0.1804	-4.8004	3.2017	0.8015	3.5542	-0.3693	3.6758
-1.2169	1.6071	0.856	0.4112	3.4744	4.108	2.6016	4.108	3.9612	2.2408	5.3417	3.8101	1.1497	-1.6365	-0.172	-4.9221	3.2059	0.7217	3.55	-0.4616	3.6297
-1.2211	1.6029	0.8728	0.386	3.4744	4.0913	2.589	4.1122	3.9654	2.2156	5.3459	3.8269	1.1204	-1.6113	-0.1427	-5.0858	3.1975	0.705	3.55	-0.5035	3.6381
-1.2295	1.5694	0.8308	0.3609	3.4367	4.0787	2.5135	4.0661	3.9234	2.1778	5.3082	3.7933	1.0532	-1.6155	-0.1133	-5.1907	3.1891	0.6294	3.5458	-0.5539	3.5961
-1.2337	1.5568	0.8728	0.3189	3.4157	4.0661	2.4967	4.0745	3.915	2.1736	5.3082	3.7975	1.0742	-1.6113	-0.1049	-5.3123	3.1807	0.6168	3.529	-0.6001	3.5961
-1.2253	1.5358	0.8728	0.2728	3.4325	4.0871	2.4548	4.0745	3.9108	2.1317	5.3165	3.7849	1.0406	-1.5987	-0.0797	-5.4298	3.1723	0.6001	3.5122	-0.6294	3.5583
-1.1959	1.5148	0.877	0.2518	3.4115	4.0535	2.4212	4.0409	3.8647	2.0813	5.2998	3.7766	1.0155	-1.5903	-0.0252	-5.518	3.1513	0.5497	3.4912	-0.6798	3.5122
-1.1875	1.5316	0.9148	0.2518	3.4157	4.0409	2.4338	4.0535	3.8437	2.0729	5.2662	3.7514	1.0071	-1.5736	0.0168	-5.5893	3.1219	0.5413	3.5122	-0.6798	3.487
-1.2085	1.5316	0.919	0.2266	3.3569	3.9906	2.3792	4.0031	3.7975	2.0226	5.2452	3.7304	0.9735	-1.5484	0.0587	-5.648	3.0926	0.5413	3.4954	-0.7092	3.4115
-1.1665	1.5232	0.9525	0.2056	3.3443	3.9864	2.375	3.9738	3.7891	2.01	5.2158	3.7094	0.9357	-1.5568	0.1301	-5.6774	3.0716	0.4951	3.4912	-0.7092	3.3863
-1.1497	1.5568	0.9861	0.1637	3.3234	3.957	2.3373	3.9192	3.722	1.9554	5.1697	3.6674	0.856	-1.5568	0.193	-5.6984	3.0632	0.47	3.4451	-0.7217	3.3443
-1.133	1.5652	1.0365	0.1804	3.336	3.9528	2.3331	3.915	3.7178	1.926	5.1193	3.5877	0.8099	-1.5274	0.2644	-5.6858	3.0338	0.449	3.466	-0.7721	3.2898
-1.0742	1.5736	1.0365	0.1846	3.2898	3.9192	2.2995	3.8731	3.6465	1.8715	5.09	3.5206	0.7385	-1.5358	0.3399	-5.6438	3.0464	0.3986	3.4451	-0.7721	3.2352
-1.0532	1.6155	1.0994	0.193	3.2604	3.8689	2.2869	3.8185	3.5961	1.8253	5.027	3.4618	0.642	-1.54	0.4238	-5.6019	3.0506	0.3525	3.4618	-0.7847	3.1975
-0.9693	1.6365	1.1288	0.2098	3.2814	3.8395	2.2575	3.7766	3.529	1.7246	4.985	3.3611	0.5539	-1.5358	0.47	-5.5222	3.0506	0.2979	3.466	-0.8141	3.1849
-0.919	1.6659	1.1665	0.235	3.2772	3.8017	2.2533	3.7514	3.4786	1.7078	4.9263	3.3066	0.4784	-1.54	0.5455	-5.4005	3.059	0.2392	3.4492	-0.8141	3.1639
-0.8183	1.7204	1.2547	0.2644	3.2814	3.7891	2.2533	3.6842	3.4534	1.6701	4.8759	3.2478	0.4238	-1.5484	0.6294	-5.2872	3.0674	0.2014	3.4954	-0.8476	3.1597
-0.7637	1.7498	1.3134	0.2853	3.2562	3.7598	2.2156	3.6633	3.3863	1.6071	4.813	3.1178	0.2769	-1.5652	0.6756	-5.1739	3.1052	0.1259	3.466	-0.877	3.1136
-0.7008	1.8127	1.3512	0.3567	3.2772	3.7262	2.2324	3.6255	3.3443	1.5358	4.7501	3.0296	0.2056	-1.5903	0.7679	-5.0522	3.1387	0.0462	3.4786	-0.9064	3.0716
-0.6126	1.8883	1.4519	0.407	3.2646	3.7094	2.2282	3.5751	3.2856	1.5106	4.6955	2.9709	0.1637	-1.6029	0.8434	-4.9053	3.1639	0.0252	3.4618	-0.9148	3.0254
-0.5413	1.9386	1.4896	0.4658	3.2604	3.7136	2.2366	3.5038	3.231	1.4938	4.6158	2.8702	0.0755	-1.6029	0.9441	-4.813	3.1933	-0.0378	3.466	-0.919	2.9793
-0.4364	1.989	1.5442	0.5203	3.2898	3.6758	2.2366	3.4828	3.2185	1.4561	4.5654	2.7779	-0.0126	-1.6239	1.0239	-4.7249	3.2143	-0.0671	3.4367	-0.9483	2.9289
-0.3651	2.0813	1.6029	0.5707	3.3024	3.6381	2.2449	3.4534	3.1723	1.4057	4.427	2.6855	-0.1049	-1.6281	1.1623	-4.578	3.2269	-0.1007	3.4409	-0.9567	2.8702
-0.3105	2.1023	1.6113	0.6001	3.2772	3.5919	2.1988	3.3779	3.101	1.3638	4.2885	2.5597	-0.2056	-1.6617	1.2714	-4.5025	3.273	-0.1846	3.3989	-1.0197	2.7401
-0.2728	2.1442	1.6407	0.6168	3.2898	3.5793	2.203	3.3066	3.0464	1.3092	4.171	2.4338	-0.2853	-1.6743	1.347	-4.4395	3.2982	-0.2392	3.3695	-1.0448	2.6562
-0.2392	2.1694	1.6407	0.6168	3.2688	3.5164	2.1652	3.2604	2.9625	1.2756	4.0325	2.2827	-0.407	-1.7078	1.4351	-4.3766	3.3527	-0.3105	3.3066	-1.091	2.5764
-0.1846	2.1988	1.6155	0.6336	3.2478	3.4492	2.1107	3.1639	2.866	1.1791	3.8982	2.1484	-0.5287	-1.7162	1.5148	-4.3179	3.3737	-0.3609	3.2688	-1.1372	2.4841
-0.2224	2.1946	1.6113	0.5959	3.2269	3.3695	2.0351	3.0632	2.7653	1.0952	3.7304	2.0016	-0.6924	-1.7372	1.5862	-4.2633	3.4325	-0.428	3.1975	-1.1875	2.3666
-0.235	2.2072	1.5358	0.5623	3.1765	3.2772	1.9764	2.9583	2.6688	0.9945	3.5667	1.8421	-0.8308	-1.7498	1.6365	-4.2088	3.4744	-0.4784	3.1429	-1.2547	2.2491
-0.2434	2.1946	1.5148	0.5581	3.1387	3.2059	1.9009	2.8786	2.5345	0.9148	3.3779	1.6743	-0.9693	-1.7708	1.6617	-4.129	3.4954	-0.5539	3.0884	-1.3092	2.1317
-0.2728	2.1694	1.4435	0.4951	3.0716	3.1094	1.796	2.7653	2.4086	0.8015	3.2101	1.5106	-1.1288	-1.7834	1.7162	-4.0451	3.5206	-0.6294	3.0003	-1.3805	2.0058
-0.3357	2.1568	1.3763	0.4322	3.0422	3.0045	1.6785	2.6562	2.2575	0.6756	3.0296	1.3428	-1.3092	-1.7918	1.7078	-3.9696	3.5248	-0.7008	2.9163	-1.4645	1.9009
-0.407	2.1233	1.2337	0.3567	2.9709	2.9079	1.6113	2.5555	2.1149	0.5623	2.845	1.1623	-1.4519	-1.7792	1.7246	-3.8898	3.529	-0.7721	2.8114	-1.5274	1.754
-0.4448	2.1023	1.2043	0.3063	2.9121	2.824	1.4854	2.4212	1.989	0.449	2.6436	0.9987	-1.6113	-1.7834	1.7246	-3.8479	3.5206	-0.8392	2.6981	-1.5903	1.5903
-0.5245	2.0435	1.091	0.2476	2.8408	2.7149	1.3805	2.3457	1.8631	0.3273	2.4715	0.8392	-1.754	-1.775	1.6869	-3.7975	3.4954	-0.8812	2.5932	-1.6701	1.4477
-0.5875	1.9932	0.9987	0.1637	2.7233	2.6016	1.2798	2.1988	1.7246	0.2098	2.2785	0.684	-1.8757	-1.7624	1.6911	-3.7766	3.487	-0.9693	2.4967	-1.7498	1.2966
-0.6336	1.947	0.8854	0.1133	2.6897	2.5135	1.1539	2.0771	1.582	0.0755	2.0897	0.5245	-2.0226	-1.7708	1.6449	-3.7849	3.4996	-1.0281	2.3834	-1.7792	1.1162
-0.7133	1.8757	0.8099	0.0629	2.6142	2.4338	1.0784	1.9596	1.4854	0	1.9218	0.3986	-2.1317	-1.7582	1.6029	-3.8353	3.4702	-1.0448	2.2743	-1.8127	0.9777
-0.8057	1.8253	0.7343	-0.0126	2.5261	2.354	0.9819	1.8673	1.3763	-0.1133	1.733	0.2895	-2.2533	-1.733	1.582	-3.8982	3.4283	-1.1036	2.161	-1.8631	0.8266
-0.9232	1.733	0.6084	-0.0797	2.417	2.2408	0.877	1.754	1.2756	-0.1846	1.5903	0.1762	-2.3079	-1.7078	1.4938	-3.978	3.3821	-1.1078	2.0393	-1.9009	0.6588
-0.9861	1.6785	0.5119	-0.1385	2.3624	2.203	0.8183	1.6575	1.1917	-0.2434	1.4309	0.1007	-2.3331	-1.6743	1.4309	-4.0955	3.3234	-1.0952	1.947	-1.9051	0.5371
-1.0742	1.5778	0.4322	-0.2308	2.2659	2.14	0.7259	1.5526	1.0868	-0.3021	1.2924	-0.0336	-2.4338	-1.6659	1.3512	-4.2423	3.2814	-1.1372	1.8379	-1.9344	0.3902
-1.2085	1.4854	0.3105	-0.2979	2.1652	2.0519	0.6504	1.4812	1.0239	-0.4028	1.1917	-0.1217	-2.4841	-1.6281	1.2127	-4.4479	3.2394	-1.1246	1.7372	-1.9554	0.2602
-1.3008	1.4225	0.2476	-0.3986	2.1065	1.9764	0.5707	1.3763	0.9315	-0.4322	1.0574	-0.1678	-2.5261	-1.6197	1.1036	-4.6158	3.1933	-1.112	1.6281	-1.9302	0.1469
-1.3973	1.3512	0.1553	-0.491	2.0184	1.9218	0.5371	1.2756	0.8518	-0.4616	0.9735	-0.2308	-2.5471	-1.5862	1.0113	-4.8424	3.1261	-1.1036	1.5736	-1.9218	0.0546
-1.5232	1.2421	0.0546	-0.5539	1.8925	1.8253	0.4322	1.1875	0.7931	-0.5203	0.8476	-0.2979	-2.5639	-1.5652	0.9064	-5.0983	3.101	-1.112	1.4896	-1.947	-0.0336
-1.6029	1.1372	-0.0126	-0.6462	1.8295	1.7708	0.386	1.1623	0.7469	-0.5329	0.8057	-0.3063	-2.6058	-1.5316	0.7637	-5.3921	3.0338	-1.091	1.4393	-1.9176	-0.1007
-1.6827	1.07	-0.0923	-0.7175	1.7582	1.6869	0.3357	1.0784	0.6882	-0.5245	0.7343	-0.3735	-2.6352	-1.5148	0.6798	-5.6313	3.0128	-1.0742	1.3763	-1.9009	-0.1595
-1.733	1.0029	-0.1427	-0.7889	1.6994	1.6701	0.3189	1.0658	0.6546	-0.5329	0.7175	-0.386	-2.6184	-1.5106	0.6126	-5.8998	2.9793	-1.0574	1.3386	-1.9009	-0.214
-1.8337	0.9441	-0.214	-0.8224	1.6533	1.6029	0.2853	1.0029	0.642	-0.5287	0.7008	-0.3986	-2.5974	-1.5022	0.5455	-6.1054	2.9625	-1.0281	1.2756	-1.8883	-0.235
-1.8589	0.8854	-0.235	-0.8602	1.6071	1.561	0.2728	0.9903	0.621	-0.5077	0.7217	-0.3819	-2.5597	-1.4938	0.5203	-6.2901	2.9457	-1.0029	1.2547	-1.8337	-0.2476
-1.8841	0.835	-0.2769	-0.877	1.561	1.5442	0.3063	0.9735	0.6252	-0.4574	0.7259	-0.3273	-2.4883	-1.4729	0.5119	-6.4117	2.9247	-0.9777	1.2169	-1.8337	-0.2518
-1.8883	0.8392	-0.2853	-0.8686	1.582	1.5568	0.3189	0.9819	0.6588	-0.3777	0.7511	-0.2811	-2.4296	-1.4812	0.5203	-6.5712	2.9163	-0.9357	1.2043	-1.754	-0.2098
-1.8925	0.7763	-0.3063	-0.877	1.5064	1.5064	0.3315	0.9525	0.6588	-0.3357	0.7553	-0.2434	-2.396	-1.4896	0.5203	-6.6887	2.9289	-0.8896	1.1833	-1.733	-0.2392
-1.9135	0.7679	-0.3315	-0.898	1.498	1.5022	0.3777	0.9609	0.6672	-0.2895	0.8015	-0.2014	-2.3163	-1.4771	0.5203	-6.7139	2.9205	-0.856	1.1791	-1.6827	-0.2644
-1.9051	0.7259	-0.3441	-0.8644	1.5064	1.5064	0.4364	0.9651	0.7008	-0.1972	0.8392	-0.1301	-2.2198	-1.4645	0.5413	-6.802	2.9205	-0.7763	1.1623	-1.6029	-0.2266
-1.8799	0.7469	-0.3441	-0.8728	1.498	1.5148	0.4574	0.9567	0.6966	-0.1385	0.8518	-0.1007	-2.1442	-1.4854	0.5707	-6.802	2.9247	-0.7637	1.1665	-1.582	-0.235
-1.8673	0.7133	-0.3441	-0.8644	1.4854	1.5148	0.5287	0.9441	0.7469	-0.042	0.8602	-0.0378	-2.0813	-1.4729	0.6126	-6.8398	2.9205	-0.7133	1.1497	-1.5232	-0.2434
-1.8799	0.7175	-0.3567	-0.8434	1.4435	1.4645	0.5581	0.9148	0.7637	-0.0042	0.9022	-0.0126	-2.0226	-1.4896	0.6168	-6.8314	2.9499	-0.6882	1.0994	-1.4812	-0.256
-1.8799	0.7385	-0.3693	-0.8224	1.4309	1.4687	0.5959	0.9483	0.7973	0.0629	0.9483	0.042	-1.9932	-1.4854	0.6714	-6.823	2.9499	-0.663	1.112	-1.4309	-0.2686
-1.8841	0.7343	-0.3651	-0.7889	1.4393	1.4812	0.642	0.9651	0.8434	0.1511	0.9735	0.0923	-1.9218	-1.4812	0.7217	-6.76	2.9499	-0.6504	1.1162	-1.4015	-0.2686
-1.9009	0.7511	-0.3944	-0.8141	1.4225	1.4183	0.6294	0.9651	0.8015	0.1511	0.9861	0.1007	-1.9176	-1.4938	0.7133	-6.7936	2.9877	-0.6504	1.112	-1.4225	-0.2769
-1.8967	0.7511	-0.407	-0.8057	1.4225	1.4225	0.6588	0.9987	0.8141	0.1804	1.0406	0.1343	-1.926	-1.5106	0.7637	-6.7558	3.017	-0.7092	1.0826	-1.4057	-0.2853
-1.9093	0.7721	-0.4322	-0.8224	1.3931	1.4015	0.6294	1.0071	0.8015	0.1804	1.0742	0.1427	-1.9428	-1.5484	0.8057	-6.7348	3.0716	-0.7637	1.1078	-1.4309	-0.2602
-1.947	0.7721	-0.4658	-0.8476	1.3931	1.3218	0.621	0.9819	0.7763	0.1385	1.0994	0.1259	-1.9806	-1.582	0.7763	-6.7684	3.1387	-0.8141	1.091	-1.4729	-0.2769
-1.9596	0.7931	-0.4742	-0.8602	1.3847	1.3134	0.5707	1.0071	0.7805	0.1385	1.1246	0.1301	-2.0184	-1.6155	0.8183	-6.7432	3.1975	-0.8812	1.1162	-1.519	-0.2769
-1.9848	0.835	-0.4826	-0.8812	1.3805	1.2379	0.5329	1.0365	0.7973	0.1259	1.1791	0.1259	-2.0393	-1.6407	0.8099	-6.7978	3.2478	-0.9819	1.1372	-1.5526	-0.2518
-1.9764	0.835	-0.4951	-0.898	1.3889	1.2253	0.5119	1.0365	0.7931	0.0713	1.2085	0.1133	-2.1023	-1.6911	0.835	-6.8439	3.3485	-1.0616	1.1581	-1.6281	-0.2644
-1.989	0.877	-0.5161	-0.9022	1.3847	1.2463	0.4616	1.112	0.7889	0.0546	1.2589	0.1469	-2.1233	-1.7204	0.8518	-6.8733	3.4073	-1.1497	1.1749	-1.6869	-0.2476
-1.9596	0.9315	-0.4616	-0.8854	1.4267	1.2085	0.4574	1.1497	0.8308	0.0755	1.2924	0.1678	-2.1484	-1.7582	0.8476	-6.8901	3.4786	-1.2295	1.2169	-1.7498	-0.193
-1.9218	0.9819	-0.4448	-0.8896	1.4519	1.2211	0.4448	1.2001	0.8476	0.0252	1.3596	0.1888	-2.1526	-1.8044	0.835	-6.9321	3.5835	-1.3134	1.2253	-1.8127	-0.1972
-1.8883	1.0197	-0.3819	-0.8644	1.5232	1.2169	0.4322	1.2547	0.856	0.0294	1.4141	0.2098	-2.1526	-1.8673	0.8015	-6.9866	3.6842	-1.3805	1.263	-1.8673	-0.1804
-1.8337	1.07	-0.3651	-0.8266	1.5442	1.2169	0.3944	1.305	0.8896	0.0378	1.4603	0.235	-2.1736	-1.8925	0.7805	-6.995	3.7472	-1.4267	1.3344	-1.9302	-0.1343
-1.8085	1.1288	-0.3231	-0.8476	1.5945	1.263	0.3651	1.368	0.9106	0.0042	1.498	0.2644	-2.161	-1.947	0.7259	-7.0538	3.8437	-1.5232	1.3931	-1.9974	-0.1007
-1.7876	1.1497	-0.3231	-0.8518	1.6113	1.2547	0.3273	1.3889	0.919	-0.0336	1.5232	0.2602	-2.2114	-1.9848	0.6672	-7.1335	3.9234	-1.6155	1.4309	-2.0897	-0.0797
-1.7498	1.2001	-0.2811	-0.835	1.6365	1.263	0.2811	1.4267	0.9315	-0.042	1.5652	0.2266	-2.2617	-2.0393	0.5875	-7.2258	4.0157	-1.712	1.4603	-2.1778	-0.0504
-1.7162	1.2505	-0.2811	-0.8266	1.712	1.2421	0.2602	1.4561	0.9064	-0.0881	1.582	0.214	-2.3163	-2.0645	0.4993	-7.3097	4.0829	-1.7834	1.5316	-2.2449	-0.0084
-1.712	1.2714	-0.2728	-0.8686	1.7288	1.2211	0.2014	1.5274	0.8896	-0.1427	1.6365	0.2014	-2.3624	-2.1107	0.4448	-7.423	4.1584	-1.8757	1.5736	-2.3247	0.0126
-1.7078	1.2966	-0.2602	-0.8854	1.733	1.1665	0.1427	1.5274	0.8434	-0.214	1.6281	0.1469	-2.4506	-2.14	0.3651	-7.5237	4.2297	-1.9596	1.6239	-2.4212	0.0755
-1.7078	1.2798	-0.2937	-0.9274	1.7456	1.1372	0.0504	1.5274	0.7469	-0.3231	1.6365	0.1007	-2.5471	-2.1778	0.2476	-7.6874	4.3095	-2.0813	1.6953	-2.5261	0.0881
-1.7708	1.2672	-0.3441	-1.0365	1.7372	1.0574	-0.0378	1.5232	0.7343	-0.4364	1.6659	0.0629	-2.6772	-2.2198	0.1553	-7.8426	4.3766	-2.1862	1.733	-2.6268	0.1469
-1.7876	1.2589	-0.3902	-1.0868	1.754	1.0197	-0.1217	1.5526	0.6462	-0.5203	1.6449	-0.0168	-2.7527	-2.2449	0.0881	-7.9895	4.4312	-2.2659	1.8127	-2.7149	0.193
-1.8085	1.2295	-0.449	-1.1707	1.7624	0.9441	-0.1846	1.54	0.5875	-0.6001	1.6701	-0.0839	-2.8702	-2.2617	0	-8.1364	4.4605	-2.3708	1.8505	-2.845	0.2476
-1.9051	1.1581	-0.5413	-1.2798	1.7246	0.8518	-0.3399	1.4603	0.4574	-0.7385	1.6239	-0.1972	-3.0087	-2.2743	-0.1301	-8.2958	4.5277	-2.4799	1.8589	-2.9751	0.2686
-1.9428	1.1288	-0.621	-1.3638	1.6827	0.7553	-0.4238	1.4477	0.3609	-0.8686	1.5862	-0.2644	-3.1429	-2.3037	-0.1511	-8.4385	4.5528	-2.6226	1.9176	-3.1178	0.2979
-2.0226	1.0616	-0.7175	-1.4854	1.6197	0.6714	-0.5791	1.4141	0.235	-0.9735	1.5484	-0.3693	-3.3024	-2.3205	-0.214	-8.5602	4.5864	-2.7485	1.9218	-3.2646	0.3315
-2.0771	0.9903	-0.8099	-1.5945	1.5694	0.5581	-0.663	1.3847	0.1427	-1.112	1.5148	-0.4532	-3.4115	-2.3289	-0.235	-8.6105	4.6158	-2.8366	1.9512	-3.3653	0.3525
-2.14	0.9232	-0.9022	-1.6994	1.4896	0.449	-0.7763	1.3176	0.0084	-1.2379	1.4267	-0.5791	-3.5542	-2.3499	-0.2644	-8.6441	4.6494	-2.9625	1.9428	-3.4451	0.3315
-2.1736	0.8476	-0.9987	-1.8337	1.4351	0.3357	-0.8812	1.2589	-0.1259	-1.3721	1.3596	-0.6714	-3.6926	-2.354	-0.2518	-8.6105	4.6619	-3.0632	1.9638	-3.55	0.3441
-2.2282	0.8141	-1.0742	-1.9176	1.368	0.2644	-1.0155	1.1833	-0.2182	-1.4561	1.3008	-0.7637	-3.8017	-2.3457	-0.2266	-8.5182	4.6661	-3.1723	1.9344	-3.6297	0.3567
-2.2324	0.7469	-1.1539	-2.0142	1.3008	0.1762	-1.1078	1.1372	-0.3105	-1.5526	1.2211	-0.8434	-3.915	-2.3499	-0.1091	-8.3714	4.6577	-3.2269	1.9386	-3.701	0.3609
-2.2282	0.684	-1.2127	-2.1065	1.2421	0.0713	-1.1833	1.0574	-0.4616	-1.6407	1.1539	-0.9651	-4.0325	-2.354	0	-8.1573	4.6535	-3.315	1.9302	-3.7346	0.3525
-2.2408	0.6798	-1.2589	-2.1652	1.1833	-0.0252	-1.2379	0.9735	-0.5497	-1.712	1.0742	-1.0155	-4.1206	-2.3331	0.1427	-7.9559	4.6368	-3.3569	1.9344	-3.7556	0.3441
-2.1862	0.6504	-1.3092	-2.2366	1.1246	-0.1049	-1.3008	0.9148	-0.6462	-1.7792	0.9735	-1.1372	-4.2255	-2.3457	0.2769	-7.7126	4.62	-3.4157	1.9051	-3.7891	0.3273
-2.1778	0.6126	-1.3386	-2.2827	1.0448	-0.1846	-1.4015	0.8183	-0.7637	-1.8463	0.8854	-1.2211	-4.343	-2.3373	0.4364	-7.4608	4.6116	-3.4534	1.8631	-3.8269	0.3063
-2.1191	0.5917	-1.3554	-2.3079	0.9945	-0.2308	-1.4225	0.7679	-0.8224	-1.8967	0.8183	-1.2798	-4.4018	-2.3205	0.6336	-7.188	4.599	-3.4702	1.8421	-3.7891	0.2895
-2.0477	0.6042	-1.3805	-2.3289	0.9651	-0.2686	-1.4309	0.7259	-0.9064	-1.9135	0.7553	-1.3763	-4.4773	-2.3037	0.8392	-6.953	4.5654	-3.4996	1.8253	-3.7933	0.2937
-1.9638	0.6378	-1.3638	-2.3289	0.9399	-0.3147	-1.4771	0.6714	-0.9567	-1.9344	0.6756	-1.4225	-4.5486	-2.2995	1.049	-6.6761	4.5403	-3.5248	1.8085	-3.7891	0.2937
-1.8757	0.6252	-1.3386	-2.3331	0.8812	-0.3273	-1.5022	0.6294	-0.9903	-1.9596	0.5959	-1.4519	-4.5948	-2.2995	1.2756	-6.4243	4.5277	-3.5416	1.7834	-3.7598	0.2895
-1.7582	0.6504	-1.3302	-2.3205	0.8854	-0.3315	-1.4729	0.6084	-1.0029	-1.9176	0.5833	-1.498	-4.641	-2.2785	1.4938	-6.2229	4.4899	-3.55	1.7918	-3.7136	0.3273
-1.6785	0.6966	-1.2924	-2.2911	0.9064	-0.3357	-1.5022	0.5749	-1.0281	-1.9218	0.5245	-1.5106	-4.6703	-2.2743	1.712	-6.0425	4.4731	-3.5625	1.7666	-3.6926	0.3189
-1.5694	0.7553	-1.2463	-2.2366	0.9106	-0.3105	-1.4938	0.5581	-1.0113	-1.8883	0.4993	-1.5316	-4.6787	-2.2575	1.9512	-5.8872	4.4605	-3.55	1.7456	-3.6674	0.3231
-1.4645	0.8057	-1.2127	-2.2324	0.898	-0.3021	-1.4729	0.5497	-1.0239	-1.8757	0.4532	-1.5274	-4.6955	-2.2533	2.1317	-5.7823	4.4353	-3.5416	1.7414	-3.6381	0.3357
-1.3847	0.8476	-1.1623	-2.2114	0.9022	-0.2644	-1.4477	0.4993	-0.9987	-1.8379	0.3902	-1.5484	-4.7417	-2.2449	2.3499	-5.6984	4.4312	-3.5625	1.7078	-3.6045	0.3147
-1.3218	0.898	-1.1497	-2.2072	0.9274	-0.2518	-1.4561	0.4826	-0.9861	-1.8673	0.3231	-1.5778	-4.7417	-2.2408	2.4967	-5.6438	4.427	-3.5709	1.6785	-3.6045	0.2811
-1.1959	0.9315	-1.1036	-2.1652	0.9441	-0.2056	-1.4393	0.4658	-0.9819	-1.8295	0.2895	-1.6197	-4.7752	-2.2366	2.6939	-5.5977	4.406	-3.5751	1.6449	-3.5793	0.256
-1.1288	0.9861	-1.0574	-2.1862	0.9315	-0.1762	-1.4519	0.4196	-0.9777	-1.7918	0.2098	-1.6491	-4.7668	-2.2198	2.8114	-5.5557	4.3892	-3.5793	1.6113	-3.5709	0.1846
-0.9861	1.0532	-0.9861	-2.1107	0.9777	-0.1511	-1.4225	0.4028	-0.9399	-1.7876	0.1343	-1.6449	-4.7626	-2.1946	2.9709	-5.476	4.3346	-3.5667	1.5736	-3.5625	0.1385
-0.9232	1.0784	-0.9651	-2.1484	0.9693	-0.1301	-1.4351	0.3609	-0.9819	-1.8253	0.0252	-1.7288	-4.8172	-2.1862	3.0338	-5.4508	4.3514	-3.6339	1.4938	-3.5542	0.0462
-0.8518	1.1288	-0.9232	-2.1736	0.9525	-0.0881	-1.4561	0.3021	-0.9525	-1.8211	-0.0587	-1.7624	-4.8298	-2.182	3.1387	-5.4214	4.3137	-3.6381	1.4309	-3.5835	-0.0336
