"FZ"	"FC3"	"FCZ"	"FC4"	"C3"	"CZ"	"C4"	"CP3"	"CPZ"	"CP4"	"P3"	"PZ"	"P4"	"OZ"	"FP1"	"FP2"	"A2"	"P8"	"TP7"	"TP8"	"P7"	"VEOG"	"HEOG"
-0.5931	-0.0867	-0.1734	-0.1455	1.0351	0.5959	0.6126	1.7316	0.9707	1.298	2.417	1.4519	1.8519	0.4532	-0.9371	-0.7106	-0.8756	1.9554	1.0546	1.3456	1.354	-1.7316	0.6518
-0.5147	-0.0559	-0.0979	-0.0895	1.0295	0.621	0.6294	1.6757	0.9931	1.3316	2.3051	1.4435	1.8715	0.4728	-0.8728	-0.677	-0.9427	1.975	0.9847	1.3484	1.2868	-1.6785	0.6602
-0.4756	-0.0587	-0.0196	0.0168	0.9819	0.6798	0.7161	1.6281	1.0379	1.3707	2.2212	1.4435	1.8743	0.5007	-0.8616	-0.6574	-0.9819	1.9946	0.9064	1.3484	1.1973	-1.6169	0.6574
-0.386	-0.0112	0.0895	0.1147	0.9735	0.7385	0.7721	1.5862	1.0742	1.4407	2.1093	1.4771	1.9051	0.5315	-0.8113	-0.5959	-1.0351	2.0058	0.8504	1.3763	1.1246	-1.5498	0.6714
-0.2993	0.0112	0.1623	0.1734	0.9204	0.7777	0.8169	1.505	1.0826	1.4603	2.017	1.4631	1.8939	0.5511	-0.7553	-0.5483	-1.0434	1.9974	0.7861	1.3791	1.0574	-1.4994	0.649
-0.235	0.0532	0.2434	0.2965	0.8896	0.8476	0.8896	1.4435	1.1274	1.5078	1.9107	1.505	1.9023	0.5315	-0.7217	-0.4756	-1.0546	1.9806	0.7441	1.3819	0.9931	-1.4323	0.6434
-0.1231	0.1287	0.3357	0.4	0.87	0.8952	0.9679	1.3624	1.1833	1.5246	1.7904	1.5078	1.9079	0.5343	-0.6434	-0.3944	-1.0574	1.9442	0.6798	1.3987	0.9176	-1.3763	0.6518
-0.0252	0.1511	0.4336	0.4896	0.8085	0.9315	1.0043	1.2728	1.1833	1.533	1.6365	1.4715	1.8575	0.5231	-0.5903	-0.2993	-1.0295	1.8883	0.6126	1.3903	0.828	-1.326	0.6406
0.0587	0.193	0.5287	0.6042	0.7889	0.9959	1.0714	1.1749	1.2365	1.5302	1.4966	1.4603	1.8295	0.5091	-0.5119	-0.207	-1.0015	1.8463	0.5511	1.3652	0.7637	-1.2589	0.607
0.1427	0.2042	0.5819	0.649	0.7106	1.0211	1.0994	1.049	1.2477	1.533	1.3232	1.4519	1.796	0.4812	-0.4728	-0.165	-0.9399	1.7652	0.4756	1.326	0.677	-1.1749	0.5707
0.2294	0.221	0.6462	0.7273	0.6406	1.0462	1.1386	0.9455	1.2169	1.4938	1.1553	1.4211	1.7148	0.4532	-0.4028	-0.0727	-0.8756	1.6589	0.4364	1.2644	0.5959	-1.1078	0.5511
0.2909	0.2294	0.7217	0.7945	0.5735	1.0714	1.1581	0.842	1.2169	1.4631	0.9847	1.368	1.6113	0.4084	-0.3525	-0.0196	-0.8001	1.5638	0.3525	1.1917	0.5287	-1.0015	0.5203
0.3832	0.2686	0.7749	0.8504	0.5035	1.105	1.1861	0.7106	1.2141	1.4267	0.7805	1.3232	1.5498	0.3832	-0.2658	0.0392	-0.7301	1.4687	0.2993	1.1414	0.4364	-0.9148	0.4896
0.4364	0.2769	0.8308	0.912	0.4	1.1022	1.1917	0.5707	1.1889	1.3847	0.6015	1.2197	1.4099	0.3329	-0.2042	0.0923	-0.6406	1.3344	0.207	1.0686	0.3469	-0.8197	0.4448
0.5175	0.3357	0.8868	0.9427	0.3385	1.1246	1.2169	0.4588	1.1693	1.3344	0.4336	1.1693	1.312	0.3049	-0.1091	0.1427	-0.5763	1.2085	0.1455	1.0211	0.2574	-0.7245	0.4168
0.5735	0.3357	0.9204	0.9875	0.2658	1.091	1.1889	0.3021	1.1442	1.2728	0.2238	1.063	1.1861	0.2546	-0.0476	0.179	-0.4951	1.0658	0.0615	0.9567	0.1511	-0.635	0.3777
0.6406	0.3469	0.9511	1.0295	0.1567	1.091	1.2309	0.1539	1.0882	1.2057	0.014	0.9595	1.0211	0.2182	0.0364	0.1986	-0.4084	0.9148	0.0056	0.8812	0.0699	-0.5371	0.3441
0.677	0.3609	0.9791	1.0518	0.0559	1.0742	1.2113	0.0224	1.0267	1.105	-0.1902	0.8616	0.8812	0.1706	0.0895	0.2126	-0.3301	0.7581	-0.1035	0.7721	-0.0643	-0.4308	0.2965
0.7189	0.3749	0.9987	1.0798	-0.0168	1.0518	1.2225	-0.1147	0.9763	1.0351	-0.4084	0.7581	0.7413	0.1511	0.1567	0.2238	-0.2658	0.607	-0.1958	0.691	-0.1567	-0.3301	0.2658
0.7917	0.4	1.0406	1.0826	-0.0783	1.0267	1.2113	-0.2741	0.9064	0.9315	-0.5819	0.6378	0.607	0.1091	0.2518	0.2602	-0.207	0.3944	-0.2546	0.5847	-0.2853	-0.249	0.2322
0.8141	0.3888	1.0406	1.0938	-0.1762	1.0127	1.1805	-0.414	0.8364	0.828	-0.8085	0.5147	0.4224	0.0811	0.2825	0.2714	-0.1371	0.2406	-0.3497	0.4644	-0.414	-0.1623	0.193
0.8364	0.4028	1.0239	1.077	-0.2546	0.9763	1.1665	-0.5455	0.7469	0.7469	-1.0071	0.4196	0.2658	0.0587	0.3497	0.2937	-0.1035	0.0839	-0.4308	0.3357	-0.5287	-0.0979	0.1567
0.8812	0.428	1.0323	1.0938	-0.2993	0.9343	1.1386	-0.6546	0.6658	0.6658	-1.1917	0.3021	0.0951	0.0448	0.4196	0.3357	-0.0615	-0.0979	-0.484	0.179	-0.6378	-0.0476	0.1315
0.898	0.4588	1.0239	1.0938	-0.3553	0.9232	1.1162	-0.7497	0.5903	0.5763	-1.3624	0.193	-0.0532	0.0308	0.4896	0.3413	-0.0392	-0.2406	-0.5651	-0.0196	-0.7161	-0.014	0.0951
0.9288	0.4644	1.0267	1.0966	-0.3665	0.9148	1.0938	-0.8392	0.5287	0.5035	-1.5022	0.0923	-0.2042	0.0252	0.5259	0.3888	-0.0252	-0.3972	-0.6294	-0.1762	-0.8169	0.014	0.0783
0.9679	0.5007	1.0267	1.077	-0.3888	0.8924	1.077	-0.926	0.47	0.4168	-1.6617	-0.0308	-0.3441	0.0252	0.5735	0.4028	-0.014	-0.5315	-0.6742	-0.3525	-0.9092	0.0224	0.0867
0.9707	0.5231	1.0015	1.0882	-0.414	0.8756	1.063	-0.9903	0.414	0.3441	-1.8071	-0.1035	-0.4476	0.0168	0.6322	0.456	-0.0084	-0.6882	-0.7133	-0.5035	-1.0239	0.014	0.0867
1.0127	0.5679	1.0267	1.0882	-0.3916	0.8448	1.0546	-1.0379	0.3637	0.2825	-1.8939	-0.2014	-0.5819	0.0168	0.6686	0.4924	-0.0196	-0.8197	-0.7525	-0.6686	-1.0714	-0.0168	0.0979
1.0323	0.5987	1.0071	1.0938	-0.3581	0.8336	1.049	-1.0574	0.3245	0.221	-1.9974	-0.2658	-0.691	0.0224	0.7078	0.5315	-0.0224	-0.9232	-0.7609	-0.7973	-1.1218	-0.0504	0.1035
1.049	0.6434	1.0183	1.119	-0.3133	0.8476	1.0518	-1.0295	0.2965	0.1678	-2.0617	-0.3441	-0.7833	0.0252	0.7525	0.5819	-0.0308	-1.0602	-0.7665	-0.9427	-1.1833	-0.0783	0.1287
1.063	0.6686	1.0323	1.1246	-0.2518	0.8476	1.0602	-1.0183	0.2909	0.1343	-2.0925	-0.3777	-0.8644	0.028	0.7777	0.6434	-0.0336	-1.1525	-0.7721	-1.0043	-1.2309	-0.1371	0.1483
1.1022	0.7245	1.063	1.1693	-0.193	0.8672	1.077	-0.9791	0.2797	0.1147	-2.1149	-0.4028	-0.9176	0.042	0.8197	0.6854	-0.0643	-1.2113	-0.7693	-1.0826	-1.2449	-0.1818	0.1846
1.1525	0.8029	1.0742	1.2057	-0.0979	0.884	1.0966	-0.9232	0.2909	0.0979	-2.1233	-0.4196	-0.9567	0.0587	0.8504	0.7665	-0.0867	-1.2616	-0.7637	-1.091	-1.2589	-0.235	0.2154
1.1581	0.8141	1.1246	1.2421	-0.0112	0.9036	1.0994	-0.87	0.2853	0.0699	-2.1317	-0.4336	-0.9987	0.0643	0.8812	0.8029	-0.0895	-1.312	-0.7609	-1.0938	-1.2784	-0.2797	0.249
1.2057	0.8616	1.1442	1.2505	0.1007	0.9399	1.1134	-0.7777	0.3105	0.0671	-2.1065	-0.4616	-1.0183	0.0587	0.8952	0.8392	-0.0951	-1.3456	-0.7721	-1.0826	-1.312	-0.3105	0.2741
1.2477	0.9204	1.1861	1.3204	0.193	0.9623	1.147	-0.6966	0.3301	0.042	-2.0729	-0.4672	-1.0379	0.0504	0.912	0.9064	-0.0867	-1.3931	-0.7413	-1.0406	-1.3484	-0.3385	0.2993
1.2756	0.9204	1.2001	1.354	0.2686	0.9679	1.1497	-0.6322	0.3301	0.0392	-2.0253	-0.47	-1.049	0.0559	0.9567	0.9847	-0.0839	-1.3959	-0.7441	-0.9707	-1.3428	-0.3888	0.3105
1.3204	0.9763	1.2449	1.3875	0.3777	0.9875	1.1553	-0.5287	0.3385	0.0392	-1.9862	-0.4728	-1.0658	0.0336	0.9763	1.0434	-0.0559	-1.4155	-0.7161	-0.8896	-1.354	-0.4084	0.3189
1.3484	0.9679	1.2477	1.4323	0.4532	0.9903	1.1693	-0.4392	0.3441	0.0224	-1.9498	-0.47	-1.0518	0.0112	0.9931	1.0938	-0.0196	-1.4323	-0.7217	-0.7889	-1.3624	-0.4308	0.3161
1.3931	0.9847	1.2812	1.4631	0.5427	1.0015	1.1497	-0.3553	0.3665	-0.0028	-1.8659	-0.456	-1.0546	0.0056	1.0462	1.1302	0.0084	-1.4183	-0.7301	-0.6714	-1.3931	-0.4392	0.3273
1.4043	1.0043	1.3036	1.5106	0.6266	1.0239	1.1609	-0.2574	0.386	-0.0028	-1.796	-0.4448	-1.0183	-0.0112	1.0546	1.1805	0.042	-1.3987	-0.7413	-0.5259	-1.3875	-0.4252	0.3105
1.4379	1.0015	1.3344	1.5526	0.691	1.0155	1.147	-0.165	0.3944	0	-1.7008	-0.4448	-0.9875	-0.0224	1.1022	1.2533	0.0587	-1.3735	-0.7273	-0.4056	-1.3875	-0.4196	0.2993
1.4519	0.9763	1.3456	1.5778	0.7609	1.0071	1.1274	-0.0671	0.4168	-0.0056	-1.5945	-0.4364	-0.9371	-0.0364	1.1134	1.2924	0.0895	-1.326	-0.7329	-0.249	-1.4043	-0.4028	0.2965
1.4631	0.9959	1.3624	1.5973	0.8644	1.0015	1.1246	0.0364	0.4336	-0.0056	-1.4966	-0.4168	-0.8952	-0.0448	1.1497	1.34	0.1119	-1.2896	-0.7133	-0.1119	-1.3819	-0.3832	0.2686
1.4715	0.9819	1.3624	1.6253	0.9148	0.9791	1.105	0.1511	0.4252	-0.0028	-1.3819	-0.3972	-0.8588	-0.0504	1.147	1.3484	0.1343	-1.2169	-0.6798	0.0168	-1.3456	-0.3357	0.2602
1.4994	0.9399	1.3791	1.6281	0.9483	0.9679	1.0826	0.2518	0.4644	0.014	-1.2449	-0.3497	-0.7721	-0.0615	1.1609	1.34	0.1427	-1.1414	-0.6434	0.1539	-1.3036	-0.2797	0.2322
1.4575	0.9455	1.3791	1.6477	1.0267	0.9315	1.0602	0.3049	0.4476	0	-1.1274	-0.3189	-0.7301	-0.0783	1.1442	1.354	0.1623	-1.0658	-0.6294	0.2602	-1.2896	-0.207	0.2238
1.4407	0.9036	1.3652	1.6365	1.049	0.8952	1.0434	0.4056	0.4756	0.0532	-0.9987	-0.2965	-0.6182	-0.0615	1.1414	1.3484	0.1539	-0.9595	-0.5903	0.3832	-1.2365	-0.1539	0.2322
1.4071	0.8756	1.3428	1.6197	1.0686	0.8644	0.9931	0.4756	0.4756	0.0727	-0.8504	-0.2406	-0.5595	-0.0615	1.105	1.3176	0.1539	-0.8644	-0.5315	0.4951	-1.1805	-0.0643	0.235
1.3652	0.8336	1.3036	1.6281	1.105	0.8141	0.9399	0.5511	0.4784	0.0895	-0.7301	-0.2126	-0.456	-0.0615	1.0602	1.2784	0.1455	-0.7777	-0.484	0.5735	-1.119	0.0252	0.2266
1.3372	0.8336	1.2561	1.5778	1.0966	0.7861	0.9092	0.6294	0.4756	0.1091	-0.5707	-0.1539	-0.3777	-0.0532	1.0267	1.2057	0.1203	-0.6658	-0.4168	0.6882	-1.0406	0.1147	0.2182
1.2896	0.7665	1.2057	1.5106	1.1106	0.7469	0.8616	0.6798	0.4476	0.1399	-0.4448	-0.1343	-0.2825	-0.0308	0.9707	1.1693	0.0923	-0.5595	-0.3637	0.7833	-0.9819	0.1986	0.1986
1.2533	0.7273	1.1358	1.4631	1.1022	0.7106	0.8169	0.7497	0.47	0.1734	-0.3021	-0.0587	-0.1762	-0.0224	0.9343	1.1246	0.0504	-0.4476	-0.2881	0.884	-0.9427	0.2714	0.2014
1.1693	0.6994	1.091	1.3847	1.0854	0.6406	0.7553	0.7749	0.4504	0.193	-0.1818	-0.0336	-0.0895	0.0084	0.8756	1.0714	0.0056	-0.3469	-0.2266	0.9679	-0.8616	0.3581	0.1846
1.1274	0.6546	1.0267	1.312	1.049	0.5959	0.6994	0.8197	0.4364	0.221	-0.0532	0.0084	0.0308	0.0504	0.8644	1.0323	-0.0587	-0.2126	-0.1706	1.0574	-0.7833	0.4112	0.165
1.0379	0.5987	0.9511	1.2169	1.0323	0.5427	0.6238	0.8197	0.414	0.2378	0.0755	0.0476	0.1203	0.0867	0.7917	0.9875	-0.1315	-0.1007	-0.1035	1.1302	-0.7189	0.5035	0.1595
0.9763	0.5651	0.87	1.133	0.9959	0.4672	0.5539	0.8392	0.3777	0.2378	0.1902	0.0643	0.1958	0.1147	0.7497	0.9204	-0.1846	-0.0112	-0.0504	1.1525	-0.6518	0.5623	0.1483
0.8896	0.5007	0.7665	1.0015	0.9204	0.3972	0.4588	0.8448	0.3469	0.2462	0.3161	0.1203	0.2965	0.1455	0.6854	0.8672	-0.2658	0.1063	0	1.1637	-0.5763	0.6154	0.1399
0.842	0.4784	0.6714	0.8952	0.842	0.3245	0.4056	0.8057	0.3021	0.2602	0.4112	0.1259	0.3413	0.1846	0.6266	0.8113	-0.3553	0.2014	0.0532	1.1553	-0.5063	0.7022	0.1371
0.6966	0.4	0.5399	0.7581	0.7749	0.249	0.2937	0.7721	0.235	0.2406	0.4784	0.1231	0.4168	0.2238	0.5539	0.7385	-0.4056	0.2825	0.0979	1.1442	-0.4336	0.7497	0.1455
0.607	0.3553	0.4308	0.5987	0.6826	0.1567	0.1818	0.7385	0.165	0.2294	0.5539	0.1343	0.4728	0.263	0.4896	0.7106	-0.4924	0.3609	0.1175	1.0826	-0.3832	0.8001	0.1371
0.484	0.2825	0.3161	0.442	0.607	0.0643	0.0727	0.6882	0.1035	0.1958	0.6322	0.1287	0.5175	0.2993	0.442	0.6266	-0.5595	0.4392	0.1371	1.0043	-0.3049	0.8364	0.1343
0.3693	0.193	0.1762	0.3105	0.4951	-0.0392	-0.028	0.6322	0.0168	0.1846	0.6882	0.1343	0.5567	0.3189	0.3245	0.5287	-0.6098	0.5035	0.1371	0.8868	-0.2322	0.8644	0.1427
0.2546	0.1567	0.0643	0.1427	0.4	-0.1343	-0.1399	0.5679	-0.042	0.1483	0.7385	0.1287	0.5847	0.3637	0.3077	0.4448	-0.6798	0.5651	0.1539	0.7609	-0.1874	0.898	0.1399
0.1231	0.1035	-0.0867	-0.028	0.263	-0.2378	-0.249	0.4924	-0.1427	0.1063	0.7749	0.1063	0.5735	0.3832	0.1902	0.3469	-0.7133	0.6322	0.165	0.6126	-0.0895	0.898	0.1315
-0.0168	0.0028	-0.249	-0.2014	0.1762	-0.3553	-0.3749	0.414	-0.2406	0.0559	0.7945	0.0699	0.5847	0.3972	0.1371	0.263	-0.7525	0.6658	0.1762	0.5063	-0.0168	0.9064	0.1063
-0.1147	-0.0727	-0.3469	-0.3721	0.0643	-0.4588	-0.4924	0.3385	-0.3245	0.0056	0.8336	0.0392	0.5875	0.4112	0.0559	0.1511	-0.7805	0.677	0.1762	0.3805	0.0252	0.9092	0.0979
-0.249	-0.1259	-0.4896	-0.5371	-0.0364	-0.5651	-0.6098	0.2714	-0.4196	-0.0615	0.884	0.0168	0.5539	0.4196	-0.0308	0.0643	-0.8029	0.7413	0.1874	0.2993	0.1063	0.9008	0.0951
-0.3888	-0.2182	-0.6378	-0.705	-0.1595	-0.677	-0.7385	0.2042	-0.5119	-0.1007	0.8896	-0.0056	0.5399	0.428	-0.1119	-0.0559	-0.8252	0.7525	0.1818	0.179	0.1539	0.898	0.0699
-0.4979	-0.2741	-0.7665	-0.8896	-0.2434	-0.7833	-0.842	0.1343	-0.5903	-0.1706	0.9092	-0.0643	0.5091	0.4364	-0.1846	-0.1371	-0.8224	0.7665	0.1762	0.0867	0.2098	0.884	0.0532
-0.6266	-0.3637	-0.9064	-1.049	-0.3497	-0.8924	-0.9595	0.0532	-0.691	-0.2322	0.9232	-0.1007	0.4756	0.4196	-0.2658	-0.221	-0.8029	0.7413	0.1706	0.0028	0.2602	0.8364	0.0112
-0.7609	-0.4448	-1.0574	-1.2225	-0.4336	-1.0015	-1.0882	-0.0196	-0.7749	-0.3133	0.9483	-0.1371	0.4308	0.4084	-0.3385	-0.3245	-0.7889	0.7441	0.2042	-0.0615	0.3189	0.8141	-0.0196
-0.8812	-0.5063	-1.1861	-1.3903	-0.5203	-1.091	-1.1945	-0.0811	-0.8532	-0.3944	0.9567	-0.1818	0.3665	0.3972	-0.3916	-0.386	-0.7609	0.7245	0.1986	-0.1119	0.3916	0.7581	-0.0448
-0.9903	-0.5735	-1.3148	-1.5246	-0.5903	-1.1889	-1.3008	-0.1231	-0.926	-0.4588	0.9791	-0.1902	0.3133	0.3721	-0.4476	-0.4616	-0.7078	0.7161	0.2266	-0.1706	0.4588	0.705	-0.0811
-1.1022	-0.6462	-1.4323	-1.6701	-0.663	-1.2868	-1.4127	-0.1818	-0.9875	-0.5315	0.9903	-0.2238	0.2574	0.3357	-0.4951	-0.5119	-0.6462	0.705	0.2602	-0.2042	0.5315	0.6378	-0.1119
-1.2113	-0.6994	-1.533	-1.8211	-0.7133	-1.354	-1.5218	-0.2042	-1.0434	-0.607	1.0183	-0.2769	0.1958	0.2993	-0.5427	-0.5483	-0.5763	0.7022	0.3021	-0.249	0.6406	0.5791	-0.1455
-1.3484	-0.7861	-1.6729	-1.9554	-0.7777	-1.4547	-1.6309	-0.263	-1.1162	-0.6966	1.0267	-0.3105	0.1287	0.2518	-0.5679	-0.6015	-0.4784	0.6378	0.3077	-0.2658	0.6994	0.5035	-0.1958
-1.4211	-0.8113	-1.74	-2.0729	-0.7945	-1.4994	-1.6813	-0.2238	-1.119	-0.7357	1.077	-0.3077	0.0727	0.1986	-0.5987	-0.6574	-0.3777	0.621	0.3805	-0.2546	0.8057	0.4336	-0.235
-1.5386	-0.8672	-1.8547	-2.1932	-0.8336	-1.5722	-1.7792	-0.2546	-1.1693	-0.8364	1.105	-0.3497	0.0112	0.1455	-0.6462	-0.691	-0.2769	0.5483	0.4196	-0.3049	0.9064	0.3609	-0.2741
-1.6309	-0.9371	-1.9498	-2.2995	-0.87	-1.6225	-1.8463	-0.2686	-1.2169	-0.9064	1.1162	-0.3665	-0.0476	0.0811	-0.6882	-0.7777	-0.1287	0.5035	0.4728	-0.3581	0.9987	0.3217	-0.3385
-1.7148	-0.9959	-2.0365	-2.4002	-0.9008	-1.7008	-1.9442	-0.2937	-1.2197	-0.9819	1.0882	-0.3972	-0.1399	-0.0168	-0.7497	-0.842	0.0559	0.4252	0.5091	-0.4532	1.0994	0.235	-0.4056
-1.8211	-1.0966	-2.1121	-2.4785	-0.9595	-1.7484	-2.0365	-0.3357	-1.27	-1.0574	1.0826	-0.442	-0.2266	-0.1063	-0.8364	-0.9623	0.2294	0.3189	0.5651	-0.5567	1.1805	0.2126	-0.4728
-1.8967	-1.1218	-2.1708	-2.5317	-0.9707	-1.768	-2.0505	-0.3329	-1.298	-1.105	1.0798	-0.4308	-0.3021	-0.1902	-0.8756	-1.0379	0.4	0.2378	0.6406	-0.6546	1.2784	0.1818	-0.5231
-1.9834	-1.1889	-2.2128	-2.5876	-1.0211	-1.8267	-2.1149	-0.3721	-1.326	-1.1665	1.0155	-0.4868	-0.3944	-0.2909	-0.9455	-1.1274	0.5959	0.1259	0.6546	-0.7861	1.3316	0.1539	-0.607
-2.0058	-1.2001	-2.2212	-2.5597	-1.0406	-1.8323	-2.1372	-0.3944	-1.3288	-1.2141	0.9903	-0.5035	-0.4616	-0.386	-0.9763	-1.2253	0.7805	0.0196	0.6658	-0.8868	1.3735	0.1343	-0.6658
-2.0505	-1.2644	-2.2463	-2.5904	-1.077	-1.8659	-2.1596	-0.428	-1.3568	-1.2896	0.9539	-0.5595	-0.5455	-0.4756	-1.0295	-1.3288	0.9679	-0.0811	0.677	-1.0015	1.4267	0.1315	-0.7301
-2.0729	-1.3092	-2.2491	-2.5569	-1.1106	-1.8687	-2.1484	-0.4532	-1.3735	-1.3344	0.8924	-0.5847	-0.635	-0.5679	-1.0854	-1.3987	1.1386	-0.1902	0.677	-1.0798	1.4407	0.1343	-0.7945
-2.0617	-1.3456	-2.2268	-2.5289	-1.1497	-1.8631	-2.1512	-0.484	-1.3652	-1.3624	0.842	-0.6042	-0.6938	-0.6406	-1.091	-1.4407	1.2868	-0.3021	0.6854	-1.1665	1.4743	0.1427	-0.8476
-2.0589	-1.354	-2.1764	-2.459	-1.1637	-1.8435	-2.1428	-0.5343	-1.3624	-1.3875	0.7609	-0.6266	-0.7553	-0.6994	-1.105	-1.5078	1.4183	-0.414	0.6714	-1.2057	1.5134	0.1678	-0.8952
-2.0142	-1.3819	-2.1484	-2.4394	-1.2197	-1.8379	-2.1372	-0.6042	-1.3652	-1.4351	0.6462	-0.6658	-0.8532	-0.7749	-1.1386	-1.5582	1.5526	-0.5231	0.6266	-1.2672	1.4798	0.2042	-0.9176
-1.9918	-1.3903	-2.0897	-2.361	-1.2505	-1.782	-2.1121	-0.6378	-1.3819	-1.4687	0.5483	-0.6966	-0.912	-0.828	-1.1386	-1.6057	1.6673	-0.6518	0.5819	-1.3176	1.4547	0.235	-0.9595
-1.9666	-1.4127	-2.0617	-2.2855	-1.2896	-1.7624	-2.0953	-0.691	-1.3903	-1.519	0.4168	-0.7553	-0.9819	-0.8784	-1.1749	-1.6477	1.7652	-0.7441	0.5119	-1.3624	1.3987	0.2909	-0.9903
-1.9051	-1.4323	-1.989	-2.1988	-1.3092	-1.7288	-2.0617	-0.7749	-1.3903	-1.5442	0.3049	-0.7973	-1.0574	-0.912	-1.1889	-1.6561	1.8463	-0.8336	0.4504	-1.4015	1.3232	0.3245	-1.0043
-1.8519	-1.4015	-1.8883	-2.1065	-1.3428	-1.6785	-2.0309	-0.8364	-1.3959	-1.5526	0.1818	-0.8308	-1.1386	-0.9511	-1.1973	-1.6645	1.9023	-0.9232	0.3832	-1.4239	1.2421	0.3805	-1.0295
-1.8016	-1.3847	-1.7876	-2.0114	-1.3819	-1.6281	-1.961	-0.9092	-1.3652	-1.575	0.0364	-0.8644	-1.2113	-0.9651	-1.2141	-1.6505	1.9442	-1.0099	0.3133	-1.4491	1.147	0.4336	-1.0183
-1.7288	-1.3652	-1.712	-1.8883	-1.3987	-1.5806	-1.9386	-0.9679	-1.3652	-1.6085	-0.1063	-0.9204	-1.2868	-0.9903	-1.1973	-1.6673	1.975	-1.1106	0.263	-1.4826	1.0714	0.4951	-1.0099
-1.6421	-1.3456	-1.6057	-1.7876	-1.4239	-1.4966	-1.9107	-1.0379	-1.326	-1.6085	-0.2462	-0.9539	-1.3707	-0.9791	-1.2113	-1.6477	1.975	-1.1665	0.1706	-1.4882	0.9567	0.5875	-1.0015
-1.5973	-1.34	-1.4854	-1.6869	-1.4295	-1.4463	-1.8547	-1.105	-1.3176	-1.6085	-0.4056	-1.0267	-1.4463	-0.9791	-1.2197	-1.6309	1.9722	-1.2561	0.0839	-1.5162	0.828	0.6602	-0.9959
-1.4994	-1.2868	-1.4043	-1.5778	-1.4407	-1.3652	-1.8127	-1.1721	-1.3064	-1.6225	-0.5399	-1.0854	-1.5554	-0.9707	-1.2197	-1.5778	1.9582	-1.3344	-0.0084	-1.5078	0.677	0.7413	-0.9791
-1.3987	-1.2449	-1.2505	-1.4826	-1.4351	-1.2924	-1.7428	-1.2589	-1.27	-1.6337	-0.6938	-1.1246	-1.6309	-0.9679	-1.1889	-1.5414	1.947	-1.4099	-0.0755	-1.505	0.5735	0.8392	-0.9651
-1.2952	-1.1665	-1.1414	-1.3512	-1.4183	-1.2057	-1.6813	-1.3036	-1.2197	-1.6225	-0.8308	-1.1637	-1.7008	-0.9511	-1.1833	-1.4798	1.8995	-1.4798	-0.1231	-1.4826	0.4672	0.9315	-0.9875
-1.1693	-1.105	-1.0071	-1.2309	-1.3819	-1.091	-1.6337	-1.3428	-1.1973	-1.6001	-0.9931	-1.2001	-1.7876	-0.9455	-1.119	-1.4099	1.8827	-1.5386	-0.1846	-1.4687	0.3469	1.0602	-0.9931
-1.0658	-1.0239	-0.8672	-1.1106	-1.3456	-0.9959	-1.5358	-1.3819	-1.1497	-1.6057	-1.1134	-1.2281	-1.8603	-0.9204	-1.0742	-1.3204	1.8463	-1.6029	-0.2294	-1.4882	0.221	1.1581	-1.0211
-0.9315	-0.9176	-0.7357	-0.9903	-1.298	-0.8756	-1.4743	-1.4071	-1.0938	-1.5945	-1.2365	-1.2644	-1.9414	-0.9008	-0.9987	-1.2421	1.8127	-1.6813	-0.2546	-1.4854	0.1063	1.2728	-1.049
-0.8364	-0.8364	-0.607	-0.9204	-1.2644	-0.7777	-1.4239	-1.4379	-1.0546	-1.6113	-1.4015	-1.326	-2.0337	-0.8896	-0.926	-1.1777	1.8071	-1.7848	-0.3077	-1.4854	-0.0196	1.4155	-1.0854
-0.6742	-0.7441	-0.4784	-0.8392	-1.2309	-0.6966	-1.3763	-1.4603	-1.0267	-1.5973	-1.5302	-1.3484	-2.1121	-0.884	-0.8308	-1.091	1.7848	-1.8575	-0.3441	-1.5246	-0.1595	1.533	-1.119
-0.5707	-0.6462	-0.3721	-0.7189	-1.1525	-0.6015	-1.3064	-1.4715	-0.9847	-1.6029	-1.6449	-1.3903	-2.1764	-0.8784	-0.7805	-1.0574	1.7736	-1.9079	-0.3749	-1.5414	-0.2937	1.6953	-1.1665
-0.4448	-0.5455	-0.2434	-0.6574	-1.0966	-0.5147	-1.2505	-1.4882	-0.9707	-1.5834	-1.7652	-1.4351	-2.2911	-0.8756	-0.7189	-1.0015	1.7792	-2.0002	-0.4056	-1.5498	-0.4392	1.8267	-1.2085
-0.3385	-0.4364	-0.1287	-0.5847	-1.0267	-0.414	-1.1945	-1.4798	-0.9176	-1.5917	-1.8827	-1.4687	-2.3778	-0.8896	-0.6182	-0.9232	1.768	-2.0925	-0.4504	-1.5862	-0.5623	1.9526	-1.2337
-0.2406	-0.3469	-0.0168	-0.5035	-0.9623	-0.3049	-1.1106	-1.491	-0.8644	-1.5806	-1.9666	-1.4966	-2.4478	-0.8672	-0.5287	-0.8616	1.7484	-2.168	-0.4672	-1.6169	-0.6966	2.0841	-1.2616
-0.1678	-0.2658	0.0839	-0.4616	-0.898	-0.2322	-1.0658	-1.505	-0.8308	-1.5806	-2.0869	-1.5526	-2.5429	-0.87	-0.4588	-0.8224	1.7484	-2.2491	-0.5035	-1.6225	-0.828	2.224	-1.2812
-0.0643	-0.165	0.1455	-0.386	-0.8252	-0.1315	-1.0155	-1.5218	-0.7805	-1.5638	-2.1512	-1.5722	-2.6212	-0.8784	-0.3749	-0.7665	1.754	-2.3107	-0.5427	-1.6365	-0.9455	2.3499	-1.3064
0.0112	-0.0364	0.2658	-0.3105	-0.7357	-0.0615	-0.9455	-1.4798	-0.7469	-1.5442	-2.2156	-1.5694	-2.6716	-0.87	-0.2993	-0.7245	1.74	-2.375	-0.5455	-1.6337	-1.0379	2.4701	-1.34
0.1035	0.0643	0.3525	-0.2658	-0.6546	0.028	-0.8644	-1.4659	-0.6994	-1.5302	-2.2743	-1.575	-2.7303	-0.8672	-0.1958	-0.6686	1.7316	-2.4086	-0.5539	-1.6421	-1.1246	2.5764	-1.3763
0.1958	0.1511	0.4616	-0.1874	-0.5707	0.1091	-0.7721	-1.4267	-0.607	-1.4771	-2.3051	-1.5694	-2.7863	-0.8644	-0.1147	-0.6294	1.7372	-2.4618	-0.5371	-1.6169	-1.1945	2.6883	-1.4323
0.2825	0.2518	0.5539	-0.0951	-0.4756	0.235	-0.677	-1.3875	-0.5315	-1.4379	-2.3051	-1.5358	-2.8002	-0.8616	-0.0448	-0.5987	1.7288	-2.5233	-0.5119	-1.6197	-1.2169	2.7974	-1.491
0.3497	0.3525	0.6378	-0.0392	-0.3944	0.2965	-0.6015	-1.3428	-0.4644	-1.3735	-2.3275	-1.5134	-2.831	-0.8756	0.042	-0.5987	1.754	-2.5709	-0.5063	-1.6001	-1.2644	2.887	-1.561
0.4588	0.4784	0.7581	0.0392	-0.2714	0.4112	-0.4868	-1.2672	-0.3665	-1.2952	-2.2995	-1.4603	-2.817	-0.8812	0.1119	-0.5315	1.7428	-2.582	-0.442	-1.547	-1.2449	2.9653	-1.6169
0.5399	0.5567	0.8616	0.1035	-0.1427	0.5147	-0.3665	-1.1917	-0.2714	-1.2197	-2.2575	-1.4015	-2.8142	-0.87	0.1874	-0.4728	1.7456	-2.5988	-0.3832	-1.491	-1.2477	3.0073	-1.6841
0.6266	0.6546	0.9288	0.1874	-0.0504	0.5763	-0.2714	-1.1302	-0.2098	-1.1525	-2.2408	-1.3512	-2.8142	-0.8812	0.263	-0.4532	1.754	-2.624	-0.3329	-1.4547	-1.2393	3.052	-1.7456
0.6994	0.7413	1.0518	0.2714	0.0783	0.7022	-0.165	-1.0211	-0.1147	-1.0546	-2.1512	-1.2812	-2.7639	-0.8784	0.3245	-0.4	1.7624	-2.6044	-0.2686	-1.3931	-1.2225	3.066	-1.8351
0.7553	0.8197	1.105	0.3217	0.1427	0.7441	-0.0867	-0.9623	-0.0392	-0.9847	-2.1261	-1.2505	-2.7499	-0.8896	0.4	-0.3469	1.7848	-2.6044	-0.2098	-1.3568	-1.1973	3.0828	-1.8855
0.8252	0.898	1.2029	0.4028	0.2322	0.8169	0.0252	-0.8616	0.0559	-0.9064	-2.0449	-1.1693	-2.6883	-0.8756	0.4951	-0.3105	1.782	-2.5764	-0.1287	-1.2896	-1.1693	3.0688	-1.9414
0.8896	0.9595	1.2365	0.4588	0.2965	0.8728	0.0895	-0.8057	0.1119	-0.8336	-1.9974	-1.1358	-2.6576	-0.8896	0.5455	-0.2658	1.7932	-2.5625	-0.0699	-1.2449	-1.1497	3.0688	-1.9918
0.9036	0.9931	1.2868	0.4868	0.3637	0.9288	0.1623	-0.7469	0.165	-0.7553	-1.9414	-1.0854	-2.6184	-0.898	0.5763	-0.2322	1.8183	-2.5513	-0.0112	-1.2029	-1.1246	3.0492	-2.0393
0.9343	1.0574	1.3344	0.5511	0.4112	0.9735	0.2406	-0.6714	0.2154	-0.6826	-1.8687	-1.0434	-2.5569	-0.8952	0.6126	-0.207	1.8044	-2.5037	0.0615	-1.1246	-1.0854	3.0436	-2.0841
0.9315	1.0826	1.3512	0.5847	0.4588	0.9735	0.2909	-0.607	0.2434	-0.6238	-1.8323	-0.9931	-2.4981	-0.9036	0.6294	-0.1958	1.8183	-2.4757	0.1147	-1.0882	-1.0742	3.024	-2.1065
0.9288	1.1078	1.3288	0.607	0.5091	0.9875	0.3273	-0.5343	0.2714	-0.5707	-1.7316	-0.9707	-2.4645	-0.9064	0.6098	-0.179	1.8351	-2.4422	0.1762	-1.0015	-1.0267	3.0045	-2.1037
0.8868	1.1414	1.3344	0.6266	0.5343	0.9595	0.3497	-0.4896	0.2853	-0.5343	-1.6645	-0.9567	-2.4226	-0.9315	0.5875	-0.1874	1.8547	-2.4002	0.2154	-0.9148	-1.0239	2.9989	-2.1456
0.87	1.1358	1.3288	0.6602	0.5343	0.9539	0.4084	-0.4392	0.2993	-0.4756	-1.6085	-0.9343	-2.3527	-0.9204	0.5679	-0.2154	1.8687	-2.3387	0.2797	-0.8169	-0.9987	2.9989	-2.154
0.842	1.1358	1.2952	0.677	0.5763	0.9232	0.4196	-0.4028	0.2853	-0.4252	-1.5582	-0.9064	-2.3023	-0.9427	0.5231	-0.235	1.8883	-2.2743	0.3441	-0.7133	-0.9595	3.0045	-2.168
0.8113	1.1497	1.2896	0.6966	0.6042	0.8784	0.4756	-0.3357	0.2909	-0.3805	-1.4687	-0.8728	-2.2408	-0.9511	0.4784	-0.2406	1.9079	-2.2016	0.414	-0.6098	-0.9176	2.9961	-2.1624
0.7693	1.133	1.2561	0.7161	0.6154	0.8644	0.4896	-0.3077	0.2797	-0.3357	-1.4043	-0.8728	-2.154	-0.9539	0.4336	-0.2825	1.9162	-2.1428	0.4728	-0.47	-0.8896	3.0212	-2.1848
0.7301	1.1414	1.2365	0.7385	0.6574	0.8392	0.5315	-0.2546	0.2714	-0.2797	-1.34	-0.828	-2.0981	-0.9539	0.3665	-0.3133	1.9246	-2.0477	0.5427	-0.3553	-0.8672	3.0492	-2.1764
0.6714	1.1302	1.2001	0.7385	0.6546	0.7665	0.5455	-0.2406	0.2266	-0.2602	-1.3064	-0.8364	-2.0561	-0.9707	0.2881	-0.3497	1.9414	-1.9806	0.5959	-0.2294	-0.8756	3.0716	-2.1792
0.6266	1.1162	1.1386	0.7469	0.6742	0.7441	0.5455	-0.207	0.2154	-0.2098	-1.2533	-0.8224	-2.0058	-0.9707	0.2014	-0.386	1.9582	-1.9079	0.6602	-0.0923	-0.8728	3.1331	-2.1624
0.5595	1.0882	1.091	0.7497	0.6546	0.677	0.5623	-0.1874	0.1706	-0.1958	-1.2197	-0.8252	-1.9414	-0.9791	0.1091	-0.4392	1.975	-1.8351	0.6826	0.0168	-0.8532	3.1947	-2.182
0.5147	1.0854	1.0379	0.7189	0.6602	0.6098	0.5175	-0.1595	0.1259	-0.1958	-1.1777	-0.828	-1.919	-0.9931	0.0112	-0.5119	1.9862	-1.7624	0.7133	0.1259	-0.8588	3.2842	-2.1624
0.4308	1.0742	0.9707	0.7106	0.6686	0.5595	0.5147	-0.1315	0.0783	-0.165	-1.1358	-0.8364	-1.8491	-1.0183	-0.1035	-0.6378	2.0337	-1.7064	0.7357	0.2238	-0.8812	3.3653	-2.1568
0.3525	1.063	0.9092	0.6686	0.6798	0.5147	0.5007	-0.1315	0.0448	-0.1567	-1.105	-0.8532	-1.8071	-1.0071	-0.2014	-0.7189	2.0561	-1.6309	0.7357	0.3077	-0.8896	3.4856	-2.1568
0.3133	1.0546	0.8644	0.6518	0.6714	0.442	0.4812	-0.0979	0.014	-0.1371	-1.0658	-0.8588	-1.7568	-1.0379	-0.2853	-0.7973	2.0757	-1.5638	0.7693	0.3777	-0.8868	3.5863	-2.1289
0.2434	1.0351	0.8113	0.6098	0.6826	0.3832	0.4644	-0.0504	-0.0224	-0.1203	-1.0295	-0.842	-1.6953	-1.0406	-0.4	-0.9343	2.1093	-1.5106	0.7805	0.4196	-0.8868	3.7038	-2.1345
0.1986	1.0406	0.7973	0.5735	0.6966	0.3441	0.47	-0.042	-0.0336	-0.0923	-0.9427	-0.8392	-1.6113	-1.0714	-0.456	-1.0434	2.1428	-1.4463	0.7777	0.4364	-0.8644	3.8213	-2.0953
0.1399	1.0462	0.7189	0.5539	0.705	0.2965	0.4364	-0.0224	-0.0867	-0.0699	-0.884	-0.8141	-1.5498	-1.0826	-0.5399	-1.147	2.1708	-1.3791	0.8169	0.4644	-0.842	3.936	-2.1177
0.0811	1.0518	0.6994	0.5399	0.7245	0.2686	0.4336	0.0364	-0.0839	-0.0224	-0.8029	-0.7805	-1.4519	-1.0826	-0.6238	-1.2169	2.182	-1.284	0.8224	0.4588	-0.8252	4.0451	-2.1065
0.0504	1.0686	0.6602	0.484	0.7665	0.2714	0.428	0.0671	-0.0839	0.0196	-0.7301	-0.7385	-1.3735	-1.0938	-0.6854	-1.3204	2.2156	-1.1973	0.8392	0.4448	-0.8113	4.1458	-2.1009
0	1.0658	0.6294	0.4504	0.7833	0.2518	0.4	0.1007	-0.0951	0.0504	-0.6658	-0.6966	-1.2784	-1.1162	-0.7301	-1.4211	2.2463	-1.1358	0.8644	0.4364	-0.8029	4.2493	-2.0869
-0.042	1.0966	0.6015	0.4196	0.8057	0.2462	0.4084	0.1399	-0.0839	0.1175	-0.5707	-0.6378	-1.1665	-1.1134	-0.7581	-1.4659	2.2547	-1.063	0.8896	0.4112	-0.7609	4.3193	-2.0673
-0.0392	1.1134	0.5735	0.4196	0.8476	0.2378	0.4196	0.1818	-0.0727	0.1678	-0.4756	-0.5791	-1.0686	-1.1246	-0.7161	-1.5078	2.2603	-1.0183	0.9092	0.3637	-0.7273	4.364	-2.0673
-0.0783	1.1162	0.5763	0.386	0.8784	0.2462	0.4224	0.2406	-0.0559	0.235	-0.3637	-0.4951	-0.9679	-1.1078	-0.7161	-1.5414	2.238	-0.9315	0.9819	0.3749	-0.677	4.406	-2.0729
-0.0895	1.1497	0.5679	0.3525	0.9092	0.2462	0.4084	0.2853	-0.0028	0.2881	-0.2462	-0.4168	-0.8364	-1.1022	-0.6798	-1.5694	2.224	-0.856	1.0351	0.3693	-0.6434	4.4423	-2.0813
-0.0923	1.1665	0.5511	0.3469	0.9399	0.263	0.4112	0.3273	0.0196	0.3469	-0.1455	-0.3441	-0.7469	-1.0938	-0.6154	-1.5862	2.2016	-0.7917	1.0742	0.3469	-0.5735	4.4563	-2.0841
-0.0643	1.1945	0.5427	0.3273	0.9595	0.2881	0.414	0.386	0.0532	0.3972	-0.028	-0.2462	-0.6015	-1.0602	-0.5455	-1.533	2.1372	-0.7078	1.1414	0.3301	-0.5231	4.4507	-2.1065
-0.0559	1.2197	0.5707	0.3329	0.9875	0.3105	0.4308	0.4504	0.1231	0.4784	0.0951	-0.1175	-0.4924	-1.0295	-0.4532	-1.5358	2.0813	-0.635	1.2169	0.3441	-0.428	4.4675	-2.1149
-0.0811	1.2029	0.5175	0.2965	0.9987	0.3301	0.4196	0.4784	0.1455	0.5399	0.1986	-0.028	-0.3749	-0.9987	-0.3749	-1.4994	2.0226	-0.5595	1.2812	0.3217	-0.3693	4.4843	-2.1233
-0.0811	1.2001	0.4896	0.2434	1.0015	0.3357	0.4084	0.5147	0.1678	0.5763	0.3021	0.0671	-0.2518	-0.9651	-0.3273	-1.4826	1.9414	-0.4951	1.3372	0.3133	-0.3077	4.5067	-2.1177
-0.0951	1.1693	0.4924	0.2098	0.9903	0.3385	0.4056	0.5343	0.2126	0.6154	0.386	0.1287	-0.1287	-0.9343	-0.2686	-1.4687	1.8687	-0.4364	1.3624	0.3189	-0.2462	4.5039	-2.1317
-0.1343	1.1497	0.4448	0.179	0.9399	0.3301	0.3749	0.5567	0.2322	0.6714	0.484	0.221	-0.0196	-0.8868	-0.1902	-1.4295	1.782	-0.3581	1.4155	0.3245	-0.1455	4.5095	-2.1372
-0.1986	1.0994	0.3721	0.1063	0.9204	0.3049	0.3273	0.5343	0.2322	0.6966	0.5399	0.2741	0.0755	-0.8532	-0.1455	-1.4407	1.698	-0.2825	1.4435	0.3301	-0.0783	4.5235	-2.1261
-0.2322	1.0546	0.3133	0.0532	0.8896	0.3161	0.3301	0.5539	0.263	0.7217	0.6126	0.3693	0.1818	-0.8029	-0.1483	-1.4183	1.6057	-0.2238	1.4826	0.3469	-0.0056	4.5179	-2.1205
-0.2853	1.0099	0.2574	0.014	0.828	0.2881	0.2937	0.5567	0.2686	0.7665	0.6798	0.4364	0.2686	-0.7497	-0.1259	-1.4015	1.4966	-0.1343	1.5022	0.4056	0.0923	4.5291	-2.1093
-0.3581	0.9595	0.1539	-0.0699	0.7441	0.2518	0.2378	0.5427	0.2658	0.7777	0.7441	0.4812	0.3469	-0.7022	-0.1063	-1.3931	1.4099	-0.0699	1.5022	0.442	0.179	4.5486	-2.0729
-0.4028	0.9036	0.1315	-0.1147	0.6966	0.2266	0.2238	0.5203	0.2909	0.8057	0.8029	0.5847	0.4392	-0.6518	-0.1203	-1.4127	1.3092	0.0168	1.5274	0.5287	0.2546	4.5738	-2.0673
-0.4812	0.8169	0.0392	-0.2182	0.6294	0.1734	0.1678	0.5231	0.2853	0.8224	0.8476	0.6238	0.5231	-0.6042	-0.1511	-1.4127	1.2169	0.0727	1.547	0.5623	0.3385	4.6102	-2.0281
-0.5455	0.7581	-0.0336	-0.2434	0.5455	0.1595	0.1343	0.4924	0.2909	0.8476	0.8868	0.705	0.607	-0.5595	-0.1986	-1.4603	1.1414	0.1567	1.547	0.6742	0.428	4.641	-1.9778
-0.6378	0.6714	-0.0979	-0.3189	0.4616	0.1063	0.0755	0.4672	0.2825	0.8476	0.9176	0.7385	0.6742	-0.5259	-0.2881	-1.5078	1.0798	0.2182	1.5386	0.7161	0.4979	4.6969	-1.9358
-0.6994	0.6098	-0.165	-0.3553	0.428	0.0923	0.042	0.4476	0.2741	0.8588	0.9903	0.8169	0.7357	-0.4868	-0.3553	-1.5638	1.0015	0.2686	1.5778	0.7721	0.5931	4.7585	-1.8799
-0.7777	0.5623	-0.2434	-0.4112	0.3357	0.0504	-0.0084	0.4224	0.249	0.8784	1.0183	0.8812	0.8085	-0.4588	-0.428	-1.6001	0.9288	0.3105	1.5638	0.8141	0.6854	4.8032	-1.8351
-0.8588	0.47	-0.3077	-0.4644	0.2518	0.0028	-0.0448	0.386	0.249	0.898	1.0574	0.9204	0.8784	-0.4448	-0.5063	-1.6701	0.884	0.3637	1.5526	0.8364	0.8085	4.8676	-1.782
-0.9232	0.4224	-0.3832	-0.5343	0.1734	-0.0364	-0.0895	0.3609	0.2462	0.8924	1.0854	0.9735	0.9232	-0.4028	-0.5931	-1.7148	0.8224	0.4196	1.5498	0.8392	0.9008	4.9207	-1.7092
-1.0155	0.3385	-0.4588	-0.5679	0.1175	-0.0951	-0.1203	0.2993	0.235	0.9036	1.0798	0.9987	0.9763	-0.3749	-0.6434	-1.7456	0.7525	0.4504	1.5274	0.7889	0.9987	4.9711	-1.6225
-1.091	0.2602	-0.5175	-0.5903	0.0168	-0.1483	-0.179	0.2574	0.1539	0.8812	1.0742	1.0211	0.9763	-0.3385	-0.7078	-1.8016	0.7161	0.4868	1.5106	0.7217	1.0574	5.0018	-1.5498
-1.1609	0.1902	-0.5931	-0.6546	-0.0559	-0.1986	-0.2098	0.2014	0.1175	0.8728	1.0462	1.049	0.9987	-0.3217	-0.7833	-1.8379	0.663	0.5035	1.5078	0.635	1.1218	5.0354	-1.4826
-1.2505	0.1399	-0.635	-0.6686	-0.1567	-0.249	-0.2406	0.1315	0.0811	0.8616	1.0267	1.0295	1.0211	-0.2937	-0.8336	-1.8463	0.6015	0.5259	1.4882	0.5651	1.1945	5.055	-1.4155
-1.2868	0.042	-0.7022	-0.691	-0.2574	-0.3329	-0.2714	0.0699	0.0056	0.8364	0.9567	1.0015	1.0351	-0.249	-0.8896	-1.8715	0.5399	0.5315	1.4659	0.4784	1.2393	5.069	-1.3064
-1.3624	-0.0364	-0.7777	-0.7161	-0.3413	-0.3972	-0.2881	-0.0056	-0.042	0.8169	0.884	0.9483	1.0127	-0.2322	-0.9371	-1.8771	0.5035	0.5455	1.4435	0.3832	1.2449	5.0606	-1.2197
-1.4323	-0.1343	-0.842	-0.7022	-0.4504	-0.4644	-0.3385	-0.1007	-0.1315	0.7637	0.7945	0.8784	0.9623	-0.2266	-0.9875	-1.8771	0.4756	0.5315	1.3484	0.2853	1.2197	5.0438	-1.119
-1.4547	-0.1846	-0.8924	-0.6966	-0.5175	-0.4924	-0.3357	-0.1818	-0.193	0.7497	0.6938	0.8001	0.9427	-0.1902	-1.0211	-1.8743	0.4112	0.5595	1.3148	0.235	1.2393	5.0298	-1.0351
-1.4854	-0.2406	-0.912	-0.6686	-0.621	-0.5343	-0.3273	-0.2797	-0.2686	0.7217	0.5707	0.7245	0.884	-0.1706	-1.0379	-1.8491	0.3553	0.5567	1.27	0.2014	1.1973	4.9711	-0.9567
-1.5274	-0.3077	-0.9623	-0.6602	-0.6854	-0.6126	-0.3609	-0.4028	-0.3665	0.6658	0.3916	0.5959	0.8197	-0.1455	-1.0714	-1.8463	0.3301	0.5455	1.1917	0.1734	1.1358	4.9291	-0.87
-1.5582	-0.3749	-0.9847	-0.6378	-0.7777	-0.6686	-0.3469	-0.5007	-0.4532	0.635	0.235	0.4672	0.7637	-0.1231	-1.0854	-1.8435	0.2909	0.5735	1.0966	0.1986	1.063	4.8843	-0.7917
-1.5973	-0.4588	-1.0379	-0.6294	-0.8728	-0.7413	-0.386	-0.6462	-0.5623	0.5539	0.0587	0.3105	0.6406	-0.1175	-1.1134	-1.8127	0.2714	0.5651	1.0099	0.179	0.9763	4.8284	-0.7245
-1.6253	-0.5175	-1.0658	-0.5987	-0.9483	-0.7665	-0.386	-0.7777	-0.663	0.4812	-0.1259	0.1874	0.5315	-0.0979	-1.119	-1.8044	0.235	0.5819	0.898	0.2182	0.8812	4.7864	-0.6406
-1.6505	-0.5679	-1.0882	-0.5791	-1.0295	-0.8113	-0.4196	-0.9232	-0.7693	0.414	-0.3189	0.0308	0.4392	-0.0979	-1.133	-1.8071	0.2126	0.5735	0.8001	0.2294	0.7553	4.7249	-0.5987
-1.712	-0.6462	-1.119	-0.5623	-1.1162	-0.8784	-0.4336	-1.0714	-0.8784	0.3273	-0.5231	-0.1455	0.3105	-0.0839	-1.1693	-1.8379	0.2042	0.5735	0.691	0.249	0.649	4.6885	-0.5567
-1.7372	-0.7161	-1.1917	-0.5679	-1.2085	-0.9623	-0.5007	-1.1861	-1.0351	0.2126	-0.7385	-0.3329	0.1483	-0.0951	-1.2001	-1.8379	0.221	0.5287	0.5931	0.2126	0.5399	4.6158	-0.5343
-1.7848	-0.7945	-1.2253	-0.5819	-1.2952	-1.0406	-0.5455	-1.34	-1.1721	0.1091	-0.9288	-0.4728	0.0168	-0.1063	-1.2253	-1.8547	0.2182	0.5147	0.4951	0.207	0.4616	4.557	-0.5259
-1.8239	-0.8756	-1.2644	-0.6182	-1.3847	-1.1162	-0.6154	-1.491	-1.2812	-0.0196	-1.1246	-0.663	-0.1259	-0.1091	-1.2309	-1.8911	0.2406	0.4784	0.3581	0.1455	0.3413	4.4843	-0.5343
-1.8771	-0.9455	-1.3288	-0.6602	-1.4715	-1.2085	-0.6826	-1.6141	-1.4295	-0.1399	-1.2952	-0.8644	-0.2937	-0.1231	-1.2756	-1.8855	0.2658	0.4308	0.2658	0.1035	0.2434	4.3864	-0.5539
-1.947	-1.0267	-1.4043	-0.691	-1.5554	-1.312	-0.7693	-1.7288	-1.561	-0.2714	-1.4407	-1.0267	-0.442	-0.1259	-1.3036	-1.9274	0.2993	0.3888	0.165	0.0224	0.1595	4.3193	-0.5987
-2.0198	-1.091	-1.4826	-0.7665	-1.6169	-1.3931	-0.8728	-1.8519	-1.6925	-0.414	-1.5722	-1.1861	-0.6378	-0.1539	-1.3204	-1.961	0.3329	0.3273	0.0643	-0.0559	0.0867	4.2213	-0.6462
-2.1037	-1.1553	-1.5526	-0.856	-1.6729	-1.4687	-0.9875	-1.9358	-1.796	-0.5371	-1.6645	-1.354	-0.7721	-0.1902	-1.3707	-1.9862	0.3916	0.249	0	-0.1539	0.0448	4.1374	-0.7189
-2.2128	-1.2561	-1.6617	-0.9511	-1.712	-1.5722	-1.119	-2.0226	-1.9218	-0.6938	-1.7624	-1.4966	-0.9511	-0.207	-1.3875	-2.0142	0.4476	0.179	-0.0587	-0.235	0.0252	4.0199	-0.7973
-2.3135	-1.3428	-1.768	-1.0686	-1.7736	-1.7092	-1.2589	-2.1093	-2.0757	-0.856	-1.8435	-1.6225	-1.1246	-0.2602	-1.4323	-2.0757	0.5259	0.1259	-0.1147	-0.3525	-0.0028	3.9248	-0.8728
-2.4198	-1.4043	-1.9023	-1.2365	-1.8044	-1.8295	-1.4239	-2.1596	-2.1876	-1.0183	-1.8547	-1.7316	-1.2868	-0.2881	-1.4966	-2.1456	0.5959	0.0308	-0.1399	-0.4672	-0.014	3.8241	-0.9623
-2.5401	-1.5022	-2.0198	-1.368	-1.8575	-1.9722	-1.575	-2.1764	-2.2967	-1.2029	-1.8715	-1.8239	-1.4771	-0.3217	-1.5666	-2.2156	0.6742	-0.0448	-0.1958	-0.5959	0.0196	3.729	-1.0574
-2.7135	-1.575	-2.1708	-1.5442	-1.9135	-2.0953	-1.7568	-2.2184	-2.4198	-1.3763	-1.8491	-1.9135	-1.6393	-0.3665	-1.6561	-2.2911	0.7665	-0.1399	-0.2042	-0.7413	0.0308	3.6395	-1.1414
-2.8674	-1.6533	-2.3275	-1.7148	-1.9442	-2.2463	-1.9302	-2.2324	-2.5457	-1.5442	-1.8239	-2.0002	-1.8155	-0.4224	-1.7148	-2.3862	0.8588	-0.2574	-0.1902	-0.9176	0.0532	3.5723	-1.2672
-3.0436	-1.7372	-2.5009	-1.9526	-1.9862	-2.3918	-2.1428	-2.2547	-2.6548	-1.712	-1.7848	-2.0589	-1.9806	-0.4616	-1.8575	-2.5037	0.9623	-0.3777	-0.221	-1.0714	0.0839	3.5108	-1.3791
-3.2003	-1.8379	-2.6995	-2.1484	-2.0365	-2.5569	-2.3694	-2.2631	-2.7611	-1.9079	-1.7288	-2.1484	-2.1596	-0.5203	-1.961	-2.6156	1.0574	-0.4979	-0.2042	-1.2589	0.0951	3.4492	-1.4659
-3.4017	-1.947	-2.8702	-2.3806	-2.0869	-2.7191	-2.5653	-2.2296	-2.8898	-2.0841	-1.6449	-2.182	-2.3471	-0.5567	-2.0897	-2.7443	1.1414	-0.621	-0.193	-1.4519	0.1343	3.4241	-1.5834
-3.5751	-2.0421	-3.0352	-2.6016	-2.1205	-2.859	-2.7667	-2.224	-2.9933	-2.2603	-1.5442	-2.2128	-2.5037	-0.6042	-2.2436	-2.9065	1.2197	-0.7022	-0.1343	-1.6421	0.1902	3.3737	-1.6841
-3.7318	-2.1093	-3.2087	-2.7891	-2.1317	-2.9877	-2.9429	-2.1764	-3.052	-2.4002	-1.4099	-2.21	-2.6296	-0.6266	-2.3331	-3.0184	1.2728	-0.7973	-0.0867	-1.796	0.2462	3.3429	-1.7764
-3.922	-2.1904	-3.3877	-3.0101	-2.168	-3.1303	-3.1164	-2.1317	-3.1108	-2.5513	-1.2672	-2.1932	-2.7695	-0.663	-2.4562	-3.1611	1.354	-0.8952	0.0056	-1.961	0.3077	3.3178	-1.8631
-4.0843	-2.2687	-3.5472	-3.2115	-2.1848	-3.273	-3.301	-2.0561	-3.1639	-2.7023	-1.091	-2.1484	-2.887	-0.6994	-2.596	-3.273	1.4211	-1.0015	0.0727	-2.0981	0.4056	3.301	-1.947
-4.2074	-2.3554	-3.7178	-3.4157	-2.1904	-3.3653	-3.4744	-1.989	-3.2199	-2.8198	-0.8896	-2.0589	-2.9821	-0.7217	-2.7275	-3.4297	1.4826	-1.1022	0.1427	-2.1904	0.456	3.273	-2.003
-4.3416	-2.417	-3.8465	-3.5919	-2.2128	-3.4409	-3.6087	-1.9051	-3.2199	-2.9345	-0.6882	-1.9666	-3.0548	-0.7469	-2.8142	-3.5304	1.5218	-1.1973	0.2574	-2.2659	0.5679	3.2506	-2.0589
-4.4507	-2.4785	-3.9808	-3.757	-2.196	-3.5192	-3.7374	-1.7652	-3.1919	-3.0184	-0.442	-1.8295	-3.0912	-0.7861	-2.9289	-3.6619	1.5806	-1.27	0.3609	-2.3163	0.6686	3.2422	-2.1317
-4.5766	-2.5177	-4.0871	-3.8968	-2.196	-3.5695	-3.8493	-1.6309	-3.1611	-3.0744	-0.1986	-1.6561	-3.094	-0.8085	-3.038	-3.7626	1.6309	-1.3344	0.4728	-2.3359	0.7945	3.2366	-2.182
-4.6661	-2.5764	-4.199	-4.0087	-2.154	-3.6087	-3.9164	-1.4743	-3.0744	-3.1024	0.1091	-1.4379	-3.0856	-0.8252	-3.1471	-3.8968	1.6729	-1.3847	0.5847	-2.3415	0.926	3.2422	-2.2408
-4.7529	-2.6072	-4.2913	-4.1066	-2.1205	-3.6395	-4.0115	-1.3204	-3.0073	-3.1331	0.4084	-1.2309	-3.08	-0.8532	-3.2255	-3.9696	1.7092	-1.4155	0.7106	-2.3219	1.0882	3.2394	-2.2939
-4.8004	-2.6324	-4.3248	-4.1934	-2.0365	-3.6255	-4.0535	-1.147	-2.8898	-3.1136	0.7022	-0.9735	-3.0184	-0.8784	-3.2898	-4.0451	1.7624	-1.4603	0.8169	-2.2911	1.2253	3.245	-2.3554
-4.8256	-2.624	-4.3584	-4.2409	-1.9694	-3.6003	-4.0591	-0.9623	-2.7499	-3.0632	1.0406	-0.691	-2.9177	-0.9008	-3.3346	-4.1178	1.8016	-1.4631	0.9427	-2.238	1.3652	3.2366	-2.3974
-4.8424	-2.61	-4.364	-4.2521	-1.8967	-3.5583	-4.0227	-0.7637	-2.6072	-3.0073	1.3987	-0.3916	-2.8086	-0.9232	-3.3541	-4.1374	1.8407	-1.4966	1.0574	-2.182	1.505	3.2422	-2.4478
-4.862	-2.5904	-4.35	-4.2577	-1.782	-3.5108	-3.9948	-0.5483	-2.445	-2.9149	1.7568	-0.0867	-2.6604	-0.9315	-3.3961	-4.1906	1.8939	-1.4882	1.1805	-2.0897	1.6561	3.2534	-2.4645
-4.8032	-2.5457	-4.3109	-4.2157	-1.6785	-3.4241	-3.9108	-0.3329	-2.238	-2.8058	2.0869	0.2238	-2.5149	-0.9595	-3.3569	-4.1542	1.919	-1.4882	1.3008	-1.989	1.8239	3.259	-2.4729
-4.7193	-2.4673	-4.213	-4.1318	-1.5246	-3.2786	-3.8017	-0.1119	-2.0086	-2.652	2.4506	0.5567	-2.3387	-0.9819	-3.3346	-4.115	1.9554	-1.4938	1.4351	-1.8799	1.9554	3.2674	-2.4869
-4.641	-2.3694	-4.1458	-4.0283	-1.3959	-3.1751	-3.6842	0.1231	-1.7848	-2.5037	2.8058	0.8756	-2.1261	-1.0043	-3.2898	-4.0843	2.0142	-1.4854	1.561	-1.7792	2.0869	3.301	-2.5037
-4.5486	-2.2603	-4.0087	-3.922	-1.2393	-3.0324	-3.5304	0.3357	-1.5694	-2.3135	3.1331	1.2029	-1.919	-1.0351	-3.2422	-4.0059	2.0729	-1.4938	1.6785	-1.6673	2.2044	3.329	-2.5093
-4.3976	-2.1289	-3.8297	-3.7234	-1.0658	-2.8506	-3.3262	0.5959	-1.2896	-2.1009	3.466	1.5386	-1.6673	-1.0546	-3.1359	-3.9136	2.1177	-1.4938	1.7932	-1.5414	2.3219	3.3709	-2.4981
-4.2157	-1.947	-3.6423	-3.5472	-0.8728	-2.6408	-3.1108	0.8308	-1.0043	-1.8743	3.7905	1.8491	-1.4351	-1.0966	-3.0352	-3.8185	2.2072	-1.519	1.9162	-1.4127	2.4394	3.4241	-2.4729
-4.0171	-1.768	-3.4353	-3.3038	-0.6406	-2.3834	-2.8562	1.0882	-0.705	-1.5834	4.0955	2.168	-1.1833	-1.1274	-2.9317	-3.6898	2.2715	-1.5246	2.0533	-1.2477	2.4953	3.4856	-2.4645
-3.7654	-1.5358	-3.1499	-3.0017	-0.386	-2.1177	-2.5653	1.3735	-0.3665	-1.2784	4.4116	2.5317	-0.8812	-1.1693	-2.7639	-3.536	2.3331	-1.5358	2.196	-1.0798	2.6296	3.5583	-2.4226
-3.4856	-1.2868	-2.859	-2.7023	-0.1175	-1.8183	-2.2324	1.6421	-0.0168	-0.9343	4.7305	2.845	-0.5735	-1.1945	-2.5904	-3.3681	2.4114	-1.5274	2.3443	-0.884	2.7051	3.6423	-2.3778
-3.2115	-1.0015	-2.5177	-2.3387	0.179	-1.4826	-1.8743	1.919	0.3469	-0.5735	5.0438	3.1835	-0.2406	-1.2365	-2.4086	-3.1583	2.4813	-1.5498	2.5065	-0.7078	2.7918	3.7318	-2.3554
-2.8814	-0.6994	-2.154	-1.9722	0.4979	-1.105	-1.4826	2.2324	0.7133	-0.1874	5.3403	3.5192	0.0839	-1.284	-2.21	-2.9457	2.5709	-1.5414	2.6827	-0.5063	2.9037	3.8325	-2.2995
-2.5205	-0.3637	-1.768	-1.5778	0.8057	-0.7329	-1.077	2.5177	1.1218	0.1986	5.5781	3.8297	0.4112	-1.3288	-1.975	-2.7135	2.6576	-1.5722	2.817	-0.3441	2.9793	3.9472	-2.2463
-2.168	-0.0308	-1.3596	-1.1609	1.1665	-0.3301	-0.6546	2.8338	1.5246	0.6154	5.8215	4.1514	0.7777	-1.3791	-1.7652	-2.4757	2.7527	-1.5834	2.9877	-0.1399	3.0548	4.0703	-2.1988
-1.8071	0.3245	-0.9343	-0.6938	1.5134	0.0895	-0.2294	3.1303	1.9079	0.9903	6.0537	4.4312	1.1022	-1.4379	-1.5358	-2.2463	2.8618	-1.6225	3.1331	0.0364	3.094	4.2102	-2.1484
-1.4267	0.691	-0.4924	-0.2602	1.8631	0.5063	0.2126	3.4073	2.3023	1.4099	6.2579	4.6913	1.4323	-1.4826	-1.3176	-1.989	2.9709	-1.6253	3.2674	0.2378	3.1303	4.3612	-2.0869
-1.0323	1.091	-0.0448	0.2098	2.224	0.926	0.6798	3.687	2.6939	1.8547	6.4481	4.9375	1.782	-1.533	-1.0686	-1.7484	3.0632	-1.6729	3.4017	0.4392	3.1611	4.5347	-2.0421
-0.6182	1.4854	0.4196	0.705	2.6128	1.3763	1.1442	3.9892	3.0968	2.2659	6.5992	5.1809	2.1037	-1.5778	-0.8224	-1.4659	3.1527	-1.698	3.5416	0.6238	3.1751	4.7081	-1.9806
-0.2042	1.8939	0.8672	1.1637	2.9597	1.796	1.6197	4.2409	3.4548	2.6827	6.7279	5.3683	2.3974	-1.6225	-0.5791	-1.1833	3.2422	-1.7288	3.6507	0.8197	3.1723	4.8815	-1.9358
0.207	2.3023	1.3456	1.6533	3.3429	2.2352	2.0757	4.4815	3.8213	3.0856	6.8006	5.5333	2.6576	-1.6477	-0.3329	-0.9036	3.3066	-1.768	3.7682	1.0406	3.1611	5.1025	-1.8995
0.6322	2.7247	1.8435	2.1345	3.701	2.666	2.5513	4.7249	4.185	3.4604	6.8789	5.7068	2.9317	-1.6897	-0.0587	-0.6015	3.3765	-1.8127	3.8884	1.2589	3.1443	5.3263	-1.8491
1.0462	3.108	2.2939	2.5736	4.0619	3.0772	2.9681	4.9431	4.4927	3.8101	6.9293	5.8271	3.1695	-1.7176	0.1846	-0.3273	3.4465	-1.8547	4.0031	1.4519	3.1164	5.5473	-1.8183
1.4631	3.5416	2.7667	3.0212	4.4256	3.48	3.3933	5.1809	4.8116	4.1402	6.9852	5.9642	3.4157	-1.7316	0.442	-0.0476	3.4856	-1.8827	4.1178	1.6841	3.0856	5.7907	-1.7932
1.8575	3.9108	3.2059	3.4269	4.7585	3.8549	3.7905	5.3767	5.1109	4.4787	6.9936	6.0481	3.6199	-1.768	0.7022	0.2238	3.5332	-1.9302	4.2241	1.8603	3.0352	6.0369	-1.7792
2.2603	4.2857	3.6255	3.8157	5.055	4.2353	4.1654	5.5501	5.3543	4.7668	6.9852	6.118	3.8157	-1.782	0.926	0.484	3.5751	-1.9862	4.2997	2.0477	2.9625	6.2998	-1.7288
2.596	4.6549	4.0703	4.2018	5.3767	4.6158	4.5291	5.732	5.6117	5.0326	6.9796	6.1935	3.95	-1.7988	1.1525	0.7525	3.6031	-2.0226	4.3948	2.2352	2.9289	6.5432	-1.7288
2.9625	5.013	4.4703	4.557	5.676	4.9403	4.862	5.8774	5.8411	5.2956	6.9489	6.2355	4.1122	-1.8016	1.4043	1.0127	3.6115	-2.0533	4.4955	2.4338	2.8702	6.7838	-1.7064
3.2926	5.3319	4.8228	4.8731	5.9558	5.2648	5.1613	6.0257	6.0509	5.5166	6.9097	6.2859	4.2549	-1.8183	1.6169	1.2253	3.6367	-2.1121	4.585	2.5709	2.817	7.0132	-1.7008
3.5807	5.6201	5.1781	5.1781	6.174	5.5753	5.4242	6.1376	6.2299	5.7404	6.8342	6.3222	4.3892	-1.8295	1.8071	1.4183	3.6535	-2.1428	4.6382	2.7359	2.7499	7.2426	-1.7008
3.8241	5.8998	5.5054	5.4466	6.3838	5.8299	5.6984	6.2439	6.3866	5.9222	6.7698	6.325	4.4983	-1.8435	2.0086	1.6029	3.6786	-2.1904	4.6913	2.8534	2.6744	7.4076	-1.6953
4.0675	6.1292	5.7515	5.6648	6.5824	6.0565	5.897	6.3194	6.5236	6.0872	6.6635	6.3194	4.6018	-1.8379	2.1904	1.782	3.6926	-2.2156	4.7389	2.9373	2.6016	7.5755	-1.6869
4.2745	6.3418	6.0285	5.897	6.7502	6.2803	6.09	6.3614	6.6216	6.2215	6.5628	6.2998	4.6577	-1.8435	2.3554	1.9274	3.6982	-2.224	4.7613	3.0212	2.5177	7.7321	-1.6841
4.4284	6.4789	6.2355	6.0537	6.8481	6.4229	6.2691	6.3782	6.7027	6.3362	6.4089	6.2635	4.7193	-1.8603	2.4673	2.0365	3.7206	-2.2631	4.7864	3.0744	2.4226	7.8468	-1.6813
4.5878	6.6355	6.4061	6.1824	6.9265	6.5712	6.3726	6.3754	6.7502	6.4006	6.2747	6.2187	4.7836	-1.8631	2.596	2.1456	3.7262	-2.2519	4.7892	3.1247	2.3023	7.9364	-1.6757
4.6829	6.7418	6.5236	6.3166	7.002	6.6859	6.4789	6.3614	6.7866	6.4649	6.1068	6.1963	4.8284	-1.8547	2.6744	2.196	3.7066	-2.2575	4.7613	3.1499	2.224	7.9783	-1.6589
4.7445	6.781	6.6188	6.3446	6.9936	6.7307	6.532	6.2747	6.7586	6.4901	5.8998	6.1124	4.8284	-1.8519	2.7583	2.2352	3.701	-2.2491	4.7109	3.1555	2.0841	8.0063	-1.6617
4.7473	6.7838	6.6523	6.3838	6.96	6.767	6.532	6.1768	6.7167	6.4985	5.69	6.0061	4.8144	-1.8351	2.7891	2.2408	3.673	-2.2268	4.6242	3.1555	1.947	8.0203	-1.6449
4.7361	6.7698	6.6355	6.3782	6.8761	6.7474	6.5041	6.0537	6.6439	6.4733	5.4522	5.8998	4.8116	-1.8183	2.7863	2.2352	3.6423	-2.1848	4.5067	3.1667	1.796	7.9895	-1.6225
4.6661	6.6999	6.5852	6.3306	6.7642	6.6999	6.4677	5.8802	6.5544	6.4257	5.2312	5.7795	4.7976	-1.782	2.7807	2.1932	3.5723	-2.1512	4.3696	3.1611	1.6253	7.9475	-1.6085
4.6046	6.6104	6.4985	6.2691	6.6355	6.616	6.4089	5.7152	6.4397	6.367	4.9906	5.6844	4.7724	-1.7456	2.7639	2.1428	3.4688	-2.0505	4.2297	3.1387	1.4826	7.8524	-1.6029
4.4647	6.4677	6.3782	6.1544	6.4537	6.4789	6.2747	5.4886	6.2579	6.2439	4.7221	5.5278	4.7221	-1.6785	2.68	2.0561	3.3597	-1.9862	4.0591	3.0996	1.2952	7.7881	-1.5834
4.3444	6.2859	6.2103	6.0453	6.2747	6.353	6.1684	5.29	6.0956	6.1544	4.4563	5.3907	4.6997	-1.6057	2.5709	1.989	3.2199	-1.8547	3.8605	3.0716	1.1218	7.6762	-1.5862
4.1458	6.0621	6.0229	5.8774	6.0173	6.1404	6.0033	5.013	5.8774	6.0005	4.1486	5.2256	4.627	-1.5274	2.459	1.8491	3.0688	-1.7652	3.6395	3.0212	0.9343	7.5811	-1.5806
3.9388	5.8355	5.7851	5.704	5.7487	5.9166	5.8159	4.7417	5.6592	5.8551	3.8633	5.0522	4.5766	-1.4491	2.3023	1.7204	2.8954	-1.6253	3.4213	2.9961	0.7553	7.4888	-1.5526
3.6898	5.5977	5.5473	5.511	5.4298	5.7068	5.6313	4.4535	5.4214	5.69	3.5835	4.8704	4.5011	-1.3512	2.1596	1.5498	2.7023	-1.4771	3.2255	2.9149	0.5875	7.3825	-1.5302
3.4157	5.2844	5.2116	5.2536	5.1193	5.4047	5.3515	4.1178	5.1305	5.4802	3.273	4.6522	4.4172	-1.2616	1.975	1.3316	2.5177	-1.34	2.9765	2.817	0.414	7.2873	-1.5218
3.1639	4.9711	4.9039	4.9878	4.7668	5.1249	5.1109	3.7905	4.8508	5.2816	2.9709	4.4647	4.3165	-1.1581	1.7736	1.1581	2.3135	-1.1945	2.7443	2.7247	0.221	7.1782	-1.5022
2.8534	4.6382	4.5738	4.7221	4.3724	4.8172	4.8424	3.4297	4.5207	5.0354	2.6688	4.2102	4.2074	-1.0574	1.5806	0.9315	2.1177	-1.0518	2.4813	2.5904	0.0336	7.0831	-1.4882
2.5736	4.3137	4.2353	4.4563	3.9836	4.4787	4.5682	3.0632	4.2185	4.806	2.3499	3.9975	4.0843	-0.9399	1.3875	0.7161	1.8883	-0.884	2.2408	2.4422	-0.1343	6.9824	-1.4659
2.2547	3.9416	3.8884	4.1514	3.5891	4.1234	4.2549	2.7023	3.894	4.5291	2.0477	3.7514	3.9472	-0.842	1.1805	0.4951	1.6841	-0.7413	1.9778	2.2911	-0.3133	6.8985	-1.4547
1.9386	3.5779	3.5248	3.8521	3.1835	3.7738	3.936	2.3135	3.5444	4.2717	1.7288	3.494	3.7933	-0.7217	0.9847	0.2909	1.4659	-0.5791	1.698	2.1317	-0.4924	6.8062	-1.4491
1.6505	3.2227	3.1639	3.5192	2.7667	3.4129	3.6171	1.9358	3.2003	3.9948	1.4267	3.2338	3.6311	-0.621	0.8113	0.0951	1.2449	-0.4504	1.4603	1.9554	-0.6546	6.6943	-1.4463
1.3316	2.8646	2.7946	3.2143	2.3359	3.0464	3.273	1.533	2.8338	3.7038	1.1358	2.9485	3.4604	-0.5091	0.6015	-0.1063	1.0323	-0.3217	1.1609	1.7764	-0.8169	6.6048	-1.4771
1.0351	2.5037	2.459	2.9037	1.9414	2.6827	2.9765	1.1637	2.4869	3.4213	0.8448	2.7023	3.2702	-0.3944	0.4308	-0.3077	0.828	-0.193	0.8756	1.6141	-1.0043	6.5125	-1.4687
0.7637	2.1736	2.1065	2.6184	1.5722	2.3303	2.6492	0.7889	2.1596	3.1275	0.5791	2.445	3.094	-0.2937	0.2686	-0.4728	0.6126	-0.0643	0.6238	1.4407	-1.1386	6.4285	-1.4687
0.5119	1.8715	1.8044	2.3023	1.1721	2.0142	2.3331	0.4364	1.8183	2.8506	0.2937	2.1904	2.9345	-0.1846	0.1063	-0.6098	0.4112	0.028	0.3441	1.284	-1.2924	6.3418	-1.4771
0.2574	1.5302	1.4882	2.0393	0.8224	1.7064	2.0226	0.0895	1.4994	2.5848	0.042	1.9135	2.7639	-0.0923	-0.0671	-0.7357	0.2266	0.1147	0.0979	1.1358	-1.4295	6.2635	-1.4854
0.0643	1.2784	1.2197	1.7624	0.4896	1.4071	1.7344	-0.2042	1.2141	2.3219	-0.1818	1.6729	2.596	0	-0.1986	-0.8252	0.0448	0.2574	-0.1539	1.0043	-1.5694	6.1768	-1.4715
-0.1427	1.0071	0.9651	1.5162	0.1818	1.1386	1.4519	-0.4951	0.9371	2.0673	-0.3805	1.4631	2.4562	0.0895	-0.3329	-0.9371	-0.1315	0.3469	-0.3777	0.9176	-1.6757	6.118	-1.4826
-0.3161	0.7553	0.7413	1.3036	-0.1035	0.8896	1.2029	-0.7721	0.6826	1.8575	-0.5623	1.2449	2.3275	0.1762	-0.4672	-1.0127	-0.2937	0.442	-0.5679	0.828	-1.7876	6.0677	-1.4715
-0.4588	0.5679	0.5483	1.1106	-0.3553	0.6742	1.0015	-0.9539	0.4951	1.6645	-0.677	1.091	2.2212	0.2574	-0.5623	-1.0267	-0.4672	0.5511	-0.7273	0.7917	-1.8295	5.9949	-1.4938
-0.5707	0.3637	0.3777	0.9232	-0.5427	0.4644	0.7777	-1.1609	0.2853	1.5162	-0.8001	0.912	2.1317	0.3189	-0.6602	-1.0994	-0.5987	0.6378	-0.9036	0.7497	-1.8939	5.9558	-1.4826
-0.705	0.1874	0.2406	0.7217	-0.7497	0.2993	0.5875	-1.3372	0.0923	1.3232	-0.9008	0.7693	2.0058	0.3693	-0.7385	-1.1078	-0.6994	0.7189	-1.049	0.7133	-1.9414	5.9166	-1.4715
-0.7889	0.0224	0.1147	0.5875	-0.912	0.1399	0.3944	-1.4854	-0.0532	1.1777	-0.9623	0.6378	1.9274	0.442	-0.856	-1.1106	-0.8169	0.8588	-1.1721	0.7413	-1.9498	5.9082	-1.4715
-0.87	-0.1119	-0.0336	0.4448	-1.0602	-0.0084	0.249	-1.5973	-0.2042	1.0406	-1.0239	0.5175	1.8575	0.4588	-0.9315	-1.1134	-0.8868	0.9064	-1.2533	0.7413	-1.989	5.8802	-1.4771
-0.9288	-0.2294	-0.0895	0.3245	-1.1805	-0.1287	0.0979	-1.6813	-0.3469	0.9427	-1.0351	0.428	1.782	0.4924	-0.9819	-1.1246	-0.9651	0.9875	-1.326	0.7553	-1.9974	5.8662	-1.5078
-0.9735	-0.3021	-0.1846	0.2238	-1.2393	-0.2154	-0.0168	-1.74	-0.4196	0.8616	-1.0602	0.3133	1.7232	0.5175	-1.0658	-1.1022	-1.0071	1.0686	-1.3931	0.7749	-1.9862	5.8634	-1.5246
-0.9791	-0.3609	-0.2294	0.1371	-1.284	-0.2937	-0.1091	-1.7736	-0.5119	0.7441	-1.0406	0.249	1.6533	0.5231	-1.0882	-1.077	-1.0267	1.0994	-1.4015	0.7889	-1.9666	5.8523	-1.5526
-0.9987	-0.4336	-0.2378	0.0671	-1.3372	-0.3301	-0.2238	-1.7652	-0.5679	0.6938	-1.0099	0.1902	1.6057	0.5343	-1.1106	-1.049	-1.0323	1.1777	-1.3959	0.8224	-1.9302	5.8411	-1.5917
-0.9763	-0.4784	-0.2462	0.0112	-1.3428	-0.3916	-0.3021	-1.7428	-0.5931	0.6322	-0.9791	0.1734	1.5834	0.5287	-1.147	-1.0267	-1.0239	1.1945	-1.3763	0.8224	-1.9079	5.8299	-1.6281
-0.9707	-0.484	-0.2322	-0.042	-1.3428	-0.4168	-0.3553	-1.7092	-0.621	0.5791	-0.9148	0.1371	1.5358	0.5035	-1.1693	-0.9819	-0.9875	1.2281	-1.3036	0.8141	-1.8659	5.8047	-1.6757
-0.9064	-0.4812	-0.2322	-0.0671	-1.298	-0.4	-0.3972	-1.6421	-0.5959	0.5651	-0.8448	0.1455	1.5358	0.484	-1.1609	-0.9595	-0.9343	1.2393	-1.2561	0.7861	-1.8016	5.7851	-1.7344
-0.8588	-0.4728	-0.1846	-0.0727	-1.2225	-0.386	-0.4168	-1.5638	-0.5819	0.5595	-0.7329	0.1734	1.519	0.4532	-1.1386	-0.9315	-0.8728	1.2113	-1.1525	0.7581	-1.7456	5.7487	-1.7904
-0.8141	-0.3944	-0.1175	-0.0643	-1.1302	-0.3497	-0.4476	-1.4603	-0.5315	0.5651	-0.6182	0.2238	1.5386	0.4196	-1.1302	-0.9288	-0.8029	1.2057	-1.0798	0.6938	-1.6729	5.746	-1.8743
-0.7301	-0.3385	-0.0476	-0.0476	-1.0379	-0.2741	-0.4336	-1.3372	-0.4308	0.5679	-0.4924	0.2825	1.5498	0.3693	-1.1134	-0.8868	-0.7106	1.2057	-0.9651	0.6462	-1.6057	5.7152	-1.975
-0.6406	-0.2853	0.0168	-0.0112	-0.9204	-0.2014	-0.4168	-1.1889	-0.3385	0.5847	-0.3301	0.3832	1.5917	0.3189	-1.0826	-0.856	-0.6126	1.1833	-0.828	0.5903	-1.533	5.7012	-2.0673
-0.5539	-0.1678	0.1343	0.0476	-0.7581	-0.0895	-0.3637	-1.0099	-0.1902	0.6658	-0.1259	0.4979	1.6729	0.2714	-1.0239	-0.884	-0.5175	1.1637	-0.6994	0.5595	-1.4519	5.6984	-2.1932
-0.4728	-0.0587	0.1958	0.0727	-0.6042	-0.0028	-0.3021	-0.828	-0.0532	0.7413	0.0783	0.6602	1.782	0.2238	-0.9875	-0.8644	-0.4112	1.1553	-0.5455	0.4896	-1.3707	5.718	-2.3051
-0.4252	0.028	0.2602	0.1203	-0.47	0.0895	-0.2658	-0.6574	0.0811	0.8336	0.2825	0.8141	1.8771	0.1678	-0.9763	-0.9036	-0.3133	1.1442	-0.3916	0.4252	-1.2784	5.7432	-2.4058
-0.3469	0.1511	0.3721	0.1986	-0.3133	0.2322	-0.165	-0.4364	0.2769	0.9343	0.5231	1.0043	2.0309	0.1287	-0.9343	-0.9315	-0.2266	1.1553	-0.2182	0.3972	-1.1749	5.7907	-2.5233
-0.2574	0.2714	0.4728	0.2741	-0.1343	0.3581	-0.0811	-0.2406	0.4672	1.0602	0.7637	1.2029	2.1764	0.0783	-0.9148	-0.9819	-0.1371	1.1497	-0.0811	0.3133	-1.0826	5.8551	-2.6268
-0.249	0.3525	0.5511	0.3161	0.0168	0.4308	0.0028	-0.0448	0.6518	1.1749	1.0267	1.4155	2.3471	0.0448	-0.9064	-1.0267	-0.0476	1.1777	0.0671	0.2434	-0.9875	5.9082	-2.7051
-0.1902	0.4672	0.6015	0.4084	0.1762	0.5455	0.0755	0.1399	0.8141	1.312	1.284	1.6085	2.5065	-0.0084	-0.9343	-1.091	0.0364	1.2029	0.207	0.1846	-0.9176	5.9921	-2.7946
-0.1734	0.5651	0.6826	0.4812	0.3469	0.6714	0.2098	0.3497	1.0211	1.4519	1.5274	1.8379	2.7247	-0.0308	-0.9315	-1.1861	0.0979	1.2421	0.3385	0.1455	-0.8532	6.0788	-2.8758
-0.1623	0.635	0.7161	0.5231	0.47	0.7749	0.3189	0.5287	1.1889	1.6029	1.7848	2.0561	2.9205	-0.0559	-0.9595	-1.2589	0.1539	1.298	0.4448	0.1175	-0.8169	6.1572	-2.9457
-0.165	0.6798	0.7553	0.5735	0.5819	0.8336	0.3777	0.7217	1.3512	1.7372	2.0253	2.2491	3.0828	-0.0783	-0.9819	-1.3344	0.1902	1.3735	0.5371	0.0448	-0.7497	6.2355	-2.9989
-0.1902	0.7469	0.7749	0.607	0.7106	0.9008	0.4756	0.898	1.4966	1.9079	2.2715	2.4785	3.2954	-0.0839	-1.0267	-1.4323	0.2098	1.4547	0.6406	0.0196	-0.7022	6.2943	-3.052
-0.193	0.7749	0.8001	0.6574	0.8141	0.9567	0.5959	1.0434	1.6533	2.0365	2.4869	2.6995	3.508	-0.0979	-1.0518	-1.533	0.2182	1.533	0.663	0.0056	-0.6882	6.3502	-3.1164
-0.2294	0.8308	0.8029	0.6966	0.9232	1.0183	0.6686	1.1945	1.8099	2.182	2.7247	2.9037	3.7178	-0.0783	-1.0686	-1.5917	0.1986	1.6645	0.7078	0.0112	-0.663	6.3754	-3.1583
-0.2825	0.8532	0.7637	0.6938	1.0323	1.0854	0.7553	1.3316	1.9666	2.3582	2.9513	3.1275	3.9584	-0.0643	-1.0826	-1.6673	0.1595	1.7848	0.7749	0.0504	-0.6098	6.3978	-3.2227
-0.3553	0.8728	0.7106	0.691	1.077	1.119	0.7973	1.4491	2.0729	2.4729	3.1499	3.3262	4.1934	-0.0336	-1.1386	-1.7652	0.1343	1.8939	0.7637	0.0895	-0.6042	6.4201	-3.2814
-0.442	0.8588	0.663	0.6658	1.1218	1.119	0.856	1.5722	2.1904	2.6044	3.3737	3.5332	4.406	-0.028	-1.1973	-1.8491	0.0923	2.0002	0.7553	0.1175	-0.5875	6.4173	-3.3178
-0.5287	0.8756	0.5847	0.6686	1.1945	1.1442	0.9148	1.6925	2.3079	2.7583	3.5807	3.743	4.641	0.0084	-1.1973	-1.9302	0.0364	2.1624	0.7441	0.1846	-0.5623	6.4201	-3.3513
-0.607	0.8672	0.4868	0.6434	1.2449	1.147	0.9567	1.8016	2.4254	2.8814	3.8101	3.9752	4.9095	0.0364	-1.2505	-2.0002	-0.0308	2.3107	0.7553	0.2741	-0.5147	6.3922	-3.4101
-0.7189	0.8252	0.4084	0.5847	1.2812	1.1218	0.9679	1.9023	2.5093	3.0073	4.0339	4.1738	5.1501	0.0811	-1.2812	-2.0813	-0.1035	2.4981	0.7609	0.3441	-0.4672	6.3922	-3.4409
-0.8448	0.7637	0.3021	0.5343	1.326	1.0994	0.9847	2.0309	2.6044	3.1164	4.2773	4.3864	5.4214	0.1147	-1.3232	-2.1568	-0.1762	2.68	0.7777	0.4308	-0.3805	6.3782	-3.4688
-0.9819	0.7189	0.1483	0.456	1.3148	1.0211	0.9595	2.0757	2.6464	3.2059	4.4927	4.5682	5.6145	0.1259	-1.3819	-2.2436	-0.2238	2.8478	0.7889	0.4924	-0.3133	6.3474	-3.4968
-1.1637	0.6294	0	0.3749	1.3036	0.9623	0.9315	2.1736	2.6911	3.3094	4.7361	4.7501	5.8551	0.179	-1.4491	-2.3247	-0.2965	3.0548	0.8197	0.5259	-0.2098	6.325	-3.5192
-1.3456	0.5119	-0.179	0.235	1.2784	0.842	0.9036	2.2212	2.7023	3.3625	4.9571	4.8955	6.0649	0.2014	-1.5162	-2.4002	-0.3665	3.2227	0.8392	0.6098	-0.1035	6.297	-3.5248
-1.5218	0.4112	-0.3581	0.1455	1.2141	0.7357	0.8336	2.2771	2.7135	3.4157	5.1557	5.0298	6.2551	0.235	-1.5834	-2.4618	-0.4392	3.4073	0.8448	0.6462	-0.0056	6.2607	-3.5192
-1.7232	0.2825	-0.5511	-0.0196	1.1833	0.6126	0.7581	2.3219	2.6911	3.4576	5.3543	5.1613	6.4089	0.2937	-1.6505	-2.5485	-0.5455	3.6283	0.9092	0.7329	0.1427	6.2383	-3.5164
-1.9582	0.1091	-0.7917	-0.1678	1.049	0.428	0.6378	2.3219	2.6408	3.4828	5.525	5.2452	6.546	0.3413	-1.7932	-2.624	-0.6266	3.8185	0.926	0.7833	0.2658	6.2103	-3.5248
-2.1372	-0.0168	-0.9931	-0.3021	0.9903	0.2797	0.5707	2.3527	2.6016	3.4968	5.704	5.3207	6.6943	0.3832	-1.8575	-2.6855	-0.7385	4.0255	0.9875	0.8728	0.3944	6.1768	-3.5192
-2.4114	-0.221	-1.2589	-0.4924	0.87	0.0895	0.414	2.3331	2.4953	3.466	5.8662	5.3851	6.781	0.4308	-2.0142	-2.803	-0.828	4.2157	1.0351	0.9036	0.5203	6.1628	-3.4912
-2.6408	-0.414	-1.5078	-0.6798	0.7301	-0.1147	0.2602	2.3079	2.4002	3.3933	6.0173	5.4159	6.8453	0.4728	-2.1428	-2.8646	-0.9148	4.378	1.0882	0.9399	0.6742	6.132	-3.4604
-2.8842	-0.6015	-1.782	-0.8756	0.5735	-0.3189	0.1175	2.2659	2.2855	3.3346	6.1348	5.4354	6.9041	0.5119	-2.2547	-2.9541	-1.0071	4.5347	1.1218	0.9903	0.8364	6.104	-3.4269
-3.1275	-0.8364	-2.0477	-1.0742	0.4336	-0.5343	-0.0504	2.2212	2.154	3.2646	6.2607	5.4354	6.9824	0.5595	-2.3806	-3.0604	-1.091	4.6997	1.1777	1.0323	0.9959	6.09	-3.3765
-3.3877	-1.0379	-2.3107	-1.2812	0.2741	-0.7693	-0.2378	2.1792	2.0393	3.1807	6.4173	5.4718	7.0048	0.6015	-2.4981	-3.1219	-1.1637	4.834	1.2141	1.0714	1.1525	6.0621	-3.329
-3.6339	-1.2784	-2.6016	-1.4994	0.0979	-0.9595	-0.4028	2.1093	1.9162	3.0968	6.4985	5.4326	7.0216	0.6294	-2.6268	-3.2534	-1.2085	4.9543	1.2616	1.0742	1.3036	6.0257	-3.287
-3.8577	-1.505	-2.9065	-1.7428	-0.0783	-1.2113	-0.5987	2.0477	1.7876	2.9709	6.6383	5.4298	7.0328	0.6406	-2.7639	-3.3401	-1.2505	5.0466	1.3148	1.0994	1.4771	6.0117	-3.2255
-4.115	-1.7568	-3.1723	-1.9386	-0.2825	-1.4435	-0.8169	1.9694	1.6225	2.8562	6.7307	5.4187	7.0216	0.6518	-2.9205	-3.452	-1.2672	5.1445	1.3624	1.077	1.6113	5.9809	-3.1751
-4.3556	-1.9806	-3.4437	-2.1428	-0.4588	-1.6897	-1.0127	1.9162	1.4743	2.7387	6.837	5.3683	7.0048	0.649	-3.0492	-3.536	-1.2784	5.2424	1.4323	1.0686	1.782	5.9669	-3.108
-4.585	-2.2072	-3.7374	-2.3694	-0.6434	-1.919	-1.2029	1.8267	1.3372	2.6212	6.9433	5.3599	7.0244	0.6714	-3.1695	-3.6059	-1.3008	5.3403	1.4854	1.091	1.947	5.9362	-3.0576
-4.8116	-2.4701	-4.0171	-2.5904	-0.856	-2.1876	-1.4043	1.7148	1.1581	2.4869	7.0328	5.2956	6.9824	0.6574	-3.329	-3.7542	-1.2868	5.4131	1.5274	1.119	2.1065	5.911	-2.9961
-5.0074	-2.6883	-4.2689	-2.7723	-1.0574	-2.4198	-1.5973	1.6365	1.0071	2.3415	7.0747	5.2228	6.9461	0.6518	-3.4492	-3.8241	-1.284	5.4802	1.5722	1.147	2.2463	5.883	-2.9457
-5.2256	-2.9541	-4.5431	-2.9541	-1.2728	-2.6632	-1.754	1.5526	0.8448	2.2268	7.1615	5.1613	6.9153	0.6658	-3.5639	-3.908	-1.27	5.5501	1.5917	1.1917	2.3862	5.8439	-2.8758
-5.4187	-3.1835	-4.7948	-3.1471	-1.4854	-2.8898	-1.9666	1.4379	0.649	2.0701	7.1726	5.055	6.837	0.635	-3.6982	-3.9948	-1.2337	5.5837	1.6001	1.2057	2.5289	5.8215	-2.8226
-5.6257	-3.4045	-5.0494	-3.301	-1.6785	-3.1164	-2.1205	1.312	0.4728	1.933	7.1894	4.9263	6.7698	0.6266	-3.7961	-4.0619	-1.1973	5.6061	1.6001	1.2505	2.6604	5.7935	-2.7723
-5.8103	-3.6339	-5.2788	-3.4716	-1.8939	-3.3737	-2.3107	1.1805	0.2909	1.8044	7.2342	4.82	6.6887	0.6015	-3.9248	-4.157	-1.147	5.6285	1.6001	1.2728	2.7974	5.7571	-2.7303
-5.9222	-3.8241	-5.5026	-3.5863	-2.0841	-3.5556	-2.4534	1.0714	0.1455	1.6505	7.2174	4.7109	6.5712	0.5707	-3.9836	-4.1962	-1.0882	5.6173	1.5694	1.3232	2.8982	5.7124	-2.6827
-6.0872	-4.0199	-5.6732	-3.6982	-2.2547	-3.743	-2.5932	0.9511	-0.0392	1.519	7.2202	4.6102	6.4705	0.5371	-4.0507	-4.2549	-1.0267	5.5781	1.5694	1.3707	3.0296	5.6816	-2.6352
-6.1879	-4.2213	-5.8662	-3.8297	-2.4478	-3.9276	-2.7331	0.8197	-0.2042	1.3763	7.1782	4.4731	6.3614	0.4728	-4.1598	-4.2745	-0.912	5.5389	1.5246	1.368	3.1136	5.6424	-2.5932
-6.311	-4.3696	-6.0257	-3.908	-2.596	-4.0815	-2.8254	0.7161	-0.3469	1.2672	7.1531	4.3668	6.2383	0.428	-4.2074	-4.3221	-0.8113	5.4634	1.491	1.3903	3.2171	5.6201	-2.5792
-6.3754	-4.5067	-6.1544	-3.992	-2.7527	-4.2046	-2.9065	0.6378	-0.4784	1.1553	7.1279	4.2801	6.1068	0.3553	-4.2465	-4.3416	-0.6854	5.3963	1.4687	1.3819	3.3066	5.5921	-2.5401
-6.4425	-4.627	-6.2691	-4.0255	-2.8786	-4.3081	-2.9737	0.5371	-0.5791	1.0714	7.0943	4.1934	6.0005	0.3049	-4.2829	-4.3444	-0.5679	5.304	1.4211	1.3763	3.3821	5.5781	-2.5093
-6.5069	-4.7137	-6.3558	-4.0619	-2.9961	-4.4004	-3.0324	0.4532	-0.6742	0.9735	7.0775	4.1374	5.8662	0.2238	-4.3137	-4.3528	-0.4224	5.1641	1.3931	1.3372	3.4716	5.5641	-2.4757
-6.5013	-4.792	-6.3642	-4.0227	-3.0716	-4.4339	-3.0436	0.4532	-0.6882	0.9511	7.0552	4.0927	5.7823	0.1734	-4.3025	-4.3304	-0.3105	5.0354	1.3847	1.312	3.5472	5.5669	-2.4673
-6.5041	-4.848	-6.4006	-4.0283	-3.1136	-4.4591	-3.0156	0.414	-0.7133	0.9036	7.0719	4.0927	5.7208	0.1119	-4.2913	-4.3165	-0.1846	4.9095	1.3875	1.2728	3.6507	5.5865	-2.431
-6.5097	-4.8787	-6.4061	-3.992	-3.1303	-4.4619	-2.9877	0.4224	-0.7106	0.9204	7.0887	4.1039	5.6508	0.0476	-4.2885	-4.336	-0.0587	4.7864	1.354	1.2337	3.701	5.6341	-2.4198
-6.4593	-4.8759	-6.3838	-3.9388	-3.1415	-4.406	-2.9317	0.4504	-0.6742	0.9288	7.1223	4.1542	5.6229	0.0028	-4.2521	-4.3193	0.0392	4.6633	1.3652	1.1777	3.7598	5.7012	-2.4254
-6.4285	-4.8676	-6.325	-3.8465	-3.0968	-4.3528	-2.8562	0.4868	-0.621	0.9875	7.1671	4.2074	5.5977	-0.0476	-4.2074	-4.2801	0.1371	4.5403	1.3707	1.1414	3.8409	5.7515	-2.3946
-6.3726	-4.806	-6.2691	-3.7682	-3.0548	-4.2633	-2.7639	0.5483	-0.5455	1.0658	7.2146	4.2717	5.5697	-0.0923	-4.1934	-4.3081	0.2182	4.4228	1.3931	1.1218	3.9108	5.8551	-2.4058
-6.2831	-4.7473	-6.174	-3.6479	-2.9905	-4.1682	-2.6492	0.621	-0.4336	1.1497	7.2538	4.336	5.5753	-0.1287	-4.1346	-4.3193	0.2937	4.3444	1.4211	1.1022	3.964	5.9446	-2.3862
-6.2467	-4.7053	-6.0649	-3.5639	-2.8982	-4.0675	-2.5205	0.7217	-0.3105	1.2505	7.3153	4.4395	5.6145	-0.1706	-4.0983	-4.2941	0.3665	4.2493	1.4519	1.0462	4.0255	6.0397	-2.389
-6.1488	-4.6214	-5.9502	-3.4213	-2.7918	-3.9276	-2.3834	0.8392	-0.1958	1.3819	7.3629	4.5403	5.6285	-0.2014	-4.0311	-4.2857	0.4392	4.143	1.5218	1.0267	4.1094	6.1516	-2.3918
-6.0397	-4.5291	-5.8215	-3.3066	-2.6548	-3.7766	-2.2463	0.9511	-0.042	1.5106	7.416	4.6354	5.662	-0.2378	-3.9668	-4.2913	0.4979	4.0787	1.5917	1.0295	4.1682	6.2467	-2.389
-5.9474	-4.42	-5.6648	-3.1331	-2.5457	-3.6087	-2.0589	1.0798	0.1203	1.6169	7.472	4.7585	5.7012	-0.2518	-3.9164	-4.2801	0.5371	4.0171	1.6561	0.9791	4.2633	6.3586	-2.4114
-5.8243	-4.3109	-5.483	-3.0268	-2.3722	-3.4492	-1.9274	1.2393	0.2714	1.7568	7.5139	4.8648	5.704	-0.2937	-3.8437	-4.2661	0.5875	3.9192	1.74	0.9204	4.3304	6.4621	-2.3946
-5.7012	-4.1654	-5.3431	-2.8674	-2.1988	-3.2506	-1.7596	1.4015	0.4588	1.8883	7.5643	4.9655	5.7348	-0.3077	-3.7738	-4.2157	0.6266	3.8409	1.8351	0.898	4.4088	6.5768	-2.4086
-5.5781	-4.0283	-5.1613	-2.7163	-2.0253	-3.0352	-1.6085	1.575	0.6434	2.0309	7.6035	5.0774	5.7599	-0.3357	-3.701	-4.1878	0.6826	3.7318	1.9414	0.8616	4.4731	6.6719	-2.4142
-5.427	-3.8773	-4.9767	-2.5569	-1.8044	-2.831	-1.4547	1.7428	0.8448	2.1876	7.6902	5.22	5.8075	-0.3273	-3.6031	-4.1346	0.705	3.6674	2.0673	0.8644	4.5654	6.7698	-2.4338
-5.29	-3.7206	-4.7417	-2.4086	-1.5917	-2.6072	-1.2644	1.947	1.0686	2.3247	7.7629	5.3459	5.8718	-0.3553	-3.5024	-4.0283	0.7273	3.5919	2.196	0.8644	4.627	6.8677	-2.4478
-5.1109	-3.5332	-4.5291	-2.238	-1.3819	-2.389	-1.0938	2.1512	1.2784	2.4422	7.8273	5.4718	5.8634	-0.3693	-3.3989	-3.9444	0.7665	3.5136	2.3359	0.8532	4.7081	6.9489	-2.4618
-4.9739	-3.3485	-4.3444	-2.0981	-1.1386	-2.1652	-0.9315	2.3806	1.4882	2.5988	7.9252	5.6117	5.9362	-0.3777	-3.2982	-3.8437	0.7889	3.4576	2.4506	0.8504	4.7836	7.0244	-2.4841
-4.8144	-3.1415	-4.1066	-1.9358	-0.8784	-1.8995	-0.7469	2.582	1.726	2.7079	7.9867	5.7543	5.9809	-0.4	-3.1947	-3.7374	0.8085	3.3765	2.6128	0.8728	4.862	7.0747	-2.4981
-4.6717	-2.9653	-3.9052	-1.7568	-0.6238	-1.6841	-0.5875	2.8366	1.9806	2.8814	8.1098	5.9166	6.0565	-0.386	-3.094	-3.6087	0.8085	3.3346	2.7667	0.9288	4.9962	7.1111	-2.5149
-4.4871	-2.7471	-3.7066	-1.6309	-0.3609	-1.4155	-0.4364	3.0296	2.1932	3.0212	8.1797	6.0341	6.0956	-0.4056	-2.9849	-3.508	0.8364	3.2758	2.901	0.9399	5.0494	7.1391	-2.5261
-4.3472	-2.5373	-3.4912	-1.5022	-0.0979	-1.1777	-0.2909	3.2478	2.4226	3.1219	8.2776	6.1516	6.1404	-0.4224	-2.9065	-3.4101	0.8588	3.2031	3.0548	0.9539	5.1109	7.1559	-2.5317
-4.213	-2.3415	-3.2842	-1.3652	0.1818	-0.9679	-0.1371	3.4996	2.6436	3.2618	8.3951	6.2943	6.2271	-0.4084	-2.8254	-3.2926	0.842	3.2115	3.2227	1.0043	5.206	7.1587	-2.5317
-4.0759	-2.1345	-3.094	-1.2365	0.4336	-0.7273	0.0056	3.7262	2.8674	3.4101	8.4679	6.4061	6.297	-0.4168	-2.7443	-3.1975	0.8448	3.2003	3.3849	1.0602	5.2872	7.1391	-2.5289
-3.9668	-1.9162	-2.9093	-1.105	0.6882	-0.5343	0.1539	3.936	3.0464	3.5108	8.549	6.4929	6.311	-0.4084	-2.6827	-3.0884	0.8392	3.1947	3.5444	1.105	5.3487	7.1223	-2.5373
-3.8101	-1.7232	-2.7499	-0.9959	0.9483	-0.3161	0.2714	4.1654	3.259	3.6115	8.6413	6.5964	6.3866	-0.4028	-2.6408	-3.0045	0.8224	3.2199	3.6758	1.1917	5.4326	7.0943	-2.5569
-3.7206	-1.547	-2.5457	-0.926	1.1637	-0.1287	0.3749	4.3332	3.4045	3.687	8.6945	6.6467	6.4089	-0.4112	-2.624	-2.9373	0.8252	3.2087	3.8073	1.2029	5.4438	7.0803	-2.5569
-3.6199	-1.3903	-2.403	-0.856	1.4071	0.0476	0.4672	4.5179	3.5388	3.7877	8.7532	6.6971	6.4481	-0.3972	-2.6268	-2.8646	0.828	3.2003	3.908	1.2505	5.4634	7.0524	-2.5513
-3.5052	-1.1917	-2.2715	-0.7805	1.6253	0.2154	0.5455	4.6801	3.715	3.8577	8.8175	6.7698	6.4593	-0.4028	-2.5988	-2.8142	0.8057	3.1975	4.0563	1.2784	5.497	7.03	-2.5597
-3.4381	-1.0462	-2.1372	-0.7133	1.8351	0.3721	0.6322	4.8424	3.8605	3.9052	8.8735	6.7978	6.4873	-0.3944	-2.6044	-2.7611	0.7917	3.231	4.1626	1.3148	5.4998	6.9908	-2.5736
-3.3429	-0.884	-1.9974	-0.6602	2.0226	0.5035	0.7189	4.9795	3.9892	3.964	8.8875	6.8314	6.5069	-0.3832	-2.6268	-2.7023	0.7833	3.2255	4.2437	1.3456	5.483	6.9405	-2.5736
-3.2506	-0.7189	-1.8603	-0.6098	2.2184	0.6406	0.7805	5.1277	4.1206	4.0115	8.9238	6.8537	6.4985	-0.3665	-2.638	-2.6604	0.7581	3.2115	4.3472	1.3791	5.4578	6.8929	-2.5848
-3.1807	-0.5595	-1.754	-0.5399	2.389	0.7637	0.8392	5.2592	4.2297	4.0535	8.9602	6.8677	6.5125	-0.3581	-2.6352	-2.5988	0.7385	3.245	4.4395	1.4099	5.4382	6.8425	-2.5848
-3.1331	-0.4364	-1.6477	-0.5203	2.5625	0.8924	0.8896	5.3711	4.3444	4.1039	8.9658	6.8985	6.5264	-0.3553	-2.6464	-2.5681	0.7273	3.2618	4.5011	1.4435	5.4103	6.7978	-2.596
-3.0744	-0.3161	-1.5722	-0.4728	2.7163	1.0043	0.9399	5.5026	4.4451	4.1514	9.0106	6.9265	6.5516	-0.3469	-2.6604	-2.5485	0.7106	3.273	4.6186	1.5078	5.3879	6.739	-2.6268
-3.0464	-0.207	-1.519	-0.4784	2.8366	1.0798	0.9763	5.5781	4.5263	4.1962	9.0413	6.9572	6.5628	-0.3525	-2.7023	-2.5876	0.7189	3.2898	4.7025	1.5554	5.3739	6.7111	-2.6548
-2.9989	-0.0923	-1.4211	-0.4308	2.9821	1.1637	1.0043	5.6732	4.6158	4.2213	9.0665	6.9656	6.602	-0.3525	-2.7387	-2.5541	0.7189	3.3262	4.7501	1.6057	5.3347	6.6747	-2.6883
-2.9989	-0.0336	-1.3903	-0.4644	3.0576	1.2113	1.0127	5.7404	4.6689	4.2493	9.1001	6.974	6.6104	-0.3665	-2.7751	-2.5876	0.7609	3.3346	4.8032	1.6617	5.304	6.6271	-2.6967
-3.0101	0.0392	-1.34	-0.4588	3.1192	1.2561	1.0295	5.7851	4.6941	4.2689	9.1365	6.9712	6.6243	-0.3805	-2.845	-2.6212	0.7833	3.3401	4.8592	1.7064	5.3095	6.6216	-2.7247
-3.0156	0.0839	-1.3484	-0.484	3.1527	1.2952	1.0267	5.8215	4.7137	4.2773	9.1365	6.9628	6.6104	-0.4084	-2.9233	-2.6995	0.828	3.3401	4.9263	1.7344	5.2928	6.6327	-2.7611
-3.0101	0.1343	-1.2728	-0.4812	3.2283	1.3568	1.0267	5.8439	4.7585	4.2997	9.1756	6.9461	6.6271	-0.4056	-2.9513	-2.7723	0.8308	3.4045	4.9767	1.7708	5.2872	6.6495	-2.803
-3.0576	0.1818	-1.2896	-0.5035	3.2758	1.3428	1.0239	5.8718	4.7501	4.2913	9.1868	6.9069	6.6271	-0.4336	-3.0268	-2.8674	0.898	3.4185	5.0214	1.8267	5.2788	6.7055	-2.8422
-3.08	0.2042	-1.2561	-0.5119	3.287	1.34	1.0211	5.8998	4.7333	4.2969	9.1868	6.8761	6.6076	-0.4672	-3.08	-2.9485	0.9483	3.4101	5.0746	1.8211	5.2704	6.7754	-2.8786
-3.0884	0.235	-1.2449	-0.5315	3.2646	1.3568	1.0183	5.8634	4.7277	4.2969	9.1756	6.8398	6.5908	-0.4868	-3.0996	-3.0408	0.9959	3.4213	5.1137	1.8659	5.29	6.8537	-2.9317
-3.1164	0.2518	-1.2421	-0.5399	3.2814	1.3735	1.0183	5.8746	4.7277	4.2941	9.1784	6.7866	6.5656	-0.5203	-3.1611	-3.1359	1.0574	3.4213	5.1697	1.8771	5.2816	6.9377	-2.9877
-3.1219	0.2741	-1.2113	-0.5511	3.2814	1.3624	1.0043	5.8578	4.7081	4.2829	9.1532	6.7502	6.5348	-0.5399	-3.1835	-3.2003	1.1134	3.4241	5.2256	1.8687	5.3207	7.0244	-3.052
-3.1219	0.3049	-1.2029	-0.5707	3.2702	1.3763	0.9623	5.8634	4.6997	4.2661	9.1504	6.6999	6.5069	-0.5903	-3.1807	-3.259	1.1945	3.4213	5.2648	1.8799	5.3543	7.0943	-3.0912
-3.1108	0.3217	-1.1805	-0.5623	3.2786	1.4099	0.9679	5.8411	4.6885	4.2465	9.1672	6.6607	6.4845	-0.6238	-3.1723	-3.3178	1.284	3.3961	5.3068	1.8295	5.3823	7.1754	-3.1499
-3.1052	0.3637	-1.1358	-0.5455	3.2786	1.4379	0.9623	5.8355	4.6605	4.2521	9.1672	6.6355	6.4425	-0.6714	-3.1639	-3.3485	1.3596	3.3709	5.3655	1.7484	5.4075	7.2286	-3.2087
-3.0576	0.4196	-1.105	-0.5707	3.2842	1.4379	0.9539	5.8243	4.6857	4.2213	9.1756	6.602	6.4341	-0.7189	-3.1108	-3.3933	1.4659	3.315	5.4159	1.6645	5.483	7.279	-3.273
-3.0408	0.4588	-1.0462	-0.5567	3.301	1.4854	0.9455	5.8495	4.7025	4.2074	9.212	6.6327	6.4173	-0.7833	-3.0688	-3.3989	1.5806	3.259	5.4886	1.5889	5.5501	7.3181	-3.3374
-3.0045	0.5035	-1.0099	-0.5399	3.3066	1.5022	0.926	5.8439	4.7221	4.2185	9.24	6.6216	6.3782	-0.8532	-3.0296	-3.4437	1.7036	3.1667	5.5417	1.4826	5.6089	7.3685	-3.4045
-2.9597	0.5651	-0.9735	-0.5343	3.3206	1.5526	0.926	5.8523	4.7445	4.2157	9.2763	6.6467	6.3726	-0.9064	-3.0045	-3.4828	1.8323	3.1136	5.6061	1.3735	5.7096	7.4384	-3.4688
-2.9457	0.621	-0.898	-0.5623	3.3653	1.6113	0.9483	5.8942	4.8116	4.2465	9.363	6.7167	6.4006	-0.9623	-2.9849	-3.494	1.947	3.0744	5.676	1.3008	5.8159	7.5083	-3.55
-2.9177	0.6686	-0.8448	-0.5567	3.3709	1.6505	0.9288	5.9166	4.8368	4.2521	9.4078	6.7698	6.3894	-1.0462	-2.9737	-3.5751	2.0841	2.9989	5.7571	1.2029	5.9082	7.623	-3.6143
-2.8758	0.7329	-0.7917	-0.5567	3.3877	1.6953	0.9204	5.9502	4.8787	4.2661	9.4721	6.8146	6.4229	-1.0966	-3.0073	-3.6507	2.2072	2.9681	5.8047	1.1358	6.0033	7.7265	-3.6926
-2.8562	0.7917	-0.7497	-0.5567	3.4073	1.7344	0.9288	5.9558	4.9263	4.2829	9.5197	6.8957	6.4313	-1.1553	-2.9933	-3.7066	2.3135	2.9121	5.8606	1.0798	6.104	7.8552	-3.7374
-2.8058	0.8504	-0.6826	-0.5483	3.4129	1.7876	0.9204	5.9893	4.9711	4.2941	9.6064	6.9824	6.4649	-1.1917	-2.9765	-3.7458	2.4002	2.887	5.925	1.0406	6.1907	7.9867	-3.7793
-2.7723	0.912	-0.6294	-0.5399	3.4465	1.8743	0.9399	6.0173	5.0438	4.3388	9.6596	7.0691	6.5041	-1.2337	-2.9793	-3.7933	2.4869	2.8758	5.9949	0.9847	6.2915	8.1238	-3.8381
-2.7387	0.9791	-0.5735	-0.5119	3.4297	1.8799	0.9315	6.0145	5.069	4.3696	9.7239	7.1391	6.5236	-1.2756	-2.9625	-3.8297	2.5541	2.8254	6.0061	0.9623	6.3614	8.2553	-3.8605
-2.6716	1.0434	-0.4868	-0.5091	3.4632	1.9526	0.9483	6.0145	5.1137	4.3836	9.7715	7.209	6.5768	-1.3092	-2.9569	-3.8381	2.6128	2.8282	6.0341	0.9511	6.4481	8.3979	-3.8773
-2.624	1.0742	-0.414	-0.4588	3.4576	1.9918	0.9875	6.0397	5.1809	4.4312	9.8218	7.2985	6.6076	-1.326	-2.9597	-3.8968	2.6604	2.8366	6.0509	0.9791	6.4957	8.5462	-3.8857
-2.5653	1.1386	-0.3385	-0.414	3.4632	2.0477	1.0295	6.0341	5.206	4.4675	9.861	7.3629	6.6327	-1.354	-2.9429	-3.8689	2.7135	2.8366	6.0565	0.9903	6.5684	8.6693	-3.9052
-2.4841	1.1973	-0.2462	-0.3805	3.4744	2.0953	1.049	6.0677	5.2732	4.5039	9.9002	7.4552	6.6635	-1.3707	-2.9177	-3.8549	2.7415	2.8422	6.0649	1.0071	6.6523	8.7924	-3.9052
-2.4002	1.2728	-0.165	-0.3021	3.48	2.196	1.1274	6.0677	5.3599	4.5822	9.9309	7.5531	6.7362	-1.3847	-2.8814	-3.8129	2.7835	2.8562	6.0677	1.0742	6.7195	8.9071	-3.9136
-2.3079	1.3232	-0.0643	-0.2462	3.4968	2.2799	1.1693	6.09	5.455	4.627	10.0121	7.6818	6.8034	-1.3931	-2.8394	-3.7905	2.8086	2.8842	6.0733	1.1553	6.767	9.0022	-3.894
-2.1904	1.4463	0.0671	-0.1175	3.5472	2.3806	1.2561	6.1264	5.5781	4.7277	10.054	7.8161	6.9153	-1.4015	-2.7807	-3.7094	2.8002	2.901	6.09	1.2337	6.8398	9.1113	-3.8745
-2.0813	1.533	0.2294	-0.0084	3.6003	2.4953	1.3568	6.1572	5.676	4.8256	10.0932	7.9755	7.0048	-1.3959	-2.6939	-3.6031	2.7863	2.9513	6.0956	1.3288	6.9013	9.184	-3.8325
-1.9162	1.6729	0.3721	0.1091	3.6814	2.6604	1.491	6.2495	5.8243	4.9599	10.1715	8.1406	7.1279	-1.368	-2.6128	-3.494	2.7499	3.0128	6.0984	1.4575	6.9908	9.2539	-3.8073
-1.8016	1.7372	0.5539	0.249	3.7682	2.7918	1.6281	6.3166	5.9837	5.0438	10.2442	8.314	7.2482	-1.3568	-2.5401	-3.3821	2.7275	3.0744	6.0844	1.5442	7.0188	9.3071	-3.7766
-1.6505	1.8743	0.7217	0.4224	3.8912	2.9541	1.7596	6.4061	6.1544	5.1921	10.3142	8.507	7.3853	-1.3568	-2.4394	-3.2982	2.6883	3.1527	6.0984	1.6393	7.0887	9.3742	-3.7374
-1.5022	2.0142	0.8952	0.5847	3.9975	3.1192	1.919	6.4789	6.339	5.3375	10.4205	8.7112	7.5587	-1.3092	-2.3918	-3.1555	2.638	3.2171	6.0872	1.7764	7.1419	9.4414	-3.6954
-1.3624	2.1652	1.0714	0.7693	4.1066	3.287	2.1037	6.6104	6.5432	5.511	10.5268	8.935	7.7461	-1.2812	-2.3275	-3.0604	2.5541	3.3346	6.0928	1.8855	7.2202	9.5141	-3.6311
-1.2141	2.2883	1.2672	0.9651	4.2241	3.4632	2.3023	6.7251	6.7446	5.704	10.6191	9.1225	7.914	-1.2337	-2.2659	-2.9317	2.4701	3.4716	6.0677	2.0142	7.2734	9.6008	-3.5695
-1.0323	2.4618	1.4687	1.2001	4.3752	3.6563	2.4813	6.8174	6.9377	5.8774	10.7086	9.3547	8.1098	-1.1693	-2.2128	-2.8226	2.3582	3.5891	6.0677	2.1568	7.3209	9.6876	-3.494
-0.8952	2.596	1.6897	1.368	4.5039	3.8549	2.6688	6.9209	7.1363	6.0481	10.8065	9.5337	8.3168	-1.1162	-2.1652	-2.7135	2.2463	3.729	6.0425	2.2967	7.3461	9.7883	-3.4017
-0.7301	2.7331	1.8715	1.5945	4.6494	4.0451	2.887	7.0384	7.3349	6.2187	10.8849	9.7463	8.4874	-1.049	-2.1624	-2.6212	2.1205	3.8829	6.0173	2.4114	7.3825	9.8918	-3.3094
-0.6042	2.8926	2.0701	1.782	4.8004	4.2437	3.0716	7.1671	7.5335	6.4089	10.9688	9.9449	8.6917	-0.9959	-2.1317	-2.5457	1.9974	4.0339	6.0117	2.4953	7.4048	9.9673	-3.2087
-0.4392	3.052	2.2799	2.0114	4.9655	4.4256	3.2926	7.2817	7.7321	6.6048	11.0499	10.1267	8.8791	-0.912	-2.1456	-2.4673	1.8435	4.1878	6.0173	2.5988	7.416	10.0624	-3.1136
-0.2658	3.2003	2.4897	2.2296	5.1249	4.6214	3.5164	7.3992	7.9391	6.7978	11.0891	10.317	9.0581	-0.8392	-2.0897	-2.3582	1.6897	4.3668	5.9669	2.68	7.4216	10.1016	-3.0212
-0.0895	3.3765	2.7191	2.4254	5.3263	4.8228	3.729	7.5475	8.1406	6.9852	11.1562	10.4876	9.2623	-0.7581	-2.0589	-2.2631	1.5358	4.5347	5.9669	2.7639	7.4412	10.1407	-2.8982
0.0476	3.5556	2.9569	2.6268	5.4718	5.0298	3.9276	7.6538	8.342	7.1671	11.2122	10.6806	9.4526	-0.691	-2.0086	-2.196	1.3791	4.7109	5.9278	2.8142	7.4216	10.1351	-2.803
0.2238	3.7178	3.1415	2.8506	5.662	5.2424	4.1206	7.7937	8.5154	7.3573	11.2765	10.8681	9.6288	-0.5875	-1.9414	-2.0953	1.2085	4.9011	5.911	2.9233	7.4216	10.124	-2.6995
0.3777	3.8857	3.3625	3.0576	5.8271	5.4382	4.3165	7.9252	8.7224	7.5363	11.3269	11.0303	9.7994	-0.5119	-1.8995	-2.0226	1.0518	5.083	5.8998	3.0045	7.3992	10.0932	-2.6128
0.5203	4.0451	3.5667	3.2422	5.9642	5.6369	4.5291	8.0538	8.8903	7.7405	11.3744	11.2122	9.9869	-0.4364	-1.8127	-1.9442	0.898	5.262	5.8942	3.1052	7.3853	10.026	-2.5205
0.6798	4.1962	3.7821	3.4241	6.1208	5.8047	4.7137	8.1601	9.0973	7.914	11.4192	11.3464	10.1295	-0.3665	-1.7512	-1.8827	0.7525	5.4187	5.8858	3.2059	7.3825	9.9617	-2.4282
0.8392	4.3808	3.9975	3.6227	6.2691	6.0145	4.8871	8.2692	9.2539	8.079	11.4583	11.5031	10.3058	-0.2993	-1.6785	-1.7904	0.6154	5.5949	5.8718	3.3262	7.3545	9.9002	-2.3331
0.9539	4.5067	4.1626	3.771	6.4313	6.2075	5.0578	8.3895	9.4498	8.2385	11.4919	11.657	10.4932	-0.2266	-1.6421	-1.7344	0.4672	5.7795	5.8383	3.4884	7.3461	9.8358	-2.2296
1.0602	4.6633	4.3976	3.9444	6.5936	6.3642	5.2088	8.493	9.6148	8.3839	11.5451	11.794	10.689	-0.1427	-1.5889	-1.6953	0.3217	5.9558	5.8131	3.6591	7.3377	9.7855	-2.1428
1.1833	4.7501	4.5431	4.0759	6.6775	6.5152	5.3403	8.5826	9.7519	8.5322	11.5758	11.9059	10.8149	-0.0699	-1.6029	-1.6785	0.1706	6.1404	5.7851	3.8017	7.3013	9.7547	-2.0365
1.2644	4.862	4.6885	4.1962	6.8006	6.6299	5.4578	8.6665	9.8694	8.6693	11.601	12.0038	10.9548	0	-1.5834	-1.6757	0.0196	6.3222	5.7348	3.95	7.2762	9.7351	-1.947
1.354	4.9767	4.8424	4.3025	6.8873	6.7586	5.5641	8.728	9.9645	8.742	11.5926	12.0766	11.0779	0.0783	-1.6141	-1.6869	-0.1259	6.4817	5.6732	4.0479	7.2314	9.7295	-1.8407
1.4239	5.0718	4.999	4.4032	7.002	6.8985	5.6592	8.8231	10.0876	8.8791	11.6402	12.1661	11.2178	0.1567	-1.6337	-1.7232	-0.2993	6.6523	5.6061	4.1906	7.2174	9.7575	-1.754
1.5078	5.1613	5.1585	4.4759	7.0831	7.0076	5.7627	8.8595	10.2023	8.9462	11.6262	12.2164	11.3269	0.235	-1.6869	-1.7792	-0.4448	6.8146	5.5305	4.3025	7.2118	9.8022	-1.6505
1.5917	5.262	5.2732	4.571	7.1531	7.1223	5.8578	8.9183	10.2638	9.0274	11.6346	12.2556	11.408	0.3077	-1.7596	-1.8435	-0.6098	6.9656	5.4578	4.364	7.1643	9.8862	-1.5666
1.6813	5.3543	5.427	4.6773	7.2482	7.2286	5.9194	8.977	10.3561	9.1001	11.629	12.3032	11.5171	0.4028	-1.8044	-1.9414	-0.7721	7.1027	5.3907	4.4451	7.1671	9.9589	-1.4771
1.7596	5.4578	5.5893	4.7277	7.3405	7.3517	5.9865	9.0302	10.4261	9.184	11.629	12.3311	11.5842	0.4868	-1.8715	-2.0561	-0.9371	7.2314	5.3068	4.5039	7.1671	10.068	-1.3931
1.8155	5.5669	5.6984	4.8228	7.4356	7.4496	6.0537	9.0917	10.4876	9.226	11.6402	12.3703	11.6374	0.5679	-1.9274	-2.1261	-1.0938	7.3545	5.2648	4.5458	7.1894	10.1631	-1.298
1.8995	5.6676	5.8271	4.8843	7.5139	7.5615	6.1264	9.1476	10.5687	9.2819	11.6653	12.3899	11.6737	0.6322	-2.0114	-2.2436	-1.2533	7.4328	5.234	4.5403	7.2118	10.2974	-1.2169
1.9778	5.7655	5.9809	4.9767	7.6342	7.7042	6.1991	9.2232	10.6583	9.3575	11.6849	12.4207	11.7688	0.7301	-2.0337	-2.3387	-1.4323	7.5475	5.206	4.5542	7.2398	10.4149	-1.1497
2.0785	5.8606	6.1236	5.0298	7.7293	7.7741	6.2579	9.2819	10.7394	9.3966	11.6905	12.4458	11.7968	0.8057	-2.0897	-2.431	-1.5722	7.6202	5.1837	4.5403	7.2594	10.538	-1.077
2.1568	5.9865	6.2607	5.1109	7.8524	7.9252	6.325	9.3575	10.8345	9.4777	11.7241	12.4934	11.8388	0.8812	-2.1177	-2.5401	-1.7372	7.707	5.1837	4.5039	7.3293	10.6583	-1.0267
2.2575	6.0956	6.3782	5.2144	7.9643	8.0315	6.4201	9.4358	10.9072	9.5253	11.7716	12.527	11.8919	0.9595	-2.14	-2.6212	-1.8827	7.7741	5.1893	4.4787	7.3713	10.7646	-0.9483
2.3359	6.1879	6.4901	5.2816	8.0594	8.1322	6.4733	9.5113	10.9688	9.6008	11.8108	12.5549	11.9227	1.0211	-2.1624	-2.6967	-2.0086	7.844	5.206	4.4312	7.4188	10.8485	-0.898
2.4086	6.2775	6.6439	5.3207	8.1713	8.2469	6.5097	9.584	11.0611	9.626	11.8556	12.5605	11.9787	1.0658	-2.1792	-2.8198	-2.1037	7.8776	5.22	4.364	7.472	10.9716	-0.8448
2.4925	6.381	6.767	5.3935	8.2525	8.3336	6.574	9.6484	11.1226	9.7043	11.9003	12.5857	12.0038	1.133	-2.1764	-2.901	-2.2128	7.928	5.248	4.3304	7.5559	11.0919	-0.8085
2.5848	6.4873	6.8901	5.4634	8.3532	8.4455	6.6299	9.7295	11.1674	9.7575	11.9535	12.5829	12.0066	1.1693	-2.1792	-2.9709	-2.3023	7.9783	5.3151	4.3025	7.6594	11.187	-0.7665
2.6911	6.574	7.03	5.5361	8.4567	8.5602	6.6803	9.7827	11.2345	9.7939	12.0122	12.5913	12.0318	1.2001	-2.1792	-3.066	-2.3806	8.0035	5.3487	4.2661	7.7377	11.3213	-0.7637
2.7527	6.6523	7.1279	5.5865	8.5098	8.6329	6.7139	9.8498	11.2653	9.8526	12.0514	12.6109	12.0654	1.2421	-2.2184	-3.1247	-2.431	8.0371	5.3795	4.2297	7.8608	11.4192	-0.7329
2.859	6.739	7.223	5.6704	8.5882	8.7056	6.767	9.8918	11.3185	9.9085	12.1045	12.6025	12.0934	1.2756	-2.2324	-3.1807	-2.4981	8.0986	5.4522	4.2102	7.9699	11.5199	-0.7133
2.9317	6.8034	7.3545	5.7264	8.6609	8.7812	6.795	9.9365	11.3436	9.9617	12.1353	12.5829	12.0934	1.2896	-2.2687	-3.2227	-2.5317	8.1098	5.4774	4.1962	8.0678	11.629	-0.7022
3.0352	6.8761	7.4916	5.7963	8.7056	8.8819	6.8258	9.9785	11.3856	10.0093	12.1913	12.5801	12.1045	1.2952	-2.2911	-3.2646	-2.5597	8.121	5.5305	4.1822	8.1406	11.7241	-0.691
3.1331	6.9628	7.6007	5.8634	8.7616	8.9518	6.8873	10.0232	11.4304	10.1072	12.2444	12.5801	12.1213	1.3064	-2.3135	-3.2758	-2.5653	8.1769	5.5781	4.1738	8.2469	11.8136	-0.6686
3.2199	7.03	7.7321	5.9362	8.8371	9.0162	6.9544	10.096	11.4863	10.1463	12.3032	12.5969	12.1717	1.3008	-2.3443	-3.3178	-2.5681	8.1853	5.6257	4.171	8.3504	11.9199	-0.6546
3.3122	7.1167	7.8273	5.9921	8.8819	9.1029	6.9936	10.1463	11.5115	10.2247	12.3479	12.6081	12.2192	1.2812	-2.403	-3.3206	-2.5401	8.1993	5.676	4.185	8.4371	11.9982	-0.6406
3.4157	7.1503	7.9559	6.0593	8.9294	9.1728	7.0468	10.1967	11.559	10.2974	12.4151	12.6417	12.2584	1.2672	-2.4618	-3.3318	-2.5009	8.2161	5.7599	4.2185	8.5546	12.1129	-0.6434
3.48	7.2202	8.0343	6.1012	8.977	9.2316	7.0943	10.247	11.5954	10.3617	12.4514	12.6668	12.306	1.2309	-2.5457	-3.3821	-2.431	8.2301	5.8299	4.2717	8.6413	12.2025	-0.649
3.5751	7.2901	8.1573	6.1544	9.0302	9.3127	7.1726	10.3058	11.6765	10.4624	12.5465	12.7088	12.3871	1.2001	-2.6156	-3.4073	-2.3554	8.2581	5.9054	4.364	8.7448	12.3032	-0.6518
3.6339	7.3461	8.2245	6.2047	9.0833	9.3686	7.2034	10.3701	11.7157	10.5436	12.6053	12.7452	12.4458	1.1442	-2.7079	-3.452	-2.2519	8.2637	5.9642	4.4451	8.8707	12.3899	-0.6658
3.687	7.3908	8.3168	6.2579	9.1309	9.419	7.237	10.4065	11.7661	10.6359	12.6556	12.7787	12.5214	1.0938	-2.7946	-3.4996	-2.14	8.2832	6.0593	4.571	8.9602	12.4738	-0.6938
3.7682	7.4328	8.3895	6.2915	9.1728	9.4805	7.2957	10.468	11.8192	10.7058	12.72	12.8095	12.5885	1.0239	-2.8422	-3.5052	-2.003	8.2776	6.1264	4.7389	9.0889	12.5074	-0.7078
3.8269	7.5083	8.4791	6.3446	9.2456	9.5169	7.3405	10.5212	11.8919	10.7869	12.7843	12.8375	12.65	0.9567	-2.8982	-3.5416	-1.8547	8.3112	6.2215	4.9011	9.2344	12.5353	-0.7525
3.8829	7.5755	8.549	6.3642	9.2819	9.5505	7.3713	10.5743	11.9143	10.8541	12.8263	12.8431	12.6892	0.8812	-2.9345	-3.5556	-1.7036	8.3224	6.3054	5.0718	9.3602	12.5353	-0.7973
3.922	7.5839	8.5714	6.367	9.2903	9.5757	7.3685	10.5715	11.9087	10.8849	12.8682	12.8515	12.7144	0.7777	-3.0212	-3.5975	-1.5274	8.3028	6.4034	5.22	9.4805	12.5326	-0.8532
3.936	7.6314	8.6553	6.3838	9.3127	9.6064	7.3881	10.6191	11.9311	10.91	12.8934	12.8515	12.7256	0.7022	-3.0632	-3.6003	-1.3707	8.2944	6.4845	5.3907	9.6092	12.5046	-0.9092
3.9668	7.6594	8.6861	6.3642	9.3267	9.6008	7.3629	10.6191	11.9115	10.9436	12.8934	12.8403	12.7396	0.6015	-3.1247	-3.6451	-1.1777	8.2664	6.574	5.5082	9.7267	12.4738	-0.9455
3.9864	7.6706	8.7001	6.3642	9.3267	9.5785	7.3237	10.5827	11.9003	10.9408	12.8682	12.8067	12.7116	0.5147	-3.1807	-3.7122	-0.9987	8.2357	6.6663	5.6341	9.819	12.4262	-1.0267
3.9948	7.6734	8.7001	6.3138	9.2931	9.5561	7.2957	10.5436	11.8388	10.9324	12.8207	12.7703	12.6892	0.4252	-3.2422	-3.7849	-0.8085	8.1881	6.7083	5.7432	9.9058	12.3983	-1.0994
3.9808	7.6566	8.7196	6.2887	9.2623	9.5029	7.2454	10.4848	11.7772	10.9016	12.748	12.706	12.6333	0.3301	-3.3318	-3.8745	-0.6238	8.1406	6.7726	5.8495	9.9393	12.3703	-1.1693
3.964	7.6594	8.6917	6.2131	9.198	9.4693	7.1922	10.4121	11.7101	10.8485	12.6556	12.6417	12.5829	0.2434	-3.3877	-3.9612	-0.442	8.0846	6.8062	5.9194	9.9729	12.3227	-1.2561
3.9248	7.6258	8.6637	6.1376	9.1309	9.4078	7.1167	10.3254	11.6094	10.7981	12.5745	12.5689	12.5242	0.165	-3.4716	-4.0507	-0.2853	8.0427	6.8537	5.9725	10.0232	12.2864	-1.3456
3.8801	7.609	8.6581	6.1012	9.0553	9.3547	7.0384	10.2135	11.5227	10.717	12.4682	12.485	12.4514	0.0727	-3.5751	-4.1822	-0.1091	7.9391	6.8509	6.0061	10.0456	12.2472	-1.4351
3.8605	7.5699	8.6469	6.0033	8.9938	9.3071	6.9908	10.124	11.4583	10.6723	12.3759	12.4318	12.4151	0.028	-3.6702	-4.2885	0.0168	7.9056	6.8733	6.0509	10.0596	12.2276	-1.5218
3.8017	7.5139	8.5882	5.9166	8.8931	9.2428	6.8733	9.9953	11.3576	10.5687	12.2612	12.3843	12.3647	-0.0671	-3.7849	-4.4563	0.1623	7.8384	6.8985	6.0341	10.0624	12.208	-1.5889
3.7374	7.4412	8.563	5.8159	8.8064	9.1672	6.8062	9.8722	11.2513	10.5072	12.1577	12.3171	12.3116	-0.1175	-3.8577	-4.5403	0.263	7.8161	6.8789	6.0397	10.0764	12.1857	-1.6561
3.6563	7.3908	8.4986	5.704	8.6805	9.0945	6.7251	9.7519	11.1562	10.4457	12.0458	12.278	12.2864	-0.1678	-3.9864	-4.7165	0.3609	7.7349	6.8817	5.9865	10.0652	12.1689	-1.7288
3.5556	7.3153	8.4231	5.6145	8.5602	9.0302	6.6635	9.626	11.0471	10.3701	11.9479	12.2304	12.2528	-0.1986	-4.1094	-4.8536	0.4392	7.7042	6.8649	5.9558	10.0568	12.1549	-1.7736
3.4325	7.1838	8.3168	5.4718	8.4147	8.9434	6.532	9.4721	10.9268	10.2834	11.8052	12.1521	12.2053	-0.2322	-4.2381	-5.0578	0.5119	7.6734	6.8453	5.8606	10.0176	12.1297	-1.8127
3.2926	7.0859	8.2245	5.3263	8.2692	8.8343	6.4621	9.3183	10.7786	10.2247	11.6905	12.0962	12.1633	-0.2434	-4.3444	-5.1865	0.5427	7.6426	6.7754	5.8019	9.9729	12.1045	-1.8575
3.1331	6.9433	8.0678	5.1949	8.093	8.6917	6.339	9.1057	10.6247	10.124	11.559	11.9898	12.0906	-0.2769	-4.5011	-5.3739	0.5707	7.6258	6.7139	5.6732	9.9002	12.0598	-1.8911
2.9569	6.7866	7.9308	5.055	7.928	8.5434	6.2299	8.9266	10.4652	10.0372	11.38	11.8752	12.0262	-0.2658	-4.6494	-5.511	0.5735	7.6007	6.6271	5.5585	9.819	12.0178	-1.8911
2.7499	6.588	7.7489	4.8592	7.707	8.356	6.0928	8.714	10.2778	9.9002	11.1982	11.7549	11.9451	-0.2741	-4.82	-5.704	0.5623	7.5727	6.5292	5.3823	9.7099	11.9619	-1.8939
2.5513	6.4509	7.5839	4.7165	7.5167	8.2049	6.0005	8.4874	10.11	9.8106	11.0107	11.5926	11.8752	-0.235	-4.9655	-5.8411	0.5007	7.5671	6.4006	5.2452	9.5924	11.8779	-1.8743
2.3778	6.2831	7.3741	4.5486	7.3041	8.0343	5.8802	8.2888	9.9085	9.6959	10.8093	11.4695	11.794	-0.1818	-5.1025	-5.9669	0.414	7.5727	6.2803	5.0886	9.4861	11.7605	-1.8547
2.1652	6.0677	7.1754	4.3808	7.0775	7.8384	5.7599	8.0315	9.6903	9.5421	10.6135	11.2849	11.6877	-0.1483	-5.2424	-6.1124	0.3217	7.5727	6.1236	4.8927	9.3183	11.6178	-1.8099
1.9554	5.8886	6.974	4.2157	6.8733	7.6258	5.6452	7.7741	9.4833	9.4162	10.3645	11.1087	11.5842	-0.0867	-5.3795	-6.2299	0.2014	7.5811	5.9809	4.6801	9.1784	11.4471	-1.7652
1.7484	5.6816	6.7642	4.0423	6.6551	7.4412	5.5026	7.5587	9.2567	9.2763	10.1351	10.9408	11.4919	-0.0168	-5.5305	-6.3334	0.0643	7.5923	5.8187	4.4703	9.0246	11.2513	-1.7036
1.561	5.4942	6.5572	3.8773	6.4313	7.2398	5.3487	7.3041	9.0329	9.1393	9.9002	10.7702	11.3828	0.0671	-5.662	-6.4537	-0.0895	7.6258	5.6313	4.2689	8.8427	11.0583	-1.6253
1.3288	5.2928	6.353	3.7262	6.2159	7.0552	5.234	7.0831	8.8259	9.0078	9.6428	10.6079	11.2737	0.1539	-5.7851	-6.5628	-0.2574	7.637	5.4746	4.0535	8.6973	10.8541	-1.5526
1.1581	5.1109	6.1488	3.5472	6.0089	6.8425	5.1053	6.8425	8.6161	8.8735	9.3714	10.4513	11.1758	0.2434	-5.8802	-6.6355	-0.4308	7.6678	5.2872	3.8577	8.5042	10.6555	-1.4631
0.9567	4.9067	5.9753	3.3793	5.8047	6.6551	4.9543	6.6104	8.3839	8.7168	9.1225	10.289	11.0751	0.3329	-5.9781	-6.7334	-0.621	7.6622	5.1333	3.6563	8.3056	10.4624	-1.368
0.7749	4.7668	5.7963	3.2338	5.6005	6.4677	4.8424	6.3698	8.2105	8.5826	8.8651	10.1491	11.0051	0.428	-6.0537	-6.8258	-0.8029	7.693	4.9375	3.4996	8.1182	10.2722	-1.3008
0.6182	4.627	5.6285	3.1024	5.4354	6.297	4.7165	6.1712	8.0538	8.4707	8.6553	10.0121	10.9268	0.5343	-6.1432	-6.9125	-1.0211	7.7461	4.7864	3.3905	7.9336	10.096	-1.2141
0.4532	4.4871	5.4718	2.9625	5.2704	6.16	4.5934	5.9837	7.8888	8.3308	8.3979	9.8946	10.8569	0.621	-6.1991	-6.96	-1.2029	7.7853	4.6242	3.2646	7.7265	9.9169	-1.1497
0.3133	4.3556	5.3347	2.8394	5.1193	5.9977	4.4787	5.8019	7.7377	8.2385	8.1853	9.7967	10.7925	0.7217	-6.2943	-7.0188	-1.3847	7.8552	4.4647	3.1835	7.5251	9.7715	-1.0714
0.1986	4.2381	5.2228	2.7107	4.9739	5.8634	4.3472	5.6313	7.5923	8.1238	7.9531	9.682	10.7478	0.8057	-6.339	-7.0747	-1.5694	7.8972	4.3109	3.1108	7.3237	9.6204	-1.0127
0.0392	4.1094	5.0969	2.5597	4.8564	5.7376	4.2493	5.4494	7.4524	8.0203	7.7405	9.5952	10.6974	0.8728	-6.4006	-7.1503	-1.712	7.9391	4.1906	3.0464	7.1167	9.5029	-0.9763
-0.1007	4.0283	5.0018	2.4282	4.7277	5.648	4.1206	5.2816	7.3685	7.9112	7.5391	9.5393	10.689	0.9371	-6.4705	-7.2258	-1.8379	7.9867	4.0339	2.9989	6.9153	9.3938	-0.9623
-0.1986	3.9556	4.9263	2.3303	4.6326	5.5529	4.0143	5.1781	7.2817	7.8273	7.3461	9.4917	10.6862	1.0099	-6.5292	-7.2566	-1.9722	8.0455	3.936	2.9709	6.7167	9.2931	-0.9427
-0.2825	3.9024	4.848	2.2212	4.5598	5.483	3.9416	5.0522	7.2006	7.7545	7.181	9.4358	10.6555	1.0686	-6.5796	-7.2845	-2.0757	8.0986	3.7961	2.9149	6.5236	9.2176	-0.9204
-0.3413	3.8661	4.7976	2.1456	4.4955	5.4131	3.8717	4.9655	7.1587	7.7014	7.0328	9.433	10.6583	1.1134	-6.602	-7.3153	-2.1792	8.1657	3.7066	2.9233	6.339	9.1588	-0.9399
-0.3972	3.8605	4.7613	2.0365	4.4591	5.3879	3.7961	4.8983	7.1279	7.6454	6.8957	9.4302	10.6778	1.1525	-6.6327	-7.3377	-2.238	8.2301	3.6395	2.901	6.1768	9.1113	-0.9511
-0.4644	3.8381	4.7277	1.9778	4.4256	5.3683	3.7542	4.862	7.1419	7.6063	6.7698	9.4498	10.703	1.1833	-6.6859	-7.3573	-2.2939	8.2776	3.5695	2.8898	6.0117	9.0973	-0.9763
-0.4784	3.8409	4.7053	1.8967	4.4144	5.3543	3.6982	4.806	7.1363	7.5755	6.6495	9.4693	10.7366	1.1917	-6.7195	-7.3629	-2.3247	8.342	3.5164	2.8758	5.8523	9.0665	-1.0071
-0.4979	3.8493	4.6829	1.8435	4.4367	5.3487	3.6339	4.7613	7.1363	7.5531	6.5404	9.4749	10.7562	1.1833	-6.7586	-7.3769	-2.3275	8.3672	3.4576	2.8814	5.7152	9.0889	-1.0462
-0.4951	3.8996	4.7165	1.7876	4.4647	5.3879	3.6059	4.7892	7.1782	7.5419	6.4817	9.5393	10.8037	1.1917	-6.7726	-7.3825	-2.3331	8.3895	3.4353	2.8786	5.5669	9.1141	-1.0854
-0.4924	3.9248	4.7473	1.7624	4.5207	5.4466	3.5779	4.8144	7.2398	7.5391	6.4145	9.612	10.8821	1.1833	-6.7922	-7.3936	-2.3051	8.4007	3.4045	2.8954	5.4438	9.1281	-1.1442
-0.4951	3.95	4.8088	1.7288	4.5654	5.4634	3.5639	4.8312	7.2901	7.5391	6.3838	9.6736	10.9576	1.1553	-6.8425	-7.3797	-2.2547	8.4091	3.3989	2.9177	5.3487	9.1588	-1.1945
-0.4476	4.0395	4.8396	1.7036	4.6661	5.5445	3.5751	4.9207	7.3964	7.5755	6.4089	9.7939	11.0499	1.1302	-6.823	-7.3769	-2.2212	8.4399	3.4269	2.9261	5.2956	9.1924	-1.2561
-0.4056	4.1206	4.9487	1.7176	4.764	5.6536	3.5863	5.013	7.5027	7.5951	6.4509	9.9169	11.1394	1.1078	-6.8146	-7.3433	-2.1624	8.4371	3.452	2.9513	5.234	9.2036	-1.3092
-0.3105	4.2381	5.0242	1.7344	4.9039	5.7487	3.6059	5.1221	7.6286	7.6482	6.5292	10.0456	11.2373	1.0686	-6.8202	-7.3153	-2.0925	8.4791	3.4856	2.9345	5.2284	9.212	-1.3791
-0.2462	4.35	5.1473	1.754	5.027	5.8523	3.6507	5.2648	7.7461	7.7209	6.6216	10.1855	11.3436	1.0267	-6.7922	-7.2762	-2.0142	8.4986	3.536	2.9373	5.2228	9.2092	-1.4379
-0.1623	4.4339	5.248	1.7624	5.2004	5.9781	3.6619	5.4131	7.8972	7.7629	6.7558	10.3366	11.4443	0.9987	-6.795	-7.2622	-1.9302	8.507	3.5891	2.9205	5.2648	9.2064	-1.4994
-0.1091	4.5095	5.3319	1.7764	5.2984	6.0677	3.6786	5.5501	8.0175	7.8105	6.8733	10.4624	11.5339	0.9371	-6.7838	-7.2817	-1.8183	8.5126	3.6395	2.8954	5.2928	9.1952	-1.5666
-0.0224	4.627	5.4662	1.8127	5.4578	6.1879	3.7178	5.7012	8.1629	7.8832	6.9908	10.5743	11.6094	0.8644	-6.7362	-7.2454	-1.6953	8.4986	3.6926	2.8534	5.3263	9.1672	-1.6281
0.0671	4.7305	5.5977	1.8547	5.6061	6.2887	3.7458	5.8467	8.2804	7.914	7.1279	10.7142	11.6709	0.8001	-6.7083	-7.2538	-1.561	8.4902	3.7738	2.8198	5.4159	9.142	-1.6897
0.1371	4.8592	5.704	1.8995	5.7348	6.4034	3.7933	5.9642	8.4007	7.9364	7.2678	10.8205	11.7129	0.7301	-6.7111	-7.2762	-1.4015	8.4343	3.8297	2.7918	5.4746	9.1169	-1.7624
0.2322	4.9627	5.8187	1.9218	5.8802	6.5041	3.8157	6.1124	8.5042	7.9615	7.4328	10.9128	11.7409	0.6378	-6.6747	-7.2817	-1.2449	8.3951	3.8912	2.7723	5.5529	9.0833	-1.8239
0.3161	5.0466	5.9725	1.9554	6.0285	6.6076	3.8353	6.2551	8.6385	8.0007	7.5923	11.0387	11.78	0.5595	-6.6299	-7.3321	-1.0742	8.3616	3.9836	2.7303	5.6564	9.0469	-1.919
0.3944	5.1473	6.0537	1.975	6.1544	6.6859	3.8353	6.3726	8.7364	8.0231	7.7545	11.1254	11.78	0.4476	-6.6299	-7.3629	-0.8644	8.2832	4.0395	2.7079	5.7404	9.0162	-2.003
0.4588	5.2676	6.1824	2.0114	6.2998	6.7894	3.8409	6.5125	8.8455	8.0035	7.928	11.2233	11.7716	0.3581	-6.616	-7.3881	-0.6854	8.2049	4.1178	2.7135	5.8327	9.005	-2.0757
0.5343	5.3795	6.2998	2.0002	6.4229	6.8845	3.8661	6.6327	8.9658	8.0287	8.0902	11.3297	11.78	0.2546	-6.6076	-7.4272	-0.4728	8.1014	4.1934	2.6883	5.925	8.9686	-2.1456
0.5903	5.4606	6.4201	2.0281	6.56	6.9684	3.8521	6.781	9.0581	8.0091	8.2664	11.4415	11.7633	0.1427	-6.6048	-7.4972	-0.2602	7.9839	4.2605	2.6716	6.0425	8.9434	-2.2352
0.6826	5.5837	6.5348	2.0281	6.6971	7.0747	3.8381	6.8985	9.1532	8.0007	8.4287	11.5506	11.7325	0.042	-6.5992	-7.5391	-0.0532	7.8748	4.3248	2.6492	6.1404	8.9294	-2.3219
0.7525	5.6928	6.6327	2.0309	6.8481	7.1643	3.8297	7.016	9.24	7.9755	8.6133	11.6542	11.7101	-0.0643	-6.6048	-7.5895	0.1567	7.7377	4.3612	2.6548	6.2215	8.9322	-2.389
0.8057	5.8271	6.7446	2.0337	6.9628	7.2678	3.8577	7.1447	9.3575	7.9643	8.8092	11.7744	11.6793	-0.1595	-6.6076	-7.6258	0.3497	7.6202	4.406	2.6492	6.3306	8.9266	-2.4562
0.8476	5.8886	6.8453	2.0086	7.0747	7.3377	3.8381	7.2286	9.4749	7.9671	8.9938	11.9059	11.643	-0.2574	-6.6439	-7.7098	0.5399	7.4999	4.4507	2.6492	6.4061	8.9434	-2.5401
0.8672	5.9837	6.9293	1.9918	7.1978	7.4328	3.8241	7.3321	9.5561	7.9447	9.1616	12.0178	11.6262	-0.3469	-6.6719	-7.7909	0.7189	7.3629	4.4703	2.61	6.4845	8.977	-2.6156
0.912	6.0844	7.0384	1.9862	7.3013	7.5363	3.8437	7.4048	9.6288	7.9419	9.3323	12.1381	11.573	-0.4196	-6.6915	-7.8328	0.87	7.2398	4.4871	2.5681	6.5488	9.0218	-2.6744
0.912	6.1656	7.0999	1.9526	7.3769	7.5727	3.8213	7.4916	9.7015	7.8972	9.4777	12.2444	11.5451	-0.4924	-6.7334	-7.9475	1.0211	7.1139	4.4787	2.5149	6.6048	9.0861	-2.7415
0.9232	6.2299	7.195	1.9554	7.4748	7.6398	3.8157	7.5699	9.7771	7.8888	9.6344	12.3339	11.5143	-0.5567	-6.7614	-8.0427	1.1358	6.9824	4.4815	2.4506	6.6747	9.1504	-2.8142
0.9427	6.3054	7.237	1.933	7.5475	7.6902	3.8157	7.6063	9.8218	7.8468	9.7407	12.4123	11.4611	-0.5987	-6.795	-8.1154	1.2225	6.8509	4.4563	2.3694	6.6831	9.2148	-2.8702
0.9427	6.3726	7.3097	1.9135	7.6258	7.7545	3.8157	7.651	9.875	7.844	9.8834	12.485	11.408	-0.621	-6.8342	-8.2105	1.27	6.7251	4.406	2.2967	6.7223	9.2903	-2.9093
0.9763	6.4341	7.3713	1.9023	7.6678	7.7881	3.8073	7.6846	9.9058	7.8384	9.9645	12.5689	11.3828	-0.6294	-6.8398	-8.2664	1.2812	6.6607	4.3976	2.2016	6.7782	9.3798	-2.9597
0.9875	6.5069	7.4216	1.8883	7.7014	7.8161	3.8017	7.6846	9.9169	7.8328	10.0149	12.5801	11.3297	-0.6378	-6.8817	-8.3588	1.2868	6.5544	4.3472	2.1149	6.781	9.4805	-2.9905
1.0099	6.546	7.4608	1.8827	7.7517	7.8748	3.8157	7.6846	9.9253	7.8161	10.0652	12.6277	11.2961	-0.6154	-6.9013	-8.3672	1.2477	6.4817	4.2885	2.0142	6.7558	9.5645	-3.0156
1.0351	6.5712	7.4999	1.8687	7.7713	7.9112	3.8185	7.6678	9.9058	7.7965	10.0708	12.6277	11.2206	-0.5903	-6.8733	-8.4091	1.2085	6.4034	4.2213	1.9135	6.7167	9.6568	-3.0324
1.0295	6.602	7.4999	1.8659	7.7741	7.9196	3.8213	7.6482	9.903	7.7825	10.0624	12.6081	11.1618	-0.5483	-6.8957	-8.4343	1.1246	6.353	4.1514	1.8183	6.6635	9.7715	-3.0492
1.063	6.6551	7.5419	1.8519	7.7909	7.9503	3.8437	7.6258	9.8862	7.8133	10.0456	12.6221	11.1254	-0.484	-6.8789	-8.4511	0.9987	6.2943	4.0731	1.7288	6.616	9.8946	-3.0492
1.0518	6.6551	7.5307	1.8435	7.7769	7.9643	3.8409	7.5615	9.8638	7.8161	9.9981	12.6081	11.0779	-0.4364	-6.8985	-8.4791	0.898	6.2523	3.9612	1.6141	6.546	10.0121	-3.0408
1.0462	6.6747	7.5447	1.8463	7.7601	7.9783	3.8689	7.5195	9.8246	7.8049	9.9477	12.5801	11.0695	-0.3749	-6.9041	-8.4455	0.7637	6.2243	3.8549	1.519	6.4565	10.1407	-3.0268
1.0742	6.6607	7.5307	1.8407	7.707	7.9811	3.8717	7.4552	9.7883	7.8356	9.8722	12.5549	11.0611	-0.2909	-6.8705	-8.4343	0.6098	6.2019	3.7206	1.4379	6.367	10.2778	-2.9933
1.0434	6.6355	7.5167	1.8435	7.6678	7.9252	3.8884	7.3769	9.7435	7.8776	9.7883	12.5186	11.0387	-0.2182	-6.8873	-8.4175	0.4532	6.1768	3.6171	1.3484	6.2663	10.4205	-2.9541
1.0602	6.6355	7.5111	1.8575	7.6734	7.9699	3.9556	7.3321	9.7211	7.914	9.7351	12.5158	11.0863	-0.1315	-6.8789	-8.3755	0.2714	6.1963	3.508	1.3036	6.1879	10.5492	-2.8982
1.0406	6.616	7.472	1.8715	7.6258	7.9699	3.9724	7.2873	9.6931	7.9727	9.6456	12.5046	11.1226	-0.0308	-6.8509	-8.342	0.0895	6.2271	3.3793	1.2728	6.09	10.6778	-2.8394
1.0518	6.5852	7.4664	1.8715	7.5979	7.9503	4.0423	7.2062	9.6792	8.0622	9.5673	12.4906	11.1842	0.0643	-6.8565	-8.2916	-0.1035	6.2859	3.2702	1.2644	6.0033	10.7925	-2.7863
1.0574	6.5768	7.4216	1.9023	7.5727	7.9419	4.0675	7.1726	9.64	8.1238	9.4526	12.4598	11.2178	0.1567	-6.8398	-8.2469	-0.2769	6.339	3.1807	1.2505	5.897	10.9184	-2.6939
1.0351	6.5348	7.3992	1.919	7.5307	7.928	4.1234	7.0999	9.584	8.1825	9.363	12.4542	11.2793	0.2434	-6.8509	-8.2021	-0.4728	6.4229	3.0548	1.2616	5.8103	11.0359	-2.6212
1.063	6.518	7.3992	1.9386	7.5251	7.9252	4.171	7.0747	9.5533	8.2776	9.2567	12.4039	11.3352	0.3469	-6.8118	-8.135	-0.6658	6.5208	2.9709	1.3092	5.7096	11.1366	-2.5289
1.105	6.4901	7.3405	1.9638	7.4748	7.9196	4.2157	7.002	9.5197	8.3392	9.1448	12.3759	11.4108	0.4364	-6.8118	-8.051	-0.8504	6.6216	2.8674	1.368	5.6285	11.2345	-2.4282
1.0826	6.4341	7.3153	2.003	7.4608	7.914	4.2605	6.9656	9.5057	8.4203	9.0581	12.3395	11.4835	0.5371	-6.8062	-8.0147	-1.0379	6.7111	2.7974	1.4463	5.5222	11.3324	-2.3247
1.1022	6.4229	7.3181	2.017	7.4356	7.9028	4.3109	6.9153	9.4749	8.4791	8.9406	12.2892	11.5311	0.6126	-6.7586	-7.9587	-1.2141	6.809	2.7051	1.547	5.4578	11.4332	-2.196
1.1414	6.4006	7.3125	2.0785	7.416	7.914	4.378	6.8649	9.4218	8.5322	8.8231	12.222	11.5674	0.7022	-6.7139	-7.9084	-1.3763	6.9013	2.6296	1.6673	5.3487	11.5534	-2.0701
1.1721	6.4061	7.3097	2.0925	7.4104	7.9084	4.4144	6.8006	9.3938	8.5882	8.6945	12.1353	11.5814	0.7721	-6.6719	-7.8524	-1.5386	6.9684	2.5653	1.7932	5.2732	11.6765	-1.9442
1.2001	6.3894	7.3153	2.1568	7.4132	7.9224	4.4647	6.7754	9.3714	8.6525	8.5826	12.057	11.587	0.8448	-6.616	-7.7825	-1.6729	7.0608	2.5065	1.9218	5.1921	11.7912	-1.8044
1.2616	6.3922	7.3433	2.2044	7.4048	7.9559	4.5179	6.7474	9.3435	8.7112	8.4567	11.9759	11.5898	0.9148	-6.5712	-7.7321	-1.7988	7.1139	2.4645	2.1009	5.1277	11.9087	-1.6533
1.3288	6.4313	7.3964	2.2659	7.4272	7.9895	4.5906	6.739	9.3379	8.7336	8.3476	11.9031	11.559	0.9679	-6.4733	-7.6594	-1.9135	7.1699	2.4394	2.2184	5.069	12.0402	-1.5022
1.4351	6.4705	7.4832	2.3582	7.486	8.0566	4.6549	6.7307	9.3351	8.784	8.2385	11.8444	11.5506	1.0239	-6.3866	-7.5755	-2.0002	7.2258	2.4114	2.375	5.0186	12.1633	-1.3456
1.5162	6.5264	7.5699	2.4422	7.5251	8.1406	4.7361	6.7474	9.3463	8.8092	8.1629	11.7493	11.5087	1.0602	-6.3026	-7.4999	-2.0701	7.2482	2.389	2.5317	4.985	12.2864	-1.2057
1.6785	6.602	7.7237	2.5653	7.6035	8.2692	4.8396	6.767	9.3826	8.8623	8.0566	11.7017	11.4779	1.0826	-6.1796	-7.4188	-2.1233	7.2594	2.4114	2.6939	4.9515	12.4151	-1.0658
1.796	6.6971	7.9	2.7135	7.6678	8.3783	4.9375	6.795	9.4302	8.8903	7.9755	11.6318	11.4136	1.0882	-6.104	-7.3489	-2.1372	7.2566	2.4366	2.7918	4.9319	12.5633	-0.9483
1.9554	6.8034	8.0231	2.8534	7.7657	8.5322	5.0242	6.837	9.4889	8.9742	7.8972	11.5898	11.3744	1.0938	-6.0173	-7.2873	-2.1428	7.2314	2.4645	2.9093	4.9235	12.7256	-0.8057
2.1205	6.9684	8.2441	3.0128	7.9	8.7196	5.1753	6.8985	9.5589	9.0274	7.8552	11.5506	11.3213	1.0938	-5.9166	-7.209	-2.1484	7.2146	2.5177	2.9877	4.8983	12.8906	-0.6882
2.3387	7.1111	8.4846	3.2031	8.0231	8.9211	5.3319	6.96	9.6624	9.1029	7.7741	11.5115	11.2625	1.0938	-5.7823	-7.1111	-2.1317	7.181	2.5681	3.0492	4.9095	13.0557	-0.5847
2.5289	7.2566	8.7392	3.3709	8.1546	9.1169	5.4858	7.044	9.7659	9.1672	7.7405	11.436	11.1814	1.0686	-5.6872	-7.0412	-2.1065	7.0999	2.6464	3.0828	4.8927	13.2683	-0.4868
2.7471	7.4496	9.0106	3.5751	8.3	9.3575	5.6704	7.1335	9.8778	9.2344	7.665	11.394	11.0975	1.0658	-5.5529	-6.9517	-2.0869	7.058	2.6995	3.1247	4.8871	13.4893	-0.3749
2.9793	7.6258	9.2875	3.7989	8.4651	9.598	5.8467	7.2482	10.0232	9.3267	7.6482	11.3856	11.0443	1.0574	-5.4187	-6.8649	-2.0757	6.9964	2.8002	3.1583	4.8871	13.7103	-0.3217
3.2227	7.8105	9.5673	3.9975	8.6273	9.8386	6.0201	7.3545	10.124	9.3826	7.5727	11.3269	10.9352	1.0323	-5.2844	-6.7642	-2.0309	6.9069	2.901	3.1583	4.8648	13.9285	-0.2434
3.4604	8.0287	9.8582	4.2185	8.8036	10.0876	6.1879	7.416	10.2442	9.4442	7.486	11.2737	10.8261	1.0351	-5.1417	-6.6831	-2.0226	6.8146	2.9765	3.1891	4.8536	14.1719	-0.165
3.7178	8.2664	10.1911	4.4395	9.0441	10.3617	6.395	7.5307	10.3841	9.5225	7.4664	11.2289	10.7282	1.0351	-4.999	-6.5544	-2.017	6.7223	3.094	3.2143	4.8228	14.4124	-0.1175
4.0003	8.4763	10.4932	4.6745	9.212	10.6303	6.5712	7.6174	10.496	9.5393	7.3881	11.1618	10.5883	1.0211	-4.8088	-6.4173	-2.0058	6.5908	3.1583	3.2171	4.7668	14.6446	-0.0532
4.2829	8.7029	10.8149	4.9067	9.4302	10.9044	6.7838	7.7321	10.6415	9.6092	7.3293	11.1254	10.4988	1.0295	-4.613	-6.2607	-2.0281	6.5376	3.2702	3.2618	4.7025	14.8572	0
4.5822	8.9686	11.1506	5.1473	9.6372	11.2038	6.9908	7.8552	10.7953	9.6848	7.2706	11.0779	10.3981	1.0379	-4.3892	-6.1068	-2.0281	6.4341	3.3346	3.3122	4.6577	15.0503	0.042
4.8704	9.2456	11.4891	5.3991	9.8918	11.5031	7.1894	7.9811	10.9548	9.7239	7.2398	11.0639	10.2946	1.0323	-4.1654	-5.9026	-2.0337	6.3278	3.4465	3.3513	4.5906	15.2405	0.0532
5.1641	9.5197	11.8248	5.6732	10.1295	11.7716	7.3881	8.1238	11.1142	9.7939	7.2034	11.0275	10.2107	1.0434	-3.908	-5.718	-2.0309	6.2355	3.55	3.4101	4.5235	15.4447	0.0671
5.483	9.8078	12.1661	5.9306	10.4037	12.0906	7.6314	8.2972	11.3017	9.8722	7.1894	11.0415	10.1156	1.0379	-3.6283	-5.497	-2.0421	6.132	3.6758	3.452	4.5039	15.6265	0.0364
5.7655	10.1128	12.4906	6.174	10.6806	12.3927	7.83	8.4763	11.4891	9.9589	7.2314	11.0807	10.0568	1.0379	-3.3625	-5.262	-2.0337	6.0593	3.7933	3.5248	4.4423	15.8195	0.0112
6.0788	10.4149	12.8291	6.4453	10.9688	12.7004	8.0371	8.6581	11.7073	10.0344	7.2426	11.1226	10.0037	1.0323	-3.1164	-5.0186	-2.017	5.9669	3.9052	3.5611	4.4088	15.9958	0
6.3418	10.7338	13.1844	6.7167	11.2877	12.9913	8.2637	8.9071	11.9563	10.1575	7.3153	11.1898	9.9757	1.0183	-2.8282	-4.778	-1.9974	5.8886	4.0367	3.6255	4.4032	16.1664	-0.0448
6.6299	11.0723	13.4921	6.9461	11.6234	13.2963	8.4763	9.1309	12.1661	10.2638	7.4076	11.2737	9.9449	1.0099	-2.5848	-4.5486	-1.9638	5.8215	4.1878	3.6842	4.3836	16.3483	-0.0951
6.8929	11.38	13.797	7.2118	11.9675	13.6012	8.7056	9.363	12.3843	10.3729	7.5139	11.3492	9.9365	0.9931	-2.2995	-4.3025	-1.9358	5.7795	4.3304	3.743	4.3948	16.5049	-0.1511
7.1559	11.6765	14.1047	7.4244	12.2892	13.9033	8.9015	9.6176	12.6137	10.5212	7.6118	11.4499	9.9505	0.9679	-2.0673	-4.0955	-1.8771	5.732	4.4787	3.8325	4.3976	16.6868	-0.207
7.402	11.9898	14.3901	7.6566	12.6193	14.1523	9.0805	9.8414	12.8235	10.6387	7.7405	11.5227	9.9561	0.9232	-1.8407	-3.8857	-1.7988	5.6732	4.6242	3.8689	4.3892	16.8546	-0.2825
7.6007	12.3032	14.6446	7.8412	12.941	14.4208	9.2763	10.0792	13.0193	10.7841	7.8888	11.6542	10.0065	0.8924	-1.6365	-3.7318	-1.7288	5.6704	4.7613	3.964	4.4032	17.0392	-0.3553
7.8021	12.5381	14.86	8.0203	13.2319	14.6222	9.4414	10.317	13.2403	10.8877	8.0175	11.7297	10.0176	0.8476	-1.4519	-3.5835	-1.6365	5.6508	4.8927	4.0423	4.3976	17.2127	-0.4308
7.9615	12.7927	15.0698	8.1713	13.534	14.8348	9.5896	10.5352	13.4109	10.9996	8.1685	11.8416	10.0708	0.7861	-1.2868	-3.4856	-1.5218	5.6201	5.0018	4.1486	4.3808	17.4169	-0.5371
8.093	13.0473	15.2489	8.3168	13.8278	15.0391	9.7099	10.773	13.604	11.0975	8.3168	11.9507	10.124	0.7329	-1.1553	-3.3821	-1.3875	5.6005	5.1305	4.2074	4.3948	17.6099	-0.621
8.1965	13.2879	15.3943	8.4091	14.0879	15.2181	9.8134	10.9744	13.7355	11.173	8.4483	12.0402	10.1715	0.6462	-1.0574	-3.3318	-1.2421	5.5921	5.2424	4.2689	4.3808	17.8309	-0.7301
8.3196	13.4725	15.537	8.5014	14.3369	15.3608	9.9113	11.1618	13.9201	11.2737	8.6133	12.1353	10.2359	0.5707	-0.9567	-3.2926	-1.0994	5.5809	5.3515	4.3193	4.4172	18.0435	-0.8224
8.3783	13.6683	15.6489	8.5714	14.6083	15.5034	10.0344	11.3884	14.0711	11.3884	8.8036	12.2864	10.3422	0.5091	-0.8644	-3.2618	-0.9735	5.6257	5.4858	4.4032	4.4395	18.2561	-0.9371
8.4483	13.8669	15.7608	8.6329	14.8209	15.6209	10.1323	11.6122	14.2222	11.4891	9.0106	12.429	10.4513	0.4448	-0.7889	-3.2283	-0.8476	5.6452	5.5837	4.4591	4.4983	18.4715	-1.0602
8.5014	14.004	15.8279	8.6637	15.0531	15.7412	10.2107	11.7996	14.3873	11.6122	9.212	12.5885	10.5827	0.3888	-0.7133	-3.1835	-0.7301	5.6788	5.7348	4.5095	4.5431	18.6953	-1.1525
8.5154	14.1411	15.8783	8.6889	15.2713	15.8447	10.275	11.9815	14.5187	11.7269	9.4386	12.7675	10.7534	0.3245	-0.691	-3.2171	-0.6042	5.732	5.8634	4.5151	4.6326	18.9331	-1.2672
8.5182	14.2698	15.9454	8.7112	15.4895	15.9286	10.3701	12.1913	14.6586	11.864	9.682	12.9662	10.924	0.2518	-0.6462	-3.2115	-0.4924	5.7711	6.0033	4.5458	4.7389	19.1457	-1.3819
8.4707	14.3397	15.9259	8.714	15.6209	15.9734	10.4065	12.3283	14.7621	11.9759	9.9309	13.1312	11.1087	0.1958	-0.663	-3.2814	-0.3665	5.8411	6.1432	4.5263	4.8396	19.3779	-1.4798
8.4371	14.4012	15.9203	8.714	15.772	16.0014	10.4289	12.5046	14.874	12.1157	10.1911	13.3298	11.3073	0.1595	-0.691	-3.3178	-0.2881	5.925	6.297	4.5375	4.9739	19.5989	-1.5834
8.3644	14.4264	15.8755	8.6609	15.8979	16.0042	10.4541	12.6696	14.9691	12.2136	10.4513	13.5256	11.5367	0.1231	-0.7189	-3.3933	-0.1986	6.0257	6.4425	4.5347	5.0997	19.8227	-1.712
8.2469	14.4264	15.7776	8.5993	15.9678	15.9846	10.4513	12.7983	15.0391	12.3004	10.7338	13.7047	11.7465	0.0699	-0.7973	-3.4968	-0.1035	6.1208	6.574	4.5067	5.2424	20.0353	-1.8239
8.0958	14.3733	15.6601	8.507	15.9846	15.9007	10.4233	12.8794	15.0531	12.3843	10.9688	13.839	11.9451	0.028	-0.8784	-3.6003	-0.0224	6.2243	6.7083	4.4619	5.3907	20.2591	-1.9246
7.9336	14.3117	15.5146	8.3951	15.9986	15.8084	10.3645	12.9522	15.0531	12.4486	11.2066	13.9704	12.1353	0.0056	-0.9623	-3.7346	0.0392	6.3222	6.8258	4.4339	5.5305	20.4745	-2.0421
7.7433	14.1886	15.3216	8.2385	15.9482	15.6853	10.2666	13.0025	15.0139	12.4794	11.4248	14.0628	12.3199	-0.0476	-1.0826	-3.8605	0.0895	6.4257	6.9265	4.3696	5.6844	20.6675	-2.1596
7.5223	14.0656	15.1118	8.0706	15.8979	15.5202	10.1799	13.0165	14.9607	12.4906	11.6066	14.1774	12.5074	-0.0615	-1.2057	-4.0367	0.1511	6.5125	7.03	4.3137	5.8355	20.8745	-2.2855
7.2594	13.8893	14.8572	7.872	15.7972	15.3384	10.04	13.0165	14.8572	12.4626	11.78	14.2306	12.65	-0.0811	-1.3707	-4.2241	0.2154	6.6132	7.1055	4.2269	5.9586	21.0648	-2.4058
6.9824	13.7019	14.5551	7.6426	15.6349	15.0894	9.8386	12.9438	14.7146	12.4151	11.9059	14.2754	12.7591	-0.1287	-1.5666	-4.4144	0.2937	6.6999	7.1559	4.1066	6.0872	21.2606	-2.5457
6.6971	13.4781	14.281	7.3825	15.4895	14.8544	9.654	12.8934	14.5439	12.3535	12.015	14.2865	12.8627	-0.1706	-1.7428	-4.6186	0.3581	6.7838	7.2342	4.0171	6.2047	21.4228	-2.6604
6.4034	13.2319	13.9481	7.0999	15.2824	14.5775	9.4274	12.7815	14.3845	12.25	12.0822	14.2558	12.9382	-0.1986	-1.947	-4.7976	0.4252	6.8398	7.251	3.9108	6.3054	21.5935	-2.803
6.0844	13.0025	13.6068	6.8286	15.0558	14.2698	9.184	12.6472	14.1579	12.1325	12.1241	14.2362	13.0081	-0.2434	-2.154	-5.0242	0.4979	6.9013	7.2426	3.7849	6.3894	21.7417	-2.9289
5.7935	12.748	13.2767	6.5516	14.8293	13.9928	8.9602	12.5242	13.9509	11.9871	12.1857	14.1747	13.0669	-0.263	-2.3499	-5.2032	0.5511	6.9377	7.2398	3.6563	6.4873	21.8732	-3.066
5.4774	12.4878	12.941	6.2691	14.5831	13.6907	8.7336	12.3787	13.7271	11.8696	12.2025	14.1131	13.092	-0.2965	-2.5345	-5.3935	0.6042	7.002	7.2202	3.5136	6.5656	22.0159	-3.1919
5.1669	12.222	12.6109	5.9893	14.3117	13.3634	8.4874	12.1969	13.4809	11.6989	12.1885	14.0152	13.0976	-0.3385	-2.7331	-5.5921	0.6854	7.0244	7.2034	3.3401	6.6411	22.1334	-3.287
4.834	11.9255	12.2752	5.6872	14.0264	13.0557	8.2161	12.015	13.2291	11.5255	12.1577	13.9145	13.106	-0.3637	-2.9373	-5.7879	0.7553	7.0496	7.1391	3.1919	6.6943	22.2509	-3.4129
4.5179	11.6318	11.9171	5.3963	13.7355	12.7228	7.9615	11.794	12.9522	11.3688	12.0822	13.8054	13.0725	-0.4084	-3.1527	-5.9753	0.8308	7.0775	7.0663	3.052	6.7474	22.3824	-3.5192
4.2353	11.3548	11.5926	5.1109	13.4305	12.4095	7.707	11.587	12.6808	11.1842	11.9982	13.6515	13.0417	-0.4392	-3.3569	-6.1712	0.8812	7.0999	7.016	2.9037	6.7894	22.511	-3.6255
3.9192	11.0583	11.2709	4.8032	13.1368	12.1073	7.4496	11.3548	12.4039	11.0303	11.9003	13.4809	12.9773	-0.4784	-3.5528	-6.3642	0.9483	7.1083	6.9181	2.7443	6.8174	22.6537	-3.7346
3.6255	10.7674	10.9352	4.5347	12.8039	11.7633	7.1894	11.0947	12.1073	10.8317	11.7381	13.2851	12.913	-0.4868	-3.7374	-6.5264	0.9847	7.1223	6.809	2.6184	6.8118	22.7936	-3.8129
3.3206	10.4792	10.6163	4.2745	12.4654	11.4332	6.9489	10.8149	11.808	10.6527	11.5758	13.0585	12.8011	-0.5035	-3.8996	-6.6971	1.0099	7.1055	6.7111	2.4981	6.8342	22.9418	-3.894
3.0548	10.1715	10.2862	3.992	12.1353	11.1198	6.6859	10.538	11.4919	10.4373	11.3856	12.7955	12.664	-0.5119	-4.0563	-6.8705	1.0602	7.1167	6.5992	2.389	6.809	23.0817	-3.9724
2.7583	9.8722	10.0009	3.7318	11.8024	10.8233	6.4621	10.275	11.1702	10.2498	11.1702	12.5493	12.5326	-0.5315	-4.2102	-7.0384	1.0798	7.1055	6.5013	2.3023	6.7922	23.2496	-4.0507
2.4701	9.5701	9.6876	3.4828	11.4499	10.482	6.2103	9.9561	10.8121	10.026	10.9128	12.222	12.3171	-0.5679	-4.4004	-7.2314	1.1274	7.058	6.395	2.196	6.7474	23.4202	-4.1514
2.2212	9.3211	9.3882	3.1975	11.117	10.1939	5.9809	9.6708	10.4876	9.7967	10.6695	11.9479	12.1017	-0.5623	-4.5514	-7.3908	1.1442	7.002	6.2915	2.0841	6.7083	23.6272	-4.2353
1.9806	9.019	9.1225	2.9737	10.7981	9.8806	5.7655	9.3575	10.1463	9.5812	10.3813	11.6038	11.8863	-0.5875	-4.6913	-7.5167	1.1749	6.9544	6.1963	1.9946	6.6831	23.8342	-4.336
1.7652	8.7616	8.8651	2.7471	10.5044	9.6064	5.5389	9.0469	9.833	9.3714	10.0764	11.2793	11.6318	-0.5987	-4.8144	-7.6146	1.1889	6.8565	6.0984	1.9274	6.6076	24.058	-4.4172
1.5442	8.5126	8.6077	2.5121	10.1743	9.3491	5.3375	8.7364	9.5141	9.142	9.7547	10.924	11.3856	-0.6042	-4.9319	-7.7154	1.2113	6.7614	5.9669	1.8883	6.5097	24.2874	-4.5095
1.3791	8.2692	8.4231	2.3499	9.9365	9.1448	5.2032	8.4651	9.2288	8.9854	9.461	10.6331	11.1394	-0.607	-5.0018	-7.7713	1.2113	6.6831	5.8662	1.8407	6.4257	24.5168	-4.6074
1.2533	8.0734	8.2301	2.182	9.6848	8.9294	5.0354	8.2077	8.9658	8.8092	9.1784	10.3338	10.8849	-0.6098	-5.0522	-7.8133	1.2309	6.5796	5.7767	1.796	6.3698	24.7574	-4.7053
1.1274	7.8692	8.051	2.0198	9.4218	8.7196	4.9151	7.9587	8.7224	8.6385	8.8819	10.0512	10.6303	-0.6238	-5.1109	-7.8468	1.27	6.4593	5.6704	1.7484	6.2495	25.0064	-4.778
1.0351	7.7181	7.9252	1.9079	9.2539	8.5686	4.8004	7.7181	8.4958	8.4986	8.6077	9.7799	10.3813	-0.6322	-5.0774	-7.8133	1.2868	6.3446	5.5809	1.7288	6.1572	25.219	-4.8564
0.9595	7.5811	7.8328	1.8044	9.0833	8.4371	4.6857	7.5167	8.3028	8.3476	8.356	9.5225	10.1267	-0.6574	-5.0522	-7.7685	1.326	6.2103	5.5054	1.712	6.0397	25.4707	-4.9291
0.9008	7.458	7.7489	1.7092	8.9099	8.314	4.6102	7.3209	8.107	8.2357	8.093	9.2903	9.8946	-0.6854	-4.9934	-7.7601	1.3735	6.0844	5.4159	1.6925	5.9502	25.7001	-5.0186
0.8616	7.3517	7.679	1.6449	8.77	8.2217	4.5598	7.1307	7.9364	8.1182	7.8189	9.0637	9.6484	-0.7078	-4.9347	-7.707	1.4155	5.9558	5.3179	1.6841	5.7991	25.9687	-5.1081
0.8252	7.2566	7.6202	1.5862	8.6497	8.1322	4.5095	6.9349	7.7853	8.0315	7.5839	8.8567	9.419	-0.7245	-4.8452	-7.6622	1.4771	5.8131	5.22	1.7008	5.662	26.2456	-5.1977
0.828	7.1866	7.5979	1.5526	8.5238	8.0259	4.4703	6.7754	7.6482	7.9308	7.3321	8.6329	9.1644	-0.7497	-4.7557	-7.6007	1.5274	5.6229	5.1585	1.7176	5.5054	26.5366	-5.304
0.8169	7.0943	7.5811	1.5302	8.4063	7.9727	4.4144	6.6076	7.4999	7.8049	7.0915	8.4371	8.935	-0.7749	-4.6689	-7.5559	1.5862	5.4718	5.0634	1.7232	5.3515	26.8303	-5.3767
0.8392	7.016	7.5531	1.5078	8.3	7.9224	4.406	6.4453	7.3908	7.7377	6.8286	8.2497	8.6721	-0.8169	-4.5766	-7.486	1.6561	5.3068	4.9822	1.7596	5.1809	27.1408	-5.441
0.8728	6.9796	7.5503	1.5078	8.2161	7.8776	4.378	6.2943	7.2706	7.6426	6.5936	8.0538	8.4371	-0.8504	-4.4591	-7.4132	1.7176	5.1417	4.8759	1.768	4.9878	27.4681	-5.5166
0.9092	6.9628	7.5699	1.5162	8.1322	7.8161	4.3556	6.1488	7.1699	7.5699	6.3418	7.872	8.2049	-0.8812	-4.3304	-7.3601	1.7624	4.9683	4.7752	1.8044	4.8088	27.8122	-5.5557
0.9511	6.9209	7.5727	1.5022	8.0371	7.7657	4.3584	5.9893	7.0943	7.4804	6.0984	7.6874	7.9811	-0.9036	-4.2241	-7.3069	1.8099	4.8144	4.6633	1.8379	4.6074	28.1619	-5.6257
0.9959	6.8901	7.5979	1.5526	7.9615	7.7321	4.3472	5.8606	7.0104	7.4104	5.8159	7.5531	7.7573	-0.9232	-4.1066	-7.2398	1.8547	4.627	4.5486	1.8547	4.3892	28.5144	-5.648
1.0295	6.8481	7.5979	1.5722	7.8972	7.7181	4.3584	5.7012	6.9209	7.3405	5.5725	7.4272	7.5391	-0.9343	-3.9808	-7.1671	1.8743	4.4563	4.4312	1.8463	4.171	28.8724	-5.648
1.1134	6.8537	7.651	1.6449	7.8552	7.7349	4.3836	5.5921	6.8985	7.2985	5.3403	7.3041	7.3237	-0.9427	-3.8745	-7.0384	1.8967	4.2857	4.3165	1.8491	3.9472	29.2109	-5.6564
1.1973	6.8425	7.7181	1.7428	7.8412	7.7629	4.4451	5.5082	6.8929	7.2873	5.1389	7.2118	7.1531	-0.9204	-3.7346	-6.9237	1.8743	4.1654	4.1934	1.8547	3.7486	29.527	-5.6201
1.3036	6.8817	7.8105	1.8631	7.8328	7.8077	4.5291	5.4131	6.9097	7.3013	4.9711	7.1475	6.9992	-0.912	-3.6059	-6.7866	1.8407	4.0227	4.0787	1.9135	3.5472	29.8459	-5.5921
1.3791	6.8873	7.8664	1.9582	7.7993	7.8328	4.6018	5.3375	6.9209	7.2957	4.7724	7.0747	6.8621	-0.9092	-3.5024	-6.6551	1.8379	3.9024	3.9612	1.9302	3.315	30.1509	-5.5417
1.4966	6.9405	7.9727	2.0897	7.8245	7.928	4.7249	5.3068	6.9908	7.3489	4.6382	7.0971	6.767	-0.8812	-3.3737	-6.5013	1.7848	3.7877	3.8381	1.9778	3.1192	30.4446	-5.4494
1.6281	6.9936	8.093	2.2687	7.872	8.0399	4.8564	5.2788	7.0747	7.3992	4.5235	7.0943	6.6831	-0.856	-3.2422	-6.311	1.7092	3.6926	3.7458	2.0505	2.9513	30.7076	-5.3599
1.7092	7.0188	8.1546	2.4254	7.886	8.1014	4.9822	5.2536	7.1391	7.472	4.406	7.1167	6.6271	-0.8197	-3.1583	-6.16	1.6477	3.6255	3.6395	2.1345	2.7723	30.9509	-5.2396
1.8127	7.0691	8.2916	2.6156	7.9224	8.2133	5.1389	5.2368	7.2146	7.5643	4.3025	7.1531	6.5656	-0.7749	-3.038	-5.9837	1.5582	3.5807	3.5164	2.224	2.5848	31.1859	-5.1053
1.9246	7.0915	8.3867	2.8058	7.9699	8.3448	5.3207	5.2508	7.3125	7.6566	4.2269	7.2006	6.5628	-0.7161	-2.9681	-5.8019	1.4463	3.5751	3.4241	2.3303	2.4002	31.4153	-4.9655
2.0226	7.1391	8.4902	3.0184	8.0287	8.4399	5.4886	5.2508	7.4384	7.7517	4.1402	7.2342	6.5544	-0.6546	-2.9289	-5.648	1.3148	3.5639	3.3374	2.459	2.2575	31.6419	-4.806
2.0925	7.1866	8.5993	3.2255	8.0455	8.5686	5.6732	5.2704	7.5251	7.8888	4.0479	7.2845	6.574	-0.5763	-2.8534	-5.5082	1.1693	3.5556	3.231	2.5848	2.0813	31.8573	-4.6158
2.1764	7.209	8.6749	3.3821	8.0874	8.6665	5.8495	5.2592	7.6258	7.9811	3.9836	7.3321	6.5656	-0.4924	-2.8226	-5.3627	1.0043	3.5891	3.1331	2.7079	1.9274	32.0727	-4.4256
2.2408	7.2482	8.7532	3.6003	8.1266	8.7532	6.0201	5.262	7.7154	8.107	3.8912	7.3853	6.5852	-0.4028	-2.7611	-5.2816	0.8197	3.6395	3.0408	2.8366	1.796	32.2741	-4.2269
2.2855	7.2566	8.8092	3.7933	8.1462	8.8427	6.1852	5.2732	7.7769	8.2049	3.8073	7.3769	6.602	-0.2993	-2.7723	-5.1473	0.6154	3.7122	2.9261	2.9625	1.6505	32.4727	-3.9975
2.3303	7.2901	8.8511	3.9724	8.1713	8.949	6.3474	5.2536	7.8161	8.2804	3.6982	7.3517	6.602	-0.1986	-2.7583	-5.083	0.4112	3.7821	2.8058	3.0576	1.4966	32.6937	-3.7793
2.3862	7.3097	8.9071	4.1598	8.2105	9.0413	6.5208	5.2396	7.8888	8.3728	3.6255	7.3741	6.6523	-0.0811	-2.7443	-5.0298	0.179	3.8661	2.7107	3.1583	1.3875	32.9007	-3.5639
2.445	7.3349	8.9686	4.3276	8.2273	9.1476	6.6803	5.248	7.9419	8.4567	3.5388	7.3405	6.6607	0.042	-2.7219	-4.9403	-0.0671	3.978	2.6156	3.273	1.2477	33.0938	-3.3401
2.4534	7.3601	9.0302	4.4955	8.2553	9.226	6.837	5.248	7.9839	8.5182	3.4353	7.2985	6.6719	0.1511	-2.7331	-4.8843	-0.2937	4.0899	2.5317	3.3625	1.133	33.3148	-3.1192
2.4841	7.3685	9.0861	4.627	8.2692	9.2567	6.9544	5.2144	8.0119	8.563	3.3401	7.2566	6.6719	0.2658	-2.7275	-4.82	-0.5259	4.199	2.431	3.4465	1.0183	33.5442	-2.9401
2.5121	7.3881	9.1197	4.7696	8.2916	9.3686	7.0775	5.2368	8.0538	8.6189	3.2366	7.2286	6.6999	0.3972	-2.7247	-4.7305	-0.7637	4.35	2.3722	3.5695	0.9148	33.7568	-2.7835
2.5485	7.4188	9.1644	4.8871	8.3336	9.4414	7.1866	5.2228	8.0678	8.6693	3.1527	7.1754	6.7083	0.5147	-2.7107	-4.6969	-0.9847	4.4759	2.2911	3.6898	0.8113	33.9834	-2.6464
2.5681	7.458	9.2036	4.999	8.3588	9.5029	7.2901	5.2004	8.0538	8.6833	3.08	7.0999	6.7083	0.6098	-2.6716	-4.6438	-1.1945	4.6046	2.2156	3.7793	0.7245	34.2016	-2.5205
2.5485	7.4524	9.2484	5.0913	8.3504	9.5085	7.3545	5.1725	8.0343	8.7029	2.9625	6.9992	6.6747	0.691	-2.6212	-4.6158	-1.368	4.7193	2.1596	3.8605	0.6154	34.4142	-2.4394
2.5792	7.5055	9.2372	5.1809	8.3616	9.5645	7.416	5.1557	7.9979	8.6833	2.8618	6.9013	6.6299	0.7917	-2.582	-4.571	-1.547	4.8759	2.1065	3.9696	0.5427	34.638	-2.3443
2.5653	7.5279	9.2791	5.2312	8.3672	9.5645	7.4692	5.1165	7.9587	8.6553	2.7667	6.7894	6.602	0.8644	-2.5373	-4.5039	-1.6897	4.9795	2.0617	4.0703	0.4616	34.8478	-2.2855
2.5848	7.5447	9.2903	5.2592	8.3867	9.5365	7.4608	5.069	7.8804	8.6217	2.6604	6.6383	6.5292	0.9315	-2.4841	-4.4619	-1.8239	5.1053	2.0198	4.1318	0.3888	35.0604	-2.2463
2.5317	7.5167	9.2679	5.2508	8.3392	9.5169	7.4188	5.0102	7.7769	8.535	2.5541	6.4733	6.4481	0.9931	-2.4478	-4.4451	-1.9358	5.206	2.0058	4.2046	0.3357	35.2898	-2.182
2.5233	7.5111	9.2567	5.2564	8.3168	9.4666	7.3908	4.9291	7.6594	8.4511	2.445	6.2691	6.3334	1.0406	-2.4086	-4.4256	-2.0337	5.3319	1.9778	4.2745	0.2714	35.4996	-2.168
2.4618	7.4916	9.2036	5.2172	8.2664	9.391	7.3377	4.8228	7.4944	8.3	2.2883	6.0649	6.1907	1.0714	-2.3974	-4.4256	-2.1037	5.4159	1.9442	4.3025	0.249	35.6786	-2.1456
2.445	7.458	9.1532	5.1809	8.1937	9.2903	7.2342	4.7417	7.3321	8.1657	2.1568	5.8047	6.0481	1.0966	-2.3722	-4.406	-2.1708	5.511	1.9358	4.3276	0.2182	35.866	-2.1317
2.3834	7.416	9.1169	5.0969	8.1294	9.184	7.1363	4.6158	7.1447	7.9839	2.0086	5.5473	5.8634	1.1302	-2.361	-4.4367	-2.2184	5.6033	1.9079	4.3752	0.2098	36.0591	-2.1261
2.3163	7.3713	9.0162	4.985	8.0315	9.0357	7.002	4.4619	6.9041	7.7909	1.8351	5.2396	5.676	1.1246	-2.3974	-4.5039	-2.2184	5.648	1.9023	4.3864	0.2182	36.2437	-2.14
2.2547	7.2929	8.9266	4.8871	7.9336	8.9099	6.8425	4.3472	6.6635	7.5923	1.6645	4.9571	5.455	1.1442	-2.4058	-4.5347	-2.2408	5.7096	1.8995	4.378	0.2238	36.4171	-2.168
2.1652	7.2146	8.8064	4.7305	7.7909	8.7196	6.6243	4.171	6.3978	7.3293	1.4715	4.599	5.1977	1.1162	-2.4673	-4.6158	-2.21	5.7152	1.8967	4.3304	0.2518	36.6046	-2.182
2.0925	7.1391	8.728	4.6102	7.6734	8.5434	6.4537	4.0031	6.1404	7.0943	1.2812	4.2577	4.9767	1.1106	-2.5093	-4.6745	-2.1792	5.7683	1.9051	4.2913	0.2937	36.7948	-2.2128
2.0393	7.0524	8.6189	4.4423	7.5587	8.3755	6.2551	3.8241	5.8523	6.8565	1.1078	3.9108	4.7165	1.0938	-2.5457	-4.7221	-2.1596	5.7739	1.9666	4.2353	0.3665	36.9766	-2.2296
1.947	6.9628	8.4874	4.2969	7.4328	8.1825	6.0537	3.6814	5.5753	6.5908	0.9427	3.5639	4.4451	1.0686	-2.6072	-4.7808	-2.0953	5.7711	1.9862	4.1738	0.4224	37.1836	-2.2855
1.8659	6.8733	8.3728	4.1458	7.2985	7.9867	5.8355	3.508	5.2816	6.3446	0.7749	3.1947	4.1822	1.0323	-2.6352	-4.8731	-2.017	5.7432	2.017	4.1122	0.5091	37.3739	-2.3443
1.7876	6.7418	8.2385	3.9808	7.1419	7.7657	5.6089	3.3374	4.9739	6.076	0.6098	2.8226	3.8717	0.9847	-2.6827	-4.9403	-1.919	5.7096	2.0645	4.0171	0.5847	37.5557	-2.3918
1.7008	6.6271	8.107	3.7877	6.9796	7.5503	5.4019	3.1751	4.6661	5.8131	0.4448	2.4813	3.5919	0.9399	-2.7107	-4.985	-1.8155	5.6704	2.1372	3.9192	0.6798	37.7459	-2.4282
1.5862	6.4957	7.9531	3.6199	6.8146	7.3013	5.1641	2.9989	4.35	5.5361	0.2769	2.0925	3.287	0.87	-2.7471	-5.041	-1.6869	5.6061	2.1736	3.8101	0.7721	37.9054	-2.5177
1.5078	6.3614	7.8077	3.4465	6.6523	7.0524	4.9375	2.8058	4.0171	5.2844	0.0923	1.726	2.9989	0.7945	-2.7751	-5.083	-1.5554	5.5473	2.2463	3.6619	0.8392	38.0676	-2.5681
1.3959	6.1907	7.6202	3.2478	6.4537	6.7754	4.6829	2.6128	3.6814	5.0018	-0.0867	1.312	2.6576	0.7133	-2.8114	-5.1445	-1.3931	5.4242	2.2743	3.5332	0.9148	38.2159	-2.6408
1.3092	6.0285	7.43	3.0408	6.2607	6.5013	4.42	2.4086	3.3234	4.7193	-0.2714	0.9008	2.3554	0.6294	-2.8254	-5.1725	-1.2253	5.3012	2.3247	3.3709	0.9651	38.3586	-2.7219
1.1889	5.869	7.2286	2.8422	6.0788	6.2355	4.1738	2.2156	2.9625	4.4284	-0.4364	0.5035	2.0198	0.5595	-2.8282	-5.2368	-1.0658	5.2088	2.3415	3.1975	1.0462	38.504	-2.831
1.0434	5.6732	7.0356	2.6072	5.8662	5.9306	3.922	2.0337	2.6212	4.185	-0.6182	0.0979	1.6813	0.4672	-2.8842	-5.3179	-0.8924	5.083	2.3974	3.0101	1.1302	38.6495	-2.9233
0.9232	5.4914	6.7894	2.3974	5.6424	5.6341	3.6479	1.8127	2.2519	3.8745	-0.7973	-0.3245	1.3316	0.3637	-2.901	-5.3711	-0.7106	4.9291	2.4506	2.8142	1.1973	38.7782	-3.0268
0.7665	5.2732	6.574	2.1456	5.4438	5.3207	3.3905	1.6365	1.8967	3.6059	-0.9791	-0.6854	0.9819	0.2853	-2.9513	-5.4494	-0.5203	4.7752	2.5121	2.6184	1.284	38.8873	-3.1555
0.6434	5.0997	6.3446	1.919	5.2424	5.0214	3.1331	1.4323	1.5582	3.3206	-1.1218	-1.0798	0.6574	0.207	-2.9793	-5.4802	-0.3525	4.571	2.5429	2.459	1.3652	38.9992	-3.2618
0.4644	4.8871	6.1096	1.6869	5.0466	4.7221	2.8842	1.2672	1.2309	3.066	-1.27	-1.4351	0.3329	0.0895	-3.0017	-5.5417	-0.1595	4.3668	2.6128	2.2771	1.4239	39.0719	-3.3737
0.3301	4.6997	5.8578	1.4323	4.8396	4.4395	2.638	1.119	0.898	2.8142	-1.3903	-1.7512	0.0224	0.0056	-3.0492	-5.5893	0.028	4.1682	2.666	2.1205	1.4715	39.1446	-3.494
0.1734	4.5179	5.6229	1.2085	4.6745	4.1934	2.4142	0.9847	0.6266	2.5764	-1.4798	-2.0309	-0.2881	-0.0951	-3.0912	-5.6229	0.2154	3.9948	2.7499	1.9806	1.5442	39.1894	-3.6143
-0.0056	4.3109	5.3935	0.9959	4.5403	3.9472	2.21	0.8812	0.3693	2.3862	-1.5414	-2.2743	-0.5343	-0.1986	-3.1219	-5.6872	0.4168	3.7766	2.831	1.8687	1.6253	39.2174	-3.7318
-0.1623	4.1738	5.1921	0.7721	4.4144	3.7094	2.0114	0.7973	0.1678	2.2072	-1.5862	-2.4785	-0.7693	-0.2937	-3.1835	-5.7264	0.6098	3.5639	2.8926	1.7316	1.6785	39.2342	-3.8409
-0.2993	4.0367	5.0046	0.5735	4.3165	3.5108	1.8379	0.7721	-0.0112	2.0505	-1.5806	-2.624	-0.9735	-0.3972	-3.1863	-5.7432	0.8001	3.3681	2.9737	1.6393	1.7568	39.2314	-3.9612
-0.4364	3.8968	4.8116	0.3916	4.2325	3.3429	1.6701	0.7078	-0.1483	1.9023	-1.5666	-2.7359	-1.1358	-0.4756	-3.2115	-5.7711	1.0015	3.1499	3.0716	1.5694	1.8267	39.209	-4.0731
-0.5623	3.7849	4.6158	0.2154	4.1822	3.1723	1.547	0.7301	-0.249	1.8155	-1.5022	-2.7611	-1.2812	-0.5791	-3.245	-5.7767	1.1861	2.9597	3.1667	1.491	1.9079	39.1866	-4.157
-0.6742	3.701	4.5011	0.0923	4.185	3.0688	1.4659	0.7721	-0.3021	1.7596	-1.4183	-2.7359	-1.3428	-0.663	-3.259	-5.8019	1.3484	2.7611	3.2954	1.4295	1.9918	39.1614	-4.2577
-0.7973	3.5975	4.3724	-0.0643	4.1654	2.9737	1.3652	0.8308	-0.3357	1.6953	-1.3092	-2.7107	-1.4155	-0.7357	-3.3066	-5.8187	1.505	2.582	3.4017	1.3596	2.0449	39.1307	-4.3472
-0.884	3.5444	4.2633	-0.1595	4.185	2.9065	1.3036	0.8924	-0.3301	1.7148	-1.2001	-2.6296	-1.4351	-0.8057	-3.3178	-5.8523	1.6337	2.4114	3.4996	1.2812	2.1065	39.1083	-4.406
-0.9679	3.5052	4.1514	-0.2993	4.2046	2.8702	1.2561	0.9735	-0.3217	1.7204	-1.0714	-2.5177	-1.4071	-0.8672	-3.3346	-5.8774	1.7624	2.2519	3.6031	1.2309	2.1512	39.0775	-4.4871
-1.0434	3.4576	4.0899	-0.3497	4.2521	2.8618	1.2561	1.0602	-0.2434	1.7764	-0.9399	-2.3918	-1.3819	-0.9288	-3.3066	-5.869	1.8659	2.0701	3.6954	1.1358	2.2044	39.0244	-4.5235
-1.1022	3.4185	4.0423	-0.4308	4.3081	2.859	1.2589	1.1665	-0.193	1.8239	-0.8057	-2.2296	-1.3232	-0.9791	-3.3094	-5.8746	1.9554	1.9358	3.7793	1.049	2.21	38.9572	-4.571
-1.1777	3.4157	3.9975	-0.5175	4.3612	2.8562	1.2365	1.2533	-0.0979	1.8743	-0.6798	-2.0421	-1.2421	-1.0183	-3.315	-5.8886	2.0365	1.782	3.8157	0.9315	2.2324	38.8789	-4.5962
-1.2141	3.4129	3.9696	-0.5343	4.4395	2.9205	1.2672	1.3763	0.0084	1.989	-0.5371	-1.8463	-1.1525	-1.0351	-3.3038	-5.8662	2.0757	1.6505	3.894	0.828	2.2463	38.8145	-4.6494
-1.2365	3.4269	3.9556	-0.5763	4.5095	2.9401	1.298	1.4491	0.1231	2.0393	-0.4084	-1.6393	-1.0267	-1.0742	-3.2814	-5.8662	2.154	1.5218	3.9248	0.6798	2.2212	38.7054	-4.6745
-1.2924	3.4269	3.9528	-0.5959	4.5878	3.0296	1.3148	1.547	0.263	2.1484	-0.2937	-1.4043	-0.9288	-1.105	-3.2814	-5.8858	2.2016	1.3707	3.9164	0.5567	2.1904	38.6383	-4.6997
-1.2728	3.4492	3.9808	-0.5763	4.6773	3.1247	1.3707	1.6729	0.4336	2.2519	-0.1567	-1.1414	-0.7749	-1.0994	-3.231	-5.8774	2.2156	1.2728	3.9472	0.4504	2.1596	38.5488	-4.7249
-1.2561	3.5164	4.0255	-0.5623	4.7724	3.2422	1.4519	1.7932	0.6154	2.3722	-0.0336	-0.8672	-0.6098	-1.1246	-3.2087	-5.8467	2.2352	1.147	3.9584	0.3581	2.1121	38.4537	-4.7305
-1.2449	3.5472	4.0955	-0.5343	4.8787	3.3653	1.5274	1.9051	0.8336	2.4953	0.0923	-0.5707	-0.4224	-1.1022	-3.1527	-5.8047	2.2463	1.0574	3.9556	0.2462	2.0449	38.3614	-4.7417
-1.2281	3.6227	4.1542	-0.4924	4.9962	3.508	1.6309	2.0337	1.0351	2.6548	0.235	-0.2574	-0.221	-1.0938	-3.1192	-5.7515	2.2212	0.9763	3.9612	0.2042	1.9806	38.2746	-4.7417
-1.1665	3.715	4.2773	-0.4112	5.1221	3.6647	1.754	2.1624	1.2672	2.8058	0.3749	0.0755	-0.0196	-1.105	-3.0296	-5.6704	2.2072	0.912	3.964	0.165	1.9107	38.1879	-4.7501
-1.133	3.7738	4.3304	-0.3749	5.2368	3.8185	1.8603	2.2603	1.4771	2.9513	0.5063	0.386	0.1734	-1.0882	-2.9933	-5.5949	2.1764	0.8308	3.9444	0.1259	1.8099	38.1096	-4.7752
-1.077	3.8521	4.4228	-0.2769	5.3459	3.9808	1.9666	2.3806	1.6897	3.0828	0.6266	0.7189	0.3637	-1.0714	-2.9065	-5.5222	2.14	0.7777	3.9304	0.1427	1.712	38.0369	-4.7724
