"FZ"	"FC3"	"FCZ"	"FC4"	"C3"	"CZ"	"C4"	"CP3"	"CPZ"	"CP4"	"P3"	"PZ"	"P4"	"OZ"	"FP1"	"FP2"	"A2"	"P8"	"TP7"	"TP8"	"P7"
1.3008	1.0455	1.084	0.8357	0.7588	0.9162	0.7483	0.9092	0.9476	0.7029	0.8427	1.2763	0.6854	0.2413	0.0699	0.021	-0.4686	0.5245	0.2063	-0.0944	0.5105
1.2728	1.0141	1.0386	0.8008	0.7308	0.8672	0.7133	0.8707	0.8987	0.6399	0.8078	1.2204	0.6119	0.2308	0.1574	0.0525	-0.4301	0.4791	0.2168	-0.1783	0.514
1.2449	1.0176	1.0211	0.7903	0.6819	0.8357	0.7064	0.8637	0.8532	0.591	0.7763	1.1889	0.5875	0.2273	0.2273	0.1504	-0.4196	0.4301	0.2308	-0.2238	0.5105
1.1889	0.9476	0.9686	0.6924	0.6574	0.7903	0.6154	0.7868	0.7798	0.507	0.7553	1.119	0.4896	0.2063	0.2797	0.2098	-0.3812	0.3672	0.2413	-0.3077	0.493
1.1889	0.9162	0.9406	0.6294	0.6574	0.7413	0.5455	0.7518	0.7553	0.4511	0.7378	1.098	0.4546	0.2133	0.3672	0.3392	-0.3707	0.3147	0.2518	-0.3462	0.4756
1.1644	0.8672	0.8952	0.521	0.6294	0.6889	0.4686	0.7378	0.6854	0.3567	0.7029	1.0316	0.3742	0.1643	0.4336	0.3777	-0.2972	0.2518	0.2553	-0.4231	0.4441
1.1295	0.8672	0.8532	0.4686	0.6504	0.6749	0.3986	0.7308	0.6539	0.2972	0.6854	0.9721	0.3462	0.1434	0.4896	0.4476	-0.2762	0.1923	0.2693	-0.4686	0.4336
1.098	0.8252	0.8392	0.4021	0.6399	0.6469	0.2832	0.7203	0.6224	0.2413	0.6784	0.9336	0.2797	0.1259	0.5595	0.4651	-0.2413	0.1504	0.3042	-0.5315	0.4546
1.0595	0.7903	0.7973	0.2902	0.6259	0.584	0.1888	0.6959	0.591	0.1539	0.6714	0.8777	0.2308	0.1049	0.577	0.5	-0.1853	0.1049	0.3077	-0.5665	0.4616
1.0281	0.7553	0.7413	0.2098	0.6644	0.556	0.1049	0.6924	0.549	0.1154	0.6574	0.8357	0.2133	0.0979	0.6015	0.535	-0.1783	0.0699	0.3322	-0.5945	0.4581
0.9861	0.7099	0.6714	0.1224	0.6504	0.521	0.0315	0.6889	0.5035	0.042	0.6714	0.7938	0.1643	0.0769	0.6154	0.5105	-0.1329	0.021	0.3742	-0.6504	0.5
0.9162	0.6679	0.6189	0.021	0.6399	0.4756	-0.042	0.6784	0.493	-0.0245	0.6644	0.7588	0.1294	0.0734	0.577	0.4616	-0.1014	-0.021	0.3986	-0.6714	0.4826
0.8217	0.6224	0.535	-0.0839	0.6154	0.4056	-0.1364	0.6854	0.4301	-0.0594	0.6784	0.7238	0.0699	0.0525	0.5525	0.3881	-0.0804	-0.0629	0.4161	-0.6749	0.4896
0.7553	0.5875	0.507	-0.1748	0.6015	0.3707	-0.2168	0.6504	0.3777	-0.1189	0.6469	0.6609	0.0175	0.0245	0.5245	0.3777	-0.0315	-0.0769	0.4126	-0.7029	0.4826
0.6574	0.535	0.4056	-0.2448	0.5805	0.3112	-0.2553	0.6329	0.3497	-0.1643	0.6084	0.6015	-0.0035	0.014	0.4721	0.2832	-0.0035	-0.0874	0.4266	-0.7203	0.4756
0.6084	0.507	0.3777	-0.3077	0.5665	0.2832	-0.3112	0.6259	0.3147	-0.2133	0.6084	0.5595	-0.0245	0.0035	0.4511	0.2483	0.0175	-0.0944	0.4476	-0.6959	0.4896
0.542	0.5105	0.3112	-0.3497	0.57	0.2343	-0.3392	0.6119	0.2762	-0.2238	0.591	0.521	-0.0629	-0.0175	0.4231	0.1993	0.0455	-0.1294	0.4441	-0.6924	0.5105
0.4756	0.4721	0.2658	-0.3602	0.577	0.2063	-0.3602	0.591	0.2588	-0.2168	0.6084	0.4896	-0.0699	-0.014	0.3812	0.1434	0.0629	-0.0944	0.4581	-0.6574	0.4896
0.4161	0.4511	0.2203	-0.4056	0.6015	0.1713	-0.3846	0.6119	0.2343	-0.2133	0.6189	0.4756	-0.0804	-0.0245	0.3672	0.1469	0.0839	-0.1119	0.4686	-0.6259	0.514
0.3846	0.4336	0.1748	-0.4441	0.556	0.1434	-0.4161	0.6154	0.2133	-0.2098	0.6119	0.4476	-0.0734	-0.0245	0.3672	0.0979	0.0979	-0.0874	0.4826	-0.591	0.4896
0.3077	0.4581	0.1469	-0.4546	0.591	0.1119	-0.4091	0.6084	0.2063	-0.2203	0.6119	0.4441	-0.0979	-0.0629	0.3532	0.0874	0.1189	-0.0874	0.5105	-0.5805	0.5035
0.3182	0.4721	0.1119	-0.4546	0.6015	0.0699	-0.4196	0.6224	0.1783	-0.2098	0.6294	0.4336	-0.0734	-0.0385	0.3672	0.1119	0.1049	-0.0315	0.528	-0.521	0.514
0.2623	0.493	0.0699	-0.4756	0.5665	0.0525	-0.4021	0.6469	0.1713	-0.1853	0.6189	0.3986	-0.0909	-0.0525	0.3392	0.0734	0.1224	-0.028	0.5455	-0.4965	0.514
0.2343	0.5	0.0525	-0.4896	0.5595	0.021	-0.3846	0.6434	0.1504	-0.1853	0.5945	0.3846	-0.0979	-0.0594	0.2972	0.0629	0.1259	-0.0035	0.535	-0.4511	0.4965
0.1853	0.4651	0.007	-0.5245	0.528	-0.0385	-0.4266	0.6154	0.1084	-0.1678	0.5805	0.3462	-0.1259	-0.0594	0.2762	0.014	0.1434	0.014	0.5595	-0.4231	0.4861
0.1539	0.4965	-0.0175	-0.507	0.521	-0.049	-0.4371	0.5945	0.0804	-0.1748	0.5245	0.3077	-0.1189	-0.0594	0.2098	-0.0245	0.1364	0.0385	0.563	-0.4056	0.4756
0.1049	0.4791	-0.0629	-0.521	0.4826	-0.1189	-0.4651	0.5385	0.0245	-0.2098	0.4861	0.2448	-0.1678	-0.0594	0.1643	-0.0944	0.1574	0.042	0.563	-0.3742	0.4406
0.0699	0.4826	-0.1049	-0.556	0.4511	-0.1713	-0.507	0.549	0.0035	-0.2273	0.4301	0.2063	-0.1783	-0.0769	0.0944	-0.1504	0.1643	0.0245	0.556	-0.3427	0.4301
0.0035	0.4756	-0.0944	-0.5665	0.4301	-0.2098	-0.5315	0.4965	-0.0594	-0.2728	0.3986	0.1609	-0.2343	-0.0804	0.042	-0.2063	0.1783	0.0035	0.563	-0.3287	0.4161
0.0035	0.4756	-0.1643	-0.5665	0.3846	-0.2728	-0.57	0.4406	-0.1434	-0.2972	0.3462	0.0804	-0.2483	-0.0909	-0.028	-0.2483	0.2063	-0.0105	0.5315	-0.3007	0.3916
-0.0245	0.4791	-0.1643	-0.6049	0.3707	-0.2902	-0.6084	0.3846	-0.1853	-0.3287	0.3112	0.035	-0.2762	-0.0909	-0.0874	-0.3042	0.2133	-0.028	0.549	-0.2867	0.3672
-0.0629	0.4791	-0.1888	-0.6259	0.3532	-0.3357	-0.6329	0.3637	-0.2133	-0.3672	0.2588	-0.021	-0.3007	-0.0909	-0.1818	-0.3497	0.2343	-0.042	0.549	-0.2448	0.3532
-0.0944	0.4616	-0.2238	-0.6434	0.3427	-0.3707	-0.6469	0.3532	-0.2413	-0.3986	0.2238	-0.0664	-0.3182	-0.1084	-0.2413	-0.3951	0.2378	-0.042	0.549	-0.2588	0.3427
-0.1294	0.4511	-0.2483	-0.6854	0.2867	-0.3951	-0.6749	0.3112	-0.2797	-0.4091	0.1783	-0.0769	-0.3637	-0.1119	-0.2937	-0.4056	0.2518	-0.0839	0.535	-0.2133	0.3287
-0.1748	0.4161	-0.2693	-0.6959	0.2728	-0.4161	-0.7413	0.2797	-0.3392	-0.4336	0.1469	-0.1434	-0.3532	-0.1259	-0.3462	-0.4231	0.2728	-0.1084	0.528	-0.1853	0.3077
-0.2448	0.3707	-0.3147	-0.7064	0.2413	-0.4616	-0.7518	0.2273	-0.3602	-0.4756	0.0944	-0.1609	-0.3707	-0.1329	-0.3951	-0.4791	0.2902	-0.0874	0.5105	-0.1574	0.2797
-0.2553	0.3252	-0.3357	-0.6994	0.2063	-0.4826	-0.7518	0.1853	-0.3812	-0.4756	0.0629	-0.2308	-0.4021	-0.1364	-0.4161	-0.4406	0.3007	-0.1154	0.514	-0.1189	0.2623
-0.3042	0.2832	-0.3846	-0.7308	0.1539	-0.514	-0.7693	0.1259	-0.4371	-0.528	-0.0035	-0.2797	-0.3986	-0.1434	-0.4056	-0.4336	0.3042	-0.1469	0.5035	-0.0944	0.2343
-0.2972	0.2343	-0.4021	-0.7343	0.1364	-0.5105	-0.8008	0.1014	-0.4441	-0.542	-0.0385	-0.2972	-0.4021	-0.1294	-0.3846	-0.3672	0.3007	-0.1853	0.5035	-0.0525	0.2168
-0.3357	0.1643	-0.4511	-0.7273	0.0525	-0.556	-0.7938	0.035	-0.5035	-0.5665	-0.1084	-0.3846	-0.4301	-0.1399	-0.3462	-0.3077	0.3077	-0.2203	0.4826	-0.049	0.1609
-0.3532	0.1119	-0.4616	-0.6924	0.049	-0.563	-0.8008	-0.014	-0.514	-0.577	-0.1364	-0.4231	-0.4371	-0.1469	-0.3112	-0.2273	0.2972	-0.2343	0.493	-0.0245	0.1434
-0.3672	0.0594	-0.4965	-0.6714	0.0035	-0.5735	-0.7798	-0.049	-0.549	-0.5945	-0.1888	-0.4616	-0.4336	-0.1399	-0.2553	-0.1189	0.2832	-0.2553	0.4826	-0.007	0.1119
-0.4056	-0.0105	-0.528	-0.6399	-0.0699	-0.5665	-0.7518	-0.0909	-0.563	-0.5945	-0.2238	-0.5035	-0.4301	-0.1154	-0.2028	-0.0245	0.2553	-0.2658	0.5	0.0175	0.1119
-0.4406	-0.0874	-0.549	-0.5875	-0.1259	-0.577	-0.7133	-0.1329	-0.5595	-0.6084	-0.2762	-0.5525	-0.4476	-0.1224	-0.1294	0.0734	0.2728	-0.2867	0.4826	0.0175	0.0664
-0.4616	-0.1504	-0.6084	-0.514	-0.1713	-0.5875	-0.6399	-0.1783	-0.5735	-0.6049	-0.2902	-0.5735	-0.4266	-0.1259	-0.0804	0.1539	0.2588	-0.3112	0.4406	-0.0035	0.0594
-0.514	-0.2203	-0.6049	-0.4301	-0.2063	-0.577	-0.5525	-0.2203	-0.577	-0.5735	-0.3077	-0.6084	-0.4476	-0.1224	-0.049	0.2203	0.2588	-0.3357	0.4336	0.007	0.0559
-0.542	-0.2902	-0.6644	-0.3217	-0.2483	-0.5735	-0.4651	-0.2658	-0.57	-0.5525	-0.3392	-0.6084	-0.4266	-0.1399	0.014	0.2937	0.2728	-0.3672	0.4336	-0.0594	0.0664
-0.5945	-0.3637	-0.6959	-0.2028	-0.3322	-0.5595	-0.3532	-0.3007	-0.5805	-0.514	-0.3532	-0.6434	-0.4056	-0.1329	0.0035	0.3322	0.2728	-0.3742	0.4091	-0.0559	0.0699
-0.6329	-0.4056	-0.6959	-0.0734	-0.3742	-0.5105	-0.2448	-0.3112	-0.591	-0.4896	-0.3602	-0.6469	-0.3951	-0.1189	0.0839	0.3567	0.2832	-0.3672	0.4126	-0.1049	0.035
-0.6679	-0.4965	-0.7133	0.0245	-0.4196	-0.5035	-0.1189	-0.3672	-0.6015	-0.4441	-0.3916	-0.6609	-0.3707	-0.1364	0.0944	0.3637	0.2972	-0.3672	0.3742	-0.1189	0.049
-0.7029	-0.5175	-0.7518	0.1119	-0.4441	-0.5175	-0.0175	-0.3881	-0.584	-0.3986	-0.3777	-0.6574	-0.3602	-0.1399	0.0839	0.3427	0.2902	-0.3742	0.3462	-0.1609	0.0664
-0.7378	-0.5875	-0.7833	0.1818	-0.535	-0.514	0.0594	-0.4196	-0.6015	-0.3881	-0.3986	-0.6854	-0.3427	-0.1364	0.0664	0.3112	0.2972	-0.3707	0.3042	-0.1923	0.0664
-0.7833	-0.6539	-0.8078	0.2098	-0.5735	-0.549	0.0944	-0.4756	-0.6259	-0.4021	-0.4231	-0.6959	-0.3637	-0.1294	0.0699	0.2658	0.2867	-0.3812	0.2518	-0.2133	0.049
-0.7973	-0.6889	-0.8357	0.2203	-0.6294	-0.5525	0.1399	-0.4896	-0.6364	-0.3881	-0.4056	-0.6924	-0.3567	-0.1049	0.0594	0.2448	0.2378	-0.3462	0.2448	-0.1923	0.0699
-0.8252	-0.7343	-0.8497	0.2133	-0.6714	-0.57	0.1294	-0.57	-0.6784	-0.3986	-0.4546	-0.7378	-0.3567	-0.1014	0.0804	0.1923	0.2028	-0.3567	0.1888	-0.1853	0.0629
-0.8532	-0.7868	-0.9057	0.1643	-0.7308	-0.6049	0.0944	-0.6119	-0.7308	-0.4336	-0.4861	-0.7868	-0.3812	-0.0629	0.0525	0.1434	0.1434	-0.3637	0.1469	-0.1853	0.042
-0.8917	-0.8497	-0.9441	0.1014	-0.7693	-0.6679	0.0105	-0.6609	-0.7588	-0.4861	-0.521	-0.8078	-0.4056	-0.0385	0.0315	0.0769	0.0909	-0.3357	0.0804	-0.1853	0.007
-0.8987	-0.8847	-0.9931	-0.0105	-0.8287	-0.7273	-0.0839	-0.7029	-0.8183	-0.521	-0.535	-0.8637	-0.4126	0.007	0.0245	0.049	0.014	-0.3287	0.021	-0.1748	-0.0105
-0.9371	-0.9546	-1.0316	-0.1189	-0.8812	-0.7763	-0.1853	-0.7483	-0.8812	-0.563	-0.584	-0.8952	-0.4686	0.021	-0.0035	-0.0385	-0.035	-0.3147	-0.0455	-0.1609	-0.042
-0.9756	-0.9896	-1.0735	-0.2483	-0.9092	-0.8217	-0.2902	-0.8078	-0.9406	-0.6399	-0.6154	-0.9546	-0.4896	0.0525	-0.021	-0.1084	-0.1014	-0.3112	-0.1014	-0.1084	-0.0839
-1.0071	-1.0141	-1.1225	-0.3951	-0.9546	-0.9092	-0.4161	-0.8462	-0.9826	-0.6469	-0.6364	-0.9616	-0.5315	0.0944	-0.0804	-0.1609	-0.1469	-0.2762	-0.1539	-0.0594	-0.0979
-1.0316	-1.0595	-1.14	-0.556	-0.9686	-0.9267	-0.556	-0.9057	-1.0141	-0.6924	-0.6679	-1.0036	-0.5735	0.1014	-0.1224	-0.2168	-0.1993	-0.2937	-0.1993	-0.014	-0.1189
-1.07	-1.0945	-1.147	-0.6784	-1.0001	-0.9686	-0.6434	-0.9127	-1.0386	-0.7308	-0.7029	-1.0211	-0.584	0.1329	-0.1504	-0.2623	-0.2343	-0.2728	-0.2762	0.021	-0.1748
-1.0875	-1.1225	-1.1819	-0.8113	-1.0316	-1.0211	-0.7308	-0.9406	-1.07	-0.7658	-0.7273	-1.0595	-0.6015	0.1434	-0.2203	-0.3497	-0.2588	-0.2623	-0.3217	0.0594	-0.2238
-1.0945	-1.1679	-1.2029	-0.9302	-1.056	-1.049	-0.8183	-0.9966	-1.1085	-0.7903	-0.7658	-1.091	-0.6224	0.1294	-0.2972	-0.4091	-0.2553	-0.2518	-0.3881	0.0804	-0.2762
-1.1155	-1.1749	-1.1784	-1.0141	-1.0665	-1.077	-0.8637	-1.0386	-1.119	-0.7938	-0.8043	-1.1085	-0.6329	0.1399	-0.3462	-0.4965	-0.2623	-0.2483	-0.4476	0.0944	-0.3322
-1.133	-1.1714	-1.1854	-1.084	-1.0945	-1.077	-0.9127	-1.0665	-1.126	-0.7903	-0.8217	-1.098	-0.6434	0.1399	-0.4371	-0.5665	-0.2623	-0.2343	-0.5	0.1399	-0.3881
-1.1155	-1.1644	-1.1295	-1.112	-1.0875	-1.056	-0.9406	-1.077	-1.1295	-0.7903	-0.8497	-1.084	-0.6399	0.1434	-0.493	-0.6329	-0.2623	-0.1993	-0.5595	0.1609	-0.4161
-1.056	-1.147	-1.0875	-1.126	-1.0735	-1.077	-0.9616	-1.0805	-1.0945	-0.7693	-0.8672	-1.077	-0.6259	0.1539	-0.5665	-0.6819	-0.2728	-0.1539	-0.6049	0.1853	-0.4546
-1.0525	-1.147	-1.0036	-1.1225	-1.0735	-1.0351	-0.9406	-1.098	-1.091	-0.7064	-0.8987	-1.063	-0.6084	0.1469	-0.6469	-0.7308	-0.2728	-0.1399	-0.6469	0.2343	-0.5245
-0.9756	-1.0945	-0.9162	-1.0805	-1.0455	-1.0036	-0.8987	-1.077	-1.056	-0.6644	-0.8917	-1.0246	-0.5805	0.1469	-0.6854	-0.7623	-0.2797	-0.1189	-0.6854	0.2588	-0.549
-0.9022	-1.0665	-0.8602	-1.0525	-1.042	-0.9406	-0.8777	-1.091	-1.0106	-0.6119	-0.8952	-0.9966	-0.57	0.1469	-0.6994	-0.7728	-0.2693	-0.1014	-0.7308	0.2658	-0.6154
-0.8322	-1.0211	-0.7623	-0.9896	-1.0246	-0.8602	-0.8217	-1.077	-0.9581	-0.5595	-0.9022	-0.9616	-0.5315	0.1504	-0.7308	-0.7973	-0.2658	-0.0944	-0.7658	0.2762	-0.6574
-0.7553	-0.9756	-0.6889	-0.9232	-0.9721	-0.7903	-0.7273	-1.049	-0.8917	-0.4721	-0.9127	-0.9232	-0.4896	0.1434	-0.7343	-0.7833	-0.2658	-0.0664	-0.8078	0.2867	-0.7168
-0.6819	-0.9371	-0.5735	-0.8287	-0.9336	-0.7448	-0.6224	-1.0281	-0.8183	-0.4021	-0.8987	-0.8812	-0.4231	0.1399	-0.7064	-0.7553	-0.2518	-0.0629	-0.8287	0.2728	-0.7728
-0.5525	-0.8707	-0.4651	-0.7168	-0.8882	-0.6294	-0.507	-0.9826	-0.7273	-0.3042	-0.8707	-0.8078	-0.3846	0.1469	-0.6819	-0.6959	-0.2378	-0.0559	-0.8532	0.3042	-0.8043
-0.4721	-0.7938	-0.3392	-0.598	-0.8462	-0.5315	-0.3532	-0.9336	-0.6329	-0.1993	-0.8287	-0.7308	-0.3077	0.1119	-0.6329	-0.6399	-0.2203	-0.028	-0.8532	0.2588	-0.8322
-0.3532	-0.7168	-0.2028	-0.4441	-0.7553	-0.4056	-0.2168	-0.8427	-0.4965	-0.0734	-0.7518	-0.6399	-0.1958	0.1154	-0.5665	-0.5665	-0.2133	-0.014	-0.8322	0.2972	-0.8357
-0.2588	-0.6329	-0.0769	-0.2762	-0.6469	-0.2728	-0.0455	-0.7658	-0.3812	0.042	-0.6994	-0.542	-0.0909	0.1259	-0.4756	-0.4511	-0.2203	0.042	-0.8183	0.3112	-0.8427
-0.1329	-0.5315	0.0559	-0.1084	-0.5735	-0.1539	0.1084	-0.6854	-0.2483	0.1888	-0.6364	-0.4126	0.014	0.1084	-0.3951	-0.3497	-0.2028	0.0734	-0.7868	0.3497	-0.8287
-0.0594	-0.4511	0.1574	0.014	-0.4861	-0.007	0.2588	-0.6084	-0.1399	0.2762	-0.57	-0.3217	0.0944	0.1049	-0.3357	-0.2658	-0.1853	0.1084	-0.7903	0.3637	-0.8322
0.0245	-0.3637	0.2867	0.1364	-0.4126	0.0839	0.3881	-0.521	-0.0105	0.3672	-0.5175	-0.2238	0.1748	0.1049	-0.2518	-0.1748	-0.1783	0.1609	-0.7693	0.4126	-0.7973
0.1014	-0.2832	0.3672	0.3007	-0.3042	0.2133	0.5385	-0.4301	0.1224	0.507	-0.4476	-0.1259	0.2832	0.0979	-0.1993	-0.0839	-0.1713	0.1993	-0.7413	0.4301	-0.7798
0.1818	-0.2098	0.4651	0.4266	-0.1958	0.3252	0.6574	-0.3532	0.2343	0.598	-0.3707	-0.0315	0.3532	0.0769	-0.1434	-0.0315	-0.1469	0.2273	-0.7168	0.4581	-0.7518
0.2588	-0.1189	0.5805	0.5875	-0.1084	0.4406	0.7763	-0.2693	0.3567	0.6889	-0.3042	0.0769	0.4161	0.0804	-0.0944	0	-0.1294	0.2658	-0.6854	0.4861	-0.7203
0.3322	-0.042	0.6784	0.6889	-0.049	0.5665	0.8917	-0.1853	0.4791	0.7658	-0.2203	0.1678	0.5175	0.0629	-0.0525	0.0769	-0.1049	0.3042	-0.6609	0.5	-0.6714
0.3916	0.0559	0.7308	0.8113	0.035	0.6889	0.9896	-0.1049	0.5875	0.8637	-0.1504	0.2448	0.591	0.0525	0	0.1364	-0.0909	0.3077	-0.6364	0.507	-0.6294
0.4651	0.1259	0.8287	0.9686	0.1364	0.8113	1.14	0	0.7238	0.9651	-0.0769	0.3287	0.6679	0.049	0.0594	0.1923	-0.0839	0.3672	-0.6015	0.535	-0.5805
0.5245	0.1748	0.9092	1.1225	0.2063	0.9267	1.2239	0.0699	0.8392	1.0665	0.021	0.4196	0.7483	0.035	0.1189	0.2448	-0.0455	0.3707	-0.57	0.556	-0.5175
0.598	0.2483	0.9791	1.2903	0.3042	1.0316	1.3323	0.1713	0.9651	1.133	0.1084	0.5175	0.8322	0.0035	0.1609	0.2658	-0.014	0.4056	-0.5105	0.5945	-0.4581
0.6609	0.3147	1.0665	1.4232	0.3812	1.1365	1.4407	0.2238	1.105	1.2309	0.1853	0.6119	0.9057	0.0105	0.1748	0.3042	-0.0035	0.4301	-0.4826	0.6224	-0.4161
0.7168	0.3916	1.1295	1.5561	0.4336	1.2309	1.5176	0.3287	1.2204	1.3393	0.2728	0.6994	0.9896	-0.0035	0.2378	0.3567	0.0315	0.4336	-0.4441	0.6574	-0.3392
0.7658	0.4476	1.2169	1.682	0.535	1.3568	1.619	0.4266	1.3463	1.3952	0.3742	0.8322	1.0735	-0.028	0.2658	0.4021	0.0594	0.4756	-0.3916	0.6854	-0.2623
0.8322	0.4896	1.3008	1.8183	0.6154	1.4547	1.7064	0.493	1.4757	1.4896	0.4651	0.9302	1.14	-0.0175	0.3147	0.4406	0.0594	0.4616	-0.3707	0.7483	-0.1923
0.8707	0.584	1.3428	1.9162	0.7133	1.5421	1.7519	0.591	1.591	1.5561	0.5455	1.0351	1.2344	-0.049	0.3427	0.4581	0.0979	0.4861	-0.3287	0.7833	-0.1224
0.9302	0.6259	1.4092	2.0037	0.7833	1.6505	1.8044	0.6784	1.6994	1.6225	0.6294	1.126	1.3148	-0.0559	0.3427	0.4826	0.1154	0.514	-0.2902	0.8392	-0.0629
0.9267	0.6889	1.4512	2.0386	0.8497	1.7274	1.8288	0.7693	1.7974	1.661	0.7273	1.2029	1.3917	-0.0699	0.3602	0.493	0.1399	0.521	-0.2762	0.8812	0.014
1.0036	0.7693	1.5316	2.1156	0.9267	1.8288	1.8638	0.8462	1.9267	1.7379	0.8252	1.3498	1.4512	-0.0909	0.3881	0.521	0.1469	0.535	-0.2203	0.9162	0.0699
1.0141	0.8113	1.5596	2.161	1.0176	1.9023	1.8883	0.9302	2.0142	1.7904	0.8987	1.4057	1.5421	-0.0664	0.3567	0.5245	0.1469	0.5525	-0.2098	0.9546	0.1329
1.0246	0.8672	1.5945	2.182	1.084	1.9792	1.8813	1.0106	2.1121	1.8568	0.9896	1.4687	1.598	-0.0944	0.3357	0.542	0.1783	0.577	-0.1993	0.9826	0.1993
1.0386	0.9232	1.6295	2.196	1.1679	2.0421	1.9023	1.077	2.2065	1.8778	1.1085	1.5736	1.6785	-0.0874	0.3042	0.5	0.1713	0.598	-0.1783	1.0281	0.2553
1.077	0.9581	1.7239	2.224	1.2064	2.1261	1.9128	1.1365	2.3044	1.9372	1.1784	1.668	1.7379	-0.0839	0.2658	0.4756	0.1609	0.6224	-0.1609	1.07	0.3147
1.0945	1.0071	1.7484	2.231	1.2763	2.1995	1.9128	1.2099	2.3813	1.9757	1.2658	1.8044	1.8009	-0.0769	0.2448	0.4476	0.1434	0.6504	-0.1574	1.0875	0.3602
1.119	1.0071	1.7869	2.2415	1.3148	2.2484	1.9372	1.2798	2.4583	2.0456	1.3498	1.8988	1.8638	-0.0594	0.1329	0.4126	0.1364	0.6749	-0.1154	1.1225	0.4091
1.112	1.0351	1.8358	2.2449	1.3742	2.3079	1.9302	1.3533	2.5422	2.0841	1.4232	1.9687	1.9302	-0.0594	0.1084	0.3602	0.1084	0.7064	-0.0979	1.126	0.4441
1.1225	1.0455	1.8568	2.2624	1.4162	2.3499	1.9687	1.3847	2.6086	2.14	1.4861	2.0456	1.9932	-0.049	0.028	0.3042	0.0944	0.7238	-0.1049	1.1015	0.4721
1.14	1.0525	1.8953	2.2659	1.4267	2.3988	2.0072	1.4547	2.6716	2.2135	1.5421	2.1296	2.0631	-0.0525	-0.0315	0.2728	0.0769	0.7553	-0.0874	1.077	0.493
1.14	1.0281	1.9477	2.2519	1.4302	2.4408	2.0072	1.4652	2.7485	2.2589	1.605	2.21	2.1121	-0.035	-0.1084	0.2098	0.0594	0.7763	-0.0664	1.0386	0.5385
1.1609	1.0141	1.9652	2.2449	1.4197	2.4443	2.0491	1.4757	2.7695	2.2834	1.626	2.2449	2.1365	-0.0315	-0.1678	0.1678	0.0699	0.7903	-0.0699	1.0071	0.535
1.1679	1.0106	1.9512	2.231	1.4407	2.4827	2.0806	1.4791	2.8009	2.3429	1.6505	2.3044	2.1925	-0.028	-0.2483	0.1014	0.0664	0.8008	-0.0525	0.9092	0.549
1.126	0.9651	1.9442	2.1715	1.4337	2.4583	2.0841	1.4896	2.8324	2.3603	1.6855	2.3394	2.21	-0.049	-0.3182	-0.007	0.0804	0.7938	-0.0734	0.8392	0.5945
1.0945	0.9651	1.9372	2.1296	1.4127	2.4722	2.0561	1.4512	2.8324	2.3534	1.7029	2.3464	2.2415	-0.0525	-0.3951	-0.0629	0.0979	0.7938	-0.0734	0.7658	0.5945
1.0386	0.9267	1.9093	2.0631	1.3707	2.4268	2.0351	1.4407	2.8324	2.3359	1.689	2.3813	2.238	-0.0594	-0.4476	-0.1713	0.1329	0.7693	-0.0804	0.6854	0.591
1.0036	0.9232	1.8638	1.9302	1.3288	2.3568	1.9722	1.3952	2.787	2.2939	1.6715	2.3603	2.196	-0.0839	-0.549	-0.2518	0.1748	0.7623	-0.0699	0.6119	0.6119
0.9371	0.8812	1.8183	1.8323	1.3218	2.3079	1.9232	1.3707	2.766	2.2624	1.661	2.3848	2.189	-0.1154	-0.6259	-0.3147	0.2168	0.7343	-0.0804	0.535	0.6434
0.8917	0.8532	1.7659	1.7029	1.2763	2.2694	1.8533	1.3148	2.7135	2.1995	1.633	2.3603	2.1435	-0.1224	-0.6469	-0.3812	0.2448	0.7203	-0.1119	0.4406	0.6364
0.8287	0.8532	1.6855	1.5875	1.2309	2.203	1.7589	1.2938	2.682	2.1365	1.612	2.3464	2.0981	-0.1539	-0.7133	-0.4791	0.3042	0.6819	-0.1154	0.3497	0.6574
0.7868	0.8217	1.612	1.4582	1.1574	2.1051	1.668	1.2274	2.6261	2.0561	1.5771	2.3184	2.0491	-0.1818	-0.7623	-0.584	0.3602	0.6539	-0.1329	0.2832	0.6679
0.7203	0.8357	1.5596	1.3603	1.126	2.0247	1.5701	1.1854	2.5597	1.9617	1.5421	2.2904	1.9722	-0.2063	-0.8183	-0.6504	0.4161	0.6084	-0.1539	0.1818	0.6539
0.6994	0.8427	1.5036	1.2554	1.0665	1.9862	1.4757	1.1504	2.5142	1.9093	1.5176	2.2554	1.9372	-0.2063	-0.8392	-0.6819	0.4266	0.6154	-0.1713	0.1434	0.6994
0.6434	0.8287	1.4127	1.1574	1.0316	1.8778	1.4092	1.112	2.4373	1.8218	1.4861	2.2135	1.8778	-0.2203	-0.8427	-0.7448	0.4581	0.577	-0.1853	0.0664	0.6959
0.6224	0.8217	1.3568	1.1015	0.9791	1.8358	1.3428	1.07	2.3778	1.7519	1.4652	2.182	1.8218	-0.2238	-0.8847	-0.7798	0.4476	0.5525	-0.1643	0.014	0.7099
0.591	0.8287	1.3393	1.091	0.9197	1.7729	1.3428	1.0525	2.3254	1.7029	1.4057	2.147	1.7799	-0.2238	-0.8707	-0.8043	0.4511	0.528	-0.1783	-0.0594	0.7064
0.598	0.8322	1.3218	1.1015	0.9197	1.7694	1.3533	1.056	2.2974	1.7029	1.4302	2.1575	1.7799	-0.2098	-0.8287	-0.8008	0.4161	0.521	-0.1609	-0.1084	0.7413
0.6015	0.8637	1.3078	1.1015	0.8847	1.7274	1.3533	1.0735	2.2834	1.6785	1.4302	2.154	1.7554	-0.2098	-0.8043	-0.8252	0.4056	0.528	-0.1469	-0.1678	0.7623
0.6329	0.8882	1.3183	1.1435	0.8987	1.6994	1.3952	1.077	2.2694	1.633	1.4127	2.1331	1.7099	-0.1993	-0.7728	-0.8567	0.3951	0.528	-0.1014	-0.1783	0.7588
0.6679	0.9371	1.3323	1.1924	0.9022	1.6925	1.4127	1.1015	2.2764	1.64	1.4407	2.147	1.7519	-0.1888	-0.7588	-0.8497	0.3707	0.556	-0.0734	-0.2203	0.8078
0.6714	0.9511	1.3148	1.2274	0.9162	1.6994	1.4302	1.112	2.2694	1.626	1.4617	2.147	1.7414	-0.1643	-0.7623	-0.8392	0.3427	0.5455	-0.0385	-0.2448	0.8462
0.6889	0.9791	1.3183	1.2414	0.9162	1.675	1.4407	1.133	2.2694	1.626	1.4547	2.147	1.7659	-0.1574	-0.7343	-0.8672	0.3322	0.549	-0.014	-0.2588	0.8707
0.7133	1.0001	1.3253	1.2554	0.8987	1.682	1.4582	1.147	2.2519	1.6015	1.4512	2.14	1.7624	-0.1643	-0.7029	-0.8567	0.3252	0.5385	0.0175	-0.2623	0.8777
0.7378	1.042	1.3428	1.3218	0.9267	1.689	1.4757	1.1784	2.2974	1.6155	1.4791	2.154	1.7764	-0.1469	-0.6749	-0.8427	0.2972	0.563	0.049	-0.2693	0.8742
0.7728	1.0735	1.3498	1.3253	0.9267	1.7064	1.4617	1.1994	2.2939	1.605	1.4896	2.1365	1.7764	-0.1504	-0.6189	-0.8148	0.3007	0.5665	0.0839	-0.2448	0.8952
0.7868	1.098	1.3428	1.3568	0.9406	1.7169	1.4826	1.2134	2.3009	1.598	1.4826	2.1226	1.8009	-0.1329	-0.5805	-0.7658	0.2797	0.5805	0.0909	-0.2203	0.8952
0.7938	1.1295	1.3847	1.3882	0.9302	1.7449	1.4931	1.2064	2.3079	1.5806	1.5001	2.1156	1.8044	-0.1294	-0.5315	-0.7343	0.2728	0.591	0.1294	-0.2168	0.8637
0.8392	1.147	1.3917	1.4302	0.9406	1.7554	1.4966	1.2134	2.3254	1.5666	1.5036	2.1261	1.8113	-0.1154	-0.4896	-0.6959	0.2483	0.6049	0.1364	-0.1678	0.8777
0.8847	1.2064	1.4302	1.5071	0.9476	1.7834	1.5666	1.2484	2.3359	1.591	1.5036	2.1645	1.8533	-0.0874	-0.4371	-0.6259	0.1923	0.6434	0.1609	-0.0874	0.8567
0.9267	1.2239	1.4896	1.5596	0.9581	1.8253	1.5875	1.2309	2.3568	1.5841	1.5071	2.1365	1.8498	-0.0804	-0.3951	-0.577	0.1643	0.6819	0.1678	-0.0245	0.8287
0.9546	1.2554	1.5001	1.605	0.9336	1.8533	1.5841	1.2309	2.3673	1.5945	1.4861	2.1191	1.8813	-0.0525	-0.3357	-0.5175	0.1224	0.6994	0.1748	0.035	0.7868
1.0246	1.2938	1.5491	1.633	0.9756	1.9023	1.605	1.2239	2.3673	1.591	1.4966	2.1296	1.8988	-0.042	-0.2762	-0.4336	0.0839	0.7518	0.2098	0.1014	0.7973
1.084	1.3218	1.5945	1.682	0.9721	1.9128	1.6155	1.2484	2.3778	1.605	1.4966	2.1086	1.9058	-0.007	-0.2238	-0.3672	0.042	0.8043	0.2028	0.2028	0.7553
1.1085	1.3498	1.619	1.654	0.9826	1.9023	1.598	1.2029	2.3813	1.591	1.4652	2.0596	1.9058	0.0035	-0.2098	-0.3287	-0.007	0.8427	0.1923	0.2623	0.7308
1.1679	1.4022	1.647	1.626	0.9966	1.9267	1.5561	1.1714	2.3848	1.5736	1.4547	2.0386	1.9058	0.035	-0.1713	-0.2483	-0.0525	0.9162	0.2098	0.3252	0.6924
1.1679	1.4197	1.633	1.591	0.9651	1.9023	1.5036	1.1365	2.3254	1.5526	1.3917	1.9757	1.8918	0.0594	-0.1399	-0.2063	-0.0944	0.9371	0.1678	0.3951	0.6469
1.1784	1.4057	1.6505	1.5246	0.9476	1.8953	1.4582	1.1365	2.3079	1.5211	1.3288	1.9477	1.8428	0.0769	-0.0979	-0.1504	-0.1259	0.9686	0.1678	0.4651	0.598
1.1504	1.4337	1.6085	1.4162	0.9406	1.8498	1.3603	1.07	2.2484	1.4652	1.2728	1.8568	1.8044	0.0839	-0.1014	-0.1469	-0.1539	0.9896	0.1574	0.5105	0.542
1.1504	1.4582	1.591	1.3253	0.9127	1.8218	1.2728	0.9966	2.21	1.3952	1.1994	1.7869	1.7449	0.1014	-0.0944	-0.1049	-0.1748	0.9896	0.1539	0.542	0.4826
1.1365	1.4687	1.591	1.2239	0.8917	1.8148	1.1994	0.9791	2.1645	1.3253	1.1295	1.7169	1.6715	0.1049	-0.0874	-0.0699	-0.1888	0.9861	0.1434	0.5875	0.4476
1.1015	1.4757	1.5351	1.0735	0.8672	1.7484	1.0875	0.9127	2.0876	1.2449	1.07	1.619	1.612	0.1014	-0.0559	-0.035	-0.1958	0.9511	0.1294	0.598	0.4021
1.0805	1.4861	1.4896	0.9336	0.8392	1.7064	0.9546	0.8322	2.0107	1.1609	0.9791	1.5456	1.5316	0.0944	-0.0699	-0.0559	-0.1678	0.9022	0.1294	0.6049	0.3392
1.0351	1.4582	1.4197	0.8148	0.8008	1.633	0.8392	0.7728	1.9337	1.042	0.9057	1.4582	1.4092	0.0839	-0.042	-0.0245	-0.1469	0.8602	0.1049	0.598	0.2588
1.0281	1.4267	1.4057	0.6854	0.7763	1.591	0.7099	0.7308	1.8638	1.0036	0.8392	1.3987	1.3463	0.0664	-0.0245	0.0105	-0.1224	0.8148	0.1049	0.584	0.2098
0.9931	1.4022	1.3638	0.549	0.7623	1.5561	0.6189	0.6994	1.8044	0.9267	0.7973	1.3043	1.2798	0.0455	0.0105	0.0385	-0.0979	0.7658	0.1259	0.5805	0.1853
0.9651	1.3358	1.2833	0.4091	0.7099	1.4861	0.4861	0.6224	1.7414	0.8183	0.7203	1.2169	1.1854	0.0175	-0.007	0.035	-0.0385	0.6889	0.1224	0.5315	0.1504
0.9232	1.2833	1.2519	0.3077	0.6819	1.4267	0.4021	0.57	1.654	0.7728	0.6574	1.1504	1.1225	0.0105	0.0035	0.0455	0.007	0.6434	0.1119	0.4896	0.0874
0.9127	1.2693	1.2484	0.2518	0.6679	1.3987	0.3497	0.57	1.6155	0.6994	0.6154	1.098	1.0316	-0.0035	0.0385	0.049	0.028	0.5735	0.1504	0.4406	0.0699
0.8742	1.2169	1.1994	0.1783	0.6294	1.3812	0.3007	0.5525	1.5666	0.6644	0.5805	1.056	0.9826	-0.0245	0.0035	0.0035	0.0804	0.5175	0.1539	0.3846	0.0594
0.8812	1.1854	1.1959	0.1678	0.6364	1.3568	0.2728	0.5385	1.5316	0.598	0.5455	1.0211	0.8917	-0.0559	0.028	-0.007	0.1154	0.4616	0.1818	0.3042	0.0455
0.8532	1.1644	1.1784	0.1539	0.6539	1.3463	0.2693	0.5385	1.5036	0.6119	0.5385	0.9861	0.8952	-0.0594	0.014	-0.028	0.1469	0.4336	0.2238	0.2588	0.0839
0.8532	1.1435	1.1959	0.2098	0.6364	1.3428	0.2797	0.556	1.4861	0.591	0.542	0.9756	0.8812	-0.0734	-0.0105	-0.0839	0.1713	0.3742	0.2518	0.1853	0.0664
0.8567	1.119	1.1994	0.2762	0.6714	1.3498	0.3077	0.57	1.4791	0.5945	0.5315	0.9651	0.8532	-0.1084	-0.0385	-0.1224	0.2133	0.3602	0.2937	0.1259	0.0839
0.8357	1.0945	1.1924	0.3112	0.6609	1.3253	0.3392	0.5525	1.4442	0.584	0.5	0.9441	0.8462	-0.1259	-0.0664	-0.1888	0.2553	0.3427	0.3042	0.035	0.0769
0.8148	1.0805	1.1889	0.3497	0.6714	1.3113	0.3532	0.577	1.4547	0.556	0.493	0.9546	0.8322	-0.1504	-0.1189	-0.2063	0.3182	0.2902	0.3217	-0.0629	0.0385
0.8148	1.0875	1.2064	0.4266	0.6679	1.3393	0.3846	0.5875	1.4652	0.6015	0.4896	0.9651	0.8357	-0.1713	-0.1189	-0.2728	0.3497	0.2728	0.3392	-0.1434	0.0839
0.7938	1.0525	1.2099	0.507	0.6854	1.3253	0.4161	0.577	1.4407	0.5805	0.4965	0.9721	0.8392	-0.1818	-0.1643	-0.3217	0.3951	0.2693	0.3077	-0.2273	0.0909
0.7623	1.056	1.2099	0.57	0.6924	1.3428	0.4476	0.598	1.4267	0.5945	0.5	0.9931	0.8462	-0.2168	-0.1993	-0.3637	0.4476	0.2518	0.3252	-0.3042	0.0979
0.7308	1.0246	1.2169	0.6224	0.6819	1.3008	0.4301	0.6049	1.3917	0.5595	0.4756	0.9861	0.8462	-0.2693	-0.2448	-0.4196	0.521	0.2378	0.3007	-0.4056	0.0769
0.7064	1.0211	1.2169	0.6819	0.6959	1.3218	0.4441	0.5945	1.4162	0.57	0.4651	1.0001	0.8567	-0.2832	-0.2378	-0.4196	0.556	0.2203	0.2832	-0.4721	0.0734
0.7168	1.0071	1.2204	0.7168	0.6924	1.2798	0.4476	0.5735	1.4022	0.5735	0.4546	1.0211	0.8672	-0.2972	-0.2588	-0.4161	0.6015	0.2133	0.2518	-0.5245	0.0769
0.6609	0.9756	1.2134	0.7833	0.6574	1.2693	0.4091	0.563	1.3812	0.556	0.4231	1.0246	0.8742	-0.3112	-0.2693	-0.4441	0.6364	0.2203	0.2343	-0.5665	0.042
0.6504	0.9371	1.2309	0.8322	0.6539	1.2589	0.3881	0.5245	1.3603	0.5665	0.4056	1.0316	0.8882	-0.3357	-0.2972	-0.4126	0.6784	0.2238	0.1853	-0.598	0.021
0.6504	0.9267	1.1784	0.7833	0.556	1.2064	0.3357	0.4546	1.3008	0.5315	0.3567	0.9931	0.8707	-0.3392	-0.2797	-0.4126	0.7099	0.2203	0.1678	-0.6294	-0.0245
0.6189	0.8987	1.1819	0.7973	0.4896	1.1435	0.3077	0.4056	1.2658	0.4791	0.3252	0.9931	0.8707	-0.3392	-0.2693	-0.4056	0.7029	0.2238	0.1014	-0.6154	-0.0559
0.6154	0.8532	1.1574	0.7588	0.4406	1.1085	0.2518	0.3532	1.2239	0.4476	0.3042	0.9581	0.8917	-0.3567	-0.2588	-0.3812	0.7029	0.2518	0.0699	-0.598	-0.0629
0.598	0.8148	1.1504	0.7413	0.3777	1.091	0.2308	0.3217	1.2134	0.4441	0.2693	0.9546	0.9197	-0.3357	-0.2832	-0.3812	0.6924	0.2867	0.0245	-0.577	-0.0944
0.5875	0.8008	1.1085	0.6784	0.3392	1.0211	0.2063	0.2413	1.1959	0.4721	0.2518	0.9371	0.9406	-0.3357	-0.2588	-0.3322	0.6924	0.3077	-0.042	-0.549	-0.1189
0.57	0.7518	1.105	0.6574	0.2693	0.9826	0.1853	0.2168	1.1854	0.4476	0.2553	0.9476	1.0001	-0.3287	-0.2658	-0.3497	0.6714	0.3707	-0.0629	-0.5175	-0.1119
0.5595	0.7273	1.0875	0.6259	0.1958	0.9581	0.1818	0.1539	1.1784	0.4721	0.2553	0.9581	1.0281	-0.3182	-0.3042	-0.3497	0.6609	0.3986	-0.1084	-0.4476	-0.1014
0.5	0.6504	1.0386	0.577	0.1259	0.9092	0.2098	0.0944	1.1749	0.5035	0.2378	0.9721	1.1015	-0.3322	-0.3007	-0.3532	0.6644	0.4371	-0.1713	-0.4371	-0.1399
0.4791	0.6294	1.0316	0.563	0.1049	0.8882	0.2623	0.0839	1.1819	0.5665	0.2378	1.0071	1.2169	-0.3252	-0.3287	-0.3567	0.6574	0.535	-0.1748	-0.3602	-0.1434
0.4406	0.5875	1.0036	0.5315	0.0699	0.8777	0.2902	0.0594	1.1854	0.6154	0.2728	1.056	1.3113	-0.3147	-0.3602	-0.3707	0.6469	0.584	-0.1958	-0.3462	-0.1084
0.3846	0.5245	0.9616	0.5105	0	0.8462	0.3357	0.035	1.1924	0.6469	0.3042	1.1085	1.4337	-0.3287	-0.4266	-0.4091	0.6714	0.6259	-0.2343	-0.3077	-0.1189
0.3357	0.4686	0.9371	0.4651	-0.0105	0.8427	0.4196	0.0559	1.2484	0.7343	0.3742	1.2134	1.5561	-0.3392	-0.4896	-0.4266	0.6889	0.7099	-0.2098	-0.2832	-0.0455
0.2448	0.4266	0.9057	0.4266	-0.0525	0.8462	0.4546	0.0699	1.2868	0.8113	0.4196	1.2833	1.6715	-0.3567	-0.514	-0.4441	0.7203	0.7518	-0.1958	-0.2518	-0.0105
0.1643	0.3846	0.8532	0.3497	-0.0699	0.8078	0.4965	0.0734	1.3148	0.8672	0.493	1.3812	1.7869	-0.3846	-0.6049	-0.5	0.7833	0.7658	-0.1678	-0.2658	0.0455
0.1084	0.3322	0.8148	0.3182	-0.0734	0.8252	0.5245	0.1049	1.3707	0.9197	0.6015	1.4966	1.8778	-0.4161	-0.6819	-0.5525	0.8252	0.7833	-0.1469	-0.2762	0.1189
0.014	0.2867	0.7623	0.2693	-0.0909	0.8183	0.542	0.1259	1.4302	0.9616	0.6889	1.5875	1.9827	-0.4301	-0.7518	-0.584	0.8707	0.8043	-0.1189	-0.3007	0.1783
-0.0699	0.2658	0.7413	0.1993	-0.0944	0.8287	0.584	0.1783	1.4652	1.0386	0.7693	1.7029	2.0841	-0.4616	-0.8287	-0.6434	0.9092	0.8078	-0.0315	-0.3147	0.2448
-0.1364	0.2343	0.7133	0.1748	-0.0909	0.8427	0.6329	0.2518	1.5386	1.1015	0.8812	1.8463	2.203	-0.4826	-0.9232	-0.6854	0.9511	0.7938	0.0105	-0.3532	0.3287
-0.2028	0.1958	0.6539	0.1259	-0.0664	0.8427	0.6609	0.3112	1.6015	1.1539	1.0281	1.9722	2.3254	-0.493	-1.0176	-0.7623	0.9896	0.7903	0.0944	-0.4056	0.4196
-0.3112	0.1574	0.591	0.0839	-0.0664	0.8357	0.7064	0.3602	1.661	1.2169	1.126	2.1051	2.3848	-0.521	-1.1679	-0.8462	1.0455	0.7833	0.1504	-0.4686	0.4791
-0.3881	0.1259	0.563	0	-0.042	0.8812	0.7623	0.4581	1.7484	1.2833	1.2728	2.2484	2.4932	-0.5315	-1.2938	-0.9267	1.0595	0.7833	0.2588	-0.5035	0.584
-0.5	0.0944	0.507	-0.035	-0.049	0.8637	0.7763	0.535	1.7939	1.3603	1.3952	2.3883	2.5702	-0.5595	-1.4302	-1.0386	1.1155	0.7798	0.3252	-0.563	0.6714
-0.6119	0.0629	0.4511	-0.0909	0.0105	0.8567	0.8183	0.6015	1.8603	1.3882	1.5351	2.5072	2.6471	-0.5875	-1.5526	-1.1574	1.1539	0.7588	0.4371	-0.6469	0.7798
-0.7203	0.028	0.3846	-0.1399	0.021	0.8742	0.8357	0.7064	1.9372	1.4442	1.7099	2.682	2.745	-0.591	-1.7239	-1.3078	1.1854	0.7483	0.535	-0.6679	0.9057
-0.8532	-0.0035	0.2728	-0.2098	0.0804	0.8812	0.7938	0.7973	2.0142	1.4861	1.8918	2.8359	2.8394	-0.6154	-1.9058	-1.4582	1.2169	0.7448	0.6469	-0.7448	1.042
-0.9896	-0.0559	0.2028	-0.2937	0.1154	0.8672	0.8113	0.9127	2.0736	1.5246	2.0596	2.9758	2.9058	-0.6294	-2.0841	-1.64	1.2589	0.7588	0.7518	-0.7868	1.1749
-1.1539	-0.0629	0.1259	-0.3846	0.1609	0.8847	0.7588	1.0211	2.154	1.5526	2.2694	3.1331	2.9583	-0.6504	-2.2764	-1.8218	1.2728	0.7728	0.8357	-0.8357	1.3218
-1.2763	-0.0979	0.0175	-0.4721	0.2098	0.8637	0.7168	1.133	2.2205	1.5561	2.4443	3.28	3.0422	-0.6574	-2.4827	-2.0316	1.3043	0.8008	0.9302	-0.8462	1.4477
-1.4057	-0.1259	-0.0699	-0.563	0.2658	0.8847	0.6469	1.2589	2.2624	1.5701	2.6506	3.4409	3.1122	-0.6609	-2.6681	-2.231	1.3148	0.8532	1.0246	-0.8847	1.5771
-1.5071	-0.1189	-0.1853	-0.6539	0.3637	0.8707	0.577	1.3742	2.3394	1.598	2.8744	3.6297	3.2066	-0.6539	-2.8324	-2.4058	1.3148	0.9092	1.133	-0.8917	1.7449
-1.6295	-0.1539	-0.2413	-0.7308	0.4126	0.8672	0.5	1.5421	2.4093	1.6155	3.1122	3.794	3.28	-0.6644	-3.0073	-2.6226	1.3288	0.9686	1.2379	-0.9127	1.9023
-1.7589	-0.1399	-0.3287	-0.8252	0.4791	0.8637	0.4476	1.668	2.4722	1.6155	3.3604	3.9654	3.3674	-0.6749	-3.1926	-2.8219	1.3428	1.0281	1.3463	-0.9092	2.0561
-1.8288	-0.1574	-0.4161	-0.8952	0.5735	0.8567	0.3567	1.8218	2.5527	1.6225	3.6052	4.1472	3.4199	-0.6784	-3.3639	-3.0422	1.3498	1.098	1.4477	-0.9441	2.2345
-1.9337	-0.1504	-0.4651	-0.9546	0.6609	0.8707	0.3042	1.9722	2.6261	1.6785	3.8675	4.3255	3.4933	-0.6749	-3.5108	-3.2695	1.3533	1.1784	1.5596	-0.9476	2.4058
-2.0002	-0.1853	-0.507	-0.9931	0.7553	0.8812	0.2762	2.1086	2.6716	1.7134	4.1437	4.4829	3.5842	-0.6679	-3.6332	-3.4513	1.3428	1.2449	1.6715	-0.9371	2.5736
-2.0876	-0.2028	-0.5945	-1.049	0.8148	0.8637	0.2238	2.2799	2.745	1.7379	4.371	4.6438	3.6367	-0.6784	-3.8045	-3.6961	1.3603	1.3253	1.7449	-0.9651	2.724
-2.1086	-0.1958	-0.6049	-1.0455	0.8882	0.8462	0.1888	2.4128	2.8009	1.7309	4.6717	4.8046	3.7276	-0.6644	-3.8954	-3.871	1.3498	1.4022	1.8638	-0.9441	2.8884
-2.14	-0.1923	-0.6399	-1.0735	1.0071	0.8777	0.1748	2.5946	2.8884	1.7729	4.962	4.962	3.794	-0.6714	-3.9968	-4.0388	1.3253	1.4861	1.9652	-0.9546	3.0667
-2.1575	-0.1923	-0.6819	-1.084	1.091	0.8707	0.1713	2.78	2.9338	1.7799	5.2312	5.1263	3.8465	-0.6679	-4.1018	-4.2067	1.3288	1.5526	2.1016	-0.9406	3.28
-2.154	-0.1539	-0.6539	-1.0735	1.1959	0.8672	0.1469	2.9373	3.0073	1.7904	5.511	5.2557	3.9059	-0.6714	-4.1682	-4.3395	1.3323	1.6295	2.196	-0.9162	3.4513
-2.1435	-0.1294	-0.6609	-1.0735	1.3253	0.8987	0.1504	3.1366	3.0562	1.8358	5.7837	5.3921	3.9514	-0.6854	-4.2311	-4.4305	1.3498	1.689	2.3219	-0.9092	3.6157
-2.1226	-0.1154	-0.6539	-1.07	1.4092	0.8917	0.1224	3.287	3.0982	1.8323	6.046	5.5075	3.9759	-0.6924	-4.2801	-4.5179	1.3777	1.7169	2.4198	-0.8917	3.7766
-2.0946	-0.014	-0.6084	-1.0316	1.5316	0.9441	0.1329	3.4723	3.1856	1.8883	6.3152	5.6438	4.0353	-0.6924	-4.2836	-4.5458	1.3952	1.7834	2.5771	-0.8602	3.9724
-2.0456	0.0629	-0.57	-1.0316	1.633	0.9581	0.1329	3.6402	3.259	1.8778	6.567	5.7592	4.0703	-0.7203	-4.2521	-4.5319	1.4407	1.7764	2.682	-0.8252	4.1157
-1.9442	0.1364	-0.5	-0.9721	1.7939	1.0351	0.1329	3.8465	3.336	1.9058	6.8188	5.8606	4.0738	-0.7378	-4.1997	-4.4794	1.4687	1.8183	2.78	-0.8183	4.2696
-1.8638	0.2658	-0.4056	-0.9127	1.9407	1.14	0.1748	4.0388	3.4548	1.9862	7.088	6.0005	4.1472	-0.7518	-4.1297	-4.378	1.5001	1.8428	2.8814	-0.7343	4.406
-1.7169	0.4021	-0.3007	-0.8322	2.1156	1.2274	0.2273	4.2626	3.5528	2.0316	7.3188	6.0914	4.1787	-0.7763	-4.0388	-4.2171	1.5491	1.8183	2.9968	-0.7029	4.5354
-1.5421	0.591	-0.0944	-0.7029	2.3184	1.3673	0.3462	4.4689	3.6926	2.1296	7.5671	6.2208	4.2416	-0.7798	-3.871	-4.0108	1.5736	1.8148	3.1296	-0.6469	4.6682
-1.3183	0.7658	0.0979	-0.5455	2.4967	1.5071	0.4546	4.6752	3.843	2.238	7.8293	6.3747	4.3046	-0.7973	-3.7031	-3.8045	1.605	1.8218	3.252	-0.5665	4.8011
-1.1155	0.9826	0.3322	-0.3777	2.724	1.6994	0.598	4.906	4.0248	2.3219	8.0636	6.5076	4.3675	-0.8252	-3.5563	-3.5318	1.6505	1.7974	3.3569	-0.4826	4.9305
-0.8567	1.2134	0.5875	-0.1643	2.9443	1.9197	0.7938	5.1228	4.2451	2.4827	8.2944	6.6719	4.4619	-0.8252	-3.3464	-3.2695	1.6715	1.7939	3.4723	-0.3777	5.0319
-0.5245	1.5106	0.8917	0.0699	3.2101	2.168	1.0036	5.3711	4.4409	2.6716	8.5217	6.8188	4.5948	-0.8392	-3.0982	-2.9233	1.682	1.7869	3.6157	-0.2728	5.1473
-0.1993	1.7799	1.1994	0.3077	3.4793	2.4443	1.2309	5.6194	4.6717	2.8324	8.742	6.9831	4.7067	-0.8672	-2.8639	-2.6016	1.7169	1.7589	3.7346	-0.1678	5.2417
0.1434	2.0911	1.5491	0.584	3.7766	2.724	1.4757	5.8676	4.9445	3.0177	8.9343	7.1615	4.8011	-0.8812	-2.6086	-2.2729	1.7554	1.7239	3.8745	-0.0734	5.3047
0.556	2.4198	1.9582	0.8917	4.0738	3.0422	1.7379	6.1229	5.2382	3.2345	9.1232	7.3363	4.934	-0.9092	-2.3429	-1.9617	1.7869	1.6925	4.0423	0.0455	5.3641
0.9651	2.773	2.3883	1.1994	4.399	3.4059	2.0421	6.3887	5.5319	3.4479	9.34	7.5356	5.0913	-0.9267	-2.0771	-1.633	1.8253	1.6505	4.1857	0.1574	5.448
1.3847	3.1261	2.8184	1.5106	4.7137	3.7556	2.3289	6.6404	5.8362	3.6367	9.5253	7.714	5.1963	-0.9371	-1.8078	-1.3288	1.8883	1.5945	4.3186	0.2693	5.4865
1.8218	3.5388	3.2765	1.8323	5.0913	4.1402	2.6401	6.9517	6.1754	3.8954	9.7386	7.9343	5.3676	-0.9546	-1.5281	-1.0176	1.9128	1.5246	4.5179	0.3881	5.5459
2.2939	3.9968	3.7626	2.189	5.483	4.6158	2.9513	7.2349	6.5285	4.1227	9.9169	8.158	5.497	-1.0106	-1.2414	-0.6889	1.9932	1.4931	4.6927	0.4896	5.6403
2.7695	4.4305	4.2696	2.5352	5.8537	4.9934	3.273	7.5181	6.9097	4.3465	10.1058	8.3644	5.6334	-1.042	-0.9546	-0.3916	2.0701	1.3882	4.8711	0.6084	5.7068
3.2975	4.941	4.8221	2.9408	6.2908	5.4795	3.6297	7.8328	7.2769	4.6333	10.2876	8.6091	5.8047	-1.0875	-0.6259	-0.0559	2.1575	1.3393	5.0844	0.7273	5.7732
3.85	5.4445	5.3711	3.3325	6.7488	5.9656	3.9584	8.1615	7.693	4.8641	10.4869	8.8399	5.9551	-1.147	-0.3077	0.2553	2.2729	1.2728	5.3047	0.8078	5.8676
4.406	5.983	5.9516	3.7346	7.2104	6.4656	4.3151	8.4798	8.1126	5.1158	10.6723	9.0672	6.1264	-1.2029	0.042	0.591	2.3813	1.1854	5.5494	0.9127	5.9551
5.0249	6.5145	6.5565	4.1472	7.6825	6.9761	4.6892	8.8154	8.5217	5.3676	10.8541	9.3085	6.2698	-1.2658	0.4091	0.9406	2.5107	1.0525	5.7767	1.0351	6.0285
5.6019	7.1125	7.165	4.5738	8.1476	7.4972	5.0109	9.1232	8.9134	5.5914	11.0289	9.5463	6.4341	-1.3393	0.7868	1.2554	2.6541	0.9302	6.025	1.1365	6.1299
6.2418	7.7	7.8224	5.0214	8.6546	8.0601	5.3956	9.4693	9.3435	5.8571	11.2282	9.7736	6.588	-1.4162	1.1714	1.661	2.7905	0.8113	6.2768	1.2414	6.2313
6.8467	8.3084	8.4168	5.469	9.1337	8.5357	5.6928	9.7736	9.7421	6.0844	11.3681	9.9834	6.7069	-1.4826	1.5386	1.9897	2.9513	0.6399	6.5215	1.3183	6.2943
7.5181	8.8924	9.0392	5.9166	9.5847	9.0497	6.067	10.0848	10.1477	6.3222	11.515	10.1932	6.8293	-1.5701	1.9617	2.3394	3.1087	0.493	6.7593	1.4162	6.3432
8.1685	9.5078	9.6652	6.3887	10.0918	9.6022	6.4166	10.354	10.5534	6.553	11.6618	10.3925	6.9551	-1.6505	2.3464	2.71	3.2625	0.3112	6.9796	1.5036	6.4271
8.8189	10.0708	10.2561	6.7838	10.5114	10.0743	6.7314	10.6408	10.9275	6.7139	11.7493	10.5813	7.0181	-1.7414	2.7415	3.0737	3.4374	0.1154	7.1789	1.5631	6.4691
9.4659	10.6583	10.8786	7.2489	10.9485	10.5673	7.0461	10.8821	11.3122	6.9412	11.8577	10.7387	7.1055	-1.8148	3.1541	3.4409	3.6017	-0.0629	7.3853	1.654	6.4901
10.0708	11.1828	11.4485	7.6755	11.3506	11.0429	7.3223	11.0779	11.6409	7.1055	11.8891	10.8541	7.1754	-1.8918	3.5737	3.8465	3.7556	-0.2623	7.5496	1.7239	6.4936
10.6513	11.6828	11.9486	8.0357	11.7213	11.4311	7.6195	11.2387	11.9136	7.2489	11.8752	10.9415	7.1475	-1.9967	3.9514	4.1752	3.9444	-0.4651	7.644	1.7519	6.4586
11.1898	12.1304	12.4416	8.4028	12.0255	11.8192	7.8853	11.3821	12.1654	7.3503	11.8682	11.0079	7.1685	-2.0736	4.3151	4.4829	4.0913	-0.6959	7.7909	1.7869	6.4306
11.6653	12.5675	12.8717	8.7245	12.2878	12.1479	8.0916	11.4695	12.3822	7.4482	11.7842	11.0254	7.1195	-2.147	4.6403	4.7906	4.2521	-0.8987	7.8643	1.7939	6.3677
12.1304	12.9032	13.3018	9.0637	12.5186	12.4731	8.3294	11.522	12.5465	7.4762	11.6653	11.0324	7.0845	-2.2205	4.9585	5.0844	4.392	-1.1085	7.9098	1.8009	6.2453
12.5535	13.2494	13.6725	9.3784	12.7179	12.7354	8.5287	11.543	12.6934	7.5461	11.5395	10.9765	7.0111	-2.2939	5.2557	5.3536	4.5284	-1.3113	7.9517	1.7694	6.1684
12.9242	13.5536	13.9977	9.6547	12.8892	12.9731	8.7315	11.5674	12.7948	7.5671	11.3786	10.9135	6.9167	-2.3429	5.5494	5.6054	4.6228	-1.5246	7.9832	1.7274	6.0495
13.2599	13.7739	14.2635	9.868	12.9766	13.127	8.8679	11.494	12.8228	7.5741	11.1583	10.8051	6.7873	-2.4023	5.8012	5.8432	4.7417	-1.7309	7.9552	1.6994	5.8991
13.5361	13.9383	14.4768	10.0568	13.0361	13.2634	8.9693	11.4136	12.8263	7.5321	10.9065	10.6093	6.6299	-2.4478	6.046	6.0565	4.8431	-1.9512	7.9098	1.619	5.7348
13.7634	14.0537	14.6481	10.2142	13.0431	13.3368	9.0322	11.2807	12.7773	7.4832	10.6373	10.417	6.4796	-2.4722	6.2593	6.2838	4.9025	-2.1645	7.8293	1.5526	5.5459
13.9453	14.1061	14.746	10.2876	12.9697	13.3508	9.0532	11.0919	12.6759	7.3608	10.3086	10.1932	6.2418	-2.5037	6.4341	6.4761	4.9725	-2.3464	7.7209	1.4687	5.3151
14.0746	14.1411	14.802	10.3016	12.8613	13.2984	9.0078	10.8821	12.5151	7.2069	9.9764	9.9309	5.976	-2.5282	6.567	6.6439	5.0074	-2.5632	7.5916	1.3987	5.1158
14.197	14.0816	14.8335	10.3296	12.7354	13.2599	8.9728	10.6548	12.3507	7.081	9.5917	9.6512	5.7418	-2.5282	6.7244	6.8258	5.0144	-2.7135	7.4237	1.3218	4.8711
14.2565	14.0327	14.816	10.2946	12.5815	13.169	8.8644	10.375	12.1549	6.9237	9.2316	9.3609	5.5215	-2.5247	6.8363	6.9691	4.9934	-2.9233	7.2524	1.2414	4.6438
14.2879	13.9208	14.7355	10.2247	12.3787	13.0291	8.763	10.0883	11.9171	6.7139	8.8259	9.0253	5.2557	-2.4967	6.9551	7.123	4.941	-3.0562	7.0496	1.1644	4.3675
14.2705	13.7494	14.6411	10.1267	12.1619	12.8333	8.5951	9.7876	11.6304	6.5041	8.3888	8.7035	4.9585	-2.4757	7.0496	7.2594	4.899	-3.2136	6.8328	1.0595	4.1157
14.2495	13.5851	14.5292	10.0218	11.9171	12.634	8.4203	9.4554	11.3681	6.3082	8.0007	8.3609	4.6997	-2.4163	7.137	7.3957	4.8011	-3.336	6.6125	1.0106	3.85
14.1726	13.3823	14.3824	9.8645	11.6199	12.4067	8.249	9.1162	11.0954	6.0914	7.5391	8.0042	4.4444	-2.3848	7.1894	7.5391	4.7102	-3.4444	6.3677	0.9546	3.5493
14.0642	13.1375	14.1865	9.6966	11.3401	12.1549	8.0147	8.756	10.7317	5.8537	7.0845	7.644	4.1332	-2.3254	7.2069	7.6125	4.6158	-3.5493	6.1054	0.8602	3.2625
13.9278	12.8892	13.9732	9.5253	11.0044	11.8891	7.7594	8.3749	10.389	5.6054	6.616	7.2769	3.8884	-2.2624	7.2629	7.7035	4.4759	-3.6332	5.8502	0.7903	2.9758
13.7704	12.6584	13.7355	9.305	10.7072	11.5744	7.5111	8.0217	10.0638	5.3641	6.1754	6.8992	3.6262	-2.196	7.2314	7.7804	4.336	-3.6577	5.5984	0.7518	2.6995
13.5641	12.3612	13.4837	9.1162	10.368	11.3017	7.2559	7.6265	9.7001	5.0913	5.7208	6.532	3.3814	-2.1086	7.2034	7.8014	4.1822	-3.6961	5.3151	0.7133	2.4163
13.3473	12.0675	13.1969	8.8784	10.0253	10.98	6.9691	7.2559	9.347	4.878	5.2662	6.1334	3.1226	-2.0456	7.1754	7.7874	4.0353	-3.7171	5.0039	0.6469	2.1261
13.106	11.7982	12.9382	8.6196	9.7071	10.6932	6.7034	6.8992	9.0148	4.6473	4.8606	5.7767	2.9058	-1.9547	7.1055	7.7769	3.8605	-3.7101	4.7766	0.6084	1.8638
12.8298	11.494	12.6445	8.3783	9.3714	10.3645	6.4376	6.5145	8.6406	4.413	4.4654	5.4166	2.682	-1.8778	7.0181	7.7314	3.6996	-3.6856	4.5284	0.5945	1.6015
12.564	11.1968	12.3507	8.1196	9.0427	10.0918	6.1858	6.1719	8.3154	4.2206	4.0738	5.0774	2.4862	-1.7799	6.8852	7.6685	3.5213	-3.6507	4.2801	0.591	1.3707
12.2773	10.917	12.0745	7.8748	8.728	9.7526	5.9306	5.7942	7.9832	4.0528	3.6751	4.7661	2.3429	-1.689	6.7244	7.5321	3.3464	-3.5702	4.0178	0.563	1.1155
11.9905	10.6198	11.7737	7.637	8.4098	9.4938	5.7557	5.476	7.6825	3.885	3.336	4.4724	2.1925	-1.5945	6.567	7.4202	3.1716	-3.4863	3.7766	0.5875	0.9162
11.7073	10.3261	11.4975	7.4237	8.0951	9.2281	5.5809	5.1578	7.4412	3.8115	3.0422	4.2346	2.1226	-1.5246	6.4166	7.2629	3.0038	-3.3919	3.5353	0.5805	0.6994
11.4415	10.0428	11.2492	7.2559	7.8119	9.0008	5.483	4.8711	7.1719	3.7381	2.745	4.0143	2.0666	-1.4267	6.2313	7.102	2.8254	-3.2276	3.3255	0.598	0.4896
11.1828	9.7631	11.001	7.088	7.5426	8.7875	5.3956	4.6088	6.9586	3.6996	2.4862	3.822	2.0841	-1.3358	6.0565	6.9272	2.6471	-3.0737	3.1331	0.6539	0.2937
10.8995	9.4693	10.7562	6.9726	7.2803	8.5812	5.3956	4.3325	6.7523	3.6926	2.2484	3.6577	2.1051	-1.2449	5.8606	6.7488	2.4757	-2.8954	2.9303	0.7133	0.1259
10.6967	9.2071	10.5534	6.8922	7.0391	8.4098	5.3921	4.1297	6.5705	3.7346	2.0456	3.5563	2.154	-1.1609	5.7103	6.581	2.2869	-2.689	2.766	0.7728	-0.014
10.4624	8.9693	10.347	6.7943	6.8083	8.2385	5.3991	3.9339	6.4481	3.7975	1.8848	3.4618	2.2449	-1.0595	5.5215	6.3852	2.1016	-2.4827	2.6156	0.8532	-0.1504
10.2631	8.7175	10.1512	6.7244	6.5915	8.0951	5.4655	3.7696	6.3047	3.8465	1.7274	3.3744	2.3638	-0.9826	5.3326	6.2068	1.9407	-2.238	2.4583	0.9476	-0.2693
10.0218	8.4728	9.9449	6.6544	6.4061	7.9412	5.511	3.5877	6.1963	3.9374	1.605	3.2835	2.4757	-0.8987	5.1613	6.0355	1.7834	-2.0386	2.3079	1.0351	-0.4056
9.7946	8.242	9.7771	6.609	6.2278	7.8433	5.5529	3.4513	6.1229	4.0283	1.5001	3.2241	2.6016	-0.8217	4.9934	5.8781	1.6365	-1.8288	2.154	1.133	-0.4756
9.6022	8.0496	9.6267	6.5635	6.074	7.7489	5.6334	3.3255	6.025	4.1332	1.4162	3.1961	2.717	-0.7588	4.8536	5.7592	1.4896	-1.605	2.0701	1.2379	-0.521
9.3994	7.8433	9.4449	6.553	5.9306	7.6545	5.6683	3.2171	5.9656	4.1962	1.3777	3.1821	2.8394	-0.6819	4.6717	5.5984	1.3568	-1.4092	1.9862	1.3253	-0.591
9.1966	7.665	9.298	6.4971	5.7872	7.5566	5.7243	3.1226	5.9166	4.2521	1.3323	3.1506	2.9583	-0.6154	4.5319	5.483	1.2274	-1.1679	1.8988	1.4197	-0.6189
9.0078	7.4902	9.1441	6.4341	5.6648	7.4727	5.7487	3.0597	5.8711	4.364	1.2938	3.1436	3.0912	-0.5665	4.3885	5.3396	1.1085	-0.9791	1.8393	1.5036	-0.6154
8.8189	7.3398	8.9973	6.4096	5.5599	7.4132	5.8222	3.0003	5.8362	4.4025	1.3078	3.1611	3.2206	-0.507	4.2661	5.2277	1.0106	-0.7763	1.7869	1.5771	-0.6224
8.6511	7.2139	8.8574	6.4061	5.4655	7.3468	5.8921	2.9723	5.7977	4.5424	1.3253	3.1996	3.3429	-0.4651	4.1297	5.1298	0.9057	-0.6084	1.7624	1.668	-0.6119
8.4658	7.0531	8.721	6.3887	5.4131	7.2978	5.9586	2.9408	5.8117	4.6298	1.3568	3.2066	3.4479	-0.4231	3.9934	5.0109	0.8357	-0.4441	1.7309	1.7379	-0.5875
8.2944	6.9307	8.5986	6.3852	5.3536	7.2629	6.046	2.9163	5.8187	4.7067	1.4372	3.259	3.5702	-0.3707	3.871	4.934	0.7413	-0.3042	1.696	1.8113	-0.5455
8.1755	6.8537	8.5217	6.3922	5.3151	7.2594	6.1299	2.9408	5.8537	4.8431	1.5141	3.3499	3.7206	-0.3217	3.7905	4.8885	0.6539	-0.1399	1.6925	1.8848	-0.521
8.0636	6.7908	8.4098	6.4376	5.2872	7.2384	6.2418	2.9583	5.9026	4.9305	1.6015	3.4304	3.878	-0.2972	3.7171	4.8326	0.5875	0.014	1.682	1.9512	-0.4756
7.9587	6.7488	8.3504	6.4691	5.3012	7.2524	6.3187	3.0142	5.9935	5.0669	1.7239	3.5388	4.0213	-0.2832	3.6472	4.7731	0.549	0.1713	1.682	2.0177	-0.4441
7.8853	6.7593	8.3224	6.574	5.3256	7.2978	6.4621	3.1157	6.1124	5.2172	1.8848	3.6996	4.1927	-0.2448	3.5912	4.7522	0.4896	0.2972	1.6855	2.0981	-0.3777
7.8014	6.7523	8.2699	6.6369	5.3886	7.3363	6.602	3.1821	6.2068	5.3711	2.0456	3.8395	4.3675	-0.2168	3.5528	4.7172	0.4616	0.4336	1.696	2.175	-0.3357
7.7839	6.7593	8.2804	6.7383	5.455	7.4307	6.7174	3.301	6.3432	5.4935	2.182	3.9864	4.5179	-0.2133	3.5178	4.7102	0.4476	0.535	1.6994	2.2345	-0.3077
7.714	6.8398	8.2874	6.8432	5.5564	7.5356	6.8712	3.4618	6.5041	5.6473	2.3918	4.1752	4.7102	-0.2063	3.4723	4.6787	0.4231	0.6574	1.7519	2.3254	-0.2028
7.6965	6.9132	8.2909	6.9237	5.6788	7.5951	7.0321	3.5842	6.6439	5.8222	2.5492	4.3255	4.892	-0.2063	3.4234	4.6473	0.4231	0.7728	1.7974	2.3778	-0.1364
7.6335	6.9586	8.2979	6.9901	5.8012	7.6895	7.1615	3.7206	6.7978	5.9551	2.724	4.4829	5.0599	-0.2273	3.3989	4.6053	0.4546	0.8567	1.8148	2.4268	-0.0734
7.5951	7.0566	8.2874	7.0531	5.9201	7.7839	7.2803	3.8675	6.9621	6.0949	2.8884	4.6438	5.1893	-0.2343	3.315	4.5598	0.493	0.9406	1.8743	2.4827	0.007
7.5566	7.13	8.3189	7.0845	6.0495	7.8783	7.3957	4.0248	7.1195	6.2208	3.0947	4.8011	5.3571	-0.2553	3.2555	4.4934	0.535	1.0001	1.9372	2.5317	0.1224
7.5251	7.2139	8.3399	7.1405	6.2103	7.9867	7.5216	4.2067	7.2524	6.3572	3.2835	4.962	5.5005	-0.2693	3.2066	4.4409	0.549	1.0945	1.9932	2.5981	0.1958
7.4937	7.3048	8.3609	7.2069	6.3397	8.0741	7.6021	4.357	7.4237	6.4551	3.4548	5.0879	5.6299	-0.3042	3.1471	4.3675	0.6049	1.112	2.0526	2.6121	0.2762
7.4692	7.3783	8.3749	7.2419	6.4866	8.1511	7.7035	4.5074	7.5391	6.588	3.6472	5.2557	5.7627	-0.3147	3.0842	4.3046	0.6329	1.1924	2.1261	2.6681	0.3881
7.4272	7.4447	8.3644	7.3083	6.609	8.2385	7.8154	4.6612	7.6965	6.7069	3.8395	5.4026	5.8991	-0.3252	3.0142	4.1997	0.6714	1.2204	2.1645	2.6855	0.4965
7.4307	7.5146	8.3923	7.3573	6.7314	8.3154	7.9133	4.8011	7.8363	6.7978	4.0423	5.5529	6.032	-0.3462	2.9653	4.1367	0.6994	1.2449	2.2519	2.7345	0.6015
7.3888	7.5671	8.4168	7.4097	6.8572	8.4413	7.9902	4.9305	7.9762	6.8992	4.1997	5.7068	6.1579	-0.3567	2.9128	4.0213	0.7308	1.2973	2.3429	2.766	0.6994
7.3783	7.5951	8.4133	7.4097	6.9482	8.5252	8.0636	5.0669	8.1021	6.9761	4.3325	5.8292	6.2698	-0.3742	2.8674	3.9444	0.7623	1.3183	2.4023	2.8079	0.7833
7.3818	7.658	8.4448	7.4517	7.0286	8.5986	8.1371	5.1788	8.2105	7.0845	4.5074	5.969	6.3817	-0.3846	2.8709	3.8605	0.7728	1.3568	2.4827	2.8394	0.8847
7.4062	7.7	8.4902	7.4832	7.1265	8.6721	8.186	5.3186	8.3853	7.1789	4.6892	6.1229	6.5041	-0.3707	2.8324	3.836	0.7798	1.3812	2.5806	2.9163	0.9721
7.4272	7.7314	8.5077	7.5041	7.1999	8.756	8.249	5.427	8.5007	7.2699	4.8256	6.2418	6.623	-0.3881	2.8394	3.7311	0.7693	1.4092	2.6576	2.9478	1.049
7.4937	7.7839	8.5672	7.5391	7.3013	8.8469	8.2909	5.5215	8.6546	7.3713	4.9725	6.3887	6.7418	-0.3602	2.8779	3.7031	0.7483	1.4302	2.738	3.0247	1.126
7.5321	7.8189	8.6056	7.5321	7.3608	8.9413	8.3469	5.6194	8.749	7.4237	5.0948	6.5041	6.8118	-0.3742	2.8779	3.6612	0.7518	1.4337	2.8009	3.0737	1.147
7.5531	7.8643	8.6581	7.5111	7.4377	9.0008	8.3539	5.6893	8.8574	7.5111	5.2032	6.609	6.9202	-0.3567	2.9303	3.6402	0.7308	1.4477	2.8744	3.1401	1.2239
7.5951	7.8958	8.6931	7.4797	7.4937	9.0952	8.3818	5.7802	8.9693	7.5531	5.3326	6.7209	6.9971	-0.3497	2.9443	3.6157	0.7273	1.4757	2.9618	3.2206	1.2449
7.6265	7.9552	8.714	7.4587	7.5636	9.1686	8.3574	5.8292	9.0462	7.5916	5.4061	6.7908	7.0181	-0.3532	3.0073	3.5982	0.7378	1.4617	3.0073	3.2765	1.2623
7.672	7.9972	8.7315	7.4307	7.5951	9.2036	8.3504	5.8921	9.1127	7.6021	5.4585	6.8537	7.0426	-0.3812	3.0212	3.5947	0.7763	1.4547	3.0842	3.3325	1.2658
7.7209	8.0706	8.7875	7.3853	7.6825	9.284	8.3294	5.9865	9.1861	7.6405	5.5459	6.9307	7.0635	-0.3742	3.0877	3.6122	0.7868	1.4442	3.1646	3.3674	1.2973
7.7559	8.1406	8.8015	7.3188	7.7244	9.3085	8.2769	6.018	9.2456	7.623	5.5984	6.9691	7.0391	-0.3986	3.1926	3.6472	0.8113	1.4127	3.2241	3.4199	1.2763
7.7804	8.207	8.8504	7.2349	7.7734	9.3365	8.2105	6.0844	9.277	7.5916	5.6578	6.9796	7.0076	-0.4266	3.259	3.7206	0.8602	1.3882	3.2905	3.4548	1.3078
7.8189	8.235	8.8679	7.116	7.8119	9.3435	8.1056	6.1404	9.2945	7.5391	5.6928	6.9796	6.9691	-0.4651	3.3639	3.7521	0.9267	1.3218	3.315	3.4793	1.2973
7.8818	8.2874	8.8749	6.9831	7.8643	9.3889	7.9902	6.1754	9.3015	7.4972	5.7243	6.9796	6.8817	-0.4826	3.4863	3.85	0.9896	1.2623	3.3674	3.5003	1.2938
7.9238	8.3364	8.8784	6.8502	7.8888	9.3784	7.8398	6.2173	9.312	7.4062	5.7557	6.9761	6.7908	-0.5385	3.6122	3.9584	1.0735	1.1749	3.4024	3.5108	1.2763
7.9797	8.3783	8.9378	6.7279	7.9238	9.3994	7.714	6.2663	9.312	7.3083	5.7837	6.9551	6.7104	-0.563	3.7591	4.1052	1.1504	1.1225	3.4339	3.5143	1.2728
8.0951	8.4693	8.9693	6.6055	7.9867	9.4519	7.6125	6.3152	9.3575	7.2384	5.8257	6.9691	6.6544	-0.6189	3.9234	4.2906	1.2484	1.0071	3.4863	3.5318	1.2589
8.221	8.5637	9.0322	6.5076	8.0531	9.4693	7.4762	6.3852	9.3714	7.1859	5.8502	6.9726	6.574	-0.6609	4.1157	4.4969	1.3463	0.9162	3.5423	3.5493	1.2589
8.3609	8.6161	9.1127	6.4761	8.1476	9.5183	7.3992	6.4341	9.4064	7.123	5.8921	6.9866	6.5041	-0.7238	4.3325	4.6752	1.4372	0.8148	3.6227	3.5248	1.2658
8.4867	8.7035	9.2246	6.4516	8.228	9.5952	7.3643	6.5495	9.4589	7.1055	5.9131	7.0321	6.4516	-0.7623	4.5424	4.92	1.5386	0.7273	3.7066	3.5493	1.2519
8.6651	8.798	9.34	6.4831	8.3084	9.6512	7.3223	6.595	9.5148	7.0705	5.9376	7.0356	6.3572	-0.8322	4.7661	5.1473	1.6575	0.6259	3.7591	3.5388	1.2064
8.8644	8.9273	9.4763	6.5215	8.4448	9.7736	7.3328	6.7383	9.6267	7.0705	6.004	7.0985	6.3362	-0.8777	5.0074	5.4061	1.7379	0.507	3.822	3.5458	1.2204
9.0707	9.0707	9.6232	6.5985	8.5602	9.8575	7.3608	6.8188	9.6896	7.0566	6.0285	7.1335	6.3012	-0.9302	5.2732	5.6508	1.8463	0.4266	3.9024	3.5702	1.2414
9.2945	9.2001	9.7806	6.7069	8.7175	9.9799	7.4132	6.9377	9.7841	7.0705	6.046	7.165	6.2453	-0.9686	5.5354	5.9551	1.9302	0.3217	3.9654	3.5563	1.2099
9.4763	9.347	9.9309	6.8048	8.8539	10.0848	7.4587	7.0531	9.875	7.0635	6.067	7.2069	6.2208	-1.0071	5.7837	6.2103	2.0072	0.2378	4.0703	3.5772	1.1959
9.6757	9.5008	10.0568	6.9272	8.9868	10.1932	7.4937	7.1335	9.9554	7.067	6.046	7.2034	6.1614	-1.056	6.032	6.4481	2.0981	0.1189	4.1577	3.5737	1.1714
9.8855	9.6757	10.2282	7.0705	9.1616	10.3016	7.5391	7.2209	10.0218	7.0286	6.06	7.2034	6.0705	-1.098	6.2523	6.7069	2.182	0.0105	4.2451	3.5702	1.1819
10.1058	9.833	10.396	7.2559	9.34	10.424	7.623	7.3433	10.1128	7.0041	6.0879	7.2209	6.0145	-1.1539	6.4656	6.9062	2.2764	-0.1154	4.3465	3.5772	1.1924
10.2736	9.9939	10.5464	7.3992	9.4903	10.5359	7.686	7.4482	10.1792	7.0111	6.1159	7.2384	5.9551	-1.1819	6.6999	7.109	2.3499	-0.2168	4.4584	3.5772	1.2134
10.4834	10.1827	10.6897	7.5811	9.6372	10.6478	7.8224	7.5426	10.2771	7.0321	6.1019	7.2524	5.8746	-1.2554	6.8887	7.2978	2.4757	-0.3322	4.5563	3.5597	1.2239
10.6723	10.3261	10.8051	7.7699	9.7946	10.7457	7.9273	7.63	10.3401	7.0111	6.1229	7.2769	5.8292	-1.3043	7.0601	7.4622	2.5876	-0.4406	4.6508	3.5388	1.2274
10.8541	10.5324	10.9625	7.9867	9.9729	10.91	8.0636	7.7629	10.4624	7.0356	6.1649	7.3188	5.7767	-1.3568	7.2174	7.616	2.6995	-0.57	4.7592	3.5458	1.2868
11.0324	10.6653	11.1059	8.1755	10.1058	11.0289	8.1825	7.8398	10.5534	7.0391	6.1754	7.3363	5.6858	-1.4162	7.3433	7.693	2.8289	-0.6889	4.8431	3.5003	1.2833
11.2108	10.8436	11.2807	8.4098	10.2282	11.1723	8.3259	7.9412	10.6408	7.0496	6.1858	7.3748	5.6264	-1.4896	7.5146	7.8259	2.9478	-0.8043	4.955	3.4688	1.3113
11.4101	11.001	11.4171	8.6021	10.382	11.3227	8.4937	8.0287	10.7772	7.0705	6.2348	7.4552	5.5914	-1.5386	7.6021	7.9063	3.0597	-0.8952	5.0564	3.4513	1.3288
11.6234	11.1828	11.6024	8.8644	10.5359	11.4415	8.6546	8.1231	10.8751	7.123	6.2628	7.5321	5.5529	-1.5806	7.7244	7.9657	3.1541	-0.9826	5.1438	3.4479	1.3638
11.8122	11.3401	11.7842	9.1127	10.6653	11.5919	8.8154	8.2245	11.0149	7.165	6.2977	7.5986	5.5145	-1.6435	7.8363	8.0357	3.252	-1.0665	5.2137	3.4164	1.3568
12.008	11.5534	11.9591	9.3295	10.8191	11.7668	8.9938	8.3154	11.1723	7.2139	6.3257	7.707	5.497	-1.6715	7.9308	8.1021	3.329	-1.105	5.2907	3.3779	1.3533
12.1864	11.7423	12.1374	9.5533	10.973	11.9311	9.1511	8.4273	11.2947	7.2803	6.3572	7.7804	5.476	-1.7169	8.0392	8.1441	3.4024	-1.1504	5.3571	3.3534	1.3638
12.3787	11.9521	12.2948	9.7736	11.1618	12.078	9.3155	8.5217	11.4241	7.3153	6.3887	7.8468	5.4515	-1.7379	8.1301	8.228	3.4513	-1.2344	5.455	3.3534	1.3707
12.5605	12.1689	12.4416	9.9729	11.3052	12.2108	9.4449	8.6161	11.5674	7.3538	6.4201	7.9133	5.4445	-1.7764	8.1895	8.235	3.5143	-1.2903	5.5354	3.315	1.3917
12.7179	12.3647	12.641	10.1652	11.487	12.3612	9.5952	8.6756	11.6758	7.3713	6.4411	7.9902	5.4096	-1.7904	8.2664	8.2839	3.5528	-1.3358	5.6229	3.308	1.3812
12.8508	12.5745	12.7424	10.3331	11.6094	12.4591	9.7071	8.7665	11.7912	7.4132	6.4796	8.0322	5.3816	-1.8044	8.3469	8.3329	3.5667	-1.3568	5.6893	3.2835	1.3777
13.0011	12.7843	12.9137	10.4834	11.7807	12.627	9.7841	8.8679	11.9031	7.4097	6.5111	8.1126	5.3361	-1.8044	8.4343	8.3818	3.5772	-1.4092	5.7767	3.3045	1.3987
13.1235	12.9697	13.0361	10.5883	11.9066	12.6934	9.84	8.9273	11.9661	7.4132	6.5215	8.1371	5.2942	-1.8078	8.4867	8.4098	3.5877	-1.4442	5.8362	3.28	1.4022
13.2179	13.1235	13.1305	10.6408	12.036	12.7808	9.8295	8.9658	12.008	7.4027	6.546	8.1825	5.2032	-1.8113	8.5532	8.4413	3.5912	-1.5141	5.8991	3.259	1.4022
13.3228	13.2739	13.2249	10.6967	12.1374	12.8717	9.8365	9.0078	12.092	7.3888	6.5565	8.2245	5.1543	-1.8183	8.6196	8.4972	3.6052	-1.5806	5.9341	3.2241	1.3882
13.4068	13.4207	13.3018	10.6967	12.2178	12.9312	9.8085	9.0288	12.1304	7.3783	6.567	8.256	5.1053	-1.8183	8.6721	8.5497	3.5982	-1.647	5.976	3.231	1.3812
13.4557	13.5117	13.3543	10.6897	12.3018	12.9731	9.7561	9.0497	12.1514	7.3188	6.5565	8.2804	5.0354	-1.8113	8.714	8.5497	3.5912	-1.696	5.9935	3.2171	1.3393
13.5326	13.6305	13.4103	10.6478	12.3752	13.0291	9.7211	9.0847	12.1934	7.3118	6.581	8.2979	4.9934	-1.8078	8.8085	8.6336	3.5842	-1.7624	6.0145	3.1996	1.3113
13.6201	13.718	13.4802	10.6023	12.4591	13.0711	9.6722	9.0742	12.2318	7.2873	6.581	8.3259	4.9585	-1.8044	8.8679	8.6826	3.5807	-1.8358	6.004	3.1996	1.2554
13.711	13.8334	13.5466	10.5988	12.5081	13.12	9.6757	9.0882	12.2983	7.3083	6.5565	8.3923	4.948	-1.7904	8.9343	8.735	3.5597	-1.8778	6.0075	3.1891	1.2169
13.8194	13.8963	13.6166	10.5918	12.578	13.1585	9.6617	9.0917	12.3367	7.3153	6.56	8.4238	4.934	-1.8009	9.0008	8.8259	3.5632	-1.9232	5.99	3.1716	1.1504
13.9348	13.9837	13.7075	10.6023	12.6759	13.2599	9.6442	9.1302	12.4346	7.3503	6.539	8.4623	4.9725	-1.7974	9.1057	8.9308	3.5458	-1.9512	6.0075	3.1961	1.1225
14.0362	14.0956	13.8334	10.6373	12.7389	13.3298	9.6931	9.1616	12.4801	7.3888	6.553	8.5427	4.9829	-1.7939	9.2141	9.0462	3.5353	-1.9722	5.9725	3.2171	1.07
14.1306	14.1865	13.9103	10.6932	12.7843	13.3998	9.6931	9.1791	12.55	7.4377	6.56	8.5917	5.0074	-1.7904	9.305	9.1197	3.5423	-2.0002	5.9586	3.2415	1.0246
14.2565	14.2845	13.9907	10.7492	12.8822	13.4732	9.7351	9.2071	12.6305	7.4762	6.5425	8.6721	5.0424	-1.7764	9.4029	9.2595	3.5213	-2.0037	5.9621	3.266	0.9756
14.3334	14.3579	14.1026	10.8016	12.9522	13.5746	9.7421	9.2211	12.7039	7.5181	6.539	8.7105	5.0739	-1.7904	9.4798	9.354	3.5108	-2.0142	5.9411	3.315	0.9476
14.4068	14.4523	14.1691	10.8191	12.9976	13.6305	9.7456	9.2246	12.7633	7.5496	6.5215	8.7385	5.0879	-1.7729	9.5743	9.4624	3.5038	-2.0177	5.9236	3.336	0.8812
14.4943	14.5152	14.2565	10.8506	13.0816	13.69	9.7246	9.2456	12.7948	7.5776	6.4971	8.763	5.1018	-1.7624	9.6617	9.5673	3.4898	-2.0107	5.9201	3.3919	0.8777
14.5537	14.5887	14.3159	10.8995	13.134	13.7459	9.7456	9.2456	12.8473	7.6125	6.4796	8.798	5.1123	-1.7659	9.7036	9.6512	3.4933	-1.9897	5.8851	3.4339	0.8462
14.6306	14.6516	14.3894	10.9275	13.1865	13.8089	9.7351	9.2525	12.8962	7.6335	6.4726	8.8329	5.1508	-1.7589	9.7771	9.7386	3.4618	-1.9722	5.9131	3.4723	0.8078
14.6586	14.6971	14.4418	10.945	13.2109	13.8474	9.7456	9.2805	12.9592	7.679	6.4551	8.8644	5.1788	-1.7449	9.819	9.7876	3.4548	-1.9477	5.8991	3.4933	0.8008
14.6831	14.746	14.4943	10.959	13.2319	13.8718	9.7526	9.2875	13.0081	7.7105	6.4376	8.8749	5.2102	-1.7414	9.84	9.8365	3.4409	-1.9197	5.8991	3.5528	0.7763
14.7181	14.7705	14.5292	10.9975	13.2669	13.9383	9.826	9.3015	13.0361	7.7349	6.4131	8.9064	5.2417	-1.7309	9.882	9.8785	3.4234	-1.9023	5.9096	3.5772	0.7483
14.746	14.7985	14.5397	10.9975	13.3333	13.9802	9.826	9.305	13.092	7.7944	6.4446	8.9798	5.3151	-1.7169	9.875	9.882	3.3849	-1.8533	5.9201	3.6227	0.7868
14.7985	14.83	14.5852	11.0289	13.3473	14.0257	9.8645	9.354	13.176	7.8678	6.4761	9.0288	5.3816	-1.6785	9.882	9.889	3.3429	-1.8113	5.9166	3.6681	0.7763
14.8195	14.8649	14.6271	11.0394	13.4068	14.0921	9.9239	9.3959	13.2529	7.9482	6.532	9.1232	5.4865	-1.647	9.8925	9.9065	3.28	-1.7414	5.9446	3.7311	0.7903
14.8474	14.8824	14.6551	11.0674	13.4382	14.1306	9.9589	9.3994	13.3088	8.0077	6.56	9.2036	5.5424	-1.633	9.8925	9.896	3.2345	-1.675	5.9516	3.794	0.8008
14.9174	14.9558	14.7111	11.1198	13.5047	14.19	10.0218	9.4728	13.4172	8.1161	6.6404	9.319	5.6788	-1.6155	9.882	9.8995	3.1891	-1.598	5.976	3.85	0.8252
14.9523	15.0013	14.781	11.1443	13.5571	14.2879	10.0988	9.5463	13.5152	8.228	6.7174	9.4484	5.8152	-1.5841	9.9134	9.8995	3.1331	-1.5141	5.997	3.9374	0.8392
14.9838	15.0433	14.8265	11.1583	13.5991	14.3194	10.1652	9.5812	13.6096	8.3224	6.7768	9.5498	5.9341	-1.5561	9.8435	9.861	3.0947	-1.4337	6.004	4.0248	0.8602
15.0537	15.1272	14.8824	11.2597	13.6445	14.4208	10.2596	9.6512	13.7145	8.4518	6.8363	9.6896	6.067	-1.5351	9.8645	9.812	3.0387	-1.3148	6.039	4.1297	0.8917
15.1132	15.1761	14.9174	11.3157	13.718	14.4943	10.354	9.7176	13.8124	8.5637	6.9167	9.819	6.1928	-1.5071	9.847	9.8155	3.0003	-1.2099	6.0705	4.2171	0.9022
15.1901	15.2566	14.9768	11.3961	13.7844	14.5432	10.438	9.7561	13.8893	8.6721	6.9726	9.9169	6.3292	-1.4931	9.812	9.7736	2.9583	-1.1085	6.074	4.329	0.9302
15.2076	15.3405	15.0293	11.4765	13.8194	14.6027	10.5149	9.798	13.9837	8.784	7.0356	10.0079	6.4271	-1.4791	9.7771	9.7211	2.9128	-1.0351	6.1194	4.4095	0.9511
15.2496	15.372	15.0712	11.5639	13.8439	14.6236	10.5953	9.84	14.0432	8.8644	7.088	10.1023	6.5425	-1.4477	9.7176	9.6442	2.8674	-0.9232	6.1334	4.4829	0.9861
15.2845	15.4069	15.0817	11.6618	13.8683	14.6761	10.6548	9.854	14.0711	8.9518	7.109	10.1407	6.6299	-1.4337	9.6652	9.5603	2.8464	-0.8532	6.1404	4.5598	1.0001
15.288	15.4279	15.1097	11.7423	13.8788	14.7041	10.7282	9.896	14.0991	9.0392	7.1545	10.2282	6.7279	-1.4162	9.6197	9.5148	2.8114	-0.7693	6.1858	4.6508	1.0246
15.337	15.5013	15.1552	11.8437	13.8963	14.746	10.8261	9.8925	14.1656	9.1476	7.1789	10.3016	6.8258	-1.4057	9.6127	9.5078	2.759	-0.6959	6.1824	4.7417	1.0525
15.351	15.5083	15.1691	11.9171	13.8893	14.753	10.9135	9.9099	14.1586	9.2141	7.2034	10.3436	6.9062	-1.3742	9.5393	9.4379	2.731	-0.6154	6.1928	4.7836	1.0351
15.3405	15.5048	15.1726	11.9696	13.8578	14.7355	10.9555	9.889	14.1621	9.277	7.2244	10.3995	6.9656	-1.3498	9.4693	9.3994	2.682	-0.5735	6.2208	4.8431	1.0875
15.3335	15.4978	15.1761	12.0745	13.8543	14.7425	11.0254	9.875	14.1761	9.3609	7.2314	10.452	7.0601	-1.3288	9.4624	9.3854	2.6471	-0.5105	6.2103	4.906	1.0945
15.379	15.4978	15.1866	12.1759	13.8474	14.774	11.1128	9.903	14.197	9.4659	7.2699	10.5219	7.1335	-1.3008	9.4064	9.4029	2.6051	-0.4546	6.2418	4.948	1.0945
15.3964	15.4664	15.2251	12.2283	13.8054	14.7775	11.2038	9.8645	14.204	9.5288	7.2489	10.5778	7.1929	-1.2938	9.3784	9.3994	2.5806	-0.3986	6.2278	4.9655	1.098
15.4419	15.4769	15.2706	12.3612	13.8054	14.781	11.3122	9.903	14.2565	9.6372	7.2873	10.6548	7.3048	-1.2868	9.3609	9.4169	2.5387	-0.3602	6.2348	5.0354	1.0945
15.4664	15.5013	15.3125	12.4521	13.8019	14.8265	11.4415	9.9065	14.274	9.7211	7.3013	10.7352	7.3888	-1.2658	9.3295	9.4554	2.5002	-0.2797	6.2453	5.0774	1.1295
15.5188	15.4839	15.3405	12.578	13.7879	14.8719	11.5639	9.9169	14.3159	9.8365	7.3398	10.8226	7.5146	-1.2379	9.3225	9.4763	2.4548	-0.2168	6.2593	5.1123	1.1365
15.5608	15.4978	15.4209	12.7039	13.7914	14.8999	11.7423	9.9309	14.3824	9.9799	7.3922	10.917	7.6265	-1.2204	9.27	9.4938	2.4268	-0.1469	6.2768	5.1683	1.147
15.5678	15.5118	15.4594	12.8228	13.7844	14.9244	11.8577	9.9379	14.4173	10.0743	7.4167	10.9975	7.7314	-1.2029	9.2141	9.5043	2.3988	-0.0629	6.2873	5.1893	1.2029
15.5888	15.4734	15.5118	12.9522	13.7949	14.9558	12.001	9.9484	14.4768	10.1862	7.4657	11.0709	7.8328	-1.1994	9.1581	9.5148	2.3638	0.0105	6.2908	5.2242	1.2099
15.6097	15.4874	15.5573	13.0746	13.8124	14.9873	12.1759	9.9729	14.5082	10.3156	7.4867	11.1478	7.9587	-1.1784	9.1057	9.5078	2.3394	0.0874	6.2977	5.2732	1.2274
15.5958	15.4594	15.5468	13.1969	13.7669	14.9838	12.3262	9.9659	14.5467	10.445	7.5216	11.2143	8.0671	-1.1749	9.0427	9.4938	2.3289	0.1748	6.2908	5.2837	1.2414
15.5958	15.4384	15.5958	13.2949	13.7984	15.0363	12.4661	9.9834	14.5922	10.5464	7.5566	11.2772	8.1685	-1.1749	8.9693	9.4938	2.3184	0.2588	6.3292	5.3256	1.2798
15.5503	15.4279	15.6307	13.3788	13.7984	15.0503	12.5885	9.9799	14.6411	10.6478	7.6125	11.3401	8.2699	-1.1714	8.9134	9.4484	2.3079	0.3497	6.3397	5.3536	1.3218
15.5503	15.3824	15.6307	13.4417	13.7844	15.0747	12.7144	10.0044	14.6586	10.7457	7.644	11.4066	8.3749	-1.1435	8.8224	9.3889	2.2799	0.4441	6.3747	5.4096	1.3673
15.4874	15.3265	15.6097	13.4592	13.7704	15.0642	12.7843	10.0149	14.6761	10.8156	7.686	11.4415	8.4203	-1.1679	8.7175	9.354	2.3044	0.4756	6.3607	5.434	1.4057
15.4454	15.288	15.5993	13.4837	13.7564	15.0572	12.8578	10.0428	14.6936	10.917	7.7349	11.4975	8.5217	-1.1539	8.6441	9.2665	2.3079	0.584	6.3782	5.49	1.4931
15.4244	15.2636	15.6132	13.4697	13.7564	15.0887	12.9417	10.0603	14.76	11.001	7.8119	11.5744	8.6616	-1.1609	8.5392	9.2036	2.2974	0.6749	6.4236	5.5669	1.5666
15.3894	15.2426	15.5993	13.4382	13.7564	15.0887	12.9801	10.0848	14.795	11.0954	7.8853	11.6793	8.777	-1.1435	8.4728	9.1232	2.2869	0.7413	6.4306	5.6648	1.6365
15.3685	15.2111	15.6132	13.4172	13.7669	15.1167	13.0291	10.1652	14.8824	11.1933	7.9972	11.7842	8.8994	-1.1504	8.3783	9.0672	2.2904	0.8602	6.4726	5.7802	1.7204
15.3125	15.1901	15.5748	13.3333	13.7704	15.1097	13.0291	10.1687	14.9244	11.2667	8.0706	11.8542	9.0078	-1.147	8.3084	8.9728	2.3009	0.9371	6.4621	5.8711	1.7799
15.281	15.1587	15.5363	13.2564	13.7669	15.1307	13.0326	10.1967	15.0013	11.3541	8.1511	11.9486	9.1337	-1.1539	8.221	8.8994	2.2939	1.0281	6.4656	6.0005	1.8638
15.2391	15.1307	15.5468	13.169	13.7844	15.1482	13.0291	10.2596	15.0677	11.4555	8.221	12.0395	9.27	-1.1574	8.1371	8.8539	2.2939	1.14	6.5041	6.1264	1.9547
15.2006	15.1377	15.5258	13.106	13.8124	15.1726	13.0361	10.3156	15.1622	11.543	8.3224	12.1654	9.4134	-1.14	8.0392	8.763	2.2589	1.2484	6.5355	6.3047	2.0456
15.1901	15.1447	15.5363	13.0571	13.8194	15.2251	13.0221	10.3575	15.2286	11.6409	8.3993	12.2843	9.5463	-1.14	7.9797	8.6791	2.2624	1.3463	6.546	6.4411	2.1086
15.1726	15.1726	15.5258	13.0326	13.8543	15.2845	13.0221	10.3995	15.323	11.7353	8.4728	12.3752	9.6827	-1.1295	7.8888	8.6091	2.2554	1.4512	6.5775	6.5915	2.1925
15.1027	15.1866	15.5188	12.9452	13.8404	15.281	12.9941	10.438	15.3615	11.7912	8.5182	12.4416	9.7736	-1.133	7.7734	8.4798	2.2624	1.5316	6.56	6.6894	2.2624
15.0747	15.2041	15.5188	12.9277	13.8508	15.3335	12.9766	10.4485	15.4384	11.8542	8.5777	12.5011	9.847	-1.1365	7.6685	8.3888	2.2589	1.647	6.6125	6.8432	2.3289
15.0223	15.2286	15.5013	12.8892	13.8543	15.3545	12.9627	10.4904	15.4874	11.9171	8.6161	12.5815	9.9694	-1.1365	7.5776	8.3049	2.2415	1.7554	6.6544	6.9866	2.4023
15.0293	15.281	15.5188	12.9032	13.8928	15.4104	12.9452	10.5464	15.5538	11.994	8.6896	12.6584	10.0708	-1.1085	7.5531	8.2699	2.196	1.8708	6.6964	7.144	2.5002
14.9838	15.2985	15.5118	12.8613	13.8823	15.4349	12.9032	10.5569	15.5748	12.043	8.707	12.6829	10.1198	-1.1085	7.4587	8.1755	2.1855	1.9582	6.7348	7.2699	2.5527
14.9453	15.3125	15.5013	12.8053	13.8858	15.4384	12.8543	10.5743	15.5993	12.071	8.735	12.7494	10.1687	-1.084	7.3328	8.0811	2.147	2.0456	6.7768	7.3888	2.6261
14.9104	15.3125	15.4769	12.7668	13.8683	15.4594	12.8228	10.5988	15.6447	12.1024	8.7525	12.7459	10.2072	-1.07	7.2664	8.0147	2.1191	2.1575	6.8223	7.5321	2.703
14.8824	15.316	15.4978	12.7529	13.8893	15.5048	12.8018	10.6163	15.6902	12.1199	8.805	12.7878	10.2736	-1.0386	7.2104	7.9762	2.0596	2.231	6.9167	7.644	2.7625
14.8719	15.3335	15.5223	12.7249	13.8893	15.5468	12.7948	10.6688	15.7391	12.1864	8.8469	12.8368	10.3191	-1.0176	7.151	7.9447	2.0107	2.3429	6.9656	7.7419	2.8359
14.8859	15.351	15.5468	12.7284	13.8998	15.6132	12.7773	10.7072	15.7986	12.2283	8.8679	12.8822	10.354	-0.9896	7.102	7.9308	1.9582	2.4303	7.0286	7.8468	2.8849
14.8999	15.3824	15.5923	12.7913	13.9348	15.6762	12.8158	10.7387	15.886	12.3053	8.9448	12.9522	10.431	-0.9616	7.0705	7.9203	1.9128	2.5177	7.102	7.9412	2.9443
14.9139	15.3929	15.6692	12.8508	13.9592	15.7321	12.8752	10.8156	15.9489	12.3927	8.9693	12.9906	10.5009	-0.9511	7.0286	7.9343	1.8848	2.6156	7.165	8.0182	2.9898
14.9908	15.4034	15.7496	12.9976	14.0187	15.8475	12.9836	10.8716	16.0468	12.4766	9.0462	13.0676	10.5813	-0.9406	7.0251	7.9343	1.8323	2.7135	7.2419	8.1056	3.0527
15.0468	15.4524	15.837	13.1515	14.0711	15.9489	13.0816	10.959	16.1413	12.5885	9.0917	13.1515	10.6653	-0.9127	7.0076	7.9657	1.7974	2.7939	7.2873	8.179	3.1017
15.1272	15.4908	15.9769	13.3403	14.1761	16.0958	13.2249	11.0464	16.2846	12.7004	9.1581	13.2389	10.7562	-0.8917	7.0461	8.0287	1.7659	2.8814	7.3643	8.256	3.1331
15.1866	15.5398	16.0923	13.5082	14.2495	16.1902	13.3788	11.1094	16.4035	12.8438	9.2106	13.3263	10.8296	-0.8672	7.0111	7.9972	1.7309	2.9513	7.3992	8.2979	3.1436
15.2531	15.5923	16.2147	13.6935	14.3159	16.3371	13.5256	11.2108	16.5119	12.9697	9.263	13.4033	10.9275	-0.8672	6.9936	8.0287	1.7064	3.0142	7.4692	8.3399	3.1961
15.3265	15.6517	16.3441	13.8753	14.3824	16.463	13.683	11.2877	16.6553	13.099	9.291	13.4627	10.9765	-0.8602	7.0111	8.0636	1.6994	3.0562	7.4867	8.3818	3.1891
15.379	15.7216	16.4735	14.0257	14.4768	16.5784	13.8194	11.3471	16.7742	13.1865	9.319	13.5221	11.0289	-0.8637	7.0146	8.0671	1.7064	3.1192	7.5426	8.4238	3.2136
15.4559	15.8021	16.6238	14.1621	14.5747	16.7112	13.9558	11.445	16.8966	13.2844	9.3714	13.5781	11.0639	-0.8672	7.0251	8.0951	1.7029	3.1471	7.5846	8.4168	3.2415
15.5118	15.879	16.7252	14.2775	14.6481	16.8161	14.0746	11.4905	17.012	13.3858	9.3784	13.6271	11.0954	-0.8812	7.0286	8.1301	1.7239	3.1611	7.6265	8.4518	3.2276
15.5398	15.9454	16.8581	14.3544	14.7355	16.914	14.19	11.5639	17.1064	13.4487	9.3889	13.634	11.1024	-0.8672	7.0286	8.1056	1.7309	3.1891	7.623	8.4588	3.245
15.6027	16.0259	16.984	14.4383	14.8335	17.0085	14.3054	11.6269	17.1868	13.5256	9.4204	13.676	11.1373	-0.8742	7.0356	8.1091	1.7309	3.2031	7.6825	8.4763	3.2625
15.6307	16.0993	17.0679	14.4873	14.9314	17.1309	14.3649	11.6968	17.2742	13.5676	9.4344	13.6655	11.1443	-0.8777	7.0146	8.0881	1.7379	3.231	7.6965	8.4658	3.2485
15.6762	16.1902	17.2218	14.5502	15.0712	17.2497	14.4943	11.7842	17.3581	13.6375	9.4763	13.711	11.1653	-0.8637	7.0321	8.0916	1.7274	3.2241	7.7349	8.4658	3.259
15.7391	16.3126	17.3022	14.5817	15.1831	17.3756	14.6027	11.8891	17.4561	13.704	9.5253	13.7355	11.1863	-0.8567	7.0216	8.0636	1.7064	3.266	7.7629	8.4413	3.266
15.8126	16.4525	17.4526	14.6691	15.3405	17.512	14.7181	12.0115	17.5959	13.8299	9.6092	13.8404	11.2457	-0.8427	7.0321	8.0846	1.668	3.3185	7.8293	8.4693	3.301
15.9	16.6063	17.5994	14.7285	15.4978	17.6449	14.8544	12.1374	17.7358	13.9383	9.6687	13.8858	11.3227	-0.8287	7.081	8.1126	1.64	3.3499	7.8818	8.4902	3.336
15.9839	16.7567	17.7743	14.7915	15.6832	17.8092	15.0083	12.3088	17.8792	14.0502	9.7736	13.9767	11.4031	-0.8078	7.1125	8.1196	1.5841	3.4094	7.9377	8.5252	3.3744
16.1028	16.9071	17.9036	14.8439	15.8265	17.9456	15.1517	12.4207	18.0086	14.1795	9.854	14.0781	11.452	-0.7763	7.1335	8.1161	1.5281	3.4968	8.0112	8.5567	3.4304
16.1413	17.019	18.0505	14.9034	15.9734	18.082	15.2671	12.5395	18.1379	14.2775	9.9379	14.1795	11.529	-0.7623	7.1405	8.0916	1.5141	3.5423	8.0601	8.5812	3.4618
16.2392	17.1763	18.1799	14.9523	16.1028	18.1939	15.3685	12.6619	18.2638	14.3719	10.0183	14.2285	11.5884	-0.7343	7.1405	8.1056	1.4687	3.6122	8.1231	8.6161	3.5038
16.2951	17.2672	18.2848	15.0223	16.2392	18.3582	15.4664	12.7808	18.3792	14.4803	10.1058	14.3124	11.6549	-0.7168	7.151	8.0566	1.4407	3.6926	8.1615	8.6441	3.5423
16.3965	17.4106	18.4422	15.0957	16.3825	18.5086	15.5888	12.9312	18.5191	14.6132	10.2037	14.4138	11.7528	-0.7099	7.165	8.0322	1.3952	3.787	8.2385	8.6966	3.6052
16.4769	17.498	18.568	15.2006	16.4944	18.6275	15.6937	13.0396	18.6135	14.6866	10.2946	14.5013	11.8227	-0.6994	7.144	8.0042	1.3812	3.85	8.2769	8.756	3.6402
16.5609	17.6204	18.6904	15.288	16.6273	18.7604	15.7951	13.1725	18.7254	14.8265	10.3785	14.5992	11.9416	-0.6854	7.116	7.9867	1.3638	3.9584	8.3154	8.8259	3.7031
16.6378	17.7638	18.8303	15.3929	16.7392	18.8862	15.8755	13.2844	18.8128	14.8964	10.4799	14.6831	12.022	-0.6889	7.1125	7.9063	1.3707	4.0458	8.3888	8.8609	3.7591
16.7357	17.8722	18.9632	15.5188	16.8511	19.0331	15.9734	13.3928	18.9492	15.0083	10.5988	14.7775	12.1199	-0.6784	7.067	7.9098	1.3568	4.1087	8.4308	8.9134	3.8325
16.8336	17.9806	19.0856	15.6027	16.956	19.1345	16.0433	13.5152	19.0401	15.1132	10.6897	14.8439	12.2143	-0.6924	7.081	7.8783	1.3707	4.1962	8.4728	8.9623	3.9059
16.9245	18.0785	19.2289	15.7216	17.0225	19.2674	16.1028	13.5921	19.1275	15.1761	10.7876	14.9104	12.2668	-0.7029	7.0356	7.8608	1.3987	4.2801	8.4972	9.0008	3.9654
17.005	18.1939	19.3338	15.7881	17.1169	19.3548	16.1413	13.6865	19.1975	15.2426	10.8646	14.9628	12.3437	-0.7099	7.0006	7.8503	1.4127	4.3255	8.5567	9.0392	4.0388
17.0889	18.2533	19.4317	15.8895	17.1763	19.4527	16.1517	13.7704	19.2464	15.302	10.9415	15.0048	12.4102	-0.7168	6.9691	7.8363	1.4337	4.4095	8.5847	9.0602	4.1018
17.1448	18.3093	19.4912	15.9245	17.2008	19.5192	16.1692	13.8019	19.2744	15.3335	11.001	15.0223	12.4381	-0.7378	6.9097	7.8119	1.4512	4.4409	8.5812	9.0707	4.1332
17.2148	18.3722	19.5681	15.9524	17.2497	19.5996	16.1797	13.8683	19.3129	15.3685	11.0674	15.0572	12.4801	-0.7378	6.8852	7.7979	1.4547	4.5074	8.6371	9.1092	4.2137
17.2602	18.3687	19.6171	15.9629	17.2637	19.6206	16.1482	13.8998	19.3303	15.3859	11.1163	15.0363	12.5221	-0.7413	6.8153	7.7419	1.4722	4.5668	8.6336	9.1302	4.2766
17.2742	18.3547	19.6381	15.9629	17.2777	19.659	16.1273	13.9208	19.3233	15.3859	11.1618	14.9873	12.5256	-0.7483	6.7383	7.7105	1.5036	4.5983	8.6581	9.1337	4.3221
17.3162	18.3687	19.673	15.9035	17.2462	19.6835	16.0993	13.9208	19.2849	15.3615	11.1793	14.9523	12.5291	-0.7658	6.6999	7.6615	1.5001	4.6123	8.6686	9.1302	4.3885
17.3512	18.3617	19.708	15.907	17.2323	19.7045	16.1028	13.9383	19.3094	15.3859	11.2282	14.9488	12.564	-0.7623	6.6404	7.6405	1.5211	4.6647	8.721	9.1372	4.4305
17.3826	18.3233	19.715	15.8755	17.2043	19.7395	16.0818	13.9558	19.2779	15.3894	11.2527	14.9453	12.578	-0.7623	6.5565	7.5776	1.5351	4.7102	8.7245	9.1232	4.4899
17.3931	18.3233	19.743	15.844	17.2043	19.7535	16.0468	13.9418	19.2814	15.3824	11.2912	14.9139	12.6095	-0.7763	6.4901	7.5111	1.5631	4.7382	8.7595	9.1092	4.5424
17.4071	18.3023	19.7605	15.8405	17.1938	19.7535	16.0224	13.9173	19.2569	15.3824	11.3262	14.8894	12.62	-0.7903	6.4236	7.4587	1.5875	4.7487	8.7875	9.0917	4.6018
17.4316	18.2708	19.7849	15.83	17.1483	19.7535	16.0154	13.9313	19.2394	15.358	11.3436	14.8929	12.6479	-0.7973	6.3747	7.4447	1.598	4.7801	8.7875	9.0392	4.6263
17.4176	18.2813	19.8059	15.8335	17.1483	19.757	16.0154	13.9348	19.2289	15.3615	11.3856	14.8754	12.6724	-0.7973	6.3432	7.3992	1.6085	4.7906	8.8224	9.0218	4.6682
17.4491	18.2848	19.8514	15.837	17.1658	19.7639	16.0084	13.9208	19.2289	15.3335	11.4276	14.8754	12.7074	-0.8217	6.2768	7.3678	1.6505	4.7976	8.8259	8.9833	4.7172
17.4875	18.3093	19.8723	15.879	17.1728	19.7779	16.0329	13.9627	19.2359	15.379	11.487	14.9384	12.7773	-0.8462	6.2068	7.3363	1.668	4.8396	8.8749	8.9588	4.7871
17.463	18.3198	19.8898	15.879	17.1588	19.7884	16.0119	13.9558	19.2254	15.3615	11.5395	14.9314	12.8158	-0.8462	6.1649	7.2838	1.7169	4.8186	8.8854	8.9064	4.8256
17.5015	18.3757	19.9458	15.9175	17.1938	19.8164	16.0538	14.0082	19.2674	15.4069	11.6374	15.0083	12.8927	-0.8532	6.1089	7.2384	1.7169	4.8571	8.9588	8.8994	4.8885
17.54	18.4457	19.9982	15.9839	17.2393	19.8619	16.1133	14.0642	19.3129	15.4629	11.7563	15.1097	13.0046	-0.8602	6.1194	7.2279	1.7029	4.878	9.0043	8.9099	4.969
17.568	18.4946	20.0472	16.0398	17.3127	19.9108	16.1517	14.1131	19.3793	15.5188	11.8472	15.2356	13.1235	-0.8392	6.0565	7.1545	1.696	4.934	9.0637	8.9273	5.0774
17.6344	18.5401	20.1276	16.1203	17.3756	19.9773	16.2427	14.204	19.4632	15.6097	11.9696	15.3545	13.2599	-0.8392	6.039	7.1719	1.6855	4.962	9.1092	8.9658	5.1578
17.6764	18.589	20.2045	16.2077	17.4001	20.0367	16.3371	14.2565	19.5367	15.6972	12.078	15.4839	13.4033	-0.8148	6.0355	7.1405	1.6365	5.0494	9.1441	9.0322	5.2207
17.7183	18.659	20.2885	16.3021	17.463	20.1136	16.4245	14.3369	19.6171	15.8126	12.2039	15.6412	13.5536	-0.8043	5.9795	7.1125	1.5875	5.1158	9.2211	9.0742	5.2592
17.7708	18.7044	20.3724	16.3685	17.5015	20.1801	16.4874	14.4068	19.701	15.9105	12.3123	15.8056	13.7075	-0.7763	5.9446	7.109	1.5351	5.1718	9.2595	9.1476	5.3186
17.8162	18.7429	20.4423	16.442	17.5749	20.2535	16.5958	14.5187	19.8234	16.0503	12.4416	15.9839	13.8928	-0.7308	5.9061	7.0915	1.4547	5.2207	9.27	9.2316	5.3361
17.8827	18.8093	20.5542	16.5539	17.6274	20.3269	16.6903	14.5782	19.9493	16.1657	12.5326	16.1762	14.0746	-0.6469	5.8711	7.081	1.3288	5.3291	9.2945	9.347	5.3466
17.9491	18.8443	20.6242	16.6413	17.6833	20.4074	16.7847	14.6761	20.0717	16.3126	12.6445	16.3581	14.2845	-0.5945	5.8257	7.102	1.2099	5.42	9.3505	9.4414	5.3676
17.9911	18.8653	20.6731	16.7042	17.7078	20.4878	16.8651	14.7355	20.1906	16.442	12.7633	16.5119	14.4838	-0.535	5.8117	7.074	1.0665	5.5354	9.3714	9.5288	5.3676
17.9806	18.8967	20.7046	16.7462	17.7428	20.5297	16.935	14.7915	20.2955	16.5574	12.8508	16.6728	14.6516	-0.4826	5.7453	7.0531	0.9581	5.6369	9.3819	9.6547	5.3641
17.9911	18.9142	20.7396	16.7812	17.7917	20.5857	16.998	14.8614	20.3969	16.6833	12.9207	16.8231	14.83	-0.4196	5.7173	7.074	0.8357	5.7383	9.3924	9.7561	5.3256
18.0051	18.9247	20.771	16.8371	17.7987	20.6172	17.0959	14.9174	20.4913	16.7882	13.0116	16.991	14.9663	-0.3567	5.6194	7.0321	0.7203	5.8397	9.4099	9.8505	5.3291
18.0295	18.9562	20.8095	16.8826	17.8547	20.6696	17.1239	15.0118	20.5682	16.8826	13.1305	17.1588	15.1412	-0.3112	5.5739	6.9971	0.6154	5.9376	9.4449	9.9624	5.3431
18.054	19.0086	20.8584	16.9315	17.9246	20.7221	17.2078	15.0817	20.6766	16.998	13.2214	17.2847	15.2636	-0.2448	5.5459	6.9901	0.4826	6.053	9.4798	10.0428	5.3641
18.054	19.0366	20.9179	17.019	17.9841	20.7605	17.2987	15.1691	20.778	17.1134	13.3158	17.4211	15.4244	-0.1888	5.5005	6.9551	0.3812	6.1404	9.5358	10.1163	5.3676
18.0855	19.1135	20.9424	17.0749	18.0435	20.799	17.3616	15.2286	20.841	17.2323	13.4277	17.526	15.5363	-0.1609	5.42	6.9097	0.3147	6.2173	9.5778	10.1617	5.427
18.1239	19.1765	20.9703	17.1938	18.1379	20.8305	17.4456	15.323	20.9214	17.3022	13.5361	17.6729	15.6692	-0.1329	5.3991	6.8852	0.2553	6.2943	9.6372	10.2456	5.441
18.1414	19.2254	21.0298	17.2637	18.2254	20.8829	17.5225	15.4174	21.0018	17.4001	13.648	17.7708	15.7811	-0.1049	5.3501	6.8467	0.2168	6.3677	9.6966	10.2771	5.4935
18.2009	19.3164	21.0683	17.3477	18.3023	20.9424	17.6099	15.5328	21.0927	17.484	13.7634	17.8862	15.8895	-0.1014	5.3466	6.8188	0.1818	6.3992	9.7841	10.3331	5.5529
18.2323	19.3548	21.1137	17.4316	18.3512	20.9634	17.6519	15.6167	21.1277	17.498	13.8613	17.9736	15.9349	-0.1014	5.3082	6.7908	0.1993	6.4166	9.8575	10.3331	5.5984
18.2883	19.4038	21.1697	17.5015	18.4212	20.9948	17.6938	15.7216	21.1732	17.5575	14.0082	18.054	16.0014	-0.0944	5.2907	6.8083	0.2028	6.4516	9.9659	10.3575	5.7138
18.3442	19.4737	21.2116	17.6099	18.4736	21.0368	17.7533	15.823	21.2396	17.6204	14.1271	18.1449	16.0503	-0.1224	5.3012	6.8083	0.2378	6.4481	10.0848	10.389	5.8362
18.3757	19.5087	21.2151	17.6694	18.5191	21.0403	17.8022	15.9035	21.2676	17.6239	14.2495	18.1939	16.0643	-0.1434	5.2942	6.8363	0.3007	6.4166	10.1827	10.3715	5.9341
18.3932	19.5227	21.2326	17.7603	18.561	21.0368	17.8232	15.9839	21.2641	17.6694	14.3614	18.2533	16.0853	-0.1993	5.3466	6.8398	0.3951	6.3957	10.3086	10.382	6.067
18.4282	19.5541	21.2396	17.8022	18.61	21.0368	17.8547	16.0678	21.299	17.6833	14.5013	18.3058	16.0958	-0.2448	5.3746	6.8467	0.4896	6.3537	10.424	10.3855	6.2033
18.3862	19.5297	21.2116	17.8232	18.603	20.9948	17.8127	16.1133	21.2361	17.6099	14.5817	18.2883	16.0224	-0.3042	5.3816	6.8677	0.6084	6.2768	10.5149	10.354	6.3292
18.3722	19.4982	21.1242	17.8022	18.6065	20.9179	17.7743	16.1727	21.2151	17.568	14.6901	18.2673	15.9839	-0.3742	5.3921	6.9167	0.7448	6.2173	10.6233	10.3366	6.4411
18.3093	19.4772	21.0403	17.7498	18.5855	20.827	17.7393	16.1937	21.1102	17.484	14.7495	18.2184	15.907	-0.4336	5.4026	6.9062	0.8847	6.1264	10.7142	10.2736	6.539
18.1869	19.3933	20.9179	17.6134	18.5296	20.7046	17.6414	16.1832	20.9808	17.3302	14.802	18.1274	15.7881	-0.5175	5.4166	6.9342	1.0176	6.018	10.7667	10.2212	6.6404
18.0575	19.2849	20.7535	17.4526	18.4352	20.5437	17.491	16.1378	20.8375	17.1693	14.802	18.0016	15.6412	-0.591	5.4026	6.9377	1.1714	5.9061	10.8086	10.1302	6.7418
17.8967	19.1835	20.5472	17.2462	18.3233	20.3514	17.3197	16.0888	20.6416	16.977	14.7775	17.8337	15.4524	-0.6749	5.3641	6.9167	1.3358	5.7662	10.8191	10.0149	6.8153
17.7463	19.0401	20.3479	16.9875	18.2114	20.1346	17.1099	16.0014	20.4633	16.7847	14.7495	17.6449	15.2775	-0.7553	5.3501	6.9202	1.5036	5.6229	10.8331	9.889	6.8677
17.5295	18.8338	20.1101	16.7462	18.033	19.8933	16.8931	15.865	20.2115	16.5749	14.6621	17.4211	15.0293	-0.8392	5.2977	6.8817	1.668	5.441	10.8051	9.7176	6.9027
17.3267	18.6555	19.8758	16.4735	17.8932	19.6486	16.6623	15.7776	19.9598	16.3161	14.5852	17.2008	14.8055	-0.9162	5.2452	6.8677	1.8218	5.3012	10.7667	9.5812	6.9307
17.1343	18.4876	19.6451	16.2077	17.7218	19.4178	16.4385	15.6482	19.743	16.0923	14.5222	16.9875	14.5712	-0.9791	5.1963	6.8328	1.9512	5.1438	10.7177	9.4449	6.9656
16.9001	18.2673	19.3618	15.9175	17.526	19.138	16.1937	15.4978	19.4352	15.8161	14.4068	16.7357	14.2914	-1.056	5.1228	6.7908	2.0771	4.9795	10.6618	9.3085	6.9482
16.6203	18.0505	19.1031	15.5993	17.3267	18.8758	15.921	15.316	19.1765	15.5433	14.267	16.4595	14.0292	-1.105	5.0249	6.7104	2.175	4.8151	10.5883	9.1162	6.9412
16.414	17.7987	18.7988	15.2985	17.0784	18.5995	15.6377	15.1482	18.8793	15.2706	14.1061	16.1622	13.7424	-1.126	4.9585	6.6579	2.2554	4.6787	10.4764	8.9658	6.9237
16.1343	17.5365	18.4946	14.9558	16.8441	18.3093	15.316	14.9244	18.5715	14.9698	13.9208	15.851	13.4382	-1.1644	4.8291	6.56	2.3219	4.5074	10.354	8.798	6.8817
15.8615	17.2567	18.1694	14.5992	16.5539	17.9806	14.9873	14.7076	18.2288	14.6376	13.7145	15.5083	13.148	-1.2029	4.7102	6.4621	2.3743	4.364	10.2212	8.6441	6.8048
15.5293	16.928	17.8337	14.2565	16.2776	17.6449	14.6691	14.4418	17.8512	14.3054	13.4802	15.1517	12.8018	-1.2204	4.5528	6.3537	2.4198	4.2102	10.0708	8.4448	6.7279
15.2041	16.5679	17.4421	13.8753	15.9419	17.2847	14.2775	14.1201	17.4596	13.9383	13.2074	14.7495	12.4521	-1.2449	4.4165	6.1858	2.4548	4.0738	9.896	8.2664	6.6719
14.8265	16.2147	17.0364	13.4312	15.5783	16.8931	13.8718	13.7879	17.0294	13.5466	12.9102	14.3439	12.0535	-1.2623	4.2032	6.004	2.4862	3.9304	9.7071	8.0566	6.56
14.4628	15.844	16.6308	13.0221	15.2041	16.47	13.4557	13.4382	16.5854	13.134	12.5885	13.8963	11.6653	-1.2658	4.0318	5.8641	2.5142	3.794	9.5113	7.8713	6.4551
14.0642	15.4524	16.1762	12.613	14.823	16.0433	13.0431	13.0676	16.1098	12.6969	12.2528	13.4172	11.2597	-1.2693	3.815	5.6543	2.5002	3.6367	9.305	7.665	6.3502
13.6585	15.0433	15.6972	12.1689	14.3929	15.5608	12.578	12.6654	15.5853	12.2528	11.8856	12.9137	10.8086	-1.2589	3.5877	5.4865	2.5037	3.4688	9.0952	7.4657	6.2208
13.2144	14.6201	15.2111	11.7388	13.9558	15.0852	12.1024	12.2143	15.0817	11.7702	11.494	12.3962	10.368	-1.2589	3.3884	5.2382	2.4932	3.336	8.8714	7.2489	6.0984
12.7773	14.2075	14.732	11.3017	13.5396	14.6097	11.6304	11.8122	14.5607	11.3087	11.1268	11.8856	9.9449	-1.2693	3.1506	4.9864	2.4967	3.1681	8.6511	7.0391	5.9795
12.3402	13.7879	14.26	10.8751	13.0955	14.1341	11.2038	11.3926	14.0082	10.8471	10.7457	11.3716	9.5183	-1.2519	2.9058	4.7871	2.4757	3.0562	8.4308	6.8328	5.8851
11.9486	13.3893	13.7774	10.4764	12.6794	13.6305	10.7737	11.001	13.5047	10.4135	10.382	10.8856	9.1162	-1.2484	2.731	4.5808	2.4513	2.9443	8.235	6.623	5.7837
11.536	13.0151	13.3018	10.1058	12.2528	13.162	10.382	10.5883	13.0046	10.0183	10.0253	10.4345	8.7245	-1.2204	2.5282	4.3675	2.4233	2.8464	8.0252	6.4341	5.6928
11.1443	12.6025	12.8647	9.7071	11.8542	12.7249	9.9799	10.2247	12.5326	9.6232	9.6966	9.9974	8.3539	-1.2064	2.3708	4.1647	2.3918	2.7415	7.8119	6.2418	5.6089
10.7562	12.2178	12.4381	9.3679	11.459	12.3227	9.6092	9.8645	12.0605	9.2421	9.4029	9.5743	8.0007	-1.1819	2.196	3.9899	2.3464	2.6506	7.616	6.046	5.5459
10.424	11.8612	12.0045	9.0148	11.0884	11.8996	9.2805	9.5183	11.6514	8.8994	9.0917	9.1861	7.6895	-1.1644	2.0421	3.836	2.3114	2.5771	7.4167	5.8676	5.476
10.0953	11.5569	11.6164	8.7035	10.7632	11.522	8.9833	9.2211	11.2772	8.5951	8.8154	8.8749	7.4202	-1.1365	1.9267	3.6821	2.2694	2.5177	7.2629	5.6823	5.427
9.8015	11.2317	11.2702	8.3923	10.4205	11.1933	8.714	8.9308	10.924	8.3049	8.5707	8.5462	7.1719	-1.119	1.8078	3.5493	2.2275	2.4443	7.1055	5.504	5.3886
9.5288	10.966	10.959	8.1266	10.1407	10.9065	8.4693	8.6791	10.6058	8.0462	8.3469	8.263	6.9342	-1.091	1.7029	3.4234	2.1715	2.3988	6.9482	5.3501	5.3641
9.2456	10.6792	10.6058	7.8468	9.8505	10.5604	8.2175	8.4063	10.2666	7.8014	8.1161	7.9587	6.7104	-1.0805	1.6085	3.2975	2.1331	2.3044	6.8118	5.1823	5.3116
8.9693	10.3925	10.2771	7.5356	9.5393	10.2561	7.9482	8.1196	9.9519	7.5216	7.8608	7.644	6.4551	-1.0735	1.4722	3.1611	2.1226	2.2449	6.6299	5.0249	5.2487
8.6966	10.1372	9.9589	7.2629	9.263	9.9694	7.7209	7.8713	9.6407	7.2734	7.6056	7.3678	6.2173	-1.056	1.3463	3.0212	2.0806	2.168	6.4936	4.8501	5.1718
8.4378	9.8855	9.6512	6.9901	9.0148	9.6862	7.4622	7.5846	9.312	7.0181	7.3328	7.067	5.969	-1.0386	1.2344	2.8849	2.0561	2.1016	6.3292	4.7067	5.0948
8.1755	9.6512	9.3819	6.6894	8.714	9.3819	7.2034	7.3223	9.0322	6.7453	7.074	6.7803	5.7208	-1.0211	1.105	2.745	2.0142	1.9862	6.1649	4.5598	5.0214
7.9308	9.3854	9.0707	6.4236	8.4448	9.0917	6.9342	7.0391	8.728	6.4866	6.7698	6.4586	5.4515	-1.0071	0.9896	2.5946	1.9897	1.8813	6.004	4.392	4.9515
7.693	9.1651	8.8015	6.1614	8.179	8.8609	6.6859	6.7558	8.4168	6.2138	6.4866	6.1509	5.1718	-0.9966	0.8742	2.4408	1.9547	1.7589	5.8432	4.2102	4.8326
7.4657	8.9448	8.5777	5.9271	7.9273	8.6336	6.4621	6.518	8.158	5.9411	6.2138	5.8676	4.913	-0.9616	0.7973	2.3289	1.8953	1.6645	5.6648	4.0633	4.7067
7.2769	8.777	8.3364	5.7138	7.6895	8.4098	6.2348	6.2453	7.8993	5.6928	5.9236	5.5949	4.6647	-0.9511	0.7029	2.21	1.8498	1.5421	5.5494	3.9304	4.5773
7.109	8.6021	8.1546	5.504	7.4692	8.207	6.053	6.032	7.679	5.4725	5.6473	5.3361	4.413	-0.9162	0.6504	2.1365	1.7869	1.4442	5.4131	3.8255	4.4864
6.9412	8.4063	7.9552	5.3186	7.2279	8.0392	5.8327	5.8117	7.4692	5.2032	5.3921	5.0983	4.1857	-0.8917	0.563	2.0247	1.7694	1.3323	5.2557	3.6786	4.343
6.8537	8.3224	7.8259	5.2137	7.0985	7.9063	5.6998	5.6159	7.2873	5.0424	5.1508	4.9165	4.0073	-0.8777	0.535	1.9827	1.7239	1.2449	5.1123	3.5702	4.2486
6.7908	8.207	7.7279	5.1123	6.9342	7.8189	5.5494	5.448	7.1685	4.8815	4.941	4.7766	3.8395	-0.8462	0.521	1.9372	1.6645	1.1749	5.0179	3.4583	4.1472
6.7453	8.1615	7.707	5.0634	6.8467	7.7839	5.476	5.3326	7.088	4.7626	4.7801	4.6787	3.7031	-0.8217	0.549	1.9232	1.612	1.133	4.899	3.3814	4.0633
6.7383	8.1301	7.6685	5.0389	6.7348	7.7489	5.4096	5.2137	7.0076	4.6612	4.5983	4.6053	3.6017	-0.8078	0.549	1.9442	1.5771	1.0595	4.8221	3.3045	3.9724
6.7174	8.0986	7.665	5.0529	6.6684	7.7384	5.3641	5.1088	7.0146	4.5808	4.4759	4.5738	3.5318	-0.7728	0.549	1.9652	1.5386	1.0176	4.7312	3.245	3.885
6.7628	8.0776	7.693	5.1158	6.6195	7.7734	5.3711	5.0564	7.0076	4.5424	4.3605	4.5563	3.5003	-0.7448	0.57	1.9827	1.4896	1.0246	4.6542	3.2066	3.787
6.7733	8.0636	7.7314	5.1473	6.581	7.8398	5.3536	4.9829	6.9936	4.4864	4.2381	4.5458	3.4583	-0.7378	0.6049	2.0107	1.4722	0.9826	4.5808	3.1541	3.7136
6.7803	8.1161	7.7874	5.2172	6.574	7.8958	5.3886	4.969	7.0391	4.5214	4.1752	4.5424	3.4374	-0.6994	0.6329	2.0212	1.4127	0.9826	4.5179	3.1366	3.6821
6.8153	8.1371	7.8328	5.2942	6.5355	7.9308	5.3816	4.92	7.0461	4.4759	4.0843	4.5109	3.4129	-0.7029	0.6469	2.0351	1.4162	0.9826	4.4409	3.1192	3.6087
6.8328	8.158	7.8713	5.3326	6.553	8.0007	5.3921	4.8606	7.109	4.4899	4.0108	4.5214	3.4094	-0.7168	0.6749	2.0806	1.4232	0.9861	4.399	3.1296	3.5702
6.8293	8.165	7.9377	5.3956	6.5355	8.0392	5.3956	4.8221	7.0985	4.4479	3.9339	4.4794	3.4024	-0.7238	0.6469	2.0771	1.4547	0.9721	4.35	3.1261	3.5108
6.8293	8.193	7.9622	5.4375	6.5145	8.0776	5.434	4.7906	7.0775	4.4305	3.836	4.4444	3.3674	-0.7483	0.6574	2.0631	1.5071	0.9476	4.3221	3.0842	3.4688
6.8677	8.2455	8.0287	5.5145	6.532	8.172	5.469	4.7941	7.13	4.4444	3.7835	4.392	3.3744	-0.7553	0.6679	2.0981	1.5351	0.9686	4.3221	3.0772	3.4304
6.8887	8.2804	8.0776	5.6159	6.567	8.242	5.525	4.7976	7.13	4.4619	3.7171	4.35	3.3814	-0.7868	0.6854	2.1156	1.591	0.9931	4.3046	3.0422	3.4374
6.9447	8.3189	8.1546	5.7138	6.6299	8.3084	5.5914	4.8046	7.151	4.4864	3.6821	4.2976	3.3499	-0.8078	0.7064	2.1331	1.6365	0.9861	4.336	3.0387	3.4723
6.9831	8.3888	8.2245	5.8187	6.6789	8.3818	5.6753	4.8256	7.1824	4.5319	3.6681	4.2521	3.3674	-0.8392	0.7343	2.182	1.6925	1.0036	4.399	3.0177	3.5108
7.0461	8.4343	8.3329	5.9131	6.7418	8.4937	5.7732	4.913	7.2419	4.5913	3.6577	4.2346	3.3919	-0.8532	0.7763	2.2519	1.7239	1.0316	4.4514	3.0212	3.5493
7.13	8.5112	8.4448	6.0215	6.8607	8.5742	5.8502	4.9515	7.2873	4.6473	3.6821	4.1857	3.4164	-0.8847	0.8252	2.2834	1.7764	1.0316	4.5109	3.0142	3.6297
7.1859	8.5847	8.5427	6.1404	6.9586	8.6721	5.9306	5.0389	7.3608	4.6962	3.7066	4.1647	3.4828	-0.8917	0.8847	2.3778	1.8009	1.063	4.6053	3.0142	3.7066
7.2873	8.6791	8.6721	6.2208	7.0635	8.7945	6.0565	5.1263	7.4552	4.7941	3.7731	4.1927	3.5353	-0.9197	0.9651	2.4198	1.8393	1.0735	4.7067	3.0457	3.7766
7.3853	8.749	8.8015	6.3467	7.2209	8.9308	6.1474	5.2347	7.5636	4.9025	3.8255	4.2171	3.6087	-0.9406	1.0281	2.4827	1.8953	1.0805	4.8256	3.0457	3.8675
7.4867	8.8399	8.9134	6.4236	7.3468	9.0637	6.2313	5.3886	7.651	4.9969	3.9129	4.2381	3.6891	-0.9651	1.098	2.5527	1.9372	1.105	4.9445	3.0772	3.9759
7.5846	8.9658	9.0672	6.5355	7.4902	9.2246	6.3432	5.5564	7.8084	5.1228	4.0388	4.3186	3.794	-0.9931	1.147	2.5876	1.9827	1.147	5.0913	3.1192	4.0668
7.6825	9.0672	9.2001	6.623	7.6475	9.3784	6.4131	5.6648	7.9133	5.2347	4.1472	4.378	3.885	-1.0351	1.2099	2.6401	2.0736	1.147	5.1998	3.1087	4.1507
7.7769	9.1616	9.333	6.7314	7.8259	9.5568	6.5285	5.8292	8.0706	5.3641	4.2836	4.4689	4.0003	-1.063	1.2589	2.6751	2.1226	1.1959	5.3676	3.1506	4.2731
7.8783	9.347	9.4798	6.8432	8.0252	9.7351	6.6404	6.046	8.2385	5.497	4.4514	4.5668	4.1507	-1.105	1.3428	2.689	2.1995	1.2099	5.5285	3.1961	4.3815
7.9587	9.4519	9.6547	6.8957	8.2	9.889	6.6999	6.2138	8.3749	5.6229	4.6298	4.6822	4.3011	-1.1504	1.3253	2.6751	2.2939	1.2693	5.6893	3.1821	4.4934
8.0112	9.5917	9.7736	6.9272	8.3749	10.0708	6.7908	6.4027	8.5077	5.7453	4.7731	4.7836	4.4095	-1.1959	1.3533	2.6366	2.3918	1.2798	5.8397	3.2066	4.6053
8.0986	9.7001	9.8995	6.9482	8.5462	10.2177	6.8607	6.567	8.6721	5.8571	4.948	4.8641	4.5354	-1.2519	1.3568	2.6226	2.4827	1.3428	5.99	3.2206	4.7417
8.1546	9.8295	10.0393	6.9447	8.742	10.3715	6.9272	6.7663	8.8329	5.997	5.1683	4.976	4.6892	-1.2973	1.3568	2.5946	2.5702	1.3638	6.1439	3.2415	4.885
8.207	9.9799	10.1617	6.9551	8.9413	10.5429	7.0391	6.9936	9.0113	6.1369	5.3606	5.1263	4.8466	-1.3288	1.3533	2.5667	2.6436	1.4267	6.3467	3.266	5.0389
8.2734	10.1023	10.2946	6.9447	9.1022	10.7142	7.1265	7.1929	9.1651	6.2558	5.5949	5.2662	5.0039	-1.3812	1.3673	2.4967	2.717	1.4442	6.518	3.2695	5.1893
8.3504	10.2142	10.4135	6.9377	9.298	10.8891	7.2104	7.4027	9.34	6.4096	5.8152	5.3781	5.1508	-1.4162	1.3673	2.4478	2.7974	1.5176	6.6964	3.2695	5.3571
8.4098	10.3645	10.5324	6.9272	9.4763	11.0464	7.2769	7.6125	9.5113	6.539	6.06	5.5354	5.3396	-1.4337	1.3533	2.3813	2.8429	1.5631	6.8677	3.308	5.5005
8.4833	10.4764	10.6618	6.9167	9.6722	11.2422	7.3922	7.8678	9.6931	6.7244	6.3117	5.7243	5.5319	-1.4407	1.3463	2.3394	2.8744	1.647	7.0531	3.329	5.6648
8.5532	10.6093	10.8366	6.9132	9.8505	11.4485	7.5356	8.0986	9.9379	6.9097	6.581	5.9236	5.7383	-1.4861	1.3638	2.3044	2.9233	1.7029	7.2174	3.336	5.8222
8.6336	10.7632	10.98	6.9027	10.0638	11.6339	7.6545	8.3329	10.1372	7.0915	6.8572	6.1089	5.9306	-1.4861	1.3638	2.2519	2.9478	1.7659	7.3678	3.3954	5.9656
8.721	10.903	11.1303	6.9027	10.2526	11.8402	7.7454	8.5567	10.354	7.2489	7.116	6.3432	6.1404	-1.5106	1.3568	2.2275	2.9898	1.8218	7.5321	3.3884	6.1579
8.8329	11.0954	11.3122	6.9482	10.4659	12.0955	7.9203	8.8399	10.6093	7.4902	7.4202	6.602	6.3747	-1.5001	1.3742	2.21	2.9933	1.9442	7.6895	3.4653	6.3292
8.9169	11.2492	11.4975	6.9761	10.6827	12.3192	8.0287	9.0742	10.8926	7.6615	7.6895	6.8328	6.5845	-1.5281	1.3568	2.2065	3.0282	2.0072	7.8398	3.4758	6.5215
9.0183	11.4346	11.6968	7.0531	10.896	12.564	8.2	9.3609	11.1583	7.8958	7.9867	7.116	6.8467	-1.5351	1.3917	2.182	3.0352	2.1086	8.0112	3.5283	6.6894
9.1476	11.6269	11.8717	7.1265	11.1478	12.7948	8.3609	9.6407	11.4346	8.0986	8.2734	7.3853	7.0705	-1.5421	1.4442	2.1995	3.0667	2.2065	8.1546	3.5982	6.8677
9.2176	11.8122	12.078	7.2209	11.3576	13.0396	8.5042	9.8785	11.6898	8.2979	8.5567	7.637	7.2803	-1.5736	1.4197	2.1645	3.1052	2.2904	8.2839	3.6332	7.0461
9.3155	11.9975	12.2703	7.3083	11.5919	13.2529	8.6266	10.1093	11.9171	8.4658	8.8154	7.8573	7.4867	-1.591	1.4477	2.147	3.1436	2.3673	8.4378	3.6856	7.2244
9.3959	12.1864	12.4521	7.4167	11.8052	13.4697	8.756	10.3401	12.1514	8.6546	9.0777	8.0846	7.7	-1.6015	1.4442	2.1505	3.1891	2.4722	8.5707	3.7241	7.3818
9.5008	12.3472	12.6549	7.5076	11.994	13.697	8.8784	10.5499	12.3787	8.8469	9.326	8.2909	7.8818	-1.6225	1.4791	2.161	3.231	2.5632	8.6896	3.7905	7.5356
9.5603	12.4941	12.8263	7.6335	12.1654	13.8963	9.0008	10.7527	12.5885	9.0113	9.5218	8.5077	8.0776	-1.647	1.4896	2.147	3.273	2.6436	8.8015	3.8185	7.672
9.6512	12.634	13.0116	7.7524	12.3367	14.0921	9.1092	10.9275	12.8123	9.1651	9.7211	8.6791	8.2525	-1.668	1.4582	2.161	3.3394	2.738	8.8994	3.8815	7.7909
9.7456	12.7563	13.1934	7.8713	12.5046	14.3299	9.2456	11.1094	13.0046	9.3295	9.9204	8.8889	8.3923	-1.7064	1.4861	2.182	3.3849	2.8044	8.9973	3.9234	7.8958
9.84	12.8962	13.3823	7.9902	12.6759	14.5082	9.3435	11.2702	13.183	9.4903	10.0813	9.0567	8.5427	-1.7309	1.5141	2.189	3.4374	2.8709	9.0777	3.9934	7.9972
9.9065	13.0221	13.5501	8.1336	12.8158	14.7111	9.4728	11.4346	13.3823	9.6337	10.2561	9.2665	8.6966	-1.7379	1.5106	2.2275	3.4583	2.9478	9.1581	4.0633	8.0811
10.0079	13.12	13.7145	8.2595	12.9557	14.9279	9.6022	11.5884	13.5991	9.812	10.4065	9.4693	8.8749	-1.7694	1.4826	2.2415	3.4863	3.0142	9.2595	4.1332	8.1511
10.1372	13.2634	13.9453	8.4553	13.1445	15.1622	9.7701	11.7633	13.8299	9.9799	10.5708	9.6862	9.0322	-1.7484	1.5351	2.2799	3.4723	3.0772	9.3155	4.2276	8.242
10.2317	13.4103	14.1341	8.6161	13.3018	15.3685	9.903	11.9066	14.0397	10.1477	10.7422	9.889	9.1686	-1.7344	1.5386	2.2729	3.4548	3.1611	9.3959	4.3221	8.3119
10.354	13.5606	14.3614	8.8189	13.4662	15.5818	10.0743	12.078	14.2635	10.3226	10.8786	10.0778	9.347	-1.7379	1.5666	2.2799	3.4513	3.1891	9.4624	4.4235	8.3714
10.4485	13.6725	14.5712	9.0078	13.5991	15.8021	10.2561	12.1829	14.4593	10.4694	10.994	10.2631	9.4903	-1.7204	1.5701	2.2904	3.4199	3.2345	9.5183	4.5004	8.3958
10.5534	13.8159	14.753	9.2176	13.7634	16.0259	10.438	12.3018	14.6726	10.6548	11.0639	10.4589	9.6512	-1.6994	1.5631	2.2764	3.3919	3.301	9.5603	4.6088	8.4343
10.6478	13.9278	14.9488	9.4064	13.8439	16.2427	10.5813	12.4172	14.8544	10.7911	11.1198	10.6163	9.7911	-1.682	1.5211	2.2519	3.3569	3.3394	9.6127	4.7137	8.4623
10.6688	14.0257	15.0992	9.5533	13.9697	16.4035	10.7107	12.4591	15.0083	10.8995	11.1548	10.7387	9.875	-1.6994	1.5141	2.161	3.3534	3.3569	9.6827	4.7906	8.4378
10.7352	14.1131	15.2321	9.6827	14.0292	16.5504	10.8016	12.4906	15.1167	10.9905	11.1828	10.8436	9.9624	-1.6715	1.4582	2.0981	3.322	3.3534	9.7211	4.885	8.4413
10.7527	14.19	15.337	9.7631	14.0886	16.6693	10.91	12.5256	15.2286	11.0604	11.1933	10.896	9.9974	-1.6645	1.4092	2.0247	3.3045	3.3674	9.7386	4.9375	8.4343
10.7772	14.232	15.4594	9.8295	14.1166	16.8126	10.9625	12.5186	15.3055	11.1128	11.1373	10.973	10.0288	-1.6575	1.3638	1.9442	3.301	3.3674	9.7491	4.9829	8.3853
10.7422	14.2949	15.5258	9.833	14.1551	16.9001	11.0254	12.536	15.3859	11.1653	11.1233	11.0499	10.0568	-1.668	1.2833	1.8638	3.301	3.3325	9.7596	4.9969	8.3818
10.7597	14.3509	15.6167	9.8435	14.1656	16.9945	11.0534	12.5011	15.4419	11.1688	11.0779	11.0779	10.0463	-1.6785	1.2554	1.8183	3.3185	3.2975	9.7771	5.0494	8.3714
10.7352	14.3859	15.6797	9.8365	14.1446	17.0784	11.0709	12.4731	15.4908	11.1968	11.0149	11.0814	10.0323	-1.675	1.1854	1.7519	3.3394	3.2555	9.7561	5.0634	8.3224
10.7597	14.4243	15.7286	9.8015	14.183	17.1483	11.0814	12.4381	15.5468	11.2003	10.987	11.1128	9.9974	-1.7029	1.1574	1.7064	3.3464	3.1891	9.7596	5.0739	8.3049
10.7772	14.4698	15.823	9.7911	14.1935	17.2323	11.1094	12.4242	15.5993	11.2212	10.9275	11.1408	9.9939	-1.6994	1.091	1.7134	3.3639	3.1681	9.7386	5.1123	8.263
10.8086	14.5222	15.907	9.7841	14.197	17.3232	11.1094	12.4311	15.6727	11.2212	10.8786	11.1863	9.9694	-1.696	1.112	1.675	3.3534	3.1296	9.7176	5.1333	8.1965
10.8051	14.5362	15.9594	9.7666	14.2145	17.4106	11.1163	12.3892	15.7181	11.2282	10.8226	11.2212	9.9554	-1.6994	1.077	1.633	3.3639	3.0842	9.6687	5.1193	8.1266
10.8576	14.5922	16.0468	9.7946	14.239	17.505	11.1688	12.3892	15.7916	11.2772	10.7807	11.2877	9.9449	-1.7064	1.0595	1.668	3.3674	3.0527	9.6547	5.1263	8.0601
10.8751	14.5922	16.1273	9.7946	14.2285	17.5854	11.2073	12.3752	15.8545	11.2807	10.7107	11.3297	9.9274	-1.696	1.0665	1.6715	3.3604	3.0247	9.5987	5.1193	8.0042
10.917	14.6306	16.1902	9.805	14.26	17.6729	11.2667	12.3612	15.9559	11.3262	10.6583	11.3891	9.896	-1.7064	1.063	1.6925	3.3639	2.9583	9.5498	5.0983	7.8993
10.938	14.6271	16.2427	9.8015	14.239	17.7358	11.2667	12.3437	15.9979	11.3331	10.5918	11.4136	9.8715	-1.7134	1.049	1.675	3.3779	2.9023	9.4798	5.0634	7.7909
10.9835	14.6516	16.3231	9.8225	14.2705	17.8302	11.3262	12.3297	16.0643	11.3366	10.5079	11.452	9.833	-1.7029	1.049	1.696	3.3569	2.8604	9.3994	5.0284	7.6755
10.98	14.6446	16.386	9.8505	14.239	17.8827	11.3506	12.2948	16.0958	11.3122	10.403	11.4276	9.7456	-1.696	1.0071	1.668	3.3429	2.8254	9.312	4.9725	7.5496
10.9695	14.6341	16.4105	9.882	14.2005	17.9106	11.3786	12.2073	16.0853	11.2877	10.2911	11.4066	9.6477	-1.696	0.9931	1.668	3.3429	2.7695	9.2211	4.9095	7.4167
10.9695	14.6341	16.442	9.8715	14.1865	17.9386	11.3926	12.1864	16.1028	11.2667	10.1757	11.3576	9.5603	-1.682	0.9896	1.6505	3.322	2.71	9.1267	4.8501	7.2664
10.959	14.6132	16.4315	9.8645	14.1341	17.9421	11.3541	12.0885	16.0573	11.1723	10.0288	11.2807	9.4169	-1.6785	0.9302	1.605	3.322	2.6576	9.0043	4.7696	7.123
10.952	14.6446	16.449	9.8785	14.0956	17.9526	11.3681	12.043	16.0398	11.1024	9.8855	11.1898	9.298	-1.668	0.9371	1.5806	3.301	2.6261	8.8819	4.6822	7.0111
10.9345	14.6166	16.449	9.847	14.0397	17.9421	11.3471	11.9591	15.9734	11.0079	9.7456	11.0604	9.1441	-1.668	0.8987	1.5071	3.287	2.5597	8.791	4.5703	6.8607
10.9065	14.6201	16.4525	9.819	14.0012	17.9211	11.3157	11.8752	15.9384	10.91	9.5917	10.966	9.0218	-1.661	0.8777	1.4512	3.2695	2.5142	8.7035	4.5144	6.7558
10.8716	14.5852	16.4105	9.7631	13.9313	17.8897	11.2562	11.7668	15.865	10.8191	9.4624	10.8261	8.8679	-1.647	0.8777	1.4337	3.259	2.5002	8.5917	4.4095	6.616
10.8506	14.5607	16.4	9.7351	13.8893	17.8582	11.1933	11.7038	15.7986	10.7107	9.3365	10.7142	8.7001	-1.647	0.8497	1.3673	3.238	2.4478	8.4902	4.3395	6.5076
10.8331	14.5397	16.3651	9.7036	13.8264	17.8057	11.1443	11.6164	15.7181	10.6338	9.2071	10.5953	8.5637	-1.633	0.8252	1.3078	3.2241	2.4268	8.4133	4.2836	6.3957
10.8121	14.5257	16.3336	9.6547	13.7564	17.7708	11.0639	11.529	15.6552	10.5289	9.0812	10.4974	8.4273	-1.626	0.8078	1.2693	3.2101	2.4093	8.3224	4.2241	6.2977
10.7981	14.4978	16.3091	9.5952	13.7005	17.7218	11.0044	11.48	15.6027	10.4065	8.9728	10.41	8.3084	-1.605	0.8357	1.2728	3.1821	2.3848	8.2175	4.1892	6.1858
10.8121	14.4908	16.2776	9.5673	13.676	17.6903	10.924	11.4066	15.5468	10.3366	8.8364	10.3226	8.2	-1.5945	0.8322	1.2693	3.1436	2.3953	8.1336	4.1577	6.0949
10.7632	14.4313	16.2287	9.5288	13.6305	17.6449	10.8506	11.3297	15.4629	10.2421	8.714	10.2317	8.0951	-1.5701	0.8497	1.2484	3.1052	2.3778	8.0427	4.1018	5.9656
10.7702	14.4103	16.2147	9.5043	13.5886	17.6029	10.7841	11.2387	15.4069	10.1862	8.6196	10.1337	8.0007	-1.5421	0.8707	1.2623	3.0492	2.3603	7.9657	4.0983	5.8502
10.7387	14.3789	16.1762	9.4659	13.5082	17.533	10.7037	11.1653	15.3405	10.0778	8.4902	10.0603	7.8923	-1.5281	0.8917	1.2064	3.0107	2.3429	7.8643	4.0563	5.6998
10.7037	14.3054	16.0993	9.4169	13.4487	17.4456	10.6093	11.0884	15.2671	9.9764	8.3574	9.9764	7.7979	-1.5001	0.9022	1.2029	2.9618	2.3429	7.7769	4.0388	5.5739
10.6198	14.2075	16.0049	9.3575	13.3543	17.3372	10.4869	10.9765	15.1202	9.8365	8.193	9.8435	7.658	-1.4826	0.8567	1.1539	2.9408	2.3009	7.63	3.9899	5.441
10.5429	14.1166	15.914	9.2875	13.2494	17.1903	10.347	10.8261	14.9838	9.7351	8.0182	9.6896	7.5356	-1.4617	0.8183	1.1015	2.9093	2.2904	7.5076	3.9619	5.3047
10.4415	14.0432	15.7881	9.1826	13.1445	17.0679	10.2072	10.6862	14.809	9.6057	7.8259	9.5218	7.4097	-1.4582	0.7588	1.0141	2.8919	2.2449	7.3957	3.9129	5.1333
10.3191	13.9208	15.6307	9.0357	13.0011	16.9001	10.0778	10.5324	14.6656	9.4589	7.63	9.3644	7.2664	-1.4512	0.7029	0.9302	2.8849	2.224	7.2559	3.8605	4.9725
10.1932	13.7774	15.4734	8.9064	12.8892	16.7357	9.9099	10.382	14.4558	9.3155	7.4377	9.1756	7.123	-1.4442	0.6504	0.8322	2.8534	2.1715	7.1335	3.801	4.8536
10.0149	13.6375	15.2985	8.7525	12.7354	16.4944	9.7561	10.2002	14.253	9.1756	7.2349	8.9658	6.9726	-1.4407	0.563	0.7168	2.8394	2.1226	6.9936	3.7241	4.7102
9.868	13.4872	15.1062	8.5951	12.585	16.3056	9.5952	10.0183	14.0676	9.0357	7.0531	8.805	6.8642	-1.4127	0.4441	0.598	2.7939	2.1296	6.8607	3.6647	4.6053
9.7246	13.3158	14.9069	8.4343	12.4032	16.1133	9.4344	9.833	13.8543	8.8854	6.8782	8.6021	6.7348	-1.4022	0.3497	0.4126	2.766	2.1086	6.7279	3.5947	4.4759
9.5533	13.099	14.6726	8.256	12.2178	15.872	9.284	9.6582	13.6236	8.763	6.7034	8.4203	6.6195	-1.3882	0.2448	0.2518	2.7485	2.0771	6.595	3.5318	4.371
9.3784	12.9452	14.4873	8.0986	12.064	15.6727	9.1511	9.5148	13.4242	8.6511	6.5635	8.2734	6.5285	-1.3603	0.1014	0.1294	2.703	2.0806	6.4761	3.4828	4.2801
9.2421	12.7633	14.2879	7.9482	11.8961	15.4769	9.0672	9.3365	13.2844	8.5532	6.4341	8.1371	6.4726	-1.3323	0.0175	-0.0315	2.6506	2.1226	6.3712	3.4234	4.1997
9.0812	12.592	14.1201	7.8293	11.7633	15.281	8.9623	9.2421	13.1235	8.5007	6.3327	7.9937	6.4411	-1.3113	-0.1259	-0.2028	2.6086	2.1575	6.2698	3.3849	4.1367
8.9833	12.4521	13.9627	7.7454	11.5919	15.1167	8.9273	9.1511	12.9941	8.4483	6.2803	7.9377	6.4271	-1.3078	-0.2553	-0.3217	2.5667	2.1855	6.2103	3.3674	4.1052
8.8714	12.2913	13.8194	7.6545	11.4835	14.9628	8.8854	9.0392	12.8787	8.4413	6.2243	7.8643	6.4376	-1.2728	-0.3427	-0.4546	2.5072	2.238	6.1544	3.336	4.0668
8.7665	12.1689	13.676	7.5916	11.3541	14.816	8.8609	8.9588	12.7878	8.4448	6.1928	7.8084	6.4761	-1.2274	-0.4266	-0.5735	2.4303	2.3184	6.1089	3.322	4.0598
8.6861	12.036	13.5396	7.5461	11.2492	14.6866	8.8644	8.9273	12.7004	8.4448	6.1649	7.7944	6.4866	-1.1819	-0.521	-0.6644	2.3499	2.3638	6.0635	3.294	4.0528
8.5392	11.9241	13.4068	7.4972	11.1548	14.5607	8.8679	8.8854	12.634	8.4588	6.1544	7.7349	6.553	-1.1435	-0.5945	-0.7413	2.2554	2.4443	6.039	3.2975	4.0493
8.4133	11.7807	13.2494	7.4587	11.0674	14.4243	8.8679	8.8294	12.5465	8.4833	6.1439	7.6965	6.56	-1.112	-0.6924	-0.7973	2.1925	2.5282	6.0285	3.2975	4.0423
8.2909	11.6304	13.0816	7.3783	10.9625	14.2705	8.8189	8.77	12.4451	8.4658	6.1439	7.5916	6.602	-1.063	-0.7973	-0.8882	2.1191	2.6156	6.011	3.2975	4.0633
8.1301	11.48	12.8927	7.2769	10.7946	14.0991	8.7735	8.707	12.3227	8.4553	6.1369	7.4937	6.595	-1.0211	-0.9162	-0.9581	2.0316	2.6751	5.9935	3.301	4.0773
7.9937	11.3681	12.7529	7.1964	10.7107	13.9243	8.7455	8.6791	12.2178	8.4343	6.1474	7.4272	6.623	-0.9861	-0.9826	-1.0455	1.9302	2.738	6.032	3.3185	4.1297
7.8433	11.2143	12.585	7.102	10.6023	13.7809	8.7175	8.6196	12.092	8.4343	6.1649	7.3188	6.6509	-0.9336	-1.0875	-1.105	1.8428	2.8394	6.053	3.3255	4.1962
7.6615	11.0779	12.3717	6.9866	10.4729	13.5886	8.6336	8.5812	11.9591	8.3993	6.1754	7.2104	6.6369	-0.8987	-1.1784	-1.1959	1.7694	2.8884	6.0635	3.315	4.2556
7.5286	10.9345	12.2004	6.8992	10.3505	13.4487	8.5951	8.5357	11.8437	8.3749	6.2278	7.1195	6.6544	-0.8357	-1.2589	-1.2414	1.647	2.9758	6.1054	3.3534	4.336
7.3573	10.8191	11.9975	6.7873	10.2631	13.2809	8.5602	8.5007	11.7073	8.3644	6.2278	6.9936	6.6754	-0.7973	-1.3498	-1.3218	1.5736	3.0632	6.1404	3.3534	4.4165
7.1999	10.6653	11.8297	6.7209	10.1477	13.1235	8.4833	8.4798	11.6024	8.3294	6.3047	6.9062	6.6719	-0.7728	-1.4617	-1.3987	1.5106	3.1401	6.1858	3.3779	4.5004
7.0391	10.5569	11.6688	6.623	10.0498	12.9871	8.4483	8.4588	11.4765	8.2979	6.3432	6.8153	6.6859	-0.7343	-1.5666	-1.4861	1.4477	3.2171	6.2173	3.4129	4.5983
6.9062	10.438	11.466	6.5215	9.9764	12.8263	8.3923	8.4273	11.3716	8.2769	6.3992	6.7383	6.6894	-0.7029	-1.6785	-1.5806	1.3917	3.2625	6.2523	3.4409	4.6787
6.7698	10.3331	11.3331	6.4901	9.8995	12.6864	8.3609	8.4378	11.2842	8.2769	6.4936	6.7069	6.6999	-0.6749	-1.7694	-1.654	1.3253	3.3639	6.3012	3.4898	4.7976
6.6369	10.2491	11.1653	6.3782	9.847	12.557	8.2909	8.4378	11.2247	8.2699	6.6055	6.6719	6.7279	-0.6539	-1.8498	-1.7344	1.2868	3.4374	6.3677	3.5248	4.899
6.518	10.1442	11.0149	6.2943	9.819	12.4381	8.2105	8.4553	11.1513	8.235	6.7034	6.6544	6.7698	-0.6329	-1.9302	-1.8148	1.2554	3.5108	6.4061	3.5912	5.0284
6.4236	10.0848	10.8681	6.1789	9.7736	12.3088	8.1161	8.4658	11.0919	8.256	6.8118	6.6509	6.8048	-0.5945	-1.9757	-1.8638	1.2099	3.5667	6.4621	3.6367	5.1333
6.2943	9.9729	10.7352	6.0844	9.7316	12.1969	8.0287	8.4937	11.0219	8.2035	6.9202	6.6334	6.8432	-0.6015	-2.0631	-1.8953	1.1889	3.6367	6.5041	3.6891	5.2032
6.1404	9.854	10.5569	5.9481	9.6722	12.05	7.8713	8.4902	10.9205	8.1161	6.9866	6.5635	6.8013	-0.5945	-2.1051	-1.9232	1.1819	3.6786	6.5215	3.6996	5.2942
5.99	9.7351	10.3785	5.8152	9.6197	11.8821	7.7314	8.5007	10.8226	8.0496	7.0566	6.5355	6.7838	-0.5875	-2.168	-1.9687	1.1679	3.7031	6.539	3.7311	5.3816
5.8676	9.6092	10.2177	5.7033	9.5568	11.7353	7.5496	8.5042	10.7177	7.9867	7.13	6.4936	6.7628	-0.598	-2.1855	-1.9652	1.1854	3.7241	6.5425	3.7416	5.4655
5.7278	9.4693	10.0218	5.5599	9.4624	11.5499	7.3713	8.4693	10.5708	7.8713	7.165	6.4166	6.7244	-0.6154	-2.1995	-1.9512	1.2204	3.7241	6.525	3.7451	5.511
5.5704	9.3155	9.8365	5.4096	9.354	11.3541	7.1335	8.3958	10.375	7.707	7.1789	6.3047	6.623	-0.6329	-2.2659	-1.9827	1.2554	3.7136	6.5076	3.7066	5.5354
5.3921	9.1441	9.6092	5.2102	9.2421	11.1198	6.8747	8.3609	10.2177	7.5531	7.1719	6.1998	6.5285	-0.6644	-2.3254	-2.0002	1.3183	3.6961	6.4691	3.6681	5.5914
5.2277	8.9518	9.4099	5.0284	9.1197	10.9275	6.6334	8.2839	10.0288	7.3957	7.1685	6.0635	6.4096	-0.6819	-2.3708	-2.0002	1.3707	3.6681	6.4341	3.6262	5.6159
5.0739	8.763	9.1826	4.8151	8.9658	10.6827	6.3677	8.214	9.8365	7.1894	7.151	5.9516	6.3012	-0.7238	-2.4058	-2.0456	1.4267	3.6437	6.3992	3.5982	5.6369
4.9305	8.5986	8.9798	4.6123	8.8644	10.4624	6.1509	8.1441	9.6407	7.0321	7.137	5.8082	6.1963	-0.7553	-2.4338	-2.0631	1.4861	3.6262	6.3572	3.5458	5.6648
4.7976	8.4518	8.805	4.4444	8.749	10.2596	5.9341	8.1161	9.5043	6.8922	7.137	5.7173	6.1054	-0.7728	-2.4618	-2.0701	1.5316	3.6227	6.3222	3.5108	5.7033
4.6333	8.242	8.5882	4.1822	8.6056	10.0638	5.6508	8.0252	9.284	6.7034	7.0985	5.5914	5.9725	-0.8183	-2.5142	-2.1331	1.6225	3.5458	6.2383	3.4618	5.7138
4.5109	8.0741	8.4413	3.9864	8.5077	9.8785	5.4515	7.9587	9.1581	6.574	7.109	5.518	5.8921	-0.8287	-2.5632	-2.154	1.6505	3.5283	6.2068	3.4164	5.7453
4.399	7.9308	8.2734	3.8045	8.3993	9.7106	5.2977	7.9133	9.0148	6.4481	7.0705	5.4375	5.8012	-0.8672	-2.5667	-2.2065	1.6994	3.4933	6.1649	3.3394	5.7313
4.3186	7.8328	8.1441	3.6612	8.3189	9.5882	5.1578	7.8993	8.9238	6.3537	7.1055	5.4061	5.7453	-0.8707	-2.5946	-2.203	1.7204	3.4933	6.1194	3.3429	5.7732
4.2626	7.7314	8.0322	3.5283	8.2699	9.4659	5.0319	7.8748	8.812	6.2838	7.137	5.3816	5.7173	-0.8742	-2.5911	-2.2205	1.7344	3.4688	6.0949	3.3185	5.7697
4.2102	7.6615	7.9727	3.4339	8.2105	9.3924	4.962	7.8468	8.777	6.2173	7.1545	5.3711	5.6683	-0.8777	-2.5876	-2.2484	1.7449	3.4304	6.0879	3.2835	5.7767
4.1787	7.609	7.9063	3.3429	8.186	9.3365	4.8641	7.8259	8.7245	6.1789	7.165	5.3571	5.6683	-0.8742	-2.5736	-2.2694	1.7449	3.4234	6.0635	3.273	5.8082
4.1122	7.5461	7.8398	3.2625	8.1266	9.2665	4.8011	7.8084	8.6721	6.1229	7.1719	5.3606	5.6473	-0.8777	-2.5667	-2.2694	1.7484	3.4094	6.039	3.238	5.7837
4.0668	7.5076	7.7804	3.1646	8.0846	9.1826	4.7906	7.7524	8.6126	6.0914	7.1685	5.3641	5.6264	-0.8707	-2.5632	-2.2869	1.7484	3.4059	5.997	3.2171	5.7522
4.0318	7.4377	7.7314	3.0947	8.0357	9.1372	4.7347	7.693	8.5602	6.053	7.158	5.3396	5.6019	-0.8777	-2.5387	-2.3324	1.7414	3.4059	6.0005	3.2206	5.7487
3.9934	7.4167	7.6965	3.0038	8.0217	9.1022	4.7347	7.6545	8.5427	6.039	7.1789	5.3256	5.5949	-0.8742	-2.5247	-2.3254	1.7064	3.3884	5.969	3.2066	5.7557
3.9514	7.3748	7.6825	2.9618	7.9902	9.0917	4.7592	7.616	8.4972	6.0145	7.137	5.3047	5.5669	-0.8497	-2.5107	-2.3009	1.6715	3.3779	5.969	3.2241	5.7103
3.9059	7.3013	7.637	2.8814	7.9273	9.0078	4.7312	7.5671	8.4203	5.9516	7.0775	5.2487	5.504	-0.8392	-2.5072	-2.3009	1.661	3.3639	5.9376	3.1716	5.6963
3.885	7.2629	7.6125	2.8499	7.8888	8.9658	4.7312	7.5111	8.3958	5.9341	7.0496	5.2242	5.469	-0.8078	-2.4827	-2.2694	1.612	3.3255	5.9271	3.1821	5.6788
3.8465	7.2279	7.5741	2.8009	7.8293	8.9064	4.7312	7.4307	8.2979	5.8641	6.9761	5.2067	5.4131	-0.8078	-2.4338	-2.2519	1.598	3.2975	5.9271	3.1122	5.6473
3.843	7.1964	7.5321	2.7765	7.8014	8.8889	4.7487	7.3853	8.256	5.8502	6.9272	5.1578	5.3186	-0.7868	-2.3953	-2.182	1.5666	3.252	5.8956	3.1122	5.5809
3.8395	7.1405	7.5321	2.745	7.7699	8.8434	4.7242	7.3223	8.207	5.7837	6.8502	5.1158	5.2592	-0.7798	-2.3289	-2.1365	1.5596	3.2136	5.8816	3.0632	5.5774
3.843	7.102	7.5216	2.7625	7.7209	8.8015	4.7452	7.2454	8.1685	5.7208	6.7943	5.0809	5.2067	-0.7623	-2.2554	-2.0771	1.5316	3.1436	5.8816	3.0492	5.5319
3.8745	7.088	7.5321	2.759	7.7035	8.8015	4.7836	7.1964	8.158	5.6928	6.7593	5.0844	5.1438	-0.7763	-2.1925	-1.9862	1.5281	3.0702	5.8571	3.0247	5.4655
3.9654	7.067	7.5671	2.8499	7.7035	8.7945	4.8361	7.1859	8.1685	5.6998	6.7279	5.1403	5.1263	-0.7448	-2.0946	-1.8708	1.4722	3.0527	5.8956	3.0282	5.455
4.0108	7.0601	7.5916	2.8744	7.679	8.8015	4.878	7.1685	8.1511	5.6683	6.6754	5.1683	5.0669	-0.7378	-1.9967	-1.7904	1.4722	2.9653	5.8851	3.0073	5.3851
4.0598	7.0985	7.6125	2.9863	7.714	8.8399	4.9655	7.1615	8.2	5.6788	6.6439	5.2172	5.0529	-0.7343	-1.8918	-1.689	1.4477	2.9303	5.8921	3.0387	5.3186
4.1437	7.13	7.693	3.1017	7.7349	8.8679	5.0494	7.1859	8.2385	5.6893	6.623	5.3116	5.0459	-0.7343	-1.7939	-1.5351	1.4407	2.8639	5.9306	3.0107	5.2802
4.2102	7.144	7.7384	3.2241	7.7349	8.9029	5.1263	7.1685	8.3084	5.7138	6.588	5.3676	5.0074	-0.7343	-1.6785	-1.4442	1.4442	2.7905	5.9131	2.9968	5.2207
4.3186	7.1824	7.8014	3.3534	7.7874	8.9553	5.2347	7.1615	8.3399	5.7033	6.546	5.4166	4.9864	-0.7273	-1.5666	-1.3358	1.4512	2.717	5.9096	2.9968	5.1788
4.4025	7.2594	7.8643	3.4653	7.8189	8.9973	5.3116	7.158	8.3679	5.7173	6.4901	5.4655	4.9515	-0.7203	-1.4722	-1.1854	1.4547	2.6366	5.8991	3.0073	5.1298
4.4899	7.3293	7.9273	3.6297	7.8328	9.0218	5.3746	7.165	8.3958	5.6998	6.4306	5.4865	4.906	-0.7588	-1.3707	-1.063	1.4966	2.5527	5.8921	2.9758	5.0494
4.5738	7.3503	7.9552	3.7556	7.8748	9.0497	5.4795	7.123	8.3853	5.7033	6.3712	5.4865	4.8326	-0.7658	-1.2484	-0.9197	1.5141	2.4652	5.8851	2.9723	4.9795
4.6717	7.4132	7.9832	3.885	7.8748	9.0462	5.5145	7.0845	8.3888	5.6718	6.2943	5.462	4.7592	-0.7833	-1.1539	-0.8217	1.5456	2.3499	5.8641	2.9058	4.92
4.7102	7.4692	8.0217	3.9968	7.8398	9.0288	5.5774	7.0496	8.4133	5.6438	6.2033	5.448	4.6857	-0.7903	-1.098	-0.7064	1.5701	2.2729	5.8292	2.8849	4.8641
4.7836	7.4972	8.0252	4.1052	7.8468	9.0427	5.5844	6.9796	8.3609	5.5949	6.0914	5.4061	4.5808	-0.7938	-0.9966	-0.6119	1.6085	2.189	5.8117	2.8394	4.7766
4.8291	7.5566	8.0462	4.1997	7.8084	9.0008	5.5739	6.8852	8.3224	5.5285	5.9621	5.3571	4.4549	-0.8357	-0.9302	-0.521	1.6505	2.0701	5.7592	2.7765	4.6822
4.906	7.5601	8.0811	4.2731	7.7524	8.9833	5.6019	6.8398	8.2874	5.483	5.8711	5.2977	4.3605	-0.8357	-0.8497	-0.4301	1.668	1.9932	5.7313	2.7275	4.5878
4.9655	7.5916	8.1056	4.357	7.7175	8.9763	5.5984	6.7488	8.242	5.4166	5.7278	5.2557	4.2556	-0.8497	-0.7728	-0.3602	1.675	1.8953	5.6928	2.6855	4.5074
5.0529	7.6056	8.1511	4.4549	7.665	8.9693	5.6473	6.6929	8.2105	5.3851	5.6264	5.1788	4.1577	-0.8427	-0.6994	-0.3077	1.6785	1.8044	5.6613	2.6366	4.392
5.1158	7.63	8.186	4.5179	7.637	8.9448	5.6403	6.6195	8.179	5.3221	5.511	5.1333	4.0388	-0.8602	-0.6364	-0.2553	1.6925	1.6994	5.6229	2.5981	4.2836
5.1788	7.665	8.1755	4.5389	7.5636	8.9308	5.6473	6.539	8.1301	5.2592	5.4096	5.1088	3.9339	-0.8602	-0.5665	-0.2168	1.7029	1.605	5.5739	2.5702	4.1787
5.2662	7.686	8.2315	4.6193	7.5286	8.9448	5.6578	6.4656	8.158	5.2067	5.3151	5.0879	3.8395	-0.8497	-0.514	-0.1609	1.6925	1.5491	5.5494	2.5527	4.0913
5.3466	7.7175	8.2664	4.6542	7.5006	8.9343	5.6648	6.4236	8.1301	5.1718	5.1928	5.0459	3.7661	-0.8532	-0.4336	-0.1189	1.6994	1.4617	5.504	2.5002	3.9374
5.4375	7.7105	8.3154	4.6822	7.4447	8.9169	5.6508	6.3432	8.1161	5.1333	5.0739	5.0074	3.6472	-0.8672	-0.3742	-0.0979	1.7064	1.3638	5.4585	2.4792	3.815
5.4865	7.7419	8.4098	4.7347	7.4132	8.9378	5.6508	6.3047	8.0916	5.0774	4.9829	4.9829	3.5528	-0.8497	-0.3392	-0.0734	1.7064	1.2903	5.3851	2.4443	3.6996
5.5599	7.7629	8.4343	4.7626	7.3888	8.9553	5.6473	6.2593	8.0706	5.0249	4.8711	4.955	3.4513	-0.8462	-0.2762	-0.0385	1.6925	1.2064	5.3781	2.4443	3.5877
5.6229	7.7524	8.4833	4.8186	7.3153	8.9448	5.6264	6.1824	8.0357	4.969	4.7696	4.8676	3.3674	-0.8497	-0.2483	-0.049	1.6925	1.1609	5.3082	2.4478	3.4898
5.6578	7.7699	8.5042	4.8396	7.2699	8.9378	5.6264	6.1264	8.0042	4.927	4.6263	4.8151	3.2835	-0.8567	-0.1993	-0.007	1.6925	1.112	5.2522	2.4408	3.3674
5.6893	7.7979	8.5357	4.878	7.2279	8.9238	5.6019	6.0495	7.9587	4.8431	4.5074	4.7522	3.1891	-0.8672	-0.1713	-0.028	1.696	1.0386	5.1858	2.4618	3.252
5.7173	7.7909	8.5602	4.885	7.1475	8.8994	5.5494	5.9795	7.8853	4.7766	4.3815	4.6647	3.0982	-0.8602	-0.1609	-0.021	1.6994	1.0176	5.1193	2.4827	3.1261
5.7033	7.7419	8.5357	4.8151	7.0705	8.8504	5.455	5.8606	7.8084	4.6647	4.2137	4.5214	2.9373	-0.8707	-0.1888	-0.0559	1.7274	0.9406	5.0494	2.5037	2.9863
5.7138	7.7349	8.5147	4.7557	7.0041	8.812	5.3851	5.7767	7.7175	4.5948	4.0808	4.4409	2.8499	-0.8812	-0.1364	-0.0385	1.7344	0.8882	4.955	2.5072	2.8604
5.7278	7.679	8.5287	4.7032	6.9307	8.756	5.2767	5.6963	7.6475	4.4899	3.9339	4.3011	2.7275	-0.8917	-0.1259	-0.0315	1.7554	0.8462	4.878	2.5562	2.7415
5.6998	7.6475	8.5077	4.6193	6.8398	8.7001	5.1893	5.5879	7.5601	4.3885	3.7975	4.1752	2.6261	-0.8952	-0.1399	-0.035	1.7799	0.8113	4.7871	2.5911	2.5876
5.7348	7.6125	8.4972	4.5458	6.7838	8.6651	5.0739	5.518	7.4832	4.3046	3.6821	4.0843	2.4897	-0.9302	-0.1504	-0.0105	1.8078	0.7623	4.7102	2.6156	2.4792
5.7383	7.5391	8.4833	4.4479	6.7209	8.6336	4.9864	5.4305	7.4412	4.2521	3.5458	3.9514	2.4268	-0.9162	-0.1294	0.0035	1.8253	0.7064	4.6158	2.6855	2.3534
5.7173	7.4902	8.4728	4.3675	6.6404	8.5986	4.8501	5.3256	7.3363	4.1612	3.4374	3.857	2.3429	-0.9581	-0.1399	0.007	1.8813	0.6819	4.5214	2.7205	2.2345
5.7557	7.4272	8.4693	4.3081	6.595	8.5986	4.7766	5.2837	7.3503	4.1157	3.3394	3.8115	2.3219	-0.9581	-0.1469	0.0839	1.8953	0.6924	4.4619	2.8114	2.1226
5.7278	7.3573	8.4413	4.2416	6.5076	8.5742	4.6787	5.1858	7.2978	4.0563	3.252	3.7486	2.2519	-0.9791	-0.1888	0.0699	1.9302	0.6679	4.35	2.8604	1.9827
5.7278	7.2908	8.4448	4.1752	6.4621	8.5462	4.6088	5.1298	7.2838	4.0003	3.1296	3.6996	2.2205	-0.9826	-0.1888	0.1189	1.9547	0.6609	4.2556	2.9163	1.8638
5.7138	7.2349	8.4378	4.1402	6.4166	8.5462	4.5773	5.0948	7.2873	4.0178	3.0667	3.6577	2.2275	-0.9896	-0.2028	0.1259	1.9722	0.6504	4.1717	2.9758	1.7449
5.7033	7.1894	8.4238	4.0948	6.3852	8.5707	4.5633	5.0529	7.2873	4.0108	2.9933	3.6402	2.2205	-1.0036	-0.2028	0.1818	1.9722	0.6504	4.1192	3.0282	1.654
5.6893	7.137	8.4343	4.1157	6.3957	8.5847	4.5389	5.0039	7.3048	4.0213	2.9583	3.6332	2.2519	-0.9756	-0.2063	0.2343	1.9372	0.6854	4.0493	3.1122	1.591
5.7068	7.109	8.4273	4.1052	6.3642	8.5812	4.5493	4.9585	7.2908	4.0423	2.9023	3.6052	2.2659	-0.9861	-0.2273	0.2448	1.9407	0.7203	3.9794	3.1541	1.5281
5.6543	7.067	8.4413	4.1297	6.3432	8.5951	4.5598	4.9235	7.3258	4.0913	2.8674	3.5807	2.2869	-0.9651	-0.2413	0.2867	1.9197	0.7483	3.9199	3.1856	1.4582
5.6299	7.0041	8.4098	4.1227	6.3012	8.6231	4.5773	4.8431	7.3048	4.0633	2.7939	3.5353	2.3114	-0.9721	-0.2623	0.3042	1.9128	0.7833	3.857	3.1926	1.4022
5.6299	6.9551	8.3993	4.1647	6.2908	8.6301	4.6508	4.8256	7.3118	4.1087	2.773	3.4828	2.3429	-0.9511	-0.3042	0.3182	1.8918	0.8252	3.8185	3.2415	1.3673
5.5984	6.9237	8.4133	4.2276	6.2768	8.6336	4.7347	4.8081	7.3328	4.1577	2.745	3.4863	2.3988	-0.9302	-0.3007	0.3462	1.8463	0.8847	3.7486	3.259	1.3183
5.5599	6.8712	8.4063	4.2626	6.2383	8.6336	4.8186	4.7592	7.3433	4.2241	2.724	3.4688	2.4163	-0.9127	-0.3357	0.3322	1.8009	0.9476	3.7101	3.301	1.3323
5.5564	6.8467	8.4098	4.3151	6.2348	8.6581	4.9515	4.7522	7.3538	4.2871	2.7485	3.4618	2.4827	-0.8707	-0.3497	0.3497	1.7239	1.0036	3.6751	3.3115	1.3043
5.5529	6.8328	8.3958	4.4235	6.2313	8.6651	5.0564	4.7522	7.3888	4.371	2.7625	3.4688	2.5632	-0.8287	-0.3602	0.3322	1.6225	1.0805	3.6542	3.3534	1.2903
5.5634	6.8223	8.4518	4.5179	6.2383	8.7385	5.1578	4.7766	7.4447	4.4514	2.8044	3.5108	2.6471	-0.7693	-0.4266	0.3602	1.5246	1.1644	3.6402	3.3989	1.3113
5.6019	6.8467	8.4902	4.6333	6.2593	8.7945	5.2837	4.7766	7.4832	4.5249	2.8429	3.5388	2.724	-0.7203	-0.4301	0.3427	1.4267	1.2484	3.6262	3.4548	1.3043
5.6124	6.8782	8.5497	4.8116	6.3152	8.8714	5.4515	4.8011	7.5566	4.6752	2.9093	3.6157	2.8499	-0.6574	-0.4161	0.3637	1.3113	1.3288	3.6332	3.5248	1.3253
5.6928	6.9517	8.6371	4.9899	6.3572	8.9378	5.6089	4.8361	7.644	4.7976	2.9898	3.6751	2.9723	-0.6084	-0.3986	0.3986	1.2169	1.4477	3.6332	3.5877	1.3673
5.7837	6.9796	8.756	5.1858	6.4166	9.0672	5.8082	4.92	7.7454	4.9095	3.0702	3.78	3.0912	-0.5665	-0.3637	0.4406	1.1085	1.5596	3.6472	3.6612	1.3673
5.8257	7.0391	8.791	5.3396	6.4726	9.1476	5.9271	4.969	7.8293	5.0634	3.1296	3.8605	3.2485	-0.521	-0.3567	0.4266	1.042	1.675	3.6402	3.7206	1.4057
5.8537	7.0985	8.8749	5.483	6.5041	9.2316	6.0809	5.0074	7.9063	5.1963	3.231	3.9479	3.3814	-0.4826	-0.3392	0.4441	0.9756	1.7414	3.6297	3.7975	1.4442
5.9166	7.151	8.9588	5.6334	6.609	9.326	6.2033	5.0494	7.9902	5.2977	3.322	3.9968	3.5178	-0.4441	-0.3042	0.4721	0.8952	1.8323	3.6681	3.8675	1.4687
5.9551	7.1999	9.0218	5.8047	6.6509	9.4029	6.3257	5.0913	8.0496	5.4061	3.3989	4.0703	3.6262	-0.4301	-0.2832	0.4476	0.8462	1.8883	3.6681	3.8919	1.4757
6.0355	7.2454	9.1022	5.9166	6.6754	9.4903	6.4341	5.1403	8.1546	5.5145	3.4933	4.1227	3.7521	-0.3881	-0.2378	0.4651	0.7693	1.9967	3.6786	3.9619	1.5736
6.0635	7.2908	9.1826	6.0355	6.7523	9.5428	6.546	5.1928	8.172	5.6089	3.5213	4.1542	3.843	-0.3602	-0.1923	0.4756	0.7343	2.0491	3.6542	4.0003	1.5875
6.1264	7.2769	9.2316	6.1544	6.7488	9.5847	6.602	5.2067	8.186	5.6543	3.5772	4.1962	3.8989	-0.3427	-0.1574	0.4721	0.6924	2.1051	3.6751	4.0563	1.64
6.1404	7.3433	9.277	6.2348	6.7908	9.6512	6.6999	5.2312	8.214	5.7138	3.6437	4.1962	3.9759	-0.3252	-0.0769	0.493	0.6539	2.1505	3.7066	4.0633	1.682
6.1649	7.3398	9.3295	6.2977	6.7908	9.6547	6.7279	5.2242	8.207	5.7278	3.6821	4.1717	4.0108	-0.3252	-0.0559	0.4965	0.6679	2.175	3.7101	4.0563	1.7204
6.2138	7.3433	9.3575	6.3292	6.8083	9.6442	6.7663	5.2522	8.186	5.7662	3.7276	4.1332	4.0423	-0.3392	0.021	0.542	0.6714	2.182	3.7136	4.0668	1.7834
6.2768	7.3992	9.4204	6.3992	6.8363	9.7176	6.7908	5.2662	8.2	5.8047	3.7731	4.1262	4.0983	-0.3392	0.1014	0.5525	0.6714	2.217	3.7171	4.0493	1.8393
6.3292	7.4132	9.4798	6.3712	6.8887	9.7351	6.7978	5.3186	8.2245	5.8432	3.85	4.1437	4.1332	-0.3427	0.1574	0.6015	0.6959	2.2415	3.7486	4.0458	1.9197
6.3607	7.3992	9.5218	6.3257	6.8817	9.7211	6.7698	5.3536	8.1965	5.8257	3.8989	4.1577	4.1542	-0.3602	0.1923	0.6259	0.7378	2.2624	3.7661	4.0213	1.9792
6.4341	7.4272	9.5708	6.3222	6.9202	9.7561	6.7803	5.3816	8.214	5.8746	3.9759	4.1542	4.1997	-0.3742	0.2203	0.6679	0.7658	2.2694	3.78	4.0178	2.0491
6.4936	7.4412	9.6477	6.2908	6.9656	9.7526	6.7908	5.4305	8.249	5.9026	4.0843	4.2102	4.2661	-0.3986	0.2448	0.7308	0.8217	2.2799	3.8115	4.0038	2.0876
6.5076	7.4692	9.6547	6.2488	7.0286	9.7701	6.7593	5.5005	8.2944	5.9586	4.2032	4.2521	4.3221	-0.4336	0.2867	0.7238	0.8742	2.3044	3.864	3.9654	2.182
6.574	7.4762	9.7456	6.2313	7.0775	9.826	6.7628	5.5634	8.3434	5.997	4.3116	4.35	4.413	-0.4476	0.3042	0.7588	0.9127	2.3394	3.8815	3.9549	2.2869
6.5985	7.5531	9.798	6.2243	7.1545	9.8715	6.7593	5.6578	8.3853	6.0495	4.4444	4.4549	4.5039	-0.4581	0.3077	0.7763	0.9476	2.4058	3.9199	3.9409	2.3848
6.616	7.5916	9.833	6.1928	7.2069	9.9065	6.7488	5.7592	8.4553	6.1159	4.5983	4.5389	4.5738	-0.4826	0.3322	0.7693	0.9651	2.4618	3.9864	3.9199	2.4792
6.6754	7.644	9.9274	6.1789	7.2803	9.9589	6.7733	5.8397	8.5252	6.1579	4.7242	4.6368	4.6647	-0.4861	0.3567	0.8113	0.9721	2.5212	4.0493	3.9269	2.5806
6.6894	7.6755	9.9799	6.1684	7.3398	10.0114	6.7698	5.8921	8.5812	6.2138	4.8745	4.7347	4.7592	-0.4826	0.3322	0.7973	0.9791	2.5771	4.1087	3.9269	2.696
6.6964	7.7244	9.9974	6.1124	7.4342	10.0044	6.7628	5.9795	8.6056	6.2628	4.9864	4.7731	4.8291	-0.4721	0.3392	0.8217	0.9616	2.6401	4.1647	3.9269	2.787
6.7279	7.7699	10.0498	6.0914	7.4867	10.0323	6.7453	6.0705	8.6511	6.2943	5.1088	4.8501	4.892	-0.4581	0.3427	0.8183	0.9302	2.724	4.2102	3.9269	2.9023
6.6964	7.7874	10.0533	6.0705	7.5006	10.0463	6.7279	6.1299	8.6511	6.3397	5.1788	4.892	4.9235	-0.4546	0.3217	0.8008	0.9302	2.78	4.2556	3.9129	2.9898
6.6544	7.7769	10.0253	6.025	7.5391	10.0149	6.7174	6.1684	8.6651	6.3257	5.2487	4.9025	4.9515	-0.4511	0.2902	0.7483	0.9162	2.8079	4.2836	3.8884	3.0807
6.6509	7.7594	10.0114	5.983	7.5566	10.0253	6.6964	6.2033	8.6581	6.3327	5.3431	4.934	4.9725	-0.4441	0.2413	0.7168	0.8987	2.8709	4.3535	3.8989	3.2136
6.588	7.7349	9.9904	5.9061	7.5671	9.9869	6.6579	6.2348	8.6266	6.3082	5.3956	4.9235	4.9934	-0.4371	0.1853	0.6644	0.8777	2.9023	4.3885	3.8884	3.266
6.546	7.707	9.9414	5.8537	7.5566	9.9764	6.6579	6.2803	8.6021	6.2908	5.455	4.9655	4.9829	-0.4231	0.1224	0.598	0.8672	2.9058	4.413	3.857	3.329
6.4936	7.7175	9.9519	5.8432	7.5776	9.9379	6.616	6.3012	8.5882	6.2803	5.5354	4.969	4.9795	-0.4161	0.0979	0.535	0.8532	2.9338	4.4479	3.8395	3.4339
6.4831	7.679	9.9099	5.8012	7.5706	9.9065	6.574	6.3362	8.5532	6.2593	5.5809	4.9934	4.9515	-0.4196	0.0175	0.4581	0.8497	2.9443	4.4899	3.822	3.5038
6.4726	7.672	9.896	5.7977	7.5706	9.868	6.567	6.3572	8.5497	6.2488	5.6438	5.0459	4.9585	-0.4196	-0.035	0.3881	0.8462	2.9478	4.5389	3.7975	3.5597
6.4516	7.651	9.8645	5.7872	7.5671	9.8645	6.567	6.3922	8.5322	6.2383	5.6928	5.1053	4.948	-0.4161	-0.0734	0.3252	0.8462	2.9723	4.5773	3.794	3.6332
6.4341	7.679	9.8575	5.7872	7.5916	9.847	6.595	6.4201	8.5602	6.2523	5.7697	5.1788	4.9864	-0.4056	-0.1189	0.2623	0.8392	2.9758	4.6333	3.801	3.6786
6.4131	7.6825	9.84	5.7907	7.5986	9.8365	6.602	6.4656	8.5637	6.2243	5.8117	5.2382	4.9795	-0.4196	-0.1853	0.1713	0.8567	2.9443	4.6682	3.7626	3.7381
6.4201	7.6755	9.826	5.7837	7.609	9.84	6.581	6.4796	8.5847	6.2488	5.8327	5.2627	4.9934	-0.4161	-0.2273	0.1259	0.8567	2.9408	4.6892	3.7766	3.7975
6.3992	7.672	9.819	5.8222	7.6021	9.812	6.5985	6.5076	8.5742	6.2313	5.8467	5.3221	4.948	-0.4266	-0.2693	0.0629	0.8707	2.9163	4.7032	3.7626	3.8325
6.3887	7.686	9.7876	5.8082	7.5916	9.798	6.5915	6.4901	8.5602	6.2068	5.8746	5.3326	4.941	-0.4231	-0.3252	0.007	0.8567	2.8919	4.7137	3.7451	3.864
6.3642	7.6965	9.7911	5.8047	7.5986	9.7876	6.581	6.4831	8.5252	6.1544	5.8676	5.3466	4.913	-0.4126	-0.3777	-0.0839	0.8637	2.8919	4.7102	3.7416	3.8745
6.2943	7.693	9.7526	5.7837	7.5811	9.7421	6.525	6.4621	8.4833	6.1019	5.8397	5.3047	4.8745	-0.4231	-0.4091	-0.1539	0.8567	2.8499	4.7242	3.7346	3.9024
6.2803	7.6545	9.7176	5.7662	7.5461	9.7211	6.4936	6.4166	8.4063	6.0495	5.7942	5.2767	4.8151	-0.4161	-0.4826	-0.2028	0.8357	2.8254	4.7242	3.6996	3.8954
6.2733	7.665	9.6931	5.7802	7.5181	9.6862	6.4411	6.3712	8.3434	5.9795	5.7348	5.2207	4.7452	-0.3846	-0.507	-0.2343	0.8043	2.8009	4.6892	3.7031	3.8954
6.2103	7.6335	9.6127	5.7487	7.4482	9.6162	6.3712	6.2768	8.2175	5.8851	5.6334	5.1123	4.6508	-0.3951	-0.5665	-0.3287	0.8043	2.738	4.6542	3.6577	3.878
6.1963	7.6195	9.6092	5.7138	7.4202	9.5882	6.3152	6.2628	8.172	5.8222	5.5844	5.0599	4.5703	-0.3602	-0.6259	-0.3462	0.7518	2.731	4.6298	3.6577	3.878
6.1893	7.5881	9.5987	5.6788	7.3853	9.5428	6.2628	6.1858	8.0776	5.7453	5.504	4.976	4.4759	-0.3672	-0.6469	-0.3986	0.7273	2.6541	4.6018	3.6332	3.871
6.1824	7.5706	9.5533	5.6718	7.3433	9.5148	6.1928	6.1229	7.9832	5.6508	5.4096	4.892	4.3955	-0.3637	-0.6574	-0.3881	0.7168	2.6156	4.5773	3.6402	3.801
6.1893	7.5286	9.5498	5.6683	7.2908	9.4833	6.1509	6.074	7.9168	5.6054	5.3466	4.8256	4.3011	-0.3497	-0.6714	-0.4161	0.6889	2.5632	4.5284	3.6507	3.794
6.2103	7.5741	9.5708	5.6369	7.2838	9.4589	6.1124	6.039	7.8783	5.5739	5.3221	4.8221	4.2381	-0.3357	-0.6539	-0.3742	0.6609	2.5212	4.5074	3.6681	3.7835
