"FZ"	"FC3"	"FCZ"	"FC4"	"C3"	"CZ"	"C4"	"CP3"	"CPZ"	"CP4"	"P3"	"PZ"	"P4"	"OZ"	"FP1"	"FP2"	"A2"	"P8"	"TP7"	"TP8"	"P7"	"VEOG"	"HEOG"
-0.1963	-0.1508	-0.1821	-0.4609	0.33	-0.0541	0.0284	0.6259	0.3016	0.1991	0.9132	0.5434	0.5121	0.1821	-0.3357	0.4466	-0.3556	0.9445	0.4779	0.5149	0.7653	-6.5375	1.6017
-0.2048	-0.1422	-0.1963	-0.4922	0.3215	-0.0967	-0.0398	0.6003	0.256	0.1053	0.862	0.4694	0.4068	0.1622	-0.2589	0.5263	-0.2816	0.8165	0.4836	0.4097	0.7596	-6.3611	1.5419
-0.202	-0.1309	-0.1935	-0.5206	0.3585	-0.1138	-0.1109	0.5747	0.2134	0.0256	0.8279	0.421	0.2987	0.1252	-0.1735	0.6287	-0.2191	0.6771	0.4865	0.2987	0.7681	-6.1847	1.4594
-0.2475	-0.1337	-0.2105	-0.5434	0.3158	-0.1622	-0.1963	0.5007	0.1223	-0.091	0.751	0.3101	0.1735	0.0825	-0.0967	0.7311	-0.1536	0.5747	0.4808	0.1935	0.7653	-6.0283	1.3997
-0.2589	-0.1024	-0.2077	-0.5377	0.3414	-0.1707	-0.2361	0.4666	0.0825	-0.1451	0.6828	0.2418	0.1024	0.0654	-0.0228	0.8535	-0.1223	0.4722	0.4722	0.1138	0.7596	-5.8576	1.3314
-0.3016	-0.0996	-0.2304	-0.5718	0.2816	-0.1935	-0.2845	0.3926	0.0142	-0.2361	0.5917	0.1422	-0.0057	0.0484	0.0484	0.953	-0.0683	0.3471	0.4523	0.0313	0.7112	-5.7153	1.2802
-0.3186	-0.091	-0.202	-0.5348	0.2959	-0.1878	-0.3101	0.3471	-0.0228	-0.3101	0.5348	0.0797	-0.1024	0.037	0.0996	1.081	-0.0398	0.2589	0.4125	-0.0341	0.6685	-5.5759	1.2204
-0.3101	-0.0569	-0.1878	-0.5007	0.276	-0.2134	-0.3585	0.2788	-0.0512	-0.3641	0.4552	0.0142	-0.1991	0.0256	0.1536	1.1664	-0.0171	0.1792	0.4125	-0.0996	0.6372	-5.4479	1.1635
-0.2987	-0.0199	-0.1565	-0.4438	0.2959	-0.1536	-0.3613	0.2617	-0.0797	-0.3926	0.3641	-0.0455	-0.2731	0.0199	0.1536	1.2546	0	0.0939	0.404	-0.1678	0.5832	-5.3085	1.1095
-0.3158	-0.0114	-0.1593	-0.4438	0.2475	-0.1508	-0.4153	0.1678	-0.128	-0.4751	0.2674	-0.1337	-0.3556	-0.0028	0.1309	1.2916	0.0228	0.0028	0.3641	-0.2134	0.5263	-5.1862	1.0896
-0.2788	0.0541	-0.1109	-0.3812	0.2447	-0.1366	-0.4011	0.1337	-0.1707	-0.4922	0.1707	-0.1935	-0.421	0	0.091	1.3741	0.037	-0.0853	0.3357	-0.2617	0.4751	-5.061	1.0355
-0.2191	0.1053	-0.0256	-0.2816	0.2361	-0.0797	-0.3528	0.1138	-0.1536	-0.5235	0.1109	-0.2447	-0.4495	0	0.0597	1.4111	0.0398	-0.1309	0.3072	-0.2873	0.4125	-4.9159	1.0042
-0.1422	0.1764	0.0199	-0.2304	0.2532	-0.0512	-0.3328	0.0313	-0.1451	-0.5519	0.0455	-0.276	-0.5035	-0.0199	-0.0114	1.4167	0.0398	-0.1821	0.2532	-0.3129	0.3784	-4.7651	0.9729
-0.0427	0.2617	0.1053	-0.1508	0.276	0.0256	-0.3016	0.0228	-0.1366	-0.5263	0.0114	-0.3044	-0.5149	-0.0142	-0.0341	1.4025	0.0427	-0.2191	0.2361	-0.3016	0.3215	-4.6144	0.9018
0.0626	0.3585	0.2134	-0.0028	0.2987	0.0797	-0.2276	0.0142	-0.1024	-0.5035	-0.0171	-0.3044	-0.5092	-0.0028	-0.074	1.3769	0.0256	-0.2191	0.1764	-0.3044	0.2902	-4.4522	0.8563
0.1565	0.4381	0.276	0.0797	0.3385	0.1508	-0.1792	0.0028	-0.0711	-0.5064	-0.0683	-0.3129	-0.5235	0	-0.0996	1.3342	0.0313	-0.2418	0.165	-0.293	0.256	-4.29	0.7937
0.2703	0.5889	0.3755	0.2077	0.3812	0.2247	-0.1309	0.0313	-0.0171	-0.4523	-0.0455	-0.2816	-0.5007	-0.0085	-0.1195	1.2347	0.0171	-0.2475	0.1593	-0.2646	0.2475	-4.1137	0.7141
0.3357	0.6657	0.4808	0.3215	0.4324	0.276	-0.0455	0.0541	0.0256	-0.421	-0.037	-0.2646	-0.4666	0.0028	-0.1565	1.1095	0.0085	-0.2475	0.1252	-0.2247	0.2105	-3.943	0.6372
0.3983	0.7567	0.532	0.4239	0.4466	0.3272	-0.0028	0.0569	0.0626	-0.3926	-0.091	-0.2646	-0.4637	-0.0057	-0.1935	0.9132	0.0057	-0.2475	0.0711	-0.1849	0.1622	-3.7637	0.5661
0.5064	0.8591	0.6116	0.5291	0.5235	0.404	0.0939	0.0768	0.0967	-0.3272	-0.0654	-0.2191	-0.4182	0.0199	-0.2304	0.7084	-0.0199	-0.2276	0.0541	-0.1622	0.1451	-3.6272	0.4893
0.5348	0.9217	0.6543	0.6202	0.5348	0.441	0.1337	0.091	0.1309	-0.2617	-0.0484	-0.2077	-0.4125	0.0228	-0.2617	0.4722	-0.0284	-0.2247	0.0057	-0.1166	0.0825	-3.4764	0.4125
0.5718	0.9872	0.6941	0.6998	0.5633	0.4552	0.1821	0.1024	0.1735	-0.2532	-0.0654	-0.2077	-0.3869	0.0199	-0.3101	0.2361	-0.0512	-0.2134	-0.0028	-0.0768	0.0654	-3.3541	0.3072
0.5946	1.0526	0.7112	0.7454	0.5832	0.495	0.2361	0.128	0.1906	-0.1991	-0.0711	-0.202	-0.3727	0.0398	-0.3499	-0.0427	-0.0768	-0.2304	-0.0341	-0.0256	0.0199	-3.2488	0.2589
0.5974	1.0754	0.7226	0.7909	0.6145	0.5149	0.2532	0.1565	0.1792	-0.1764	-0.0654	-0.1878	-0.3385	0.0597	-0.3983	-0.2902	-0.0967	-0.2247	-0.0711	0.0085	-0.0028	-3.1464	0.1963
0.5832	1.0867	0.7254	0.8193	0.6173	0.532	0.2788	0.1849	0.2048	-0.1337	-0.0711	-0.1451	-0.3186	0.0597	-0.4324	-0.5291	-0.1081	-0.2219	-0.0797	0.0455	-0.0313	-3.0554	0.1479
0.5832	1.1038	0.6941	0.8307	0.6259	0.5121	0.2845	0.1906	0.2162	-0.1138	-0.0455	-0.1394	-0.3016	0.074	-0.4296	-0.7454	-0.1309	-0.2276	-0.0797	0.0967	-0.0626	-2.9558	0.0711
0.5405	1.1095	0.6828	0.8136	0.6116	0.4979	0.2845	0.1963	0.2162	-0.1195	-0.0341	-0.1366	-0.2902	0.0882	-0.4011	-0.9217	-0.1394	-0.2048	-0.0768	0.128	-0.0683	-2.8676	0.0199
0.5519	1.0754	0.6543	0.8023	0.6173	0.4893	0.2674	0.2134	0.2191	-0.0996	-0.0142	-0.1309	-0.276	0.0654	-0.3641	-1.0697	-0.1252	-0.2134	-0.0768	0.1422	-0.0683	-2.7823	-0.0199
0.532	1.0412	0.606	0.7425	0.6031	0.4552	0.2361	0.2333	0.1935	-0.1138	-0.0085	-0.1053	-0.2617	0.0768	-0.3072	-1.1607	-0.1309	-0.1878	-0.0683	0.1735	-0.0569	-2.6941	-0.0541
0.5235	1.0156	0.6145	0.697	0.5889	0.4381	0.2105	0.2503	0.1906	-0.0939	0.0228	-0.074	-0.2418	0.0597	-0.2304	-1.2148	-0.1138	-0.1764	-0.0398	0.1906	-0.0398	-2.6315	-0.1053
0.4751	0.9644	0.5235	0.6116	0.5633	0.3755	0.1508	0.2503	0.1394	-0.0939	0.0171	-0.074	-0.2304	0.0597	-0.1479	-1.2148	-0.0882	-0.1622	-0.0228	0.1935	-0.0427	-2.5518	-0.1622
0.495	0.9189	0.495	0.5377	0.5348	0.3101	0.0967	0.2589	0.1053	-0.1024	0.0427	-0.0939	-0.2219	0.0341	-0.037	-1.1835	-0.0455	-0.1593	-0.0199	0.2105	-0.0199	-2.475	-0.2219
0.4722	0.8165	0.4381	0.3983	0.5178	0.2532	0.0484	0.2276	0.0797	-0.1252	0.0313	-0.0654	-0.2134	0.0171	0.0683	-1.1209	0.0028	-0.1678	0.0028	0.202	-0.0028	-2.4068	-0.2532
0.4694	0.7454	0.4011	0.3186	0.4865	0.2048	-0.0142	0.2447	0.0455	-0.1508	0.037	-0.0597	-0.202	-0.0114	0.2105	-1.0185	0.0427	-0.1593	0.0057	0.2134	0.0455	-2.3299	-0.2987
0.4694	0.6515	0.3471	0.202	0.4523	0.1508	-0.0711	0.2134	0.0028	-0.165	0.0455	-0.0825	-0.1821	-0.0398	0.3101	-0.9274	0.0882	-0.1536	0.0455	0.202	0.0768	-2.2873	-0.3385
0.4296	0.5633	0.2902	0.0967	0.404	0.1024	-0.1337	0.2361	-0.0455	-0.1935	0.0626	-0.0768	-0.1935	-0.0597	0.3613	-0.862	0.1479	-0.1536	0.0541	0.1735	0.1081	-2.2218	-0.3698
0.4097	0.4609	0.2304	0.0057	0.3755	0.037	-0.202	0.1963	-0.0427	-0.2048	0.0711	-0.0683	-0.1963	-0.0939	0.4808	-0.7482	0.1963	-0.1366	0.0996	0.1593	0.1422	-2.1905	-0.3983
0.3556	0.367	0.1821	-0.0711	0.3186	-0.0313	-0.2617	0.1991	-0.0768	-0.2276	0.091	-0.0626	-0.1878	-0.1024	0.5291	-0.6771	0.2418	-0.1309	0.1195	0.1422	0.1792	-2.1621	-0.4097
0.3072	0.2532	0.0853	-0.1849	0.276	-0.091	-0.3328	0.1479	-0.1479	-0.2418	0.0797	-0.0683	-0.2048	-0.128	0.5348	-0.6344	0.2845	-0.1394	0.1081	0.0996	0.1906	-2.1223	-0.4381
0.2304	0.1849	0.0256	-0.2447	0.2333	-0.1252	-0.3727	0.1422	-0.1849	-0.2674	0.091	-0.0569	-0.1764	-0.1593	0.586	-0.586	0.3186	-0.1337	0.1053	0.0853	0.2191	-2.0796	-0.4552
0.1735	0.0768	-0.0455	-0.33	0.1849	-0.1735	-0.3954	0.1024	-0.1963	-0.2816	0.0768	-0.0341	-0.1906	-0.1849	0.5434	-0.5377	0.3641	-0.1422	0.128	0.0569	0.2304	-2.0654	-0.4438
0.1223	0.037	-0.0654	-0.3357	0.1422	-0.1821	-0.4068	0.1081	-0.1935	-0.256	0.0967	-0.0171	-0.165	-0.1991	0.5263	-0.5007	0.3869	-0.1451	0.128	0.037	0.2333	-2.0113	-0.4438
0.0484	-0.0256	-0.0967	-0.3727	0.1394	-0.2191	-0.4125	0.0541	-0.202	-0.2646	0.0711	0.0085	-0.1565	-0.1935	0.4523	-0.4865	0.4068	-0.1593	0.1366	0	0.2447	-1.9544	-0.4609
0	-0.0939	-0.1451	-0.4068	0.0967	-0.2418	-0.4381	0.0284	-0.2077	-0.2788	0.0711	0.0057	-0.1593	-0.2162	0.3755	-0.4552	0.4495	-0.1536	0.1138	-0.0313	0.2418	-1.8662	-0.4779
-0.0028	-0.1166	-0.1678	-0.3897	0.0683	-0.2247	-0.4125	0.0114	-0.1678	-0.2475	0.074	0.0284	-0.1195	-0.2219	0.3016	-0.421	0.4523	-0.1479	0.1081	-0.0597	0.2191	-1.7496	-0.4381
0.0057	-0.0996	-0.1337	-0.3528	0.0711	-0.2105	-0.3841	0.0284	-0.1451	-0.2162	0.091	0.1024	-0.0683	-0.2304	0.2276	-0.3897	0.4495	-0.1479	0.1138	-0.0626	0.2191	-1.559	-0.4666
0.0228	-0.1394	-0.1195	-0.3328	0.0455	-0.2134	-0.3528	0.0228	-0.1138	-0.1991	0.1024	0.1309	-0.037	-0.2276	0.1906	-0.3499	0.458	-0.1109	0.1337	-0.1024	0.2134	-1.3371	-0.4666
0.0427	-0.1081	-0.0711	-0.276	0.0512	-0.1508	-0.2816	0.037	-0.0626	-0.1451	0.1337	0.1991	-0.0028	-0.2077	0.1479	-0.3385	0.4353	-0.1081	0.1479	-0.0996	0.2361	-1.0697	-0.4865
0.0626	-0.1024	-0.0484	-0.2247	0.0626	-0.1081	-0.2589	0.037	-0.0313	-0.1166	0.1366	0.2105	0.0455	-0.2219	0.1337	-0.33	0.4466	-0.1081	0.1565	-0.1366	0.2162	-0.7681	-0.5092
0.1195	-0.0427	0.0171	-0.1707	0.091	-0.074	-0.1678	0.0512	0.0284	-0.0597	0.165	0.293	0.1053	-0.2077	0.1366	-0.3129	0.4239	-0.0825	0.1821	-0.1309	0.2162	-0.4609	-0.5064
0.1536	-0.0313	0.0597	-0.1394	0.1024	-0.0228	-0.1195	0.0484	0.0768	-0.0256	0.1678	0.3044	0.1479	-0.2077	0.1366	-0.2731	0.421	-0.0512	0.1764	-0.1422	0.1935	-0.1195	-0.5405
0.1878	0.0171	0.1024	-0.0882	0.1109	0.0199	-0.0597	0.0711	0.1138	-0.0057	0.1878	0.3385	0.1849	-0.202	0.1935	-0.2617	0.4125	-0.0171	0.1593	-0.1508	0.1963	0.202	-0.5462
0.1991	0.0711	0.1479	-0.0512	0.1422	0.074	0.0057	0.0996	0.1735	0.0484	0.2077	0.3613	0.2304	-0.1991	0.2105	-0.1849	0.3954	-0.0228	0.1622	-0.1422	0.1678	0.4893	-0.5775
0.2418	0.1166	0.2077	-0.0541	0.1451	0.1081	0.0597	0.1252	0.2191	0.0967	0.1991	0.3954	0.2503	-0.1935	0.2617	-0.0853	0.3841	-0.0057	0.1422	-0.1764	0.1508	0.7567	-0.6116
0.2703	0.1707	0.2247	-0.0626	0.1878	0.1764	0.0882	0.128	0.2589	0.1195	0.2048	0.4097	0.276	-0.1764	0.3414	0.0341	0.3613	0.0228	0.1337	-0.1622	0.0967	0.9843	-0.6401
0.2845	0.2532	0.2646	-0.0114	0.1906	0.1849	0.1309	0.1536	0.2816	0.1593	0.1849	0.4324	0.293	-0.1707	0.4097	0.1963	0.3499	0.0512	0.0967	-0.1479	0.0797	1.1749	-0.6372
0.2589	0.2873	0.3016	-0.0398	0.2162	0.239	0.1565	0.1764	0.2987	0.1622	0.1821	0.4296	0.3044	-0.1764	0.4495	0.3357	0.3499	0.0256	0.0882	-0.1735	0.037	1.3542	-0.6629
0.2532	0.3328	0.2873	-0.0427	0.2333	0.2361	0.1764	0.1422	0.3101	0.1849	0.1707	0.4153	0.3129	-0.165	0.4922	0.495	0.3272	0.0398	0.0569	-0.1593	-0.0171	1.522	-0.6515
0.2219	0.3556	0.3158	-0.0939	0.2077	0.2447	0.1821	0.1593	0.3072	0.1451	0.1508	0.4068	0.2959	-0.1508	0.5348	0.6401	0.3186	0.0398	0.0228	-0.1707	-0.0541	1.6898	-0.6885
0.1963	0.3897	0.2703	-0.1138	0.2077	0.2447	0.1764	0.1422	0.2816	0.1508	0.1081	0.3556	0.2731	-0.1394	0.5491	0.7823	0.2959	0.0398	-0.0057	-0.1764	-0.0967	1.8605	-0.6885
0.2077	0.421	0.2873	-0.1422	0.2077	0.239	0.1565	0.1565	0.2703	0.1451	0.1109	0.3243	0.2532	-0.1422	0.5206	0.916	0.2902	0.0284	-0.037	-0.2105	-0.1479	2.0312	-0.6799
0.2048	0.4466	0.276	-0.1593	0.1991	0.2191	0.1593	0.1309	0.2589	0.1422	0.0768	0.3072	0.2418	-0.1337	0.495	1.0099	0.276	-0.0028	-0.0654	-0.2134	-0.1878	2.219	-0.6885
0.1678	0.4637	0.2816	-0.1935	0.1792	0.1991	0.1565	0.1337	0.2247	0.1337	0.0256	0.2503	0.202	-0.1252	0.4979	1.1294	0.2674	-0.0085	-0.1138	-0.2134	-0.2162	2.3726	-0.6429
0.2048	0.458	0.2873	-0.1963	0.1735	0.1991	0.165	0.1081	0.2162	0.1394	0.0171	0.2447	0.2105	-0.1166	0.4637	1.1835	0.2532	-0.0455	-0.1053	-0.2191	-0.2333	2.5348	-0.6145
0.2191	0.441	0.2731	-0.1963	0.1536	0.1821	0.128	0.1081	0.1622	0.1422	-0.0142	0.1991	0.1565	-0.1166	0.3983	1.2375	0.2503	-0.0597	-0.1195	-0.1991	-0.2304	2.677	-0.5747
0.2105	0.4381	0.2845	-0.1593	0.1309	0.165	0.165	0.1166	0.1309	0.1479	-0.0256	0.1764	0.1536	-0.0967	0.3499	1.266	0.2191	-0.0484	-0.1081	-0.1678	-0.2304	2.7993	-0.5235
0.2475	0.4097	0.2731	-0.128	0.1223	0.1394	0.2077	0.1081	0.1166	0.1792	-0.0284	0.1479	0.1707	-0.0825	0.3101	1.2574	0.1878	-0.0313	-0.0853	-0.1223	-0.2077	2.8875	-0.4865
0.2532	0.3727	0.2532	-0.0768	0.1109	0.1479	0.2191	0.0797	0.0939	0.2105	-0.0398	0.1337	0.1792	-0.074	0.2589	1.2261	0.1565	-0.0313	-0.0797	-0.0996	-0.202	2.9615	-0.4267
0.2219	0.3414	0.239	-0.0683	0.0711	0.1109	0.2361	0.0711	0.0484	0.2219	-0.0569	0.1081	0.1764	-0.0541	0.1508	1.1892	0.1195	-0.0085	-0.074	-0.0683	-0.2077	3.0212	-0.3641
0.1678	0.2105	0.1764	-0.0256	0.0455	0.0768	0.256	0.0825	0.0341	0.2418	-0.0569	0.1138	0.165	-0.0455	0.0427	1.0583	0.0768	-0.0085	-0.0853	-0.0484	-0.2105	3.0895	-0.2873
0.1081	0.1309	0.1024	0.0142	-0.0256	0.0512	0.2816	0.0427	-0.0199	0.2703	-0.0797	0.0654	0.1508	-0.0085	-0.0114	0.9331	0.0341	0.0142	-0.0683	-0.0398	-0.2162	3.135	-0.2191
0.0228	-0.0114	0.0057	0.0256	-0.091	-0.0085	0.2731	0.0199	-0.0683	0.2617	-0.1166	0.0199	0.1536	0.0199	-0.0996	0.7482	-0.0171	0.0199	-0.1223	-0.0199	-0.2447	3.1862	-0.1451
-0.1109	-0.1337	-0.0967	0.0057	-0.2105	-0.0683	0.2475	-0.0398	-0.1138	0.2788	-0.1422	-0.0085	0.128	0.0398	-0.1508	0.5291	-0.0654	-0.0085	-0.1252	0.0228	-0.2475	3.2488	-0.0825
-0.2105	-0.2788	-0.1849	0.0199	-0.2418	-0.1195	0.2532	-0.1053	-0.1508	0.2873	-0.1764	-0.0398	0.1309	0.0654	-0.1963	0.293	-0.128	0.0313	-0.1565	0.0341	-0.2788	3.3057	-0.0284
-0.3613	-0.4296	-0.33	0.0228	-0.3442	-0.202	0.2418	-0.1565	-0.202	0.2987	-0.1991	-0.0882	0.1166	0.091	-0.2162	0.0427	-0.1849	0.0341	-0.1906	0.0512	-0.3044	3.3512	0.0228
-0.4694	-0.5917	-0.4609	-0.0199	-0.4182	-0.2532	0.2304	-0.2048	-0.2703	0.3044	-0.2333	-0.1053	0.128	0.128	-0.256	-0.1764	-0.2503	0.0171	-0.1991	0.0711	-0.3186	3.4167	0.0711
-0.5946	-0.7055	-0.5348	-0.037	-0.5007	-0.2987	0.202	-0.2333	-0.2902	0.3186	-0.2447	-0.1422	0.1252	0.1678	-0.2418	-0.3897	-0.3243	0.0455	-0.2219	0.0882	-0.3357	3.502	0.128
-0.6771	-0.8648	-0.6116	-0.0256	-0.5547	-0.3442	0.1906	-0.2816	-0.33	0.3215	-0.256	-0.1622	0.1309	0.2077	-0.2247	-0.5946	-0.3983	0.0882	-0.2247	0.1252	-0.33	3.5902	0.1678
-0.7454	-0.9701	-0.6941	-0.0455	-0.6202	-0.3841	0.1878	-0.3328	-0.3613	0.3215	-0.2902	-0.1792	0.1565	0.2162	-0.165	-0.751	-0.4353	0.0654	-0.2447	0.1565	-0.3471	3.6727	0.1878
-0.8023	-1.0611	-0.7482	-0.0313	-0.6799	-0.3897	0.1935	-0.3727	-0.3869	0.3471	-0.2987	-0.2219	0.1536	0.2532	-0.1422	-0.9075	-0.4865	0.1109	-0.2475	0.1707	-0.3357	3.778	0.2134
-0.8051	-1.1436	-0.7994	-0.0484	-0.7197	-0.4267	0.1735	-0.3897	-0.3926	0.3499	-0.3072	-0.2162	0.1622	0.2646	-0.0654	-0.9616	-0.5235	0.1053	-0.2361	0.1906	-0.3499	3.8775	0.2191
-0.8335	-1.1977	-0.8279	-0.0484	-0.7397	-0.4182	0.1764	-0.3954	-0.3755	0.3528	-0.3328	-0.2162	0.1792	0.2816	-0.0597	-1.0384	-0.5377	0.0967	-0.256	0.1991	-0.3528	3.9942	0.2048
-0.8051	-1.2261	-0.8421	-0.0341	-0.751	-0.404	0.1707	-0.4153	-0.3385	0.3727	-0.3528	-0.1991	0.1906	0.2873	-0.0171	-1.0441	-0.5462	0.1252	-0.2731	0.1906	-0.3499	4.1051	0.1963
-0.7966	-1.2631	-0.8307	-0.0541	-0.8023	-0.4296	0.1366	-0.4495	-0.3328	0.3784	-0.33	-0.2219	0.202	0.2731	-0.0341	-1.0583	-0.5291	0.1366	-0.2845	0.2048	-0.3698	4.2275	0.1906
-0.7653	-1.266	-0.8364	-0.0455	-0.825	-0.4125	0.128	-0.4922	-0.3328	0.3698	-0.3556	-0.2191	0.2134	0.2589	-0.0626	-1.027	-0.5035	0.1252	-0.2703	0.1991	-0.3698	4.3725	0.1707
-0.7425	-1.2688	-0.8079	-0.0597	-0.8165	-0.3983	0.1337	-0.4808	-0.2902	0.3613	-0.3727	-0.2162	0.202	0.2646	-0.0853	-0.9616	-0.4893	0.1422	-0.2845	0.2333	-0.3897	4.4977	0.1309
-0.7084	-1.2404	-0.771	-0.0569	-0.8364	-0.3755	0.1223	-0.495	-0.2873	0.367	-0.4068	-0.2219	0.2134	0.2361	-0.1508	-0.9189	-0.4523	0.1081	-0.2959	0.202	-0.4011	4.6314	0.0825
-0.6742	-1.2318	-0.7681	-0.0768	-0.8279	-0.3613	0.1252	-0.5235	-0.2589	0.3385	-0.4068	-0.2532	0.202	0.2162	-0.1991	-0.8563	-0.4153	0.128	-0.3328	0.2077	-0.421	4.7139	0.0313
-0.6372	-1.2261	-0.7425	-0.0768	-0.8535	-0.3499	0.0939	-0.5263	-0.2418	0.3243	-0.4438	-0.239	0.2134	0.1906	-0.2646	-0.8051	-0.3698	0.1081	-0.3414	0.1792	-0.4466	4.7993	-0.0028
-0.5917	-1.1692	-0.6685	-0.0654	-0.8648	-0.3186	0.091	-0.5547	-0.2418	0.2959	-0.441	-0.2276	0.2077	0.1849	-0.3243	-0.734	-0.3328	0.1195	-0.3471	0.1622	-0.4637	4.8391	-0.0711
-0.5434	-1.1379	-0.6401	-0.0683	-0.8506	-0.2873	0.0967	-0.5547	-0.1878	0.2816	-0.4523	-0.2333	0.1849	0.1622	-0.3784	-0.7027	-0.293	0.1138	-0.3499	0.1878	-0.4637	4.8789	-0.1053
-0.5092	-1.0583	-0.5633	-0.0541	-0.8193	-0.2731	0.0996	-0.5519	-0.165	0.2503	-0.4751	-0.2219	0.1849	0.1366	-0.4324	-0.6515	-0.276	0.1195	-0.3471	0.1735	-0.4637	4.8789	-0.1678
-0.4153	-0.9758	-0.4808	-0.0427	-0.8051	-0.2646	0.074	-0.5291	-0.1166	0.2219	-0.4722	-0.1935	0.1821	0.128	-0.458	-0.623	-0.2532	0.1223	-0.3272	0.165	-0.4523	4.8704	-0.2304
-0.3158	-0.8819	-0.3983	-0.0484	-0.788	-0.2304	0.0683	-0.5434	-0.0853	0.1792	-0.4893	-0.2048	0.165	0.1081	-0.5092	-0.5889	-0.2276	0.0996	-0.3016	0.1593	-0.4609	4.8647	-0.2731
-0.2219	-0.7653	-0.3016	0	-0.734	-0.1622	0.0597	-0.4979	-0.0142	0.1735	-0.4722	-0.1366	0.1764	0.1109	-0.5291	-0.5747	-0.2077	0.128	-0.2902	0.1451	-0.4239	4.8704	-0.33
-0.1109	-0.6572	-0.1991	0.0114	-0.6856	-0.1024	0.0654	-0.4836	0.0284	0.1451	-0.441	-0.1166	0.1906	0.1081	-0.532	-0.5946	-0.1991	0.1422	-0.2304	0.1422	-0.421	4.9045	-0.3727
0.0085	-0.5405	-0.1223	0.0284	-0.6316	-0.0882	0.0398	-0.4666	0.0597	0.0882	-0.441	-0.1053	0.165	0.0882	-0.5263	-0.6116	-0.1593	0.1252	-0.2219	0.0882	-0.3954	4.9586	-0.4324
0.1479	-0.4182	0.0142	0.0569	-0.5633	-0.0284	0.0341	-0.4153	0.1252	0.0797	-0.3755	-0.0541	0.1764	0.0626	-0.4722	-0.6031	-0.1223	0.1309	-0.1622	0.0853	-0.3442	5.0667	-0.4637
0.2873	-0.3072	0.1166	0.0797	-0.4865	0.0313	0.0398	-0.367	0.1764	0.0654	-0.3442	0.0028	0.202	0.0512	-0.3954	-0.5804	-0.0882	0.1337	-0.128	0.0427	-0.3072	5.172	-0.4979
0.4011	-0.1935	0.2105	0.0825	-0.4438	0.0626	0.0284	-0.3328	0.2105	0.0085	-0.3385	0.0427	0.1735	0.0171	-0.3556	-0.5405	-0.0313	0.1081	-0.0967	-0.0085	-0.2902	5.3114	-0.5149
0.5064	-0.0853	0.2987	0.1195	-0.3499	0.0967	0.0341	-0.2731	0.2589	0.0028	-0.2731	0.1081	0.1906	0.0057	-0.2731	-0.4979	0.0171	0.1081	-0.0455	-0.0199	-0.2304	5.4707	-0.5348
0.6202	0.0199	0.3926	0.128	-0.2788	0.1479	0.0256	-0.2418	0.2845	-0.0199	-0.2447	0.1479	0.1707	-0.0228	-0.1821	-0.4153	0.0569	0.091	0.0455	-0.0626	-0.2048	5.6556	-0.532
0.6998	0.1166	0.4865	0.1337	-0.202	0.1849	0.0228	-0.1593	0.3727	-0.0541	-0.1707	0.2048	0.1792	-0.0541	-0.1252	-0.3272	0.1166	0.0825	0.1223	-0.0853	-0.1337	5.8803	-0.5348
0.7397	0.2105	0.5377	0.1394	-0.1223	0.2191	0.0313	-0.0853	0.4011	-0.074	-0.1166	0.2674	0.1565	-0.0768	-0.037	-0.202	0.1622	0.0313	0.1678	-0.1337	-0.0768	6.1079	-0.5405
0.7852	0.2703	0.5917	0.1195	-0.0484	0.2617	0.0284	-0.0541	0.458	-0.0967	-0.0541	0.293	0.1593	-0.0967	0.0711	-0.0569	0.2077	0.0228	0.2191	-0.1565	-0.0057	6.3469	-0.5291
0.788	0.3328	0.6543	0.1138	0.0256	0.2959	0.0142	0	0.495	-0.1223	-0.0171	0.3471	0.165	-0.1053	0.165	0.0825	0.2447	-0.0171	0.2873	-0.2105	0.0114	6.6086	-0.5348
0.7653	0.3585	0.6828	0.0967	0.0711	0.3186	0.0085	0.0455	0.5263	-0.1508	0.0199	0.4011	0.1223	-0.128	0.2674	0.2219	0.2703	-0.0455	0.3215	-0.2447	0.0427	6.8476	-0.5434
0.7766	0.4239	0.7084	0.0512	0.1223	0.3414	0.0028	0.0882	0.5434	-0.1849	0.0853	0.4438	0.1166	-0.1394	0.3641	0.3414	0.2902	-0.0654	0.3357	-0.2816	0.0797	7.1235	-0.5007
0.734	0.4239	0.6941	0.037	0.1764	0.3585	-0.0142	0.1366	0.5804	-0.2077	0.1138	0.4751	0.1109	-0.1451	0.4808	0.5206	0.3072	-0.0797	0.3784	-0.3129	0.1309	7.3824	-0.4922
0.7141	0.4523	0.7084	0.0199	0.2134	0.404	-0.0228	0.1991	0.6173	-0.2162	0.1735	0.5405	0.1024	-0.1622	0.5604	0.6685	0.3016	-0.0853	0.4068	-0.3272	0.1593	7.6555	-0.4836
0.697	0.4495	0.7254	0.0199	0.2475	0.4153	-0.037	0.2276	0.6287	-0.2247	0.202	0.5775	0.1223	-0.1337	0.6515	0.8506	0.2873	-0.091	0.4296	-0.3385	0.2048	7.9286	-0.4523
0.6572	0.4267	0.6913	-0.0341	0.2703	0.4182	-0.0654	0.2532	0.6572	-0.2247	0.2447	0.586	0.1081	-0.1451	0.6799	0.9616	0.2902	-0.0797	0.4153	-0.3556	0.2447	8.2359	-0.4068
0.66	0.4125	0.6714	-0.0597	0.2788	0.4153	-0.0797	0.2873	0.6629	-0.2617	0.2589	0.6116	0.1138	-0.1451	0.6941	1.0953	0.2873	-0.0853	0.4267	-0.3698	0.2532	8.5147	-0.3926
0.623	0.4125	0.6657	-0.0768	0.2731	0.4381	-0.1223	0.293	0.6429	-0.2617	0.256	0.6259	0.0882	-0.1252	0.6799	1.1835	0.2674	-0.1024	0.4097	-0.3897	0.2532	8.7878	-0.3841
0.623	0.3812	0.6429	-0.0797	0.2731	0.4296	-0.1479	0.2987	0.6486	-0.2902	0.2873	0.6372	0.0996	-0.1309	0.5974	1.2944	0.2703	-0.0825	0.3841	-0.3954	0.2532	9.041	-0.33
0.5718	0.3528	0.6173	-0.1166	0.2674	0.421	-0.1735	0.3101	0.6259	-0.3101	0.276	0.6259	0.091	-0.128	0.5263	1.3798	0.2617	-0.091	0.3613	-0.3897	0.2418	9.2714	-0.3215
0.5348	0.3215	0.5576	-0.1451	0.2447	0.404	-0.2304	0.2959	0.6116	-0.3215	0.2731	0.6088	0.0797	-0.1166	0.4353	1.431	0.256	-0.0654	0.3499	-0.3641	0.2219	9.462	-0.3158
0.532	0.3243	0.5405	-0.1479	0.239	0.3698	-0.2503	0.3158	0.5804	-0.3442	0.2646	0.569	0.0654	-0.1223	0.3556	1.4623	0.2447	-0.0541	0.3243	-0.3698	0.2219	9.6242	-0.3158
0.5035	0.3215	0.5035	-0.1536	0.2646	0.3869	-0.2674	0.3072	0.5491	-0.3414	0.2873	0.5832	0.0825	-0.1024	0.2447	1.4537	0.2247	-0.0228	0.3272	-0.3499	0.2134	9.7607	-0.3357
0.4466	0.2987	0.458	-0.1878	0.2191	0.33	-0.3129	0.2902	0.5064	-0.3784	0.2361	0.5149	0.0455	-0.1081	0.1622	1.3798	0.2191	-0.0455	0.276	-0.3869	0.2077	9.8774	-0.3585
0.3841	0.3129	0.4381	-0.1935	0.2247	0.3243	-0.3385	0.2987	0.4438	-0.3926	0.2276	0.4779	0.0455	-0.1053	0.0541	1.283	0.2191	-0.0256	0.2816	-0.3641	0.2219	9.9741	-0.3983
0.3471	0.3101	0.3954	-0.239	0.2077	0.2532	-0.4068	0.2674	0.3897	-0.4466	0.2077	0.404	0.0171	-0.1053	-0.0398	1.1067	0.2191	-0.0228	0.2646	-0.3556	0.1735	10.0708	-0.4751
0.2902	0.3129	0.3442	-0.2361	0.2105	0.2247	-0.4523	0.2532	0.3357	-0.4666	0.1707	0.367	-0.0114	-0.1024	-0.1195	0.9331	0.2162	-0.0541	0.2646	-0.3613	0.1508	10.1561	-0.5519
0.2304	0.2902	0.3044	-0.293	0.2048	0.1764	-0.5035	0.2475	0.2589	-0.5263	0.128	0.2816	-0.0853	-0.1081	-0.1935	0.6998	0.2191	-0.0427	0.2617	-0.4011	0.1309	10.2529	-0.606
0.1394	0.3129	0.2674	-0.3101	0.1821	0.1109	-0.5747	0.2134	0.1451	-0.5718	0.0882	0.2048	-0.1422	-0.1223	-0.2845	0.441	0.2361	-0.0996	0.2646	-0.4182	0.1081	10.378	-0.6799
0.074	0.3272	0.2361	-0.3357	0.1935	0.074	-0.6202	0.1991	0.1081	-0.606	0.0541	0.1309	-0.1821	-0.1081	-0.3016	0.2191	0.2105	-0.1223	0.2617	-0.4353	0.0996	10.4805	-0.7454
0.0541	0.367	0.2247	-0.367	0.2247	0.0313	-0.66	0.2134	0.0654	-0.6572	0.0455	0.0484	-0.2333	-0.1053	-0.3442	0.0028	0.2077	-0.1422	0.2959	-0.441	0.0882	10.5886	-0.8421
0.0512	0.4125	0.2191	-0.3698	0.2532	0.0199	-0.6828	0.1963	0.0085	-0.6828	0	-0.0028	-0.2617	-0.0825	-0.3158	-0.1109	0.1792	-0.1991	0.3016	-0.4609	0.0626	10.6853	-0.916
0.0541	0.5149	0.2503	-0.3727	0.2845	-0.0057	-0.6913	0.2304	-0.0057	-0.6913	-0.0199	-0.0313	-0.293	-0.0654	-0.2674	-0.2105	0.1451	-0.2447	0.3613	-0.4523	0.0797	10.7649	-0.99
0.0853	0.5519	0.2646	-0.3983	0.3158	-0.0341	-0.7311	0.2361	-0.0654	-0.7084	-0.0171	-0.0967	-0.3243	-0.0711	-0.2447	-0.3129	0.1366	-0.2873	0.404	-0.4751	0.0512	10.8645	-1.0668
0.1764	0.6543	0.3101	-0.4153	0.3926	-0.0284	-0.7169	0.2731	-0.1024	-0.7425	-0.0228	-0.1422	-0.3755	-0.0569	-0.1536	-0.3328	0.1109	-0.3072	0.4694	-0.4836	0.0455	10.947	-1.1692
0.1991	0.697	0.3385	-0.4068	0.4239	-0.0455	-0.7368	0.293	-0.1195	-0.751	-0.0398	-0.1878	-0.421	-0.0199	-0.0654	-0.3784	0.0853	-0.3641	0.5092	-0.4609	0.0398	11.0693	-1.2347
0.256	0.7596	0.3613	-0.4296	0.4523	-0.0541	-0.7397	0.293	-0.1565	-0.7852	-0.0569	-0.239	-0.4694	-0.037	0.0313	-0.3926	0.0797	-0.4267	0.5576	-0.4922	0.0484	11.1547	-1.32
0.3016	0.7994	0.3841	-0.4694	0.5092	-0.0825	-0.7368	0.3129	-0.1906	-0.7909	-0.0711	-0.3044	-0.5149	-0.0256	0.1451	-0.3727	0.0626	-0.4893	0.5917	-0.5035	0.0455	11.2656	-1.3883
0.3698	0.8535	0.4353	-0.4694	0.5348	-0.0768	-0.751	0.3215	-0.2276	-0.825	-0.0939	-0.3357	-0.5747	-0.0313	0.2276	-0.3641	0.0541	-0.5604	0.6287	-0.5235	0.0256	11.3794	-1.4736
0.3926	0.8791	0.4381	-0.4893	0.5547	-0.091	-0.7795	0.3528	-0.2731	-0.8648	-0.1081	-0.3869	-0.6344	-0.0228	0.2475	-0.3727	0.0626	-0.6316	0.6316	-0.5633	0.0028	11.4875	-1.5647
0.4267	0.9047	0.4609	-0.532	0.5747	-0.1195	-0.7823	0.3328	-0.3101	-0.9104	-0.1309	-0.458	-0.7141	-0.0284	0.2532	-0.3613	0.0768	-0.7112	0.6856	-0.5775	0.0028	11.5672	-1.6159
0.4068	0.8791	0.4609	-0.5633	0.5718	-0.1479	-0.8364	0.3499	-0.3784	-0.9416	-0.1508	-0.5092	-0.7823	-0.0398	0.1991	-0.3755	0.1024	-0.8023	0.7226	-0.6202	0.0114	11.6582	-1.6842
0.3983	0.8762	0.4666	-0.606	0.5491	-0.1678	-0.8364	0.3357	-0.3983	-0.9701	-0.1821	-0.5491	-0.8506	-0.0597	0.128	-0.3983	0.1223	-0.8734	0.7169	-0.6515	-0.0228	11.7294	-1.7581
0.3698	0.8705	0.4523	-0.6486	0.5576	-0.2077	-0.8506	0.3072	-0.4239	-1.0384	-0.2447	-0.606	-0.9616	-0.0882	0.074	-0.421	0.1536	-0.9644	0.7226	-0.7254	-0.0284	11.7749	-1.8179
0.3528	0.8364	0.4097	-0.6998	0.532	-0.2333	-0.9104	0.2845	-0.4865	-1.0953	-0.2873	-0.6714	-1.0412	-0.0996	-0.0228	-0.458	0.202	-1.081	0.6913	-0.7966	-0.0882	11.8375	-1.8833
0.2987	0.7766	0.4011	-0.7055	0.5007	-0.2873	-0.9274	0.2475	-0.5377	-1.1579	-0.33	-0.7283	-1.1095	-0.1138	-0.074	-0.4552	0.2276	-1.1721	0.6515	-0.8506	-0.1451	11.9029	-1.9288
0.2674	0.7425	0.3641	-0.7596	0.4666	-0.3129	-0.9729	0.2361	-0.5718	-1.1835	-0.3897	-0.7823	-1.1977	-0.1223	-0.1366	-0.5092	0.2532	-1.2546	0.6401	-0.8933	-0.202	12.0053	-1.9601
0.2191	0.6657	0.3186	-0.7994	0.421	-0.3585	-0.9815	0.202	-0.6287	-1.2375	-0.4324	-0.8506	-1.2773	-0.1309	-0.1422	-0.5064	0.2788	-1.3399	0.5747	-0.9445	-0.276	12.1219	-2.0085
0.1622	0.5946	0.2845	-0.8193	0.3812	-0.367	-1.0014	0.1622	-0.623	-1.2745	-0.5064	-0.8819	-1.3428	-0.1451	-0.1707	-0.5434	0.3101	-1.4082	0.5007	-1.027	-0.3528	12.2841	-2.0312
0.165	0.5434	0.293	-0.8165	0.3556	-0.4097	-1.0241	0.1422	-0.6685	-1.3058	-0.5377	-0.9303	-1.4025	-0.1565	-0.1337	-0.5491	0.3129	-1.4537	0.4694	-1.0668	-0.4097	12.4576	-2.0426
0.1337	0.4523	0.2191	-0.8648	0.3101	-0.4353	-1.0611	0.1081	-0.697	-1.3399	-0.5804	-0.953	-1.431	-0.1622	-0.0967	-0.5604	0.3442	-1.5049	0.404	-1.101	-0.458	12.6596	-2.0341
0.1195	0.4068	0.1963	-0.8591	0.2731	-0.4353	-1.0412	0.0654	-0.6941	-1.3741	-0.5804	-0.9559	-1.4509	-0.1878	-0.0654	-0.5747	0.3812	-1.5277	0.3499	-1.1493	-0.5064	12.8758	-2.0455
0.0797	0.3385	0.165	-0.8591	0.2418	-0.4324	-1.0327	0.0626	-0.7027	-1.3598	-0.6031	-0.9701	-1.4623	-0.1906	-0.0484	-0.5661	0.3841	-1.5192	0.3272	-1.1579	-0.5434	13.0835	-2.0455
0.0512	0.2731	0.1479	-0.8478	0.2134	-0.4324	-1.0611	0.0512	-0.7112	-1.3627	-0.6202	-0.9502	-1.4936	-0.2048	-0.037	-0.5661	0.3954	-1.5476	0.2845	-1.1863	-0.6031	13.3225	-2.0085
0.0398	0.239	0.0882	-0.8591	0.1821	-0.4637	-1.0583	0.0313	-0.697	-1.3485	-0.6173	-0.9217	-1.4793	-0.2105	-0.0341	-0.5576	0.3897	-1.5448	0.239	-1.1948	-0.6344	13.5273	-2.0028
-0.0028	0.2048	0.0455	-0.8421	0.1735	-0.4722	-1.0554	0.0085	-0.6913	-1.3371	-0.623	-0.9246	-1.4623	-0.2048	-0.0398	-0.5462	0.3983	-1.5192	0.2048	-1.2091	-0.7112	13.7008	-1.9573
-0.0569	0.1735	0.0114	-0.8222	0.1508	-0.4808	-1.0469	0.0142	-0.6828	-1.3086	-0.6173	-0.8876	-1.431	-0.1821	-0.0455	-0.4922	0.3755	-1.4822	0.1735	-1.1977	-0.7226	13.8573	-1.9317
-0.0882	0.1479	-0.0057	-0.7937	0.1309	-0.4609	-1.0213	-0.0114	-0.6771	-1.2688	-0.6316	-0.8677	-1.3854	-0.1678	-0.074	-0.4666	0.3585	-1.4594	0.1536	-1.1692	-0.751	13.9939	-1.8748
-0.1678	0.1138	-0.0967	-0.8165	0.128	-0.4779	-1.0298	-0.0341	-0.66	-1.3001	-0.6344	-0.8705	-1.3485	-0.165	-0.1223	-0.4552	0.3328	-1.4082	0.091	-1.155	-0.7738	14.0792	-1.8492
-0.239	0.1195	-0.1394	-0.8136	0.091	-0.4979	-1.0327	-0.0541	-0.6828	-1.2318	-0.6401	-0.8791	-1.3115	-0.1337	-0.1622	-0.441	0.2873	-1.3598	0.0711	-1.1266	-0.8193	14.156	-1.7723
-0.3186	0.0939	-0.1735	-0.7909	0.1109	-0.495	-1.0327	-0.0711	-0.6685	-1.2204	-0.6372	-0.8563	-1.2802	-0.1053	-0.2191	-0.4666	0.2276	-1.2802	0.0484	-1.0867	-0.8449	14.2101	-1.7325
-0.3954	0.091	-0.2475	-0.8136	0.0569	-0.5291	-1.0554	-0.091	-0.7226	-1.2005	-0.6856	-0.8762	-1.2432	-0.0825	-0.3044	-0.5263	0.1821	-1.192	0	-1.064	-0.8933	14.267	-1.6728
-0.4353	0.1394	-0.2532	-0.7852	0.091	-0.5405	-1.0213	-0.1081	-0.7226	-1.1436	-0.7027	-0.8648	-1.1778	-0.0512	-0.3784	-0.5747	0.1109	-1.1237	-0.0256	-1.0014	-0.9274	14.3011	-1.5903
-0.4808	0.1792	-0.2845	-0.771	0.1252	-0.5519	-1.0099	-0.1081	-0.7084	-1.1095	-0.7055	-0.8677	-1.1209	-0.0114	-0.4808	-0.6657	0.037	-1.0128	-0.0427	-0.9388	-0.9274	14.3865	-1.5504
-0.4808	0.2959	-0.2589	-0.7539	0.1394	-0.5434	-0.9872	-0.1223	-0.7254	-1.0441	-0.7112	-0.8791	-1.0867	0.0228	-0.569	-0.7596	-0.037	-0.916	-0.0541	-0.8876	-0.936	14.4889	-1.4992
-0.4381	0.367	-0.2447	-0.7112	0.1678	-0.5064	-0.9388	-0.1081	-0.7311	-1.0042	-0.7368	-0.8876	-1.0185	0.0597	-0.66	-0.8506	-0.1024	-0.8307	-0.0597	-0.8392	-0.9473	14.6226	-1.4253
-0.3897	0.4666	-0.1963	-0.6429	0.2361	-0.495	-0.899	-0.1053	-0.7112	-0.9189	-0.7397	-0.8591	-0.9644	0.0996	-0.6799	-0.936	-0.1849	-0.7112	-0.0512	-0.7681	-0.9673	14.7506	-1.394
-0.3499	0.623	-0.1081	-0.586	0.3385	-0.4324	-0.8478	-0.0853	-0.6941	-0.8819	-0.7226	-0.8563	-0.8933	0.1309	-0.7368	-1.0327	-0.2646	-0.586	-0.0541	-0.6941	-0.9473	14.9184	-1.3342
-0.256	0.7567	-0.0142	-0.5035	0.4068	-0.4011	-0.7909	-0.0512	-0.6941	-0.7852	-0.7397	-0.8563	-0.8136	0.1707	-0.734	-1.1038	-0.3272	-0.4808	-0.037	-0.6202	-0.9388	15.0778	-1.2944
-0.1422	0.8791	0.0597	-0.4722	0.4722	-0.3585	-0.7482	-0.0541	-0.6828	-0.7368	-0.7482	-0.8648	-0.7624	0.1963	-0.7169	-1.1778	-0.3926	-0.3755	-0.0683	-0.5832	-0.9587	15.274	-1.2802
-0.0484	1.0071	0.165	-0.4011	0.5462	-0.3186	-0.6885	-0.0284	-0.7226	-0.6685	-0.7681	-0.8791	-0.6771	0.2191	-0.6657	-1.2261	-0.441	-0.2617	-0.0597	-0.4922	-0.9388	15.4732	-1.2432
0.0512	1.1379	0.2646	-0.3585	0.6003	-0.2788	-0.6401	-0.0569	-0.7197	-0.6259	-0.8222	-0.9132	-0.6372	0.2703	-0.6429	-1.2859	-0.4979	-0.1422	-0.1109	-0.4438	-0.953	15.6638	-1.2318
0.1479	1.2432	0.3499	-0.3101	0.6458	-0.2503	-0.6003	-0.0654	-0.7311	-0.5661	-0.8506	-0.953	-0.5974	0.2873	-0.5434	-1.3485	-0.5547	-0.0142	-0.1252	-0.3897	-0.9473	15.8572	-1.2347
0.2077	1.3086	0.3812	-0.2816	0.6429	-0.2617	-0.5775	-0.1223	-0.7994	-0.5547	-0.9274	-1.0327	-0.5576	0.3158	-0.4722	-1.3684	-0.623	0.1166	-0.1821	-0.3385	-0.9843	16.0535	-1.2347
0.2361	1.3257	0.4438	-0.293	0.6259	-0.2987	-0.5718	-0.1878	-0.8734	-0.532	-1.027	-1.1294	-0.5519	0.3272	-0.4011	-1.4196	-0.6543	0.239	-0.2532	-0.293	-1.0611	16.2214	-1.2176
0.2361	1.3371	0.458	-0.2987	0.5661	-0.3243	-0.5491	-0.2731	-0.9673	-0.5348	-1.1408	-1.2091	-0.5235	0.3784	-0.3585	-1.4708	-0.7254	0.3784	-0.3442	-0.2589	-1.1323	16.3807	-1.2261
0.2105	1.2887	0.4552	-0.33	0.4751	-0.4011	-0.5804	-0.4239	-1.0867	-0.5889	-1.2717	-1.3342	-0.5291	0.3983	-0.2959	-1.5192	-0.7795	0.5007	-0.4865	-0.2304	-1.2148	16.5485	-1.2233
0.1593	1.1892	0.421	-0.3727	0.3328	-0.4779	-0.6173	-0.5633	-1.1977	-0.6116	-1.4111	-1.4679	-0.5235	0.4239	-0.2276	-1.5561	-0.8335	0.6259	-0.6145	-0.2162	-1.283	16.6851	-1.2176
0.1138	1.0754	0.3499	-0.4267	0.1821	-0.5804	-0.6629	-0.7027	-1.3342	-0.6401	-1.5675	-1.596	-0.5178	0.4637	-0.1565	-1.5391	-0.9018	0.7596	-0.7397	-0.1792	-1.3883	16.8217	-1.246
0.0057	0.9189	0.2674	-0.4893	0.0142	-0.7226	-0.7169	-0.899	-1.4907	-0.6714	-1.7467	-1.7069	-0.5121	0.4751	-0.0654	-1.5448	-0.9416	0.8705	-0.9018	-0.1565	-1.4736	16.9383	-1.2489
-0.0797	0.7425	0.1764	-0.5775	-0.1792	-0.8506	-0.751	-1.0924	-1.6586	-0.7226	-1.926	-1.8719	-0.5092	0.4979	-0.0114	-1.5021	-0.9929	1.0185	-1.0498	-0.1479	-1.6073	17.0492	-1.2546
-0.1963	0.5235	0.0882	-0.6543	-0.4011	-0.9872	-0.8051	-1.3143	-1.8435	-0.7596	-2.0938	-2.0056	-0.4893	0.5235	0.0853	-1.4679	-1.0384	1.1379	-1.2261	-0.1195	-1.7098	17.1602	-1.2574
-0.276	0.2731	-0.0541	-0.734	-0.6629	-1.1465	-0.8677	-1.5362	-2.0056	-0.8222	-2.3043	-2.1479	-0.4694	0.5491	0.165	-1.4111	-1.081	1.2688	-1.3741	-0.0882	-1.852	17.2569	-1.2261
-0.3841	0	-0.2134	-0.8876	-0.8933	-1.2859	-0.9104	-1.7467	-2.1735	-0.8279	-2.458	-2.273	-0.4239	0.5775	0.2617	-1.3229	-1.1294	1.4452	-1.559	-0.037	-1.9658	17.3479	-1.246
-0.5263	-0.293	-0.3869	-1.0241	-1.192	-1.4623	-1.0099	-1.9914	-2.3584	-0.8648	-2.6429	-2.3897	-0.3841	0.5946	0.2902	-1.2717	-1.1579	1.6045	-1.7382	-0.0199	-2.0853	17.4418	-1.2233
-0.66	-0.5832	-0.5718	-1.1635	-1.4452	-1.6244	-1.0611	-2.1905	-2.5063	-0.8904	-2.805	-2.4949	-0.3101	0.6088	0.3641	-1.2005	-1.2005	1.7723	-1.889	0.0597	-2.1792	17.5215	-1.2062
-0.8392	-0.9217	-0.7909	-1.3257	-1.7581	-1.8008	-1.1379	-2.4324	-2.7254	-0.9047	-2.9615	-2.6144	-0.239	0.6116	0.3613	-1.1749	-1.2091	1.943	-2.0284	0.0996	-2.3129	17.6211	-1.1948
-1.0298	-1.2603	-1.0241	-1.4822	-2.017	-1.9743	-1.2347	-2.6343	-2.8875	-0.9189	-3.081	-2.714	-0.165	0.6344	0.3755	-1.1493	-1.2517	2.1507	-2.1763	0.1821	-2.4011	17.7121	-1.1664
-1.2318	-1.6159	-1.2688	-1.6586	-2.293	-2.1735	-1.3143	-2.8363	-3.0468	-0.9104	-3.1777	-2.7737	-0.0455	0.6401	0.2987	-1.1579	-1.2546	2.3641	-2.3043	0.2532	-2.4722	17.8145	-1.118
-1.4708	-1.9544	-1.5277	-1.8349	-2.5547	-2.3328	-1.3627	-2.9985	-3.1521	-0.8961	-3.2744	-2.8335	0.074	0.66	0.2247	-1.1806	-1.2916	2.5803	-2.4295	0.3328	-2.5291	17.8885	-1.0953
-1.7581	-2.2986	-1.7923	-2.0227	-2.7993	-2.5092	-1.4452	-3.1834	-3.2887	-0.862	-3.3399	-2.8619	0.2048	0.6799	0.0597	-1.229	-1.2973	2.8363	-2.5433	0.458	-2.5604	17.9738	-1.0498
-1.9942	-2.6087	-2.0284	-2.182	-2.9985	-2.6201	-1.4679	-3.2801	-3.3598	-0.7909	-3.337	-2.8306	0.4011	0.6799	-0.1138	-1.2375	-1.3428	3.081	-2.6087	0.5348	-2.5547	18.0165	-1.0042
-2.2787	-2.9416	-2.3129	-2.3555	-3.2204	-2.7766	-1.5135	-3.3825	-3.448	-0.7368	-3.3228	-2.7823	0.5889	0.6828	-0.3812	-1.3143	-1.3513	3.3569	-2.6713	0.6458	-2.5547	18.0393	-0.9473
-2.549	-3.2147	-2.5604	-2.4949	-3.3939	-2.8705	-1.5277	-3.4224	-3.4764	-0.6572	-3.2659	-2.7197	0.7994	0.7055	-0.6543	-1.3627	-1.3854	3.613	-2.714	0.7738	-2.5092	18.0336	-0.8961
-2.8363	-3.4878	-2.8022	-2.6599	-3.5305	-2.953	-1.559	-3.4394	-3.4764	-0.5348	-3.1521	-2.5945	1.027	0.7368	-0.936	-1.4196	-1.4167	3.9288	-2.7197	0.9047	-2.4295	17.9966	-0.8535
-3.0895	-3.741	-3.044	-2.7993	-3.6386	-3.007	-1.5732	-3.4281	-3.4565	-0.4267	-3.0099	-2.4494	1.283	0.7596	-1.2347	-1.4594	-1.4452	4.1819	-2.7168	1.027	-2.3413	17.9539	-0.7966
-3.3399	-3.9515	-3.2687	-2.9359	-3.7268	-3.0696	-1.596	-3.374	-3.4195	-0.3215	-2.8477	-2.3299	1.5106	0.7539	-1.5277	-1.5192	-1.4765	4.4693	-2.6742	1.1692	-2.2105	17.8885	-0.7397
-3.5874	-4.1535	-3.4793	-3.0981	-3.815	-3.1208	-1.6301	-3.3228	-3.3598	-0.2503	-2.6884	-2.1649	1.7268	0.7766	-1.8378	-1.6045	-1.4964	4.7168	-2.6514	1.2745	-2.0711	17.8202	-0.6885
-3.7894	-4.3071	-3.6642	-3.2346	-3.8576	-3.1521	-1.6756	-3.2374	-3.3	-0.1479	-2.4779	-1.9942	1.9288	0.7738	-2.1223	-1.687	-1.5135	4.9956	-2.5689	1.3798	-1.8918	17.7434	-0.6287
-3.9657	-4.4209	-3.8292	-3.3399	-3.8719	-3.1521	-1.6927	-3.1293	-3.2118	-0.0597	-2.256	-1.8008	2.145	0.7852	-2.3897	-1.7382	-1.5192	5.2061	-2.4722	1.4736	-1.6898	17.6495	-0.5917
-4.0994	-4.475	-3.9686	-3.4565	-3.8662	-3.1549	-1.7098	-2.9843	-3.1009	0.037	-2.0028	-1.6159	2.3413	0.788	-2.6827	-1.8236	-1.5248	5.4479	-2.3726	1.5846	-1.4822	17.5585	-0.5604
-4.2502	-4.5802	-4.1307	-3.5902	-3.8662	-3.1777	-1.8008	-2.8762	-3.0497	0.0683	-1.7951	-1.4566	2.4864	0.7596	-3.0184	-1.9686	-1.4765	5.6385	-2.2873	1.6244	-1.2887	17.4646	-0.5633
-4.3754	-4.6058	-4.2388	-3.6784	-3.8434	-3.1606	-1.8548	-2.7481	-2.9416	0.1195	-1.559	-1.2745	2.64	0.7596	-3.3626	-2.1223	-1.4679	5.8348	-2.1678	1.687	-1.0697	17.3736	-0.569
-4.4835	-4.6343	-4.3612	-3.8093	-3.832	-3.1891	-1.9544	-2.6628	-2.8904	0.1252	-1.3399	-1.1465	2.7282	0.7283	-3.7125	-2.31	-1.4025	5.9628	-2.0568	1.724	-0.8449	17.2654	-0.5889
-4.5518	-4.6684	-4.4778	-3.9003	-3.8576	-3.2175	-2.0483	-2.549	-2.8335	0.1138	-1.1607	-1.0241	2.7794	0.697	-4.0596	-2.5604	-1.3371	6.0453	-1.9459	1.7154	-0.6515	17.1716	-0.6202
-4.6713	-4.6599	-4.5859	-4.0113	-3.8519	-3.2545	-2.1763	-2.4523	-2.8221	0.0797	-0.9929	-0.916	2.8278	0.6572	-4.3669	-2.8193	-1.2745	6.1221	-1.8406	1.6898	-0.4466	17.0777	-0.6685
-4.7851	-4.694	-4.731	-4.108	-3.8662	-3.3342	-2.3015	-2.3954	-2.8193	0.0085	-0.8364	-0.8734	2.8335	0.6287	-4.6997	-3.1578	-1.2148	6.1847	-1.7354	1.6671	-0.2674	17.0094	-0.7397
-4.9017	-4.7225	-4.8789	-4.2275	-3.906	-3.4423	-2.4636	-2.3954	-2.8562	-0.128	-0.7539	-0.8591	2.7737	0.5974	-5.061	-3.5248	-1.1436	6.162	-1.6614	1.6216	-0.1166	16.9554	-0.8222
-5.0439	-4.7395	-5.0326	-4.327	-3.9885	-3.5475	-2.6372	-2.4011	-2.933	-0.2703	-0.7169	-0.8819	2.6713	0.5661	-5.3341	-3.8832	-1.0953	6.1307	-1.6159	1.5419	-0.0085	16.8928	-0.9018
-5.1833	-4.7851	-5.1919	-4.4636	-4.0881	-3.7069	-2.8335	-2.4523	-3.0298	-0.421	-0.6856	-0.9303	2.5291	0.532	-5.6158	-4.2644	-1.0355	6.0567	-1.5504	1.4395	0.0797	16.8643	-0.9872
-5.3654	-4.8363	-5.391	-4.6172	-4.2132	-3.8775	-3.0696	-2.549	-3.1862	-0.6572	-0.7112	-1.0725	2.3356	0.5035	-5.8917	-4.6684	-0.9815	5.9827	-1.5078	1.3314	0.1565	16.8615	-1.0782
-5.5446	-4.9102	-5.5702	-4.7282	-4.3128	-4.0852	-3.2744	-2.64	-3.3626	-0.8705	-0.771	-1.2062	2.1479	0.4865	-6.0652	-5.0354	-0.9502	5.832	-1.4793	1.2091	0.2048	16.8529	-1.1579
-5.7039	-4.9813	-5.7864	-4.8903	-4.4721	-4.3185	-3.5447	-2.7908	-3.5817	-1.118	-0.8762	-1.3911	1.8918	0.4609	-6.2473	-5.4024	-0.9075	5.7096	-1.5078	1.0839	0.2219	16.9013	-1.2688
-5.849	-5.0411	-5.96	-4.9899	-4.6001	-4.5461	-3.7438	-2.9416	-3.8036	-1.3968	-0.9616	-1.5647	1.6073	0.4495	-6.3696	-5.7068	-0.8961	5.5247	-1.5049	0.936	0.2447	16.9667	-1.3456
-6.0226	-5.1378	-6.1591	-5.1378	-4.7708	-4.7936	-3.9856	-3.1009	-4.0568	-1.687	-1.1351	-1.8179	1.2944	0.441	-6.4607	-5.9827	-0.8762	5.3256	-1.559	0.7738	0.2304	17.072	-1.4423
-6.1421	-5.2004	-6.3583	-5.2516	-4.9387	-5.0411	-4.2104	-3.3	-4.3327	-1.9573	-1.3001	-2.0625	0.9843	0.4523	-6.5233	-6.2302	-0.8762	5.1236	-1.5903	0.6202	0.202	17.2029	-1.4964
-6.2558	-5.2601	-6.5432	-5.3768	-5.0951	-5.3028	-4.4494	-3.5106	-4.6257	-2.2844	-1.5021	-2.3612	0.6372	0.4495	-6.5233	-6.3839	-0.8677	4.8789	-1.6842	0.458	0.1337	17.3479	-1.5647
-6.3753	-5.3512	-6.7167	-5.482	-5.2829	-5.5731	-4.6713	-3.7438	-4.9273	-2.5945	-1.7098	-2.6486	0.2816	0.4523	-6.4977	-6.5602	-0.8848	4.5859	-1.7553	0.293	0.037	17.5329	-1.613
-6.418	-5.3882	-6.8277	-5.5333	-5.4052	-5.7864	-4.8476	-3.9316	-5.1976	-2.8705	-1.926	-2.9188	-0.074	0.4666	-6.4379	-6.6029	-0.9047	4.3157	-1.8179	0.1508	-0.0512	17.7206	-1.6728
-6.4436	-5.4166	-6.9358	-5.6072	-5.5361	-5.9884	-5.0212	-4.1165	-5.4593	-3.1549	-2.1678	-3.2346	-0.4353	0.4836	-6.2928	-6.6371	-0.9388	4.0397	-1.9459	-0.0142	-0.1792	17.9511	-1.6842
-6.4891	-5.465	-7.0524	-5.63	-5.6243	-6.1819	-5.1407	-4.2986	-5.721	-3.411	-2.3982	-3.5162	-0.8023	0.5064	-6.1477	-6.6655	-0.9758	3.7296	-2.0455	-0.1366	-0.3072	18.19	-1.6927
-6.4749	-5.4451	-7.1008	-5.6556	-5.6954	-6.3127	-5.2488	-4.4465	-5.9429	-3.6414	-2.5974	-3.7666	-1.1436	0.5178	-5.9202	-6.6115	-0.9985	3.4025	-2.108	-0.3072	-0.4438	18.4461	-1.6955
-6.4578	-5.4223	-7.0922	-5.6101	-5.7096	-6.4152	-5.3028	-4.5688	-6.1193	-3.8548	-2.7908	-3.9856	-1.4338	0.5434	-5.6869	-6.5489	-1.0327	3.081	-2.2133	-0.421	-0.5946	18.7249	-1.6955
-6.3981	-5.3569	-7.0524	-5.5589	-5.6897	-6.4749	-5.3426	-4.6513	-6.2388	-4.0226	-2.9473	-4.1763	-1.7325	0.5491	-5.3967	-6.4152	-1.0754	2.7624	-2.2759	-0.5206	-0.697	18.9923	-1.6614
-6.3241	-5.2829	-6.987	-5.4365	-5.6271	-6.4578	-5.3227	-4.694	-6.3184	-4.1421	-3.0753	-4.3356	-1.9886	0.5576	-5.1065	-6.2672	-1.101	2.475	-2.3442	-0.6145	-0.8563	19.2768	-1.6443
-6.2246	-5.152	-6.8533	-5.3	-5.519	-6.3839	-5.2573	-4.6883	-6.3213	-4.2275	-3.1606	-4.4294	-2.2076	0.5889	-4.8135	-6.0624	-1.1294	2.1678	-2.3925	-0.6885	-0.9502	19.5669	-1.6045
-6.088	-5.0155	-6.6996	-5.1037	-5.3483	-6.29	-5.1492	-4.6314	-6.2814	-4.2588	-3.2062	-4.4863	-2.4011	0.5917	-4.4977	-5.8234	-1.1607	1.8634	-2.3868	-0.7397	-1.027	19.8486	-1.5305
-5.9031	-4.822	-6.4607	-4.8903	-5.1378	-6.0795	-4.9927	-4.5034	-6.1819	-4.2588	-3.2232	-4.4778	-2.5376	0.6173	-4.1706	-5.5105	-1.1892	1.5931	-2.3783	-0.771	-1.1067	20.1331	-1.4793
-5.7153	-4.6201	-6.1904	-4.6684	-4.9159	-5.8576	-4.8391	-4.3868	-6.0169	-4.2303	-3.2204	-4.4579	-2.6855	0.6145	-3.8548	-5.189	-1.2119	1.3029	-2.3555	-0.8079	-1.192	20.4517	-1.3968
-5.4564	-4.3612	-5.8576	-4.3839	-4.5916	-5.5702	-4.5802	-4.1763	-5.7751	-4.1478	-3.1151	-4.3469	-2.7538	0.6344	-3.5362	-4.7651	-1.2404	1.0156	-2.3043	-0.8193	-1.2261	20.7618	-1.3143
-5.1947	-4.1137	-5.5076	-4.0966	-4.2929	-5.2317	-4.3754	-3.9487	-5.5333	-4.0397	-3.0412	-4.2189	-2.8306	0.6316	-3.2261	-4.3526	-1.2404	0.7226	-2.2218	-0.8364	-1.2404	21.1032	-1.2404
-4.8619	-3.795	-5.0895	-3.7637	-3.9145	-4.8391	-4.0909	-3.6784	-5.1947	-3.9288	-2.8619	-4.0511	-2.8534	0.6543	-2.9074	-3.8491	-1.2546	0.458	-2.1422	-0.8193	-1.2404	21.4502	-1.1778
-4.4863	-3.4764	-4.6286	-3.4195	-3.5362	-4.4067	-3.7808	-3.3626	-4.8078	-3.7524	-2.6827	-3.8434	-2.8676	0.6429	-2.5518	-3.3484	-1.2517	0.1565	-2.0284	-0.8279	-1.2119	21.8002	-1.1294
-4.0767	-3.1663	-4.1478	-3.0582	-3.1094	-3.9401	-3.4736	-2.9928	-4.401	-3.5475	-2.4807	-3.6044	-2.8648	0.6458	-2.1735	-2.7937	-1.2489	-0.1252	-1.8805	-0.788	-1.155	22.1159	-1.0924
-3.63	-2.7538	-3.6329	-2.6599	-2.6884	-3.4281	-3.1521	-2.6372	-3.9572	-3.3541	-2.2105	-3.3057	-2.8193	0.6372	-1.8036	-2.2332	-1.2375	-0.3983	-1.6898	-0.7738	-1.0697	22.4374	-1.0668
-3.1635	-2.3811	-3.0924	-2.2588	-2.2275	-2.9302	-2.8079	-2.2304	-3.4764	-3.1549	-1.9544	-3.0127	-2.7965	0.6372	-1.4253	-1.6955	-1.2347	-0.6941	-1.5305	-0.7596	-0.9758	22.7418	-1.0498
-2.6685	-1.9999	-2.5405	-1.8605	-1.7894	-2.3954	-2.4636	-1.8008	-2.9899	-2.9131	-1.6557	-2.677	-2.7396	0.6287	-1.0611	-1.1692	-1.2233	-0.9701	-1.3485	-0.734	-0.8762	23.0405	-1.064
-2.1649	-1.6187	-1.9829	-1.4964	-1.3513	-1.8719	-2.1251	-1.3883	-2.4693	-2.6685	-1.3342	-2.3499	-2.6599	0.623	-0.697	-0.6429	-1.2091	-1.2688	-1.155	-0.7397	-0.7738	23.3278	-1.0754
-1.6443	-1.2489	-1.4139	-1.0924	-0.9047	-1.3542	-1.7723	-0.9502	-1.9658	-2.4011	-1.0355	-1.9743	-2.5547	0.623	-0.3272	-0.1764	-1.2091	-1.522	-0.9416	-0.7027	-0.6828	23.6095	-1.0867
-1.1863	-0.8364	-0.899	-0.734	-0.4865	-0.8193	-1.4196	-0.5547	-1.4566	-2.1592	-0.7112	-1.6159	-2.4779	0.6259	0.0398	0.2987	-1.2119	-1.7723	-0.7539	-0.6515	-0.5775	23.8541	-1.101
-0.6998	-0.4893	-0.3556	-0.3869	-0.091	-0.3243	-1.101	-0.1792	-0.9587	-1.8833	-0.4011	-1.2489	-2.3499	0.6259	0.3841	0.6998	-1.2062	-2.0028	-0.5462	-0.6173	-0.4836	24.0846	-1.1379
-0.2503	-0.1166	0.1479	-0.0569	0.3158	0.1593	-0.7653	0.239	-0.4495	-1.6159	-0.0853	-0.8392	-2.1763	0.6202	0.734	1.1237	-1.229	-2.2304	-0.3499	-0.5604	-0.3812	24.2638	-1.1408
0.1593	0.2418	0.6401	0.2845	0.6828	0.6316	-0.4466	0.6116	0.0341	-1.32	0.2048	-0.4694	-2.0284	0.6515	1.0241	1.5192	-1.2603	-2.421	-0.1735	-0.4865	-0.3072	24.4174	-1.1351
0.6145	0.6116	1.0867	0.569	1.0469	1.0924	-0.1166	0.9758	0.5263	-1.0213	0.4808	-0.0797	-1.8378	0.6543	1.3314	1.8662	-1.2859	-2.5575	0.0085	-0.4068	-0.2247	24.5398	-1.155
0.9985	0.9616	1.5504	0.8563	1.357	1.5192	0.1707	1.3285	0.9815	-0.7112	0.7937	0.2845	-1.6301	0.6885	1.6017	2.1649	-1.3342	-2.7083	0.1764	-0.3215	-0.1593	24.6621	-1.1863
1.3826	1.2973	1.9459	1.1095	1.6927	1.9146	0.4666	1.6159	1.4224	-0.4353	1.0498	0.6543	-1.431	0.7141	1.8691	2.4352	-1.3798	-2.8193	0.3243	-0.239	-0.1109	24.7787	-1.2005
1.7723	1.613	2.3527	1.3655	1.9686	2.2901	0.7425	1.9174	1.8463	-0.1508	1.2944	0.9985	-1.2176	0.7425	2.108	2.677	-1.4452	-2.8904	0.4751	-0.1252	-0.0797	24.9011	-1.246
2.0881	1.9487	2.6941	1.5675	2.2446	2.64	0.9929	2.182	2.2304	0.1109	1.5106	1.3428	-1.0241	0.7653	2.3186	2.8591	-1.4936	-2.9786	0.6116	-0.0541	-0.0455	25.049	-1.2717
2.4181	2.2446	3.0298	1.7695	2.4978	2.9757	1.2517	2.421	2.586	0.3926	1.7297	1.6642	-0.8222	0.7994	2.5547	3.0212	-1.559	-3.0184	0.7425	0.0597	-0.0085	25.1628	-1.3029
2.7254	2.512	3.3342	1.9317	2.7225	3.2659	1.4765	2.6372	2.916	0.6401	1.8975	1.9516	-0.606	0.825	2.7112	3.1862	-1.6244	-3.0497	0.8392	0.165	-0.0313	25.3107	-1.3342
3.0269	2.7937	3.63	2.108	2.9274	3.5162	1.6898	2.8392	3.2005	0.8677	2.0597	2.2304	-0.4097	0.8762	2.8676	3.3171	-1.7012	-3.0838	0.9246	0.2503	-0.0341	25.4473	-1.3854
3.2716	3.007	3.8719	2.273	3.1094	3.7381	1.889	2.9444	3.4366	1.0896	2.1592	2.458	-0.2276	0.9104	3.0099	3.3569	-1.7638	-3.0838	1.0014	0.3499	-0.0569	25.5838	-1.4281
3.5305	3.2318	4.0938	2.4096	3.2431	3.9401	2.0739	3.0668	3.6812	1.2887	2.2503	2.6543	-0.0541	0.9416	3.0696	3.4167	-1.8292	-3.0724	1.0498	0.4438	-0.1081	25.7261	-1.4708
3.7438	3.4195	4.2445	2.5063	3.3598	4.1165	2.2332	3.1692	3.8576	1.4964	2.293	2.8164	0.1195	0.9673	3.1208	3.4195	-1.8861	-3.0383	1.0782	0.5064	-0.1878	25.8626	-1.5277
3.9259	3.5589	4.3953	2.586	3.4593	4.2388	2.3641	3.1891	3.9743	1.6443	2.2873	2.9444	0.2731	1.0014	3.1464	3.3825	-1.9715	-3.0013	1.0554	0.6088	-0.2987	26.0134	-1.5561
4.0397	3.6983	4.5148	2.7112	3.5077	4.3469	2.4836	3.1948	4.1108	1.798	2.2674	3.0554	0.4296	1.0498	3.1237	3.3256	-2.0625	-2.9274	1.0327	0.6828	-0.4182	26.1812	-1.6045
4.1336	3.7723	4.5916	2.7908	3.5447	4.438	2.5974	3.1549	4.1819	1.943	2.2133	3.1208	0.5832	1.0953	3.1237	3.2261	-2.145	-2.8392	0.9673	0.7681	-0.5661	26.3434	-1.6301
4.1848	3.8633	4.64	2.9074	3.5589	4.4892	2.7339	3.1322	4.2474	2.0824	2.145	3.1635	0.7027	1.1635	3.0355	3.1066	-2.2531	-2.7538	0.8819	0.8449	-0.734	26.5255	-1.6244
4.2132	3.9231	4.6627	2.97	3.5703	4.5546	2.8363	3.0668	4.2787	2.219	2.0654	3.209	0.8449	1.2204	2.9587	2.9757	-2.3726	-2.6372	0.8136	0.9616	-0.8734	26.6933	-1.6045
4.199	3.98	4.6627	3.0668	3.5788	4.6058	2.9615	2.9956	4.3071	2.3442	1.9601	3.2005	1.0128	1.2887	2.8932	2.8136	-2.5149	-2.4523	0.7169	1.0583	-1.064	26.8384	-1.5789
4.1649	4.0369	4.7054	3.1493	3.5532	4.6286	3.0525	2.9131	4.2986	2.4836	1.8349	3.1919	1.1493	1.3513	2.7453	2.6173	-2.64	-2.2617	0.5974	1.1692	-1.2318	26.9835	-1.5277
4.1336	4.0482	4.6769	3.2488	3.5333	4.657	3.1493	2.8193	4.2787	2.5945	1.7012	3.1606	1.3001	1.4338	2.6742	2.438	-2.788	-2.0796	0.4495	1.2802	-1.4338	27.0887	-1.4708
4.0568	4.0767	4.6656	3.3484	3.4963	4.6798	3.2659	2.7254	4.2559	2.6998	1.5618	3.1037	1.4566	1.4879	2.5575	2.256	-2.9217	-1.8748	0.3243	1.3712	-1.6159	27.1912	-1.3741
4.0283	4.1137	4.6684	3.465	3.4992	4.7026	3.3996	2.6372	4.2161	2.8249	1.4082	3.0497	1.5874	1.5675	2.4636	2.0767	-3.0753	-1.6329	0.2105	1.5049	-1.7695	27.2907	-1.2916
3.9885	4.1108	4.6883	3.5902	3.4565	4.7054	3.4906	2.5063	4.145	2.9188	1.2603	2.9786	1.7467	1.6386	2.3015	1.8776	-3.209	-1.4082	0.0797	1.6159	-1.9459	27.4102	-1.1977
3.9344	4.1165	4.6542	3.6869	3.4366	4.7225	3.5959	2.4295	4.108	3.0042	1.1152	2.9046	1.8833	1.7069	2.1991	1.7126	-3.3342	-1.1408	-0.074	1.7041	-2.1137	27.5212	-1.0896
3.9117	4.1108	4.6599	3.7751	3.3996	4.6969	3.6528	2.3157	3.98	3.0781	0.9587	2.7453	1.9715	1.7553	2.0625	1.5391	-3.4423	-0.9132	-0.2048	1.7951	-2.2446	27.6094	-0.9957
3.8633	4.1023	4.6286	3.8548	3.3228	4.6542	3.7069	2.1735	3.8832	3.1094	0.7966	2.6144	2.0511	1.7951	1.9231	1.4082	-3.5219	-0.6913	-0.3641	1.9004	-2.384	27.6947	-0.8705
3.8491	4.0881	4.6229	3.9259	3.2943	4.6371	3.7837	2.0398	3.7438	3.1606	0.6259	2.4665	2.1336	1.8435	1.7809	1.3086	-3.6044	-0.4324	-0.5007	1.9658	-2.4978	27.78	-0.7539
3.778	4.0369	4.5717	3.9572	3.1806	4.5688	3.8349	1.8861	3.5788	3.1493	0.4381	2.2645	2.1991	1.8605	1.6472	1.1835	-3.6528	-0.2077	-0.6629	2.0597	-2.6457	27.8597	-0.6685
3.7495	4.0027	4.5888	4.034	3.081	4.5233	3.8662	1.7439	3.4423	3.1862	0.2646	2.1052	2.2417	1.8947	1.5248	1.1749	-3.7069	0.0256	-0.8108	2.128	-2.714	27.928	-0.6116
3.6756	3.943	4.529	4.0568	2.9871	4.4522	3.8605	1.5931	3.2488	3.1834	0.091	1.8748	2.2787	1.8975	1.4196	1.1664	-3.7381	0.276	-0.9189	2.1849	-2.788	27.9991	-0.5462
3.5874	3.8605	4.4664	4.0568	2.8847	4.3811	3.869	1.448	3.0668	3.1834	-0.0825	1.6898	2.3072	1.9117	1.2802	1.1977	-3.7666	0.4922	-1.0327	2.256	-2.8619	28.0844	-0.5007
3.5162	3.7438	4.4238	4.0482	2.7339	4.2787	3.8804	1.2773	2.8733	3.1663	-0.2646	1.4907	2.3385	1.9317	1.1977	1.2745	-3.7894	0.7084	-1.1522	2.3214	-2.9217	28.1442	-0.4523
3.4081	3.65	4.364	4.0198	2.6315	4.199	3.8719	1.1408	2.7197	3.1777	-0.4125	1.2859	2.3811	1.9516	1.1408	1.3456	-3.8406	0.9644	-1.2347	2.4181	-2.9444	28.2324	-0.4609
3.2602	3.4906	4.2673	3.96	2.4693	4.0852	3.815	0.9758	2.5348	3.1549	-0.5718	1.1123	2.3954	1.9601	1.0355	1.4025	-3.832	1.1977	-1.3513	2.4864	-2.9899	28.3632	-0.4466
3.1379	3.337	4.1933	3.9003	2.3129	3.9686	3.7751	0.7909	2.3555	3.1493	-0.7112	0.899	2.4437	1.9601	0.9929	1.4651	-3.8548	1.4566	-1.4367	2.5547	-2.9757	28.4913	-0.4552
3.0156	3.2005	4.0966	3.8263	2.1507	3.8576	3.7268	0.6372	2.1905	3.1549	-0.8222	0.7141	2.5006	1.98	0.9502	1.5789	-3.8804	1.687	-1.5277	2.6258	-2.9956	28.625	-0.5092
2.8705	3.0554	4.0283	3.7211	1.9914	3.7922	3.6983	0.5405	2.0398	3.172	-0.9274	0.5889	2.5746	1.9686	0.9274	1.6642	-3.8861	1.9544	-1.5789	2.7055	-2.97	28.7729	-0.5491
2.751	2.8961	3.9572	3.6187	1.8321	3.6869	3.6471	0.3983	1.889	3.1663	-1.0384	0.4353	2.623	1.9857	0.916	1.724	-3.8946	2.1905	-1.6443	2.7937	-2.97	28.9265	-0.5974
2.64	2.7396	3.8775	3.5191	1.687	3.5731	3.6016	0.2731	1.7411	3.1862	-1.1379	0.293	2.6742	1.9942	0.9189	1.815	-3.9088	2.4096	-1.6785	2.879	-2.9217	29.1001	-0.66
2.5291	2.6116	3.7581	3.3882	1.5618	3.4423	3.5219	0.1565	1.6045	3.1777	-1.1977	0.165	2.7168	1.9857	0.916	1.8577	-3.9117	2.6315	-1.6842	2.9473	-2.8562	29.2793	-0.734
2.4722	2.4949	3.6841	3.2773	1.4167	3.3399	3.4508	0.0626	1.4623	3.172	-1.2489	0.0541	2.7766	2.0028	0.9303	1.8975	-3.9316	2.8648	-1.7012	3.0298	-2.8022	29.45	-0.8222
2.4267	2.3669	3.5959	3.1322	1.2688	3.1976	3.3427	-0.0512	1.3115	3.118	-1.283	-0.0882	2.7737	1.9914	0.9758	1.9061	-3.9231	3.0582	-1.6898	3.0867	-2.714	29.5865	-0.9246
2.3783	2.2759	3.4992	3.0099	1.1522	3.0639	3.2517	-0.1309	1.1635	3.1009	-1.357	-0.202	2.7737	1.9886	1.0014	1.943	-3.9174	3.2232	-1.7012	3.1066	-2.6144	29.7259	-1.027
2.3043	2.182	3.3996	2.8932	1.0298	2.9274	3.135	-0.2304	0.9957	3.0042	-1.3883	-0.3471	2.768	1.98	1.0156	1.9601	-3.906	3.3825	-1.6756	3.1521	-2.4978	29.8369	-1.1209
2.2417	2.0682	3.2972	2.7197	0.9018	2.7794	2.9985	-0.3215	0.8478	2.9302	-1.4367	-0.4922	2.714	1.9772	1.0412	1.9544	-3.8861	3.5106	-1.6728	3.1521	-2.384	29.9251	-1.2176
2.1735	1.9999	3.1692	2.5974	0.7681	2.586	2.8477	-0.4182	0.66	2.8136	-1.4992	-0.6372	2.6372	1.9715	1.0156	1.9231	-3.869	3.5959	-1.6386	3.1407	-2.293	29.9962	-1.3143
2.091	1.8861	3.0497	2.4494	0.6714	2.4324	2.6884	-0.5121	0.5007	2.6713	-1.5419	-0.7738	2.5575	1.9544	0.9701	1.8634	-3.8491	3.6727	-1.6045	3.1066	-2.1792	30.0474	-1.3712
1.98	1.7723	2.8961	2.3186	0.5206	2.2389	2.5063	-0.6031	0.3357	2.5149	-1.5732	-0.9274	2.421	1.9345	0.9303	1.778	-3.8093	3.7381	-1.5846	3.0668	-2.1137	30.0901	-1.4367
1.8406	1.65	2.6827	2.1649	0.4125	2.0198	2.3072	-0.7226	0.1394	2.3299	-1.6671	-1.1152	2.2844	1.9146	0.8108	1.6301	-3.7637	3.7467	-1.6017	3.0127	-2.0284	30.1441	-1.4907
1.7154	1.5248	2.5234	2.0284	0.2873	1.815	2.1365	-0.7966	-0.0541	2.1592	-1.6898	-1.2574	2.1536	1.8918	0.7624	1.4793	-3.7097	3.7524	-1.5704	2.9643	-1.9231	30.1356	-1.5049
1.5192	1.4082	2.3186	1.852	0.1764	1.6073	1.9373	-0.8762	-0.2162	2.0028	-1.724	-1.3769	2.0198	1.8435	0.6003	1.2119	-3.63	3.7609	-1.5504	2.8591	-1.8492	30.1925	-1.5561
1.3428	1.266	2.0824	1.7183	0.0654	1.3883	1.7467	-0.953	-0.3954	1.8207	-1.7553	-1.5248	1.889	1.8036	0.4836	0.9644	-3.5532	3.7325	-1.5277	2.788	-1.7496	30.2039	-1.5817
1.1209	1.1266	1.8776	1.5817	-0.037	1.1892	1.5817	-1.0241	-0.569	1.6386	-1.7951	-1.6358	1.7496	1.7581	0.3784	0.7027	-3.4508	3.7012	-1.485	2.6855	-1.65	30.1783	-1.6017
0.936	1.0071	1.6898	1.4651	-0.1223	1.0042	1.4054	-1.0526	-0.7112	1.4566	-1.7951	-1.7581	1.6017	1.7069	0.2247	0.3727	-3.3484	3.6869	-1.4338	2.586	-1.5277	30.1612	-1.6187
0.7567	0.899	1.4765	1.3342	-0.165	0.8108	1.2517	-1.0782	-0.8535	1.2717	-1.7866	-1.8719	1.4765	1.65	0.091	0.0853	-3.2346	3.6556	-1.3712	2.4807	-1.4196	30.1327	-1.6244
0.569	0.7937	1.2887	1.246	-0.2361	0.6259	1.0611	-1.1038	-1.0185	1.1095	-1.7809	-1.9686	1.3314	1.5789	-0.0427	-0.2617	-3.1037	3.5845	-1.2944	2.4011	-1.2944	30.0758	-1.6216
0.4068	0.7311	1.101	1.1436	-0.2703	0.458	0.9758	-1.101	-1.1351	0.9416	-1.7411	-2.0511	1.2204	1.5334	-0.1764	-0.569	-2.9985	3.539	-1.192	2.2958	-1.1493	29.999	-1.6102
0.2589	0.6685	0.9274	1.0611	-0.3016	0.2731	0.7596	-1.1123	-1.2631	0.7482	-1.7553	-2.1621	1.0611	1.4509	-0.3016	-0.8392	-2.842	3.4565	-1.1408	2.1479	-1.0412	29.8938	-1.6073
0.1252	0.5974	0.7397	0.9616	-0.3272	0.0996	0.6031	-1.118	-1.4196	0.5491	-1.7183	-2.256	0.8848	1.3741	-0.4125	-1.0611	-2.6998	3.3825	-1.027	2.0426	-0.9217	29.7743	-1.5817
0.0028	0.5832	0.5576	0.862	-0.3328	-0.0797	0.4495	-1.0981	-1.5533	0.3727	-1.7098	-2.3641	0.7425	1.32	-0.5149	-1.2916	-2.5632	3.2943	-0.9331	1.9203	-0.7852	29.6491	-1.5903
-0.1593	0.5263	0.367	0.7624	-0.3727	-0.2731	0.2845	-1.0924	-1.7211	0.1479	-1.7211	-2.5035	0.5576	1.2318	-0.6429	-1.4623	-2.4011	3.1919	-0.8364	1.7581	-0.6771	29.5467	-1.5817
-0.276	0.4609	0.2105	0.6344	-0.3499	-0.4694	0.1081	-1.0782	-1.8861	-0.0541	-1.6927	-2.64	0.3698	1.1408	-0.697	-1.5761	-2.2503	3.0668	-0.7368	1.6187	-0.5519	29.4272	-1.5732
-0.404	0.4267	0.0228	0.4722	-0.3556	-0.6543	-0.0484	-1.0754	-2.0398	-0.2959	-1.6955	-2.7823	0.1678	1.0839	-0.8136	-1.7098	-2.0967	2.9643	-0.6458	1.4537	-0.4609	29.3277	-1.5817
-0.5491	0.3954	-0.1849	0.3272	-0.3926	-0.8478	-0.2447	-1.0867	-2.2361	-0.495	-1.7041	-2.9245	-0.0313	0.99	-0.8591	-1.7439	-1.9402	2.8306	-0.5661	1.283	-0.3698	29.2537	-1.5789
-0.6885	0.3556	-0.3243	0.1451	-0.3841	-1.0099	-0.3869	-1.0469	-2.3669	-0.6856	-1.6671	-3.0099	-0.1878	0.9217	-0.9047	-1.7866	-1.8008	2.7311	-0.4666	1.1237	-0.2617	29.2139	-1.6102
-0.8108	0.33	-0.4722	-0.0199	-0.367	-1.1635	-0.5491	-1.0185	-2.4978	-0.8591	-1.6216	-3.0981	-0.3016	0.8563	-0.9075	-1.7866	-1.6813	2.6486	-0.3585	1.0128	-0.1166	29.1996	-1.6159
-0.953	0.3072	-0.6458	-0.2447	-0.3499	-1.2973	-0.7112	-0.9815	-2.6144	-1.0412	-1.6045	-3.1692	-0.4466	0.8023	-0.9018	-1.761	-1.5504	2.5575	-0.2134	0.8734	-0.0398	29.2195	-1.6557
-1.0668	0.2987	-0.7766	-0.4068	-0.3044	-1.4025	-0.8506	-0.9075	-2.6941	-1.1721	-1.522	-3.2232	-0.5547	0.751	-0.8705	-1.7069	-1.4679	2.4779	-0.1053	0.7482	0.1195	29.2907	-1.7211
-1.1721	0.2731	-0.8648	-0.5917	-0.2674	-1.5135	-0.9758	-0.8108	-2.7624	-1.2916	-1.4338	-3.246	-0.6458	0.697	-0.8193	-1.6301	-1.3655	2.4295	0.0228	0.6458	0.2503	29.3703	-1.7894
-1.2631	0.2873	-0.9673	-0.7766	-0.2077	-1.5618	-1.0668	-0.7283	-2.8079	-1.3911	-1.3342	-3.2374	-0.7226	0.6714	-0.7311	-1.5163	-1.2944	2.3897	0.1878	0.5405	0.3926	29.5239	-1.8463
-1.3513	0.2646	-1.0298	-0.9445	-0.128	-1.6159	-1.1721	-0.6316	-2.8164	-1.4907	-1.2176	-3.2346	-0.7539	0.623	-0.6344	-1.3968	-1.2119	2.3726	0.3442	0.458	0.5832	29.6918	-1.9345
-1.4025	0.2845	-1.101	-1.101	-0.0967	-1.6586	-1.2517	-0.5206	-2.805	-1.5419	-1.0953	-3.1919	-0.7766	0.5974	-0.5405	-1.2887	-1.1436	2.3555	0.5007	0.3556	0.734	29.9251	-2.0511
-1.4054	0.2816	-1.0924	-1.2489	-0.0142	-1.6329	-1.3229	-0.4296	-2.7737	-1.5761	-0.9673	-3.1464	-0.7909	0.5718	-0.4125	-1.1436	-1.0896	2.3242	0.6572	0.3186	0.899	30.184	-2.1536
-1.4253	0.2703	-1.1152	-1.3968	0.0341	-1.6671	-1.4111	-0.3414	-2.7908	-1.6642	-0.8705	-3.135	-0.8506	0.5291	-0.2987	-1.0185	-1.0128	2.2844	0.7738	0.2162	1.0241	30.4827	-2.293
-1.4054	0.239	-1.1095	-1.522	0.0683	-1.6472	-1.4793	-0.2788	-2.7737	-1.6955	-0.7795	-3.1094	-0.8819	0.4836	-0.1707	-0.8961	-0.9473	2.2133	0.916	0.1138	1.1493	30.7728	-2.421
-1.3741	0.2219	-1.101	-1.6386	0.0939	-1.6642	-1.559	-0.2333	-2.7424	-1.7496	-0.6913	-3.0867	-0.9303	0.441	-0.037	-0.7596	-0.8762	2.1308	1.0042	0.0228	1.2347	31.0829	-2.5689
-1.3257	0.1935	-1.064	-1.7268	0.0853	-1.6557	-1.5988	-0.1906	-2.7624	-1.8236	-0.6458	-3.0981	-0.9872	0.421	0.1053	-0.6316	-0.8335	2.0711	1.0668	-0.0654	1.2973	31.3959	-2.6969
-1.2603	0.1422	-1.0412	-1.8264	0.0711	-1.6557	-1.6756	-0.165	-2.7624	-1.8719	-0.606	-3.0781	-1.0441	0.4011	0.239	-0.5092	-0.7852	1.9886	1.1522	-0.1735	1.3342	31.6832	-2.8193
-1.1806	0.1252	-1.0014	-1.8975	0.0569	-1.6358	-1.7325	-0.1565	-2.7737	-1.943	-0.569	-3.1265	-1.1067	0.3954	0.3926	-0.404	-0.7482	1.8918	1.1664	-0.256	1.3456	31.9847	-2.933
-1.1237	0.0768	-0.9616	-1.926	0.0484	-1.65	-1.7837	-0.1565	-2.7652	-2.0028	-0.5718	-3.1237	-1.2005	0.3954	0.5747	-0.2845	-0.751	1.8065	1.2034	-0.3471	1.3655	32.255	-3.0383
-1.0725	0.0654	-0.916	-1.9317	0.0057	-1.613	-1.8378	-0.1622	-2.751	-2.0426	-0.5604	-3.135	-1.2489	0.3755	0.7425	-0.1821	-0.7397	1.7041	1.2233	-0.4552	1.3513	32.4968	-3.1151
-0.9929	0.0427	-0.8876	-1.9317	-0.0085	-1.5988	-1.8691	-0.1906	-2.7453	-2.0824	-0.5718	-3.1379	-1.2944	0.3755	0.9303	-0.1394	-0.7454	1.6301	1.2204	-0.5121	1.3314	32.7244	-3.1919
-0.9303	0.0398	-0.8307	-1.8776	-0.0199	-1.5362	-1.8605	-0.1707	-2.6998	-2.0853	-0.5604	-3.1094	-1.3229	0.404	1.0896	-0.0398	-0.7852	1.5817	1.2204	-0.5604	1.3172	32.9179	-3.2517
-0.8421	0.0313	-0.7596	-1.8179	-0.0171	-1.4793	-1.8776	-0.1935	-2.6543	-2.0767	-0.5405	-3.0867	-1.3399	0.4267	1.2603	0.0199	-0.825	1.4992	1.1948	-0.6088	1.2859	33.0601	-3.2858
-0.7937	0.0256	-0.7084	-1.7581	-0.0427	-1.4196	-1.8406	-0.1906	-2.6059	-2.0455	-0.5519	-3.0355	-1.3371	0.4466	1.357	0.0654	-0.8648	1.4452	1.1778	-0.623	1.2318	33.1995	-3.2943
-0.7169	0.0284	-0.66	-1.6699	-0.0541	-1.3542	-1.8122	-0.2105	-2.5405	-2.0028	-0.5576	-2.9643	-1.3001	0.4722	1.4964	0.1081	-0.9246	1.4139	1.118	-0.6316	1.1806	33.3019	-3.2858
-0.6401	0.0683	-0.5974	-1.5817	-0.0427	-1.283	-1.724	-0.1849	-2.4437	-1.9061	-0.5149	-2.8932	-1.2318	0.4979	1.5704	0.165	-1.0014	1.4082	1.0867	-0.6202	1.1323	33.3901	-3.283
-0.5604	0.1024	-0.5263	-1.448	-0.0455	-1.2062	-1.6699	-0.1849	-2.3897	-1.8292	-0.5149	-2.8278	-1.1635	0.5519	1.6443	0.1764	-1.064	1.4139	1.0241	-0.5917	1.0782	33.4698	-3.2631
-0.4922	0.1451	-0.4722	-1.3285	-0.0142	-1.1266	-1.5988	-0.1707	-2.2816	-1.7411	-0.4922	-2.751	-1.0668	0.586	1.6586	0.1849	-1.1436	1.4253	0.9758	-0.5661	1.0128	33.5494	-3.2232
-0.4068	0.1792	-0.4011	-1.1977	-0.0313	-1.0583	-1.5391	-0.1479	-2.2048	-1.6301	-0.4979	-2.6315	-0.9815	0.623	1.6529	0.1479	-1.2233	1.4367	0.9104	-0.5263	0.9559	33.6291	-3.1862
-0.3442	0.2048	-0.3755	-1.0867	-0.0199	-1.027	-1.4936	-0.1764	-2.1223	-1.5533	-0.4922	-2.5746	-0.9075	0.6458	1.5903	0.0882	-1.2773	1.431	0.8165	-0.495	0.8904	33.6917	-3.135
-0.2703	0.256	-0.3585	-0.9445	-0.0171	-0.99	-1.394	-0.1764	-2.054	-1.4509	-0.4751	-2.5035	-0.8364	0.6885	1.4964	0.0256	-1.3456	1.448	0.734	-0.458	0.8279	33.777	-3.0952
-0.2276	0.3072	-0.3328	-0.862	-0.0228	-0.9473	-1.3513	-0.1735	-1.9999	-1.3684	-0.4722	-2.4324	-0.7596	0.7112	1.3997	-0.0541	-1.3854	1.448	0.66	-0.4267	0.7653	33.8368	-3.0611
-0.1849	0.3442	-0.3499	-0.7454	-0.0085	-0.9587	-1.3115	-0.1935	-1.9743	-1.283	-0.4751	-2.3868	-0.6828	0.7254	1.2603	-0.1622	-1.4224	1.4822	0.5747	-0.3784	0.6515	33.9164	-3.0355
-0.1479	0.3727	-0.3755	-0.6572	-0.0142	-0.9843	-1.2717	-0.2077	-1.9288	-1.2404	-0.5178	-2.3271	-0.6401	0.734	1.1607	-0.2447	-1.448	1.4708	0.4865	-0.3385	0.6088	33.9676	-2.9786
-0.165	0.3442	-0.4324	-0.6173	-0.0711	-1.0156	-1.2489	-0.2447	-1.9146	-1.1778	-0.5178	-2.3299	-0.5946	0.7311	1.0156	-0.4153	-1.4367	1.4537	0.4011	-0.3471	0.5121	34.0473	-2.9899
-0.2105	0.3414	-0.5235	-0.5917	-0.0939	-1.0611	-1.2233	-0.2902	-1.9117	-1.1323	-0.5604	-2.2759	-0.5462	0.734	0.8819	-0.5405	-1.4367	1.4822	0.293	-0.3044	0.4353	34.1155	-2.9956
-0.2816	0.2589	-0.6287	-0.5946	-0.1707	-1.1294	-1.229	-0.3272	-1.9061	-1.0725	-0.6116	-2.2503	-0.5064	0.7311	0.7425	-0.7226	-1.4196	1.4879	0.1764	-0.2902	0.3556	34.235	-2.9729
-0.4068	0.1991	-0.7681	-0.6259	-0.2333	-1.2062	-1.2375	-0.3841	-1.9402	-1.064	-0.66	-2.2617	-0.4609	0.7141	0.5974	-0.9075	-1.3968	1.485	0.0683	-0.2788	0.2646	34.3545	-2.9587
-0.5519	0.1081	-0.8848	-0.6629	-0.2959	-1.2944	-1.2347	-0.4267	-1.9772	-0.9957	-0.7055	-2.256	-0.404	0.6998	0.4893	-1.0668	-1.3627	1.5021	0.0085	-0.2503	0.1821	34.4854	-2.9643
-0.7311	-0.0427	-1.0554	-0.7084	-0.3727	-1.3826	-1.1948	-0.4779	-1.9715	-0.9047	-0.7197	-2.1792	-0.3328	0.7027	0.3698	-1.2916	-1.3655	1.5277	-0.0797	-0.1821	0.1223	34.6447	-2.953
-0.916	-0.1735	-1.2375	-0.7795	-0.4466	-1.4679	-1.1863	-0.5206	-1.9886	-0.8677	-0.7539	-2.1592	-0.2674	0.6799	0.2276	-1.4793	-1.3399	1.5988	-0.1622	-0.1565	0.0484	34.8239	-2.9558
-1.1095	-0.2873	-1.3598	-0.8677	-0.5434	-1.5277	-1.1635	-0.5405	-1.9829	-0.7567	-0.751	-2.108	-0.1593	0.6941	0.1252	-1.6301	-1.3399	1.6728	-0.2361	-0.0825	0.0085	34.9775	-2.9473
-1.2973	-0.4495	-1.4992	-0.9331	-0.6202	-1.6216	-1.118	-0.5633	-1.9772	-0.6856	-0.7311	-2.0255	-0.0626	0.6771	0.0028	-1.7667	-1.3229	1.7268	-0.2987	-0.0085	-0.0683	35.1312	-2.9359
-1.4964	-0.6031	-1.6728	-1.0099	-0.7084	-1.6614	-1.0782	-0.586	-1.9544	-0.5576	-0.7141	-1.963	0.0597	0.6771	-0.1166	-1.8264	-1.3086	1.8349	-0.3471	0.0683	-0.091	35.2763	-2.9387
-1.6443	-0.7141	-1.8122	-1.1038	-0.7596	-1.7183	-1.0241	-0.606	-1.9373	-0.4353	-0.6941	-1.8662	0.202	0.6771	-0.276	-1.8492	-1.3058	1.9231	-0.3585	0.1678	-0.074	35.4242	-2.9103
-1.8008	-0.8535	-1.9146	-1.2261	-0.8222	-1.7553	-0.9758	-0.5917	-1.8861	-0.3243	-0.6458	-1.7894	0.3385	0.6657	-0.4125	-1.8548	-1.2916	2.017	-0.3556	0.2731	-0.0569	35.5579	-2.8762
-1.9402	-1.0071	-2.0398	-1.2773	-0.8904	-1.7667	-0.916	-0.586	-1.8719	-0.1963	-0.5917	-1.6813	0.4893	0.6742	-0.5633	-1.852	-1.2859	2.1251	-0.3613	0.3613	-0.0313	35.7001	-2.879
-2.0398	-1.118	-2.1336	-1.4082	-0.9445	-1.815	-0.8961	-0.586	-1.852	-0.0967	-0.5348	-1.5789	0.606	0.6543	-0.6828	-1.7809	-1.2745	2.2417	-0.3528	0.4865	-0.0284	35.8168	-2.8193
-2.145	-1.2404	-2.2304	-1.4964	-1.0014	-1.8378	-0.8108	-0.586	-1.8207	0.0341	-0.4865	-1.5049	0.7283	0.6572	-0.7766	-1.7297	-1.283	2.3499	-0.33	0.5804	0.0569	35.9391	-2.7993
-2.2332	-1.3769	-2.3328	-1.5817	-1.0697	-1.8918	-0.771	-0.5889	-1.8065	0.1309	-0.4381	-1.4224	0.8648	0.6458	-0.8591	-1.7041	-1.2773	2.4636	-0.3186	0.66	0.0939	36.0501	-2.7794
-2.3072	-1.4708	-2.4096	-1.6842	-1.1294	-1.9061	-0.7027	-0.5917	-1.7866	0.2447	-0.4239	-1.3314	0.9729	0.6515	-0.9075	-1.6557	-1.266	2.5575	-0.33	0.7169	0.1422	36.1695	-2.7766
-2.3698	-1.5846	-2.5035	-1.7809	-1.1835	-1.9402	-0.6543	-0.5775	-1.8008	0.3585	-0.3357	-1.2489	1.0953	0.6515	-0.9104	-1.6045	-1.2717	2.6628	-0.3101	0.8364	0.202	36.2606	-2.7737
-2.4437	-1.7126	-2.5746	-1.8548	-1.3001	-1.9829	-0.5974	-0.6202	-1.7752	0.441	-0.3158	-1.2005	1.1892	0.6572	-0.9075	-1.5618	-1.266	2.7396	-0.3186	0.9217	0.2333	36.3658	-2.7567
-2.5433	-1.8548	-2.6571	-1.926	-1.3769	-2.0284	-0.5832	-0.6316	-1.7866	0.5434	-0.2845	-1.1522	1.3086	0.6515	-0.8819	-1.5618	-1.2717	2.8534	-0.3186	1.0071	0.2731	36.4682	-2.7453
-2.6087	-1.9914	-2.7112	-2.0142	-1.4822	-2.0483	-0.5121	-0.6714	-1.798	0.6316	-0.2646	-1.0867	1.4281	0.6543	-0.8449	-1.5334	-1.2717	2.933	-0.33	1.0725	0.3243	36.5707	-2.7311
-2.7112	-2.1735	-2.8136	-2.0739	-1.613	-2.0796	-0.4637	-0.7112	-1.8093	0.7311	-0.2361	-1.0412	1.5277	0.6543	-0.7937	-1.5305	-1.2603	3.0156	-0.3499	1.1664	0.3585	36.6617	-2.7282
-2.7481	-2.273	-2.8335	-2.0767	-1.724	-2.0967	-0.3528	-0.7539	-1.7923	0.8535	-0.202	-0.9644	1.6984	0.6685	-0.7169	-1.4879	-1.2916	3.1663	-0.3926	1.2802	0.3869	36.7613	-2.7197
-2.8335	-2.4352	-2.8875	-2.0995	-1.8378	-2.1052	-0.2731	-0.788	-1.7723	0.9786	-0.1764	-0.8876	1.8349	0.6685	-0.623	-1.4367	-1.3143	3.2943	-0.4011	1.3911	0.4011	36.8324	-2.6969
-2.9018	-2.5974	-2.9217	-2.0967	-1.9516	-2.0796	-0.1536	-0.8449	-1.7382	1.1379	-0.1366	-0.7909	1.9857	0.6913	-0.5405	-1.4139	-1.3456	3.4423	-0.4495	1.5305	0.4068	36.912	-2.6742
-2.9274	-2.7055	-2.9188	-2.0369	-2.0568	-2.0455	-0.037	-0.8506	-1.6813	1.3029	-0.0996	-0.6799	2.1763	0.7112	-0.4666	-1.3627	-1.3883	3.6101	-0.4438	1.6586	0.4438	36.9604	-2.6372
-2.953	-2.8363	-2.9359	-1.9857	-2.1905	-2.0028	0.1024	-0.9104	-1.613	1.4338	-0.0683	-0.5718	2.3499	0.7283	-0.3926	-1.3314	-1.4196	3.7609	-0.5064	1.7837	0.4751	37.023	-2.623
-2.9587	-2.933	-2.9131	-1.8861	-2.2787	-1.9516	0.2361	-0.9416	-1.5334	1.6045	-0.0171	-0.4722	2.4921	0.7596	-0.3101	-1.2717	-1.4822	3.9344	-0.5405	1.9459	0.495	37.0827	-2.5575
-2.9188	-3.0241	-2.8932	-1.8065	-2.3811	-1.889	0.367	-0.953	-1.4623	1.7467	0.0256	-0.3243	2.6742	0.7994	-0.2333	-1.2261	-1.5561	4.0938	-0.5917	2.0739	0.4979	37.1254	-2.4921
-2.8818	-3.0895	-2.8676	-1.6728	-2.4494	-1.8065	0.5092	-0.9701	-1.4025	1.8918	0.0569	-0.2475	2.8193	0.8392	-0.1878	-1.1835	-1.6273	4.2701	-0.6372	2.2161	0.4979	37.1738	-2.4011
-2.8107	-3.1549	-2.8136	-1.5732	-2.5291	-1.7524	0.6316	-0.9985	-1.3314	2.0455	0.0996	-0.1451	2.9729	0.8762	-0.1138	-1.1323	-1.7126	4.4266	-0.6572	2.347	0.5291	37.1994	-2.3214
-2.7396	-3.1891	-2.7424	-1.4566	-2.586	-1.6557	0.7909	-1.0071	-1.2347	2.1735	0.1593	-0.0455	3.1151	0.9331	-0.0939	-1.0953	-1.8036	4.5802	-0.7027	2.475	0.5519	37.2449	-2.2503
-2.6685	-3.1976	-2.6912	-1.3143	-2.6486	-1.5732	0.899	-1.0185	-1.1749	2.3043	0.1991	0.0398	3.246	0.9701	-0.0654	-1.0697	-1.9146	4.7196	-0.7226	2.6116	0.5604	37.2876	-2.1422
-2.6116	-3.1891	-2.6315	-1.192	-2.6799	-1.4964	1.0412	-1.0071	-1.0896	2.3982	0.2646	0.1508	3.3655	1.0327	-0.0512	-1.0953	-2.0284	4.8562	-0.7539	2.751	0.586	37.3359	-2.054
-2.5262	-3.2289	-2.5632	-1.0782	-2.7282	-1.4196	1.1465	-1.0099	-1.0071	2.5006	0.3101	0.2276	3.4622	1.0839	-0.0711	-1.1323	-2.1223	4.9529	-0.788	2.8591	0.6088	37.3729	-1.9686
-2.4864	-3.2289	-2.5348	-0.9701	-2.7766	-1.357	1.2119	-1.0185	-0.9502	2.5774	0.3328	0.3044	3.5276	1.1209	-0.1309	-1.2091	-2.2218	5.0496	-0.8023	2.953	0.6145	37.4156	-1.8861
-2.4494	-3.2147	-2.4807	-0.8563	-2.7766	-1.2916	1.2973	-0.9872	-0.8677	2.6457	0.3869	0.367	3.6044	1.1892	-0.1991	-1.246	-2.3157	5.1463	-0.8279	3.0497	0.6372	37.4383	-1.798
-2.4096	-3.1834	-2.4295	-0.7596	-2.8335	-1.2176	1.3826	-0.9872	-0.7852	2.7168	0.441	0.458	3.6812	1.2318	-0.3243	-1.3371	-2.4039	5.2488	-0.8392	3.1464	0.66	37.4412	-1.7154
-2.3783	-3.1578	-2.4011	-0.6543	-2.8022	-1.1351	1.4509	-0.9616	-0.6714	2.7652	0.5092	0.5491	3.7694	1.2631	-0.4324	-1.4139	-2.475	5.3455	-0.8705	3.2346	0.6828	37.427	-1.6329
-2.3527	-3.1493	-2.3356	-0.5576	-2.805	-1.0441	1.5192	-0.8961	-0.569	2.8477	0.5547	0.6543	3.8576	1.3086	-0.5633	-1.4623	-2.549	5.4251	-0.8734	3.3655	0.7141	37.4099	-1.5561
-2.2958	-3.0781	-2.2787	-0.4523	-2.7368	-0.953	1.5732	-0.825	-0.4438	2.9131	0.6429	0.771	3.9344	1.3229	-0.6771	-1.4765	-2.5974	5.4934	-0.8648	3.4252	0.7454	37.3587	-1.4907
-2.2645	-3.0099	-2.2048	-0.3414	-2.677	-0.8136	1.65	-0.7169	-0.2617	3.0127	0.7795	0.9246	4.034	1.3542	-0.7937	-1.5192	-2.6514	5.5873	-0.8279	3.5162	0.8079	37.3274	-1.4679
-2.2133	-2.933	-2.108	-0.2418	-2.5632	-0.6742	1.7268	-0.6202	-0.1109	3.0753	0.9132	1.1123	4.1592	1.3769	-0.8904	-1.5248	-2.7026	5.6869	-0.7937	3.6073	0.8677	37.2933	-1.4367
-2.1365	-2.7823	-2.0341	-0.1451	-2.458	-0.5178	1.7894	-0.4523	0.074	3.1692	1.0498	1.2745	4.2388	1.4054	-0.9274	-1.5391	-2.7311	5.7409	-0.734	3.6955	0.9559	37.2847	-1.3684
-2.0568	-2.6969	-1.9373	-0.0398	-2.3271	-0.3784	1.8577	-0.3243	0.2646	3.2517	1.192	1.431	4.3299	1.4167	-0.9473	-1.5163	-2.768	5.8064	-0.6941	3.7581	1.0355	37.3189	-1.3627
-1.9857	-2.5661	-1.8236	0.0427	-2.1792	-0.1991	1.9373	-0.1394	0.4666	3.3143	1.3769	1.6244	4.4323	1.4196	-0.9331	-1.4679	-2.7794	5.8661	-0.5804	3.8377	1.1408	37.353	-1.3485
-1.8492	-2.4011	-1.6927	0.1109	-2.0113	-0.0455	1.9999	0.0398	0.6515	3.4167	1.5504	1.8122	4.5233	1.4338	-0.8535	-1.3798	-2.7965	5.8974	-0.5092	3.8946	1.2404	37.4156	-1.3456
-1.7268	-2.2531	-1.5732	0.1849	-1.8406	0.1053	2.0511	0.2191	0.862	3.4679	1.7325	1.9999	4.6144	1.4367	-0.8079	-1.2603	-2.805	5.9287	-0.4097	3.9572	1.3769	37.5294	-1.3741
-1.6386	-2.1137	-1.4708	0.256	-1.6386	0.2703	2.0967	0.4068	1.101	3.5077	1.9089	2.1678	4.6599	1.4367	-0.6856	-1.1095	-2.8079	5.9514	-0.2873	3.9913	1.4907	37.6688	-1.3769
-1.5049	-1.9516	-1.3513	0.3072	-1.4651	0.4296	2.1536	0.606	1.283	3.5618	2.1137	2.347	4.7282	1.4224	-0.5491	-0.953	-2.8022	5.9429	-0.1821	4.0198	1.6187	37.8423	-1.4054
-1.448	-1.852	-1.2916	0.3072	-1.3257	0.5547	2.1564	0.7624	1.4594	3.5817	2.2702	2.512	4.7594	1.4367	-0.4125	-0.7795	-2.7908	5.9401	-0.0797	4.0397	1.7297	38.0415	-1.4651
-1.3428	-1.7154	-1.1749	0.293	-1.1266	0.6941	2.1849	0.9701	1.6358	3.6016	2.4324	2.6799	4.7879	1.4054	-0.2418	-0.5974	-2.7709	5.9088	0.037	4.0312	1.8236	38.2634	-1.4992
-1.2745	-1.6073	-1.0896	0.2873	-0.9786	0.8193	2.2019	1.1323	1.8179	3.6414	2.6173	2.8392	4.8419	1.4054	-0.074	-0.4182	-2.7595	5.8917	0.1508	4.034	1.9345	38.4995	-1.5618
-1.229	-1.522	-1.0554	0.2589	-0.8563	0.9502	2.219	1.3172	1.9686	3.6926	2.788	3.0013	4.8903	1.3968	0.0967	-0.2475	-2.7339	5.8149	0.2703	4.0312	2.0455	38.7498	-1.6073
-1.1778	-1.4452	-0.9786	0.2703	-0.7084	1.0498	2.2389	1.5163	2.1507	3.7182	2.9587	3.172	4.9472	1.3826	0.2731	-0.1081	-2.714	5.7779	0.3641	4.0255	2.1536	39.0172	-1.6472
-1.1579	-1.394	-0.9246	0.2532	-0.5718	1.2005	2.2617	1.6557	2.3299	3.7666	3.1436	3.3512	5.0126	1.3854	0.4153	0.0199	-2.6969	5.758	0.4694	4.0141	2.2617	39.2932	-1.687
-1.1123	-1.3314	-0.8591	0.2503	-0.4466	1.3086	2.3129	1.8492	2.5177	3.8292	3.3171	3.5248	5.0724	1.3655	0.5348	0.1166	-2.6685	5.7295	0.5889	4.0255	2.3954	39.5691	-1.6984
-1.118	-1.3029	-0.8051	0.2333	-0.3186	1.4537	2.3413	2.0398	2.7055	3.9145	3.5049	3.7438	5.1577	1.3627	0.6486	0.091	-2.6543	5.6983	0.7226	4.0113	2.5092	39.8906	-1.7183
-1.0896	-1.2404	-0.7254	0.2703	-0.1764	1.596	2.421	2.2161	2.8961	3.9999	3.7097	3.9458	5.2545	1.3542	0.7425	0.1053	-2.6372	5.667	0.8563	4.0425	2.623	40.195	-1.7126
-1.0469	-1.2091	-0.6401	0.3215	-0.0313	1.7496	2.4978	2.421	3.1094	4.0966	3.906	4.1393	5.3626	1.3371	0.8307	0.0967	-2.6144	5.6527	0.9815	4.0312	2.7538	40.4795	-1.7297
-0.9701	-1.1465	-0.5377	0.3698	0.1081	1.9203	2.6087	2.6116	3.32	4.1876	4.1108	4.3612	5.482	1.3342	0.9018	0.0398	-2.6059	5.6186	1.1607	4.0539	2.9103	40.7896	-1.7211
-0.9075	-1.1123	-0.4438	0.4466	0.2447	2.0483	2.6884	2.7965	3.5106	4.3185	4.3043	4.566	5.5845	1.3001	0.9559	-0.0256	-2.5632	5.5873	1.3001	4.0482	3.044	41.0485	-1.7411
-0.8307	-1.027	-0.3414	0.5035	0.3897	2.2161	2.8022	2.9757	3.6955	4.4067	4.4949	4.768	5.6783	1.2916	0.9815	-0.1223	-2.5291	5.5873	1.4566	4.0738	3.2033	41.3187	-1.7354
-0.7169	-0.953	-0.202	0.6116	0.532	2.3499	2.8818	3.1549	3.8804	4.4977	4.64	4.9045	5.7551	1.2631	0.9872	-0.1906	-2.4921	5.5389	1.6017	4.0283	3.32	41.5605	-1.7467
-0.6116	-0.8904	-0.1053	0.6941	0.66	2.4921	2.9786	3.3512	4.0397	4.5831	4.8078	5.0951	5.8291	1.2489	1.0014	-0.2788	-2.4494	5.5048	1.7496	3.9999	3.4508	41.7796	-1.7524
-0.4979	-0.7738	0.0057	0.7909	0.8023	2.603	3.0468	3.502	4.199	4.6513	4.9586	5.2146	5.8689	1.2261	1.0156	-0.33	-2.3925	5.4052	1.8776	3.997	3.5731	41.9844	-1.7439
-0.3869	-0.6742	0.1081	0.8648	0.9416	2.7168	3.1606	3.6386	4.327	4.7282	5.0695	5.3483	5.9145	1.192	0.9701	-0.3869	-2.3214	5.3569	1.9886	3.96	3.6898	42.158	-1.7638
-0.2447	-0.5462	0.2162	0.9559	1.0953	2.8306	3.209	3.7751	4.4408	4.7879	5.2061	5.502	5.9685	1.155	0.9502	-0.3556	-2.273	5.3028	2.1223	3.9259	3.7894	42.2888	-1.7354
-0.1138	-0.4153	0.3385	1.0668	1.2176	2.933	3.3	3.8889	4.5632	4.8533	5.3028	5.5901	6.0055	1.1436	0.9075	-0.3272	-2.2389	5.2431	2.1991	3.9031	3.8719	42.3884	-1.724
-0.0114	-0.256	0.458	1.1465	1.357	3.0497	3.3825	4.0283	4.6997	4.9131	5.4251	5.6983	6.0482	1.118	0.8591	-0.2532	-2.1962	5.1976	2.3157	3.8719	3.9828	42.4567	-1.7154
0.0967	-0.128	0.5633	1.2603	1.4793	3.1436	3.4366	4.1165	4.768	4.9899	5.5105	5.7893	6.051	1.0981	0.8079	-0.1479	-2.1621	5.135	2.3982	3.8292	4.0226	42.505	-1.6813
0.1821	0.0228	0.6799	1.3826	1.6159	3.2403	3.539	4.2559	4.896	5.0553	5.5845	5.886	6.0937	1.0981	0.7539	-0.0711	-2.1507	5.0638	2.4921	3.8178	4.108	42.5818	-1.6756
0.2674	0.1479	0.7852	1.4765	1.7439	3.3427	3.5987	4.3555	4.9984	5.1179	5.684	5.997	6.1477	1.0896	0.7084	0.0057	-2.1393	5.0269	2.5689	3.7865	4.1848	42.6245	-1.6586
0.3186	0.2703	0.8535	1.6045	1.8748	3.4394	3.6841	4.4494	5.1008	5.2061	5.7893	6.1051	6.1933	1.0839	0.6828	0.0484	-2.1109	5.0013	2.6656	3.7637	4.2588	42.6587	-1.6415
0.4011	0.3869	0.9758	1.724	1.9715	3.5504	3.741	4.5489	5.1976	5.2658	5.8604	6.1961	6.2388	1.0697	0.6429	0.0882	-2.1052	4.97	2.7282	3.7381	4.3157	42.7383	-1.6273
0.4495	0.5434	1.0754	1.8406	2.1024	3.65	3.8434	4.6485	5.3341	5.3597	5.9543	6.29	6.2758	1.0782	0.66	0.1053	-2.0881	4.9557	2.8278	3.7353	4.4124	42.7952	-1.6159
0.5434	0.6742	1.1835	1.9829	2.2161	3.7552	3.9174	4.7367	5.4109	5.4166	6.0254	6.381	6.3383	1.0611	0.6714	0.1166	-2.0711	4.933	2.8705	3.7268	4.4636	42.8606	-1.5988
0.6202	0.8193	1.3115	2.1336	2.3328	3.8633	4.0255	4.8277	5.519	5.4991	6.1079	6.4607	6.3753	1.0554	0.7027	0.1223	-2.054	4.9131	2.9359	3.704	4.5176	42.9431	-1.5903
0.7226	0.9473	1.448	2.2958	2.4722	3.9913	4.0881	4.9415	5.6271	5.5759	6.1876	6.546	6.4408	1.0498	0.751	0.1394	-2.0341	4.9045	3.0099	3.6869	4.5717	43.0171	-1.5931
0.8079	1.064	1.5277	2.4011	2.5689	4.0738	4.2019	5.0183	5.6926	5.6214	6.2331	6.6001	6.4465	1.0355	0.7738	0.1394	-1.9999	4.8932	3.0497	3.6812	4.6343	43.0996	-1.6017
0.953	1.2119	1.687	2.5547	2.6998	4.1763	4.2844	5.1122	5.8149	5.7125	6.3099	6.6826	6.509	1.0099	0.8193	0.202	-1.9772	4.8875	3.1379	3.6699	4.6912	43.1508	-1.6216
1.0583	1.3428	1.8008	2.6855	2.8079	4.2872	4.3384	5.1634	5.8974	5.7608	6.3554	6.7196	6.5403	0.9957	0.8364	0.2162	-1.9402	4.8619	3.2232	3.65	4.768	43.1963	-1.6472
1.1892	1.5106	1.9544	2.8363	2.933	4.401	4.4323	5.2459	5.9685	5.8263	6.418	6.7821	6.5745	0.99	0.8734	0.2503	-1.926	4.8875	3.2801	3.667	4.8391	43.2362	-1.6728
1.2887	1.6159	2.0711	2.9615	3.044	4.4863	4.5262	5.3142	6.0283	5.8689	6.4521	6.8049	6.5716	0.9587	0.8535	0.3215	-1.8833	4.8647	3.374	3.6556	4.8789	43.2646	-1.6756
1.3854	1.7411	2.1536	3.0582	3.1521	4.5831	4.6001	5.3426	6.0908	5.9173	6.4749	6.839	6.583	0.936	0.8449	0.3784	-1.8349	4.8533	3.4423	3.667	4.9273	43.2817	-1.687
1.4708	1.852	2.2702	3.1834	3.2403	4.6769	4.6883	5.4109	6.1591	5.9998	6.5375	6.8675	6.6143	0.9331	0.8165	0.4296	-1.8093	4.8875	3.4821	3.6869	4.9842	43.313	-1.6785
1.5704	2.017	2.3783	3.2744	3.3399	4.7452	4.7594	5.465	6.2103	6.0624	6.5517	6.8931	6.6541	0.9246	0.8108	0.4666	-1.798	4.9102	3.5418	3.7125	5.0269	43.3357	-1.6898
1.6045	2.1194	2.4551	3.3768	3.4394	4.8249	4.8192	5.4963	6.2814	6.1051	6.5688	6.9187	6.6826	0.9189	0.7766	0.5178	-1.761	4.9444	3.5561	3.7125	5.0439	43.3699	-1.6785
1.6557	2.2019	2.5461	3.4423	3.5362	4.8903	4.9216	5.5361	6.3383	6.1961	6.5972	6.9614	6.7565	0.8933	0.7681	0.5519	-1.7382	4.9757	3.5703	3.7581	5.0695	43.4125	-1.6728
1.7211	2.3299	2.6599	3.5049	3.6272	5.0269	5.0468	5.5645	6.418	6.3213	6.6257	7.024	6.8305	0.8762	0.7681	0.5974	-1.7183	5.0468	3.65	3.8178	5.1179	43.478	-1.6472
1.7695	2.4466	2.7424	3.5959	3.7239	5.1179	5.1293	5.6214	6.4863	6.3896	6.6627	7.0894	6.8988	0.8677	0.7681	0.6685	-1.7012	5.0866	3.6585	3.8747	5.1207	43.5434	-1.6187
1.8036	2.586	2.8335	3.6699	3.8377	5.2146	5.2545	5.684	6.5858	6.5176	6.7423	7.1605	7.0154	0.8648	0.7823	0.734	-1.6728	5.1577	3.6841	3.9657	5.1947	43.6088	-1.5874
1.8264	2.6742	2.9302	3.7353	3.9401	5.3256	5.3455	5.7267	6.674	6.6143	6.7708	7.2572	7.0894	0.8364	0.7653	0.7454	-1.6358	5.1976	3.6983	3.98	5.189	43.7283	-1.5675
1.9061	2.7908	3.0127	3.7979	4.0198	5.4166	5.4507	5.7779	6.7793	6.7309	6.839	7.3284	7.206	0.8222	0.788	0.788	-1.6102	5.2715	3.7296	4.0482	5.2459	43.845	-1.5334
1.9857	2.8989	3.1407	3.8719	4.1421	5.5389	5.556	5.8377	6.8874	6.8476	6.8902	7.4194	7.2999	0.8051	0.8023	0.8819	-1.5704	5.3142	3.7581	4.1137	5.2687	43.9645	-1.4964
2.1024	3.0355	3.2545	3.9629	4.2815	5.6556	5.6698	5.923	6.9841	6.9671	6.9671	7.5133	7.3995	0.788	0.8677	0.9132	-1.5419	5.3682	3.8235	4.1677	5.3114	44.0868	-1.4708
2.1934	3.1379	3.3399	4.0397	4.3896	5.7523	5.7779	6.0027	7.0752	7.0837	7.024	7.6356	7.5104	0.7738	0.9303	0.9929	-1.4992	5.4024	3.8235	4.2189	5.3284	44.2176	-1.4623
2.2617	3.2517	3.4565	4.0824	4.4807	5.832	5.8775	6.0595	7.1804	7.169	7.078	7.7153	7.5673	0.7596	0.9929	1.027	-1.4623	5.4223	3.8719	4.2559	5.3597	44.3514	-1.4196
2.3669	3.3171	3.5845	4.1791	4.5944	5.9401	5.977	6.1278	7.2885	7.2487	7.1662	7.8148	7.6527	0.7311	1.0668	1.0953	-1.4224	5.4564	3.8946	4.273	5.3882	44.4708	-1.4139
2.458	3.4451	3.6556	4.2502	4.6855	6.0311	6.0624	6.2018	7.3597	7.3227	7.2203	7.8774	7.7295	0.6941	1.1237	1.1351	-1.3513	5.4422	3.9231	4.3043	5.3967	44.5789	-1.4025
2.5575	3.5248	3.7524	4.2957	4.768	6.0709	6.1335	6.253	7.4251	7.3909	7.2658	7.9315	7.7494	0.6629	1.1749	1.155	-1.2916	5.4422	3.9458	4.3128	5.4195	44.6899	-1.4025
2.6343	3.6244	3.8462	4.3782	4.8505	6.1364	6.2132	6.3213	7.5161	7.4706	7.3511	8.0083	7.8177	0.6429	1.2261	1.2432	-1.246	5.4764	3.9942	4.364	5.4507	44.7752	-1.4196
2.6912	3.6983	3.8946	4.4124	4.9387	6.1819	6.2416	6.3497	7.5616	7.499	7.3853	8.0737	7.8632	0.606	1.2773	1.266	-1.1692	5.4451	4.0113	4.3356	5.4394	44.8634	-1.4367
2.7396	3.7438	3.9572	4.4152	5.0098	6.216	6.3099	6.3867	7.6128	7.5417	7.4422	8.1249	7.8888	0.569	1.3598	1.3257	-1.1067	5.4195	4.0283	4.3413	5.4621	44.9459	-1.4566
2.7737	3.8093	4.0226	4.4892	5.0951	6.2701	6.3753	6.4749	7.6897	7.6043	7.5076	8.2017	7.94	0.5405	1.4281	1.3741	-1.0526	5.4451	4.0738	4.3782	5.4934	44.9971	-1.5049
2.7624	3.815	4.0454	4.4977	5.1293	6.2871	6.418	6.5346	7.7494	7.6328	7.5645	8.2586	7.9656	0.5149	1.4822	1.4025	-1.0099	5.4195	4.0938	4.3441	5.5048	45.1052	-1.5277
2.7311	3.8377	4.0852	4.4892	5.2032	6.3383	6.4237	6.583	7.8063	7.6584	7.5901	8.3411	8.0168	0.4979	1.5049	1.3655	-0.9587	5.4223	4.1364	4.364	5.519	45.2162	-1.5817
2.7282	3.8747	4.1137	4.529	5.2971	6.3611	6.4493	6.6371	7.8603	7.6982	7.6641	8.3866	8.0453	0.4922	1.6045	1.3712	-0.9416	5.4052	4.1734	4.3384	5.5589	45.3186	-1.6216
2.7168	3.8975	4.1165	4.5233	5.337	6.3924	6.4891	6.6968	7.9258	7.7153	7.7437	8.4492	8.0566	0.4808	1.6244	1.3001	-0.9132	5.3853	4.2132	4.3469	5.5901	45.4267	-1.6614
2.7168	3.9088	4.1421	4.5432	5.3853	6.4379	6.4948	6.7509	7.9713	7.738	7.7835	8.4976	8.0965	0.4722	1.6386	1.192	-0.8961	5.3654	4.2588	4.3185	5.6101	45.5746	-1.6984
2.6969	3.9344	4.1734	4.5745	5.4394	6.4265	6.4806	6.8106	8.0253	7.7437	7.8689	8.5716	8.1278	0.4694	1.6642	1.081	-0.8762	5.3455	4.2844	4.3071	5.6527	45.7226	-1.7211
2.6656	3.9231	4.1933	4.5461	5.4764	6.4721	6.4721	6.8476	8.0453	7.7209	7.903	8.6	8.0851	0.4495	1.6614	0.9729	-0.8563	5.3142	4.2986	4.2588	5.667	45.862	-1.7496
2.6599	3.9316	4.2445	4.5973	5.5219	6.4948	6.4408	6.9102	8.0822	7.7209	7.94	8.6341	8.1078	0.4438	1.6329	0.8421	-0.8364	5.2914	4.3299	4.2104	5.6926	46.0184	-1.8093
2.6685	3.9373	4.2502	4.6087	5.5589	6.5147	6.4408	6.9358	8.1221	7.7096	7.9969	8.6512	8.068	0.4381	1.6244	0.7397	-0.825	5.2516	4.3327	4.145	5.721	46.1607	-1.852
2.6685	3.9174	4.2588	4.6257	5.5816	6.5375	6.4465	6.9813	8.1591	7.6925	8.0481	8.7081	8.0623	0.4125	1.5647	0.6088	-0.7994	5.2232	4.3612	4.1222	5.7694	46.283	-1.8947
2.6855	3.9202	4.2957	4.6286	5.63	6.5574	6.4408	7.024	8.1989	7.6641	8.0936	8.7223	8.051	0.3954	1.5362	0.5291	-0.7567	5.2032	4.3697	4.0539	5.7751	46.3826	-1.9345
2.7197	3.9714	4.3555	4.6684	5.647	6.62	6.4351	7.0524	8.2245	7.6584	8.1619	8.7565	8.0282	0.3784	1.4566	0.4353	-0.7283	5.1833	4.4038	4.0198	5.8007	46.4679	-1.9914
2.7026	3.9714	4.364	4.6883	5.6726	6.6513	6.4436	7.0723	8.2501	7.6413	8.2074	8.7963	8.0197	0.3556	1.3655	0.3641	-0.6799	5.152	4.4038	3.9487	5.8234	46.5277	-2.0568
2.7168	3.9771	4.4209	4.7082	5.7239	6.7025	6.4265	7.1264	8.3155	7.6384	8.2529	8.8504	8.0054	0.3471	1.2688	0.3016	-0.6344	5.1463	4.4181	3.8975	5.8462	46.5362	-2.0682
2.7481	4.034	4.4977	4.7708	5.795	6.7708	6.4322	7.2032	8.4037	7.6669	8.2899	8.8788	8.0339	0.3186	1.1579	0.2617	-0.6088	5.1549	4.455	3.8832	5.9031	46.522	-2.1052
2.714	4.0482	4.5091	4.7765	5.812	6.8277	6.4607	7.206	8.4265	7.6697	8.3411	8.9357	8.0168	0.3016	1.0526	0.2191	-0.5547	5.1577	4.4522	3.8491	5.8832	46.485	-2.1166
2.7026	4.1051	4.5575	4.822	5.8746	6.8931	6.492	7.2601	8.4919	7.701	8.398	9.0011	8.0538	0.2816	0.8876	0.1622	-0.532	5.1748	4.455	3.8206	5.9088	46.4452	-2.1308
2.6514	4.1222	4.566	4.8163	5.8945	6.9585	6.5005	7.2828	8.5488	7.7039	8.4236	9.0097	8.0737	0.2703	0.7596	0.1536	-0.4979	5.2402	4.438	3.7894	5.9116	46.394	-2.1251
2.6173	4.1649	4.6087	4.8306	5.9344	7.0211	6.5318	7.3597	8.6171	7.7494	8.4635	9.0694	8.1107	0.276	0.6202	0.1166	-0.4979	5.2971	4.438	3.8093	5.9287	46.3797	-2.1365
2.5803	4.1962	4.6201	4.8363	5.9571	7.078	6.546	7.4023	8.6882	7.7608	8.5118	9.1377	8.1591	0.256	0.5064	0.1422	-0.495	5.3512	4.4408	3.7979	5.9458	46.3598	-2.1109
2.475	4.2019	4.6058	4.8021	5.9742	7.1349	6.5574	7.4137	8.7423	7.7978	8.546	9.1804	8.1989	0.2617	0.367	0.128	-0.4893	5.4052	4.4238	3.815	5.9628	46.3883	-2.1166
2.4181	4.2445	4.6058	4.8021	6.014	7.2032	6.5887	7.4535	8.8077	7.8547	8.6512	9.26	8.2757	0.2731	0.2646	0.1707	-0.5121	5.5219	4.455	3.8576	6.0083	46.4281	-2.1052
2.3413	4.2559	4.6144	4.7623	6.0396	7.2402	6.6115	7.519	8.8873	7.9144	8.7053	9.3567	8.3497	0.2902	0.1849	0.2219	-0.5263	5.6243	4.4664	3.8861	6.051	46.4765	-2.0739
2.2844	4.2644	4.5859	4.6912	6.0624	7.2715	6.6115	7.5503	8.9329	7.9315	8.7479	9.4051	8.4322	0.2816	0.1309	0.2589	-0.5377	5.7352	4.4892	3.9288	6.0908	46.559	-2.0711
2.2161	4.2644	4.5717	4.6314	6.0396	7.2857	6.6228	7.5815	8.9755	7.9884	8.8048	9.499	8.5374	0.2959	0.0654	0.3186	-0.5547	5.8462	4.4807	3.9856	6.1335	46.65	-2.0597
2.1621	4.2417	4.5205	4.5432	6.0169	7.3084	6.6143	7.6271	9.0267	8.014	8.8703	9.553	8.6199	0.3016	0.0341	0.367	-0.5832	5.9884	4.5176	4.0226	6.179	46.7353	-2.0654
2.054	4.2047	4.4807	4.4721	6.014	7.3028	6.6228	7.6498	9.0495	8.0623	8.9414	9.6156	8.7309	0.3101	-0.0142	0.3954	-0.6003	6.1449	4.5176	4.0824	6.2388	46.8321	-2.0711
1.9601	4.162	4.3896	4.364	5.9685	7.2743	6.6228	7.6669	9.058	8.1164	8.9841	9.664	8.8077	0.3385	-0.0427	0.4182	-0.6401	6.2957	4.4807	4.1535	6.2758	46.9373	-2.1052
1.8577	4.1137	4.3014	4.2673	5.9315	7.2686	6.5858	7.6754	9.0495	8.1363	9.0182	9.7038	8.93	0.3556	-0.0569	0.4552	-0.6714	6.4692	4.4892	4.1933	6.3071	47.0227	-2.108
1.7354	4.0084	4.1905	4.1421	5.8576	7.2174	6.5546	7.6612	9.0097	8.1505	9.0296	9.7152	9.0381	0.3784	-0.1422	0.4153	-0.7112	6.6513	4.4693	4.2559	6.327	47.1422	-2.1365
1.5704	3.8719	4.0596	4.0226	5.7665	7.1406	6.5261	7.5986	8.9698	8.1619	9.0182	9.7209	9.1263	0.3954	-0.2247	0.367	-0.751	6.8362	4.4294	4.3242	6.3127	47.256	-2.1479
1.394	3.7438	3.9202	3.8861	5.6584	7.0496	6.4664	7.5588	8.893	8.1534	8.9812	9.7152	9.2173	0.4296	-0.3044	0.2731	-0.8193	7.0325	4.3754	4.3697	6.2843	47.3783	-2.1792
1.2091	3.6016	3.7666	3.7353	5.5389	6.9727	6.4123	7.499	8.8276	8.1562	8.9442	9.6867	9.3425	0.4523	-0.4381	0.1422	-0.8705	7.2487	4.2872	4.4465	6.2558	47.4835	-2.1849
1.0185	3.4053	3.6244	3.6215	5.3995	6.822	6.3696	7.4137	8.7309	8.1363	8.876	9.6583	9.4392	0.4922	-0.5775	-0.0284	-0.9303	7.4393	4.2189	4.4892	6.179	47.6059	-2.2617
0.8222	3.2147	3.4337	3.4537	5.2317	6.711	6.3156	7.3028	8.6	8.1221	8.8077	9.6014	9.5075	0.5149	-0.7226	-0.2361	-0.9985	7.6384	4.0767	4.5489	6.0852	47.6941	-2.2844
0.6031	3.0099	3.2574	3.3427	5.0809	6.5887	6.2217	7.189	8.5033	8.1078	8.6768	9.5417	9.6099	0.5434	-0.8961	-0.4466	-1.0668	7.8859	3.9714	4.6087	5.9913	47.7396	-2.2958
0.404	2.8164	3.0867	3.2261	4.9017	6.4607	6.1506	7.0325	8.3582	8.0879	8.5716	9.4592	9.6839	0.5917	-1.0782	-0.7055	-1.1635	8.1335	3.8377	4.6741	5.8917	47.7766	-2.3442
0.2134	2.5945	2.9444	3.1094	4.7026	6.2985	6.0823	6.8817	8.1903	8.0538	8.4009	9.3454	9.7607	0.6515	-1.2574	-0.9473	-1.2517	8.3838	3.7069	4.7452	5.7409	47.7766	-2.3612
0.0427	2.3527	2.751	2.9871	4.4636	6.1477	5.96	6.6826	8.0111	7.9656	8.2131	9.2031	9.792	0.6913	-1.4566	-1.2432	-1.3428	8.6228	3.5248	4.7936	5.5589	47.7652	-2.3982
-0.1366	2.0967	2.5803	2.8875	4.2161	5.9799	5.8832	6.4806	7.812	7.8916	8.0339	9.058	9.8375	0.7454	-1.6301	-1.4736	-1.4452	8.8589	3.3427	4.8619	5.3682	47.7083	-2.3925
-0.2987	1.8463	2.4039	2.7538	3.9629	5.7608	5.7324	6.2359	7.5787	7.7921	7.7807	8.8646	9.8091	0.7994	-1.8492	-1.7923	-1.5533	9.0893	3.1777	4.9102	5.1663	47.6713	-2.4096
-0.4637	1.5874	2.2076	2.6315	3.6699	5.5418	5.5759	5.9714	7.3028	7.6527	7.5076	8.6228	9.8091	0.8677	-2.0369	-2.0853	-1.6756	9.3169	2.953	4.9501	4.9501	47.6172	-2.3925
-0.6173	1.3001	1.9743	2.4608	3.3399	5.2772	5.4138	5.6556	6.987	7.4763	7.2174	8.3639	9.7294	0.9104	-2.2531	-2.3925	-1.7695	9.5417	2.6884	4.9757	4.6741	47.5916	-2.3755
-0.7653	1.0298	1.8065	2.3129	3.044	5.0326	5.2232	5.3085	6.6826	7.3255	6.8789	8.0879	9.6441	0.9701	-2.4636	-2.6884	-1.9004	9.7408	2.4523	4.9984	4.4266	47.5604	-2.3641
-0.9445	0.7311	1.5817	2.1592	2.7026	4.7054	5.0041	5.0041	6.3412	7.1093	6.5375	7.7437	9.4961	1.0185	-2.6713	-3.0042	-2.0056	9.9058	2.2105	5.0013	4.162	47.5319	-2.3299
-1.0924	0.4239	1.3627	1.9999	2.3499	4.401	4.7907	4.6457	5.9657	6.8817	6.1847	7.4422	9.371	1.0867	-2.9046	-3.3171	-2.1194	10.0907	1.9402	5.0098	3.8889	47.5205	-2.3072
-1.2773	0.1565	1.1266	1.8548	2.0341	4.0909	4.5688	4.3128	5.5987	6.6683	5.849	7.1065	9.2458	1.1379	-3.0838	-3.6073	-2.2275	10.2159	1.7183	4.987	3.6699	47.4807	-2.2759
-1.4367	-0.128	0.8876	1.6728	1.6642	3.7524	4.3327	3.9401	5.2203	6.4294	5.5133	6.7679	9.0751	1.1948	-3.3228	-3.9003	-2.3413	10.3809	1.4936	4.9813	3.4224	47.4665	-2.2531
-1.6216	-0.4182	0.6828	1.5135	1.3542	3.4593	4.0966	3.6272	4.8249	6.216	5.1919	6.4521	8.9357	1.2489	-3.5305	-4.1876	-2.4523	10.5032	1.2745	4.987	3.2033	47.4608	-2.2218
-1.8065	-0.6202	0.4666	1.3741	1.0611	3.1379	3.8747	3.3029	4.4778	5.9685	4.8676	6.1449	8.7906	1.3058	-3.7239	-4.4351	-2.5604	10.6426	1.0697	4.9813	3.0013	47.4437	-2.1991
-1.9573	-0.825	0.2816	1.2489	0.7937	2.8733	3.6812	3.0127	4.1563	5.7751	4.6286	5.8604	8.691	1.3627	-3.9117	-4.6883	-2.6685	10.7564	0.9104	4.97	2.8477	47.4266	-2.1536
-2.0967	-0.9957	0.1309	1.1664	0.5775	2.6201	3.4906	2.7823	3.8747	5.6072	4.4067	5.6414	8.5829	1.4111	-4.1137	-4.9188	-2.7709	10.8901	0.7454	4.987	2.6998	47.4039	-2.1365
-2.2304	-1.101	-0.0171	1.0896	0.4011	2.4124	3.3484	2.586	3.6158	5.4678	4.2417	5.4536	8.526	1.4651	-4.2616	-5.1236	-2.8648	11.0267	0.6401	4.9813	2.6286	47.3868	-2.0995
-2.3499	-1.1863	-0.1024	1.0469	0.2788	2.2361	3.2204	2.4352	3.3882	5.3341	4.0852	5.2943	8.472	1.5135	-4.4209	-5.2715	-2.953	11.1348	0.5832	4.987	2.5746	47.3584	-2.0711
-2.4096	-1.2148	-0.1593	1.0441	0.1991	2.1024	3.1265	2.3527	3.2403	5.2289	3.9942	5.1919	8.4464	1.5277	-4.5717	-5.3626	-3.0099	11.2429	0.5434	5.007	2.5974	47.3214	-2.0625
-2.4181	-1.1607	-0.1536	1.0839	0.1707	2.0255	3.0497	2.273	3.1123	5.172	3.96	5.098	8.4265	1.5647	-4.6883	-5.4564	-3.0753	11.3396	0.5576	5.0183	2.6457	47.3185	-2.0369
-2.3925	-1.0725	-0.1195	1.1493	0.2219	1.9829	3.0326	2.293	3.0554	5.1577	3.9942	5.0838	8.4549	1.5817	-4.7936	-5.4707	-3.1123	11.4363	0.6259	5.061	2.7339	47.2929	-2.0255
-2.3157	-0.936	-0.0199	1.2318	0.3129	2.0056	3.0184	2.3271	3.0241	5.1293	4.0312	5.1094	8.4578	1.596	-4.8562	-5.4564	-3.135	11.4904	0.7311	5.0838	2.8449	47.31	-2.0284
-2.2076	-0.7909	0.1195	1.3342	0.4523	2.0682	3.0554	2.4409	3.0611	5.1151	4.1336	5.1492	8.4919	1.5874	-4.9159	-5.4166	-3.1237	11.5103	0.8279	5.0923	3.0013	47.3328	-2.0255
-2.054	-0.5747	0.2731	1.4452	0.6145	2.1849	3.0867	2.5689	3.1578	5.1463	4.2844	5.2431	8.5403	1.5789	-4.9045	-5.3284	-3.0952	11.5131	0.9729	5.1037	3.1919	47.3669	-2.0255
-1.8776	-0.3158	0.4922	1.6073	0.8677	2.3442	3.1464	2.7567	3.3086	5.2061	4.438	5.3967	8.6	1.5504	-4.9074	-5.2118	-3.0525	11.4989	1.1436	5.1065	3.3655	47.4181	-2.0597
-1.6614	-0.0199	0.7169	1.7894	1.1237	2.5632	3.2431	2.9956	3.4707	5.2715	4.6513	5.5503	8.6683	1.5248	-4.8306	-5.0468	-2.9928	11.4449	1.3485	5.0866	3.5618	47.5006	-2.1052
-1.3854	0.276	1.0128	1.9715	1.4281	2.7993	3.3882	3.2431	3.7268	5.3882	4.8932	5.7665	8.7679	1.5078	-4.7424	-4.8761	-2.9302	11.4136	1.5391	5.0923	3.7495	47.5945	-2.1422
-1.1522	0.6173	1.2944	2.1536	1.7382	3.0838	3.5447	3.5191	3.9913	5.5219	5.1321	5.9913	8.8674	1.4537	-4.5916	-4.657	-2.8562	11.3197	1.7439	5.0809	3.9515	47.7026	-2.1592
-0.8876	0.9502	1.6386	2.3669	2.1308	3.4195	3.7211	3.8519	4.3157	5.7039	5.4251	6.2985	8.9926	1.4167	-4.4351	-4.4266	-2.7652	11.2315	1.98	5.0809	4.1421	47.8192	-2.2304
-0.5974	1.3143	1.9573	2.5831	2.4836	3.7808	3.9316	4.1962	4.7026	5.8889	5.7551	6.6285	9.095	1.3769	-4.2218	-4.1876	-2.677	11.1547	2.2218	5.0781	4.3185	47.9672	-2.293
-0.3442	1.6671	2.2901	2.8107	2.8847	4.1677	4.1478	4.5632	5.1179	6.1193	6.1051	6.9756	9.2942	1.32	-3.98	-3.9316	-2.5917	11.0921	2.4608	5.0951	4.529	48.1492	-2.3584
-0.0654	2.0255	2.6315	3.0525	3.2858	4.5745	4.4124	4.9557	5.5304	6.3782	6.455	7.371	9.4876	1.283	-3.7325	-3.667	-2.5035	11.0068	2.6827	5.1435	4.7481	48.3541	-2.4352
0.2048	2.4039	3.0269	3.2687	3.7097	4.9984	4.657	5.3512	5.997	6.6371	6.8248	7.7522	9.6782	1.2375	-3.4593	-3.4394	-2.421	10.9129	2.9188	5.1577	4.9586	48.5788	-2.4921
0.4438	2.7254	3.3512	3.5049	4.1051	5.3939	4.9444	5.7381	6.4721	6.9272	7.1946	8.1591	9.8859	1.1806	-3.1635	-3.1948	-2.3328	10.8389	3.1692	5.2032	5.1378	48.8292	-2.5718
0.7283	3.0639	3.6983	3.7012	4.5034	5.8177	5.2089	6.1392	6.9557	7.1975	7.5844	8.5886	10.0907	1.1323	-2.8818	-2.9672	-2.2474	10.7593	3.3968	5.2431	5.3256	49.088	-2.6286
0.9985	3.3683	4.034	3.9344	4.8789	6.2473	5.4707	6.5432	7.4393	7.4848	7.9428	9.0097	10.3041	1.1067	-2.5774	-2.7225	-2.1621	10.6711	3.613	5.2914	5.5304	49.3441	-2.7026
1.2119	3.6443	4.3555	4.1222	5.2402	6.6712	5.7438	6.9159	7.903	7.7636	8.307	9.3994	10.5174	1.064	-2.3214	-2.5205	-2.0711	10.5914	3.815	5.3114	5.7039	49.6229	-2.7624
1.4822	3.9088	4.694	4.3327	5.5845	7.0666	5.9913	7.2885	8.3753	8.0367	8.6512	9.792	10.691	1.0241	-2.0028	-2.2873	-1.9971	10.4833	4.0454	5.354	5.8889	49.8761	-2.8249
1.7382	4.1563	4.9842	4.5091	5.9145	7.4393	6.2473	7.6072	8.802	8.2899	8.9613	10.1476	10.8446	0.9815	-1.6927	-2.0767	-1.9203	10.3581	4.236	5.3682	6.0368	50.1492	-2.9217
1.9601	4.3555	5.2317	4.6229	6.1989	7.775	6.4607	7.8973	9.1974	8.5061	9.2429	10.4805	10.9698	0.9331	-1.4139	-1.8805	-1.8207	10.2187	4.3782	5.3654	6.1477	50.4052	-2.9672
2.1849	4.5063	5.4877	4.7481	6.4265	8.0595	6.6314	8.1562	9.553	8.6711	9.5104	10.7507	11.058	0.8791	-1.1692	-1.6756	-1.7211	10.0367	4.5347	5.3313	6.2473	50.6612	-3.0127
2.3612	4.6684	5.6812	4.8306	6.6541	8.3582	6.7935	8.4037	9.883	8.8333	9.7323	10.9925	11.1262	0.8364	-0.9502	-1.4793	-1.6358	9.8404	4.6627	5.3199	6.3298	50.8831	-3.0468
2.512	4.7566	5.8433	4.8846	6.8134	8.5943	6.9187	8.5858	10.1732	8.9613	9.883	11.2059	11.1462	0.788	-0.8051	-1.3513	-1.5334	9.6441	4.7395	5.2801	6.3924	51.1221	-3.0781
2.6116	4.8135	5.9628	4.9245	6.9528	8.7821	6.9984	8.7479	10.4065	9.0267	10.0224	11.3709	11.1206	0.7425	-0.6486	-1.1749	-1.4338	9.3852	4.7907	5.2203	6.4038	51.3127	-3.118
2.6713	4.8562	6.0396	4.8903	7.0097	8.9357	7.0467	8.8532	10.6255	9.095	10.1049	11.4904	11.0864	0.6856	-0.5775	-1.0697	-1.3285	9.1263	4.822	5.1293	6.3867	51.4834	-3.1293
2.6912	4.8505	6.1193	4.8903	7.0865	9.0666	7.0553	8.9585	10.7962	9.1035	10.1505	11.6013	11.0153	0.6344	-0.495	-0.9616	-1.2375	8.8532	4.8391	5.0411	6.3526	51.6427	-3.118
2.6827	4.8334	6.1193	4.8448	7.115	9.1519	7.0524	8.9954	10.9328	9.1178	10.2187	11.6924	10.9385	0.5974	-0.4381	-0.862	-1.1607	8.5602	4.8505	4.933	6.3127	51.7423	-3.1237
2.6543	4.7822	6.088	4.7651	7.1008	9.2515	7.0809	9.0154	11.0494	9.1348	10.2586	11.7606	10.8787	0.5718	-0.4296	-0.8165	-1.0924	8.2928	4.8363	4.8419	6.2558	51.8419	-3.0838
2.5746	4.6912	6.0624	4.6627	7.0325	9.2686	7.0382	9.0097	11.1547	9.1292	10.2386	11.8033	10.7934	0.5291	-0.4637	-0.825	-1.0213	8.0339	4.7794	4.7395	6.1961	51.9301	-3.0696
2.4807	4.6257	5.9799	4.5461	6.9671	9.2913	7.0012	8.9898	11.2144	9.0779	10.233	11.8232	10.7308	0.4922	-0.4808	-0.7966	-0.9616	7.7551	4.7196	4.6457	6.0994	51.9756	-3.0099
2.3641	4.5119	5.9287	4.4095	6.9016	9.3055	6.9358	8.9755	11.2713	9.0666	10.2244	11.8688	10.6512	0.4666	-0.5405	-0.8222	-0.9075	7.5247	4.6769	4.5603	6.0083	52.0467	-2.97
2.2617	4.3782	5.8007	4.3071	6.7964	9.297	6.8789	8.9186	11.3282	9.0324	10.2045	11.8944	10.6028	0.4523	-0.623	-0.862	-0.8705	7.3113	4.6172	4.5006	5.9258	52.0695	-2.9274
2.1649	4.2986	5.6926	4.162	6.6712	9.2629	6.785	8.8447	11.3311	8.9727	10.1505	11.8972	10.5032	0.4239	-0.7425	-0.916	-0.8193	7.0581	4.5461	4.4181	5.8377	52.0922	-2.8733
2.0654	4.1364	5.5873	4.0255	6.529	9.2003	6.694	8.7935	11.3225	8.9016	10.1163	11.8972	10.4207	0.4011	-0.8449	-0.9758	-0.771	6.8561	4.4892	4.3612	5.7409	52.1064	-2.8079
1.9658	4.0198	5.4251	3.8633	6.3725	9.1206	6.5802	8.6939	11.2799	8.8447	10.031	11.8631	10.3468	0.3784	-0.9758	-1.1209	-0.7311	6.6627	4.4152	4.2758	5.6414	52.1349	-2.7823
1.8406	3.8662	5.2715	3.6756	6.1904	8.9926	6.4095	8.5829	11.2116	8.7081	9.9286	11.8232	10.1931	0.3499	-1.1323	-1.2176	-0.6799	6.4294	4.3441	4.1706	5.5247	52.1662	-2.7424
1.761	3.7353	5.1264	3.5191	6.0254	8.8703	6.2871	8.472	11.1291	8.5886	9.8489	11.7208	10.0537	0.3328	-1.2546	-1.3712	-0.623	6.2046	4.2701	4.0909	5.4394	52.1719	-2.7083
1.6557	3.576	4.9529	3.3342	5.8291	8.711	6.1108	8.3354	10.9982	8.4435	9.7436	11.6184	9.8973	0.3101	-1.3456	-1.4936	-0.586	5.9998	4.2047	3.9657	5.3284	52.1776	-2.6998
1.5419	3.4167	4.768	3.1379	5.6556	8.5545	5.9202	8.2273	10.8531	8.2558	9.627	11.4904	9.7152	0.276	-1.4196	-1.6329	-0.5377	5.7409	4.1222	3.8263	5.2317	52.1719	-2.6912
1.4537	3.283	4.5546	2.9501	5.4621	8.3297	5.7182	8.051	10.6881	8.0566	9.5018	11.3254	9.499	0.2703	-1.4822	-1.7837	-0.5064	5.5219	4.0596	3.704	5.1378	52.1434	-2.6941
1.3342	3.1322	4.364	2.7908	5.2857	8.1022	5.5219	7.9201	10.5089	7.8575	9.3567	11.1689	9.2856	0.2674	-1.5448	-1.9573	-0.4836	5.2886	4.0169	3.5646	5.0525	52.1064	-2.6884
1.2005	2.9928	4.1563	2.5917	5.1094	7.8916	5.3085	7.7665	10.3126	7.6356	9.2202	10.9925	9.058	0.2418	-1.6017	-2.0967	-0.4552	5.0212	3.9714	3.4309	4.9757	52.0495	-2.7197
1.0839	2.8562	3.9401	2.4153	4.9444	7.647	5.0895	7.6584	10.122	7.4165	9.1064	10.7991	8.8048	0.2503	-1.6017	-2.2275	-0.4523	4.7794	3.9145	3.2773	4.9216	51.9699	-2.7282
0.9473	2.7055	3.7182	2.273	4.7936	7.4222	4.8732	7.5019	9.8745	7.1918	8.9613	10.5943	8.5545	0.2333	-1.6244	-2.421	-0.4495	4.5518	3.8946	3.1037	4.8476	51.9244	-2.7538
0.8051	2.5575	3.5134	2.1166	4.6314	7.1975	4.6997	7.3767	9.6782	6.9841	8.8361	10.4036	8.3411	0.2418	-1.6671	-2.5888	-0.441	4.3356	3.8462	2.9843	4.7623	51.8447	-2.7908
0.6714	2.4693	3.3484	2.0198	4.5404	7.0382	4.5347	7.3084	9.5331	6.8049	8.7451	10.2557	8.1477	0.2361	-1.6586	-2.7368	-0.4296	4.1421	3.8235	2.879	4.6855	51.7821	-2.7823
0.5718	2.4153	3.2147	1.9203	4.4494	6.8476	4.401	7.2515	9.3397	6.6314	8.6541	10.1049	7.9741	0.2276	-1.6984	-2.842	-0.4182	3.9828	3.8121	2.7652	4.6457	51.7167	-2.8079
0.4609	2.3726	3.1094	1.8406	4.4238	6.6968	4.29	7.2089	9.1974	6.4948	8.5886	9.9769	7.8319	0.2276	-1.6984	-2.9843	-0.4125	3.8491	3.8235	2.6599	4.6144	51.7025	-2.8249
0.4125	2.3755	3.0611	1.798	4.455	6.6115	4.2132	7.206	9.1149	6.3839	8.5431	9.8802	7.7067	0.2162	-1.6756	-3.0525	-0.3954	3.7154	3.8292	2.5831	4.5831	51.6598	-2.8193
0.4068	2.4181	3.0269	1.8236	4.4807	6.5261	4.1763	7.189	9.0324	6.3156	8.509	9.8091	7.6128	0.2219	-1.6472	-3.0981	-0.404	3.6215	3.8832	2.4949	4.5575	51.6626	-2.8107
0.4068	2.4722	3.0241	1.8548	4.5745	6.5119	4.1706	7.2345	8.967	6.2615	8.5175	9.7522	7.5303	0.2162	-1.6017	-3.1293	-0.3727	3.5219	3.9316	2.4523	4.5489	51.6939	-2.805
0.4922	2.5803	3.0497	1.9203	4.6969	6.5033	4.1962	7.3312	8.9528	6.2416	8.5289	9.7095	7.4422	0.2048	-1.5533	-3.0867	-0.3613	3.4707	3.997	2.4124	4.5859	51.7394	-2.7993
0.5718	2.7083	3.1322	1.9999	4.822	6.5261	4.2246	7.3995	8.9442	6.2246	8.546	9.664	7.3938	0.1849	-1.4566	-3.0156	-0.33	3.4081	4.0653	2.384	4.6115	51.7992	-2.7652
0.6657	2.879	3.2545	2.0995	4.9501	6.5716	4.2644	7.4905	8.9385	6.1989	8.5659	9.6128	7.3255	0.1593	-1.3371	-2.8989	-0.2987	3.3427	4.1194	2.3299	4.6201	51.8931	-2.751
0.7738	3.0468	3.3655	2.2275	5.1293	6.6342	4.3157	7.5929	8.9129	6.1819	8.5886	9.5758	7.2572	0.1366	-1.2375	-2.7624	-0.2532	3.2687	4.2019	2.2873	4.6542	52.004	-2.7595
0.8933	3.2033	3.5049	2.3442	5.2971	6.7167	4.3982	7.6897	8.9556	6.1733	8.6341	9.5502	7.2032	0.1252	-1.1237	-2.6173	-0.2105	3.2033	4.2986	2.2503	4.7054	52.152	-2.751
1.0213	3.3512	3.6386	2.4665	5.4593	6.7679	4.455	7.7778	8.9755	6.1449	8.6398	9.4762	7.1008	0.1024	-0.9559	-2.458	-0.1735	3.1322	4.364	2.219	4.7481	52.334	-2.7424
1.1294	3.5362	3.8121	2.6315	5.6499	6.8504	4.5375	7.8803	8.9841	6.1221	8.6569	9.4592	7.0126	0.074	-0.8392	-2.2958	-0.1166	3.0298	4.4351	2.1507	4.7794	52.5559	-2.7624
1.2546	3.6756	3.9487	2.7567	5.795	6.9699	4.5888	7.9827	9.041	6.125	8.6825	9.4108	6.9301	0.0484	-0.7454	-2.1592	-0.0711	2.9643	4.5233	2.1024	4.8021	52.8006	-2.7766
1.3399	3.7894	4.0852	2.8875	5.9401	7.0496	4.657	8.0538	9.0495	6.0908	8.6797	9.3511	6.8248	0.0256	-0.6031	-2.0511	-0.0313	2.8477	4.5688	2.054	4.822	53.0908	-2.8079
1.448	3.9316	4.2332	3.0241	6.0908	7.1349	4.7481	8.1306	9.1121	6.0709	8.6683	9.3283	6.7423	0.0171	-0.4779	-1.8918	0.0028	2.7481	4.6172	2.0227	4.8277	53.4008	-2.8477
1.5305	4.0397	4.364	3.1749	6.2189	7.2572	4.8363	8.2188	9.1491	6.0766	8.691	9.3112	6.6968	0	-0.3755	-1.7723	0.0284	2.6571	4.6485	1.9829	4.8391	53.7508	-2.8904
1.6073	4.1364	4.5034	3.2943	6.327	7.3909	4.9102	8.27	9.2316	6.0681	8.711	9.2828	6.6228	-0.0199	-0.2816	-1.6329	0.0569	2.5575	4.6741	1.9459	4.8192	54.1149	-2.916
1.6756	4.2189	4.6627	3.4593	6.4436	7.5047	5.0212	8.3724	9.2913	6.1051	8.7337	9.3027	6.5745	-0.0256	-0.2048	-1.5049	0.0825	2.475	4.6912	1.9317	4.822	54.4904	-2.9757
1.7752	4.31	4.7851	3.6215	6.5517	7.6498	5.1435	8.4464	9.3994	6.1506	8.7536	9.3368	6.5716	-0.0398	-0.1252	-1.3428	0.0967	2.4267	4.7424	1.9345	4.822	54.8745	-3.0383
1.8634	4.3839	4.9472	3.7723	6.6683	7.7693	5.2658	8.5289	9.5189	6.2132	8.7821	9.3738	6.5802	-0.037	-0.0597	-1.1806	0.1053	2.3897	4.7651	1.9459	4.8277	55.2728	-3.0724
1.98	4.4607	5.0866	3.9572	6.785	7.9172	5.3995	8.6142	9.6469	6.2985	8.8475	9.4648	6.6001	-0.0484	0.0228	-0.9985	0.1138	2.3726	4.7822	1.9686	4.8249	55.6454	-3.1322
2.1251	4.5546	5.226	4.1364	6.859	8.0652	5.5276	8.6882	9.7636	6.3583	8.8902	9.5161	6.6513	-0.0398	0.0797	-0.8563	0.1195	2.3385	4.7964	2.0227	4.8533	56.0409	-3.1834
2.273	4.6343	5.3853	4.3128	6.9585	8.196	5.6755	8.7679	9.8859	6.4664	8.9442	9.6042	6.6968	-0.0398	0.1309	-0.6799	0.1053	2.3413	4.8163	2.0739	4.8419	56.3965	-3.2431
2.438	4.7225	5.5389	4.4892	7.0467	8.3155	5.795	8.8589	10.0139	6.5517	8.9954	9.6583	6.7565	-0.0313	0.1963	-0.4922	0.0967	2.3385	4.8732	2.1479	4.8505	56.735	-3.2887
2.5974	4.7794	5.6584	4.6542	7.1178	8.4464	5.923	8.9329	10.0964	6.6086	9.0438	9.7351	6.7907	-0.0284	0.2503	-0.3158	0.091	2.3555	4.896	2.1735	4.8419	57.0366	-3.3342
2.7851	4.8704	5.7978	4.7851	7.189	8.546	6.0254	9.0097	10.1874	6.6683	9.0836	9.8005	6.8106	-0.0313	0.276	-0.1735	0.0882	2.31	4.9273	2.2218	4.8448	57.3296	-3.411
2.9501	4.9358	5.8974	4.9131	7.2174	8.6085	6.1079	9.0438	10.25	6.6911	9.1292	9.8318	6.8191	-0.0199	0.367	-0.0455	0.0683	2.2844	4.9586	2.2275	4.8619	57.6027	-3.4707
3.0867	5.0098	5.9628	4.9927	7.2601	8.6427	6.1421	9.0666	10.2955	6.694	9.1121	9.8375	6.7935	-0.0171	0.3812	0.0484	0.0626	2.2218	4.9671	2.2247	4.8533	57.8531	-3.5134
3.2118	5.0496	6.051	5.0752	7.2771	8.6768	6.1819	9.1235	10.3325	6.6797	9.1377	9.8717	6.7765	-0.0057	0.4381	0.1337	0.0512	2.1649	5.007	2.2759	4.8533	58.0778	-3.5589
3.3256	5.0895	6.0624	5.1179	7.2658	8.6768	6.1933	9.1206	10.3155	6.6598	9.1206	9.8432	6.7139	-0.0057	0.4552	0.1451	0.0683	2.0824	5.0354	2.2531	4.8476	58.3196	-3.6073
3.411	5.1577	6.0908	5.1463	7.3056	8.6882	6.1648	9.1206	10.3268	6.6029	9.1206	9.8688	6.674	-0.0085	0.5035	0.1622	0.0569	1.9829	5.0809	2.2588	4.8363	58.5358	-3.63
3.4821	5.189	6.1079	5.1378	7.2914	8.6541	6.1221	9.1121	10.3041	6.5375	9.0865	9.8461	6.6086	-0.0199	0.5547	0.1593	0.0711	1.8805	5.0923	2.2161	4.8192	58.7406	-3.6443
3.5248	5.2232	6.1051	5.152	7.3141	8.6541	6.1051	9.1178	10.3211	6.509	9.0865	9.8432	6.5745	-0.0256	0.6088	0.1536	0.0825	1.8179	5.1094	2.2247	4.7851	58.9625	-3.6727
3.5589	5.2886	6.1193	5.1919	7.334	8.6398	6.1108	9.1263	10.3382	6.4721	9.0609	9.8489	6.5403	-0.0313	0.7141	0.165	0.0967	1.7439	5.1378	2.2048	4.7765	59.1731	-3.6784
3.5987	5.3796	6.1449	5.2089	7.3739	8.6768	6.1079	9.1917	10.3809	6.4664	9.0893	9.9058	6.5318	-0.0398	0.7937	0.1707	0.1109	1.6699	5.1833	2.2417	4.7623	59.3978	-3.6727
3.6443	5.4678	6.1876	5.2431	7.4564	8.728	6.1221	9.2202	10.4264	6.4777	9.1206	9.9712	6.5517	-0.0484	0.936	0.2077	0.1223	1.6017	5.2203	2.2588	4.7395	59.6055	-3.6329
3.7182	5.5845	6.2587	5.3028	7.5559	8.7991	6.1904	9.2913	10.526	6.492	9.1775	10.048	6.5887	-0.0541	1.0782	0.2475	0.1366	1.5675	5.2943	2.2645	4.7367	59.8416	-3.613
3.8121	5.721	6.3497	5.3654	7.6612	8.8703	6.2274	9.3767	10.6028	6.509	9.2259	10.122	6.6399	-0.0597	1.229	0.3357	0.1479	1.5334	5.3512	2.2958	4.7452	60.0607	-3.5788
3.9572	5.886	6.4265	5.4593	7.8034	8.9784	6.2985	9.4705	10.7479	6.5802	9.2885	10.2358	6.6826	-0.0711	1.3769	0.3812	0.1536	1.5334	5.4024	2.3555	4.7509	60.3025	-3.539
4.0795	6.0823	6.5858	5.593	8.0083	9.1434	6.3924	9.6128	10.8844	6.657	9.3823	10.378	6.7708	-0.0512	1.5248	0.4922	0.1422	1.5305	5.5048	2.4238	4.7964	60.5443	-3.4878
4.2474	6.2928	6.7565	5.684	8.2131	9.2856	6.4664	9.7493	11.0381	6.7338	9.4705	10.4805	6.8191	-0.0569	1.7268	0.5974	0.1451	1.5163	5.593	2.458	4.822	60.7776	-3.4366
4.4323	6.5062	6.9244	5.8092	8.3952	9.4563	6.5318	9.9115	11.1803	6.7935	9.5815	10.5999	6.8675	-0.0768	1.8719	0.6799	0.1508	1.4992	5.6983	2.4864	4.8676	61.0592	-3.4081
4.603	6.7765	7.1008	5.9571	8.6654	9.6668	6.6541	10.0708	11.3681	6.8874	9.6924	10.7507	6.9301	-0.0398	2.0682	0.7567	0.1166	1.5248	5.8149	2.549	4.9358	61.3295	-3.3484
4.8192	7.0296	7.3397	6.1051	8.9073	9.8432	6.7167	10.2415	11.5018	6.9386	9.7863	10.856	6.95	-0.0427	2.2446	0.8478	0.1024	1.4936	5.9628	2.5632	4.9842	61.6026	-3.3057
4.9671	7.2288	7.519	6.2217	9.132	9.9911	6.8077	10.3951	11.6212	6.9927	9.8688	10.9186	6.9671	-0.0427	2.4011	0.9445	0.0939	1.4651	6.0738	2.5718	5.024	61.9098	-3.2659
5.172	7.482	7.7096	6.3668	9.3653	10.2045	6.9016	10.5459	11.7692	7.0439	9.9542	10.9897	7.0012	-0.037	2.5718	1.0412	0.0825	1.4367	6.1819	2.5746	5.1094	62.2057	-3.2545
5.3313	7.7153	7.8916	6.5062	9.6014	10.3724	6.987	10.7052	11.9057	7.0865	10.048	11.0466	6.9984	-0.0057	2.7026	1.118	0.0455	1.4167	6.3213	2.5917	5.1577	62.5186	-3.2403
5.4536	7.9087	8.0709	6.6171	9.8318	10.5203	7.0325	10.8446	11.9854	7.0752	10.1277	11.0921	6.9699	-0.0228	2.805	1.155	0.0597	1.3627	6.4408	2.5575	5.1833	62.8685	-3.2517
5.5361	8.0965	8.2216	6.7167	10.0338	10.6455	7.0752	10.984	12.0963	7.0951	10.2102	11.1234	6.9443	-0.0114	2.9217	1.1948	0.0541	1.3143	6.546	2.5376	5.2374	63.2355	-3.2517
5.647	8.2615	8.3696	6.8134	10.2386	10.7877	7.1463	11.1063	12.1845	7.1121	10.2557	11.149	6.9073	-0.0228	3.0269	1.2546	0.0683	1.2688	6.6427	2.4921	5.2857	63.6139	-3.2574
5.7182	8.398	8.4834	6.8732	10.4179	10.8816	7.1349	11.2144	12.2357	7.1093	10.3012	11.1661	6.8789	-0.0455	3.1293	1.3001	0.1081	1.2119	6.7224	2.4295	5.3341	64.0065	-3.2887
5.7751	8.5346	8.6142	6.9443	10.5943	10.9925	7.1747	11.3225	12.267	7.115	10.3581	11.1775	6.8561	-0.0711	3.1834	1.3342	0.1536	1.192	6.7935	2.3811	5.3882	64.3763	-3.3
5.8348	8.6569	8.728	7.0012	10.7393	11.1035	7.1975	11.405	12.3296	7.1207	10.4236	11.1945	6.8163	-0.0797	3.2631	1.3911	0.1821	1.1778	6.8931	2.3499	5.4422	64.7746	-3.3399
5.8803	8.7309	8.8162	7.0325	10.856	11.1575	7.2089	11.4762	12.3638	7.1008	10.4662	11.1746	6.7878	-0.1166	3.3569	1.4822	0.2361	1.155	6.9215	2.2873	5.4877	65.1217	-3.3712
5.9344	8.8105	8.9016	7.0325	10.9328	11.223	7.189	11.5473	12.378	7.0865	10.5004	11.1462	6.7594	-0.1394	3.3882	1.5675	0.2959	1.1436	6.9927	2.2503	5.5333	65.4943	-3.4309
5.9856	8.8674	9.004	7.0524	11.0238	11.2628	7.206	11.5928	12.3524	7.0723	10.5174	11.1405	6.7252	-0.1622	3.4935	1.6842	0.3414	1.1323	7.0296	2.2048	5.5816	65.8528	-3.4707
6.0169	8.8219	9.0011	7.0268	11.0324	11.2372	7.1577	11.5558	12.2784	6.9898	10.4947	11.0466	6.6541	-0.1991	3.5191	1.7894	0.4182	1.1323	7.0069	2.145	5.5702	66.2226	-3.5362
6.014	8.8162	8.9841	6.9671	11.0068	11.1917	7.0979	11.57	12.213	6.9301	10.4947	10.9499	6.5745	-0.2361	3.576	1.8833	0.4694	1.0981	7.0268	2.0739	5.5958	66.5868	-3.6329
5.9657	8.6996	8.9329	6.8732	10.9612	11.0864	7.0097	11.5131	12.0622	6.8106	10.4236	10.8389	6.4948	-0.2532	3.6244	1.98	0.5235	1.0668	6.9955	1.9942	5.6385	66.9907	-3.6983
5.923	8.6	8.8475	6.7765	10.8645	10.9726	6.8931	11.4164	11.9057	6.7025	10.3496	10.6768	6.3839	-0.2788	3.6329	2.0341	0.5661	1.0298	6.9898	1.9373	5.6385	67.4146	-3.7837
5.8377	8.4066	8.7166	6.6143	10.708	10.8048	6.7423	11.3083	11.7066	6.5659	10.2358	10.5203	6.2615	-0.2959	3.65	2.0995	0.5974	0.99	6.9358	1.8292	5.6101	67.8328	-3.8804
5.6726	8.2131	8.5033	6.4152	10.526	10.5772	6.6029	11.1604	11.4961	6.4152	10.1249	10.3211	6.1136	-0.3158	3.6556	2.1251	0.6372	0.9246	6.8817	1.7098	5.5958	68.2766	-3.9856
5.4536	7.9457	8.3184	6.2132	10.3183	10.3496	6.4265	11.0153	11.2201	6.2445	9.9997	10.122	5.9685	-0.3357	3.5959	2.1024	0.6685	0.8705	6.8248	1.6301	5.5759	68.7233	-4.108
5.2232	7.6384	8.031	5.9401	10.068	10.0736	6.2416	10.782	10.9499	6.0766	9.8546	9.8973	5.832	-0.3471	3.5134	2.0796	0.697	0.8193	6.6968	1.5334	5.5076	69.1699	-4.2104
4.9586	7.3255	7.7466	5.6783	9.7863	9.7948	6.0738	10.6113	10.708	5.9258	9.6981	9.6754	5.7153	-0.3613	3.4366	2.0312	0.7141	0.7624	6.6342	1.4736	5.4593	69.6165	-4.2986
4.6343	6.9898	7.4251	5.4109	9.5104	9.499	5.8832	10.398	10.4036	5.7722	9.5274	9.4648	5.5816	-0.3585	3.3143	1.963	0.7311	0.7368	6.5403	1.3883	5.3939	70.0461	-4.3811
4.2929	6.6342	7.0666	5.1179	9.186	9.2117	5.6869	10.1846	10.1277	5.6186	9.3823	9.2686	5.4735	-0.3585	3.1635	1.852	0.7368	0.7169	6.4408	1.3229	5.3313	70.4558	-4.4408
3.9373	6.2587	6.6854	4.8163	8.8788	8.8674	5.5048	9.9655	9.8489	5.4877	9.1832	9.0865	5.391	-0.3698	3.0241	1.7268	0.7454	0.7084	6.3327	1.283	5.2829	70.8654	-4.5119
3.5874	5.9031	6.3526	4.5489	8.5943	8.5858	5.3284	9.7636	9.6014	5.3768	9.0523	8.9186	5.3398	-0.3755	2.8449	1.5761	0.7482	0.7197	6.2416	1.266	5.2374	71.2666	-4.5632
3.2659	5.5503	5.997	4.2929	8.2871	8.2928	5.1606	9.553	9.3539	5.2772	8.9186	8.7337	5.2658	-0.3556	2.7083	1.4082	0.7454	0.7454	6.1136	1.2773	5.1606	71.6705	-4.6371
2.9387	5.2089	5.6385	4.0198	7.9997	8.0168	5.0269	9.3795	9.1462	5.2089	8.7991	8.6	5.2573	-0.3698	2.549	1.2148	0.7454	0.7994	6.0425	1.2717	5.1065	72.0859	-4.7111
2.6514	4.8903	5.3313	3.7837	7.7437	7.7807	4.8875	9.2373	8.9357	5.152	8.6996	8.5033	5.2601	-0.3641	2.3982	1.0241	0.7226	0.825	5.9742	1.3001	5.0695	72.5183	-4.7708
2.3698	4.5888	5.0126	3.5731	7.5076	7.5275	4.7737	9.0637	8.7565	5.1008	8.6228	8.3753	5.2516	-0.3442	2.2645	0.8051	0.7084	0.9018	5.8974	1.3285	5.061	72.9792	-4.8562
2.1137	4.3555	4.7338	3.3882	7.3028	7.3056	4.6826	8.9528	8.6057	5.0866	8.5374	8.2871	5.2715	-0.3385	2.1308	0.586	0.6885	0.9729	5.8547	1.3542	5.0695	73.44	-4.9586
1.8805	4.0938	4.4693	3.1948	7.0922	7.1036	4.5489	8.8219	8.4635	5.0525	8.4435	8.1818	5.2829	-0.3215	1.9942	0.3528	0.6685	1.027	5.8092	1.4082	5.0695	73.9094	-5.0354
1.6728	3.8975	4.2104	3.0497	6.9528	6.9244	4.475	8.7451	8.3383	5.024	8.4009	8.1192	5.2857	-0.3215	1.8349	0.0939	0.6515	1.0953	5.8092	1.3997	5.0923	74.3988	-5.1407
1.4907	3.7438	3.997	2.916	6.8191	6.7964	4.4408	8.6768	8.233	5.0212	8.3354	8.051	5.2886	-0.3101	1.7211	-0.1593	0.6287	1.1294	5.8149	1.4423	5.1122	74.8824	-5.2573
1.3115	3.5902	3.7979	2.7908	6.7053	6.6484	4.3498	8.6085	8.1647	5.0126	8.2985	7.9941	5.2857	-0.3101	1.5988	-0.4182	0.6372	1.1436	5.7978	1.4452	5.1492	75.3546	-5.3426
1.1721	3.4764	3.6642	2.7225	6.6228	6.5602	4.3071	8.5573	8.0851	5.0098	8.27	7.9286	5.2943	-0.3158	1.4708	-0.697	0.6316	1.1749	5.8064	1.4679	5.152	75.8212	-5.4337
1.0099	3.3626	3.5162	2.586	6.529	6.4493	4.2445	8.4976	8.0083	4.9927	8.2103	7.866	5.2943	-0.3158	1.32	-0.9587	0.6458	1.1806	5.8177	1.4367	5.1634	76.3077	-5.5304
0.9246	3.3342	3.4195	2.5348	6.5147	6.3839	4.2218	8.4777	8.0054	5.0126	8.1932	7.8319	5.3	-0.3243	1.1892	-1.2005	0.6543	1.192	5.8291	1.448	5.1976	76.7685	-5.6186
0.8023	3.2744	3.3313	2.5063	6.5005	6.3639	4.2417	8.4805	8.0054	5.0183	8.1647	7.8063	5.2744	-0.3243	1.0412	-1.4679	0.6685	1.2005	5.8405	1.4395	5.2175	77.2294	-5.684
0.6885	3.2659	3.2773	2.458	6.4948	6.3469	4.2332	8.4578	8.0026	5.0326	8.1306	7.7921	5.3028	-0.3414	0.8677	-1.7098	0.697	1.1977	5.8576	1.4338	5.2118	77.7187	-5.7324
0.623	3.2858	3.2431	2.4636	6.5176	6.3839	4.2388	8.4663	8.0367	5.0752	8.1278	7.7835	5.3114	-0.3556	0.7112	-1.9317	0.734	1.1948	5.8718	1.4281	5.2118	78.1767	-5.7893
0.5547	3.3228	3.2716	2.4864	6.5631	6.4123	4.2844	8.5147	8.0879	5.1179	8.1505	7.812	5.3455	-0.3755	0.5604	-2.1536	0.7454	1.1778	5.8803	1.4082	5.2232	78.6945	-5.8433
0.5405	3.3598	3.2631	2.5149	6.6171	6.4777	4.3413	8.5346	8.1391	5.1919	8.1562	7.8461	5.4024	-0.3869	0.3727	-2.3328	0.7795	1.1977	5.8775	1.4054	5.2317	79.2094	-5.8633
0.5491	3.4281	3.3285	2.5803	6.6883	6.5972	4.3925	8.6057	8.2444	5.2488	8.1847	7.8973	5.4308	-0.3926	0.2361	-2.4722	0.7937	1.2148	5.9287	1.394	5.2801	79.7357	-5.8803
0.569	3.5589	3.4337	2.64	6.7964	6.7053	4.4949	8.6711	8.3582	5.3313	8.2387	7.9628	5.5105	-0.4097	0.091	-2.603	0.8449	1.2347	5.9401	1.4196	5.2886	80.2791	-5.9031
0.6458	3.6471	3.5276	2.7168	6.9073	6.8163	4.5717	8.7366	8.4663	5.3939	8.2501	8.0225	5.5589	-0.4353	-0.0114	-2.6599	0.8819	1.2204	5.977	1.4167	5.3	80.8281	-5.9059
0.7454	3.7979	3.6784	2.8306	7.0496	6.9784	4.6912	8.8333	8.6	5.502	8.3326	8.0851	5.6328	-0.4466	-0.0797	-2.6742	0.9132	1.2574	6.0169	1.4423	5.3455	81.3743	-5.9145
0.8478	3.943	3.8235	2.933	7.1776	7.1463	4.7879	8.9243	8.7053	5.5788	8.3724	8.1505	5.6783	-0.4694	-0.1508	-2.6628	0.9616	1.2489	6.0652	1.4395	5.3597	81.9262	-5.8832
1.0213	4.0938	4.0056	3.044	7.3227	7.3028	4.9045	9.004	8.8304	5.6584	8.4208	8.2216	5.7295	-0.4922	-0.128	-2.5803	1.0042	1.2603	6.1221	1.4509	5.3853	82.444	-5.8832
1.1692	4.236	4.1649	3.135	7.4535	7.4251	4.9813	9.1064	8.9357	5.7011	8.472	8.2615	5.7239	-0.532	-0.1508	-2.4722	1.0697	1.2404	6.179	1.4566	5.4195	82.9703	-5.8775
1.3314	4.4437	4.3754	3.2431	7.61	7.573	5.098	9.186	9.0495	5.7694	8.509	8.2871	5.7352	-0.5604	-0.0967	-2.3214	1.1095	1.2034	6.2558	1.4423	5.4764	83.4739	-5.8547
1.5334	4.6314	4.5603	3.3655	7.775	7.7522	5.2032	9.2998	9.1576	5.8348	8.5829	8.3554	5.7466	-0.5747	-0.0313	-2.1365	1.1664	1.1863	6.3213	1.4651	5.5048	83.9489	-5.8462
1.6955	4.8021	4.7367	3.448	7.9229	7.8916	5.3057	9.3624	9.2145	5.8433	8.5687	8.3753	5.7153	-0.6116	0.0541	-1.9544	1.2375	1.1379	6.3839	1.431	5.5389	84.3956	-5.832
1.8605	4.9387	4.8932	3.5276	8.0424	8.014	5.3512	9.4449	9.2856	5.8689	8.6142	8.381	5.6812	-0.6515	0.1963	-1.761	1.3029	1.0725	6.4493	1.4139	5.5645	84.8337	-5.8263
2.017	5.1008	5.0809	3.6187	8.1647	8.1363	5.428	9.5047	9.3681	5.8547	8.6427	8.3895	5.6385	-0.6771	0.3215	-1.5874	1.3542	0.9985	6.5005	1.4025	5.5958	85.2519	-5.8519
2.1649	5.2516	5.2488	3.6841	8.2985	8.2444	5.4849	9.5815	9.4279	5.8917	8.6626	8.3895	5.5987	-0.6998	0.5007	-1.431	1.4082	0.9388	6.5802	1.3769	5.6129	85.6701	-5.8775
2.3015	5.3825	5.391	3.7666	8.3923	8.344	5.5418	9.6498	9.4819	5.9031	8.6541	8.3952	5.5503	-0.7425	0.6629	-1.2916	1.4793	0.862	6.6427	1.357	5.6271	86.0741	-5.9002
2.4437	5.4707	5.5304	3.8178	8.4748	8.4208	5.5759	9.6867	9.5274	5.8917	8.6484	8.4037	5.5276	-0.7653	0.8478	-1.1379	1.5362	0.8051	6.6627	1.3485	5.6158	86.4524	-5.9315
2.5746	5.5674	5.6357	3.8975	8.5374	8.5175	5.647	9.7351	9.5929	5.886	8.6654	8.4293	5.482	-0.788	1.0213	-1.0469	1.5846	0.7425	6.7053	1.3456	5.5987	86.845	-5.977
2.6571	5.6698	5.758	3.9373	8.6171	8.5687	5.6641	9.792	9.6242	5.9059	8.6541	8.4322	5.482	-0.8079	1.2261	-0.9075	1.6244	0.7254	6.7395	1.3627	5.6015	87.2035	-6.014
2.8079	5.7438	5.8917	3.997	8.6854	8.6541	5.7125	9.8318	9.6896	5.923	8.6683	8.4521	5.4906	-0.8165	1.4452	-0.7482	1.6329	0.6714	6.785	1.3911	5.5674	87.5562	-6.088
2.9217	5.8064	5.977	4.0312	8.7252	8.7223	5.7295	9.8517	9.7095	5.9145	8.6484	8.4435	5.4621	-0.8307	1.6159	-0.6088	1.6728	0.6629	6.7992	1.3968	5.519	87.9147	-6.1648
3.0639	5.8633	6.0652	4.0625	8.7707	8.7366	5.7295	9.9058	9.7351	5.8974	8.637	8.4293	5.4479	-0.8449	1.8492	-0.4466	1.6813	0.6344	6.8077	1.4367	5.4906	88.2219	-6.2189
3.1891	5.9116	6.1278	4.108	8.8048	8.7792	5.7324	9.9001	9.7493	5.9031	8.5886	8.4236	5.4166	-0.8307	2.0426	-0.3585	1.6728	0.66	6.7907	1.4992	5.4365	88.5519	-6.2729
3.3057	5.9884	6.2189	4.1051	8.8333	8.7906	5.758	9.8944	9.7465	5.8775	8.5516	8.3838	5.3882	-0.8449	2.1621	-0.2418	1.687	0.6429	6.7992	1.5277	5.4052	88.8563	-6.344
3.448	6.0112	6.2502	4.125	8.8532	8.7906	5.6954	9.8973	9.7323	5.8291	8.4919	8.3383	5.3341	-0.8364	2.31	-0.1109	1.6671	0.623	6.8021	1.5732	5.354	89.0981	-6.4208
3.5219	6.0254	6.2587	4.0681	8.8077	8.7451	5.6613	9.8375	9.6725	5.7409	8.4236	8.2273	5.2289	-0.8136	2.4068	0	1.6529	0.5974	6.785	1.5874	5.2744	89.3371	-6.5147
3.5731	6.0027	6.2615	4.0113	8.7849	8.6854	5.5901	9.792	9.6014	5.6414	8.3297	8.1249	5.1094	-0.8165	2.5035	0.0825	1.6443	0.5576	6.7964	1.5704	5.2402	89.5448	-6.6086
3.6244	6.014	6.2274	3.9316	8.7423	8.6057	5.5247	9.7294	9.5075	5.5304	8.2359	7.9969	4.97	-0.8051	2.5831	0.1622	1.6187	0.4979	6.7423	1.5789	5.172	89.7012	-6.7053
3.6386	5.9799	6.1762	3.8462	8.691	8.5232	5.4251	9.6526	9.4023	5.428	8.1164	7.8803	4.8676	-0.788	2.6144	0.2304	1.5874	0.4495	6.7338	1.5903	5.1378	89.8719	-6.7935
3.6158	5.9173	6.0965	3.7353	8.6029	8.3923	5.2971	9.5274	9.2515	5.2715	8.0026	7.684	4.6769	-0.7738	2.677	0.2589	1.5618	0.3641	6.674	1.5504	5.0382	90.0056	-6.9016
3.5589	5.8576	6.0027	3.63	8.5033	8.2814	5.1748	9.4193	9.1092	5.1179	7.8291	7.5303	4.5319	-0.751	2.6685	0.2674	1.5277	0.2788	6.6143	1.5504	4.9557	90.1422	-7.0126
3.4736	5.7921	5.8945	3.4679	8.4066	8.1647	5.0411	9.2998	8.9869	5.0041	7.684	7.3796	4.3754	-0.7368	2.6998	0.293	1.4822	0.1963	6.583	1.5362	4.8818	90.2702	-7.1121
3.3825	5.6954	5.7694	3.3569	8.2842	8.0481	4.9501	9.1804	8.8333	4.8647	7.5332	7.2117	4.2275	-0.6941	2.714	0.3215	1.4253	0.1394	6.5176	1.5248	4.8306	90.3726	-7.2402
3.246	5.5901	5.6271	3.1976	8.1562	7.8973	4.8078	9.0296	8.6598	4.7054	7.3767	7.0325	4.0596	-0.6828	2.6827	0.3016	1.3741	0.074	6.4664	1.5049	4.7452	90.4836	-7.3369
3.1578	5.5076	5.5418	3.0668	8.0538	7.7921	4.7082	8.9016	8.5545	4.6001	7.2572	6.8988	3.9487	-0.6401	2.7083	0.3101	1.2944	0.0228	6.4152	1.4992	4.6826	90.6002	-7.4165
3.0241	5.4394	5.3967	2.9302	7.9485	7.6783	4.5831	8.7935	8.4293	4.4807	7.1065	6.7821	3.8377	-0.6145	2.7026	0.2873	1.2233	-0.037	6.3639	1.4765	4.6485	90.6884	-7.5161
2.9018	5.3426	5.3	2.8193	7.8689	7.5815	4.5034	8.6939	8.3241	4.3612	7.0012	6.6513	3.7268	-0.5804	2.6855	0.2333	1.1635	-0.0626	6.3611	1.4793	4.5859	90.788	-7.5901
2.8591	5.2886	5.2573	2.751	7.8034	7.5474	4.4408	8.6	8.2672	4.3014	6.9244	6.5602	3.6443	-0.5263	2.7453	0.2418	1.0697	-0.0967	6.3554	1.4736	4.5859	90.8847	-7.6555
2.8306	5.2801	5.189	2.6799	7.775	7.4621	4.3782	8.5118	8.1875	4.2189	6.8476	6.4578	3.5589	-0.4922	2.7595	0.1906	0.9786	-0.1081	6.3554	1.485	4.603	90.9672	-7.7096
2.7481	5.2488	5.135	2.64	7.7466	7.4052	4.2986	8.4179	8.1107	4.1194	6.7594	6.3554	3.4793	-0.4637	2.805	0.128	0.9274	-0.128	6.3639	1.4793	4.6001	91.0412	-7.7409
2.7083	5.2772	5.098	2.586	7.7352	7.3625	4.2588	8.3582	8.0453	4.0482	6.6996	6.2758	3.3968	-0.4324	2.8335	0.0569	0.8677	-0.1678	6.4038	1.4765	4.5944	91.1009	-7.775
2.6742	5.2857	5.0411	2.5718	7.7181	7.3113	4.2104	8.2842	7.9628	3.9686	6.6143	6.1648	3.2943	-0.3897	2.8705	-0.0114	0.8193	-0.2077	6.4152	1.4623	4.5973	91.1464	-7.8404
2.6457	5.3057	5.0098	2.5433	7.701	7.2629	4.1563	8.2359	7.8803	3.8633	6.5119	6.0567	3.1521	-0.3841	2.8534	-0.1223	0.7937	-0.2902	6.4521	1.3883	4.5745	91.172	-7.8973
2.6144	5.3085	4.9785	2.5319	7.701	7.1946	4.0852	8.1591	7.7949	3.7581	6.4208	5.9258	3.0269	-0.3869	2.8477	-0.2674	0.7795	-0.367	6.4465	1.3542	4.566	91.1806	-7.9258
2.5461	5.3483	4.9245	2.4978	7.7096	7.1463	3.9885	8.0936	7.7153	3.6272	6.3469	5.812	2.9018	-0.3841	2.8619	-0.3698	0.7766	-0.4495	6.4379	1.2802	4.5319	91.155	-7.9656
2.5006	5.3825	4.8818	2.4921	7.701	7.1036	3.943	8.0083	7.6214	3.4992	6.2587	5.684	2.7339	-0.3897	2.842	-0.4694	0.7852	-0.5661	6.4265	1.2261	4.5006	91.1009	-8.0054
2.438	5.4365	4.8505	2.4636	7.7039	7.024	3.8462	7.9741	7.5275	3.3797	6.1733	5.5389	2.586	-0.3841	2.7851	-0.586	0.7994	-0.6685	6.3924	1.1465	4.4494	91.0554	-8.0424
2.384	5.4564	4.7936	2.4295	7.7181	6.9898	3.7637	7.9087	7.4478	3.246	6.0624	5.4195	2.4267	-0.4068	2.7652	-0.6629	0.825	-0.7994	6.3839	1.0384	4.3953	90.9729	-8.0822
2.3072	5.4792	4.7737	2.4238	7.7323	6.9386	3.6983	7.8717	7.3568	3.135	5.9685	5.317	2.2645	-0.4182	2.768	-0.7169	0.8421	-0.9018	6.3412	0.936	4.3356	90.8733	-8.1192
2.273	5.5589	4.7452	2.4096	7.7807	6.9187	3.63	7.8461	7.334	3.0383	5.9287	5.2089	2.1678	-0.4267	2.7624	-0.7283	0.8648	-0.9815	6.3184	0.8591	4.29	90.7453	-8.1562
2.219	5.6214	4.7566	2.4181	7.8148	6.913	3.5931	7.8205	7.2857	2.9615	5.8661	5.1549	2.0426	-0.4353	2.7624	-0.6856	0.8848	-1.0355	6.3042	0.8023	4.2445	90.6059	-8.1619
2.2702	5.6812	4.7851	2.4295	7.903	6.9358	3.5618	7.8603	7.2601	2.9103	5.8576	5.1151	1.9886	-0.441	2.7993	-0.6031	0.9047	-1.1095	6.2957	0.7397	4.2246	90.4637	-8.1619
2.2787	5.7751	4.8476	2.4693	7.9542	6.9585	3.5618	7.8973	7.2828	2.8847	5.8633	5.0866	1.9516	-0.4495	2.8278	-0.495	0.9104	-1.1323	6.2985	0.734	4.2246	90.3186	-8.1818
2.3385	5.8661	4.9017	2.5063	8.0225	7.0183	3.5475	7.9229	7.2885	2.8932	5.8718	5.0781	1.9373	-0.4495	2.8449	-0.3841	0.9189	-1.1493	6.3071	0.697	4.2189	90.1963	-8.1932
2.4551	5.9827	5.0126	2.5518	8.1391	7.0723	3.5675	7.9827	7.3113	2.8932	5.8917	5.0809	1.9487	-0.4666	2.8648	-0.2219	0.9303	-1.1351	6.3383	0.6998	4.2701	90.0682	-8.1875
2.5348	6.088	5.0781	2.5803	8.2245	7.1065	3.576	8.0396	7.3568	2.8961	5.9258	5.0923	1.9288	-0.4694	2.9103	-0.0797	0.9388	-1.1209	6.3668	0.7112	4.2815	89.9544	-8.1761
2.6514	6.1733	5.1663	2.6144	8.3013	7.152	3.5675	8.1022	7.371	2.8762	5.9543	5.0838	1.9317	-0.458	2.9245	0.0996	0.9502	-1.0981	6.3867	0.6998	4.3299	89.8492	-8.1847
2.8221	6.2928	5.2715	2.6429	8.4037	7.2089	3.5959	8.1818	7.3938	2.8932	6.0311	5.1094	1.9544	-0.4637	2.9729	0.3215	0.9502	-1.0583	6.4408	0.7311	4.3669	89.7269	-8.1847
2.953	6.4066	5.3455	2.6457	8.5004	7.2402	3.576	8.2074	7.4023	2.8904	6.0169	5.0866	1.9061	-0.4808	3.007	0.5064	0.9673	-1.0355	6.5176	0.7141	4.4351	89.5875	-8.2046
3.0724	6.4806	5.4138	2.6571	8.5573	7.2316	3.5618	8.2444	7.3796	2.8534	6.051	5.0439	1.8719	-0.4922	3.0497	0.7226	0.9843	-1.0412	6.5716	0.7112	4.455	89.4168	-8.2103
3.1891	6.5972	5.4877	2.6457	8.6256	7.2032	3.4935	8.2529	7.3255	2.8363	6.0425	4.9984	1.8264	-0.5178	3.1208	0.9075	1.0241	-1.0498	6.6171	0.7112	4.5233	89.2404	-8.2273
3.3029	6.657	5.5446	2.6173	8.6313	7.1804	3.465	8.2643	7.2771	2.8164	6.0055	4.9245	1.7951	-0.5235	3.1464	1.1379	1.0583	-1.0498	6.6456	0.6941	4.5432	89.0014	-8.2501
3.3911	6.7224	5.556	2.5746	8.6882	7.1178	3.3996	8.2416	7.2032	2.751	5.9884	4.8334	1.7098	-0.5405	3.2118	1.3485	1.0867	-1.0611	6.6911	0.6742	4.5745	88.7425	-8.2672
3.4821	6.7793	5.5759	2.5376	8.7195	7.0553	3.374	8.2416	7.1491	2.7197	5.9714	4.7538	1.6813	-0.5462	3.2602	1.5761	1.101	-1.0611	6.7309	0.6629	4.6115	88.4922	-8.3041
3.4992	6.8277	5.5759	2.4608	8.711	6.9727	3.2773	8.2046	7.0467	2.6685	5.9287	4.6826	1.6159	-0.5462	3.2887	1.7581	1.1123	-1.0526	6.711	0.6486	4.6343	88.2418	-8.3212
3.539	6.8504	5.5617	2.3925	8.691	6.8902	3.2118	8.1704	6.9443	2.6201	5.8917	4.5831	1.5846	-0.5747	3.3143	1.9146	1.1465	-1.081	6.7565	0.6316	4.6684	88.0228	-8.3241
3.5447	6.8561	5.5475	2.3242	8.711	6.8191	3.1521	8.142	6.8675	2.5917	5.8405	4.5148	1.5761	-0.5576	3.3996	2.0198	1.1152	-1.0441	6.7594	0.6515	4.6826	87.8236	-8.3468
3.5305	6.839	5.4991	2.2588	8.6626	6.7224	3.118	8.0737	6.7565	2.5774	5.7978	4.455	1.5704	-0.5661	3.3996	2.0938	1.1294	-1.0327	6.7423	0.6515	4.6883	87.6643	-8.3753
3.5049	6.8248	5.4451	2.1706	8.6285	6.6115	3.081	8.0026	6.6826	2.5803	5.7551	4.3925	1.5903	-0.5491	3.4906	2.1251	1.1152	-0.9843	6.7309	0.6941	4.6769	87.5107	-8.361
3.4878	6.7907	5.3967	2.1052	8.5744	6.5489	3.0497	7.9571	6.6029	2.6144	5.721	4.3669	1.6358	-0.5405	3.5248	2.1336	1.0867	-0.9502	6.7423	0.7084	4.7452	87.4339	-8.381
3.485	6.7509	5.3341	2.0455	8.5346	6.4465	3.0298	7.8973	6.5033	2.6173	5.6869	4.3299	1.6671	-0.5206	3.5959	2.0568	1.0498	-0.8705	6.7452	0.7254	4.7509	87.3656	-8.4066
3.411	6.7025	5.2801	1.9857	8.4635	6.3668	2.9956	7.8148	6.4436	2.6372	5.6442	4.2673	1.7183	-0.5121	3.6585	1.9686	1.0156	-0.7994	6.7452	0.7937	4.7822	87.3457	-8.4094
3.411	6.6285	5.2032	1.9544	8.3866	6.253	2.9672	7.7295	6.327	2.6599	5.6015	4.2417	1.761	-0.4779	3.7609	1.8321	0.9758	-0.7425	6.6883	0.8364	4.768	87.3343	-8.4179
3.3541	6.5432	5.1094	1.9061	8.2871	6.1421	2.9814	7.647	6.2388	2.7083	5.5276	4.1763	1.8492	-0.4609	3.8377	1.6898	0.9189	-0.6828	6.6854	0.8762	4.7594	87.3457	-8.4435
3.2801	6.4152	5.0041	1.8833	8.1477	6.0339	2.9501	7.499	6.1108	2.6855	5.4394	4.1051	1.8492	-0.4466	3.9117	1.5419	0.8904	-0.6287	6.6257	0.8961	4.7538	87.3372	-8.435
3.2289	6.327	4.8988	1.8833	8.0367	5.8889	2.9217	7.3682	5.9913	2.6969	5.337	4.0369	1.8861	-0.4068	3.9885	1.3997	0.8392	-0.5661	6.5972	0.9445	4.7282	87.3286	-8.4464
3.1493	6.179	4.7964	1.8349	7.8916	5.7295	2.8904	7.2515	5.8348	2.6998	5.2089	3.943	1.8975	-0.404	4.0454	1.2688	0.8165	-0.5348	6.5261	0.9673	4.6769	87.2973	-8.4606
3.0525	6.0482	4.64	1.8378	7.738	5.5873	2.8705	7.1093	5.6755	2.6685	5.0923	3.8462	1.8975	-0.3869	4.125	1.1379	0.788	-0.5064	6.4493	0.9815	4.6457	87.249	-8.4435
2.9274	5.9088	4.5119	1.815	7.5645	5.4195	2.8278	6.9187	5.5247	2.6286	4.9614	3.7296	1.8691	-0.3812	4.1677	1.027	0.771	-0.5007	6.3753	0.99	4.5717	87.1693	-8.4208
2.7908	5.7409	4.3526	1.7866	7.3938	5.2431	2.7737	6.7594	5.3626	2.5774	4.8192	3.5959	1.8577	-0.3812	4.2047	0.916	0.7681	-0.4893	6.2843	0.9559	4.4835	87.0783	-8.4122
2.6173	5.593	4.1876	1.7866	7.2146	5.0752	2.714	6.5915	5.2118	2.5348	4.6713	3.465	1.8435	-0.3755	4.2417	0.7966	0.7567	-0.495	6.1762	0.9388	4.3811	86.9759	-8.4009
2.4636	5.391	3.9885	1.7638	7.0012	4.896	2.6372	6.381	5.0326	2.4722	4.5006	3.3342	1.7866	-0.3869	4.236	0.6515	0.7852	-0.5405	6.0311	0.9047	4.2644	86.8678	-8.381
2.2901	5.2516	3.832	1.7268	6.8447	4.7566	2.5945	6.2189	4.9045	2.4238	4.3555	3.2147	1.7553	-0.404	4.2616	0.5235	0.788	-0.532	5.923	0.8506	4.1791	86.7483	-8.344
2.1109	5.1065	3.6642	1.7411	6.6371	4.5859	2.5661	6.0539	4.7594	2.3811	4.2218	3.1151	1.724	-0.4068	4.2474	0.3698	0.8108	-0.5718	5.8291	0.8222	4.0596	86.6203	-8.3127
1.963	4.9444	3.5504	1.7126	6.4834	4.4636	2.5006	5.9116	4.64	2.3271	4.0738	3.0184	1.6927	-0.421	4.2588	0.1906	0.8478	-0.586	5.7267	0.7823	3.9544	86.5207	-8.2814
1.8349	4.8505	3.4138	1.6927	6.3412	4.3612	2.4551	5.7921	4.5688	2.3072	3.9657	2.9643	1.7411	-0.4495	4.2417	0.0171	0.8762	-0.6003	5.6726	0.7596	3.8804	86.4439	-8.2416
1.7211	4.7139	3.2972	1.6813	6.1961	4.2701	2.4238	5.684	4.4778	2.2759	3.8804	2.9074	1.7439	-0.4495	4.2275	-0.1565	0.9132	-0.606	5.556	0.7169	3.7723	86.3529	-8.216
1.6642	4.6371	3.2204	1.6842	6.1079	4.2019	2.4324	5.5873	4.4351	2.273	3.795	2.8875	1.7581	-0.4609	4.2075	-0.2873	0.9388	-0.5832	5.5105	0.697	3.7211	86.2476	-8.179
1.6187	4.5888	3.1464	1.6472	6.0226	4.1563	2.384	5.5333	4.401	2.2361	3.7296	2.842	1.7411	-0.4979	4.1706	-0.4097	1.0071	-0.6088	5.4451	0.6486	3.6386	86.1281	-8.1875
