"FZ"	"FC3"	"FCZ"	"FC4"	"C3"	"CZ"	"C4"	"CP3"	"CPZ"	"CP4"	"P3"	"PZ"	"P4"	"OZ"	"FP1"	"FP2"	"A2"	"P8"	"TP7"	"TP8"	"P7"	"VEOG"	"HEOG"
-0.074	0.165	0.0028	-0.1195	-0.0882	0.1024	0.0797	-0.2503	-0.0967	0.0768	-0.3499	-0.2304	-0.0228	0.3272	0.1366	-0.239	-0.6828	0.2077	-0.239	0.3897	-0.239	1.5334	-1.9544
-0.074	0.1565	0.0199	-0.0967	-0.0455	0.1337	0.0797	-0.2077	-0.0341	0.1252	-0.2902	-0.1678	0.0171	0.3357	0.2276	-0.2105	-0.6885	0.2418	-0.2219	0.4068	-0.1906	1.5305	-1.943
-0.0853	0.1337	0.0341	-0.0853	-0.0541	0.1678	0.0939	-0.1764	-0.0028	0.1422	-0.2418	-0.1252	0.037	0.33	0.3215	-0.2276	-0.6885	0.2646	-0.2077	0.4267	-0.1906	1.5362	-1.9174
-0.0825	0.1479	0.074	-0.0541	0.0114	0.2134	0.1337	-0.1109	0.0626	0.1878	-0.1878	-0.0341	0.1024	0.3385	0.3641	-0.2418	-0.6913	0.2845	-0.1935	0.4438	-0.1678	1.5504	-1.9032
-0.0853	0.1593	0.0768	-0.0398	0.0398	0.2503	0.1422	-0.0398	0.128	0.2304	-0.1337	0.0284	0.1678	0.33	0.4097	-0.2475	-0.6913	0.3357	-0.1764	0.4694	-0.1565	1.5704	-1.8805
-0.0569	0.1764	0.091	-0.0057	0.0654	0.293	0.1821	0.0028	0.2077	0.2987	-0.0768	0.0967	0.2361	0.3328	0.4381	-0.2361	-0.697	0.3784	-0.1593	0.4893	-0.1195	1.5874	-1.8321
-0.0199	0.1878	0.1536	0.0341	0.1366	0.3556	0.2447	0.0626	0.293	0.3442	-0.0085	0.1821	0.2816	0.3357	0.4552	-0.276	-0.7084	0.3727	-0.1252	0.5149	-0.1024	1.6216	-1.8065
-0.0114	0.2418	0.2048	0.0882	0.2077	0.458	0.293	0.128	0.3897	0.4239	0.0768	0.276	0.367	0.3556	0.4694	-0.3072	-0.7368	0.4495	-0.0996	0.5434	-0.0597	1.6699	-1.7667
0.0256	0.2589	0.2333	0.1479	0.2731	0.5035	0.3528	0.2191	0.4979	0.4808	0.1735	0.3385	0.441	0.367	0.4865	-0.3385	-0.7596	0.4893	-0.0512	0.5804	-0.0142	1.7154	-1.724
0.091	0.2959	0.293	0.2105	0.3385	0.586	0.4182	0.2959	0.569	0.5491	0.2475	0.4466	0.5263	0.3755	0.4637	-0.3784	-0.7766	0.5092	-0.0057	0.569	0.0057	1.7667	-1.6842
0.1223	0.3129	0.3414	0.2418	0.3926	0.6458	0.4523	0.3357	0.6543	0.5946	0.3044	0.5149	0.586	0.3698	0.4353	-0.4097	-0.7681	0.5263	-0.0171	0.5804	0.0398	1.8122	-1.6216
0.1565	0.3585	0.3954	0.3016	0.4609	0.7169	0.5178	0.4153	0.751	0.6685	0.3841	0.6316	0.6685	0.367	0.3755	-0.4751	-0.7795	0.5576	0.0541	0.5946	0.0683	1.8435	-1.596
0.2276	0.4153	0.4609	0.3585	0.5434	0.7994	0.5775	0.4666	0.8279	0.7454	0.4552	0.7169	0.7567	0.3641	0.3385	-0.5291	-0.7681	0.6031	0.0427	0.6202	0.0939	1.8691	-1.5561
0.2475	0.4353	0.5035	0.3926	0.5804	0.8449	0.6401	0.5405	0.9075	0.8136	0.5491	0.7852	0.7937	0.367	0.256	-0.5405	-0.7425	0.6116	0.0569	0.6515	0.1081	1.8719	-1.4964
0.2873	0.4353	0.5149	0.4353	0.623	0.8734	0.6799	0.5775	0.9502	0.8734	0.586	0.8591	0.8506	0.3499	0.1935	-0.5832	-0.6998	0.6116	0.0256	0.6429	0.1223	1.8634	-1.4338
0.2788	0.4609	0.5434	0.458	0.6515	0.9018	0.7283	0.6259	1.0156	0.899	0.6771	0.9445	0.916	0.3186	0.1109	-0.6287	-0.6572	0.6202	0.0455	0.6202	0.1422	1.8406	-1.3655
0.2816	0.4922	0.5804	0.5263	0.6828	0.9701	0.7368	0.6828	1.0725	0.9274	0.734	0.9985	0.9673	0.293	0.0427	-0.6771	-0.6003	0.6259	0.0654	0.6031	0.1508	1.7923	-1.3029
0.2646	0.4922	0.5974	0.5377	0.7254	0.9815	0.7738	0.7197	1.1095	0.953	0.7738	1.0526	0.9815	0.2617	-0.0768	-0.7141	-0.532	0.623	0.0768	0.6116	0.1878	1.7354	-1.2489
0.2902	0.5178	0.6259	0.5804	0.7454	1.0128	0.8051	0.7425	1.1095	0.9758	0.8165	1.0896	0.9843	0.2134	-0.1536	-0.7311	-0.4353	0.6088	0.0711	0.5946	0.1991	1.6472	-1.2091
0.3016	0.5206	0.6515	0.6145	0.7738	1.0241	0.8193	0.7738	1.1465	0.9957	0.8734	1.1266	1.0042	0.1735	-0.239	-0.7112	-0.3585	0.606	0.0711	0.5889	0.1991	1.5391	-1.1835
0.3243	0.5633	0.6856	0.6543	0.7795	1.0355	0.8392	0.7795	1.1522	1.0128	0.8933	1.1721	1.0042	0.1195	-0.2902	-0.6885	-0.2646	0.5775	0.0882	0.5604	0.2105	1.4196	-1.1522
0.3613	0.6173	0.7368	0.7169	0.7937	1.0725	0.862	0.8364	1.1778	1.0355	0.899	1.1778	1.027	0.074	-0.3272	-0.66	-0.1536	0.5491	0.1053	0.5263	0.2304	1.3143	-1.118
0.3983	0.6401	0.771	0.751	0.8222	1.0981	0.8904	0.8449	1.2091	1.0412	0.9502	1.2119	1.0327	0.0256	-0.3613	-0.6003	-0.0597	0.5206	0.128	0.5092	0.2731	1.2176	-1.0924
0.4466	0.6998	0.8079	0.788	0.862	1.1123	0.9018	0.8819	1.1948	1.0355	0.9957	1.2432	1.0099	-0.0256	-0.3784	-0.5434	0.037	0.4779	0.1366	0.4666	0.3016	1.1237	-1.0583
0.5064	0.7653	0.862	0.825	0.8933	1.1436	0.9416	0.9132	1.2176	1.0498	1.0213	1.2489	1.0185	-0.0797	-0.3585	-0.4637	0.128	0.4722	0.1622	0.4523	0.3385	1.0498	-1.027
0.5462	0.8193	0.9303	0.8648	0.9189	1.1579	0.9388	0.9445	1.2318	1.027	1.0441	1.2631	1.0099	-0.1195	-0.3698	-0.3784	0.2077	0.4296	0.1849	0.4296	0.3585	0.9985	-0.9758
0.6202	0.8535	0.9758	0.916	0.9445	1.1892	0.9559	0.9673	1.2375	1.0327	1.0526	1.2603	1.0014	-0.1622	-0.3556	-0.3044	0.2959	0.4182	0.2048	0.4097	0.3727	0.9502	-0.9246
0.6828	0.9132	1.0327	0.9701	0.9587	1.2119	0.9957	1.0042	1.2773	1.0526	1.0782	1.2859	0.9957	-0.1792	-0.3442	-0.2077	0.3528	0.4068	0.2418	0.4068	0.4153	0.9331	-0.8791
0.7311	0.9957	1.0725	0.9929	1.0014	1.2233	0.9872	1.0071	1.2745	1.0327	1.0867	1.2859	0.9815	-0.2219	-0.3129	-0.1366	0.4239	0.3613	0.2731	0.3613	0.4438	0.9217	-0.8193
0.7766	1.0156	1.0867	0.9872	1.0071	1.2176	1.0042	1.0384	1.2574	0.9957	1.0697	1.2717	0.9303	-0.2418	-0.3016	-0.0683	0.4779	0.33	0.3158	0.3499	0.4722	0.9018	-0.7653
0.788	1.0298	1.0953	1.0128	0.9985	1.2261	0.9957	1.0298	1.2432	0.9729	1.0554	1.2375	0.9189	-0.2532	-0.3016	-0.0085	0.5178	0.3101	0.3613	0.3442	0.5149	0.9132	-0.7027
0.7852	1.0412	1.1123	0.9957	1.0014	1.1948	0.9758	1.0412	1.2176	0.9701	1.0583	1.2375	0.8791	-0.2816	-0.2816	0.0512	0.5405	0.276	0.3983	0.3385	0.5348	0.899	-0.6429
0.788	1.0554	1.0953	1.0128	0.9559	1.1579	0.9701	1.0014	1.2034	0.9445	1.0355	1.2148	0.8705	-0.2845	-0.276	0.1081	0.5547	0.2731	0.4495	0.3215	0.6003	0.8848	-0.5718
0.8023	1.0498	1.0896	0.9985	0.9616	1.1379	0.9729	0.99	1.1721	0.916	1.0128	1.1948	0.8449	-0.2731	-0.2276	0.1479	0.5462	0.2475	0.4751	0.3215	0.6458	0.8933	-0.5206
0.7397	1.0241	1.0839	0.9758	0.9587	1.1209	0.9843	0.9815	1.1266	0.899	1.0241	1.1892	0.8279	-0.2788	-0.2361	0.1991	0.5377	0.2475	0.5149	0.3215	0.6685	0.8848	-0.4637
0.7197	0.9786	1.0526	0.9616	0.8876	1.0839	0.9559	0.9246	1.0896	0.8535	0.9872	1.1323	0.7795	-0.2617	-0.2304	0.2134	0.5206	0.2077	0.5547	0.3129	0.6885	0.8705	-0.4296
0.7027	0.9559	1.0241	0.9274	0.8506	1.0554	0.9075	0.8933	1.0526	0.8364	0.9303	1.0782	0.7482	-0.2617	-0.1906	0.2247	0.4979	0.2048	0.5775	0.3101	0.7112	0.8478	-0.3954
0.6885	0.9047	0.9815	0.9104	0.8193	0.9929	0.8876	0.8819	0.9929	0.8136	0.899	1.0298	0.7311	-0.2475	-0.1764	0.239	0.4609	0.1963	0.606	0.2816	0.7368	0.8193	-0.3698
0.6259	0.8535	0.936	0.8563	0.7738	0.9189	0.8364	0.7966	0.9445	0.7567	0.8364	0.9644	0.6742	-0.239	-0.1195	0.2475	0.441	0.1451	0.6259	0.2532	0.7055	0.7823	-0.3471
0.5917	0.7852	0.9047	0.8307	0.6941	0.8563	0.8193	0.751	0.9018	0.6913	0.788	0.9075	0.6572	-0.1991	-0.0996	0.276	0.3926	0.1536	0.6401	0.2475	0.697	0.7681	-0.3414
0.5718	0.7482	0.8279	0.7738	0.6401	0.8023	0.7681	0.6742	0.8079	0.6543	0.7254	0.8478	0.606	-0.1878	-0.0199	0.2447	0.3556	0.1309	0.6145	0.2475	0.6885	0.7112	-0.3243
0.5263	0.6657	0.751	0.7027	0.5519	0.7368	0.7254	0.5917	0.7425	0.5917	0.6429	0.7454	0.5547	-0.1678	0.0341	0.2418	0.3215	0.1024	0.586	0.2134	0.6572	0.6742	-0.2959
0.4808	0.6173	0.7027	0.6629	0.4722	0.66	0.6799	0.5291	0.6629	0.5405	0.5747	0.66	0.5064	-0.1536	0.0654	0.239	0.2703	0.091	0.5405	0.1821	0.6145	0.6344	-0.2674
0.441	0.532	0.6372	0.586	0.3954	0.6003	0.623	0.4438	0.5747	0.495	0.4779	0.5804	0.4353	-0.1252	0.1394	0.2191	0.2219	0.0626	0.5092	0.1536	0.569	0.5775	-0.2333
0.3983	0.4865	0.5747	0.5206	0.33	0.5263	0.5832	0.3414	0.5007	0.441	0.3841	0.4808	0.3897	-0.0939	0.2134	0.1963	0.165	0.0284	0.4438	0.1309	0.4865	0.5291	-0.1821
0.3414	0.3897	0.4979	0.4438	0.2361	0.4296	0.5235	0.2617	0.3983	0.3641	0.2873	0.3897	0.3072	-0.0768	0.256	0.1565	0.128	0.0085	0.367	0.091	0.3869	0.4836	-0.1536
0.3044	0.3072	0.3869	0.3926	0.1394	0.3585	0.4637	0.165	0.3442	0.3101	0.1792	0.3186	0.2532	-0.0455	0.2845	0.1252	0.074	0	0.2902	0.0768	0.3016	0.4353	-0.091
0.2048	0.2503	0.2987	0.2731	0.0597	0.2617	0.3869	0.0768	0.2191	0.2304	0.0939	0.2304	0.202	-0.0171	0.2731	0.0455	0.0199	-0.0142	0.2048	0.0341	0.1963	0.3841	-0.037
0.0996	0.1821	0.2191	0.1394	-0.0398	0.1707	0.2703	-0.037	0.1252	0.1479	-0.0057	0.1451	0.1223	0	0.2447	-0.0427	-0.0199	-0.0455	0.1109	-0.0171	0.1252	0.3357	0.0228
0.0199	0.0967	0.0882	0.0512	-0.128	0.074	0.2105	-0.1252	0.0341	0.0654	-0.1109	0.0313	0.0512	0.0085	0.2333	-0.1366	-0.0341	-0.0853	0.0256	-0.037	0.0114	0.2646	0.0711
-0.091	-0.0028	-0.0057	-0.0569	-0.2304	-0.0427	0.0996	-0.2418	-0.0853	-0.0057	-0.1906	-0.0541	-0.0142	0.0341	0.1821	-0.2162	-0.0541	-0.1024	-0.0455	-0.0768	-0.0597	0.2134	0.1053
-0.1565	-0.0597	-0.1081	-0.1337	-0.2845	-0.1366	0.0199	-0.3016	-0.1764	-0.074	-0.2617	-0.1479	-0.0768	0.037	0.1536	-0.3016	-0.0768	-0.1195	-0.0882	-0.0996	-0.1138	0.1366	0.1394
-0.2475	-0.1195	-0.2276	-0.2418	-0.3784	-0.202	-0.0711	-0.3869	-0.2646	-0.1821	-0.367	-0.2333	-0.1451	0.0256	0.0825	-0.4097	-0.0597	-0.1394	-0.1735	-0.1479	-0.1991	0.0996	0.1707
-0.3556	-0.1991	-0.3186	-0.3585	-0.4609	-0.2959	-0.1422	-0.4239	-0.3556	-0.2475	-0.421	-0.3328	-0.1906	0.0142	0.0284	-0.5092	-0.0541	-0.1678	-0.2105	-0.1878	-0.2532	0.0256	0.1707
-0.4267	-0.2646	-0.4011	-0.4296	-0.5235	-0.3954	-0.2475	-0.5149	-0.441	-0.3072	-0.5007	-0.404	-0.2674	0.0028	-0.0512	-0.5747	-0.0256	-0.1878	-0.2617	-0.2162	-0.3357	-0.0512	0.1792
-0.4808	-0.3158	-0.4751	-0.5064	-0.5633	-0.458	-0.3328	-0.5491	-0.5291	-0.3442	-0.5604	-0.4751	-0.3186	0	-0.0853	-0.623	-0.0199	-0.2048	-0.2788	-0.2105	-0.3926	-0.1451	0.1622
-0.5377	-0.3727	-0.5661	-0.5775	-0.6401	-0.5604	-0.3926	-0.6202	-0.6145	-0.404	-0.623	-0.5661	-0.3869	-0.0256	-0.1593	-0.6913	0.0313	-0.2247	-0.3272	-0.2589	-0.4296	-0.2361	0.1764
-0.5718	-0.4239	-0.6173	-0.6572	-0.6828	-0.6202	-0.4666	-0.6799	-0.6856	-0.4836	-0.6856	-0.6429	-0.4381	-0.0427	-0.2276	-0.7254	0.0768	-0.239	-0.3641	-0.2788	-0.4922	-0.3101	0.1536
-0.5917	-0.4779	-0.7055	-0.6941	-0.7254	-0.6885	-0.5405	-0.6913	-0.751	-0.5291	-0.7084	-0.697	-0.4609	-0.0569	-0.2816	-0.7311	0.1109	-0.2247	-0.3613	-0.2674	-0.5178	-0.4011	0.1422
-0.606	-0.5178	-0.7368	-0.7425	-0.7397	-0.7112	-0.5946	-0.7084	-0.7966	-0.5775	-0.7311	-0.7425	-0.4922	-0.0853	-0.3471	-0.7283	0.1622	-0.2361	-0.3585	-0.3129	-0.5491	-0.4523	0.1109
-0.6116	-0.5576	-0.7795	-0.7653	-0.7738	-0.7567	-0.6202	-0.7226	-0.8279	-0.5946	-0.734	-0.7567	-0.5064	-0.1223	-0.3755	-0.7283	0.2276	-0.2304	-0.3442	-0.3044	-0.5462	-0.5377	0.1109
-0.6145	-0.5747	-0.8108	-0.7681	-0.7681	-0.7738	-0.6344	-0.7283	-0.8421	-0.606	-0.7141	-0.7795	-0.5149	-0.1366	-0.4125	-0.6941	0.2646	-0.2191	-0.2788	-0.3101	-0.5149	-0.5747	0.0797
-0.6173	-0.6088	-0.8108	-0.8108	-0.7567	-0.825	-0.6629	-0.734	-0.8648	-0.6372	-0.7254	-0.8108	-0.5235	-0.1735	-0.4609	-0.6629	0.3414	-0.2191	-0.2646	-0.3158	-0.5064	-0.6316	0.074
-0.6344	-0.623	-0.8421	-0.7994	-0.771	-0.8591	-0.7027	-0.7311	-0.8762	-0.6543	-0.7197	-0.8193	-0.5092	-0.2162	-0.4609	-0.6316	0.4097	-0.2247	-0.2191	-0.3385	-0.4779	-0.6685	0.0512
-0.66	-0.6486	-0.8506	-0.8279	-0.7539	-0.8848	-0.7425	-0.7169	-0.9104	-0.6685	-0.7141	-0.8421	-0.5206	-0.256	-0.5092	-0.5832	0.4922	-0.2077	-0.1707	-0.3357	-0.4495	-0.7141	0.037
-0.6885	-0.6771	-0.8904	-0.8421	-0.7567	-0.9246	-0.7624	-0.7311	-0.9246	-0.6799	-0.6913	-0.8591	-0.5377	-0.293	-0.5035	-0.5547	0.5604	-0.1963	-0.1394	-0.3442	-0.421	-0.7482	0.0398
-0.6941	-0.6856	-0.9018	-0.8392	-0.7454	-0.9331	-0.7966	-0.6998	-0.9274	-0.6913	-0.6714	-0.8421	-0.5035	-0.3186	-0.5092	-0.4922	0.6145	-0.1963	-0.0882	-0.3471	-0.3641	-0.8023	0.0313
-0.7254	-0.7169	-0.9075	-0.8421	-0.7283	-0.9587	-0.7994	-0.6828	-0.9217	-0.6913	-0.6344	-0.8335	-0.5035	-0.3442	-0.5235	-0.441	0.66	-0.1935	-0.0455	-0.3585	-0.3471	-0.8535	0.0455
-0.7454	-0.7454	-0.9416	-0.8279	-0.734	-0.9929	-0.8279	-0.6714	-0.9331	-0.7055	-0.606	-0.8364	-0.5178	-0.3613	-0.5235	-0.3983	0.7027	-0.202	-0.0427	-0.3556	-0.3044	-0.9018	0.0569
-0.7567	-0.7397	-0.936	-0.825	-0.7254	-1.0042	-0.8222	-0.6515	-0.9331	-0.6941	-0.5718	-0.8193	-0.5035	-0.3841	-0.4922	-0.3357	0.7283	-0.1735	0.0171	-0.3442	-0.2447	-0.9815	0.0853
-0.7539	-0.7653	-0.9559	-0.8108	-0.7197	-1.0384	-0.825	-0.6344	-0.9303	-0.7112	-0.5519	-0.8222	-0.5149	-0.3727	-0.4893	-0.2589	0.7283	-0.165	0.0455	-0.3442	-0.2134	-1.0441	0.1337
-0.7482	-0.7795	-0.9445	-0.7909	-0.6998	-1.0298	-0.8307	-0.6173	-0.9132	-0.697	-0.5348	-0.7937	-0.5007	-0.3727	-0.4722	-0.1821	0.7311	-0.1622	0.0569	-0.3385	-0.1792	-1.1323	0.1849
-0.7766	-0.8079	-0.9388	-0.7966	-0.7112	-1.0298	-0.8478	-0.6259	-0.9075	-0.7454	-0.5206	-0.8136	-0.5235	-0.3784	-0.4552	-0.0853	0.7084	-0.1622	0.0683	-0.3442	-0.1337	-1.2119	0.2703
-0.7283	-0.8165	-0.9559	-0.7766	-0.7055	-1.0469	-0.8392	-0.6202	-0.916	-0.7425	-0.495	-0.7994	-0.5377	-0.3585	-0.4466	-0.0085	0.6771	-0.1678	0.0313	-0.367	-0.1109	-1.2745	0.3499
-0.7169	-0.8051	-0.9274	-0.7368	-0.6799	-1.0412	-0.8392	-0.6003	-0.9047	-0.751	-0.4865	-0.8023	-0.5491	-0.3499	-0.4324	0.091	0.6372	-0.1707	0.0654	-0.3727	-0.0768	-1.3542	0.4523
-0.6742	-0.825	-0.9047	-0.7169	-0.6799	-1.027	-0.8222	-0.606	-0.8848	-0.7653	-0.4751	-0.7681	-0.5462	-0.3016	-0.3869	0.1963	0.5747	-0.1792	0.0484	-0.3727	-0.0484	-1.4395	0.5775
-0.606	-0.7937	-0.8392	-0.6572	-0.6372	-0.99	-0.788	-0.5747	-0.862	-0.7596	-0.4466	-0.771	-0.5491	-0.2674	-0.3272	0.3215	0.5035	-0.1849	0.0427	-0.3727	-0.0313	-1.5049	0.6941
-0.5604	-0.7653	-0.8165	-0.6145	-0.6259	-0.9701	-0.7653	-0.5519	-0.8364	-0.7624	-0.4353	-0.7624	-0.5718	-0.2247	-0.2703	0.4182	0.4239	-0.202	0.0085	-0.3926	-0.0541	-1.5647	0.8193
-0.4836	-0.7368	-0.7539	-0.5434	-0.5889	-0.9388	-0.7596	-0.5235	-0.8193	-0.7852	-0.4182	-0.7539	-0.586	-0.1821	-0.2247	0.532	0.3414	-0.1906	-0.0341	-0.3812	-0.037	-1.6301	0.936
-0.4239	-0.7084	-0.6885	-0.4836	-0.5661	-0.8961	-0.7141	-0.5035	-0.788	-0.7681	-0.4097	-0.751	-0.6145	-0.1422	-0.165	0.6344	0.2475	-0.1991	-0.0199	-0.3926	-0.0484	-1.6671	1.081
-0.3841	-0.7055	-0.6913	-0.4722	-0.5462	-0.8904	-0.7368	-0.5178	-0.7966	-0.7994	-0.458	-0.7567	-0.6572	-0.1138	-0.1394	0.6913	0.1935	-0.2475	-0.0825	-0.4153	-0.0825	-1.7069	1.1948
-0.3414	-0.6572	-0.6572	-0.4381	-0.5092	-0.862	-0.7112	-0.5121	-0.788	-0.8108	-0.4751	-0.7852	-0.6885	-0.0797	-0.0853	0.7539	0.1337	-0.2788	-0.1252	-0.4239	-0.1252	-1.7297	1.3371
-0.3016	-0.6202	-0.6003	-0.4097	-0.4865	-0.8279	-0.7197	-0.4836	-0.7681	-0.8165	-0.4836	-0.7624	-0.7084	-0.0455	-0.0455	0.7966	0.0654	-0.3044	-0.1935	-0.4466	-0.165	-1.7439	1.4537
-0.2902	-0.5804	-0.5917	-0.3954	-0.4552	-0.7966	-0.7055	-0.4836	-0.771	-0.8279	-0.4922	-0.7852	-0.7454	-0.0199	-0.0028	0.8307	0.0171	-0.3414	-0.2191	-0.458	-0.202	-1.761	1.5561
-0.2731	-0.5576	-0.5547	-0.3613	-0.4381	-0.788	-0.6998	-0.4808	-0.7966	-0.8563	-0.5092	-0.7966	-0.8023	0.0085	0.0284	0.8392	-0.0256	-0.3727	-0.2703	-0.4836	-0.2418	-1.7439	1.6472
-0.2304	-0.5178	-0.5235	-0.3442	-0.3812	-0.7795	-0.6799	-0.4751	-0.788	-0.8478	-0.5235	-0.7795	-0.8335	0.0313	0.0825	0.8705	-0.0626	-0.4097	-0.2959	-0.4893	-0.2532	-1.7467	1.7581
-0.1764	-0.4552	-0.4836	-0.3272	-0.3414	-0.7368	-0.6657	-0.4609	-0.771	-0.8364	-0.5291	-0.8023	-0.8705	0.0569	0.1678	0.8904	-0.1195	-0.4296	-0.3158	-0.5007	-0.239	-1.7382	1.8207
-0.1678	-0.4239	-0.4751	-0.3158	-0.3186	-0.7112	-0.6771	-0.4296	-0.7738	-0.8677	-0.5491	-0.8051	-0.8904	0.0626	0.2162	0.8677	-0.1536	-0.4865	-0.3357	-0.5149	-0.2532	-1.7297	1.8918
-0.1138	-0.3926	-0.4666	-0.3215	-0.293	-0.6885	-0.6629	-0.4097	-0.7596	-0.8478	-0.5434	-0.8108	-0.9189	0.0853	0.2674	0.8819	-0.1991	-0.5121	-0.3101	-0.5178	-0.2703	-1.7098	1.9317
-0.0797	-0.3585	-0.404	-0.3016	-0.256	-0.6572	-0.66	-0.3954	-0.7397	-0.8563	-0.5519	-0.8023	-0.9274	0.1223	0.3585	0.916	-0.2646	-0.5377	-0.2987	-0.5263	-0.2731	-1.7154	1.9886
-0.0341	-0.3442	-0.3698	-0.3016	-0.2447	-0.6543	-0.6344	-0.4097	-0.7539	-0.8506	-0.5633	-0.8079	-0.9388	0.1422	0.3869	0.9274	-0.3044	-0.5462	-0.3016	-0.4922	-0.2788	-1.7126	2.0255
0.0028	-0.3243	-0.367	-0.2731	-0.2532	-0.6202	-0.6344	-0.3983	-0.7368	-0.8193	-0.5576	-0.8193	-0.9644	0.165	0.4609	0.9388	-0.3471	-0.5946	-0.3101	-0.5092	-0.293	-1.7154	2.0711
0.0569	-0.3385	-0.3328	-0.2987	-0.2503	-0.6316	-0.6287	-0.4011	-0.7425	-0.8108	-0.5434	-0.8193	-0.9786	0.1849	0.5206	0.953	-0.3926	-0.5747	-0.2902	-0.4893	-0.2845	-1.7211	2.0881
0.0683	-0.3528	-0.33	-0.2873	-0.239	-0.5946	-0.6003	-0.3784	-0.7141	-0.8136	-0.5604	-0.8136	-0.9701	0.2077	0.569	0.99	-0.4438	-0.586	-0.2418	-0.458	-0.2788	-1.7211	2.1109
0.0996	-0.3556	-0.3328	-0.2674	-0.2589	-0.5917	-0.6145	-0.3869	-0.7539	-0.8023	-0.5576	-0.8279	-0.9872	0.2191	0.6458	1.0014	-0.4666	-0.6173	-0.2276	-0.4637	-0.2731	-1.7297	2.1479
0.1366	-0.3897	-0.3158	-0.276	-0.2646	-0.6003	-0.6031	-0.4068	-0.7397	-0.8193	-0.5804	-0.8421	-0.9957	0.2418	0.697	1.0156	-0.5035	-0.6287	-0.1906	-0.458	-0.2987	-1.7069	2.1934
0.1622	-0.441	-0.3499	-0.293	-0.2959	-0.6031	-0.6145	-0.421	-0.7653	-0.8222	-0.6145	-0.862	-0.9872	0.2674	0.7397	1.0327	-0.5405	-0.6372	-0.1935	-0.4324	-0.2987	-1.6927	2.2161
0.128	-0.4722	-0.367	-0.3101	-0.3641	-0.6429	-0.623	-0.4694	-0.7909	-0.8364	-0.6372	-0.8848	-1.0298	0.2816	0.7624	1.0128	-0.5633	-0.6629	-0.1764	-0.4438	-0.3215	-1.6898	2.2588
0.0939	-0.5348	-0.3897	-0.3328	-0.404	-0.6657	-0.6344	-0.4979	-0.8222	-0.8506	-0.6429	-0.8933	-1.0355	0.2731	0.7596	1.0042	-0.5917	-0.6828	-0.1735	-0.4324	-0.3727	-1.6699	2.2901
0.0541	-0.5917	-0.4552	-0.3755	-0.4779	-0.697	-0.6401	-0.5576	-0.8421	-0.825	-0.6828	-0.9388	-1.0583	0.3072	0.7539	0.9701	-0.6202	-0.6685	-0.1906	-0.3983	-0.3869	-1.6529	2.3186
0.0228	-0.6372	-0.4466	-0.3556	-0.4979	-0.7112	-0.6173	-0.5661	-0.8478	-0.8193	-0.6941	-0.9331	-1.0498	0.3072	0.7539	0.9502	-0.6372	-0.6543	-0.1878	-0.367	-0.4182	-1.6443	2.3527
-0.0341	-0.6885	-0.4893	-0.4011	-0.5377	-0.7397	-0.6202	-0.5946	-0.8791	-0.8108	-0.7254	-0.9388	-1.027	0.3129	0.7169	0.8848	-0.6429	-0.6344	-0.2162	-0.3471	-0.4609	-1.6301	2.3584
-0.074	-0.7254	-0.5206	-0.4011	-0.5974	-0.7823	-0.5974	-0.6629	-0.8961	-0.788	-0.771	-0.9673	-1.0042	0.3072	0.6799	0.8506	-0.6316	-0.6458	-0.2247	-0.3414	-0.4893	-1.6216	2.4011
-0.1337	-0.7795	-0.569	-0.4097	-0.6515	-0.7966	-0.5633	-0.6998	-0.9104	-0.7738	-0.788	-0.9445	-0.9616	0.3044	0.6287	0.751	-0.6202	-0.6173	-0.256	-0.293	-0.5462	-1.613	2.421
-0.1792	-0.7795	-0.5832	-0.404	-0.6714	-0.7994	-0.5178	-0.7197	-0.899	-0.7169	-0.8023	-0.9331	-0.9047	0.2959	0.5917	0.6913	-0.6031	-0.5747	-0.2788	-0.2475	-0.5547	-1.613	2.4608
-0.2077	-0.8165	-0.5775	-0.4068	-0.7055	-0.8023	-0.4637	-0.7397	-0.8876	-0.6799	-0.8023	-0.8933	-0.8591	0.3072	0.5405	0.623	-0.5917	-0.5633	-0.3129	-0.2247	-0.5946	-1.6187	2.5092
-0.2304	-0.8279	-0.5661	-0.3528	-0.734	-0.7596	-0.4011	-0.7226	-0.8421	-0.6202	-0.7596	-0.8279	-0.7766	0.2788	0.5121	0.586	-0.5661	-0.5064	-0.3072	-0.1735	-0.5747	-1.6557	2.5575
-0.2077	-0.7937	-0.5348	-0.3101	-0.6799	-0.7027	-0.2987	-0.6885	-0.7852	-0.4979	-0.7283	-0.7766	-0.6799	0.2617	0.4808	0.5263	-0.5405	-0.4609	-0.293	-0.128	-0.5832	-1.6842	2.6173
-0.2077	-0.7738	-0.5007	-0.2532	-0.6799	-0.6714	-0.2219	-0.6856	-0.734	-0.421	-0.6771	-0.6941	-0.5832	0.2475	0.4552	0.5291	-0.5092	-0.4011	-0.2845	-0.0825	-0.5547	-1.7382	2.6656
-0.1821	-0.7425	-0.4694	-0.1963	-0.623	-0.606	-0.128	-0.6572	-0.6543	-0.3129	-0.6173	-0.6145	-0.4808	0.2276	0.4381	0.4893	-0.4808	-0.3328	-0.2503	-0.0057	-0.5206	-1.7951	2.7311
-0.1252	-0.6771	-0.3954	-0.0825	-0.6003	-0.5348	-0.0085	-0.5804	-0.5519	-0.1963	-0.5547	-0.5035	-0.3698	0.2048	0.3926	0.5235	-0.4296	-0.2646	-0.2191	0.0284	-0.495	-1.8691	2.7737
-0.0683	-0.6116	-0.3471	-0.0284	-0.5633	-0.4751	0.0683	-0.5434	-0.4779	-0.1195	-0.5035	-0.4239	-0.2674	0.202	0.3698	0.5235	-0.4068	-0.2304	-0.1991	0.074	-0.4523	-1.926	2.8392
-0.0114	-0.5519	-0.2674	0.0654	-0.4836	-0.3926	0.1764	-0.4865	-0.3812	-0.0114	-0.4324	-0.2987	-0.1479	0.1735	0.3272	0.586	-0.3585	-0.1366	-0.1451	0.128	-0.421	-2.0426	2.9018
0.0341	-0.495	-0.1963	0.1593	-0.4153	-0.2959	0.3044	-0.4182	-0.2703	0.1309	-0.3072	-0.1792	-0.0085	0.1451	0.293	0.6429	-0.3272	-0.0711	-0.1138	0.1991	-0.3585	-2.1251	2.953
0.0882	-0.4125	-0.1195	0.2333	-0.3585	-0.1963	0.4267	-0.3414	-0.1508	0.239	-0.2361	-0.0541	0.091	0.1337	0.2703	0.6913	-0.2845	0.0085	-0.074	0.2276	-0.2987	-2.2133	3.0326
0.1593	-0.3215	-0.0028	0.3414	-0.276	-0.0882	0.532	-0.2361	-0.0085	0.3585	-0.1366	0.0654	0.2304	0.1223	0.2418	0.7539	-0.2703	0.0797	-0.0398	0.2987	-0.2418	-2.2986	3.1094
0.2105	-0.2532	0.0427	0.4068	-0.1935	0	0.6202	-0.1764	0.0797	0.4466	-0.0597	0.1678	0.3186	0.1166	0.1792	0.825	-0.2333	0.1337	-0.0284	0.3215	-0.2162	-2.3726	3.1891
0.2788	-0.1707	0.1508	0.5263	-0.1223	0.0882	0.7397	-0.1053	0.1707	0.5377	0	0.2731	0.4267	0.1081	0.1593	0.9018	-0.2219	0.1935	-0.0171	0.4097	-0.165	-2.4181	3.2773
0.3442	-0.0654	0.2475	0.6344	-0.037	0.2048	0.8478	0.0085	0.3016	0.6572	0.091	0.3954	0.5206	0.1053	0.1935	0.9957	-0.2191	0.2361	0.0028	0.4438	-0.1394	-2.4494	3.3683
0.4637	0.0228	0.3983	0.7596	0.0683	0.3272	0.9587	0.1166	0.4296	0.7766	0.1991	0.5092	0.6287	0.1109	0.2247	1.1067	-0.239	0.3072	0.0313	0.5035	-0.0711	-2.4893	3.4679
0.5462	0.128	0.495	0.8819	0.1565	0.4495	1.081	0.1821	0.5462	0.8848	0.2788	0.623	0.7254	0.128	0.2902	1.2176	-0.2646	0.3897	0.0569	0.5747	-0.0142	-2.4921	3.576
0.6515	0.2162	0.6173	1.0327	0.2788	0.5804	1.2062	0.3186	0.6885	1.0156	0.3869	0.7567	0.8222	0.1394	0.3641	1.3342	-0.3129	0.4438	0.0853	0.6515	0.037	-2.4779	3.7012
0.7823	0.3442	0.771	1.1465	0.3812	0.7141	1.3684	0.4296	0.8165	1.1266	0.4979	0.8819	0.9132	0.165	0.4637	1.4708	-0.3556	0.5121	0.1252	0.7055	0.1166	-2.4494	3.795
0.8933	0.4466	0.8819	1.2973	0.5007	0.8421	1.4793	0.5377	0.9445	1.2375	0.586	0.9815	0.99	0.1991	0.586	1.5931	-0.3983	0.5462	0.1195	0.7738	0.1451	-2.4068	3.906
1.0298	0.5889	1.0128	1.4452	0.606	1.0185	1.6073	0.6316	1.0754	1.3655	0.6941	1.1323	1.0697	0.2162	0.7141	1.6955	-0.4552	0.6145	0.1479	0.8079	0.1963	-2.3214	4.0141
1.1778	0.7368	1.1664	1.5931	0.7397	1.1607	1.7439	0.7567	1.2261	1.4765	0.7937	1.2517	1.1351	0.2503	0.8421	1.8691	-0.5064	0.6401	0.1678	0.8819	0.2418	-2.2446	4.1051
1.2973	0.825	1.3086	1.687	0.862	1.2887	1.8492	0.8449	1.3172	1.559	0.8762	1.3542	1.2062	0.2617	0.9616	2.0028	-0.5462	0.6714	0.1792	0.9217	0.2731	-2.1393	4.2104
1.4679	0.9758	1.4708	1.8236	0.9957	1.4367	1.9487	0.9559	1.4765	1.6529	0.9758	1.4679	1.2802	0.2873	1.0668	2.1308	-0.5775	0.7141	0.1935	0.99	0.2902	-2.0511	4.3071
1.6073	1.0924	1.5789	1.9288	1.0839	1.5732	2.0455	1.0441	1.5732	1.7467	1.0213	1.5334	1.3371	0.3044	1.1806	2.2588	-0.6003	0.7567	0.1991	1.0412	0.3243	-1.9544	4.4095
1.724	1.1863	1.6785	2.0597	1.2091	1.6984	2.1479	1.1493	1.7041	1.852	1.1095	1.613	1.3655	0.2959	1.2717	2.3413	-0.6173	0.7567	0.1935	1.064	0.367	-1.8719	4.5006
1.8179	1.3001	1.8122	2.1308	1.2916	1.8065	2.1905	1.2375	1.7894	1.9117	1.1635	1.6927	1.3968	0.2873	1.3513	2.4836	-0.5946	0.7624	0.1935	1.1067	0.3585	-1.7809	4.6058
1.8833	1.4111	1.889	2.2048	1.3911	1.9117	2.2446	1.3029	1.8634	1.9686	1.2034	1.7581	1.4594	0.2845	1.4253	2.5917	-0.5718	0.771	0.2333	1.1323	0.3784	-1.6785	4.6912
1.9345	1.4566	1.9459	2.2361	1.4594	1.9772	2.3072	1.3513	1.9174	2.0142	1.2261	1.8065	1.4708	0.2674	1.4651	2.6201	-0.5462	0.7624	0.2333	1.1664	0.3499	-1.559	4.7851
1.9686	1.559	2.0312	2.2873	1.5675	2.0625	2.3328	1.4253	2.0198	2.0682	1.2773	1.8548	1.4936	0.2589	1.5192	2.6799	-0.5263	0.7937	0.2589	1.2148	0.3869	-1.448	4.8903
1.9971	1.6187	2.0711	2.3072	1.6244	2.1308	2.3726	1.4822	2.0853	2.128	1.3371	1.9288	1.522	0.2532	1.5305	2.7339	-0.5235	0.8136	0.2959	1.2204	0.3954	-1.3115	4.9984
2.017	1.6557	2.1024	2.3356	1.6785	2.1849	2.384	1.5277	2.1365	2.1507	1.357	1.9373	1.5192	0.2617	1.522	2.7538	-0.5235	0.8136	0.3129	1.246	0.4267	-1.1664	5.1122
2.0398	1.7069	2.1194	2.3043	1.7354	2.2474	2.3925	1.5647	2.1905	2.1792	1.3712	1.9829	1.5334	0.2304	1.5334	2.7709	-0.5121	0.8136	0.3499	1.2517	0.4552	-1.0241	5.2203
2.0028	1.7268	2.1393	2.2958	1.7581	2.2446	2.3783	1.5874	2.2161	2.1905	1.3684	1.9914	1.5362	0.2503	1.5305	2.7709	-0.5064	0.8023	0.367	1.2375	0.4466	-0.8648	5.3227
1.9971	1.7524	2.1422	2.2787	1.8065	2.2844	2.3783	1.5931	2.2503	2.1934	1.3883	1.9829	1.5334	0.2475	1.5277	2.768	-0.5092	0.7994	0.404	1.2546	0.4666	-0.7169	5.428
2.0028	1.7667	2.1479	2.256	1.8378	2.3015	2.3698	1.6301	2.2787	2.1962	1.3769	2.0056	1.5419	0.2418	1.5391	2.7851	-0.5206	0.7909	0.4381	1.2404	0.4808	-0.5917	5.519
1.9829	1.7837	2.1393	2.2304	1.8605	2.293	2.3442	1.6386	2.2844	2.1763	1.3684	1.9999	1.522	0.256	1.5419	2.7652	-0.5405	0.7823	0.4722	1.2574	0.495	-0.4552	5.593
1.9402	1.7667	2.1109	2.1849	1.8435	2.2674	2.2986	1.6102	2.293	2.1479	1.3285	1.9829	1.5049	0.2646	1.4879	2.7538	-0.5519	0.7596	0.4694	1.2347	0.5035	-0.3385	5.6726
1.9345	1.7553	2.1166	2.1564	1.889	2.256	2.2702	1.613	2.3129	2.1308	1.3229	1.9601	1.5135	0.2703	1.5021	2.7794	-0.5747	0.7482	0.4808	1.1977	0.495	-0.2589	5.7324
1.9487	1.7837	2.1166	2.1109	1.9117	2.2844	2.2389	1.6102	2.3015	2.108	1.3058	1.9373	1.4964	0.293	1.5021	2.8022	-0.5917	0.7454	0.5064	1.2034	0.4808	-0.1792	5.7836
1.9288	1.778	2.0881	2.0881	1.8947	2.256	2.2076	1.5903	2.3015	2.0568	1.2631	1.889	1.4708	0.293	1.4879	2.7709	-0.6003	0.7397	0.5007	1.192	0.4666	-0.128	5.8177
1.9117	1.7439	2.0625	2.0426	1.889	2.2275	2.1678	1.5675	2.273	2.0255	1.2261	1.889	1.4509	0.2987	1.4679	2.788	-0.6088	0.7454	0.5178	1.1778	0.4808	-0.1223	5.8576
1.926	1.7354	2.0398	1.9857	1.9061	2.2133	2.1166	1.5761	2.2645	1.9886	1.2347	1.8833	1.4281	0.3072	1.4793	2.7993	-0.6259	0.7311	0.5291	1.1635	0.4865	-0.1053	5.8832
1.8975	1.7524	2.0312	1.9487	1.9487	2.1905	2.091	1.5761	2.2446	1.9345	1.2404	1.8548	1.4253	0.3215	1.4936	2.7965	-0.6316	0.7454	0.5576	1.1465	0.5064	-0.1394	5.886
1.8833	1.7695	2.0085	1.926	1.9544	2.1934	2.054	1.5931	2.2417	1.9061	1.2432	1.8748	1.4111	0.3186	1.5135	2.8164	-0.6458	0.751	0.5946	1.1493	0.5377	-0.1764	5.8917
1.8463	1.7581	1.9914	1.8861	1.9829	2.1678	2.017	1.5931	2.2161	1.8548	1.2233	1.8264	1.3769	0.3158	1.5391	2.8449	-0.6429	0.734	0.6173	1.1522	0.5491	-0.2304	5.8746
1.8292	1.7524	1.9715	1.8378	1.9942	2.1194	1.9573	1.5903	2.1763	1.7837	1.1778	1.778	1.3513	0.3243	1.5817	2.8278	-0.6572	0.7368	0.6116	1.1266	0.5405	-0.2845	5.8576
1.7809	1.7553	1.9288	1.8008	2.0056	2.1052	1.9373	1.5988	2.1763	1.7695	1.1749	1.761	1.3229	0.3357	1.6187	2.8619	-0.6714	0.7539	0.6287	1.1323	0.586	-0.3243	5.8519
1.7439	1.7325	1.9146	1.7325	1.9914	2.0682	1.8947	1.596	2.1365	1.7012	1.1863	1.7297	1.283	0.3528	1.6586	2.8676	-0.6941	0.7766	0.6344	1.1379	0.5775	-0.3869	5.8064
1.7211	1.6898	1.8748	1.7012	1.98	2.0198	1.8236	1.5988	2.0853	1.6642	1.155	1.7041	1.246	0.3727	1.7098	2.8619	-0.7311	0.7766	0.6316	1.1465	0.5804	-0.441	5.8291
1.687	1.6642	1.8378	1.6586	1.98	1.9516	1.7752	1.5504	2.0255	1.5874	1.1237	1.65	1.1892	0.3897	1.7268	2.8648	-0.7738	0.7681	0.6173	1.1408	0.5775	-0.4922	5.812
1.6557	1.6216	1.8065	1.6102	1.9345	1.9174	1.7154	1.5419	1.9715	1.5476	1.0725	1.5988	1.1778	0.4153	1.7837	2.8733	-0.8279	0.7681	0.623	1.1522	0.532	-0.5434	5.8007
1.6102	1.5419	1.7098	1.5476	1.8805	1.8378	1.6529	1.5049	1.9089	1.4708	1.0355	1.5192	1.1067	0.4523	1.7638	2.9103	-0.8904	0.771	0.606	1.1379	0.5149	-0.6202	5.7893
1.5789	1.5078	1.6614	1.5192	1.8492	1.7809	1.6073	1.4822	1.8463	1.4082	0.9786	1.4452	1.0583	0.4808	1.7866	2.8932	-0.9616	0.7567	0.5775	1.118	0.4779	-0.6799	5.7978
1.5305	1.4281	1.5988	1.4708	1.7923	1.6927	1.5618	1.4452	1.7581	1.3456	0.9331	1.3712	0.9929	0.5149	1.798	2.9046	-1.0498	0.7738	0.569	1.1237	0.4495	-0.771	5.7836
1.4936	1.3456	1.5163	1.3968	1.7012	1.6244	1.4907	1.3826	1.6642	1.2603	0.8791	1.2887	0.9132	0.569	1.7951	2.9245	-1.1436	0.7368	0.5377	1.101	0.3641	-0.8364	5.7836
1.4537	1.2859	1.4594	1.357	1.6358	1.5419	1.4452	1.3115	1.5761	1.2005	0.8136	1.2119	0.8677	0.6145	1.7894	2.9074	-1.2404	0.7482	0.495	1.081	0.2959	-0.916	5.7836
1.3997	1.1721	1.3399	1.266	1.5248	1.4196	1.3598	1.2375	1.4651	1.1209	0.734	1.1067	0.7994	0.6657	1.7467	2.9245	-1.3371	0.7425	0.458	1.0697	0.2418	-0.9815	5.7864
1.3342	1.0554	1.2261	1.1778	1.4253	1.3172	1.2773	1.1152	1.357	1.0384	0.6486	0.9929	0.7311	0.7112	1.7297	2.8904	-1.4196	0.7254	0.4125	1.0384	0.1678	-1.0441	5.7921
1.2204	0.9303	1.118	1.0867	1.3001	1.1948	1.1835	1.0128	1.2176	0.953	0.5547	0.8848	0.6629	0.7567	1.6728	2.8562	-1.4907	0.7112	0.33	1.0128	0.0797	-1.1237	5.8263
1.1294	0.8165	0.9843	0.9445	1.1778	1.0611	1.0867	0.9189	1.081	0.8677	0.4666	0.7795	0.6003	0.7852	1.6329	2.8136	-1.5846	0.7226	0.3129	0.9929	0.0455	-1.1948	5.849
1.0014	0.6685	0.8307	0.8307	1.0498	0.916	1.0042	0.7738	0.9473	0.7909	0.3926	0.6629	0.5291	0.8335	1.5476	2.7225	-1.6642	0.7311	0.2162	0.99	-0.0341	-1.2546	5.8775
0.862	0.5149	0.6828	0.7141	0.8904	0.751	0.862	0.6629	0.7937	0.6885	0.3072	0.5604	0.4836	0.8591	1.4679	2.6372	-1.7154	0.7368	0.1536	0.9815	-0.1053	-1.32	5.9202
0.7112	0.3727	0.495	0.5547	0.7397	0.5974	0.734	0.5519	0.6572	0.586	0.1963	0.441	0.421	0.8904	1.3826	2.5291	-1.7723	0.734	0.0882	0.9559	-0.1707	-1.3798	5.9714
0.532	0.1906	0.3158	0.4125	0.5804	0.4353	0.623	0.4182	0.5121	0.495	0.1309	0.3272	0.3613	0.8904	1.2773	2.3954	-1.8008	0.7311	0.0057	0.9274	-0.2162	-1.4139	6.0254
0.3698	0.0398	0.1593	0.2788	0.404	0.2788	0.5064	0.2703	0.3727	0.4153	0.0228	0.1991	0.2816	0.9075	1.1948	2.273	-1.815	0.7454	-0.037	0.9274	-0.2845	-1.4367	6.0823
0.1963	-0.1451	-0.0313	0.128	0.2276	0.0967	0.3841	0.1252	0.1821	0.3215	-0.0996	0.074	0.2048	0.8904	1.0611	2.1194	-1.778	0.7254	-0.1366	0.8819	-0.3812	-1.4537	6.1335
0.0256	-0.2873	-0.2077	-0.0085	0.0398	-0.0597	0.2418	-0.0028	0.0171	0.2134	-0.1849	-0.0569	0.1366	0.862	0.99	1.9743	-1.7325	0.7368	-0.1991	0.8591	-0.4353	-1.4879	6.1876
-0.1451	-0.4609	-0.367	-0.1366	-0.1309	-0.2276	0.1138	-0.1536	-0.1394	0.128	-0.2788	-0.1735	0.0711	0.8364	0.8904	1.8093	-1.6671	0.697	-0.293	0.8364	-0.4808	-1.4651	6.2359
-0.293	-0.6344	-0.5263	-0.276	-0.3243	-0.4011	-0.0114	-0.33	-0.3101	0.037	-0.3841	-0.3129	-0.0171	0.7795	0.7681	1.6415	-1.5647	0.66	-0.367	0.7852	-0.5633	-1.4338	6.2871
-0.4552	-0.7738	-0.7254	-0.4239	-0.4922	-0.569	-0.1252	-0.4808	-0.4893	-0.0882	-0.4979	-0.458	-0.0768	0.7226	0.6429	1.4509	-1.4423	0.623	-0.4466	0.7454	-0.6088	-1.3854	6.3184
-0.6088	-0.8904	-0.8478	-0.5121	-0.6429	-0.7084	-0.2191	-0.6003	-0.6116	-0.1678	-0.5747	-0.5519	-0.1081	0.6771	0.5462	1.3086	-1.357	0.623	-0.4808	0.7112	-0.6259	-1.3058	6.3639
-0.7169	-1.0042	-0.9872	-0.606	-0.771	-0.8421	-0.3101	-0.7226	-0.7539	-0.2475	-0.6742	-0.6657	-0.1593	0.6145	0.4125	1.1351	-1.2261	0.5946	-0.5434	0.6856	-0.66	-1.1948	6.4095
-0.7937	-1.1123	-1.101	-0.6685	-0.9331	-0.9758	-0.3841	-0.8279	-0.8677	-0.3186	-0.7254	-0.7283	-0.2162	0.5462	0.2788	0.9985	-1.101	0.5889	-0.5917	0.6572	-0.6742	-1.0782	6.4265
-0.9246	-1.2005	-1.2233	-0.734	-1.0469	-1.0896	-0.4381	-0.9502	-0.9985	-0.3784	-0.8051	-0.8279	-0.2418	0.495	0.1479	0.8392	-0.9929	0.5946	-0.6202	0.6259	-0.6771	-0.9473	6.4891
-1.0213	-1.2574	-1.3257	-0.7994	-1.1522	-1.2176	-0.5092	-1.0384	-1.1123	-0.4267	-0.862	-0.9047	-0.2617	0.441	0.0057	0.6998	-0.8819	0.6031	-0.6458	0.6372	-0.6714	-0.7994	6.509
-1.1465	-1.3086	-1.3911	-0.8535	-1.2489	-1.2916	-0.5633	-1.1152	-1.2005	-0.4466	-0.9246	-0.9729	-0.276	0.3755	-0.1792	0.5747	-0.7624	0.6173	-0.6913	0.6344	-0.6799	-0.6629	6.5517
-1.246	-1.3513	-1.485	-0.8705	-1.3285	-1.3997	-0.5832	-1.229	-1.2859	-0.4893	-0.9473	-0.99	-0.3328	0.3044	-0.3357	0.4381	-0.6316	0.6088	-0.7112	0.6372	-0.6543	-0.5291	6.5631
-1.3741	-1.394	-1.5988	-0.9445	-1.4338	-1.5248	-0.6657	-1.3115	-1.3883	-0.5263	-1.0014	-1.0554	-0.3215	0.256	-0.5434	0.2902	-0.5149	0.6259	-0.7425	0.5974	-0.6372	-0.3926	6.6001
-1.4879	-1.4566	-1.6927	-0.9957	-1.5163	-1.6045	-0.6998	-1.3854	-1.4566	-0.5547	-1.0469	-1.1209	-0.3414	0.1906	-0.7197	0.1764	-0.3755	0.623	-0.7681	0.586	-0.6429	-0.276	6.6143
-1.5789	-1.4708	-1.7638	-1.0327	-1.559	-1.6699	-0.7454	-1.4139	-1.5078	-0.5462	-1.0441	-1.0896	-0.3385	0.1422	-0.9246	0.0541	-0.2959	0.6657	-0.7596	0.606	-0.5832	-0.1451	6.6285
-1.687	-1.5078	-1.852	-1.0839	-1.6045	-1.7553	-0.788	-1.4623	-1.5789	-0.5747	-1.0896	-1.1408	-0.3243	0.0797	-1.1152	-0.0597	-0.1735	0.6771	-0.7994	0.5946	-0.5718	-0.0626	6.6456
-1.7695	-1.5106	-1.8833	-1.1152	-1.6529	-1.798	-0.8165	-1.522	-1.5988	-0.5661	-1.0782	-1.1351	-0.3072	0.037	-1.3371	-0.1366	-0.1081	0.697	-0.7681	0.5775	-0.532	0.0427	6.657
-1.8548	-1.5192	-1.9288	-1.1209	-1.6728	-1.8435	-0.8165	-1.5362	-1.6159	-0.5604	-1.0441	-1.118	-0.293	0.0142	-1.5135	-0.2048	-0.0512	0.734	-0.7454	0.623	-0.4722	0.0996	6.6427
-1.9146	-1.5334	-1.9715	-1.1778	-1.6699	-1.8947	-0.8392	-1.5504	-1.6159	-0.5604	-1.0441	-1.1209	-0.276	-0.0085	-1.6586	-0.2532	-0.0028	0.7738	-0.7254	0.6145	-0.4523	0.1508	6.6484
-1.9914	-1.5647	-2.0312	-1.2261	-1.7154	-1.9544	-0.8648	-1.5761	-1.6586	-0.5604	-1.0355	-1.0981	-0.2503	-0.037	-1.8179	-0.3016	0.0484	0.7852	-0.7169	0.5974	-0.421	0.1849	6.6228
-2.0255	-1.5448	-2.0483	-1.2375	-1.7012	-1.9601	-0.8734	-1.5618	-1.6443	-0.5235	-0.9957	-1.0441	-0.2134	-0.0398	-1.9174	-0.3243	0.0683	0.8108	-0.7112	0.6031	-0.3698	0.1935	6.6058
-2.0625	-1.5704	-2.054	-1.2717	-1.7325	-1.9743	-0.8734	-1.5789	-1.6216	-0.532	-0.9758	-1.0241	-0.1878	-0.0597	-1.9999	-0.3784	0.0939	0.8421	-0.7112	0.5832	-0.3499	0.2048	6.5972
-2.0568	-1.5675	-2.0597	-1.2916	-1.7411	-1.98	-0.8904	-1.5704	-1.6187	-0.5035	-0.953	-0.9929	-0.1337	-0.0683	-2.0483	-0.3784	0.1081	0.862	-0.6941	0.5718	-0.33	0.1963	6.5688
-2.0938	-1.5874	-2.0654	-1.3229	-1.7553	-1.9942	-0.8848	-1.5817	-1.6073	-0.4893	-0.9104	-0.9673	-0.0853	-0.0654	-2.0739	-0.4153	0.1252	0.8705	-0.7197	0.5576	-0.3442	0.1963	6.5261
-2.0853	-1.6187	-2.091	-1.3598	-1.7894	-2.0028	-0.9217	-1.6045	-1.6187	-0.495	-0.8961	-0.9587	-0.0939	-0.0768	-2.0625	-0.3983	0.1451	0.8677	-0.7368	0.5206	-0.33	0.1764	6.4948
-2.1109	-1.6671	-2.1109	-1.4167	-1.8036	-2.0341	-0.916	-1.6301	-1.6244	-0.495	-0.8734	-0.9217	-0.0569	-0.0853	-2.0568	-0.4267	0.1622	0.8591	-0.7596	0.4836	-0.3357	0.1792	6.4436
-2.1308	-1.6898	-2.1308	-1.4338	-1.8691	-2.0511	-0.9616	-1.6443	-1.6301	-0.5235	-0.8677	-0.9331	-0.0797	-0.1109	-1.9857	-0.4381	0.1963	0.8506	-0.8136	0.4068	-0.3385	0.1593	6.3896
-2.145	-1.7411	-2.1507	-1.4793	-1.9146	-2.0767	-1.0099	-1.6813	-1.6642	-0.5547	-0.8762	-0.9303	-0.0939	-0.1309	-1.9032	-0.4011	0.2418	0.8136	-0.8421	0.367	-0.3556	0.1109	6.3639
-2.1905	-1.8349	-2.2161	-1.5675	-1.9715	-2.1336	-1.0668	-1.7183	-1.6898	-0.6003	-0.8819	-0.9729	-0.1166	-0.165	-1.8321	-0.4353	0.293	0.7681	-0.9132	0.2902	-0.3869	0.0768	6.3383
-2.2446	-1.9288	-2.2617	-1.6216	-2.0455	-2.1735	-1.1465	-1.7837	-1.7411	-0.6629	-0.9075	-1.027	-0.165	-0.1849	-1.7297	-0.4097	0.3556	0.7169	-0.9729	0.2191	-0.404	0.0228	6.2985
-2.3214	-2.0142	-2.3157	-1.7183	-2.1336	-2.2474	-1.2347	-1.8748	-1.8236	-0.7311	-0.9616	-1.081	-0.2304	-0.2105	-1.6415	-0.4296	0.4239	0.6572	-1.0583	0.1451	-0.4666	-0.0114	6.2871
-2.3413	-2.1166	-2.3868	-1.8036	-2.2332	-2.31	-1.3029	-1.9373	-1.9004	-0.8335	-0.9957	-1.1323	-0.2845	-0.2617	-1.5504	-0.3869	0.495	0.5889	-1.1408	0.0427	-0.5092	-0.0683	6.2587
-2.4039	-2.2275	-2.4437	-1.8918	-2.3186	-2.384	-1.4082	-2.0142	-1.9829	-0.9217	-1.0725	-1.2062	-0.3954	-0.2902	-1.4224	-0.3926	0.5576	0.5035	-1.2546	-0.037	-0.586	-0.1252	6.2672
-2.438	-2.3328	-2.5063	-1.9516	-2.4295	-2.458	-1.5078	-2.1024	-2.0796	-1.0185	-1.1351	-1.3143	-0.4865	-0.3215	-1.3172	-0.3556	0.6287	0.4324	-1.3314	-0.1309	-0.6486	-0.202	6.2701
-2.4836	-2.4295	-2.549	-2.0426	-2.5405	-2.5348	-1.6273	-2.1991	-2.1621	-1.1152	-1.2119	-1.4054	-0.5775	-0.3414	-1.1721	-0.33	0.6657	0.3471	-1.4167	-0.2276	-0.7197	-0.2532	6.2672
-2.5518	-2.5518	-2.6514	-2.145	-2.6514	-2.6571	-1.7325	-2.3157	-2.2873	-1.2546	-1.3285	-1.5334	-0.6998	-0.3613	-1.0782	-0.3243	0.7027	0.2361	-1.5448	-0.33	-0.8222	-0.2902	6.2786
-2.5831	-2.6685	-2.6969	-2.219	-2.7538	-2.7197	-1.8349	-2.4181	-2.421	-1.3627	-1.4253	-1.6443	-0.7937	-0.3755	-0.9587	-0.3101	0.7226	0.1508	-1.6358	-0.4068	-0.9018	-0.3243	6.2615
-2.6258	-2.7965	-2.788	-2.3242	-2.8818	-2.8221	-1.9686	-2.5689	-2.5632	-1.4907	-1.522	-1.7951	-0.9274	-0.3897	-0.899	-0.2987	0.7425	0.0654	-1.7467	-0.5149	-0.9957	-0.3129	6.2502
-2.6628	-2.9359	-2.8676	-2.4324	-2.9985	-2.933	-2.1024	-2.6799	-2.6969	-1.65	-1.6813	-1.9601	-1.0782	-0.404	-0.8364	-0.3243	0.7795	-0.0427	-1.8435	-0.6344	-1.0953	-0.3016	6.253
-2.7026	-3.0355	-2.9587	-2.5348	-3.1379	-3.0156	-2.219	-2.8107	-2.8278	-1.7837	-1.8236	-2.1052	-1.2176	-0.3954	-0.7681	-0.3158	0.7766	-0.1451	-1.963	-0.7254	-1.2148	-0.2674	6.2331
-2.751	-3.1692	-3.0269	-2.64	-3.2574	-3.1237	-2.347	-2.9558	-3.0099	-1.926	-1.9516	-2.273	-1.3798	-0.4097	-0.7311	-0.3385	0.8079	-0.2418	-2.0767	-0.8335	-1.3285	-0.2134	6.2473
-2.7965	-3.2716	-3.1009	-2.7396	-3.3626	-3.2232	-2.4864	-3.0895	-3.1379	-2.0568	-2.0938	-2.4153	-1.5021	-0.421	-0.6998	-0.3442	0.8165	-0.3471	-2.1479	-0.936	-1.4452	-0.1565	6.2416
-2.8705	-3.3939	-3.2033	-2.8534	-3.4793	-3.3484	-2.6144	-3.2204	-3.3086	-2.2076	-2.2759	-2.6059	-1.6699	-0.4324	-0.7368	-0.3698	0.8449	-0.4495	-2.2503	-1.0298	-1.596	-0.0711	6.253
-2.916	-3.5134	-3.283	-2.9643	-3.6272	-3.4565	-2.7225	-3.3768	-3.4394	-2.3527	-2.4409	-2.7766	-1.8292	-0.441	-0.7368	-0.4011	0.8591	-0.5149	-2.3499	-1.1123	-1.7154	0.0028	6.2502
-2.9956	-3.6244	-3.374	-3.0525	-3.7154	-3.5447	-2.8249	-3.5106	-3.5703	-2.4693	-2.586	-2.9188	-1.9743	-0.4523	-0.7937	-0.4552	0.8734	-0.6031	-2.4608	-1.1892	-1.8207	0.1081	6.2502
-3.0525	-3.7524	-3.4593	-3.1265	-3.8462	-3.65	-2.9359	-3.6187	-3.7125	-2.5803	-2.7254	-3.0724	-2.0853	-0.4637	-0.9018	-0.5092	0.9018	-0.6543	-2.5348	-1.2574	-1.9089	0.2048	6.2445
-3.1549	-3.8491	-3.5504	-3.2118	-3.943	-3.7239	-3.0326	-3.741	-3.8178	-2.7168	-2.879	-3.2175	-2.2446	-0.4836	-1.0384	-0.5547	0.953	-0.7226	-2.5945	-1.3285	-2.0369	0.3129	6.2558
-3.2261	-3.9515	-3.6272	-3.2915	-4.0425	-3.8178	-3.0952	-3.8434	-3.9544	-2.7908	-2.9928	-3.3427	-2.3442	-0.5092	-1.1635	-0.6145	0.99	-0.7909	-2.6628	-1.3968	-2.1336	0.3983	6.216
-3.2943	-4.0169	-3.6585	-3.3399	-4.0966	-3.8576	-3.1293	-3.906	-4.0226	-2.8278	-3.081	-3.4281	-2.4238	-0.5263	-1.3029	-0.6572	1.027	-0.7994	-2.6969	-1.4111	-2.2105	0.495	6.2132
-3.3427	-4.0681	-3.7182	-3.3427	-4.1563	-3.8775	-3.1578	-3.9913	-4.0881	-2.8477	-3.1806	-3.5106	-2.4893	-0.5491	-1.4651	-0.6828	1.0725	-0.8108	-2.7481	-1.4167	-2.2531	0.5832	6.1847
-3.3768	-4.108	-3.7296	-3.3683	-4.2047	-3.906	-3.1663	-4.0198	-4.1222	-2.8818	-3.2574	-3.5817	-2.5319	-0.569	-1.6187	-0.7254	1.1123	-0.8079	-2.7766	-1.4054	-2.2759	0.6998	6.1534
-3.3825	-4.1222	-3.7268	-3.374	-4.2161	-3.8804	-3.1464	-4.0312	-4.1307	-2.8733	-3.2943	-3.6073	-2.549	-0.5832	-1.7581	-0.7482	1.1351	-0.7994	-2.7851	-1.3997	-2.3157	0.8279	6.1278
-3.3768	-4.125	-3.704	-3.3399	-4.2104	-3.8548	-3.0981	-4.0312	-4.0994	-2.8392	-3.2972	-3.5987	-2.5376	-0.5974	-1.8805	-0.7909	1.1635	-0.7681	-2.7908	-1.3598	-2.3271	0.9416	6.1307
-3.3342	-4.0852	-3.667	-3.2773	-4.1763	-3.7808	-3.0099	-3.9856	-4.0539	-2.7737	-3.2716	-3.5589	-2.5149	-0.6031	-1.9886	-0.8136	1.1749	-0.697	-2.7624	-1.3086	-2.2986	1.081	6.0852
-3.3029	-4.0482	-3.6357	-3.209	-4.1194	-3.7438	-2.9473	-3.9344	-3.9999	-2.7055	-3.2517	-3.5504	-2.475	-0.6259	-2.0625	-0.8421	1.2034	-0.6372	-2.7652	-1.2546	-2.2474	1.2347	6.0652
-3.2431	-3.98	-3.5618	-3.1208	-4.0568	-3.6642	-2.8449	-3.8861	-3.9145	-2.6343	-3.2147	-3.502	-2.421	-0.6287	-2.1564	-0.8392	1.2204	-0.5832	-2.7225	-1.192	-2.2133	1.3826	6.0425
-3.1578	-3.8804	-3.465	-2.9985	-3.9657	-3.5362	-2.7339	-3.815	-3.8178	-2.4836	-3.1436	-3.4053	-2.3328	-0.6145	-2.1962	-0.8563	1.2062	-0.4808	-2.677	-1.0981	-2.1308	1.5561	6.0283
-3.0611	-3.8007	-3.3683	-2.9302	-3.8605	-3.4224	-2.6286	-3.7069	-3.7012	-2.3783	-3.0497	-3.3228	-2.2759	-0.6202	-2.2361	-0.8591	1.2233	-0.4153	-2.6286	-1.0441	-2.0455	1.7297	5.9913
-2.9928	-3.6869	-3.2431	-2.8022	-3.7325	-3.283	-2.4836	-3.5931	-3.5589	-2.2503	-2.9387	-3.2033	-2.1507	-0.6202	-2.2986	-0.8791	1.2204	-0.3243	-2.5575	-0.9559	-1.9658	1.9004	5.9685
-2.8875	-3.5703	-3.1464	-2.6656	-3.5931	-3.1549	-2.3555	-3.4821	-3.4252	-2.1137	-2.8335	-3.0895	-2.0455	-0.6202	-2.3356	-0.8819	1.2091	-0.2333	-2.4807	-0.8677	-1.8634	2.054	5.9458
-2.8022	-3.448	-3.0212	-2.5661	-3.4309	-3.0042	-2.2275	-3.3228	-3.2517	-1.9686	-2.6941	-2.9473	-1.9487	-0.6173	-2.3954	-0.899	1.2005	-0.1565	-2.3982	-0.8023	-1.7695	2.2105	5.9372
-2.6599	-3.2744	-2.8562	-2.3954	-3.2403	-2.8193	-2.0796	-3.1208	-3.0412	-1.7809	-2.512	-2.768	-1.798	-0.5974	-2.4124	-0.8591	1.1721	-0.0455	-2.31	-0.6657	-1.6273	2.347	5.9344
-2.5319	-3.0952	-2.7083	-2.2474	-3.0611	-2.6429	-1.9004	-2.9444	-2.8278	-1.6102	-2.3641	-2.6059	-1.6671	-0.5917	-2.458	-0.8279	1.1579	0.0541	-2.219	-0.5633	-1.5277	2.4807	5.9401
-2.3897	-2.8961	-2.5234	-2.0881	-2.8562	-2.438	-1.7069	-2.7368	-2.6059	-1.4111	-2.1877	-2.4124	-1.5106	-0.5775	-2.4807	-0.7624	1.1237	0.1622	-2.0967	-0.4438	-1.4025	2.6144	5.9458
-2.2332	-2.6799	-2.3129	-1.8918	-2.603	-2.1905	-1.5163	-2.5234	-2.3527	-1.1778	-1.9886	-2.2076	-1.3285	-0.5604	-2.4978	-0.6885	1.0782	0.3129	-1.9829	-0.2959	-1.2745	2.7595	5.9514
-2.0455	-2.4409	-2.0711	-1.6898	-2.3555	-1.9317	-1.2973	-2.2873	-2.0853	-0.9445	-1.7723	-1.9772	-1.155	-0.5263	-2.4779	-0.606	1.0128	0.4552	-1.8264	-0.1394	-1.1323	2.9018	5.977
-1.8548	-2.1792	-1.8548	-1.4907	-2.0995	-1.7012	-1.0782	-2.0511	-1.8179	-0.7226	-1.5704	-1.7667	-0.9616	-0.5007	-2.4324	-0.5007	0.9616	0.5804	-1.6898	0.0114	-0.9985	3.0611	5.9941
-1.6329	-1.8918	-1.5931	-1.2546	-1.8207	-1.4281	-0.8364	-1.7752	-1.5277	-0.4893	-1.3485	-1.5277	-0.7909	-0.4495	-2.3299	-0.3528	0.8705	0.7226	-1.559	0.1821	-0.862	3.2175	6.0311
-1.3769	-1.5903	-1.2944	-1.0099	-1.5248	-1.1408	-0.5661	-1.4907	-1.2233	-0.2219	-1.1152	-1.2717	-0.5747	-0.4068	-2.2304	-0.1735	0.771	0.8421	-1.4025	0.3556	-0.7055	3.4081	6.0681
-1.1522	-1.32	-1.027	-0.751	-1.2261	-0.8392	-0.3129	-1.2404	-0.9445	0.037	-0.8961	-1.0213	-0.3755	-0.3585	-2.0881	-0.0427	0.6742	0.9815	-1.2517	0.5263	-0.5804	3.6158	6.1164
-0.8848	-0.9985	-0.7311	-0.5035	-0.9274	-0.5377	-0.0455	-0.9758	-0.6401	0.2845	-0.6885	-0.7937	-0.1764	-0.2873	-1.8947	0.165	0.5547	1.1067	-1.101	0.7141	-0.4267	3.8121	6.1705
-0.6031	-0.6885	-0.4011	-0.2418	-0.6116	-0.2361	0.2219	-0.6913	-0.3272	0.5149	-0.4267	-0.5434	0.0484	-0.2276	-1.6642	0.3755	0.4125	1.2603	-0.9246	0.916	-0.2703	4.0425	6.2388
-0.3357	-0.3926	-0.0853	0.0228	-0.3101	0.0683	0.5035	-0.4381	-0.0484	0.7653	-0.2247	-0.3158	0.2304	-0.1451	-1.3968	0.6202	0.276	1.3655	-0.7852	1.0981	-0.1451	4.2616	6.2985
-0.037	-0.0797	0.2219	0.2703	-0.0085	0.3698	0.7425	-0.1821	0.2617	1.0099	0.0057	-0.0597	0.4267	-0.0825	-1.1465	0.8478	0.128	1.4651	-0.6344	1.2603	-0.0484	4.4949	6.3668
0.2333	0.2191	0.5235	0.5007	0.2646	0.6316	0.9872	0.0683	0.5235	1.2318	0.1622	0.1337	0.5747	0	-0.8591	1.0981	-0.0313	1.5789	-0.5206	1.4139	0.0541	4.7225	6.4436
0.4779	0.4836	0.8222	0.7425	0.5291	0.916	1.2062	0.276	0.7766	1.4196	0.33	0.3016	0.7055	0.074	-0.586	1.3029	-0.1735	1.6415	-0.3926	1.5533	0.1479	4.9472	6.5147
0.7311	0.7226	1.1067	0.9815	0.7823	1.1664	1.4509	0.4836	1.0099	1.6102	0.5121	0.4808	0.8705	0.1707	-0.2845	1.5561	-0.3471	1.7467	-0.2731	1.7183	0.2418	5.1776	6.6001
0.953	0.9616	1.3485	1.2091	1.0099	1.3883	1.6415	0.6685	1.2176	1.761	0.6486	0.6372	0.9985	0.2418	-0.0455	1.7667	-0.4893	1.798	-0.1849	1.8662	0.2788	5.4109	6.674
1.1323	1.1664	1.5704	1.3741	1.2233	1.5789	1.8179	0.8421	1.3854	1.889	0.7539	0.7567	1.0867	0.33	0.2191	1.9402	-0.6429	1.8349	-0.1109	1.963	0.3215	5.6385	6.7537
1.3029	1.3712	1.778	1.5248	1.4253	1.7638	1.9573	0.9957	1.5448	2.0113	0.8648	0.8705	1.155	0.3812	0.4097	2.1024	-0.7738	1.8662	-0.0199	2.0853	0.3585	5.8889	6.8334
1.4594	1.5504	1.98	1.6642	1.5789	1.9004	2.091	1.118	1.6614	2.1024	0.9388	0.9473	1.2062	0.4609	0.6031	2.293	-0.9132	1.8947	0.0341	2.1792	0.3926	6.1108	6.9045
1.5988	1.7183	2.1251	1.815	1.7439	2.0711	2.2247	1.2375	1.7894	2.2048	1.0042	1.027	1.2745	0.5263	0.7596	2.4437	-1.0554	1.9146	0.1024	2.2759	0.4097	6.3355	6.9727
1.7183	1.8719	2.2787	1.9317	1.8492	2.1621	2.3271	1.3257	1.8719	2.2674	1.0668	1.0867	1.3058	0.569	0.9075	2.5632	-1.1579	1.9117	0.1337	2.3299	0.3869	6.5489	7.0126
1.8548	2.0085	2.4181	2.0312	1.9686	2.2787	2.4039	1.3997	1.9544	2.347	1.1095	1.1323	1.3229	0.6372	1.0213	2.7083	-1.2773	1.9317	0.1963	2.4437	0.3841	6.7622	7.0581
1.9573	2.1536	2.5405	2.1393	2.0654	2.3698	2.475	1.4765	2.0028	2.3954	1.1294	1.1522	1.3456	0.6941	1.1692	2.8079	-1.3854	1.9487	0.2276	2.5149	0.3869	6.9727	7.0837
2.1166	2.2702	2.6827	2.2474	2.1735	2.4352	2.586	1.5448	2.0739	2.4409	1.1778	1.2148	1.3598	0.7539	1.2887	2.933	-1.485	1.9573	0.2703	2.6002	0.3954	7.1378	7.078
2.2161	2.3783	2.7993	2.3214	2.2873	2.5177	2.6742	1.613	2.1194	2.4693	1.2148	1.2347	1.4111	0.7823	1.4367	3.0412	-1.5704	1.9715	0.3158	2.6486	0.3926	7.3141	7.0922
2.347	2.5092	2.9103	2.4238	2.3584	2.6087	2.7254	1.6984	2.1849	2.5177	1.2432	1.2517	1.394	0.8364	1.559	3.1578	-1.6557	1.98	0.3556	2.7368	0.3812	7.4507	7.0553
2.4636	2.6343	3.007	2.5149	2.4437	2.6713	2.8136	1.7411	2.2247	2.5746	1.2688	1.2944	1.4082	0.8762	1.6984	3.2403	-1.7354	2.0142	0.4125	2.805	0.3784	7.5844	7.0126
2.5917	2.6941	3.0924	2.5632	2.5035	2.7197	2.8505	1.7894	2.2389	2.5917	1.2802	1.3058	1.4082	0.9047	1.8292	3.3313	-1.7951	2.0227	0.458	2.8733	0.3585	7.684	6.9727
2.7083	2.8164	3.2005	2.64	2.5661	2.7766	2.9018	1.8463	2.2702	2.6372	1.3115	1.3314	1.4395	0.9331	1.9345	3.4167	-1.8548	2.0511	0.4893	2.9444	0.3528	7.7722	6.9159
2.805	2.8818	3.2602	2.6713	2.623	2.8107	2.9188	1.8691	2.2816	2.6486	1.2916	1.3058	1.4679	0.9502	2.0056	3.4537	-1.8861	2.0682	0.5235	2.9928	0.3044	7.8575	6.8618
2.9217	2.9729	3.3228	2.7254	2.6486	2.842	2.9729	1.8805	2.3043	2.6827	1.283	1.2944	1.4452	0.9616	2.1109	3.5191	-1.9174	2.0739	0.5718	3.0241	0.3129	7.9372	6.7765
2.9643	3.044	3.3427	2.7652	2.6969	2.8591	2.9643	1.9032	2.3015	2.6884	1.2603	1.2802	1.4537	0.9616	2.1792	3.5561	-1.9345	2.1166	0.6003	3.0639	0.2845	8.0054	6.7167
3.0269	3.0753	3.3825	2.7851	2.6941	2.8932	2.9928	1.889	2.2844	2.6855	1.229	1.2404	1.4594	0.9616	2.2304	3.5788	-1.9288	2.1109	0.623	3.1037	0.2617	8.0709	6.6655
3.0497	3.1293	3.4081	2.7908	2.7282	2.8961	3.0156	1.889	2.2787	2.7112	1.1977	1.2119	1.448	0.9616	2.3129	3.5731	-1.926	2.1536	0.6458	3.135	0.2247	8.1363	6.5802
3.0525	3.1293	3.3768	2.7851	2.7055	2.8705	2.9928	1.8435	2.219	2.7026	1.1323	1.155	1.431	0.953	2.3555	3.5646	-1.8918	2.1536	0.6259	3.1493	0.1565	8.1989	6.5574
3.0298	3.118	3.3598	2.768	2.6884	2.8306	2.9928	1.8179	2.1792	2.6941	1.0725	1.1067	1.4111	0.9189	2.4068	3.5418	-1.8435	2.1706	0.6287	3.1635	0.091	8.2586	6.5119
2.9786	3.0867	3.3114	2.7339	2.6543	2.7766	2.9416	1.7752	2.1024	2.6343	0.9985	1.0469	1.3826	0.8762	2.4039	3.502	-1.778	2.1365	0.5718	3.1407	0.0028	8.3269	6.4806
2.9274	3.0611	3.2574	2.714	2.6116	2.7396	2.9245	1.7098	2.0483	2.6429	0.9473	0.9872	1.3655	0.8591	2.421	3.4679	-1.7297	2.1536	0.5348	3.1322	-0.0882	8.3923	6.4607
2.9018	3.0042	3.2175	2.6941	2.5604	2.6884	2.916	1.6472	1.9829	2.64	0.8421	0.9331	1.3598	0.8535	2.4324	3.4195	-1.6927	2.1735	0.495	3.1549	-0.1394	8.4492	6.4379
2.8221	2.953	3.1493	2.6514	2.4779	2.6429	2.8818	1.5704	1.9231	2.6002	0.7539	0.8563	1.3172	0.825	2.4039	3.3797	-1.6529	2.1905	0.4324	3.1407	-0.2503	8.5118	6.4322
2.751	2.8847	3.0781	2.5888	2.4039	2.549	2.8221	1.4936	1.8577	2.5575	0.6629	0.788	1.3029	0.8222	2.347	3.3143	-1.6216	2.1849	0.3897	3.118	-0.3357	8.5943	6.4351
2.6969	2.7993	2.9871	2.5291	2.31	2.4893	2.7794	1.4338	1.798	2.5291	0.5889	0.7226	1.2603	0.7994	2.2759	3.2403	-1.6017	2.1934	0.3243	3.0753	-0.3954	8.6654	6.4521
2.6429	2.7083	2.9188	2.4523	2.2076	2.4068	2.7282	1.3428	1.7098	2.4836	0.5206	0.6372	1.2603	0.8023	2.1422	3.1606	-1.6102	2.219	0.2703	3.0668	-0.4779	8.728	6.4635
2.5604	2.6201	2.8278	2.4039	2.1308	2.347	2.6685	1.266	1.6386	2.4693	0.4694	0.6003	1.2261	0.7937	2.0142	3.0924	-1.6045	2.2275	0.2418	3.0412	-0.5235	8.7963	6.5119
2.4807	2.5405	2.7254	2.3271	2.0312	2.2674	2.5974	1.192	1.5704	2.4181	0.4068	0.5462	1.1977	0.8051	1.8463	3.0127	-1.6159	2.219	0.1764	2.9956	-0.5547	8.856	6.5546
2.4068	2.4238	2.6201	2.2161	1.9174	2.1849	2.5262	1.1436	1.4879	2.3527	0.3698	0.4893	1.1835	0.8079	1.6699	2.9245	-1.6301	2.2304	0.1422	2.9558	-0.6003	8.9129	6.6171
2.3242	2.3072	2.5405	2.1109	1.8236	2.1194	2.4608	1.081	1.4253	2.31	0.3272	0.4523	1.1635	0.8279	1.485	2.8363	-1.6614	2.2617	0.1394	2.9387	-0.6259	8.967	6.6513
2.2446	2.2332	2.4181	2.0284	1.7268	2.0312	2.3954	1.0156	1.3712	2.273	0.3186	0.4353	1.1664	0.862	1.3001	2.7652	-1.6955	2.3072	0.1252	2.9587	-0.5974	8.9698	6.7025
2.108	2.1109	2.3242	1.9089	1.6073	1.9146	2.2901	0.9445	1.2859	2.2076	0.2788	0.3784	1.1436	0.8506	1.0953	2.6429	-1.7069	2.3072	0.1195	2.8847	-0.5832	8.9812	6.7679
2.0113	2.0056	2.1678	1.7951	1.5192	1.8406	2.2076	0.8961	1.229	2.1877	0.256	0.3556	1.1579	0.8791	0.936	2.5376	-1.7411	2.3783	0.1252	2.8932	-0.5491	8.9613	6.8447
1.8577	1.8577	2.0511	1.6699	1.4054	1.7183	2.128	0.8421	1.1266	2.1393	0.2447	0.3328	1.155	0.899	0.751	2.4267	-1.7894	2.4068	0.1166	2.8875	-0.5235	8.9385	6.9045
1.7098	1.7126	1.8975	1.5618	1.2773	1.5903	2.0227	0.7766	1.0384	2.0853	0.2219	0.2816	1.1522	0.9075	0.606	2.2873	-1.8065	2.4466	0.1195	2.9046	-0.5064	8.8873	6.9727
1.5931	1.596	1.7553	1.4708	1.1863	1.4936	1.9573	0.697	0.9644	2.0767	0.2247	0.2731	1.1721	0.9246	0.4865	2.182	-1.8492	2.5092	0.128	2.9131	-0.4722	8.8418	7.0439
1.4281	1.4423	1.6017	1.3428	1.0355	1.3684	1.8861	0.6031	0.8734	2.0255	0.1991	0.2276	1.1436	0.9445	0.3727	2.0853	-1.8748	2.5575	0.1109	2.9046	-0.4637	8.7935	7.1093
1.2773	1.2688	1.4224	1.2091	0.8961	1.2375	1.7752	0.5178	0.7596	1.9829	0.165	0.1991	1.1436	0.9303	0.2503	1.9317	-1.8748	2.5774	0.0626	2.8818	-0.4495	8.7423	7.1491
1.1067	1.0526	1.2432	1.0867	0.7397	1.0953	1.6842	0.4296	0.6287	1.9317	0.1223	0.1195	1.1095	0.936	0.165	1.8179	-1.8776	2.6116	0.0313	2.8904	-0.4495	8.6967	7.206
0.9331	0.8762	1.0839	0.9644	0.5832	0.9701	1.5988	0.3044	0.5064	1.8833	0.0825	0.0797	1.1266	0.9189	0.0996	1.6728	-1.852	2.6571	-0.0199	2.8875	-0.441	8.6455	7.2316
0.7653	0.6885	0.9047	0.8791	0.4239	0.8079	1.522	0.2077	0.3983	1.8122	0.0313	0.0256	1.1095	0.9217	0.0028	1.5732	-1.8378	2.6799	-0.0569	2.879	-0.4381	8.6057	7.2658
0.6429	0.5092	0.7425	0.7852	0.2845	0.6799	1.4566	0.128	0.2845	1.7866	-0.0199	-0.0341	1.0896	0.9217	-0.0142	1.4793	-1.8378	2.7311	-0.0967	2.8989	-0.4495	8.5659	7.2857
0.4836	0.3129	0.5946	0.7112	0.1337	0.5377	1.3968	0.0171	0.1849	1.7553	-0.0654	-0.1166	1.0896	0.9075	-0.0313	1.3769	-1.8036	2.7538	-0.1479	2.8875	-0.4523	8.5516	7.3198
0.367	0.1536	0.4495	0.6202	-0.0085	0.4296	1.3314	-0.0569	0.0825	1.7012	-0.1081	-0.1707	1.0668	0.9018	-0.0398	1.3399	-1.8122	2.7908	-0.2105	2.8932	-0.4552	8.5346	7.3454
0.2333	-0.0114	0.3016	0.5633	-0.1593	0.2873	1.2745	-0.1565	-0.0256	1.6785	-0.1792	-0.2361	1.0469	0.8904	-0.0427	1.2574	-1.7752	2.8193	-0.2703	2.8904	-0.4552	8.5289	7.3568
0.1252	-0.1536	0.1935	0.5007	-0.239	0.1792	1.2489	-0.2333	-0.1138	1.6358	-0.2191	-0.293	1.0697	0.9018	-0.0114	1.2148	-1.7923	2.8591	-0.3158	2.8989	-0.4552	8.5232	7.3966
0.0341	-0.3072	0.091	0.4609	-0.3727	0.1024	1.2034	-0.3357	-0.1935	1.5903	-0.276	-0.3414	1.0668	0.9047	0.0313	1.2005	-1.7923	2.916	-0.3641	2.9018	-0.4779	8.5175	7.4137
-0.0654	-0.421	-0.0313	0.421	-0.458	-0.0114	1.1692	-0.3698	-0.2646	1.596	-0.3129	-0.3812	1.064	0.9047	0.0171	1.1579	-1.8036	2.9387	-0.3954	2.9046	-0.4609	8.5204	7.4621
-0.1707	-0.5206	-0.1109	0.3954	-0.5377	-0.074	1.1721	-0.4466	-0.3129	1.5732	-0.3641	-0.4153	1.0839	0.916	0.0512	1.1579	-1.8236	2.9985	-0.4466	2.9387	-0.4552	8.5175	7.5104
-0.2788	-0.6543	-0.2361	0.3328	-0.6372	-0.1622	1.1351	-0.5064	-0.3897	1.5504	-0.4324	-0.4865	1.0526	0.9132	-0.0057	1.1067	-1.8292	3.0298	-0.495	2.9302	-0.4922	8.5289	7.5389
-0.4068	-0.7368	-0.3385	0.2959	-0.6856	-0.239	1.1095	-0.5747	-0.4466	1.5334	-0.4808	-0.532	1.0412	0.936	-0.0541	1.081	-1.8463	3.0781	-0.5405	2.9416	-0.4922	8.5346	7.5958
-0.4922	-0.8165	-0.4267	0.2503	-0.751	-0.3158	1.0782	-0.623	-0.4979	1.5135	-0.5178	-0.569	1.0498	0.9445	-0.0853	1.0355	-1.8577	3.0981	-0.5775	2.9501	-0.4808	8.5232	7.6242
-0.6031	-0.899	-0.5348	0.1963	-0.8307	-0.3926	1.0412	-0.6913	-0.5889	1.4879	-0.5519	-0.6173	1.0128	0.9388	-0.128	1.0014	-1.852	3.1265	-0.6401	2.933	-0.4865	8.5118	7.6527
-0.6913	-0.9587	-0.5747	0.1707	-0.8677	-0.4495	1.0327	-0.7311	-0.6316	1.4651	-0.5974	-0.6515	0.9985	0.9246	-0.2162	0.9758	-1.8577	3.1521	-0.6629	2.9245	-0.4722	8.4862	7.6925
-0.7567	-1.0128	-0.6458	0.1309	-0.899	-0.495	1.0042	-0.751	-0.6799	1.4253	-0.6344	-0.6885	0.9957	0.9246	-0.2816	0.9274	-1.8605	3.1635	-0.6856	2.9274	-0.4637	8.4805	7.7096
-0.8364	-1.0782	-0.7226	0.091	-0.9502	-0.586	0.9673	-0.8136	-0.7368	1.3769	-0.6657	-0.7425	0.9587	0.9303	-0.4182	0.8961	-1.8605	3.1834	-0.7226	2.9103	-0.4666	8.4805	7.738
-0.9075	-1.1266	-0.8023	0.0427	-0.9985	-0.6401	0.9217	-0.8193	-0.7681	1.3542	-0.6828	-0.7966	0.9274	0.9416	-0.5291	0.8705	-1.8691	3.1777	-0.751	2.8676	-0.4523	8.4919	7.7437
-0.9416	-1.1863	-0.8705	-0.0199	-1.0298	-0.6913	0.8677	-0.8591	-0.8023	1.3143	-0.7112	-0.8193	0.8848	0.9246	-0.697	0.7994	-1.8634	3.1635	-0.7681	2.8449	-0.4353	8.4891	7.775
-1.0071	-1.2148	-0.9075	-0.0484	-1.064	-0.7311	0.8364	-0.8876	-0.8449	1.2717	-0.7482	-0.8421	0.8677	0.9274	-0.8335	0.7397	-1.8577	3.1777	-0.7994	2.8107	-0.4068	8.5175	7.775
-1.0526	-1.2631	-0.9616	-0.1337	-1.101	-0.8051	0.7624	-0.9246	-0.9075	1.2318	-0.7823	-0.8904	0.825	0.9246	-1.027	0.6742	-1.8463	3.1578	-0.8335	2.7709	-0.3869	8.5431	7.7892
-1.0924	-1.3257	-1.0185	-0.202	-1.1209	-0.8449	0.7169	-0.9388	-0.953	1.1749	-0.7766	-0.9303	0.7937	0.9047	-1.1892	0.6401	-1.8292	3.1379	-0.8364	2.714	-0.3414	8.5687	7.7978
-1.1067	-1.3513	-1.0384	-0.2304	-1.1379	-0.862	0.6685	-0.9644	-1.0099	1.1351	-0.8136	-0.9502	0.751	0.9047	-1.2773	0.6202	-1.8093	3.1151	-0.8478	2.6998	-0.3186	8.6029	7.7892
-1.1209	-1.4025	-1.0981	-0.3186	-1.1692	-0.9388	0.5747	-0.9957	-1.0554	1.0782	-0.8535	-1.0071	0.6998	0.8904	-1.4082	0.5661	-1.778	3.0867	-0.8478	2.6343	-0.3044	8.6484	7.7864
-1.155	-1.4338	-1.155	-0.3869	-1.1977	-1.0042	0.5064	-1.0185	-1.118	0.9872	-0.862	-1.0498	0.6401	0.8535	-1.485	0.5007	-1.7211	3.0326	-0.8392	2.5604	-0.2959	8.6854	7.7693
-1.192	-1.485	-1.229	-0.4722	-1.229	-1.081	0.4097	-1.0583	-1.1863	0.9502	-0.8848	-1.0953	0.6003	0.8364	-1.5106	0.4694	-1.6671	2.9985	-0.8193	2.4921	-0.2703	8.7451	7.7636
-1.2091	-1.5049	-1.246	-0.5235	-1.2375	-1.1436	0.3556	-1.0697	-1.2404	0.8933	-0.9104	-1.1436	0.5462	0.8136	-1.5618	0.4296	-1.6017	2.9786	-0.8165	2.4466	-0.2447	8.7935	7.7466
-1.283	-1.5789	-1.3229	-0.6145	-1.2802	-1.229	0.2532	-1.1294	-1.3342	0.8279	-0.9473	-1.2204	0.4722	0.7596	-1.5931	0.3841	-1.5106	2.9217	-0.8165	2.3726	-0.2447	8.8504	7.7153
-1.3655	-1.6386	-1.4082	-0.6885	-1.3371	-1.3314	0.1508	-1.1522	-1.4224	0.7397	-0.9843	-1.2944	0.4125	0.7084	-1.6045	0.3129	-1.4025	2.8619	-0.8136	2.2816	-0.239	8.9158	7.6783
-1.4054	-1.687	-1.4651	-0.7653	-1.3542	-1.394	0.0853	-1.1892	-1.4936	0.697	-1.0128	-1.3371	0.3385	0.6543	-1.6187	0.2304	-1.32	2.8363	-0.788	2.2332	-0.2105	8.9869	7.6527
-1.4651	-1.7411	-1.522	-0.8478	-1.3968	-1.4879	-0.037	-1.2176	-1.5704	0.6173	-1.0441	-1.3997	0.2646	0.5974	-1.6244	0.1565	-1.2148	2.7937	-0.7653	2.1735	-0.2077	9.0381	7.6271
-1.5504	-1.8008	-1.6187	-0.9416	-1.4423	-1.5561	-0.1394	-1.2631	-1.6842	0.5576	-1.0924	-1.4936	0.239	0.5434	-1.6187	0.0654	-1.101	2.751	-0.788	2.091	-0.2077	9.1007	7.5844
-1.6244	-1.8691	-1.7268	-1.0526	-1.5106	-1.6756	-0.256	-1.3229	-1.7837	0.4751	-1.1692	-1.5704	0.1422	0.4893	-1.6216	-0.0199	-0.9843	2.6742	-0.788	2.0198	-0.202	9.1747	7.5702
-1.7012	-1.9658	-1.8122	-1.1493	-1.5561	-1.8008	-0.3215	-1.3712	-1.8605	0.4523	-1.229	-1.6472	0.091	0.4353	-1.6415	-0.1223	-0.8876	2.6173	-0.7909	1.9231	-0.2361	9.2373	7.5531
-1.7723	-1.9999	-1.8662	-1.2574	-1.6216	-1.8918	-0.4267	-1.4196	-1.9459	0.3698	-1.2802	-1.7211	0.0256	0.3869	-1.6187	-0.2134	-0.7852	2.5803	-0.7994	1.8691	-0.2532	9.3254	7.536
-1.8236	-2.0711	-1.9573	-1.3342	-1.6699	-1.9743	-0.5206	-1.4936	-2.0398	0.3357	-1.3428	-1.798	-0.0228	0.3414	-1.6017	-0.2845	-0.6913	2.5518	-0.7994	1.8179	-0.2873	9.3909	7.519
-1.8605	-2.128	-2.0255	-1.3997	-1.7211	-2.0767	-0.5917	-1.559	-2.1109	0.2873	-1.4025	-1.8605	-0.0967	0.3044	-1.6073	-0.3528	-0.6173	2.5092	-0.8535	1.7496	-0.2959	9.4506	7.5247
-1.9203	-2.1735	-2.108	-1.485	-1.7638	-2.1336	-0.6458	-1.5988	-2.1849	0.2503	-1.4281	-1.9146	-0.1337	0.276	-1.5931	-0.4182	-0.5547	2.4608	-0.8364	1.6955	-0.3129	9.5161	7.5133
-1.9743	-2.2133	-2.1507	-1.5618	-1.852	-2.2019	-0.7368	-1.6671	-2.2645	0.1878	-1.5334	-1.9971	-0.202	0.2418	-1.5817	-0.4694	-0.495	2.4124	-0.8591	1.6472	-0.3812	9.5815	7.5503
-2.0312	-2.2873	-2.2247	-1.6216	-1.9117	-2.2844	-0.8051	-1.724	-2.3385	0.1366	-1.5817	-2.054	-0.2589	0.2219	-1.5931	-0.4922	-0.4523	2.3897	-0.8791	1.5988	-0.4011	9.6213	7.5474
-2.0625	-2.3157	-2.2816	-1.7041	-1.9772	-2.3499	-0.862	-1.7695	-2.3698	0.1138	-1.6557	-2.0995	-0.2845	0.2105	-1.6187	-0.5235	-0.4438	2.3356	-0.899	1.5419	-0.4552	9.6811	7.5901
-2.1223	-2.4096	-2.384	-1.7809	-2.054	-2.4551	-0.9502	-1.8463	-2.458	0.0484	-1.7439	-2.1962	-0.3585	0.2048	-1.6301	-0.5661	-0.4296	2.3157	-0.9587	1.5106	-0.5206	9.718	7.6271
-2.1649	-2.438	-2.4267	-1.8122	-2.1166	-2.4807	-0.9729	-1.9061	-2.5205	0.0256	-1.8179	-2.2361	-0.3812	0.2247	-1.65	-0.5718	-0.4552	2.3157	-1.0099	1.4879	-0.5974	9.7607	7.6726
-2.2588	-2.5063	-2.5262	-1.9146	-2.1991	-2.5831	-1.0526	-2.0142	-2.6059	-0.0171	-1.9345	-2.3356	-0.4523	0.2333	-1.6898	-0.6031	-0.4808	2.2617	-1.1067	1.448	-0.6998	9.8091	7.7437
-2.3356	-2.5917	-2.5945	-1.9601	-2.2844	-2.6343	-1.1067	-2.0853	-2.6685	-0.0512	-2.0198	-2.4096	-0.4979	0.2646	-1.7553	-0.6401	-0.5291	2.2332	-1.1892	1.4196	-0.7596	9.8489	7.8262
-2.421	-2.6315	-2.677	-2.0255	-2.3555	-2.6969	-1.1465	-2.1564	-2.7368	-0.1053	-2.1052	-2.4836	-0.5377	0.3016	-1.778	-0.6572	-0.6031	2.1962	-1.283	1.4196	-0.8478	9.8859	7.9116
-2.512	-2.7282	-2.7737	-2.0767	-2.458	-2.7567	-1.2034	-2.2474	-2.7993	-0.1593	-2.219	-2.5661	-0.6031	0.3158	-1.8435	-0.6885	-0.6629	2.1621	-1.3997	1.3911	-0.9616	9.9172	7.9941
-2.6173	-2.8363	-2.8648	-2.1308	-2.549	-2.8278	-1.2375	-2.347	-2.8591	-0.202	-2.3186	-2.6571	-0.6458	0.3727	-1.8548	-0.6885	-0.7539	2.1422	-1.4907	1.3911	-1.0611	9.9542	8.0851
-2.6799	-2.8733	-2.933	-2.1479	-2.6429	-2.8904	-1.2631	-2.4295	-2.9131	-0.2247	-2.4494	-2.7339	-0.6998	0.421	-1.8918	-0.6913	-0.8591	2.1194	-1.6187	1.3798	-1.1749	10.0054	8.1818
-2.7766	-2.9444	-2.9899	-2.1735	-2.7225	-2.9217	-1.2887	-2.512	-2.9729	-0.2447	-2.5205	-2.8107	-0.734	0.4865	-1.9373	-0.6856	-0.9843	2.0938	-1.7467	1.3741	-1.2574	10.0338	8.2672
-2.8306	-2.9985	-3.0611	-2.2076	-2.7851	-2.97	-1.2887	-2.5917	-3.0127	-0.2617	-2.64	-2.8818	-0.788	0.5576	-1.9459	-0.6828	-1.1209	2.0796	-1.8861	1.3883	-1.4054	10.0879	8.3639
-2.8733	-3.0611	-3.1037	-2.2389	-2.8619	-2.9871	-1.3086	-2.6855	-3.081	-0.2987	-2.7424	-2.9643	-0.8535	0.6202	-1.9573	-0.6714	-1.2432	2.0398	-2.0085	1.3968	-1.5362	10.1419	8.4635
-2.8648	-3.0838	-3.1208	-2.2503	-2.9018	-2.9871	-1.2887	-2.7311	-3.1151	-0.3101	-2.8449	-3.0156	-0.8791	0.6913	-1.9573	-0.6259	-1.3997	2.0312	-2.0967	1.3911	-1.6244	10.1988	8.5716
-2.9131	-3.1151	-3.1549	-2.2474	-2.9359	-3.0241	-1.2887	-2.7965	-3.1407	-0.3158	-2.9188	-3.0867	-0.9075	0.7624	-1.9829	-0.5946	-1.5419	2.0113	-2.219	1.4111	-1.724	10.2557	8.674
-2.9131	-3.135	-3.172	-2.2076	-2.9643	-3.0042	-1.2745	-2.8363	-3.1407	-0.3129	-2.9757	-3.1123	-0.936	0.8535	-1.9715	-0.5149	-1.7126	2.0028	-2.3328	1.4082	-1.8207	10.324	8.7593
-2.9274	-3.1521	-3.1806	-2.2019	-2.9956	-2.9899	-1.2603	-2.8733	-3.1806	-0.3328	-3.0298	-3.1436	-0.9587	0.9331	-1.9544	-0.4267	-1.8662	1.9573	-2.4324	1.4139	-1.8975	10.3837	8.8447
-2.9274	-3.1521	-3.1806	-2.1792	-3.0156	-2.9643	-1.246	-2.9074	-3.2005	-0.3243	-3.0895	-3.172	-1.0128	1.0042	-1.9601	-0.3727	-2.0142	1.9544	-2.5035	1.4167	-1.9743	10.4293	8.9329
-2.9018	-3.1663	-3.1948	-2.1706	-3.0212	-2.9899	-1.2233	-2.9274	-3.1976	-0.33	-3.1265	-3.2033	-1.0355	1.0782	-1.9402	-0.3215	-2.1706	1.9231	-2.5746	1.4139	-2.0369	10.4634	8.9926
-2.933	-3.2005	-3.2147	-2.1763	-3.0696	-2.9871	-1.2375	-2.9871	-3.2289	-0.3641	-3.1919	-3.2858	-1.0782	1.155	-1.9146	-0.2475	-2.3043	1.8975	-2.6429	1.4111	-2.0967	10.4719	9.0609
-2.9501	-3.2289	-3.246	-2.1592	-3.0668	-2.9956	-1.2148	-3.0156	-3.2545	-0.3499	-3.2232	-3.2744	-1.1209	1.2148	-1.8918	-0.1935	-2.4409	1.8691	-2.6827	1.4111	-2.1308	10.4833	9.1149
-2.9501	-3.2318	-3.2801	-2.145	-3.0981	-2.9843	-1.2404	-3.0412	-3.2887	-0.3812	-3.2631	-3.32	-1.1721	1.2745	-1.8577	-0.1508	-2.5718	1.8605	-2.7424	1.4167	-2.1763	10.4833	9.1718
-2.9956	-3.283	-3.3057	-2.1393	-3.1293	-3.007	-1.2375	-3.0924	-3.3114	-0.3784	-3.2716	-3.3399	-1.2233	1.3485	-1.8207	-0.0797	-2.6998	1.8349	-2.7937	1.4196	-2.1877	10.4492	9.2287
-3.0298	-3.3057	-3.32	-2.1137	-3.1379	-3.0212	-1.229	-3.0981	-3.3313	-0.3983	-3.2887	-3.3427	-1.2517	1.4025	-1.7752	-0.0313	-2.8164	1.8292	-2.8136	1.394	-2.2105	10.4236	9.26
-3.0724	-3.3256	-3.3256	-2.1024	-3.1407	-3.0269	-1.2091	-3.1009	-3.3171	-0.404	-3.3086	-3.3598	-1.2631	1.4679	-1.6898	0.0455	-2.9245	1.8264	-2.8733	1.4139	-2.2275	10.378	9.3084
-3.0668	-3.32	-3.3285	-2.0682	-3.1379	-3.0156	-1.1635	-3.1094	-3.3143	-0.3926	-3.3	-3.3456	-1.2973	1.5135	-1.6073	0.0967	-3.0269	1.8406	-2.8733	1.4224	-2.2474	10.3382	9.3567
-3.0724	-3.337	-3.3456	-2.0341	-3.1094	-2.9956	-1.1522	-3.1208	-3.3512	-0.3926	-3.2943	-3.3541	-1.3229	1.559	-1.5248	0.1764	-3.1123	1.8321	-2.8818	1.4423	-2.2645	10.3069	9.4051
-3.081	-3.3427	-3.3143	-1.9999	-3.1208	-2.9928	-1.1465	-3.0867	-3.3114	-0.3983	-3.2801	-3.3456	-1.32	1.5988	-1.3997	0.2646	-3.1891	1.8207	-2.8961	1.4452	-2.2417	10.2756	9.4392
-3.0554	-3.3057	-3.2887	-1.9601	-3.0696	-2.9501	-1.1067	-3.0639	-3.2716	-0.367	-3.2374	-3.3171	-1.3172	1.6301	-1.3001	0.3072	-3.2602	1.8179	-2.8562	1.4566	-2.219	10.2472	9.4876
-3.0013	-3.2773	-3.2488	-1.8805	-3.044	-2.9018	-1.0498	-3.0184	-3.2261	-0.3328	-3.1948	-3.2659	-1.3029	1.6586	-1.1579	0.3926	-3.3228	1.8406	-2.8562	1.4936	-2.1849	10.2358	9.5132
-2.9643	-3.2488	-3.2062	-1.8349	-2.9871	-2.8534	-1.0042	-2.9643	-3.1663	-0.3016	-3.1293	-3.209	-1.266	1.687	-1.0355	0.4609	-3.3655	1.8577	-2.8363	1.5021	-2.1479	10.2415	9.5587
-2.9274	-3.2033	-3.1407	-1.7894	-2.9245	-2.8136	-0.9673	-2.9302	-3.1293	-0.2731	-3.0838	-3.1663	-1.246	1.6927	-0.9758	0.5149	-3.3854	1.8691	-2.7908	1.5248	-2.108	10.2813	9.59
-2.8591	-3.1464	-3.0724	-1.7126	-2.8676	-2.7481	-0.8876	-2.8306	-3.0412	-0.2361	-3.0099	-3.0867	-1.1948	1.6984	-0.8535	0.5832	-3.3996	1.8719	-2.7595	1.5561	-2.0597	10.324	9.6213
-2.7766	-3.1151	-3.0241	-1.6358	-2.805	-2.6827	-0.8421	-2.7709	-2.9587	-0.1821	-2.9558	-3.0212	-1.1721	1.6898	-0.8108	0.6287	-3.3882	1.8748	-2.7112	1.5647	-2.0142	10.398	9.6754
-2.6969	-3.0696	-2.9587	-1.5618	-2.7453	-2.6144	-0.788	-2.714	-2.8818	-0.1735	-2.8961	-2.9416	-1.1379	1.6785	-0.7539	0.6714	-3.3569	1.8719	-2.6628	1.5789	-1.963	10.4805	9.7123
-2.6429	-3.0326	-2.9188	-1.5078	-2.6884	-2.5604	-0.7624	-2.6486	-2.8449	-0.128	-2.8193	-2.8619	-1.0839	1.6756	-0.7397	0.697	-3.3228	1.8975	-2.6628	1.613	-1.926	10.6113	9.755
-2.5348	-2.953	-2.8278	-1.4281	-2.6201	-2.4722	-0.6771	-2.5831	-2.7368	-0.074	-2.7595	-2.7993	-1.0441	1.6443	-0.7027	0.7425	-3.2915	1.9146	-2.6201	1.613	-1.8748	10.728	9.7892
-2.5063	-2.9217	-2.7823	-1.3826	-2.5718	-2.4324	-0.6572	-2.5262	-2.677	-0.037	-2.6941	-2.7396	-1.0355	1.6102	-0.6941	0.7795	-3.2289	1.8918	-2.5888	1.6244	-1.8321	10.8759	9.829
-2.4352	-2.8733	-2.7225	-1.32	-2.5376	-2.3783	-0.6259	-2.4665	-2.6144	0.0142	-2.6514	-2.6656	-0.99	1.5874	-0.6657	0.7823	-3.1777	1.9146	-2.5632	1.6415	-1.815	11.0039	9.8546
-2.3925	-2.8562	-2.6685	-1.2745	-2.458	-2.3271	-0.5889	-2.4181	-2.5405	0.0541	-2.5746	-2.5917	-0.9502	1.5647	-0.6458	0.8222	-3.1293	1.926	-2.5433	1.6614	-1.8065	11.1234	9.9314
-2.3612	-2.8164	-2.6087	-1.2034	-2.4181	-2.2531	-0.5491	-2.3669	-2.4836	0.0967	-2.5177	-2.5262	-0.899	1.5334	-0.6458	0.8449	-3.0867	1.9373	-2.5319	1.6842	-1.7723	11.2571	9.9968
-2.3186	-2.768	-2.5661	-1.1379	-2.3954	-2.1905	-0.5007	-2.2901	-2.4096	0.1508	-2.475	-2.4608	-0.8648	1.5192	-0.6259	0.8762	-3.0326	1.9487	-2.5433	1.7098	-1.7752	11.3794	10.0594
-2.2389	-2.7083	-2.5035	-1.0725	-2.3242	-2.1393	-0.441	-2.2332	-2.3129	0.2048	-2.4352	-2.3954	-0.8079	1.5021	-0.6259	0.8961	-2.9928	1.9857	-2.4949	1.7354	-1.7496	11.5103	10.1618
-2.1877	-2.6429	-2.4324	-0.9815	-2.2787	-2.0511	-0.3897	-2.1592	-2.2247	0.2845	-2.3499	-2.3186	-0.7681	1.4822	-0.6259	0.9502	-2.9587	2.0085	-2.4693	1.7723	-1.7467	11.6269	10.25
-2.1024	-2.5575	-2.3385	-0.9132	-2.2304	-1.9658	-0.3272	-2.0967	-2.1422	0.3528	-2.2901	-2.2361	-0.7055	1.4736	-0.6372	0.99	-2.9274	2.0511	-2.4608	1.8264	-1.7354	11.7237	10.3382
-2.0369	-2.4693	-2.2588	-0.8535	-2.1336	-1.8947	-0.2674	-2.0284	-2.0568	0.4296	-2.1905	-2.1422	-0.6486	1.4537	-0.6799	1.0213	-2.8961	2.0881	-2.421	1.8691	-1.7154	11.8375	10.452
-1.943	-2.3897	-2.1507	-0.7425	-2.0711	-1.8122	-0.1991	-1.963	-1.9658	0.5178	-2.1365	-2.0312	-0.5519	1.4338	-0.7454	1.0668	-2.8562	2.1223	-2.3982	1.9089	-1.6984	11.9427	10.5544
-1.8292	-2.3015	-2.0767	-0.66	-1.9914	-1.7183	-0.1309	-1.8776	-1.8691	0.5775	-2.0483	-1.9886	-0.5092	1.3854	-0.8108	1.0839	-2.805	2.145	-2.3669	1.9317	-1.6955	12.0423	10.6455
-1.724	-2.1849	-1.943	-0.5747	-1.9004	-1.6073	-0.0455	-1.7951	-1.7894	0.6742	-1.9886	-1.8776	-0.4182	1.3798	-0.8478	1.1436	-2.7624	2.1934	-2.3385	1.9772	-1.6642	12.1362	10.7393
-1.6102	-2.0739	-1.8605	-0.5149	-1.7923	-1.5049	0.0171	-1.6984	-1.6898	0.7254	-1.9345	-1.8093	-0.3641	1.3712	-0.9189	1.1778	-2.7311	2.2332	-2.3186	2.0312	-1.6216	12.23	10.8332
-1.5078	-1.9402	-1.7126	-0.4182	-1.6785	-1.3798	0.1053	-1.5988	-1.5789	0.7994	-1.8264	-1.7098	-0.2646	1.3456	-0.9246	1.2062	-2.6969	2.2901	-2.2645	2.0654	-1.5931	12.3296	10.8987
-1.3883	-1.8435	-1.6045	-0.3385	-1.5988	-1.2859	0.1935	-1.5362	-1.4879	0.8791	-1.7411	-1.6301	-0.1991	1.32	-0.9616	1.2261	-2.6457	2.3043	-2.2332	2.0995	-1.5647	12.415	11.0153
-1.2944	-1.7268	-1.4736	-0.2589	-1.4822	-1.2119	0.2617	-1.448	-1.3854	0.9673	-1.6756	-1.5647	-0.128	1.2973	-0.9815	1.266	-2.6059	2.3499	-2.1763	2.1365	-1.5504	12.4946	11.0864
-1.2176	-1.6358	-1.4111	-0.1821	-1.4025	-1.1038	0.3215	-1.3542	-1.3001	1.0298	-1.5988	-1.4879	-0.091	1.2688	-1.0185	1.266	-2.5376	2.384	-2.145	2.1564	-1.4907	12.5771	11.1518
-1.1379	-1.5448	-1.3001	-0.1138	-1.3143	-1.0042	0.404	-1.2887	-1.2148	1.1209	-1.522	-1.3968	-0.0085	1.2318	-1.0185	1.2546	-2.4722	2.4068	-2.1137	2.1991	-1.4594	12.6625	11.2173
-1.0498	-1.431	-1.1977	-0.0341	-1.1948	-0.9189	0.5064	-1.1948	-1.1152	1.192	-1.4423	-1.3314	0.0512	1.2005	-1.0156	1.2631	-2.4153	2.4693	-2.0654	2.2474	-1.4281	12.7535	11.2514
-0.9929	-1.3428	-1.1152	0.0256	-1.1209	-0.8279	0.5661	-1.1123	-1.0469	1.2631	-1.3684	-1.2631	0.128	1.1749	-1.0213	1.266	-2.3499	2.4864	-2.0255	2.2531	-1.3684	12.8445	11.3055
-0.9416	-1.2546	-1.0441	0.0853	-1.0042	-0.7482	0.6372	-1.0241	-0.9644	1.3428	-1.266	-1.1721	0.2162	1.1323	-1.0355	1.2318	-2.2844	2.4978	-1.9829	2.273	-1.3029	12.9327	11.3339
-0.862	-1.155	-0.9445	0.1565	-0.8734	-0.6515	0.7283	-0.9075	-0.8449	1.4224	-1.1607	-1.0668	0.293	1.1152	-1.0298	1.2233	-2.2361	2.5604	-1.9061	2.31	-1.2034	13.0323	11.3737
-0.8563	-1.0782	-0.8848	0.2134	-0.8165	-0.5804	0.7994	-0.8136	-0.7624	1.5106	-1.0754	-0.99	0.3784	1.0896	-1.064	1.2091	-2.1877	2.5917	-1.8435	2.3612	-1.1152	13.1262	11.4164
-0.7937	-1.0441	-0.8165	0.2503	-0.7454	-0.5178	0.8591	-0.7482	-0.6742	1.5618	-0.9729	-0.8933	0.4438	1.064	-1.1095	1.1977	-2.145	2.6087	-1.7837	2.3669	-1.0355	13.2314	11.442
-0.7425	-0.9701	-0.7567	0.3272	-0.6344	-0.4324	0.9274	-0.6572	-0.5974	1.65	-0.8848	-0.7994	0.5291	1.0469	-1.1323	1.1977	-2.1166	2.6599	-1.7211	2.4068	-0.9388	13.3253	11.479
-0.7226	-0.9246	-0.7084	0.3727	-0.5718	-0.3812	0.9559	-0.5832	-0.5263	1.7069	-0.8051	-0.7397	0.6145	1.0441	-1.1607	1.1977	-2.0881	2.6628	-1.6443	2.3982	-0.8478	13.4164	11.4989
-0.697	-0.8904	-0.6828	0.4011	-0.5291	-0.33	1.027	-0.5235	-0.4779	1.7695	-0.7254	-0.6799	0.6714	1.0355	-1.1863	1.2034	-2.0711	2.6855	-1.6017	2.4295	-0.7596	13.5273	11.5217
-0.6629	-0.8677	-0.6344	0.4182	-0.4865	-0.2845	1.081	-0.4637	-0.3897	1.8207	-0.6372	-0.6259	0.7425	1.027	-1.2261	1.1892	-2.0511	2.7225	-1.5448	2.4494	-0.66	13.6383	11.5387
-0.6572	-0.8364	-0.6316	0.4438	-0.441	-0.2418	1.1123	-0.3897	-0.3499	1.8662	-0.5889	-0.5547	0.7994	1.0099	-1.2574	1.2005	-2.0312	2.7311	-1.4879	2.4466	-0.6088	13.735	11.5644
-0.6401	-0.8108	-0.6202	0.4779	-0.3841	-0.2219	1.1379	-0.3328	-0.3072	1.9317	-0.5235	-0.495	0.8677	1.0156	-1.2489	1.192	-2.0341	2.751	-1.4196	2.4722	-0.5206	13.8602	11.5843
-0.6316	-0.825	-0.6031	0.4865	-0.3471	-0.2048	1.1806	-0.276	-0.2447	1.963	-0.4609	-0.441	0.9331	1.0071	-1.2489	1.2233	-2.0341	2.768	-1.357	2.4893	-0.421	13.9768	11.6127
-0.6344	-0.7909	-0.5917	0.495	-0.3158	-0.1678	1.1835	-0.2191	-0.2162	1.9971	-0.3954	-0.3812	0.9786	1.0099	-1.2204	1.2375	-2.0198	2.788	-1.2973	2.4921	-0.3528	14.0735	11.6554
-0.6543	-0.8165	-0.6173	0.5092	-0.2816	-0.1792	1.2062	-0.1565	-0.1707	2.0284	-0.3442	-0.3414	1.0298	1.0071	-1.1948	1.229	-2.0085	2.7965	-1.2318	2.4978	-0.2731	14.1873	11.6924
-0.6629	-0.771	-0.5917	0.5035	-0.2191	-0.1565	1.2091	-0.1081	-0.1309	2.0625	-0.2845	-0.2873	1.1038	1.0042	-1.1579	1.2318	-2.0056	2.8306	-1.1436	2.4978	-0.202	14.2869	11.7322
-0.6771	-0.771	-0.6202	0.5007	-0.2077	-0.1622	1.2176	-0.0541	-0.091	2.108	-0.2219	-0.2418	1.1465	0.9985	-1.1152	1.2404	-2.0056	2.8392	-1.0498	2.4978	-0.1166	14.3694	11.772
-0.7197	-0.771	-0.66	0.495	-0.165	-0.1707	1.2119	-0.0171	-0.0484	2.1308	-0.1536	-0.1707	1.2091	0.9957	-1.0924	1.2119	-2.0085	2.8676	-0.9786	2.5262	-0.0256	14.4519	11.8033
-0.7596	-0.7425	-0.6429	0.4922	-0.1081	-0.1394	1.246	0.0626	-0.0028	2.182	-0.0853	-0.0967	1.2859	1.0185	-1.0213	1.2233	-2.0284	2.8875	-0.8819	2.5746	0.0683	14.5259	11.8289
-0.7738	-0.7226	-0.6543	0.5064	-0.0626	-0.1422	1.2688	0.1252	0.0569	2.2503	-0.0028	-0.0228	1.3542	1.0185	-0.9985	1.2091	-2.0426	2.9245	-0.7937	2.5774	0.1366	14.6112	11.8574
-0.8023	-0.7311	-0.6714	0.5121	-0.0199	-0.1593	1.2574	0.1792	0.0967	2.256	0.0455	0.0427	1.4082	1.0099	-0.9758	1.2005	-2.0511	2.9615	-0.6998	2.603	0.2191	14.6909	11.8944
-0.8392	-0.7141	-0.6742	0.5121	0.0142	-0.1536	1.2574	0.2304	0.1451	2.2816	0.1024	0.0967	1.4651	1.0327	-0.953	1.1664	-2.054	3.0042	-0.6202	2.64	0.293	14.7961	11.9171
-0.8506	-0.6941	-0.6657	0.5178	0.0626	-0.1223	1.3029	0.276	0.1991	2.3641	0.1707	0.1735	1.5561	1.0384	-0.9729	1.1465	-2.0767	3.0582	-0.5092	2.6941	0.3613	14.9042	11.9484
-0.8791	-0.6657	-0.66	0.5263	0.1138	-0.1223	1.3257	0.3243	0.2447	2.4267	0.2304	0.2418	1.6159	1.0554	-0.9445	1.1323	-2.091	3.0924	-0.4153	2.7254	0.441	14.9981	11.9825
-0.916	-0.6316	-0.6799	0.532	0.1479	-0.1109	1.32	0.3613	0.2816	2.4352	0.2731	0.2873	1.6614	1.0441	-0.9843	1.081	-2.108	3.1123	-0.3414	2.7368	0.5206	15.109	11.9996
-0.9189	-0.6287	-0.6856	0.5092	0.1707	-0.1081	1.3485	0.3983	0.3158	2.4779	0.3101	0.3442	1.7268	1.0554	-1.0498	1.0298	-2.1223	3.1549	-0.276	2.768	0.5747	15.2143	12.0309
-0.936	-0.6486	-0.6941	0.5121	0.1622	-0.091	1.3485	0.3869	0.3471	2.4807	0.3357	0.3755	1.7581	1.0611	-1.0839	0.9473	-2.1365	3.1578	-0.2191	2.7851	0.5946	15.3338	12.0508
-0.936	-0.6287	-0.6799	0.5092	0.1821	-0.0711	1.3769	0.4068	0.367	2.5177	0.3641	0.4296	1.815	1.0896	-1.1579	0.9217	-2.1706	3.1891	-0.1707	2.805	0.6372	15.4447	12.0793
-0.9473	-0.6316	-0.6742	0.5263	0.2048	-0.0427	1.4054	0.421	0.4011	2.5433	0.3784	0.4523	1.8577	1.101	-1.1948	0.8762	-2.2048	3.2175	-0.1223	2.8562	0.6742	15.5528	12.1049
-0.9416	-0.6344	-0.6543	0.5547	0.2048	-0.0284	1.4139	0.4182	0.4296	2.5632	0.3897	0.4893	1.9089	1.0953	-1.2517	0.8222	-2.2105	3.209	-0.0683	2.8705	0.7055	15.6695	12.1163
-0.9644	-0.6372	-0.66	0.5775	0.1764	-0.0057	1.4566	0.4182	0.4666	2.6059	0.3897	0.5178	1.9345	1.1152	-1.3172	0.7795	-2.2361	3.2232	-0.0484	2.9074	0.7141	15.7747	12.1305
-0.9473	-0.6287	-0.6287	0.6316	0.2134	0.0228	1.5106	0.4381	0.5064	2.6685	0.4153	0.5604	1.9914	1.1379	-1.3513	0.7425	-2.2759	3.2602	-0.0171	2.953	0.751	15.88	12.139
-0.9473	-0.6173	-0.606	0.6515	0.2191	0.0597	1.5334	0.4267	0.532	2.6969	0.4239	0.5946	2.017	1.155	-1.3883	0.6799	-2.3072	3.2887	0.0028	2.9985	0.7653	15.9881	12.1532
-0.9416	-0.6287	-0.6088	0.7084	0.2219	0.1024	1.5789	0.4438	0.569	2.7282	0.4353	0.6259	2.0426	1.155	-1.4423	0.6344	-2.3242	3.2915	0.0256	3.0412	0.8023	16.0877	12.176
-0.9673	-0.6287	-0.586	0.7454	0.239	0.1195	1.6216	0.441	0.606	2.768	0.4438	0.6401	2.0796	1.1692	-1.5021	0.5804	-2.3385	3.3256	0.0455	3.0895	0.7909	16.1958	12.1902
-0.953	-0.6031	-0.5519	0.8165	0.256	0.1792	1.6785	0.4779	0.6657	2.8193	0.4779	0.697	2.1109	1.1721	-1.4964	0.5377	-2.3698	3.3427	0.091	3.1237	0.8535	16.3067	12.2158
-0.9445	-0.5775	-0.5291	0.8648	0.2589	0.2361	1.7439	0.4694	0.7055	2.8818	0.4836	0.7311	2.1621	1.1863	-1.4964	0.4979	-2.3811	3.3882	0.1109	3.1777	0.8762	16.4091	12.23
-0.9502	-0.5604	-0.4666	0.9303	0.3016	0.2788	1.8093	0.4979	0.7454	2.9501	0.532	0.7738	2.1905	1.1806	-1.5135	0.4552	-2.3726	3.3882	0.1337	3.2289	0.9075	16.5173	12.2443
-0.9473	-0.5348	-0.441	0.9957	0.3328	0.3328	1.8748	0.5291	0.788	3.0099	0.532	0.7937	2.219	1.1664	-1.4651	0.4239	-2.3669	3.3825	0.1764	3.2431	0.9445	16.6282	12.2557
-0.9331	-0.5405	-0.4097	1.0583	0.3385	0.3812	1.9288	0.5348	0.8165	3.0383	0.5462	0.8108	2.2417	1.1607	-1.4736	0.3954	-2.3442	3.3968	0.1821	3.2915	0.9559	16.7591	12.2557
-0.8904	-0.4694	-0.3556	1.1294	0.3897	0.4694	1.9942	0.5718	0.8819	3.0781	0.5633	0.8563	2.2702	1.1493	-1.4623	0.367	-2.3129	3.3968	0.2162	3.3143	0.9929	16.9013	12.2613
-0.8563	-0.441	-0.2816	1.2005	0.421	0.5064	2.0483	0.5747	0.916	3.0981	0.5946	0.862	2.2645	1.118	-1.4395	0.3556	-2.2645	3.3768	0.2304	3.3399	0.99	17.0492	12.2727
-0.8136	-0.3897	-0.2447	1.283	0.4552	0.5718	2.1308	0.6259	0.9673	3.1549	0.6259	0.9331	2.2958	1.0896	-1.4167	0.3528	-2.2161	3.3484	0.2418	3.3342	0.9985	17.2086	12.2784
-0.734	-0.3272	-0.1849	1.3684	0.5121	0.6344	2.2105	0.66	1.0185	3.2005	0.6458	0.9587	2.3072	1.0867	-1.3741	0.3755	-2.1934	3.3456	0.2646	3.3598	1.0156	17.3679	12.2642
-0.66	-0.2447	-0.0996	1.4367	0.5491	0.6941	2.2617	0.6799	1.0554	3.2517	0.6856	0.9872	2.3157	1.064	-1.3598	0.3784	-2.1393	3.3143	0.2674	3.3541	1.0156	17.5585	12.2443
-0.5775	-0.1678	-0.0085	1.4936	0.6316	0.7653	2.3299	0.7283	1.1266	3.3	0.6742	0.9985	2.3356	1.0241	-1.3229	0.3755	-2.0881	3.3143	0.2816	3.3626	1.0156	17.7434	12.2471
-0.5092	-0.0825	0.037	1.5846	0.6828	0.8279	2.4096	0.7653	1.1664	3.3228	0.7169	1.0185	2.3214	1.0042	-1.2916	0.4068	-2.0227	3.2801	0.293	3.3427	1.0099	17.9283	12.2329
-0.4637	0.0284	0.1337	1.6273	0.7681	0.9047	2.4921	0.8279	1.2091	3.3655	0.7482	1.0583	2.3299	0.953	-1.2802	0.4296	-1.9373	3.246	0.3186	3.3313	0.9957	18.1218	12.2215
-0.3954	0.1081	0.2191	1.6813	0.8648	0.9673	2.5319	0.8819	1.2688	3.3911	0.7596	1.0725	2.3271	0.9189	-1.2603	0.4637	-1.8463	3.2147	0.3328	3.3086	1.0327	18.2839	12.2329
-0.3641	0.2191	0.2731	1.6955	0.9416	1.0241	2.5746	0.953	1.32	3.4138	0.8051	1.1095	2.3299	0.8535	-1.2517	0.4552	-1.7325	3.1862	0.3613	3.2801	1.0298	18.4631	12.2073
-0.3215	0.2703	0.3158	1.7183	1.0014	1.0526	2.5974	0.9843	1.3542	3.4195	0.8193	1.1209	2.293	0.7823	-1.283	0.4666	-1.6102	3.1322	0.4011	3.2631	1.0469	18.6025	12.1845
-0.2959	0.3528	0.3585	1.7553	1.0526	1.1294	2.6258	1.0384	1.3627	3.4309	0.8335	1.1209	2.2844	0.7254	-1.2944	0.4922	-1.4793	3.1208	0.441	3.2318	1.0725	18.7277	12.1902
-0.2703	0.4381	0.4182	1.7894	1.1237	1.1607	2.6486	1.1095	1.394	3.4423	0.8848	1.1465	2.273	0.6714	-1.3684	0.495	-1.3684	3.0696	0.4751	3.209	1.0896	18.8614	12.176
-0.2447	0.4865	0.4637	1.7894	1.1664	1.2091	2.6656	1.1323	1.431	3.4451	0.9018	1.1323	2.2588	0.5974	-1.4338	0.5206	-1.2404	3.0184	0.5092	3.1521	1.1209	18.961	12.1618
-0.2247	0.5377	0.4922	1.7923	1.1948	1.2233	2.6656	1.1692	1.431	3.4252	0.9217	1.1123	2.2105	0.5434	-1.4879	0.5377	-1.1294	2.9615	0.5291	3.1265	1.1237	19.0463	12.1589
-0.1849	0.6116	0.5576	1.8321	1.2574	1.2859	2.7026	1.2034	1.4708	3.4679	0.936	1.1379	2.2161	0.5092	-1.5504	0.5747	-1.0327	2.9444	0.5291	3.1094	1.1522	19.1118	12.1532
-0.1508	0.6429	0.586	1.8321	1.2773	1.2916	2.7225	1.2005	1.4623	3.448	0.9303	1.1152	2.182	0.4523	-1.6159	0.5974	-0.9303	2.8904	0.5462	3.0724	1.1237	19.1601	12.1305
-0.1394	0.66	0.6344	1.8292	1.3115	1.3229	2.7112	1.2318	1.4708	3.4423	0.9104	1.0839	2.145	0.404	-1.6813	0.6003	-0.8307	2.8505	0.5291	3.0156	1.1266	19.2085	12.1475
-0.0882	0.6913	0.6429	1.8463	1.3257	1.3143	2.6884	1.2375	1.4822	3.4281	0.9075	1.0697	2.1052	0.3528	-1.7098	0.6543	-0.7539	2.7709	0.5434	2.9757	1.1379	19.2284	12.1276
-0.0341	0.7254	0.6941	1.8492	1.3542	1.3314	2.6884	1.2546	1.4765	3.4366	0.8876	1.0327	2.0711	0.3215	-1.7553	0.697	-0.6714	2.7197	0.5377	2.9359	1.0981	19.2426	12.1419
0.0057	0.7567	0.7055	1.8492	1.3712	1.3314	2.6827	1.2432	1.4679	3.4366	0.862	1.0099	2.0625	0.2845	-1.7183	0.7482	-0.5946	2.677	0.5149	2.9074	1.0981	19.2597	12.1532
0.0768	0.8023	0.7795	1.8691	1.3911	1.3798	2.6884	1.246	1.4651	3.4337	0.8506	0.9985	2.0341	0.2617	-1.6728	0.7795	-0.5462	2.6116	0.5092	2.8705	1.081	19.2768	12.1475
0.1309	0.8279	0.8023	1.8776	1.3997	1.3598	2.677	1.246	1.4367	3.4309	0.8136	0.953	2.0028	0.2247	-1.6273	0.8506	-0.4836	2.5547	0.5121	2.8335	1.0384	19.2597	12.1532
0.1849	0.8591	0.8364	1.8805	1.4025	1.3798	2.6685	1.2347	1.4367	3.4337	0.7681	0.9274	1.9999	0.2048	-1.5533	0.9416	-0.4381	2.5205	0.4722	2.8164	1.0298	19.291	12.1675
0.2447	0.8734	0.8591	1.8947	1.431	1.4139	2.6855	1.2204	1.4367	3.4224	0.7311	0.9075	1.9971	0.1963	-1.4537	0.9985	-0.3954	2.4949	0.4779	2.7766	0.99	19.3052	12.1532
0.2845	0.916	0.9075	1.9089	1.4167	1.4054	2.6685	1.1977	1.431	3.4252	0.697	0.8791	1.9686	0.1707	-1.3399	1.0355	-0.3698	2.4779	0.4637	2.7709	0.9559	19.3337	12.1589
0.3072	0.9246	0.9246	1.9203	1.4395	1.4111	2.6543	1.2119	1.4167	3.4537	0.6856	0.8535	1.9886	0.1678	-1.2347	1.0953	-0.3641	2.4779	0.4836	2.7908	0.9416	19.4019	12.1732
0.3328	0.9331	0.9445	1.9459	1.4196	1.4111	2.6457	1.1977	1.4025	3.4679	0.6629	0.8449	1.9829	0.165	-1.155	1.1067	-0.3385	2.4608	0.4893	2.7937	0.9445	19.4588	12.1874
0.3129	0.9104	0.9303	1.9117	1.3997	1.4025	2.6514	1.1465	1.3627	3.4622	0.6173	0.8023	1.9715	0.1451	-1.0583	1.1493	-0.3101	2.4466	0.4666	2.788	0.8791	19.5356	12.1959
0.3072	0.9274	0.9132	1.9373	1.3655	1.3911	2.6486	1.118	1.3428	3.4622	0.5832	0.7766	1.9573	0.1366	-0.9786	1.1465	-0.2987	2.4409	0.4609	2.8022	0.8535	19.6267	12.2158
0.3186	0.8791	0.9018	1.9373	1.3257	1.3627	2.6543	1.1152	1.3172	3.4764	0.5633	0.7596	1.9516	0.1166	-0.9217	1.155	-0.2731	2.4466	0.4381	2.788	0.8279	19.749	12.2414
0.3101	0.8535	0.899	1.9345	1.3086	1.3627	2.6571	1.0583	1.2916	3.4679	0.5291	0.7567	1.9601	0.1166	-0.8535	1.1692	-0.2646	2.4551	0.3954	2.7965	0.7596	19.8571	12.2642
0.293	0.825	0.8648	1.943	1.2802	1.357	2.6457	1.0554	1.2745	3.4707	0.5064	0.7482	1.9487	0.1195	-0.8108	1.2005	-0.2674	2.4523	0.3585	2.8079	0.7141	19.988	12.2898
0.293	0.8108	0.8563	1.9715	1.2347	1.3399	2.6486	1.0298	1.2489	3.4423	0.4836	0.734	1.9686	0.1223	-0.7425	1.229	-0.256	2.4608	0.3357	2.8193	0.6742	20.1245	12.3239
0.3158	0.7738	0.8279	1.9544	1.1892	1.3229	2.6429	1.0014	1.2318	3.4508	0.458	0.7567	1.9829	0.1223	-0.6913	1.2717	-0.2816	2.4693	0.2902	2.8249	0.6458	20.2696	12.3581
0.3556	0.7567	0.8335	1.9743	1.1778	1.3485	2.6884	1.0241	1.2375	3.4622	0.4779	0.7738	1.9971	0.1451	-0.6401	1.3086	-0.2987	2.4949	0.256	2.8619	0.6116	20.4261	12.4121
0.3841	0.7197	0.8335	2.0028	1.1635	1.3485	2.6799	0.9957	1.2432	3.4451	0.4751	0.7937	2.0284	0.165	-0.5832	1.3826	-0.3442	2.512	0.2134	2.8648	0.5804	20.5626	12.4548
0.4523	0.7112	0.8364	2.0198	1.1579	1.3627	2.7083	1.0099	1.2688	3.465	0.5007	0.8392	2.0654	0.1963	-0.5291	1.448	-0.4068	2.5319	0.1707	2.8932	0.5491	20.7191	12.4861
0.495	0.6771	0.8364	2.0597	1.1635	1.3854	2.7197	0.9929	1.2717	3.4622	0.4922	0.8648	2.0853	0.239	-0.4922	1.5419	-0.4751	2.5661	0.1195	2.9046	0.4893	20.8528	12.5288
0.5576	0.6486	0.8762	2.0767	1.1721	1.4139	2.7453	1.0156	1.2916	3.4878	0.5178	0.899	2.1422	0.2816	-0.4381	1.6159	-0.5633	2.5945	0.0398	2.9245	0.4694	20.9808	12.5629
0.6031	0.6116	0.9132	2.1336	1.1692	1.4423	2.7737	1.0213	1.3314	3.4878	0.5434	0.9644	2.1991	0.3072	-0.3556	1.7183	-0.6486	2.6116	-0.0057	2.9188	0.4353	21.0747	12.6113
0.6429	0.5889	0.9132	2.1536	1.1266	1.4395	2.7993	1.0156	1.3485	3.5162	0.5718	1.0099	2.2247	0.3585	-0.3186	1.8236	-0.7397	2.6201	-0.091	2.9473	0.3471	21.1714	12.6539
0.6941	0.5491	0.953	2.1991	1.1209	1.4793	2.8164	1.0355	1.3911	3.5589	0.5832	1.0554	2.2816	0.4125	-0.2361	1.926	-0.8421	2.64	-0.1735	2.9786	0.3044	21.2426	12.6852
0.7283	0.5149	0.9416	2.2389	1.1237	1.5277	2.8562	1.0554	1.4395	3.6073	0.6287	1.1436	2.3555	0.4637	-0.1764	2.0483	-0.9502	2.6912	-0.2731	3.0326	0.2503	21.3137	12.7364
0.7852	0.5007	0.9786	2.2986	1.1209	1.5504	2.8989	1.064	1.4964	3.6613	0.6372	1.2261	2.4238	0.5149	-0.1024	2.145	-1.0554	2.7254	-0.3556	3.0696	0.202	21.3649	12.7962
0.7966	0.5064	1.0241	2.3527	1.1351	1.6017	2.9473	1.1095	1.559	3.6955	0.6799	1.266	2.4836	0.5661	-0.0171	2.2332	-1.155	2.7453	-0.4666	3.1123	0.1451	21.4218	12.8758
0.8051	0.4495	1.0526	2.3954	1.1237	1.6443	3.0099	1.1237	1.6045	3.7581	0.6885	1.3712	2.5547	0.6202	0.037	2.3214	-1.2574	2.7823	-0.5462	3.1493	0.091	21.4901	12.9555
0.8563	0.458	1.1152	2.4636	1.1408	1.6955	3.0724	1.1579	1.687	3.815	0.734	1.4822	2.6571	0.6714	0.0882	2.3954	-1.3598	2.8306	-0.6458	3.2033	0.0427	21.5384	13.0465
0.8904	0.4466	1.1465	2.4893	1.1493	1.7382	3.1009	1.1635	1.7553	3.8775	0.7795	1.5419	2.7311	0.7141	0.1422	2.458	-1.4566	2.8762	-0.7482	3.246	-0.0455	21.601	13.166
0.9047	0.4296	1.1635	2.5575	1.1408	1.7894	3.172	1.1835	1.815	3.9487	0.7994	1.65	2.7993	0.7653	0.1622	2.5092	-1.5504	2.8847	-0.8563	3.2915	-0.091	21.6636	13.2798
0.9445	0.4609	1.2176	2.6343	1.1778	1.8634	3.2403	1.2432	1.9373	4.0539	0.8335	1.7638	2.8989	0.825	0.1878	2.5917	-1.6557	2.953	-0.916	3.3712	-0.1479	21.7319	13.4107
0.9872	0.4353	1.2745	2.6884	1.2318	1.943	3.3313	1.2717	2.0284	4.1364	0.8791	1.852	3.0013	0.862	0.1821	2.6258	-1.7467	3.007	-0.9872	3.4281	-0.1991	21.8115	13.5444
1.027	0.458	1.3285	2.751	1.2318	2.0113	3.4081	1.32	2.1052	4.2673	0.9217	1.9601	3.0895	0.9132	0.1451	2.6486	-1.8236	3.0468	-1.0412	3.485	-0.2532	21.9083	13.6866
1.0668	0.4836	1.3655	2.8363	1.2859	2.0767	3.4821	1.3542	2.2218	4.3469	0.9673	2.0739	3.1862	0.953	0.1138	2.6827	-1.9203	3.0895	-1.0697	3.5418	-0.2959	22.0221	13.8089
1.1237	0.5178	1.4395	2.9359	1.3229	2.1592	3.5959	1.4111	2.3043	4.4607	1.0298	2.1792	3.2858	0.9872	0.0455	2.6912	-1.9971	3.1663	-1.0953	3.6215	-0.3044	22.1472	13.9455
1.1778	0.5462	1.522	3.0099	1.3684	2.2417	3.6784	1.4623	2.4295	4.5859	1.0867	2.2844	3.4081	1.0384	-0.037	2.7424	-2.091	3.2204	-1.1152	3.6955	-0.3072	22.2809	14.0593
1.2517	0.5661	1.5647	3.1037	1.4111	2.3271	3.7751	1.5135	2.5262	4.7139	1.1408	2.3954	3.5504	1.0782	-0.1394	2.7595	-2.1678	3.3029	-1.155	3.7581	-0.3044	22.4146	14.1731
1.2973	0.6202	1.6329	3.1806	1.4395	2.3726	3.869	1.5675	2.6059	4.8334	1.1892	2.4921	3.6585	1.1209	-0.1963	2.7624	-2.2474	3.3996	-1.1522	3.832	-0.3101	22.537	14.2613
1.32	0.6458	1.6614	3.2517	1.4651	2.4409	3.9316	1.6073	2.6827	4.9245	1.2204	2.5518	3.7581	1.1522	-0.2987	2.7624	-2.3129	3.4821	-1.1863	3.9088	-0.3072	22.665	14.3438
1.3399	0.7055	1.6898	3.3171	1.5106	2.4807	4.0226	1.6529	2.7368	5.0269	1.2717	2.6429	3.8377	1.1835	-0.3983	2.751	-2.384	3.5532	-1.1692	3.9657	-0.3044	22.793	14.4206
1.32	0.7055	1.7041	3.3655	1.5504	2.4921	4.071	1.6529	2.7794	5.1008	1.3001	2.6827	3.9373	1.2034	-0.5291	2.7083	-2.4352	3.6044	-1.1863	4.0198	-0.3016	22.921	14.4803
1.3342	0.7624	1.7126	3.4195	1.5846	2.5234	4.1194	1.6984	2.8392	5.1748	1.3371	2.7339	3.9942	1.246	-0.5889	2.7083	-2.5149	3.6898	-1.1835	4.0852	-0.2873	23.0405	14.5543
1.3456	0.8079	1.7154	3.4537	1.6472	2.5661	4.1677	1.724	2.8762	5.2573	1.3798	2.7794	4.0795	1.2944	-0.66	2.6941	-2.5888	3.7581	-1.192	4.1393	-0.2873	23.1486	14.614
1.3143	0.8449	1.7069	3.465	1.6529	2.5575	4.2047	1.724	2.8847	5.3114	1.3769	2.8107	4.1364	1.3342	-0.7567	2.6543	-2.6599	3.8064	-1.192	4.1905	-0.2959	23.2823	14.6596
1.2916	0.862	1.6898	3.4593	1.6671	2.5547	4.2075	1.7638	2.9131	5.3398	1.4139	2.8164	4.1905	1.3627	-0.8165	2.6286	-2.7368	3.8605	-1.1607	4.2218	-0.2987	23.4047	14.6994
1.266	0.8904	1.6443	3.4707	1.6898	2.5092	4.2075	1.761	2.8904	5.3768	1.4224	2.8079	4.2047	1.3854	-0.9075	2.5774	-2.7908	3.9231	-1.1607	4.2531	-0.3072	23.5298	14.7421
1.2432	0.8819	1.6244	3.4622	1.6586	2.4921	4.2047	1.7638	2.8847	5.3739	1.4281	2.7993	4.236	1.4253	-0.953	2.5774	-2.8562	3.9458	-1.1579	4.2929	-0.3215	23.6607	14.7677
1.1835	0.8535	1.5704	3.4224	1.6216	2.4494	4.1535	1.7211	2.8278	5.3398	1.4111	2.7965	4.2104	1.4367	-1.0298	2.5205	-2.8932	3.9344	-1.1692	4.29	-0.3471	23.8115	14.8018
1.1465	0.8449	1.5419	3.3968	1.613	2.4068	4.1563	1.7183	2.7965	5.3512	1.431	2.7624	4.2047	1.4594	-1.0469	2.5063	-2.9444	3.96	-1.1749	4.2844	-0.367	23.9423	14.8046
1.1095	0.7994	1.4679	3.3598	1.5533	2.3555	4.1137	1.6728	2.751	5.3085	1.4111	2.7339	4.1763	1.4736	-1.0725	2.4949	-2.9672	3.943	-1.1863	4.273	-0.3841	24.0903	14.8046
1.0725	0.7254	1.3997	3.3057	1.485	2.2759	4.0625	1.6358	2.6912	5.2516	1.3485	2.6628	4.1364	1.4822	-1.0896	2.4836	-2.9729	3.9145	-1.2034	4.2445	-0.4324	24.241	14.8018
1.0355	0.6913	1.3741	3.2943	1.4367	2.2275	4.0027	1.5846	2.6372	5.226	1.3399	2.6343	4.0966	1.4879	-1.0526	2.4836	-2.9871	3.8775	-1.2062	4.236	-0.441	24.3662	14.7677
1.0014	0.6259	1.3086	3.246	1.3883	2.1735	3.9629	1.5618	2.5604	5.1776	1.3086	2.586	4.0397	1.485	-1.0498	2.4836	-2.9729	3.8206	-1.2204	4.1933	-0.4836	24.4971	14.7534
0.9701	0.5718	1.2489	3.2175	1.3428	2.1052	3.9231	1.5305	2.4978	5.1236	1.2802	2.5348	3.9942	1.485	-0.9985	2.512	-2.9814	3.7637	-1.2005	4.1393	-0.5007	24.6109	14.725
0.9331	0.5064	1.2062	3.1862	1.266	2.0369	3.8491	1.4736	2.4324	5.0468	1.2688	2.4722	3.9288	1.4708	-0.9303	2.5262	-2.9643	3.6983	-1.192	4.1051	-0.4893	24.7218	14.7051
0.8791	0.4865	1.1607	3.1237	1.2005	1.9544	3.8007	1.431	2.3527	4.97	1.229	2.4352	3.869	1.4679	-0.9018	2.5319	-2.933	3.6158	-1.1835	4.034	-0.5092	24.8271	14.6681
0.825	0.3983	1.0782	3.0582	1.1266	1.8947	3.7239	1.3968	2.3015	4.8875	1.2375	2.3868	3.7581	1.4281	-0.8677	2.5405	-2.9018	3.5333	-1.1664	3.9686	-0.5092	24.9124	14.6169
0.7937	0.3698	1.0412	3.0184	1.0924	1.8463	3.6556	1.394	2.2474	4.822	1.2176	2.3499	3.7069	1.4338	-0.8051	2.5774	-2.8818	3.4764	-1.1493	3.9344	-0.4979	24.9892	14.5913
0.7141	0.2959	0.9644	2.9501	1.0412	1.798	3.5817	1.3399	2.182	4.7338	1.1948	2.3271	3.6215	1.4139	-0.7823	2.5689	-2.842	3.3825	-1.1266	3.8605	-0.5007	25.0746	14.5515
0.6543	0.2219	0.9331	2.8648	0.9758	1.7553	3.4821	1.3229	2.1166	4.6201	1.1664	2.2474	3.4992	1.3968	-0.7397	2.586	-2.7937	3.2602	-1.101	3.7751	-0.4893	25.1514	14.5088
0.606	0.1821	0.8677	2.7937	0.899	1.6756	3.4081	1.2717	2.0455	4.5262	1.1095	2.1991	3.4281	1.3627	-0.6998	2.586	-2.7339	3.1606	-1.0697	3.6756	-0.4779	25.2367	14.4519
0.5661	0.128	0.8136	2.7453	0.8876	1.6159	3.3598	1.2489	2.0056	4.4636	1.1152	2.1621	3.3484	1.3456	-0.6657	2.5803	-2.6969	3.0611	-1.0185	3.5845	-0.4466	25.3249	14.4007
0.5149	0.0683	0.7681	2.6742	0.8079	1.5618	3.2602	1.2204	1.9686	4.3441	1.0867	2.1194	3.2289	1.3058	-0.6458	2.5661	-2.6173	2.9302	-1.0014	3.4736	-0.4267	25.4217	14.3523
0.4922	0.0228	0.7397	2.6059	0.7852	1.559	3.1919	1.2091	1.943	4.2844	1.0469	2.0853	3.1635	1.283	-0.623	2.5803	-2.5632	2.8392	-0.9644	3.3911	-0.4125	25.5127	14.2983
0.4666	-0.0028	0.7112	2.549	0.7311	1.4964	3.1123	1.1948	1.9004	4.1763	1.0128	2.0455	3.0838	1.2404	-0.6287	2.5746	-2.5063	2.714	-0.9217	3.2716	-0.3897	25.6265	14.2527
0.4523	-0.0057	0.7055	2.4893	0.7197	1.5021	3.0611	1.1835	1.8833	4.0966	0.9843	2.0312	2.9729	1.2119	-0.6316	2.5604	-2.4352	2.5974	-0.8876	3.1834	-0.3613	25.7374	14.2044
0.4466	-0.0256	0.6913	2.4267	0.7197	1.4879	2.9985	1.1778	1.8691	4.0283	0.9758	2.0142	2.9387	1.1835	-0.66	2.549	-2.3897	2.5035	-0.8563	3.0867	-0.3727	25.8683	14.1646
0.4637	0	0.6998	2.4096	0.734	1.5021	2.9416	1.192	1.8748	3.98	0.9815	2.0227	2.8932	1.1749	-0.6543	2.5661	-2.3527	2.4181	-0.7994	3.0156	-0.3272	25.9906	14.1247
0.4865	-0.0085	0.7112	2.3527	0.751	1.5078	2.916	1.2062	1.8748	3.9202	0.9701	2.0056	2.842	1.1493	-0.6714	2.5718	-2.3214	2.3271	-0.7397	2.9302	-0.3016	26.13	14.0792
0.5462	0.0484	0.7368	2.3157	0.7795	1.5448	2.8648	1.2318	1.9117	3.8548	0.9559	2.0056	2.8022	1.1294	-0.6828	2.5746	-2.2702	2.2588	-0.6941	2.8648	-0.2902	26.2552	14.0422
0.5604	0.0996	0.7454	2.2901	0.8079	1.5647	2.8278	1.229	1.9174	3.8121	0.9246	2.0113	2.7624	1.1095	-0.7283	2.5376	-2.2304	2.1735	-0.6799	2.805	-0.2674	26.3918	14.0252
0.5946	0.1735	0.7653	2.2759	0.862	1.5903	2.8107	1.2375	1.9174	3.7723	0.9217	2.0085	2.7254	1.0839	-0.7226	2.5746	-2.1991	2.1223	-0.6458	2.7396	-0.239	26.5255	13.9996
0.6145	0.2191	0.8108	2.2531	0.8961	1.6216	2.788	1.266	1.9487	3.7438	0.8904	2.0312	2.7112	1.0782	-0.7397	2.5518	-2.1564	2.0654	-0.606	2.6884	-0.2589	26.6762	13.9796
0.6515	0.2873	0.8335	2.2503	0.9331	1.6557	2.788	1.2859	1.9658	3.7125	0.8705	2.0369	2.6912	1.0498	-0.7169	2.5433	-2.1251	2.0142	-0.5946	2.6372	-0.2333	26.7787	13.9683
0.6629	0.3471	0.8506	2.2161	0.9502	1.6813	2.7624	1.2802	1.9857	3.6841	0.825	2.0255	2.6685	1.0327	-0.7368	2.5177	-2.0711	1.9715	-0.6116	2.5974	-0.239	26.8811	13.9398
0.6799	0.4125	0.8677	2.2247	0.9872	1.7183	2.768	1.2802	2.0028	3.6585	0.7994	2.0483	2.6599	1.0071	-0.7027	2.5234	-2.0426	1.9373	-0.6003	2.5604	-0.2418	26.9721	13.9114
0.7112	0.4637	0.899	2.2161	1.0213	1.724	2.7652	1.2859	2.0227	3.6585	0.7567	2.0312	2.6429	1.0099	-0.6316	2.5376	-2.0113	1.9089	-0.6003	2.5348	-0.2532	27.0176	13.8886
0.7368	0.4893	0.9217	2.219	1.027	1.7638	2.7794	1.2859	2.0227	3.6556	0.7027	2.0369	2.6343	0.9843	-0.5832	2.5291	-1.9971	1.8861	-0.5917	2.5205	-0.2788	27.0603	13.8658
0.7596	0.5604	0.9559	2.2588	1.0697	1.8065	2.8107	1.2859	2.054	3.6642	0.6913	2.0597	2.6429	0.9786	-0.4979	2.5689	-1.9942	1.8605	-0.5832	2.5149	-0.2987	27.0859	13.8431
0.8023	0.6003	0.9786	2.256	1.0924	1.8349	2.8449	1.2745	2.0654	3.6898	0.6458	2.0426	2.6457	0.9929	-0.3841	2.603	-1.9971	1.8435	-0.6031	2.5149	-0.3016	27.103	13.7947
0.8392	0.6401	0.9985	2.2702	1.1067	1.8719	2.8818	1.2688	2.0938	3.7012	0.6116	2.0597	2.6713	0.99	-0.2646	2.6656	-2.0142	1.8435	-0.6145	2.5063	-0.3101	27.1001	13.7691
0.8848	0.6799	1.0327	2.2901	1.1237	1.9032	2.9046	1.2631	2.1223	3.704	0.5661	2.0767	2.6855	1.0128	-0.1536	2.7481	-2.0511	1.852	-0.6116	2.5376	-0.3186	27.0944	13.7236
0.9473	0.7197	1.0867	2.3584	1.1522	1.9373	2.9757	1.2603	2.1763	3.7524	0.5661	2.0767	2.7112	1.0384	0	2.8335	-2.0995	1.8321	-0.6145	2.5547	-0.3243	27.0944	13.6724
1.0213	0.7766	1.1123	2.3783	1.1806	1.9942	3.0355	1.266	2.2161	3.7865	0.5547	2.1024	2.7254	1.0583	0.0939	2.9046	-2.1308	1.8577	-0.6088	2.5774	-0.3129	27.1001	13.6126
1.0469	0.7681	1.1266	2.3925	1.1579	1.9999	3.0468	1.2347	2.2161	3.8093	0.5149	2.1251	2.7311	1.0668	0.202	2.9672	-2.1507	1.8406	-0.6088	2.5661	-0.3385	27.12	13.57
1.0981	0.8222	1.1607	2.4238	1.1863	2.0426	3.0952	1.2432	2.2389	3.8519	0.5121	2.1223	2.751	1.081	0.2873	3.0355	-2.1678	1.8435	-0.6116	2.6059	-0.3442	27.1428	13.5131
1.1522	0.8421	1.1892	2.4437	1.2119	2.0568	3.1493	1.2574	2.2588	3.8889	0.4979	2.1564	2.8022	1.0867	0.3641	3.1237	-2.182	1.8605	-0.586	2.623	-0.3385	27.1599	13.4647
1.2062	0.8734	1.2062	2.4636	1.2347	2.0796	3.1663	1.2603	2.3043	3.9145	0.495	2.182	2.8164	1.0867	0.3841	3.1692	-2.182	1.8577	-0.5633	2.6543	-0.3414	27.1997	13.3993
1.2233	0.8791	1.2318	2.4693	1.2517	2.108	3.2261	1.2489	2.3186	3.9401	0.4979	2.1905	2.842	1.0896	0.3641	3.2062	-2.1905	1.8264	-0.5491	2.6543	-0.3186	27.2509	13.3538
1.2347	0.9075	1.2005	2.4893	1.2489	2.1393	3.2346	1.2745	2.3328	3.9686	0.4893	2.2048	2.842	1.0867	0.3016	3.2147	-2.1649	1.8264	-0.5348	2.6742	-0.3016	27.2964	13.3225
1.192	0.8961	1.192	2.4978	1.2717	2.1393	3.2744	1.2688	2.3755	3.9913	0.5235	2.2304	2.8619	1.0896	0.1792	3.2261	-2.182	1.8207	-0.4836	2.7112	-0.2703	27.3846	13.2912
1.1835	0.9217	1.1977	2.5035	1.3001	2.145	3.3	1.3029	2.3811	4.0397	0.5377	2.2503	2.8762	1.081	0.0256	3.2261	-2.1763	1.8349	-0.4353	2.7396	-0.2333	27.4643	13.2656
1.1408	0.9132	1.1721	2.4722	1.3086	2.1393	3.3114	1.3029	2.384	4.0568	0.5263	2.2417	2.8875	1.0498	-0.1764	3.1806	-2.1336	1.8008	-0.4068	2.7453	-0.1792	27.5638	13.2542
1.1152	0.8762	1.1635	2.4978	1.2887	2.1564	3.3569	1.3001	2.4096	4.0653	0.5377	2.2816	2.8847	1.0554	-0.3556	3.172	-2.1166	1.8008	-0.3841	2.768	-0.1593	27.6691	13.2343
1.0924	0.8961	1.118	2.4978	1.3172	2.1735	3.3797	1.3314	2.4181	4.0852	0.5804	2.2958	2.9018	1.0298	-0.5946	3.0981	-2.0711	1.7866	-0.3414	2.7766	-0.1223	27.7943	13.2115
1.0583	0.8762	1.1038	2.4864	1.3029	2.1649	3.4053	1.3342	2.4409	4.1108	0.5889	2.3015	2.9018	1.0156	-0.7937	3.0269	-2.0227	1.7695	-0.3129	2.7965	-0.1024	27.9223	13.2286
1.0071	0.8819	1.0754	2.5063	1.3257	2.1536	3.4337	1.3684	2.4779	4.1421	0.623	2.3356	2.9131	0.9957	-0.9616	2.9956	-1.9829	1.7553	-0.2703	2.8193	-0.0597	28.0503	13.2457
0.9957	0.8677	1.0469	2.5149	1.3428	2.1706	3.4508	1.4139	2.5149	4.1706	0.6543	2.3698	2.9131	0.9473	-1.1294	2.933	-1.9117	1.7553	-0.2333	2.8079	-0.037	28.1869	13.2599
0.9445	0.8563	1.0185	2.4949	1.3542	2.1621	3.4593	1.4281	2.5177	4.1763	0.6799	2.3783	2.9018	0.9132	-1.2688	2.8477	-1.8548	1.7069	-0.1849	2.7965	-0.0284	28.3234	13.294
0.9388	0.8335	1.0042	2.5177	1.3741	2.182	3.4878	1.4594	2.5547	4.2132	0.7141	2.4124	2.8989	0.8848	-1.3513	2.7624	-1.7866	1.6813	-0.1337	2.7993	-0.0114	28.4685	13.3339
0.8876	0.7937	0.9587	2.5063	1.3769	2.1706	3.5219	1.4822	2.5604	4.2104	0.7397	2.4267	2.9046	0.8563	-1.3911	2.6884	-1.7126	1.6614	-0.1138	2.7823	0.0057	28.5937	13.3708
0.8506	0.7937	0.9416	2.5348	1.4082	2.1991	3.5447	1.522	2.6002	4.2332	0.788	2.4608	2.9103	0.8222	-1.3883	2.6372	-1.65	1.6557	-0.0512	2.7766	0.0398	28.7274	13.3964
0.8364	0.7425	0.9331	2.5433	1.4167	2.1991	3.5703	1.5476	2.6173	4.2502	0.8051	2.4949	2.8961	0.7795	-1.3826	2.5575	-1.5618	1.6216	0.0057	2.7481	0.0484	28.8526	13.442
0.8222	0.7311	0.9018	2.5547	1.4452	2.1991	3.5959	1.596	2.6543	4.2474	0.8307	2.5149	2.9103	0.7311	-1.3229	2.5063	-1.485	1.5903	0.0541	2.7197	0.0711	28.9578	13.4846
0.7909	0.7027	0.8848	2.5604	1.4423	2.2161	3.6357	1.6273	2.6685	4.2616	0.8506	2.5376	2.9188	0.7084	-1.2802	2.4608	-1.4111	1.5448	0.1166	2.7055	0.0825	29.0574	13.5245
0.7766	0.7027	0.8762	2.5433	1.4907	2.2389	3.6329	1.6898	2.7055	4.2844	0.8904	2.5632	2.9188	0.6714	-1.2176	2.384	-1.3399	1.5135	0.1764	2.6855	0.1138	29.1513	13.5728
0.7397	0.697	0.8563	2.5348	1.5476	2.2275	3.6357	1.7382	2.7055	4.31	0.9331	2.5689	2.9131	0.6344	-1.118	2.3584	-1.2717	1.5106	0.2532	2.6685	0.1109	29.2252	13.6155
0.7226	0.6885	0.8392	2.5575	1.559	2.2361	3.667	1.778	2.7311	4.3213	0.9445	2.5774	2.9274	0.5974	-1.0042	2.3641	-1.1892	1.4793	0.3158	2.6628	0.0939	29.2935	13.6695
0.6543	0.6714	0.8079	2.5234	1.6073	2.2247	3.6699	1.8378	2.7624	4.3185	0.99	2.6059	2.9444	0.5576	-0.8961	2.3157	-1.1237	1.4537	0.3698	2.6286	0.0967	29.3618	13.7065
0.6742	0.697	0.8421	2.5291	1.6642	2.2531	3.6727	1.8947	2.7851	4.3413	1.0156	2.6343	2.9245	0.5235	-0.751	2.3442	-1.0526	1.4082	0.4097	2.6059	0.1337	29.4102	13.735
0.6543	0.7283	0.8392	2.512	1.6984	2.2816	3.6756	1.9743	2.8164	4.3555	1.0384	2.6429	2.9558	0.5007	-0.6173	2.3499	-0.9985	1.3968	0.4637	2.6059	0.128	29.4557	13.7663
0.6486	0.7482	0.8734	2.512	1.7809	2.3242	3.7239	2.0398	2.8762	4.3839	1.0839	2.6969	2.9843	0.4751	-0.4722	2.4039	-0.9445	1.3712	0.5149	2.603	0.128	29.5097	13.8004
0.6543	0.7567	0.8933	2.5234	1.8236	2.3612	3.7268	2.108	2.9274	4.4152	1.1038	2.7254	2.9843	0.4609	-0.3414	2.4409	-0.899	1.357	0.5348	2.6144	0.1138	29.5467	13.8289
0.6429	0.7795	0.9104	2.5177	1.8748	2.3954	3.741	2.1621	2.9672	4.438	1.155	2.7567	3.0099	0.4267	-0.1735	2.4864	-0.8591	1.3172	0.5804	2.5774	0.0939	29.6008	13.8488
0.6856	0.8279	0.9729	2.5319	1.9573	2.475	3.7808	2.2474	3.0156	4.4693	1.2091	2.8022	3.0042	0.421	-0.0541	2.5632	-0.8535	1.3285	0.5974	2.5917	0.1081	29.6776	13.8602
0.7197	0.8449	1.0156	2.5205	2.0255	2.5262	3.8206	2.2958	3.0696	4.5148	1.2631	2.8648	3.0412	0.4182	0.0967	2.6258	-0.8478	1.3029	0.6458	2.6087	0.1223	29.7515	13.8488
0.7681	0.8933	1.0725	2.5319	2.0824	2.6002	3.8662	2.3669	3.1521	4.5632	1.3115	2.9302	3.0611	0.421	0.2589	2.7282	-0.8478	1.2916	0.6515	2.5774	0.1138	29.8227	13.8345
0.8478	0.9388	1.1721	2.5518	2.1735	2.6799	3.9288	2.4466	3.2431	4.6314	1.3883	3.0241	3.1293	0.4324	0.3812	2.8306	-0.8734	1.2887	0.7141	2.5917	0.165	29.9308	13.8175
0.9644	1.0327	1.2859	2.6059	2.2986	2.7993	3.9913	2.5774	3.3598	4.7225	1.522	3.1208	3.1834	0.4466	0.5235	2.9274	-0.9217	1.3143	0.7653	2.6286	0.1991	30.0417	13.7919
1.0697	1.118	1.3997	2.6514	2.3897	2.9131	4.0738	2.6599	3.4593	4.7794	1.596	3.2005	3.2545	0.4666	0.6543	3.0554	-0.953	1.3371	0.825	2.6543	0.2304	30.1413	13.7464
1.1692	1.2318	1.5448	2.7481	2.5291	3.0668	4.1706	2.8022	3.6215	4.9045	1.7211	3.3256	3.3399	0.5149	0.7624	3.1436	-1.0241	1.3542	0.8762	2.6656	0.293	30.2921	13.7264
1.2745	1.3741	1.7069	2.8278	2.6713	3.209	4.2787	2.9274	3.7723	5.0013	1.8349	3.4537	3.4508	0.5462	0.862	3.2545	-1.1067	1.3854	0.9587	2.7026	0.3784	30.4371	13.7094
1.4167	1.5192	1.8748	2.9473	2.8278	3.374	4.4152	3.0895	3.9231	5.1321	1.9829	3.5959	3.5418	0.586	0.9758	3.3882	-1.192	1.4196	1.0327	2.7652	0.4495	30.5851	13.6781
1.5334	1.6472	2.0341	3.0383	3.007	3.5475	4.5319	3.2517	4.0994	5.2545	2.1308	3.741	3.6585	0.6429	1.0668	3.4992	-1.2944	1.4793	1.1294	2.8193	0.5519	30.7615	13.661
1.6984	1.8435	2.2161	3.1834	3.209	3.7637	4.6769	3.4508	4.31	5.4308	2.3129	3.96	3.7922	0.7141	1.2091	3.6215	-1.4281	1.5533	1.2347	2.8961	0.6742	30.9179	13.6582
1.8292	2.0255	2.4295	3.3228	3.3939	3.9629	4.8135	3.613	4.5006	5.5503	2.4807	4.108	3.9344	0.7653	1.3001	3.7182	-1.5561	1.6386	1.3513	2.9729	0.7795	31.1	13.6383
1.9857	2.2304	2.6201	3.4707	3.5959	4.1706	4.97	3.7837	4.7196	5.7039	2.6543	4.2986	4.0795	0.8392	1.4196	3.8576	-1.6898	1.6898	1.4736	3.0497	0.8961	31.2821	13.6383
2.1621	2.4295	2.8193	3.6784	3.7808	4.3839	5.1378	3.96	4.8988	5.8661	2.8193	4.4579	4.2474	0.899	1.5192	3.9913	-1.8065	1.7695	1.596	3.1123	0.9985	31.4585	13.6297
2.2986	2.6002	3.0099	3.815	3.9487	4.5831	5.2829	4.1108	5.0838	5.9856	2.9672	4.6229	4.3526	0.9559	1.5789	4.0568	-1.9174	1.8292	1.6898	3.1692	1.0839	31.6604	13.6269
2.4978	2.788	3.209	3.9913	4.1478	4.7822	5.4365	4.29	5.2801	6.1449	3.118	4.7851	4.492	1.0099	1.6785	4.1819	-2.0198	1.889	1.7496	3.2289	1.1835	31.8567	13.6041
2.6571	2.9871	3.4195	4.162	4.2986	4.9671	5.5901	4.4437	5.4735	6.2985	3.2545	4.9586	4.6257	1.0583	1.724	4.2445	-2.0967	1.9317	1.8406	3.2915	1.2517	32.0559	13.587
2.8278	3.1606	3.5902	4.3555	4.4778	5.1634	5.7495	4.5802	5.6243	6.418	3.3882	5.0951	4.7367	1.0924	1.7866	4.3441	-2.1792	2.0028	1.9146	3.3626	1.2944	32.2465	13.5927
2.9757	3.3256	3.7894	4.5119	4.6286	5.3398	5.8889	4.6969	5.7921	6.5489	3.5049	5.2431	4.8676	1.1152	1.8065	4.3925	-2.2275	2.0369	1.9715	3.3939	1.3485	32.4399	13.5757
3.1834	3.4935	3.9856	4.6656	4.7794	5.5048	6.0254	4.8306	5.9258	6.6655	3.6244	5.3654	4.9842	1.1436	1.8719	4.4835	-2.2901	2.0711	2.0369	3.4423	1.3968	32.5879	13.5671
3.3541	3.6528	4.1592	4.8078	4.9102	5.6613	6.1307	4.9671	6.0852	6.7509	3.7524	5.4792	5.0838	1.1579	1.8861	4.5575	-2.3242	2.1052	2.0938	3.4736	1.4594	32.7386	13.5415
3.5077	3.8007	4.3185	4.9415	5.0411	5.8149	6.2786	5.061	6.2018	6.8789	3.832	5.6015	5.1606	1.1579	1.9089	4.6201	-2.3242	2.1308	2.1223	3.485	1.4765	32.8553	13.5301
3.6841	3.9544	4.5006	5.1122	5.1919	5.9799	6.4066	5.1833	6.344	6.9784	3.9316	5.7153	5.2772	1.1749	1.926	4.6684	-2.3385	2.1678	2.1792	3.5362	1.5192	32.9719	13.5017
3.8178	4.108	4.6229	5.226	5.2914	6.1079	6.492	5.2971	6.4692	7.0837	4.0312	5.812	5.3853	1.1749	1.9544	4.7225	-2.3413	2.1934	2.219	3.5646	1.559	33.063	13.4846
3.9999	4.2559	4.7765	5.3739	5.4052	6.253	6.6228	5.3939	6.5944	7.1918	4.145	5.9258	5.4849	1.1749	1.9942	4.805	-2.347	2.2503	2.2645	3.6073	1.5988	33.1113	13.4363
4.108	4.3754	4.8846	5.4735	5.5133	6.344	6.7139	5.4764	6.7053	7.2771	4.2246	6.0226	5.5731	1.1607	2.017	4.8647	-2.3299	2.2787	2.2986	3.6215	1.6557	33.1597	13.4135
4.2332	4.5006	5.0354	5.6158	5.6129	6.4578	6.8277	5.5759	6.7964	7.3625	4.3043	6.1364	5.6812	1.1607	2.0597	4.9188	-2.3072	2.31	2.3499	3.6756	1.7069	33.191	13.3993
4.3185	4.6485	5.1378	5.721	5.7324	6.5659	6.9272	5.6584	6.8931	7.4365	4.3896	6.2359	5.7438	1.1522	2.0967	4.9614	-2.2873	2.3413	2.4124	3.6983	1.7581	33.2194	13.3651
4.3839	4.731	5.2317	5.7921	5.8035	6.657	7.0012	5.7096	6.9585	7.5019	4.4494	6.3071	5.8035	1.1323	2.1251	4.9984	-2.2816	2.3755	2.458	3.7125	1.8008	33.2393	13.3395
4.475	4.8419	5.3313	5.8803	5.8803	6.7338	7.0809	5.7978	7.041	7.5645	4.5375	6.3839	5.8945	1.1379	2.1792	5.0638	-2.2702	2.4011	2.4636	3.7467	1.8236	33.282	13.3083
4.5802	4.9529	5.4138	5.9714	5.9742	6.8049	7.1577	5.8746	7.0894	7.6612	4.5888	6.4607	5.9714	1.1323	2.2361	5.1179	-2.2702	2.4409	2.5063	3.7979	1.8748	33.3076	13.2798
4.6229	5.0041	5.4906	6.0197	6.0226	6.8419	7.2231	5.9429	7.1634	7.7039	4.6513	6.5176	6.0254	1.1266	2.2503	5.135	-2.2417	2.4466	2.5319	3.8007	1.8748	33.3759	13.277
4.6741	5.0923	5.5532	6.0766	6.0681	6.876	7.2771	5.9856	7.2089	7.7636	4.694	6.5517	6.051	1.118	2.293	5.1634	-2.256	2.4665	2.5718	3.8206	1.9089	33.4555	13.2514
4.7225	5.152	5.6044	6.1051	6.1136	6.9301	7.3113	5.997	7.2402	7.8034	4.7225	6.6058	6.1108	1.1237	2.3499	5.1976	-2.256	2.4779	2.5575	3.8462	1.8918	33.5324	13.2371
4.7765	5.1919	5.6442	6.1563	6.1449	6.9386	7.3511	6.0197	7.2857	7.8291	4.731	6.6029	6.1477	1.1323	2.3897	5.1862	-2.2588	2.4779	2.5461	3.8462	1.8776	33.6348	13.257
4.7851	5.2061	5.6613	6.1733	6.1591	6.9272	7.371	6.0482	7.2971	7.8603	4.7367	6.6115	6.1648	1.1379	2.4238	5.189	-2.2503	2.475	2.5348	3.8462	1.8548	33.7685	13.24
4.8135	5.2545	5.6499	6.1762	6.162	6.9358	7.3568	6.0254	7.2999	7.849	4.7253	6.6115	6.1819	1.1323	2.438	5.152	-2.2645	2.4523	2.5035	3.8206	1.8236	33.9278	13.2314
4.8163	5.2374	5.6442	6.1677	6.1364	6.8902	7.3284	5.9827	7.2572	7.8205	4.6855	6.5773	6.162	1.1266	2.4779	5.1236	-2.2588	2.4238	2.4693	3.7922	1.761	34.1212	13.2257
4.805	5.2146	5.5958	6.1022	6.0852	6.8447	7.2743	5.9486	7.2089	7.7892	4.6428	6.5233	6.1079	1.101	2.4437	5.0126	-2.2247	2.3669	2.4153	3.7609	1.6842	34.3431	13.2087
4.7367	5.1492	5.5389	6.0453	6.0283	6.7907	7.2373	5.8832	7.1605	7.7409	4.5944	6.4777	6.0339	1.0896	2.4494	4.9501	-2.1849	2.3299	2.3641	3.7069	1.6159	34.5878	13.2001
4.6741	5.0895	5.4735	5.9486	5.9628	6.7395	7.1833	5.8177	7.1207	7.6669	4.5375	6.4095	5.9941	1.0782	2.4494	4.8448	-2.1735	2.273	2.3157	3.6556	1.5561	34.8353	13.2001
4.5717	4.9956	5.3455	5.849	5.8661	6.6228	7.0809	5.7267	7.0268	7.5844	4.4664	6.3099	5.8917	1.064	2.3755	4.7424	-2.1365	2.1849	2.2304	3.5817	1.4708	35.1027	13.2001
4.4494	4.9102	5.2545	5.7438	5.7808	6.5375	6.9727	5.6357	6.9187	7.482	4.3612	6.1989	5.8092	1.0498	2.3129	4.6144	-2.0967	2.0967	2.1792	3.502	1.4054	35.3644	13.2087
4.3242	4.8078	5.1407	5.6129	5.6869	6.4322	6.8618	5.5361	6.8277	7.3682	4.29	6.0965	5.7182	1.0241	2.2446	4.5091	-2.0711	2.0227	2.1336	3.4167	1.3456	35.5778	13.2058
4.1677	4.6826	5.0126	5.4792	5.5674	6.3099	6.748	5.4451	6.694	7.2345	4.1819	5.9657	5.5759	1.0128	2.182	4.4038	-2.054	1.9288	2.0824	3.3399	1.2802	35.7798	13.2087
4.0226	4.5546	4.859	5.3284	5.4422	6.1989	6.6342	5.3227	6.5745	7.1008	4.0909	5.8348	5.465	1.0128	2.108	4.3356	-2.0284	1.8691	2.0085	3.2602	1.2119	35.9476	13.2087
3.8889	4.4181	4.7282	5.1919	5.3227	6.0539	6.5033	5.1976	6.4351	6.9642	3.9913	5.7125	5.3455	1.0014	2.0483	4.2417	-2.0113	1.7894	1.9601	3.1663	1.155	36.0671	13.2172
3.7524	4.2986	4.5717	5.0553	5.1947	5.9315	6.3782	5.1122	6.3156	6.8362	3.8861	5.5845	5.2431	0.9929	1.98	4.2275	-2.0028	1.6898	1.9117	3.0895	1.1266	36.1752	13.2087
3.613	4.1706	4.438	4.9102	5.0525	5.8149	6.2302	4.987	6.1876	6.6883	3.778	5.4507	5.098	0.9872	1.9061	4.199	-1.9772	1.6073	1.8577	3.0184	1.064	36.2207	13.2229
3.4935	4.0482	4.3157	4.7794	4.9387	5.7039	6.1136	4.8875	6.0283	6.5489	3.6756	5.3313	4.97	0.9843	1.8719	4.2161	-1.9658	1.5419	1.8406	2.9387	1.0355	36.2492	13.2201
3.3882	3.9487	4.1677	4.6542	4.8078	5.5759	5.9998	4.7708	5.8945	6.4294	3.6016	5.2175	4.8476	0.9673	1.8036	4.2417	-1.9373	1.4708	1.815	2.8989	1.0156	36.252	13.2286
3.2943	3.8235	4.0653	4.529	4.6855	5.4792	5.9031	4.6627	5.7637	6.3014	3.5162	5.0838	4.7282	0.9559	1.7098	4.2445	-1.9061	1.4025	1.7923	2.8249	0.9929	36.2606	13.203
3.1862	3.7211	3.9344	4.4209	4.5688	5.337	5.7808	4.5347	5.6129	6.1648	3.4138	4.9501	4.6144	0.9331	1.6187	4.2872	-1.8776	1.3371	1.761	2.7823	0.9843	36.2435	13.2001
3.0952	3.5987	3.8235	4.3071	4.4294	5.2573	5.6954	4.4266	5.4877	6.0652	3.3313	4.8391	4.5119	0.9246	1.5704	4.3242	-1.852	1.3115	1.7354	2.7481	0.9673	36.2407	13.1774
3.0383	3.5106	3.7296	4.2132	4.3526	5.1577	5.6101	4.3441	5.3853	5.9657	3.2574	4.7338	4.4323	0.9189	1.5135	4.3697	-1.8378	1.2802	1.7211	2.7197	0.9815	36.2407	13.1575
2.953	3.3825	3.6244	4.125	4.236	5.0354	5.5162	4.199	5.2289	5.8576	3.1521	4.6229	4.3299	0.9075	1.4765	4.4095	-1.815	1.2347	1.7012	2.6628	0.9559	36.2463	13.129
2.8818	3.2574	3.5049	4.0425	4.1108	4.9387	5.4308	4.1051	5.1151	5.7381	3.0668	4.5119	4.2417	0.8933	1.4623	4.4351	-1.7866	1.2148	1.6756	2.6486	0.9445	36.2634	13.1148
2.7737	3.1521	3.411	3.98	4.0169	4.8249	5.3512	3.9856	4.9614	5.63	2.9729	4.3896	4.1393	0.862	1.4423	4.4408	-1.7439	1.1778	1.6728	2.6059	0.9274	36.3089	13.0892
2.7083	3.0468	3.2915	3.8975	3.8918	4.7111	5.2715	3.8946	4.859	5.5389	2.8534	4.2673	4.034	0.8535	1.4509	4.4892	-1.7041	1.1522	1.6273	2.5974	0.8904	36.3516	13.0664
2.5888	2.9188	3.172	3.8093	3.7837	4.5916	5.189	3.7723	4.7139	5.4365	2.7339	4.1279	3.9373	0.8193	1.4509	4.5006	-1.6216	1.1067	1.5761	2.5604	0.8193	36.4256	13.0579
2.4921	2.8392	3.0838	3.7239	3.6841	4.4892	5.1094	3.6812	4.5916	5.3398	2.6343	4.0312	3.869	0.771	1.4651	4.4949	-1.5533	1.0611	1.5874	2.512	0.7738	36.5251	13.0693
2.3783	2.7339	2.9615	3.6613	3.6044	4.401	5.061	3.5675	4.475	5.2715	2.5405	3.8946	3.7552	0.7283	1.4907	4.4693	-1.4736	1.0213	1.559	2.5063	0.7254	36.6816	13.0835
2.3015	2.6486	2.8818	3.5874	3.5248	4.3014	5.0098	3.4992	4.3669	5.1919	2.4295	3.7894	3.6613	0.697	1.5277	4.4579	-1.4054	0.9786	1.5135	2.4864	0.6771	36.8352	13.1091
2.2247	2.5604	2.7993	3.5475	3.4366	4.2189	4.9586	3.4138	4.2758	5.1179	2.31	3.6699	3.5646	0.6828	1.5704	4.4693	-1.3513	0.9616	1.4822	2.4693	0.6316	37.0401	13.1632
2.1735	2.4949	2.7424	3.5447	3.3996	4.162	4.9444	3.3683	4.199	5.0895	2.2275	3.5874	3.4906	0.6316	1.6187	4.4238	-1.2859	0.9274	1.4879	2.475	0.6003	37.2705	13.1916
2.1109	2.4238	2.6912	3.5276	3.3285	4.0767	4.8988	3.2972	4.0994	5.0183	2.1137	3.4622	3.4081	0.6202	1.65	4.4238	-1.2404	0.9217	1.485	2.4779	0.5291	37.5009	13.2485
2.0739	2.384	2.6571	3.5248	3.2801	4.034	4.8732	3.2602	4.0226	4.9899	2.054	3.3996	3.32	0.5917	1.6898	4.4038	-1.192	0.899	1.4793	2.4836	0.5092	37.757	13.294
2.0625	2.3271	2.6201	3.5162	3.2488	3.9999	4.8476	3.1891	3.9515	4.9472	1.9373	3.3086	3.2403	0.569	1.7496	4.3925	-1.155	0.8734	1.4509	2.4836	0.4495	37.9931	13.3452
2.0568	2.3186	2.6343	3.5561	3.2175	3.9743	4.8732	3.1749	3.9316	4.9501	1.8833	3.246	3.2005	0.5633	1.7837	4.3868	-1.1522	0.8392	1.4651	2.4722	0.4153	38.2463	13.3993
2.054	2.2674	2.6258	3.5333	3.1862	3.9344	4.8476	3.1407	3.8832	4.9102	1.7923	3.1834	3.1265	0.569	1.8292	4.3725	-1.1493	0.8136	1.4281	2.458	0.3841	38.471	13.4505
2.0853	2.2759	2.6571	3.576	3.1834	3.96	4.8704	3.1265	3.8775	4.8932	1.7268	3.135	3.0781	0.5747	1.8748	4.3754	-1.1607	0.8023	1.4566	2.4722	0.3328	38.6901	13.5017
2.1308	2.2702	2.6713	3.6329	3.2175	3.9544	4.9045	3.1379	3.8605	4.9017	1.7041	3.081	3.0525	0.5946	1.9345	4.4209	-1.2062	0.788	1.4765	2.4665	0.3243	38.9091	13.5728
2.182	2.2873	2.7282	3.6756	3.2232	3.997	4.9501	3.118	3.8349	4.9159	1.6415	3.0582	3.0099	0.6116	1.9829	4.3982	-1.2574	0.7653	1.4964	2.475	0.3016	39.114	13.6383
2.2304	2.2986	2.7538	3.741	3.2431	4.0056	4.9728	3.1237	3.8406	4.933	1.6216	3.0326	2.9729	0.6458	2.0398	4.4664	-1.3115	0.7311	1.4765	2.4324	0.3101	39.2875	13.6866
2.2816	2.3299	2.8306	3.8235	3.2687	4.0539	5.007	3.1436	3.8832	4.9358	1.5874	3.0212	2.9672	0.6799	2.0853	4.4664	-1.3826	0.7311	1.4936	2.4409	0.2816	39.4724	13.7464
2.3385	2.3698	2.8932	3.906	3.3228	4.108	5.0695	3.172	3.8946	4.9728	1.5903	3.0013	2.9558	0.7112	2.1194	4.492	-1.4708	0.7226	1.5135	2.4267	0.2902	39.646	13.8089
2.3811	2.4068	2.9558	4.0113	3.3712	4.1706	5.0923	3.1635	3.9202	4.9899	1.5732	2.9871	2.97	0.7567	2.1308	4.5006	-1.5305	0.7197	1.4992	2.438	0.2731	39.7996	13.8516
2.4437	2.4523	3.0298	4.0938	3.411	4.2218	5.1407	3.1862	3.96	5.0297	1.5732	3.0212	2.9672	0.8079	2.1365	4.492	-1.6244	0.7482	1.522	2.438	0.2873	39.9589	13.8914
2.4779	2.4978	3.1094	4.1677	3.4537	4.2559	5.189	3.2204	3.997	5.0724	1.5704	3.007	2.9814	0.8364	2.1621	4.4778	-1.6955	0.7425	1.5391	2.4466	0.3158	40.1182	13.9483
2.5433	2.5405	3.1806	4.2559	3.5162	4.327	5.2488	3.2716	4.0425	5.1094	1.5846	3.044	3.0127	0.862	2.182	4.4721	-1.761	0.7254	1.5362	2.4352	0.3072	40.2747	13.9853
2.5974	2.6201	3.2687	4.3697	3.5731	4.438	5.317	3.3114	4.1023	5.1862	1.6273	3.0696	3.0525	0.9189	2.2105	4.4892	-1.8548	0.7823	1.5732	2.4551	0.3072	40.4425	14.0308
2.6855	2.7055	3.3825	4.4494	3.6556	4.5176	5.3939	3.3626	4.1763	5.226	1.6415	3.1009	3.0952	0.953	2.2332	4.4892	-1.9288	0.8136	1.5874	2.4807	0.3272	40.6161	14.065
2.7737	2.7794	3.4764	4.5319	3.7097	4.6087	5.4422	3.4195	4.2502	5.2857	1.6642	3.1208	3.1265	0.9957	2.2901	4.5233	-2.0056	0.8279	1.613	2.4864	0.3528	40.7981	14.0963
2.8562	2.8505	3.5731	4.6201	3.7808	4.6741	5.4991	3.465	4.3128	5.3284	1.724	3.1663	3.1777	1.0156	2.3271	4.5347	-2.0568	0.8563	1.6386	2.5063	0.3812	40.9887	14.1361
2.9558	2.9473	3.7069	4.7225	3.8633	4.7964	5.5816	3.5162	4.3868	5.391	1.7723	3.2147	3.2346	1.0498	2.3982	4.5859	-2.1109	0.8848	1.6529	2.5348	0.4125	41.185	14.1333
3.0696	3.0468	3.815	4.8078	3.9231	4.8818	5.6414	3.5817	4.455	5.482	1.8236	3.2744	3.2773	1.0583	2.4466	4.6229	-2.1393	0.8762	1.6927	2.5405	0.4466	41.3984	14.1304
3.1806	3.135	3.9373	4.8932	4.0283	4.987	5.7068	3.6187	4.5091	5.519	1.8861	3.3057	3.3655	1.0754	2.5234	4.6997	-2.1735	0.9303	1.7524	2.5718	0.4865	41.6174	14.1475
3.3029	3.2374	4.0539	4.9899	4.0824	5.0781	5.7779	3.6898	4.5802	5.5816	1.9345	3.3683	3.4195	1.0924	2.5774	4.7964	-2.1849	0.9416	1.7923	2.5689	0.5035	41.8422	14.1304
3.4252	3.3512	4.1791	5.0781	4.1905	5.2032	5.8377	3.778	4.6684	5.6556	2.0085	3.4281	3.465	1.0953	2.6514	4.8846	-2.2076	0.9758	1.8435	2.6087	0.5804	42.0669	14.119
3.5305	3.4167	4.2502	5.1179	4.273	5.2601	5.9031	3.8292	4.7253	5.6954	2.0483	3.4821	3.5049	1.101	2.6998	4.9757	-2.2105	0.9872	1.8719	2.6286	0.6173	42.3002	14.0934
3.5987	3.4878	4.3413	5.1776	4.3071	5.337	5.9258	3.8804	4.7651	5.7352	2.0995	3.5106	3.5532	1.0924	2.7282	5.0582	-2.2048	1.0042	1.8975	2.6486	0.6629	42.4993	14.0707
3.6841	3.5618	4.3925	5.2118	4.364	5.3768	5.9799	3.9031	4.7851	5.7551	2.1109	3.5276	3.6158	1.0839	2.7453	5.1264	-2.1792	1.0042	1.9117	2.6286	0.6543	42.7099	14.0394
3.741	3.6016	4.4408	5.2488	4.3982	5.428	6.0027	3.9231	4.7993	5.7921	2.1592	3.5418	3.6272	1.0697	2.7311	5.2232	-2.1564	1.0185	1.9573	2.6628	0.7169	42.9204	14.0024
3.7694	3.6414	4.4835	5.2658	4.4038	5.4422	6.0197	3.9344	4.8107	5.8234	2.1678	3.5788	3.6357	1.0469	2.6912	5.2545	-2.1194	1.0185	1.9573	2.6656	0.7454	43.111	13.9711
3.8178	3.6841	4.5233	5.2886	4.4266	5.4593	6.0226	3.9657	4.8192	5.8263	2.1792	3.5731	3.6784	1.0298	2.6884	5.3626	-2.091	1.0384	1.9829	2.6827	0.7795	43.276	13.9256
3.8576	3.7239	4.5575	5.2829	4.4323	5.465	6.014	3.98	4.8277	5.8234	2.2019	3.5788	3.6585	1.0042	2.64	5.391	-2.0369	1.0327	2.0028	2.6799	0.7994	43.4666	13.8886
3.8975	3.7296	4.5518	5.3	4.4323	5.4621	6.014	3.98	4.8078	5.8433	2.2019	3.5646	3.6784	0.9872	2.6201	5.4621	-1.9857	1.0355	2.0142	2.7282	0.8222	43.6458	13.8431
3.8918	3.7581	4.5831	5.2914	4.4351	5.4593	6.014	3.9544	4.7623	5.8291	2.1905	3.5589	3.6585	0.9616	2.5831	5.5304	-1.9402	1.027	2.0426	2.6969	0.8364	43.8165	13.7862
3.9373	3.8093	4.5944	5.2687	4.4408	5.4621	6.0083	3.96	4.7623	5.8377	2.1877	3.5475	3.6727	0.936	2.5803	5.6101	-1.8947	1.027	2.0995	2.7026	0.8648	43.973	13.7606
3.9686	3.8462	4.5973	5.2687	4.4437	5.4451	5.9941	3.9544	4.7566	5.812	2.182	3.4992	3.6756	0.9075	2.5319	5.6499	-1.8321	1.0213	2.128	2.7055	0.8762	44.1522	13.7151
4.0056	3.8434	4.6257	5.2715	4.4494	5.4308	5.9827	3.9316	4.731	5.7893	2.1735	3.4963	3.6613	0.8819	2.5319	5.7011	-1.7667	1.0185	2.1592	2.7055	0.8904	44.3115	13.6952
4.0283	3.8804	4.6229	5.2317	4.438	5.3853	5.9571	3.9031	4.6969	5.7694	2.1564	3.4394	3.6215	0.8421	2.5149	5.7551	-1.7069	1.0071	2.1792	2.6969	0.9189	44.4879	13.6809
4.0511	3.9031	4.6457	5.2317	4.438	5.391	5.9628	3.8861	4.6912	5.7466	2.1649	3.4281	3.6244	0.825	2.5177	5.812	-1.6472	1.0014	2.219	2.6799	0.9303	44.6586	13.6525
4.0966	3.9174	4.6428	5.2175	4.4238	5.354	5.9287	3.8605	4.6485	5.7011	2.1251	3.4025	3.5902	0.788	2.5376	5.8206	-1.5874	0.9729	2.2588	2.6486	0.953	44.8378	13.6383
4.1194	3.9316	4.64	5.1947	4.4095	5.3398	5.9088	3.8178	4.6257	5.6755	2.1109	3.3484	3.5931	0.751	2.5376	5.8689	-1.5192	0.953	2.293	2.6258	0.9587	45.0199	13.624
4.1279	3.9288	4.6257	5.1691	4.3839	5.2829	5.8377	3.7894	4.603	5.6357	2.0682	3.2972	3.5646	0.7254	2.5262	5.849	-1.4623	0.9246	2.2787	2.5945	0.9416	45.2219	13.5984
4.125	3.9373	4.6314	5.1492	4.364	5.2545	5.8348	3.7581	4.5745	5.6186	2.0682	3.2773	3.5305	0.6941	2.5746	5.8633	-1.4224	0.899	2.3072	2.5689	0.9473	45.4011	13.5899
4.1194	3.9202	4.6115	5.0951	4.3612	5.2089	5.7978	3.7268	4.5262	5.5759	2.0255	3.2204	3.4935	0.66	2.5689	5.8519	-1.3399	0.8677	2.3385	2.5149	0.9616	45.6031	13.5671
4.071	3.869	4.5688	5.0468	4.2844	5.1492	5.758	3.6699	4.4949	5.5418	1.9942	3.1834	3.4736	0.6287	2.5376	5.8092	-1.2717	0.8193	2.31	2.4693	0.9246	45.7994	13.5529
3.98	3.8406	4.492	5.0013	4.2218	5.0724	5.6926	3.5987	4.3953	5.4593	1.9345	3.0924	3.3768	0.5804	2.4807	5.7694	-1.1778	0.7454	2.31	2.4068	0.8933	46.0099	13.5472
3.9031	3.7837	4.4351	4.97	4.1592	5.0013	5.6214	3.5162	4.3299	5.3711	1.8577	3.0212	3.3256	0.5462	2.4267	5.7068	-1.1067	0.6941	2.2759	2.347	0.8392	46.2233	13.5444
3.8178	3.6983	4.3754	4.9216	4.0852	4.9301	5.5702	3.4281	4.273	5.3227	1.7923	2.9473	3.2716	0.5092	2.3925	5.6812	-1.0327	0.6259	2.2531	2.2787	0.7994	46.4565	13.5358
3.7296	3.5987	4.273	4.8249	4.0113	4.8419	5.5048	3.337	4.1933	5.2402	1.7098	2.879	3.1976	0.4722	2.3157	5.593	-0.9587	0.5661	2.2048	2.2133	0.7397	46.6898	13.5159
3.613	3.502	4.1791	4.7594	3.906	4.7481	5.4451	3.2602	4.1279	5.1577	1.6102	2.7851	3.1322	0.4296	2.2332	5.4991	-0.8734	0.5064	2.1592	2.1621	0.6572	46.9601	13.5074
3.4679	3.3968	4.0966	4.6883	3.7979	4.6656	5.3569	3.1663	4.0113	5.0951	1.5277	2.7055	3.0696	0.3897	2.2161	5.4109	-0.8108	0.4153	2.0995	2.091	0.6031	47.2133	13.5045
3.3854	3.3086	4.034	4.6314	3.7182	4.5859	5.2914	3.0981	3.9686	5.0297	1.4423	2.6201	3.0042	0.367	2.182	5.3398	-0.7653	0.3727	2.0597	2.0341	0.5661	47.4693	13.4903
3.3114	3.209	3.9515	4.5603	3.63	4.5347	5.2488	3.0412	3.9231	4.9757	1.3911	2.5433	2.9444	0.3357	2.1536	5.2744	-0.7226	0.2959	2.0398	1.9829	0.495	47.7339	13.4875
3.2318	3.1578	3.8975	4.5176	3.576	4.4949	5.2118	2.9729	3.8804	4.9216	1.3314	2.4807	2.9103	0.3272	2.108	5.226	-0.6913	0.256	2.0028	1.9829	0.4353	47.9985	13.4932
3.1749	3.0668	3.8206	4.4778	3.485	4.4152	5.1435	2.9018	3.8206	4.8619	1.2603	2.438	2.8363	0.3101	2.0853	5.1805	-0.6458	0.2134	1.9686	1.9459	0.3812	48.2431	13.4932
3.1635	2.9985	3.795	4.4522	3.4508	4.3868	5.1321	2.8762	3.7979	4.8391	1.2233	2.3868	2.8193	0.3044	2.091	5.1606	-0.6316	0.1963	1.943	1.9402	0.3129	48.465	13.4932
3.1293	2.9274	3.778	4.4095	3.3996	4.3782	5.135	2.8363	3.7495	4.8192	1.1721	2.3641	2.788	0.2845	2.0881	5.1321	-0.606	0.1707	1.9032	1.9373	0.256	48.6727	13.496
3.0952	2.8705	3.7581	4.3982	3.3256	4.3498	5.1293	2.7908	3.7495	4.7907	1.118	2.3129	2.7709	0.2902	2.091	5.1748	-0.5974	0.1565	1.889	1.9373	0.1963	48.8605	13.496
3.1094	2.8534	3.7495	4.3754	3.32	4.3583	5.1179	2.7453	3.7467	4.7481	1.118	2.2901	2.7339	0.2816	2.0767	5.1634	-0.5974	0.1138	1.8634	1.9288	0.1422	49.0511	13.4875
3.1094	2.7851	3.7125	4.3782	3.2687	4.3469	5.1008	2.7339	3.7211	4.7139	1.081	2.2702	2.7168	0.2873	2.0824	5.1492	-0.5974	0.0996	1.8321	1.9487	0.0825	49.2217	13.4875
3.0724	2.7396	3.7182	4.3555	3.2574	4.3612	5.1094	2.7083	3.741	4.694	1.0782	2.2588	2.7168	0.2873	2.0938	5.1549	-0.6116	0.1081	1.8122	1.9516	0.0597	49.3868	13.4647
3.0753	2.7197	3.7211	4.3782	3.2346	4.3384	5.1207	2.714	3.7495	4.6855	1.0498	2.2503	2.7026	0.3158	2.1052	5.152	-0.6372	0.0939	1.8008	1.9857	0.037	49.5432	13.4676
3.0326	2.6827	3.6812	4.3526	3.1976	4.3384	5.1094	2.6713	3.7381	4.6457	1.0441	2.256	2.677	0.3272	2.1564	5.1378	-0.6629	0.0939	1.778	1.9829	-0.0114	49.694	13.4505
3.0212	2.6543	3.6784	4.3583	3.1806	4.3384	5.1236	2.6742	3.7637	4.6485	1.0697	2.2787	2.6884	0.3357	2.2019	5.1122	-0.6998	0.1024	1.778	2.0255	-0.0085	49.8675	13.4533
2.97	2.6286	3.6414	4.3469	3.1606	4.3441	5.1321	2.6514	3.7609	4.6314	1.0554	2.2901	2.6713	0.3528	2.2503	5.0781	-0.7226	0.0967	1.7553	2.0568	-0.0284	50.0297	13.4277
2.9501	2.5632	3.5987	4.3555	3.1151	4.3469	5.1151	2.6599	3.7438	4.6087	1.0498	2.2588	2.6571	0.3698	2.3015	5.0724	-0.7567	0.1252	1.7411	2.0853	-0.0284	50.1918	13.405
2.8932	2.5348	3.6016	4.3299	3.1009	4.3327	5.1122	2.64	3.7325	4.5944	1.0213	2.2674	2.6315	0.3954	2.3811	5.0354	-0.7994	0.1536	1.7297	2.1109	-0.0398	50.3654	13.3651
2.8249	2.4864	3.5305	4.2787	3.0611	4.29	5.0553	2.6059	3.6869	4.5404	1.0128	2.2503	2.5831	0.3869	2.4124	5.0155	-0.8051	0.1252	1.7098	2.1052	-0.0683	50.5361	13.3225
2.7794	2.4551	3.502	4.2588	3.0468	4.2673	5.0326	2.6144	3.6812	4.5347	1.0213	2.2389	2.5803	0.3983	2.4665	4.987	-0.825	0.1422	1.7126	2.1393	-0.0853	50.6897	13.2855
2.7624	2.4295	3.4366	4.2388	3.0298	4.2531	5.0326	2.5888	3.6556	4.5205	0.9872	2.2304	2.5575	0.4097	2.5234	4.9557	-0.8535	0.1678	1.7069	2.1706	-0.0512	50.8604	13.2542
2.7453	2.3982	3.4081	4.2161	3.0013	4.2218	5.0098	2.6059	3.6471	4.4977	0.9815	2.2474	2.5177	0.4182	2.5291	4.9842	-0.8392	0.1792	1.7126	2.1905	-0.0626	51.0197	13.2229
2.7197	2.3499	3.3683	4.1962	2.9786	4.2019	5.0013	2.586	3.6386	4.4863	0.9758	2.2161	2.5092	0.4153	2.5803	4.9671	-0.8392	0.202	1.6898	2.2161	-0.0569	51.1705	13.1859
2.6799	2.3271	3.3342	4.1649	2.9643	4.1933	4.9671	2.5917	3.6215	4.4579	0.9445	2.2105	2.4921	0.3869	2.5803	4.9472	-0.8108	0.2105	1.7098	2.2389	-0.0626	51.3326	13.166
2.6742	2.3015	3.2858	4.1677	2.9387	4.1563	4.9557	2.5718	3.6158	4.4693	0.9303	2.1962	2.4636	0.3755	2.6002	4.9728	-0.7852	0.2276	1.7183	2.2503	-0.0541	51.472	13.1546
2.6685	2.2816	3.2801	4.1563	2.933	4.1677	4.9444	2.5746	3.576	4.4664	0.9246	2.1849	2.4409	0.3641	2.6486	4.9472	-0.7425	0.256	1.7154	2.2787	-0.0626	51.6228	13.1432
2.6286	2.2503	3.2374	4.1222	2.9416	4.125	4.9358	2.5661	3.5703	4.455	0.9331	2.1706	2.4295	0.3328	2.6343	4.9643	-0.6885	0.2816	1.7439	2.2901	-0.0512	51.7622	13.1404
2.5718	2.2332	3.2062	4.0795	2.9387	4.0938	4.8846	2.5803	3.5447	4.4607	0.8762	2.1422	2.3897	0.2902	2.5831	4.9245	-0.606	0.2646	1.7496	2.2873	-0.0626	51.8959	13.1347
2.5348	2.1792	3.1493	4.0596	2.9046	4.0454	4.8391	2.5319	3.5077	4.4294	0.8392	2.0995	2.3698	0.2503	2.5518	4.8789	-0.532	0.2873	1.7524	2.293	-0.0626	52.0695	13.1518
2.475	2.1536	3.1208	4.0312	2.8733	4.0312	4.8277	2.5348	3.4992	4.4437	0.8364	2.0967	2.3584	0.202	2.5092	4.8505	-0.4438	0.3044	1.7553	2.3129	-0.091	52.2032	13.1461
2.4039	2.1024	3.0639	4.0141	2.8477	3.9714	4.7879	2.5149	3.4679	4.4294	0.7937	2.0511	2.3214	0.1622	2.4238	4.7993	-0.3385	0.2845	1.7524	2.3043	-0.1109	52.3426	13.1546
2.3242	2.0711	3.0013	3.9885	2.8221	3.9316	4.7452	2.4893	3.4309	4.4095	0.7624	2.0369	2.2844	0.1109	2.3612	4.7367	-0.256	0.293	1.7638	2.3157	-0.1223	52.4962	13.1404
2.2474	1.9942	2.9672	3.943	2.7965	3.906	4.7253	2.475	3.3996	4.3953	0.7197	1.98	2.2361	0.0484	2.2958	4.6457	-0.1394	0.2816	1.7467	2.3157	-0.1536	52.6384	13.1205
2.1962	1.9459	2.9217	3.9117	2.7766	3.8605	4.6684	2.4068	3.3655	4.3953	0.6799	1.9402	2.182	0	2.219	4.6058	-0.0455	0.2845	1.7467	2.293	-0.1991	52.7835	13.0977
2.1336	1.9402	2.9217	3.8975	2.7538	3.8349	4.6371	2.421	3.3427	4.3754	0.66	1.9174	2.1792	-0.0341	2.1564	4.5404	0.0455	0.2987	1.7524	2.3015	-0.2048	52.9258	13.0607
2.0938	1.9004	2.8534	3.8832	2.7197	3.7808	4.6201	2.3698	3.3143	4.364	0.606	1.8833	2.1393	-0.0853	2.0682	4.5006	0.1451	0.2589	1.7411	2.2873	-0.2304	53.0765	13.0238
2.0426	1.8605	2.8221	3.8633	2.6912	3.7581	4.5802	2.3385	3.2716	4.3384	0.5348	1.8492	2.0967	-0.1223	1.9886	4.4181	0.2361	0.2361	1.7098	2.2503	-0.276	53.2444	12.9925
2.0142	1.8321	2.8193	3.8462	2.6855	3.7438	4.5632	2.3271	3.2602	4.3071	0.5149	1.8065	2.0739	-0.1565	1.8918	4.3839	0.2959	0.2276	1.7211	2.2417	-0.2845	53.4265	12.9612
2.0113	1.8093	2.7965	3.832	2.6457	3.7239	4.529	2.3129	3.2431	4.31	0.5121	1.778	2.0511	-0.1878	1.8378	4.3469	0.3414	0.202	1.7354	2.2361	-0.2845	53.6085	12.8957
1.9971	1.7866	2.7965	3.8406	2.6343	3.7239	4.5319	2.2901	3.2175	4.2986	0.4893	1.7496	2.0142	-0.2077	1.7667	4.3242	0.3841	0.1821	1.7411	2.1991	-0.2902	53.8276	12.8588
2.0198	1.7923	2.7908	3.8235	2.6286	3.7268	4.5006	2.2759	3.1976	4.2787	0.4865	1.7183	1.9886	-0.2134	1.6927	4.2758	0.404	0.1792	1.7553	2.1877	-0.2902	54.0381	12.8246
2.0426	1.7837	2.8079	3.8434	2.64	3.7239	4.5176	2.2787	3.1976	4.29	0.4694	1.6984	1.9686	-0.2276	1.6244	4.2758	0.4353	0.165	1.7923	2.1905	-0.2845	54.2685	12.7677
2.0511	1.798	2.8392	3.8605	2.6315	3.7239	4.5148	2.2787	3.1919	4.2616	0.4637	1.6813	1.9686	-0.2447	1.5903	4.2474	0.4694	0.1394	1.7866	2.1792	-0.2703	54.4961	12.7364
2.0625	1.8065	2.8278	3.8918	2.6372	3.7154	4.5091	2.2986	3.1919	4.2445	0.4523	1.6386	1.9487	-0.2646	1.5732	4.2531	0.4979	0.1394	1.798	2.1564	-0.2447	54.7209	12.6881
2.0938	1.8065	2.8505	3.8804	2.64	3.7268	4.5034	2.293	3.1948	4.236	0.441	1.6244	1.9317	-0.2845	1.5448	4.2644	0.5291	0.1195	1.8122	2.1536	-0.2361	54.9541	12.6738
2.1109	1.7894	2.8591	3.8918	2.6258	3.7211	4.5006	2.2674	3.1749	4.2189	0.4182	1.6045	1.9174	-0.2816	1.5049	4.2388	0.5576	0.1024	1.8036	2.1365	-0.2219	55.1675	12.6568
2.0967	1.7752	2.8534	3.8946	2.6116	3.7182	4.5006	2.2674	3.1549	4.1905	0.4324	1.5789	1.8833	-0.3072	1.4736	4.2388	0.5917	0.074	1.8207	2.0767	-0.1991	55.3837	12.6369
2.0796	1.7354	2.8477	3.8832	2.6201	3.7097	4.5063	2.2588	3.1606	4.1933	0.3954	1.5362	1.8662	-0.33	1.4651	4.2075	0.6287	0.0512	1.8321	2.0483	-0.202	55.6028	12.6369
