"FZ"	"FC3"	"FCZ"	"FC4"	"C3"	"CZ"	"C4"	"CP3"	"CPZ"	"CP4"	"P3"	"PZ"	"P4"	"OZ"	"FP1"	"FP2"	"A2"	"P8"	"TP7"	"TP8"	"P7"
-0.1826	-0.2562	-0.4299	-0.1178	-0.3946	-0.4535	0	-0.3534	-0.318	-0.0353	-0.0206	-0.2562	-0.0442	0.159	0.1649	0.7362	-0.3269	0.4211	-0.0618	0.3769	0.1148
-0.2032	-0.2591	-0.427	-0.1325	-0.3828	-0.4594	0.0088	-0.3416	-0.3357	-0.0265	-0.0294	-0.2356	-0.0736	0.159	0.1119	0.7421	-0.3004	0.4181	-0.0766	0.3475	0.0854
-0.2238	-0.2591	-0.4152	-0.1561	-0.3622	-0.4623	0.0147	-0.3357	-0.3121	-0.0383	-0.0324	-0.2356	-0.0648	0.1413	0.1119	0.7303	-0.2709	0.4034	-0.0913	0.3151	0.0559
-0.2297	-0.2621	-0.4329	-0.1737	-0.3357	-0.4417	-0.0059	-0.2945	-0.321	-0.0324	-0.0265	-0.2091	-0.0412	0.1237	0.1119	0.7244	-0.2444	0.3975	-0.1119	0.3151	0.0353
-0.2621	-0.2415	-0.4564	-0.1943	-0.3357	-0.4564	0.0177	-0.2768	-0.3062	-0.0265	-0.0324	-0.1796	-0.0501	0.1119	0.0766	0.6949	-0.2002	0.371	-0.1001	0.2915	0.0324
-0.2768	-0.2474	-0.4623	-0.2415	-0.318	-0.48	-0.0147	-0.265	-0.3004	-0.053	-0.0471	-0.2002	-0.0559	0.0736	0.0471	0.6331	-0.1384	0.3298	-0.1178	0.2179	-0.0118
-0.3004	-0.2768	-0.48	-0.2768	-0.3269	-0.4947	-0.0618	-0.2532	-0.3298	-0.0736	-0.0766	-0.2061	-0.1031	0.0412	0.0059	0.5654	-0.0677	0.2709	-0.1325	0.1413	-0.0442
-0.3062	-0.2621	-0.4711	-0.3062	-0.3033	-0.4711	-0.0648	-0.2297	-0.3239	-0.0913	-0.0736	-0.2032	-0.0883	0.0177	-0.0029	0.5212	-0.0206	0.212	-0.1413	0.109	-0.0471
-0.2797	-0.2503	-0.4711	-0.3416	-0.3033	-0.4888	-0.0913	-0.2179	-0.318	-0.1296	-0.0648	-0.1943	-0.1531	-0.0177	-0.0118	0.4682	0.0236	0.162	-0.1531	0.0471	-0.0913
-0.3092	-0.2356	-0.48	-0.371	-0.2709	-0.4888	-0.1325	-0.2091	-0.3298	-0.1561	-0.0913	-0.2238	-0.1472	-0.0412	-0.0442	0.4299	0.0883	0.1355	-0.1502	-0.0059	-0.1148
-0.3298	-0.2444	-0.4918	-0.427	-0.2709	-0.4888	-0.1796	-0.1737	-0.371	-0.1943	-0.1178	-0.2238	-0.1796	-0.0825	-0.0854	0.3975	0.159	0.0559	-0.1325	-0.0618	-0.1266
-0.3092	-0.2238	-0.4623	-0.4123	-0.2474	-0.5094	-0.215	-0.1325	-0.3593	-0.2091	-0.1178	-0.2297	-0.2238	-0.109	-0.0913	0.321	0.2179	-0.0177	-0.1502	-0.1207	-0.1384
-0.321	-0.1796	-0.4476	-0.4476	-0.2179	-0.4653	-0.2297	-0.109	-0.3563	-0.2709	-0.1207	-0.2326	-0.2326	-0.1355	-0.0972	0.2797	0.2621	-0.0707	-0.1502	-0.1767	-0.1678
-0.3092	-0.1914	-0.4329	-0.4623	-0.2091	-0.4947	-0.2709	-0.0883	-0.3563	-0.2945	-0.1384	-0.2297	-0.2739	-0.1502	-0.106	0.2356	0.318	-0.1443	-0.1561	-0.2356	-0.1796
-0.3239	-0.1885	-0.424	-0.4918	-0.1826	-0.4859	-0.2797	-0.0825	-0.3681	-0.3121	-0.1502	-0.2238	-0.2768	-0.2002	-0.0972	0.2061	0.3681	-0.1973	-0.1649	-0.2768	-0.2356
-0.3033	-0.1472	-0.3858	-0.4829	-0.1531	-0.4564	-0.3004	-0.0265	-0.3298	-0.3357	-0.1384	-0.215	-0.2915	-0.1973	-0.0589	0.1531	0.3916	-0.2415	-0.1561	-0.2974	-0.2326
-0.2974	-0.1296	-0.3769	-0.5065	-0.1355	-0.4211	-0.3239	0.0059	-0.3327	-0.3327	-0.1325	-0.2061	-0.2886	-0.215	-0.0559	0.1119	0.4152	-0.2739	-0.1649	-0.3386	-0.268
-0.2827	-0.1266	-0.3327	-0.4888	-0.1001	-0.4005	-0.3357	0.0324	-0.3092	-0.3416	-0.1031	-0.1737	-0.2886	-0.212	-0.0294	0.0942	0.4181	-0.3062	-0.1355	-0.3593	-0.2562
-0.2886	-0.1031	-0.3298	-0.4977	-0.0766	-0.3681	-0.3357	0.0471	-0.3239	-0.3386	-0.0854	-0.1649	-0.2856	-0.212	-0.0236	0.0294	0.4358	-0.3062	-0.1443	-0.3563	-0.265
-0.2591	-0.0825	-0.2797	-0.4741	-0.0471	-0.321	-0.3151	0.0883	-0.268	-0.3062	-0.0353	-0.1296	-0.2415	-0.2091	-0.0147	-0.0147	0.4123	-0.3033	-0.1325	-0.3504	-0.2326
-0.2326	-0.0677	-0.2385	-0.4623	-0.0118	-0.2709	-0.3033	0.1207	-0.2209	-0.2915	-0.0059	-0.0883	-0.1943	-0.1914	0.0206	-0.053	0.3769	-0.2621	-0.1296	-0.318	-0.2061
-0.2562	-0.0854	-0.2474	-0.4623	-0.0118	-0.265	-0.3151	0.1207	-0.2209	-0.3004	-0.0236	-0.0854	-0.2002	-0.1914	0	-0.1531	0.374	-0.2827	-0.1384	-0.3239	-0.2415
-0.2091	-0.0559	-0.215	-0.4564	0	-0.215	-0.2797	0.162	-0.1355	-0.2532	0.0324	-0.0324	-0.162	-0.1767	0.0265	-0.2002	0.3298	-0.2415	-0.106	-0.2827	-0.2061
-0.1885	-0.0883	-0.1885	-0.4358	0.0088	-0.1826	-0.2562	0.159	-0.1237	-0.2297	0.0854	0.0059	-0.1207	-0.1413	0.0294	-0.2326	0.265	-0.215	-0.109	-0.2474	-0.1502
-0.1796	-0.053	-0.1678	-0.3975	0.0206	-0.1237	-0.2179	0.2091	-0.0648	-0.1678	0.1325	0.0471	-0.0648	-0.1119	0.0501	-0.2709	0.212	-0.1737	-0.0854	-0.2061	-0.1178
-0.1531	-0.0589	-0.162	-0.3563	0.0471	-0.0795	-0.1855	0.2297	-0.0118	-0.1325	0.1737	0.0913	0.0059	-0.0707	0.0147	-0.2797	0.1531	-0.1472	-0.0913	-0.1531	-0.0854
-0.1001	-0.0501	-0.1119	-0.3269	0.0618	-0.0353	-0.1296	0.2709	0.0442	-0.0648	0.2385	0.1561	0.0648	-0.0265	0.0353	-0.2915	0.0648	-0.0677	-0.0618	-0.106	-0.0442
-0.0972	-0.0795	-0.0883	-0.2974	0.0736	0.0236	-0.0972	0.2856	0.1237	0	0.2709	0.2326	0.1148	0.0088	0.0324	-0.2827	-0.0088	-0.0059	-0.0294	-0.0442	-0.0147
-0.0707	-0.0736	-0.0736	-0.2768	0.0766	0.0412	-0.0795	0.268	0.1737	0.0442	0.321	0.2709	0.1914	0.0618	0.053	-0.2532	-0.0795	0.0412	-0.0088	-0.0177	0.0412
-0.0766	-0.0825	-0.0854	-0.2562	0.0795	0.0648	-0.0294	0.2856	0.2032	0.1031	0.3386	0.3121	0.2415	0.0795	0.0294	-0.2532	-0.1384	0.0883	0	0.0324	0.0766
-0.0412	-0.0648	-0.0618	-0.2179	0.106	0.106	0	0.3327	0.2591	0.1708	0.3946	0.3563	0.318	0.1148	0.0206	-0.2002	-0.2091	0.162	0.0501	0.106	0.1266
-0.0412	-0.1001	-0.0471	-0.1767	0.109	0.1207	0.0147	0.3298	0.2974	0.2209	0.4093	0.3887	0.374	0.1296	-0.0442	-0.159	-0.2503	0.2061	0.053	0.1531	0.1649
-0.0324	-0.0766	-0.0324	-0.1472	0.109	0.159	0.0383	0.3239	0.3445	0.2474	0.4594	0.4093	0.4181	0.1649	-0.0324	-0.106	-0.3062	0.2591	0.0589	0.2179	0.2297
-0.0324	-0.1001	-0.0206	-0.1472	0.0913	0.1708	0.0854	0.318	0.3593	0.3062	0.4859	0.4564	0.4741	0.1855	-0.0383	-0.053	-0.3593	0.318	0.0648	0.265	0.2444
-0.0177	-0.1001	-0.0118	-0.1178	0.109	0.1767	0.109	0.3151	0.3975	0.3445	0.4947	0.4888	0.5006	0.2032	-0.0825	0.0118	-0.3975	0.3622	0.0766	0.3004	0.268
0.0147	-0.0736	0.0177	-0.0854	0.1207	0.2091	0.1178	0.3121	0.4034	0.3651	0.4918	0.4977	0.53	0.2238	-0.0795	0.0589	-0.4358	0.3975	0.0942	0.3475	0.2886
-0.0029	-0.0677	0.0442	-0.0589	0.1325	0.2385	0.1472	0.3033	0.4329	0.3828	0.4977	0.5006	0.5565	0.2415	-0.0942	0.1148	-0.4594	0.4064	0.0736	0.3799	0.2768
0.0118	-0.0589	0.0471	-0.0442	0.1148	0.215	0.1413	0.2591	0.424	0.4123	0.4741	0.5065	0.5595	0.2474	-0.1031	0.1384	-0.4829	0.4329	0.0825	0.4181	0.2709
0.0442	-0.0501	0.0766	-0.0029	0.1325	0.2385	0.1708	0.2532	0.4181	0.4093	0.4446	0.4977	0.5536	0.265	-0.0972	0.1767	-0.5065	0.4358	0.0589	0.4181	0.2621
0.0795	-0.0088	0.109	0.0324	0.1472	0.265	0.1826	0.2356	0.4446	0.4299	0.4329	0.5124	0.5565	0.2856	-0.106	0.1943	-0.5418	0.4446	0.0648	0.4358	0.2562
0.1001	-0.0236	0.1443	0.0648	0.159	0.2415	0.1737	0.2002	0.4299	0.4034	0.3916	0.477	0.5153	0.2856	-0.0736	0.2297	-0.5536	0.4329	0.0589	0.4329	0.1855
0.1001	-0.0118	0.1502	0.0559	0.1148	0.2444	0.1826	0.1708	0.4123	0.424	0.318	0.4446	0.4829	0.2856	-0.106	0.2238	-0.5624	0.4181	0.0206	0.4152	0.1531
0.1001	0.0059	0.1708	0.0825	0.1178	0.2503	0.1767	0.1708	0.4005	0.4005	0.268	0.4181	0.4682	0.2915	-0.0854	0.2562	-0.5801	0.3887	0.0177	0.4093	0.0942
0.1443	0.0206	0.1973	0.1031	0.109	0.2474	0.1678	0.1472	0.3769	0.3887	0.215	0.374	0.4388	0.3062	-0.0883	0.2326	-0.586	0.3445	-0.0059	0.3651	0.0265
0.1443	0.0088	0.2209	0.1207	0.1031	0.2091	0.162	0.0942	0.3534	0.3622	0.162	0.3298	0.4064	0.3121	-0.0972	0.2032	-0.5978	0.3151	-0.0383	0.3534	-0.0206
0.1325	0.0471	0.2356	0.1355	0.1266	0.2238	0.1708	0.0883	0.3357	0.374	0.1296	0.318	0.3593	0.3092	-0.0883	0.2326	-0.6154	0.2915	-0.0501	0.3504	-0.0559
0.1355	0.0589	0.2739	0.1649	0.1237	0.2356	0.162	0.0707	0.3151	0.3681	0.0913	0.2856	0.3151	0.3004	-0.0795	0.2267	-0.6184	0.2532	-0.0677	0.2945	-0.109
0.1178	0.0383	0.2797	0.1678	0.1296	0.2238	0.1531	0.0412	0.3151	0.3298	0.0501	0.2415	0.2591	0.318	-0.1031	0.2179	-0.6095	0.2061	-0.0766	0.2827	-0.159
0.1472	0.0942	0.3121	0.2002	0.162	0.2356	0.1502	0.0324	0.3269	0.3269	0.0118	0.2179	0.2444	0.3033	-0.0825	0.2032	-0.6037	0.1708	-0.0707	0.2562	-0.1943
0.1443	0.0972	0.321	0.2267	0.1649	0.2267	0.162	0.0294	0.3033	0.3092	-0.0147	0.2002	0.212	0.2915	-0.0972	0.215	-0.5772	0.1443	-0.0589	0.2238	-0.2091
0.1413	0.0942	0.3563	0.2267	0.1826	0.2356	0.1708	0.0618	0.2974	0.3151	-0.0383	0.1767	0.1973	0.2974	-0.0766	0.2061	-0.5742	0.1502	-0.0559	0.2209	-0.215
0.1472	0.1296	0.3916	0.2444	0.212	0.2474	0.2061	0.053	0.2945	0.3239	-0.0471	0.1737	0.1678	0.2827	-0.0559	0.2326	-0.5536	0.1266	-0.0353	0.1973	-0.2385
0.1502	0.162	0.3916	0.2739	0.2562	0.265	0.212	0.0825	0.2945	0.318	-0.0677	0.162	0.159	0.268	-0.0324	0.2591	-0.5418	0.109	-0.0118	0.1855	-0.2267
0.1678	0.1943	0.424	0.2886	0.268	0.2768	0.2326	0.1001	0.3092	0.3357	-0.0559	0.1384	0.1502	0.265	0.0059	0.2503	-0.5153	0.0825	0.0236	0.2002	-0.2209
0.1826	0.2326	0.4446	0.3033	0.2886	0.3004	0.2621	0.1237	0.3357	0.3151	-0.0383	0.1561	0.159	0.2474	0.0118	0.2532	-0.4918	0.0736	0.0471	0.1914	-0.2209
0.1973	0.2385	0.4859	0.3534	0.3298	0.318	0.2768	0.1119	0.3092	0.3386	-0.0383	0.1443	0.1384	0.2238	0.0412	0.2385	-0.4535	0.0648	0.0442	0.1855	-0.2002
0.2091	0.2797	0.477	0.3534	0.318	0.3357	0.3092	0.1325	0.2915	0.3269	-0.0648	0.1266	0.1355	0.2061	0.0913	0.2238	-0.4123	0.053	0.0412	0.1767	-0.2002
0.2356	0.2827	0.48	0.374	0.3269	0.3593	0.3033	0.1148	0.2827	0.3062	-0.0707	0.1031	0.106	0.1855	0.0913	0.1855	-0.3593	0.0265	0.0442	0.1443	-0.1826
0.2474	0.3269	0.4947	0.3946	0.3769	0.371	0.3475	0.162	0.3033	0.3239	-0.0501	0.1207	0.1384	0.1678	0.1325	0.1855	-0.3239	0.0177	0.0677	0.1855	-0.1826
0.2739	0.3681	0.5035	0.4211	0.3828	0.3975	0.3681	0.1737	0.2856	0.318	-0.0501	0.109	0.1266	0.1413	0.1531	0.1502	-0.2709	0.0118	0.0707	0.1737	-0.1649
0.2591	0.3946	0.4859	0.4505	0.3651	0.4152	0.3504	0.1561	0.2709	0.2768	-0.0559	0.0883	0.106	0.1001	0.1649	0.109	-0.212	-0.0147	0.0854	0.1325	-0.1266
0.2827	0.374	0.4741	0.4005	0.3681	0.4152	0.3622	0.162	0.2532	0.2562	-0.0648	0.0677	0.0913	0.0825	0.1737	0.1031	-0.1531	-0.0324	0.0913	0.1325	-0.1237
0.2739	0.3828	0.4623	0.4299	0.371	0.3975	0.3357	0.1767	0.2326	0.2444	-0.0707	0.0501	0.0795	0.0442	0.1973	0.0766	-0.0883	-0.0648	0.1207	0.1148	-0.1148
0.3062	0.4093	0.4682	0.4653	0.3651	0.4064	0.3475	0.1708	0.2209	0.2179	-0.0589	0.0412	0.0589	0.0206	0.2179	0.0854	-0.0324	-0.0795	0.1472	0.0942	-0.0913
0.321	0.4123	0.424	0.4358	0.3475	0.4211	0.3151	0.1678	0.2091	0.1855	-0.0501	0.0412	0.0471	-0.0147	0.2238	0.0677	0.0412	-0.1237	0.162	0.0442	-0.0766
0.321	0.4034	0.4446	0.427	0.3593	0.424	0.3062	0.1561	0.1885	0.1678	-0.0412	0.0147	0.0471	-0.0501	0.212	0.0883	0.106	-0.1649	0.1826	0.0383	-0.0559
0.3269	0.4181	0.4446	0.4623	0.3416	0.4211	0.3033	0.162	0.1885	0.1561	-0.0589	0.0118	0.0147	-0.0766	0.212	0.0972	0.159	-0.1737	0.1855	0.0088	-0.0206
0.3445	0.4329	0.4329	0.4623	0.3269	0.4093	0.3033	0.1443	0.1649	0.1384	-0.0324	0.0088	0.0236	-0.0942	0.2297	0.0795	0.212	-0.1737	0.1914	-0.0029	0.0118
0.3622	0.4181	0.4299	0.4535	0.3357	0.4093	0.2709	0.1413	0.1502	0.1266	-0.0206	0.0147	0.0059	-0.1384	0.215	0.0942	0.2768	-0.1943	0.215	-0.0471	0.0618
0.374	0.4358	0.4299	0.4711	0.3151	0.4181	0.2739	0.159	0.1502	0.1001	-0.0353	0.0088	-0.0059	-0.159	0.2297	0.1178	0.3298	-0.1943	0.2415	-0.0766	0.0913
0.3946	0.4329	0.4388	0.48	0.3092	0.4211	0.2709	0.1767	0.1649	0.1119	0.0088	0.0324	0.0147	-0.1737	0.2356	0.162	0.3534	-0.1796	0.268	-0.0766	0.1531
0.3975	0.4152	0.4535	0.5065	0.2945	0.4093	0.2415	0.1355	0.1678	0.0972	-0.0147	0.0177	0.0059	-0.2238	0.2385	0.1531	0.427	-0.1855	0.265	-0.1266	0.1678
0.4388	0.4005	0.4535	0.5006	0.2827	0.4152	0.2562	0.1237	0.1855	0.0913	0.0029	0.0177	-0.0088	-0.2297	0.2621	0.1914	0.4623	-0.1767	0.2827	-0.1207	0.2002
0.4417	0.3887	0.4505	0.5006	0.2591	0.3769	0.2238	0.1148	0.1767	0.0766	0.0177	0.0412	0.0029	-0.2444	0.2503	0.1885	0.4888	-0.2032	0.2621	-0.1296	0.1973
0.4388	0.3769	0.4211	0.4977	0.212	0.371	0.2238	0.0854	0.1649	0.0559	0.0236	0.0412	-0.0236	-0.2474	0.2267	0.2002	0.5006	-0.1767	0.2562	-0.1355	0.2209
0.4594	0.3357	0.4152	0.4918	0.1443	0.3445	0.2061	0.0559	0.1355	0.0353	0.0029	0.0265	-0.0324	-0.2591	0.1885	0.1472	0.53	-0.1678	0.2326	-0.1384	0.2209
0.4388	0.2915	0.3916	0.4623	0.1413	0.3121	0.1855	0.0294	0.1443	0.0324	-0.0294	-0.0029	-0.0559	-0.2709	0.1443	0.106	0.5418	-0.1531	0.215	-0.1355	0.2267
0.4417	0.2621	0.371	0.4711	0.109	0.2974	0.162	0.0206	0.1355	0.0029	-0.0118	0.0059	-0.0618	-0.2709	0.1237	0.053	0.5389	-0.1472	0.1914	-0.1119	0.2267
0.4005	0.215	0.3563	0.4299	0.0707	0.2503	0.1384	0.0118	0.109	-0.0294	-0.0353	-0.0059	-0.0707	-0.2739	0.1148	-0.0265	0.5565	-0.1148	0.1885	-0.106	0.2415
0.3799	0.159	0.318	0.3769	0.0442	0.1885	0.106	-0.0353	0.0736	-0.0471	-0.0383	-0.0118	-0.0618	-0.2709	0.0795	-0.1119	0.5477	-0.0972	0.1737	-0.106	0.2709
0.3298	0.1355	0.2739	0.3593	0.0059	0.1767	0.0825	-0.0471	0.053	-0.053	-0.053	-0.0294	-0.0913	-0.2797	0.0412	-0.1737	0.5477	-0.0825	0.1826	-0.1237	0.2709
0.2621	0.0795	0.1885	0.2797	-0.053	0.0942	0.0088	-0.0854	0.0177	-0.0854	-0.0707	-0.0471	-0.1266	-0.2709	0.0088	-0.2356	0.5624	-0.109	0.1472	-0.1384	0.2739
0.2209	0.0442	0.1472	0.2356	-0.0825	0.0294	-0.0412	-0.1001	-0.0353	-0.1296	-0.0825	-0.0648	-0.1678	-0.2797	-0.0088	-0.3092	0.5565	-0.106	0.1531	-0.1531	0.2915
0.1796	-0.0177	0.0736	0.1737	-0.1296	-0.0147	-0.0766	-0.1207	-0.0648	-0.159	-0.0942	-0.0795	-0.1767	-0.2797	-0.0236	-0.3416	0.5654	-0.1266	0.1472	-0.1472	0.2797
0.1148	-0.0677	0.0029	0.0854	-0.2061	-0.0707	-0.1266	-0.1708	-0.1355	-0.2179	-0.1148	-0.1119	-0.2061	-0.2856	-0.0265	-0.4005	0.5683	-0.1119	0.106	-0.1826	0.2591
0.0353	-0.1207	-0.053	0.0353	-0.2385	-0.1413	-0.1885	-0.1914	-0.1561	-0.2768	-0.1237	-0.1443	-0.2297	-0.2739	-0.0412	-0.4388	0.5565	-0.109	0.1001	-0.1855	0.2591
-0.0383	-0.1561	-0.1296	-0.0501	-0.2562	-0.1943	-0.2385	-0.2209	-0.2179	-0.3004	-0.1443	-0.1826	-0.2562	-0.2562	-0.0412	-0.4977	0.533	-0.1355	0.0795	-0.1973	0.2562
-0.0883	-0.1914	-0.2002	-0.1031	-0.2886	-0.2415	-0.2709	-0.2591	-0.2739	-0.3563	-0.2032	-0.2209	-0.2886	-0.2591	-0.0707	-0.53	0.5124	-0.159	0.053	-0.2326	0.2209
-0.1502	-0.212	-0.2326	-0.1531	-0.3475	-0.2856	-0.321	-0.2915	-0.3151	-0.3593	-0.215	-0.2297	-0.3269	-0.2297	-0.0766	-0.5536	0.48	-0.1472	0.0206	-0.2474	0.2061
-0.1973	-0.2591	-0.2886	-0.2238	-0.3858	-0.3504	-0.3593	-0.3239	-0.3681	-0.3975	-0.2385	-0.2827	-0.3445	-0.2002	-0.0766	-0.583	0.424	-0.1855	-0.0177	-0.2562	0.1561
-0.265	-0.2886	-0.3593	-0.2945	-0.4211	-0.3887	-0.3828	-0.3799	-0.4152	-0.4535	-0.2797	-0.3357	-0.374	-0.1826	-0.1148	-0.639	0.3769	-0.215	-0.0589	-0.265	0.1296
-0.3033	-0.3004	-0.4064	-0.3239	-0.4564	-0.4329	-0.4005	-0.4123	-0.4358	-0.4682	-0.2974	-0.3416	-0.4093	-0.1384	-0.1355	-0.6684	0.3004	-0.2061	-0.0736	-0.2709	0.1237
-0.3445	-0.3357	-0.4682	-0.371	-0.4682	-0.4741	-0.4417	-0.4358	-0.5006	-0.5035	-0.3121	-0.3593	-0.4034	-0.106	-0.1796	-0.6891	0.2356	-0.2209	-0.1178	-0.3004	0.0766
-0.374	-0.3445	-0.5035	-0.3799	-0.4918	-0.48	-0.4535	-0.4564	-0.5212	-0.5153	-0.3357	-0.3858	-0.4123	-0.0766	-0.2002	-0.6949	0.1649	-0.2002	-0.1355	-0.2915	0.0589
-0.4152	-0.3386	-0.533	-0.4005	-0.4947	-0.5035	-0.4417	-0.4711	-0.5359	-0.5242	-0.3593	-0.4093	-0.4181	-0.0442	-0.2326	-0.7745	0.0942	-0.215	-0.1678	-0.2562	0.0324
-0.427	-0.3681	-0.5271	-0.4064	-0.4859	-0.5094	-0.4446	-0.4564	-0.5389	-0.5006	-0.3593	-0.4034	-0.4123	0.0177	-0.268	-0.7892	0.0059	-0.1973	-0.1649	-0.2532	0.0118
-0.4093	-0.318	-0.5359	-0.3916	-0.4594	-0.4888	-0.427	-0.4653	-0.5271	-0.4947	-0.321	-0.371	-0.4123	0.0501	-0.3121	-0.801	-0.0736	-0.2002	-0.1531	-0.2356	-0.0029
-0.4211	-0.2945	-0.5448	-0.3681	-0.4623	-0.5035	-0.4123	-0.477	-0.5242	-0.4711	-0.3563	-0.3887	-0.4034	0.0795	-0.3475	-0.8039	-0.1355	-0.1855	-0.159	-0.2002	-0.0236
-0.4329	-0.3004	-0.5448	-0.374	-0.4682	-0.4977	-0.3828	-0.4623	-0.5477	-0.4388	-0.3681	-0.3946	-0.3975	0.109	-0.3887	-0.8186	-0.1943	-0.1855	-0.1561	-0.1708	-0.0412
-0.4211	-0.2739	-0.5389	-0.3298	-0.4034	-0.48	-0.3504	-0.4505	-0.5242	-0.4211	-0.3622	-0.4005	-0.371	0.1384	-0.3799	-0.7627	-0.2621	-0.1796	-0.1649	-0.1413	-0.0589
-0.3916	-0.2297	-0.5153	-0.2886	-0.4093	-0.4476	-0.2886	-0.4476	-0.5242	-0.371	-0.3651	-0.3916	-0.3681	0.162	-0.374	-0.7421	-0.321	-0.162	-0.1767	-0.1001	-0.0677
-0.374	-0.1885	-0.4977	-0.2415	-0.3828	-0.4064	-0.2709	-0.4417	-0.4918	-0.3327	-0.3504	-0.3769	-0.3386	0.1973	-0.3799	-0.6979	-0.3651	-0.1502	-0.1855	-0.0677	-0.0854
-0.3269	-0.1531	-0.4505	-0.1737	-0.3563	-0.3887	-0.215	-0.4181	-0.4888	-0.268	-0.3504	-0.3622	-0.2945	0.2238	-0.3622	-0.6007	-0.427	-0.1384	-0.1649	-0.0265	-0.0883
-0.2856	-0.1355	-0.4064	-0.1472	-0.3327	-0.3386	-0.1708	-0.3858	-0.4653	-0.2356	-0.3445	-0.3858	-0.2739	0.2385	-0.3357	-0.5742	-0.4653	-0.1384	-0.1502	-0.0059	-0.0854
-0.2356	-0.109	-0.3769	-0.0854	-0.2856	-0.2974	-0.1119	-0.3622	-0.4505	-0.2061	-0.321	-0.371	-0.2474	0.2739	-0.2945	-0.4741	-0.5094	-0.1148	-0.1413	0.0383	-0.0766
-0.1767	-0.0648	-0.3357	0	-0.268	-0.2444	-0.0648	-0.3357	-0.424	-0.1443	-0.3151	-0.3622	-0.2238	0.2768	-0.2591	-0.3975	-0.5359	-0.1266	-0.1355	0.0383	-0.0913
-0.1178	-0.0412	-0.268	0.0825	-0.2179	-0.2297	0.0029	-0.3033	-0.4211	-0.0972	-0.3004	-0.3416	-0.1649	0.3092	-0.1678	-0.318	-0.586	-0.1148	-0.0942	0.0883	-0.0736
-0.0501	0.0059	-0.2326	0.1384	-0.212	-0.2061	0.0206	-0.3092	-0.4005	-0.0648	-0.2856	-0.3357	-0.1767	0.3239	-0.1001	-0.2532	-0.6154	-0.1355	-0.1001	0.1031	-0.0913
0.0206	0.0118	-0.1855	0.1973	-0.1855	-0.1796	0.0825	-0.3062	-0.3975	-0.0118	-0.2974	-0.3563	-0.1472	0.3298	-0.0383	-0.1737	-0.6361	-0.1531	-0.1001	0.1148	-0.109
0.0589	0.0206	-0.1472	0.2768	-0.162	-0.1502	0.1443	-0.2739	-0.3769	0.0147	-0.2915	-0.3445	-0.109	0.3327	0.0236	-0.1119	-0.6567	-0.159	-0.106	0.1413	-0.1119
0.109	0.0501	-0.1031	0.3386	-0.1443	-0.1119	0.1708	-0.2797	-0.3681	0.0559	-0.2856	-0.3534	-0.1178	0.3475	0.1031	0.0118	-0.6891	-0.1561	-0.1266	0.1767	-0.1355
0.1413	0.053	-0.0972	0.3858	-0.1531	-0.0707	0.1943	-0.2856	-0.3622	0.0501	-0.2945	-0.3858	-0.1178	0.3534	0.1678	0.0648	-0.6949	-0.159	-0.1502	0.2032	-0.1678
0.2032	0.0471	-0.053	0.4152	-0.1531	-0.0825	0.2297	-0.2768	-0.3622	0.0766	-0.321	-0.3828	-0.1031	0.3769	0.2297	0.1502	-0.7214	-0.1207	-0.1885	0.2297	-0.1973
0.2238	0.0236	-0.0353	0.4535	-0.1649	-0.0972	0.2591	-0.2827	-0.3622	0.109	-0.3239	-0.4093	-0.109	0.3799	0.2886	0.1943	-0.7391	-0.1237	-0.1943	0.268	-0.2326
0.2356	0.0383	-0.0177	0.4653	-0.1708	-0.0766	0.2474	-0.3004	-0.3828	0.0972	-0.3534	-0.4299	-0.1237	0.3858	0.3386	0.2415	-0.7627	-0.1355	-0.215	0.265	-0.2444
0.212	-0.0118	-0.0559	0.4476	-0.2179	-0.0972	0.2032	-0.3298	-0.4211	0.0736	-0.3504	-0.4623	-0.1531	0.3916	0.4034	0.2856	-0.7686	-0.1237	-0.2621	0.2621	-0.3151
0.2267	-0.0236	-0.0677	0.4417	-0.2238	-0.109	0.2061	-0.3416	-0.4005	0.0589	-0.3769	-0.4859	-0.1561	0.3916	0.4417	0.3327	-0.7862	-0.1119	-0.2797	0.2474	-0.3445
0.1737	-0.0471	-0.0942	0.4211	-0.2444	-0.109	0.1826	-0.3769	-0.4358	0.0265	-0.3946	-0.5094	-0.1855	0.3975	0.5006	0.3475	-0.7892	-0.1384	-0.321	0.2444	-0.3504
0.1502	-0.0766	-0.1355	0.3681	-0.268	-0.1531	0.1708	-0.4064	-0.4741	0	-0.424	-0.5212	-0.2061	0.424	0.5212	0.3651	-0.8186	-0.106	-0.371	0.2503	-0.3769
0.1001	-0.106	-0.159	0.3357	-0.3062	-0.1855	0.1178	-0.4034	-0.4829	-0.0501	-0.4417	-0.5418	-0.2385	0.4299	0.533	0.3475	-0.8451	-0.0854	-0.3828	0.2444	-0.3799
0.0471	-0.159	-0.2356	0.2474	-0.3534	-0.2356	0.0501	-0.4623	-0.5212	-0.1001	-0.4653	-0.586	-0.2797	0.4388	0.5477	0.3239	-0.8657	-0.1001	-0.4211	0.2209	-0.3916
-0.0294	-0.2032	-0.2768	0.159	-0.3858	-0.2739	-0.0059	-0.4859	-0.5565	-0.1561	-0.4859	-0.6243	-0.3269	0.4623	0.533	0.2886	-0.8952	-0.109	-0.4564	0.1708	-0.3887
-0.0677	-0.2297	-0.3327	0.1178	-0.4123	-0.2974	-0.0353	-0.5153	-0.5919	-0.1855	-0.4977	-0.6567	-0.3386	0.4682	0.5448	0.2797	-0.9305	-0.0825	-0.4741	0.1708	-0.4034
-0.1413	-0.2739	-0.427	0.0471	-0.4505	-0.3504	-0.1237	-0.5507	-0.5889	-0.2326	-0.5389	-0.6626	-0.371	0.4977	0.5654	0.2739	-0.9717	-0.0677	-0.53	0.1708	-0.3975
-0.2032	-0.2915	-0.4564	-0.0471	-0.5153	-0.3887	-0.1767	-0.5948	-0.6302	-0.3004	-0.5624	-0.7097	-0.4034	0.5094	0.53	0.2356	-0.9865	-0.0736	-0.5477	0.1207	-0.4358
-0.2385	-0.318	-0.5035	-0.109	-0.53	-0.4064	-0.2209	-0.6095	-0.6449	-0.3475	-0.5772	-0.7391	-0.4123	0.5271	0.5359	0.2444	-1.0277	-0.0501	-0.53	0.109	-0.427
-0.2915	-0.3416	-0.5448	-0.1531	-0.5595	-0.4505	-0.2827	-0.6066	-0.6537	-0.371	-0.5742	-0.7391	-0.427	0.5359	0.5035	0.215	-1.0571	-0.0265	-0.5595	0.0972	-0.4417
-0.3151	-0.3357	-0.5683	-0.2267	-0.5742	-0.4918	-0.3386	-0.6596	-0.6949	-0.4181	-0.6272	-0.7803	-0.4505	0.5507	0.5065	0.2002	-1.0984	-0.0029	-0.5654	0.1148	-0.48
-0.3475	-0.3475	-0.5978	-0.265	-0.5948	-0.5153	-0.3769	-0.6832	-0.7185	-0.4417	-0.6714	-0.7892	-0.4682	0.5742	0.4741	0.1973	-1.1219	-0.0059	-0.6154	0.106	-0.533
-0.3975	-0.3828	-0.6567	-0.3239	-0.6419	-0.5536	-0.4388	-0.7332	-0.7421	-0.5065	-0.7008	-0.8127	-0.5006	0.586	0.4741	0.1767	-1.1514	0.0412	-0.6478	0.1178	-0.5654
-0.424	-0.3828	-0.6567	-0.3681	-0.6684	-0.5978	-0.4594	-0.7656	-0.7892	-0.5536	-0.7656	-0.854	-0.5124	0.6007	0.4682	0.1678	-1.172	0.0442	-0.6861	0.1031	-0.6419
-0.4505	-0.3858	-0.7038	-0.4211	-0.6802	-0.6331	-0.5183	-0.7951	-0.8157	-0.586	-0.7745	-0.8922	-0.5448	0.5919	0.4446	0.1325	-1.1808	0.0795	-0.7156	0.106	-0.7008
-0.4859	-0.4064	-0.7244	-0.4653	-0.7303	-0.7038	-0.5595	-0.8628	-0.8716	-0.6302	-0.8657	-0.9452	-0.5948	0.6007	0.4034	0.0942	-1.172	0.0942	-0.7686	0.1384	-0.7862
-0.5006	-0.4005	-0.7479	-0.4888	-0.7391	-0.7214	-0.586	-0.8981	-0.907	-0.6537	-0.9187	-0.9776	-0.6037	0.5919	0.3799	0.0412	-1.1573	0.1119	-0.801	0.159	-0.8481
-0.5742	-0.4594	-0.8216	-0.5389	-0.8127	-0.8186	-0.6537	-0.9835	-0.9982	-0.7185	-0.9953	-1.0483	-0.6714	0.5713	0.3151	-0.0353	-1.1278	0.0942	-0.8598	0.1296	-0.9511
-0.6095	-0.4859	-0.8392	-0.5948	-0.8598	-0.8628	-0.7273	-1.0513	-1.0336	-0.7774	-1.0748	-1.0984	-0.7244	0.5536	0.2827	-0.0795	-1.0925	0.0795	-0.904	0.1296	-1.0336
-0.6331	-0.5212	-0.9129	-0.639	-0.8863	-0.904	-0.7627	-1.0925	-1.0836	-0.8186	-1.1366	-1.169	-0.745	0.5389	0.1943	-0.1855	-1.0424	0.0736	-0.957	0.1119	-1.1101
-0.6537	-0.5565	-0.9394	-0.6832	-0.9276	-0.9659	-0.8186	-1.1779	-1.1926	-0.8922	-1.2456	-1.2603	-0.8039	0.5212	0.1708	-0.2532	-1.01	0.0353	-0.9776	0.1001	-1.169
-0.6949	-0.6007	-0.9865	-0.7538	-0.9924	-1.0424	-0.8628	-1.2515	-1.2544	-0.9688	-1.3251	-1.3722	-0.8893	0.4829	0.0883	-0.3416	-0.9364	-0.0265	-1.01	0.0559	-1.2574
-0.7568	-0.6537	-1.0365	-0.7627	-1.0365	-1.1101	-0.9217	-1.3281	-1.3281	-1.0189	-1.4164	-1.4105	-0.9394	0.4564	0.0618	-0.427	-0.8952	-0.0589	-1.0277	0.0324	-1.3015
-0.7597	-0.6743	-1.0836	-0.8275	-1.0719	-1.169	-0.9894	-1.384	-1.3987	-1.0925	-1.5106	-1.4988	-1.0159	0.4211	-0.0059	-0.5006	-0.8245	-0.106	-1.0454	-0.0029	-1.3487
-0.7892	-0.7273	-1.1278	-0.8569	-1.1101	-1.2397	-1.0513	-1.4812	-1.4694	-1.169	-1.596	-1.5754	-1.0836	0.3916	-0.0677	-0.5242	-0.7597	-0.1767	-1.0601	-0.0471	-1.3958
-0.7921	-0.798	-1.1484	-0.9099	-1.169	-1.3015	-1.0984	-1.5518	-1.5548	-1.2162	-1.6902	-1.6696	-1.1602	0.3593	-0.1148	-0.5978	-0.6861	-0.2385	-1.0748	-0.0854	-1.4193
-0.8304	-0.8333	-1.2162	-0.9452	-1.2014	-1.3575	-1.1455	-1.6166	-1.6314	-1.2721	-1.7756	-1.7432	-1.225	0.321	-0.1413	-0.6567	-0.6213	-0.3092	-1.0748	-0.1325	-1.4488
-0.8363	-0.8687	-1.2456	-0.9659	-1.2721	-1.4282	-1.1808	-1.6785	-1.6902	-1.3222	-1.8493	-1.8198	-1.275	0.2827	-0.1973	-0.7244	-0.5477	-0.3887	-1.0925	-0.1767	-1.4812
-0.8687	-0.9158	-1.2662	-0.9982	-1.2898	-1.4547	-1.2103	-1.7256	-1.7374	-1.3663	-1.9229	-1.8787	-1.3281	0.2621	-0.2002	-0.7479	-0.4947	-0.427	-1.1249	-0.2209	-1.4959
-0.8687	-0.9835	-1.3133	-1.0247	-1.3516	-1.4988	-1.225	-1.808	-1.8051	-1.4017	-1.9965	-1.9405	-1.3958	0.2179	-0.2356	-0.7803	-0.4358	-0.48	-1.1249	-0.268	-1.546
-0.8657	-1.0306	-1.3369	-1.0306	-1.3811	-1.5636	-1.2603	-1.8434	-1.8345	-1.4193	-2.0524	-2.0024	-1.4311	0.1973	-0.2532	-0.798	-0.3916	-0.5271	-1.1484	-0.3092	-1.5842
-0.8952	-1.1043	-1.3752	-1.063	-1.4753	-1.6225	-1.2927	-1.9052	-1.8875	-1.4723	-2.129	-2.0466	-1.4841	0.1855	-0.2797	-0.8304	-0.3504	-0.5772	-1.1573	-0.3357	-1.5931
-0.8746	-1.1131	-1.3869	-1.0454	-1.4753	-1.6196	-1.2898	-1.9347	-1.9052	-1.4753	-2.1702	-2.0672	-1.49	0.1649	-0.268	-0.8304	-0.318	-0.5978	-1.1867	-0.3504	-1.5754
-0.9099	-1.1573	-1.4193	-1.063	-1.5253	-1.6579	-1.3192	-2.0024	-1.9435	-1.493	-2.2056	-2.1054	-1.5195	0.1472	-0.2474	-0.8186	-0.2739	-0.6478	-1.1867	-0.4034	-1.6048
-0.9187	-1.222	-1.4517	-1.066	-1.5695	-1.6932	-1.3133	-2.0083	-1.9582	-1.5165	-2.2262	-2.1172	-1.5371	0.1384	-0.265	-0.8422	-0.2562	-0.6567	-1.2162	-0.3946	-1.5813
-0.9305	-1.2368	-1.4635	-1.066	-1.6314	-1.6844	-1.2927	-2.0289	-1.9405	-1.5253	-2.2497	-2.1143	-1.5165	0.1355	-0.2385	-0.7921	-0.2503	-0.6861	-1.2073	-0.427	-1.596
-0.9541	-1.2957	-1.4841	-1.066	-1.6284	-1.6991	-1.2957	-2.0289	-1.9553	-1.4988	-2.2438	-2.1349	-1.49	0.1413	-0.215	-0.7509	-0.2562	-0.6714	-1.2279	-0.424	-1.5607
-0.9129	-1.3163	-1.4694	-1.0189	-1.6225	-1.6814	-1.2721	-2.0142	-1.9317	-1.4782	-2.2262	-2.1261	-1.4812	0.1443	-0.1649	-0.6802	-0.2739	-0.6596	-1.2014	-0.4034	-1.5371
-0.904	-1.3133	-1.4429	-0.9747	-1.6372	-1.6755	-1.2456	-2.023	-1.9023	-1.4606	-2.1967	-2.0907	-1.4517	0.1561	-0.0766	-0.583	-0.2915	-0.6596	-1.2162	-0.4358	-1.4988
-0.8775	-1.3251	-1.4252	-0.9452	-1.6431	-1.6402	-1.1749	-2.0112	-1.8728	-1.4134	-2.182	-2.0524	-1.3928	0.1737	0.0147	-0.4653	-0.3298	-0.6419	-1.169	-0.3946	-1.4694
-0.8098	-1.2986	-1.3869	-0.904	-1.6431	-1.6166	-1.1219	-1.9435	-1.8228	-1.3546	-2.129	-2.0053	-1.3074	0.212	0.106	-0.3033	-0.371	-0.6037	-1.1602	-0.3681	-1.3987
-0.7892	-1.3015	-1.3869	-0.8687	-1.6314	-1.5901	-1.1072	-1.9288	-1.7815	-1.3339	-2.0789	-1.9818	-1.2809	0.2091	0.2032	-0.2061	-0.4034	-0.5683	-1.1396	-0.3534	-1.3339
-0.7686	-1.2662	-1.3487	-0.8422	-1.596	-1.546	-1.066	-1.8758	-1.7344	-1.2927	-2.0142	-1.9376	-1.2132	0.2356	0.3004	-0.053	-0.4535	-0.533	-1.0954	-0.3033	-1.275
-0.6832	-1.278	-1.3045	-0.7715	-1.5725	-1.5077	-0.9982	-1.861	-1.6991	-1.2544	-1.9641	-1.8758	-1.1985	0.2591	0.4005	0.0913	-0.4888	-0.5183	-1.063	-0.2886	-1.2338
-0.6449	-1.2456	-1.2898	-0.7509	-1.5607	-1.493	-0.9982	-1.8316	-1.6637	-1.2485	-1.9317	-1.8522	-1.1631	0.2562	0.4829	0.2385	-0.5006	-0.4918	-1.0336	-0.265	-1.169
-0.5889	-1.2338	-1.2485	-0.6773	-1.5224	-1.4664	-0.9541	-1.7698	-1.6314	-1.2132	-1.8522	-1.8375	-1.1278	0.2856	0.5713	0.3828	-0.5448	-0.4653	-0.9924	-0.2267	-1.0984
-0.583	-1.2014	-1.2397	-0.6684	-1.5224	-1.4399	-0.9099	-1.7079	-1.6078	-1.1808	-1.8021	-1.8021	-1.0866	0.2945	0.6331	0.4859	-0.5713	-0.4446	-0.9659	-0.1826	-1.0277
-0.5654	-1.1602	-1.2191	-0.6125	-1.5224	-1.4193	-0.8952	-1.6814	-1.6048	-1.1867	-1.7786	-1.8021	-1.0836	0.3092	0.6626	0.6007	-0.6007	-0.4535	-0.9276	-0.1649	-1.013
-0.5359	-1.1661	-1.2014	-0.6037	-1.49	-1.4046	-0.8805	-1.6255	-1.5931	-1.1749	-1.7315	-1.7639	-1.0748	0.321	0.6802	0.6655	-0.639	-0.4064	-0.8863	-0.1325	-0.9629
-0.5683	-1.1808	-1.2309	-0.6272	-1.4812	-1.4311	-0.9364	-1.6225	-1.5813	-1.1749	-1.7079	-1.7521	-1.0689	0.3327	0.6979	0.6714	-0.6508	-0.3975	-0.8687	-0.1325	-0.9011
-0.5889	-1.1808	-1.2456	-0.6567	-1.4606	-1.4341	-0.9394	-1.5901	-1.6137	-1.2103	-1.6726	-1.7491	-1.1013	0.3269	0.6861	0.6832	-0.6626	-0.4005	-0.8481	-0.1178	-0.8981
-0.6213	-1.1838	-1.2839	-0.6773	-1.4606	-1.4429	-0.9747	-1.599	-1.6078	-1.2014	-1.6343	-1.758	-1.1278	0.3475	0.6684	0.639	-0.6773	-0.3681	-0.8333	-0.1237	-0.8628
-0.6949	-1.2162	-1.3428	-0.7479	-1.4635	-1.5018	-1.0424	-1.599	-1.6785	-1.2721	-1.6137	-1.7727	-1.1514	0.3445	0.6154	0.5683	-0.6773	-0.374	-0.8275	-0.1296	-0.8598
-0.7862	-1.2515	-1.437	-0.8481	-1.5371	-1.5725	-1.1278	-1.6107	-1.7462	-1.3369	-1.6107	-1.7904	-1.1749	0.3386	0.5595	0.4682	-0.6861	-0.4064	-0.8304	-0.1472	-0.8657
-0.851	-1.3133	-1.5224	-0.9452	-1.5607	-1.6579	-1.1897	-1.6196	-1.808	-1.3781	-1.6019	-1.861	-1.2397	0.3416	0.4977	0.318	-0.6773	-0.3975	-0.8569	-0.1796	-0.8687
-0.9806	-1.3457	-1.6431	-1.0454	-1.6166	-1.7344	-1.2927	-1.6461	-1.864	-1.4547	-1.6196	-1.9052	-1.2986	0.3445	0.4005	0.1943	-0.6802	-0.424	-0.8775	-0.2385	-0.8687
-1.1484	-1.4606	-1.7639	-1.2103	-1.6755	-1.8551	-1.4311	-1.7197	-1.9935	-1.5489	-1.6314	-1.9729	-1.3634	0.3298	0.3151	0.0059	-0.6655	-0.4476	-0.8922	-0.2915	-0.9129
-1.278	-1.5195	-1.9199	-1.3398	-1.7432	-1.967	-1.5636	-1.7462	-2.0819	-1.6372	-1.649	-2.0083	-1.4252	0.3298	0.2503	-0.1649	-0.6743	-0.4829	-0.9129	-0.3445	-0.9305
-1.4076	-1.6019	-2.076	-1.5018	-1.8286	-2.1113	-1.6932	-1.7963	-2.1997	-1.7226	-1.6873	-2.0789	-1.4871	0.3269	0.1148	-0.4211	-0.6478	-0.5124	-0.9511	-0.3916	-0.9717
-1.5872	-1.7374	-2.2615	-1.6667	-1.9199	-2.2674	-1.8375	-1.8875	-2.3145	-1.8316	-1.705	-2.1437	-1.5695	0.318	-0.0206	-0.6537	-0.6449	-0.53	-0.9894	-0.4741	-0.9806
-1.7933	-1.864	-2.4676	-1.8934	-2.0348	-2.4235	-2.0259	-1.9641	-2.4441	-1.9376	-1.7344	-2.2321	-1.6755	0.3151	-0.1796	-0.9011	-0.6243	-0.5889	-1.0866	-0.5595	-1.013
-1.9818	-1.9877	-2.6797	-2.0701	-2.1584	-2.5795	-2.2026	-2.0259	-2.609	-2.0495	-1.7609	-2.3057	-1.758	0.3092	-0.3475	-1.1366	-0.6037	-0.6302	-1.1308	-0.6302	-1.0247
-2.182	-2.1408	-2.8828	-2.2998	-2.2703	-2.7857	-2.3675	-2.1349	-2.7415	-2.182	-1.8051	-2.4264	-1.8434	0.3004	-0.5359	-1.4193	-0.5889	-0.6773	-1.1808	-0.745	-1.0719
-2.4117	-2.2733	-3.0949	-2.5	-2.4117	-2.9358	-2.5501	-2.2203	-2.9064	-2.3116	-1.8522	-2.5148	-1.9288	0.2945	-0.745	-1.6932	-0.5772	-0.7156	-1.2456	-0.854	-1.0984
-2.6031	-2.4352	-3.3187	-2.7003	-2.5148	-3.1272	-2.7268	-2.2998	-3.0419	-2.4264	-1.8993	-2.6119	-2.023	0.2797	-0.9452	-1.9464	-0.5565	-0.7686	-1.3045	-0.9629	-1.1366
-2.8504	-2.5913	-3.5307	-2.927	-2.662	-3.301	-2.8858	-2.4058	-3.2038	-2.5413	-1.9376	-2.7032	-2.0966	0.2591	-1.1425	-2.1761	-0.5242	-0.8481	-1.4046	-1.0748	-1.1631
-3.0271	-2.7356	-3.7015	-3.1037	-2.7592	-3.4688	-3.0419	-2.4971	-3.3245	-2.6178	-1.9759	-2.768	-2.1467	0.2532	-1.3281	-2.3616	-0.4947	-0.8893	-1.4547	-1.1484	-1.1838
-3.248	-2.9152	-3.9341	-3.2833	-2.9211	-3.6043	-3.1891	-2.5972	-3.4541	-2.7503	-2.0377	-2.8446	-2.2232	0.2385	-1.546	-2.5589	-0.4446	-0.9276	-1.5253	-1.2839	-1.2397
-3.4423	-3.0536	-4.096	-3.4659	-3.0006	-3.7662	-3.3275	-2.6738	-3.5572	-2.8416	-2.0524	-2.927	-2.2821	0.215	-1.6991	-2.7238	-0.427	-0.9806	-1.5666	-1.3693	-1.2721
-3.6043	-3.2156	-4.261	-3.6013	-3.1096	-3.9105	-3.4541	-2.7651	-3.672	-2.9152	-2.1113	-3.0006	-2.341	0.1973	-1.9405	-2.8681	-0.3769	-1.0218	-1.6314	-1.4517	-1.3251
-3.7633	-3.3275	-4.3964	-3.7368	-3.2215	-3.9959	-3.5719	-2.8416	-3.7898	-2.9859	-2.1555	-3.0595	-2.4117	0.1855	-2.1202	-2.98	-0.3386	-1.0454	-1.702	-1.543	-1.3339
-3.9341	-3.4688	-4.5525	-3.8811	-3.3422	-4.1373	-3.6691	-2.9093	-3.8487	-3.0477	-2.185	-3.1155	-2.4618	0.1531	-2.3057	-3.0949	-0.2945	-1.0895	-1.758	-1.6284	-1.3869
-4.0578	-3.5896	-4.6585	-3.99	-3.4188	-4.205	-3.7368	-2.9682	-3.9253	-3.1066	-2.1938	-3.1508	-2.4441	0.1502	-2.45	-3.1891	-0.2709	-1.0984	-1.7904	-1.6755	-1.4017
-4.2315	-3.7574	-4.7969	-4.1137	-3.5012	-4.2992	-3.831	-3.0419	-4.0165	-3.1744	-2.2291	-3.1803	-2.4853	0.1266	-2.5943	-3.2892	-0.2415	-1.1337	-1.8493	-1.7432	-1.4282
-4.364	-3.8723	-4.9264	-4.2227	-3.6072	-4.3935	-3.9194	-3.0742	-4.0754	-3.248	-2.2497	-3.2068	-2.4765	0.106	-2.7562	-3.3893	-0.2091	-1.1749	-1.9052	-1.7992	-1.4429
-4.4965	-4.0048	-5.0207	-4.3287	-3.7015	-4.4641	-3.9812	-3.1567	-4.1461	-3.3128	-2.235	-3.245	-2.5295	0.1031	-2.9005	-3.4806	-0.1973	-1.172	-1.9582	-1.8846	-1.4517
-4.6025	-4.1461	-5.109	-4.4259	-3.7898	-4.5525	-4.0489	-3.192	-4.1756	-3.3481	-2.235	-3.2598	-2.5413	0.1001	-3.0065	-3.6131	-0.1737	-1.1749	-1.9729	-1.9582	-1.4252
-4.7409	-4.2639	-5.2356	-4.5495	-3.9046	-4.6173	-4.1314	-3.2568	-4.2521	-3.4453	-2.2527	-3.2951	-2.5884	0.0883	-3.1272	-3.6985	-0.1561	-1.2103	-2.0318	-2.0142	-1.4134
-4.8528	-4.3787	-5.324	-4.6526	-3.9753	-4.7085	-4.2374	-3.2922	-4.3228	-3.4953	-2.2085	-3.3245	-2.5943	0.0736	-3.2185	-3.7751	-0.1708	-1.2368	-2.0583	-2.0613	-1.3546
-4.9647	-4.4847	-5.4212	-4.7733	-4.0754	-4.791	-4.3228	-3.354	-4.3905	-3.5896	-2.2203	-3.3304	-2.6296	0.0825	-3.3039	-3.8781	-0.1649	-1.2309	-2.0583	-2.1172	-1.2662
-5.0972	-4.6231	-5.5625	-4.8882	-4.1962	-4.897	-4.4288	-3.4099	-4.4759	-3.6779	-2.182	-3.3363	-2.662	0.1001	-3.3805	-3.993	-0.1826	-1.2633	-2.0878	-2.2085	-1.2044
-5.2032	-4.7557	-5.6715	-5.0207	-4.311	-5.003	-4.5319	-3.4924	-4.5584	-3.7662	-2.1643	-3.3923	-2.7327	0.0942	-3.5012	-4.0931	-0.1885	-1.2809	-2.1025	-2.2615	-1.1425
-5.3593	-4.8734	-5.801	-5.1709	-4.4406	-5.1237	-4.6555	-3.5601	-4.6496	-3.8664	-2.1555	-3.4364	-2.7945	0.106	-3.5807	-4.2138	-0.2032	-1.331	-2.1349	-2.344	-1.0601
-5.483	-5.0472	-5.96	-5.3446	-4.5937	-5.271	-4.7939	-3.6396	-4.7557	-3.9871	-2.1408	-3.4894	-2.8711	0.1148	-3.6455	-4.3081	-0.2091	-1.3575	-2.182	-2.4235	-0.9629
-5.6567	-5.1974	-6.1455	-5.5566	-4.7292	-5.4123	-4.9853	-3.7309	-4.8676	-4.152	-2.1231	-3.5277	-2.93	0.1148	-3.7397	-4.4435	-0.2238	-1.3958	-2.1938	-2.5471	-0.8981
-5.801	-5.3505	-6.3075	-5.7186	-4.8793	-5.5507	-5.1267	-3.7986	-4.9647	-4.2315	-2.0878	-3.5719	-3.0065	0.1148	-3.8222	-4.5466	-0.2444	-1.4282	-2.2262	-2.5972	-0.8068
-5.9335	-5.4889	-6.4518	-5.8952	-5.006	-5.6891	-5.2886	-3.884	-5.0737	-4.3552	-2.0583	-3.6102	-3.0507	0.1502	-3.8958	-4.6379	-0.2856	-1.4223	-2.2615	-2.6973	-0.7303
-6.0808	-5.6391	-6.6285	-6.0513	-5.1709	-5.8717	-5.4477	-3.9547	-5.1885	-4.5054	-2.0495	-3.675	-3.1302	0.1502	-3.9871	-4.7321	-0.3033	-1.4606	-2.2733	-2.7857	-0.6537
-6.2133	-5.7804	-6.7904	-6.2457	-5.2945	-5.9806	-5.589	-4.0136	-5.268	-4.5908	-2.0053	-3.6897	-3.1655	0.1708	-4.0489	-4.8116	-0.3416	-1.4576	-2.2968	-2.8239	-0.5683
-6.3163	-5.8982	-6.9288	-6.4076	-5.4153	-6.1161	-5.7038	-4.0607	-5.3299	-4.6614	-1.9612	-3.6956	-3.1979	0.1885	-4.1314	-4.8469	-0.371	-1.4576	-2.3116	-2.874	-0.4682
-6.4459	-6.0336	-7.0937	-6.5696	-5.5183	-6.2427	-5.8481	-4.0843	-5.4182	-4.7498	-1.9199	-3.7309	-3.2391	0.1943	-4.1814	-4.9058	-0.3946	-1.4341	-2.3086	-2.9182	-0.4181
-6.5725	-6.1573	-7.2233	-6.6991	-5.6096	-6.3693	-5.9453	-4.1284	-5.4653	-4.8322	-1.8699	-3.7221	-3.248	0.2091	-4.2079	-4.9588	-0.4211	-1.4341	-2.3351	-2.983	-0.3269
-6.6726	-6.2545	-7.3411	-6.8346	-5.695	-6.4459	-6.069	-4.1638	-5.5301	-4.8499	-1.8375	-3.7221	-3.2598	0.2179	-4.3081	-5.0413	-0.4329	-1.437	-2.3675	-3.0183	-0.2532
-6.758	-6.3664	-7.4648	-6.9642	-5.7686	-6.5225	-6.1367	-4.1638	-5.5507	-4.9147	-1.7491	-3.6632	-3.2598	0.2238	-4.3611	-5.1208	-0.4594	-1.384	-2.3528	-3.033	-0.1708
-6.8169	-6.4282	-7.5443	-7.0378	-5.7922	-6.5872	-6.1897	-4.1255	-5.5507	-4.9029	-1.6785	-3.6308	-3.1979	0.2385	-4.4229	-5.1826	-0.48	-1.3546	-2.3351	-3.0212	-0.1001
-6.8788	-6.4871	-7.612	-7.1232	-5.8099	-6.6432	-6.2221	-4.099	-5.5213	-4.8646	-1.5813	-3.5395	-3.139	0.2532	-4.5083	-5.2621	-0.5006	-1.3045	-2.3204	-3.0183	-0.0147
-6.9553	-6.5401	-7.6944	-7.1732	-5.8305	-6.6461	-6.228	-4.043	-5.4918	-4.8381	-1.4841	-3.4894	-3.0772	0.2532	-4.5613	-5.3564	-0.5006	-1.2338	-2.3086	-3.0212	0.0707
-6.9642	-6.5431	-7.6915	-7.1762	-5.804	-6.6373	-6.2162	-3.9635	-5.4241	-4.7704	-1.3722	-3.3775	-2.9712	0.2591	-4.6025	-5.4005	-0.5212	-1.169	-2.2615	-2.9623	0.1502
-6.9907	-6.5313	-7.7003	-7.2056	-5.748	-6.5843	-6.172	-3.9135	-5.3534	-4.7144	-1.2544	-3.2715	-2.9093	0.2562	-4.6555	-5.4977	-0.4977	-1.1043	-2.235	-2.9653	0.2385
-6.9966	-6.5254	-7.6974	-7.1791	-5.6921	-6.5549	-6.1279	-3.8281	-5.2474	-4.6379	-1.1308	-3.1655	-2.8181	0.2385	-4.7321	-5.5478	-0.4653	-1.0542	-2.1997	-2.9358	0.3445
-6.9524	-6.443	-7.6297	-7.0849	-5.5743	-6.4371	-6.0336	-3.6838	-5.1149	-4.4936	-0.9924	-3.0183	-2.6855	0.2209	-4.7498	-5.5389	-0.4388	-0.9747	-2.1054	-2.8828	0.4564
-6.8935	-6.3517	-7.5354	-6.9789	-5.4624	-6.3046	-5.9159	-3.569	-4.9588	-4.367	-0.8657	-2.8917	-2.5795	0.2002	-4.7439	-5.5537	-0.3916	-0.904	-2.0348	-2.8122	0.5418
-6.8081	-6.2574	-7.4029	-6.8346	-5.2975	-6.1632	-5.7539	-3.404	-4.7674	-4.2344	-0.6773	-2.7179	-2.4411	0.1796	-4.7321	-5.5478	-0.3534	-0.7951	-1.9199	-2.7503	0.6508
-6.6756	-6.0808	-7.2292	-6.6609	-5.1061	-5.96	-5.5537	-3.2333	-4.5731	-4.046	-0.5359	-2.553	-2.2733	0.1561	-4.6791	-5.4859	-0.3004	-0.7214	-1.8463	-2.6502	0.7538
-6.5107	-5.9129	-7.0407	-6.44	-4.9176	-5.7186	-5.3534	-3.0566	-4.3581	-3.8487	-0.3799	-2.3499	-2.0937	0.1148	-4.5966	-5.4005	-0.2356	-0.6331	-1.7226	-2.5501	0.8451
-6.3104	-5.642	-6.7757	-6.1868	-4.6614	-5.4624	-5.0913	-2.8416	-4.0931	-3.6102	-0.2032	-2.1496	-1.8964	0.0942	-4.4936	-5.2769	-0.1767	-0.5153	-1.5931	-2.4117	0.9482
-6.0867	-5.4241	-6.496	-5.8629	-4.3905	-5.1885	-4.7763	-2.6237	-3.7927	-3.3304	-0.0236	-1.9258	-1.6549	0.0648	-4.314	-5.1473	-0.1355	-0.3946	-1.4606	-2.2645	1.066
-5.8069	-5.1532	-6.172	-5.5331	-4.1137	-4.8705	-4.4641	-2.3734	-3.4865	-3.0389	0.1325	-1.6932	-1.4311	0.0177	-4.1461	-5.0089	-0.0589	-0.2974	-1.3163	-2.0966	1.1396
-5.4771	-4.8234	-5.7981	-5.162	-3.7957	-4.4995	-4.099	-2.1231	-3.1567	-2.7091	0.321	-1.4193	-1.1573	-0.0029	-3.9341	-4.8116	-0.0177	-0.1413	-1.172	-1.8993	1.225
-5.1326	-4.4965	-5.4329	-4.7674	-3.4659	-4.1284	-3.7339	-1.8758	-2.8033	-2.3881	0.48	-1.172	-0.8775	-0.0236	-3.6926	-4.6114	0.0501	0.0177	-1.0454	-1.7079	1.2603
-4.7645	-4.1373	-5.0148	-4.3552	-3.1538	-3.7339	-3.3452	-1.6078	-2.4352	-2.0142	0.6743	-0.8775	-0.5742	-0.0471	-3.4247	-4.3787	0.0913	0.1885	-0.9276	-1.4959	1.2809
-4.3611	-3.7633	-4.5672	-3.9017	-2.7827	-3.298	-2.9211	-1.3339	-2.023	-1.6314	0.8598	-0.586	-0.268	-0.0766	-3.1214	-4.1137	0.1207	0.374	-0.7538	-1.2898	1.3516
-3.9311	-3.3422	-4.1049	-3.4394	-2.3793	-2.8593	-2.4676	-1.0542	-1.6284	-1.2338	1.0395	-0.2886	0.0471	-0.0766	-2.8063	-3.8575	0.1502	0.5536	-0.6154	-1.0247	1.3869
-3.5071	-2.9005	-3.622	-2.9623	-1.9582	-2.397	-2.02	-0.7479	-1.2044	-0.8216	1.2368	0	0.3858	-0.0913	-2.4529	-3.5454	0.159	0.7332	-0.4653	-0.7774	1.4399
-3.0183	-2.4529	-3.1007	-2.4588	-1.5725	-1.9494	-1.5577	-0.4388	-0.7803	-0.3946	1.4223	0.3062	0.6979	-0.0913	-2.0701	-3.2156	0.1649	0.907	-0.265	-0.5065	1.4812
-2.5177	-2.0171	-2.6149	-1.9759	-1.1749	-1.5018	-1.1249	-0.1355	-0.3916	-0.0147	1.6137	0.6125	1.0012	-0.0766	-1.7226	-2.8887	0.1531	1.0984	-0.1355	-0.2238	1.4959
-2.0642	-1.5489	-2.1054	-1.4988	-0.7656	-1.0365	-0.6773	0.1708	0.0177	0.3916	1.7933	0.8863	1.3163	-0.0677	-1.3428	-2.556	0.1355	1.2721	0.0324	0.0618	1.5106
-1.596	-1.1131	-1.6019	-1.0483	-0.3769	-0.5889	-0.2562	0.4623	0.3916	0.7627	1.9729	1.1455	1.5813	-0.0648	-0.96	-2.1997	0.106	1.4164	0.2091	0.3004	1.5636
-1.1573	-0.6684	-1.1249	-0.6037	-0.0088	-0.1885	0.1384	0.7332	0.7745	1.0836	2.1349	1.384	1.8316	-0.0501	-0.6007	-1.8905	0.1001	1.5783	0.3651	0.5654	1.5754
-0.6949	-0.2326	-0.6626	-0.1914	0.3828	0.2091	0.5124	1.0071	1.116	1.4046	2.3263	1.6255	2.0583	-0.0383	-0.1914	-1.543	0.0589	1.6873	0.5595	0.798	1.6225
-0.2356	0.1885	-0.2297	0.212	0.7273	0.6243	0.8746	1.2662	1.4252	1.7138	2.4618	1.8286	2.2615	-0.0206	0.1914	-1.1779	0.0147	1.7963	0.6891	1.0571	1.6255
0.2091	0.5565	0.2356	0.5595	1.0571	0.9747	1.222	1.5136	1.7197	1.967	2.5766	1.9818	2.4176	0.0029	0.6007	-0.8363	-0.0118	1.8728	0.8451	1.2485	1.6343
0.5801	0.9423	0.6243	0.8922	1.3722	1.2927	1.493	1.7668	1.9729	2.1967	2.6855	2.129	2.5707	0.0206	0.9865	-0.4888	-0.053	1.9464	0.9717	1.4664	1.649
0.9659	1.2898	1.0012	1.1867	1.6461	1.6078	1.7639	1.9288	2.2026	2.4117	2.7798	2.2615	2.6826	0.0442	1.3163	-0.1413	-0.0942	1.9729	1.1072	1.6314	1.652
1.3339	1.6078	1.3546	1.4782	1.9111	1.8669	1.9877	2.1054	2.3911	2.5795	2.8269	2.3351	2.7238	0.0736	1.6755	0.1885	-0.1443	1.9847	1.2132	1.7874	1.6019
1.6461	1.9023	1.6402	1.7079	2.1143	2.076	2.182	2.2409	2.5501	2.6826	2.8151	2.3734	2.7503	0.0795	1.9435	0.4859	-0.1708	1.9582	1.3281	1.9023	1.5754
1.9612	2.1496	1.9199	1.8993	2.3057	2.288	2.3616	2.3587	2.6826	2.7709	2.8092	2.4087	2.7592	0.0972	2.2232	0.7538	-0.2091	1.9199	1.3987	1.9818	1.493
2.2262	2.4058	2.1555	2.0819	2.4853	2.4529	2.4794	2.4146	2.7592	2.8181	2.7651	2.397	2.7003	0.1207	2.4735	1.013	-0.265	1.861	1.4664	2.0466	1.3987
2.4411	2.6031	2.3675	2.2291	2.6031	2.5795	2.5678	2.4588	2.8092	2.8416	2.6649	2.344	2.6178	0.162	2.6855	1.2279	-0.3062	1.7256	1.4664	2.0789	1.2868
2.6384	2.8298	2.5501	2.3292	2.7209	2.7062	2.6502	2.5	2.8269	2.8181	2.5766	2.2821	2.5265	0.1826	2.8622	1.4282	-0.3534	1.6255	1.5077	2.1231	1.1926
2.7798	2.93	2.6797	2.3911	2.7827	2.7562	2.6649	2.4411	2.8122	2.7562	2.4058	2.1467	2.3705	0.1973	3.0095	1.6137	-0.3799	1.4576	1.5312	2.0819	1.0689
2.9152	3.0595	2.7945	2.447	2.8328	2.7886	2.6532	2.4058	2.7503	2.6532	2.2586	2.0142	2.1584	0.2061	3.1361	1.7668	-0.424	1.3045	1.5518	2.023	0.9452
3.0095	3.142	2.8563	2.4323	2.8181	2.7651	2.5736	2.3292	2.6502	2.4971	2.0524	1.8169	1.9405	0.215	3.2421	1.8758	-0.4329	1.0807	1.4959	1.9435	0.7774
3.0713	3.2215	2.8917	2.4058	2.8239	2.7415	2.5177	2.2438	2.5501	2.3204	1.8404	1.6284	1.6991	0.2238	3.3187	1.9847	-0.4446	0.8952	1.4812	1.8434	0.6567
3.1243	3.2598	2.9093	2.3646	2.7916	2.6914	2.45	2.1113	2.397	2.1143	1.596	1.3987	1.4105	0.2385	3.4158	2.0907	-0.4505	0.692	1.4458	1.7285	0.5006
3.1479	3.2804	2.9123	2.3057	2.7503	2.6178	2.3204	1.9877	2.235	1.9023	1.3869	1.172	1.1219	0.215	3.4894	2.1555	-0.4446	0.4358	1.4105	1.6048	0.371
3.1744	3.3128	2.8976	2.2556	2.6973	2.5354	2.1967	1.8463	2.0554	1.6579	1.1543	0.9158	0.798	0.2267	3.5601	2.2468	-0.4299	0.1678	1.3634	1.4399	0.2061
3.1714	3.3187	2.8534	2.1584	2.6384	2.4294	2.0495	1.7167	1.8905	1.4252	0.9158	0.6626	0.4741	0.2061	3.6102	2.3175	-0.4181	-0.0913	1.3339	1.2868	0.0559
3.1832	3.3481	2.8298	2.0937	2.556	2.2968	1.9023	1.5666	1.6755	1.1661	0.6802	0.4064	0.1649	0.1914	3.6602	2.3793	-0.3887	-0.3622	1.2986	1.0984	-0.0648
3.1596	3.3275	2.768	1.9994	2.4735	2.1732	1.7491	1.4076	1.4723	0.9158	0.4329	0.1561	-0.1296	0.1943	3.7221	2.45	-0.3681	-0.6184	1.2279	0.9482	-0.2267
3.1626	3.2892	2.712	1.8964	2.3705	2.0495	1.5577	1.2338	1.2485	0.6243	0.1885	-0.1119	-0.4505	0.1649	3.7662	2.5	-0.3239	-0.8863	1.1631	0.745	-0.3828
3.1508	3.2656	2.6502	1.7815	2.2821	1.9347	1.4252	1.0836	1.063	0.4034	-0.0265	-0.3386	-0.745	0.1561	3.8016	2.5442	-0.3004	-1.1131	1.1278	0.5889	-0.4918
3.1096	3.2274	2.553	1.6991	2.185	1.7756	1.2574	0.9158	0.8657	0.159	-0.2267	-0.5742	-1.0041	0.1355	3.8458	2.5619	-0.2562	-1.3369	1.0778	0.3975	-0.6095
3.0684	3.2068	2.4853	1.5754	2.0907	1.6372	1.0807	0.7627	0.6832	-0.0825	-0.4388	-0.8098	-1.2603	0.106	3.8575	2.5795	-0.2032	-1.5312	1.0071	0.2444	-0.7627
3.0154	3.1538	2.3881	1.4635	1.9965	1.5165	0.9452	0.6125	0.5035	-0.2827	-0.5978	-0.9659	-1.4782	0.0883	3.8723	2.5943	-0.1561	-1.7256	0.9394	0.0736	-0.8657
2.9535	3.0949	2.2615	1.3457	1.8816	1.3722	0.7833	0.4682	0.3033	-0.48	-0.7745	-1.1955	-1.6991	0.0618	3.8664	2.5854	-0.109	-1.9111	0.8834	-0.106	-0.9688
2.9123	3.0477	2.1938	1.2603	1.8051	1.2544	0.6508	0.3828	0.1561	-0.6419	-0.8981	-1.3398	-1.8493	0.0383	3.8605	2.556	-0.0677	-2.0171	0.8186	-0.2238	-1.0542
2.8387	2.98	2.0583	1.1543	1.6902	1.1072	0.5094	0.2179	-0.0059	-0.801	-1.0483	-1.4753	-2.0083	0.0206	3.8634	2.5383	-0.0324	-2.1349	0.7509	-0.371	-1.1573
2.7327	2.8946	1.9729	1.0336	1.5872	0.9806	0.3475	0.1178	-0.1855	-0.9894	-1.172	-1.6431	-2.1761	0.0029	3.8104	2.4647	0.0118	-2.2733	0.7008	-0.5271	-1.2338
2.6532	2.8387	1.8669	0.9217	1.5047	0.8598	0.212	0.0088	-0.3298	-1.119	-1.2868	-1.7403	-2.2968	-0.0147	3.7692	2.3911	0.0294	-2.3528	0.639	-0.6508	-1.3133
2.5383	2.7386	1.6961	0.7568	1.3958	0.6861	0.0618	-0.1119	-0.4977	-1.2692	-1.3987	-1.9023	-2.4441	-0.0383	3.7103	2.3234	0.0825	-2.4588	0.5713	-0.7833	-1.4017
2.4235	2.659	1.5783	0.639	1.2898	0.5565	-0.1031	-0.2091	-0.6596	-1.4076	-1.493	-2.0083	-2.553	-0.053	3.6367	2.1967	0.1031	-2.5236	0.5183	-0.9158	-1.4576
2.2968	2.5265	1.4311	0.5035	1.2191	0.4299	-0.2179	-0.2945	-0.7803	-1.5312	-1.5548	-2.0966	-2.6414	-0.0766	3.5896	2.0907	0.1296	-2.6178	0.4711	-1.0571	-1.493
2.1732	2.4441	1.3133	0.3534	1.119	0.2915	-0.3799	-0.3858	-0.9099	-1.6608	-1.6402	-2.2026	-2.7503	-0.0766	3.5248	1.9494	0.1649	-2.6826	0.4064	-1.1808	-1.5371
2.0436	2.3557	1.1484	0.2385	1.0336	0.1708	-0.5035	-0.4505	-1.0247	-1.7698	-1.6844	-2.2674	-2.8151	-0.1001	3.4306	1.8404	0.1973	-2.7209	0.3563	-1.2927	-1.5518
1.9229	2.2645	1.0218	0.109	0.9835	0.0648	-0.6007	-0.4977	-1.1308	-1.864	-1.6991	-2.3292	-2.8887	-0.1207	3.351	1.7109	0.2267	-2.7651	0.3504	-1.3928	-1.5401
1.8316	2.1732	0.9158	-0.0118	0.8893	-0.0265	-0.7214	-0.5418	-1.1985	-1.9347	-1.7285	-2.3646	-2.93	-0.1266	3.2715	1.5577	0.2444	-2.8063	0.3004	-1.5165	-1.5518
1.7491	2.1054	0.8422	-0.106	0.8716	-0.1031	-0.8127	-0.5565	-1.2721	-2.0142	-1.7138	-2.3911	-2.927	-0.1325	3.192	1.4341	0.268	-2.8063	0.268	-1.5783	-1.5342
1.6255	1.9965	0.7303	-0.2032	0.8127	-0.1855	-0.8863	-0.5742	-1.3104	-2.0259	-1.6873	-2.3675	-2.927	-0.1531	3.1125	1.2662	0.2945	-2.8092	0.2267	-1.6372	-1.5195
1.5312	1.9376	0.6478	-0.2621	0.798	-0.2091	-0.9187	-0.5713	-1.3222	-2.0259	-1.6402	-2.341	-2.8799	-0.1443	3.0301	1.1278	0.3004	-2.7709	0.2356	-1.6726	-1.4841
1.4429	1.8669	0.5772	-0.321	0.7509	-0.2886	-0.9717	-0.5948	-1.3339	-2.02	-1.5783	-2.2939	-2.8387	-0.1531	2.9506	0.9806	0.3062	-2.7268	0.2385	-1.7256	-1.4193
1.3693	1.811	0.4888	-0.3916	0.7391	-0.3121	-1.0218	-0.5683	-1.3281	-1.9877	-1.5136	-2.2232	-2.7592	-0.1561	2.8887	0.8157	0.3121	-2.6502	0.1943	-1.7344	-1.3958
1.2809	1.7344	0.424	-0.4653	0.7332	-0.3269	-1.0483	-0.5242	-1.2839	-1.9111	-1.4164	-2.1467	-2.6532	-0.1561	2.7621	0.6449	0.318	-2.553	0.2032	-1.755	-1.3163
1.172	1.6726	0.3504	-0.5124	0.7097	-0.3475	-1.0719	-0.5006	-1.2544	-1.8934	-1.3369	-2.0642	-2.5354	-0.1649	2.6532	0.5183	0.3239	-2.447	0.1914	-1.7521	-1.2633
1.066	1.5577	0.265	-0.583	0.6684	-0.371	-1.0954	-0.4918	-1.2515	-1.8375	-1.2485	-1.9935	-2.4441	-0.1737	2.5089	0.3563	0.3504	-2.3499	0.162	-1.755	-1.2103
0.957	1.493	0.1855	-0.6567	0.6655	-0.424	-1.1396	-0.4594	-1.2191	-1.7845	-1.1514	-1.8993	-2.3469	-0.1826	2.3793	0.2061	0.3593	-2.2291	0.1502	-1.7727	-1.1366
0.8333	1.384	0.0883	-0.7332	0.639	-0.477	-1.1631	-0.4564	-1.2044	-1.7344	-1.0571	-1.8257	-2.2851	-0.1855	2.2497	0.0618	0.374	-2.1349	0.1355	-1.7609	-1.0836
0.7097	1.2839	-0.0501	-0.8304	0.6066	-0.5183	-1.2162	-0.424	-1.1985	-1.705	-0.9747	-1.7756	-2.1761	-0.1855	2.0907	-0.0353	0.3887	-2.0289	0.1148	-1.758	-1.0306
0.5507	1.1602	-0.1708	-0.9511	0.5713	-0.6037	-1.3074	-0.3975	-1.1985	-1.7079	-0.8834	-1.702	-2.0996	-0.212	1.914	-0.1826	0.4181	-1.9464	0.0825	-1.7845	-0.9806
0.3946	1.0483	-0.2886	-1.063	0.533	-0.6419	-1.3722	-0.3858	-1.2073	-1.6785	-0.7745	-1.6431	-2.0436	-0.2179	1.8051	-0.2503	0.4417	-1.864	0.0795	-1.8139	-0.8981
0.2385	0.9011	-0.4417	-1.2073	0.4653	-0.745	-1.4782	-0.3858	-1.2338	-1.7079	-0.7303	-1.6137	-2.0142	-0.2503	1.6402	-0.3799	0.5006	-1.8375	0.0618	-1.8522	-0.8775
0.0795	0.7656	-0.5683	-1.3104	0.4064	-0.8186	-1.5518	-0.3858	-1.275	-1.7226	-0.6537	-1.5725	-1.97	-0.265	1.5077	-0.4388	0.5212	-1.7845	0.0294	-1.8905	-0.8333
-0.106	0.6272	-0.7686	-1.4576	0.3269	-0.8981	-1.649	-0.3858	-1.3192	-1.7462	-0.5801	-1.5901	-1.9612	-0.2886	1.3604	-0.5094	0.5772	-1.7462	0.0147	-1.9405	-0.7921
-0.2444	0.4829	-0.9099	-1.599	0.2591	-0.9953	-1.7315	-0.3858	-1.3487	-1.7698	-0.533	-1.5725	-1.9258	-0.321	1.2427	-0.5742	0.6331	-1.7462	-0.0118	-1.97	-0.745
-0.3975	0.3357	-1.0336	-1.6991	0.1826	-1.0571	-1.8198	-0.3946	-1.4017	-1.8051	-0.4918	-1.5518	-1.8905	-0.321	1.1013	-0.5889	0.6596	-1.6726	-0.0147	-1.9818	-0.6861
-0.533	0.2209	-1.1808	-1.8228	0.1119	-1.1514	-1.917	-0.3975	-1.4429	-1.808	-0.4329	-1.546	-1.8522	-0.3416	1.0012	-0.6331	0.6802	-1.6637	-0.0442	-2.0053	-0.6331
-0.6478	0.1031	-1.331	-1.9523	0.0501	-1.2162	-1.9641	-0.4034	-1.4694	-1.8139	-0.3445	-1.5047	-1.8404	-0.3534	0.904	-0.6361	0.7038	-1.5931	-0.0501	-2.0436	-0.5772
-0.7921	-0.0589	-1.49	-2.0672	-0.0412	-1.3074	-2.0642	-0.4388	-1.5401	-1.8522	-0.3298	-1.5018	-1.811	-0.3534	0.7745	-0.6684	0.7244	-1.5636	-0.0913	-2.0377	-0.5624
-0.9364	-0.1649	-1.6137	-2.1496	-0.106	-1.3781	-2.0996	-0.4388	-1.5666	-1.8404	-0.2945	-1.4606	-1.7315	-0.3475	0.7214	-0.7008	0.6979	-1.4871	-0.0883	-2.0289	-0.4977
-1.0748	-0.3092	-1.7756	-2.2497	-0.2267	-1.4782	-2.1526	-0.4653	-1.6196	-1.8404	-0.2591	-1.4723	-1.7079	-0.3475	0.5889	-0.7892	0.6979	-1.4429	-0.1237	-2.02	-0.4505
-1.2103	-0.4211	-1.914	-2.3381	-0.3033	-1.5842	-2.2203	-0.5153	-1.6785	-1.8522	-0.2562	-1.4812	-1.6785	-0.3298	0.5035	-0.8304	0.6655	-1.3663	-0.1325	-1.9935	-0.3769
-1.3281	-0.5654	-2.0524	-2.4735	-0.4358	-1.6873	-2.291	-0.5742	-1.7462	-1.861	-0.2503	-1.4959	-1.6431	-0.3151	0.4152	-0.9305	0.6302	-1.2986	-0.1649	-1.9877	-0.3445
-1.5077	-0.6979	-2.2173	-2.5589	-0.5477	-1.8139	-2.3469	-0.6626	-1.8198	-1.8875	-0.2591	-1.5371	-1.6343	-0.2945	0.3269	-1.0454	0.6066	-1.2279	-0.1796	-1.9788	-0.2886
-1.6343	-0.8422	-2.3764	-2.6414	-0.6596	-1.9229	-2.4205	-0.7126	-1.9288	-1.9288	-0.2797	-1.543	-1.6284	-0.2827	0.268	-1.1425	0.5683	-1.1366	-0.2032	-1.9641	-0.2297
-1.7786	-0.9982	-2.5736	-2.7592	-0.8275	-2.0848	-2.5089	-0.8127	-2.0583	-1.9935	-0.3386	-1.6343	-1.6637	-0.268	0.1561	-1.2927	0.5565	-1.1043	-0.2591	-1.9818	-0.1973
-1.9405	-1.1661	-2.7415	-2.8828	-0.9717	-2.2409	-2.6149	-0.9217	-2.1732	-2.0436	-0.4005	-1.702	-1.6991	-0.2621	0.0707	-1.4223	0.5389	-1.0778	-0.2856	-1.9965	-0.1443
-2.1025	-1.3015	-2.9241	-3.0242	-1.1396	-2.4087	-2.7062	-1.0395	-2.3204	-2.1084	-0.4741	-1.7874	-1.7432	-0.265	0.0029	-1.5666	0.5242	-1.0542	-0.3357	-2.0024	-0.0972
-2.2733	-1.4723	-3.1272	-3.1596	-1.3015	-2.5913	-2.821	-1.169	-2.4765	-2.182	-0.5742	-1.8787	-1.811	-0.2532	-0.0766	-1.7167	0.5006	-1.0513	-0.3622	-2.0524	-0.0589
-2.4647	-1.6549	-3.351	-3.2892	-1.5077	-2.7651	-2.9388	-1.3104	-2.6443	-2.2821	-0.6684	-1.9994	-1.8699	-0.2474	-0.162	-1.8669	0.4859	-1.0336	-0.4152	-2.0878	-0.0412
-2.6237	-1.8169	-3.5631	-3.4482	-1.705	-2.9653	-3.0536	-1.4782	-2.8357	-2.3822	-0.798	-2.1261	-1.967	-0.2356	-0.2709	-2.0495	0.48	-1.0424	-0.4711	-2.1555	-0.0088
-2.8004	-2.0348	-3.7574	-3.6072	-1.8964	-3.1567	-3.1596	-1.6255	-3.0036	-2.4765	-0.8952	-2.2468	-2.0377	-0.2267	-0.3534	-2.1938	0.4623	-1.0542	-0.5212	-2.1997	0.0088
-2.9535	-2.1967	-3.9783	-3.7692	-2.0789	-3.3599	-3.2951	-1.755	-3.1596	-2.5501	-1.0041	-2.3646	-2.0937	-0.2238	-0.4564	-2.3322	0.4329	-1.0513	-0.5742	-2.2409	0.0294
-3.1655	-2.3675	-4.1756	-3.9223	-2.288	-3.5601	-3.4306	-1.9052	-3.3363	-2.6649	-1.1101	-2.4824	-2.1702	-0.2032	-0.5565	-2.4735	0.4123	-1.0542	-0.6243	-2.2645	0.0471
-3.3098	-2.5471	-4.3699	-4.0519	-2.4706	-3.728	-3.5071	-2.0583	-3.4953	-2.7356	-1.2279	-2.6002	-2.235	-0.1796	-0.639	-2.5943	0.3593	-1.0483	-0.6949	-2.291	0.0442
-3.4718	-2.7238	-4.5466	-4.2138	-2.6473	-3.9017	-3.5925	-2.185	-3.6278	-2.8122	-1.331	-2.6944	-2.2939	-0.1708	-0.7479	-2.7327	0.3298	-1.0218	-0.7656	-2.3116	0.0294
-3.6573	-2.9064	-4.7085	-4.3522	-2.8387	-4.0725	-3.6808	-2.3499	-3.7721	-2.8917	-1.4517	-2.8122	-2.3469	-0.1443	-0.8569	-2.8534	0.2886	-0.9806	-0.8098	-2.3381	0.0353
-3.8163	-3.0566	-4.9029	-4.4995	-2.9947	-4.2344	-3.7692	-2.4765	-3.9046	-2.9506	-1.5047	-2.8946	-2.3911	-0.1266	-0.9511	-2.9888	0.2532	-0.9717	-0.8598	-2.3351	0.0294
-3.993	-3.2303	-5.0648	-4.6526	-3.1832	-4.42	-3.8575	-2.6208	-4.043	-3.0065	-1.6107	-3.0036	-2.4559	-0.1266	-1.0571	-3.1037	0.2415	-0.9482	-0.9335	-2.344	-0.0294
-4.1756	-3.3687	-5.2268	-4.8116	-3.3304	-4.579	-3.9665	-2.7444	-4.1697	-3.086	-1.6873	-3.0949	-2.4883	-0.1178	-1.2044	-3.2097	0.2385	-0.9099	-0.9688	-2.3557	-0.0177
-4.3257	-3.5454	-5.4212	-4.9441	-3.5336	-4.7498	-4.0548	-2.8946	-4.3198	-3.1567	-1.7904	-3.2097	-2.5619	-0.1207	-1.3133	-3.3275	0.2444	-0.9011	-1.01	-2.3881	-0.0825
-4.4936	-3.6897	-5.5802	-5.1002	-3.675	-4.897	-4.1461	-3.0124	-4.4376	-3.2244	-1.8434	-3.3069	-2.6031	-0.1296	-1.4488	-3.4188	0.2532	-0.854	-1.063	-2.3881	-0.0942
-4.6968	-3.8605	-5.7451	-5.2563	-3.8369	-5.0884	-4.2521	-3.1596	-4.5908	-3.3245	-1.9523	-3.4158	-2.6738	-0.1443	-1.5842	-3.5542	0.3004	-0.8481	-1.1366	-2.4382	-0.1443
-4.8587	-3.9959	-5.91	-5.3917	-3.9576	-5.2091	-4.3463	-3.2509	-4.6968	-3.3687	-1.9935	-3.5071	-2.7062	-0.1737	-1.705	-3.6161	0.3239	-0.8304	-1.1308	-2.4323	-0.1443
-5.0118	-4.1638	-6.0867	-5.5831	-4.1167	-5.4064	-4.4847	-3.351	-4.8499	-3.4629	-2.0701	-3.6102	-2.7827	-0.2032	-1.8551	-3.7309	0.3946	-0.8422	-1.1779	-2.4529	-0.1649
-5.1944	-4.314	-6.2457	-5.7303	-4.258	-5.5861	-4.6055	-3.4571	-4.9677	-3.5513	-2.1202	-3.7103	-2.8446	-0.2209	-1.9965	-3.8192	0.4535	-0.8216	-1.2162	-2.4676	-0.1826
-5.3593	-4.4641	-6.4253	-5.8835	-4.3817	-5.7392	-4.738	-3.5542	-5.0972	-3.6455	-2.1614	-3.7957	-2.9182	-0.2621	-2.1673	-3.9046	0.5153	-0.8275	-1.2103	-2.5	-0.1826
-5.5331	-4.5996	-6.602	-6.0543	-4.4818	-5.8658	-4.8499	-3.619	-5.1974	-3.7339	-2.1702	-3.8958	-2.9653	-0.2915	-2.3234	-3.9694	0.5919	-0.8127	-1.2427	-2.5148	-0.1531
-5.6803	-4.7851	-6.7993	-6.2133	-4.6379	-6.0543	-4.9883	-3.7132	-5.3328	-3.8369	-2.2203	-3.9753	-3.033	-0.3445	-2.4647	-4.043	0.6743	-0.8039	-1.275	-2.5442	-0.159
-5.8275	-4.8882	-6.9377	-6.3458	-4.7468	-6.2457	-5.1002	-3.7927	-5.427	-3.9017	-2.2173	-4.0725	-3.0919	-0.3622	-2.6208	-4.1019	0.7362	-0.8098	-1.2692	-2.5589	-0.1207
-5.963	-5.0177	-7.1026	-6.4695	-4.8145	-6.3605	-5.2091	-3.8369	-5.5036	-3.9665	-2.2262	-4.096	-3.142	-0.4005	-2.7533	-4.1549	0.8068	-0.7745	-1.2574	-2.5413	-0.0766
-6.1132	-5.1179	-7.2498	-6.5902	-4.9176	-6.496	-5.3151	-3.9076	-5.6008	-4.0342	-2.2085	-4.1491	-3.1685	-0.4417	-2.8475	-4.2138	0.8805	-0.7421	-1.2544	-2.5442	-0.0442
-6.2339	-5.2268	-7.3794	-6.705	-4.9853	-6.6167	-5.4094	-3.9341	-5.6656	-4.0872	-2.235	-4.1873	-3.2038	-0.4711	-2.9623	-4.2492	0.9541	-0.6979	-1.2368	-2.5206	-0.0059
-6.3281	-5.3328	-7.5266	-6.8199	-5.059	-6.7521	-5.5124	-4.0018	-5.7245	-4.1343	-2.2203	-4.2286	-3.2215	-0.5271	-3.0772	-4.311	1.0247	-0.6567	-1.2162	-2.5059	0.053
-6.4488	-5.4418	-7.6297	-6.9229	-5.1267	-6.8729	-5.5743	-4.0342	-5.7922	-4.1756	-2.2173	-4.2403	-3.248	-0.5477	-3.1479	-4.3228	1.0925	-0.6154	-1.2368	-2.4735	0.0942
-6.5519	-5.5242	-7.7504	-7.0113	-5.1944	-6.9789	-5.6832	-4.0843	-5.8305	-4.2403	-2.2232	-4.2875	-3.2686	-0.586	-3.2244	-4.3434	1.1484	-0.5742	-1.2485	-2.4588	0.1561
-6.6344	-5.6067	-7.824	-7.0761	-5.2297	-7.079	-5.7421	-4.1049	-5.8776	-4.2639	-2.2085	-4.3169	-3.2774	-0.5978	-3.2833	-4.364	1.1897	-0.5242	-1.222	-2.4264	0.1973
-6.7374	-5.6891	-7.9447	-7.1732	-5.3122	-7.1997	-5.8393	-4.1638	-5.9541	-4.3051	-2.2115	-4.3463	-3.3245	-0.6213	-3.3098	-4.4023	1.2368	-0.4711	-1.2427	-2.4029	0.2415
-6.8199	-5.7922	-8.0714	-7.238	-5.3888	-7.3087	-5.9159	-4.1873	-5.9806	-4.3405	-2.2085	-4.3728	-3.3422	-0.6272	-3.3893	-4.4406	1.2603	-0.4181	-1.2427	-2.3911	0.2856
-6.9141	-5.8746	-8.1391	-7.3322	-5.4418	-7.4147	-6.0071	-4.2168	-6.0513	-4.4082	-2.235	-4.4288	-3.3834	-0.6419	-3.4335	-4.4553	1.2868	-0.4005	-1.2338	-2.3764	0.3092
-6.9936	-5.9424	-8.2598	-7.3853	-5.5154	-7.506	-6.0867	-4.2727	-6.1014	-4.4553	-2.2173	-4.4582	-3.4335	-0.6478	-3.4777	-4.4553	1.2927	-0.3651	-1.2279	-2.3852	0.3475
-7.0731	-6.0248	-8.3599	-7.4883	-5.5861	-7.6061	-6.172	-4.3257	-6.175	-4.5024	-2.2645	-4.5289	-3.4806	-0.6508	-3.5395	-4.4995	1.2986	-0.371	-1.2309	-2.4058	0.3769
-7.1232	-6.0955	-8.4542	-7.5354	-5.6391	-7.7033	-6.2398	-4.364	-6.2339	-4.5613	-2.2674	-4.5643	-3.5307	-0.6478	-3.5866	-4.5319	1.2868	-0.371	-1.2338	-2.4058	0.4064
-7.2027	-6.1662	-8.5396	-7.6032	-5.7068	-7.7651	-6.3399	-4.3905	-6.2898	-4.629	-2.291	-4.6261	-3.6102	-0.6331	-3.6337	-4.5584	1.2633	-0.3563	-1.2368	-2.4205	0.4417
-7.2469	-6.2251	-8.6279	-7.6797	-5.7863	-7.8564	-6.3752	-4.4406	-6.3222	-4.6614	-2.3086	-4.6644	-3.6573	-0.6272	-3.6779	-4.579	1.2427	-0.3651	-1.225	-2.4323	0.4446
-7.294	-6.3016	-8.7192	-7.7357	-5.8275	-7.9124	-6.4547	-4.4936	-6.3811	-4.7056	-2.344	-4.7233	-3.7015	-0.6066	-3.7162	-4.6055	1.222	-0.3828	-1.2368	-2.45	0.4741
-7.3234	-6.3458	-8.7693	-7.7887	-5.9011	-7.9771	-6.4724	-4.5171	-6.3929	-4.7262	-2.3528	-4.7115	-3.7339	-0.583	-3.7456	-4.5937	1.1867	-0.3828	-1.2368	-2.4441	0.4859
-7.3676	-6.387	-8.834	-7.827	-5.9217	-8.0036	-6.5077	-4.5142	-6.4371	-4.735	-2.344	-4.7557	-3.7545	-0.586	-3.7869	-4.6055	1.1543	-0.3681	-1.225	-2.4411	0.5006
-7.3529	-6.4165	-8.8782	-7.8535	-5.9659	-8.0508	-6.5342	-4.5348	-6.4518	-4.7409	-2.3734	-4.7674	-3.7692	-0.5624	-3.8222	-4.5908	1.1072	-0.3416	-1.2073	-2.4087	0.5477
-7.3823	-6.4547	-8.9283	-7.877	-5.9806	-8.0508	-6.5549	-4.5613	-6.4665	-4.7439	-2.397	-4.7792	-3.778	-0.533	-3.8192	-4.5701	1.0689	-0.3269	-1.222	-2.4146	0.533
-7.4	-6.4695	-8.9342	-7.8829	-5.9924	-8.0743	-6.5431	-4.5495	-6.4547	-4.7439	-2.3764	-4.7792	-3.7604	-0.5065	-3.8192	-4.576	1.0189	-0.2945	-1.2044	-2.3705	0.5713
-7.3735	-6.5107	-8.9901	-7.9006	-6.0336	-8.0773	-6.546	-4.5878	-6.4695	-4.7233	-2.4029	-4.791	-3.7927	-0.4859	-3.8104	-4.579	0.9806	-0.2532	-1.2132	-2.3705	0.5919
-7.3794	-6.5048	-8.993	-7.877	-6.0543	-8.089	-6.546	-4.5996	-6.4724	-4.7292	-2.4235	-4.8116	-3.7751	-0.4711	-3.8281	-4.6025	0.9394	-0.2297	-1.1926	-2.3234	0.583
-7.3705	-6.5254	-9.0078	-7.8829	-6.0601	-8.0949	-6.5284	-4.5908	-6.4783	-4.6909	-2.4235	-4.8322	-3.7486	-0.4594	-3.7927	-4.629	0.9011	-0.2032	-1.1808	-2.2998	0.6125
-7.3352	-6.496	-9.0019	-7.8623	-6.0425	-8.092	-6.5048	-4.5849	-6.4842	-4.6703	-2.4146	-4.8322	-3.7427	-0.4152	-3.7456	-4.6202	0.8333	-0.1502	-1.1779	-2.2645	0.6449
-7.3352	-6.4871	-9.0107	-7.8476	-6.0366	-8.0949	-6.4753	-4.576	-6.4842	-4.6732	-2.394	-4.8204	-3.7074	-0.3946	-3.7309	-4.6379	0.798	-0.1148	-1.1749	-2.2085	0.6478
-7.3057	-6.4636	-8.9989	-7.8505	-6.0248	-8.0979	-6.4812	-4.5849	-6.5048	-4.6761	-2.4264	-4.8411	-3.7309	-0.3887	-3.672	-4.6909	0.7656	-0.109	-1.1602	-2.2026	0.6478
-7.2881	-6.443	-8.9901	-7.8476	-5.9954	-8.0831	-6.4606	-4.5878	-6.4989	-4.6761	-2.4441	-4.8528	-3.728	-0.3769	-3.6249	-4.6938	0.7479	-0.0795	-1.1573	-2.2026	0.6537
-7.2439	-6.4076	-8.9724	-7.8181	-5.9895	-8.0537	-6.4459	-4.6084	-6.4989	-4.6585	-2.4352	-4.8734	-3.728	-0.3681	-3.5454	-4.7321	0.7214	-0.0825	-1.1543	-2.1761	0.6449
-7.1791	-6.3311	-8.9459	-7.7916	-5.9424	-8.0331	-6.4135	-4.5643	-6.4989	-4.6614	-2.4382	-4.8646	-3.728	-0.3504	-3.4953	-4.7292	0.6979	-0.0795	-1.1366	-2.1349	0.6537
-7.1379	-6.2987	-8.9283	-7.7681	-5.9129	-8.0036	-6.4223	-4.5554	-6.4842	-4.6703	-2.4146	-4.9088	-3.7397	-0.3504	-3.4276	-4.735	0.6773	-0.0766	-1.1308	-2.1202	0.6802
-7.0466	-6.2133	-8.8605	-7.7062	-5.8717	-7.9536	-6.3752	-4.5083	-6.4577	-4.6408	-2.4058	-4.8999	-3.7074	-0.3327	-3.351	-4.7144	0.6537	-0.0825	-1.116	-2.1113	0.6832
-6.9642	-6.1397	-8.8046	-7.6532	-5.8305	-7.8829	-6.3281	-4.4818	-6.4371	-4.6055	-2.3822	-4.8469	-3.7191	-0.321	-3.2333	-4.6761	0.6419	-0.0559	-1.1043	-2.076	0.6743
-6.8847	-6.0867	-8.7398	-7.6032	-5.7657	-7.8446	-6.3104	-4.4671	-6.3929	-4.5966	-2.3616	-4.8499	-3.6897	-0.318	-3.1714	-4.6379	0.6478	-0.0471	-1.0807	-2.0701	0.6773
-6.7875	-5.9836	-8.6397	-7.5266	-5.6921	-7.771	-6.2398	-4.4052	-6.3281	-4.5584	-2.2968	-4.8145	-3.6514	-0.3239	-3.0536	-4.5584	0.6361	-0.0442	-1.0365	-2.0466	0.692
-6.6903	-5.91	-8.5749	-7.4471	-5.6449	-7.7062	-6.1544	-4.3581	-6.2781	-4.5024	-2.2674	-4.7645	-3.6072	-0.3121	-2.9947	-4.5171	0.6213	-0.0236	-1.0218	-1.9935	0.6949
-6.599	-5.8216	-8.4718	-7.3764	-5.5949	-7.6208	-6.1249	-4.3081	-6.2251	-4.4671	-2.2409	-4.7085	-3.5601	-0.318	-2.9123	-4.4847	0.6184	-0.0236	-0.9982	-1.967	0.6949
-6.4901	-5.7539	-8.3835	-7.2734	-5.4918	-7.5237	-6.0454	-4.2433	-6.1632	-4.4052	-2.2262	-4.6467	-3.5071	-0.3062	-2.8239	-4.4111	0.6154	0.0236	-0.9776	-1.9023	0.7067
-6.3958	-5.6773	-8.2804	-7.188	-5.4329	-7.4441	-5.963	-4.1814	-6.0808	-4.3552	-2.1908	-4.5996	-3.4276	-0.3121	-2.7356	-4.3405	0.6125	0.0618	-0.9394	-1.8228	0.7391
-6.2928	-5.5743	-8.1656	-7.0878	-5.3593	-7.3411	-5.854	-4.099	-5.9954	-4.2757	-2.1349	-4.5466	-3.351	-0.2945	-2.6738	-4.2286	0.6007	0.1207	-0.9217	-1.755	0.7362
-6.2368	-5.5036	-8.092	-7.0142	-5.2916	-7.2586	-5.8099	-4.043	-5.9394	-4.2492	-2.1025	-4.4906	-3.3157	-0.2974	-2.606	-4.1314	0.5948	0.1178	-0.9011	-1.7256	0.7745
-6.1102	-5.4212	-7.9742	-6.8788	-5.1767	-7.1291	-5.6803	-3.9753	-5.8187	-4.1579	-2.0348	-4.3846	-3.2362	-0.2768	-2.553	-4.0342	0.5772	0.1826	-0.8569	-1.6343	0.7921
-6.0248	-5.3387	-7.8858	-6.811	-5.1149	-7.0437	-5.6273	-3.8988	-5.7421	-4.096	-1.9906	-4.3198	-3.1685	-0.3004	-2.4618	-3.9164	0.5889	0.2238	-0.8039	-1.5842	0.8275
-5.9335	-5.2739	-7.7946	-6.7109	-5.0354	-6.9642	-5.5478	-3.834	-5.6597	-4.0401	-1.9347	-4.2344	-3.142	-0.2915	-2.397	-3.7927	0.5889	0.2356	-0.7686	-1.5401	0.8245
-5.8364	-5.1885	-7.6738	-6.5931	-4.9264	-6.8405	-5.4535	-3.7456	-5.5389	-3.9635	-1.8699	-4.1491	-3.0566	-0.2945	-2.3528	-3.6602	0.5919	0.2797	-0.7362	-1.4812	0.8628
-5.7245	-5.1208	-7.5678	-6.496	-4.8528	-6.7168	-5.374	-3.6337	-5.4418	-3.8958	-1.7727	-4.0372	-2.9918	-0.2886	-2.288	-3.5572	0.5948	0.3004	-0.6979	-1.4105	0.8805
-5.642	-5.0531	-7.4824	-6.4223	-4.7615	-6.599	-5.2828	-3.5542	-5.3505	-3.8575	-1.6932	-3.9253	-2.9329	-0.3033	-2.2291	-3.4571	0.6125	0.3062	-0.6213	-1.3899	0.9276
-5.5272	-4.9677	-7.3735	-6.3075	-4.6349	-6.4989	-5.1944	-3.4836	-5.2268	-3.7633	-1.6196	-3.8369	-2.874	-0.3121	-2.185	-3.3481	0.6449	0.3239	-0.5919	-1.3575	0.9511
-5.4477	-4.8676	-7.2616	-6.2192	-4.5466	-6.3664	-5.0972	-3.3658	-5.1208	-3.6956	-1.5253	-3.7015	-2.821	-0.3386	-2.1143	-3.2303	0.6773	0.3033	-0.5183	-1.3457	0.9776
-5.3505	-4.7822	-7.1408	-6.122	-4.4317	-6.2309	-5.0118	-3.2656	-4.9647	-3.6013	-1.4076	-3.5807	-2.7268	-0.3445	-2.0583	-3.1184	0.6979	0.3121	-0.4711	-1.2927	1.0159
-5.2386	-4.7027	-7.0378	-6.0336	-4.3257	-6.1102	-4.9176	-3.1567	-4.8263	-3.5248	-1.3281	-3.4688	-2.6561	-0.3593	-1.9994	-2.9977	0.7391	0.3445	-0.4093	-1.2456	1.0277
-5.1149	-4.5878	-6.8964	-5.8923	-4.1932	-5.96	-4.7822	-3.0271	-4.6555	-3.407	-1.1985	-3.3187	-2.553	-0.3858	-1.9317	-2.9093	0.7627	0.3563	-0.3504	-1.1838	1.0601
-5.0266	-4.5054	-6.7698	-5.7922	-4.0813	-5.8422	-4.6585	-2.9417	-4.5024	-3.3128	-1.1013	-3.1626	-2.4559	-0.4005	-1.8875	-2.7768	0.798	0.3681	-0.3062	-1.1514	1.0689
-4.9088	-4.4082	-6.6255	-5.6715	-3.9635	-5.6626	-4.5377	-2.8298	-4.3493	-3.1685	-1.0071	-3.0065	-2.3557	-0.3916	-1.8257	-2.6797	0.798	0.4093	-0.2621	-1.0895	1.0925
-4.7998	-4.2816	-6.4812	-5.5331	-3.8251	-5.5036	-4.417	-2.6885	-4.1962	-3.0448	-0.8863	-2.8504	-2.2056	-0.4005	-1.7786	-2.5766	0.8157	0.4505	-0.2238	-1.013	1.0836
-4.7027	-4.1697	-6.3163	-5.4094	-3.6985	-5.3505	-4.2698	-2.5589	-4.0165	-2.8946	-0.7656	-2.6649	-2.0731	-0.4005	-1.7285	-2.4794	0.7833	0.5065	-0.1737	-0.9482	1.119
-4.5996	-4.0578	-6.1927	-5.2769	-3.5807	-5.1944	-4.1402	-2.447	-3.8487	-2.7592	-0.6714	-2.5265	-1.9435	-0.3946	-1.7344	-2.4352	0.7862	0.5507	-0.1472	-0.8834	1.1249
-4.4789	-3.937	-6.0101	-5.1444	-3.46	-5.0354	-3.9959	-2.3263	-3.6897	-2.6119	-0.5477	-2.3557	-1.8051	-0.3887	-1.6755	-2.3528	0.7803	0.6095	-0.106	-0.801	1.1366
-4.3728	-3.8016	-5.8422	-5.0089	-3.3245	-4.844	-3.8752	-2.1791	-3.5071	-2.447	-0.4181	-2.1879	-1.6755	-0.3622	-1.6196	-2.2232	0.7273	0.7126	-0.0353	-0.7214	1.1955
-4.2521	-3.6838	-5.7038	-4.8587	-3.1891	-4.7085	-3.725	-2.0701	-3.3481	-2.2998	-0.3151	-2.02	-1.5371	-0.3563	-1.5754	-2.1791	0.7185	0.7479	0.0118	-0.6655	1.1985
-4.1314	-3.5454	-5.5301	-4.7292	-3.0448	-4.5142	-3.5866	-1.9317	-3.1596	-2.1555	-0.215	-1.8699	-1.4252	-0.3416	-1.5195	-2.0848	0.6773	0.8039	0.0618	-0.5919	1.2397
-4.0018	-3.3893	-5.3446	-4.5878	-2.9005	-4.3522	-3.4335	-1.808	-2.983	-2.0171	-0.0972	-1.7138	-1.2839	-0.318	-1.4282	-2.02	0.6419	0.854	0.1355	-0.5271	1.2809
-3.8575	-3.2303	-5.1561	-4.4406	-2.7386	-4.1873	-3.2892	-1.6696	-2.8063	-1.8934	0.0442	-1.5489	-1.1661	-0.2974	-1.3604	-1.9376	0.5919	0.907	0.2209	-0.4682	1.3369
-3.7132	-3.0919	-4.9706	-4.2904	-2.5913	-3.99	-3.1479	-1.5548	-2.6443	-1.7432	0.1767	-1.4105	-1.0542	-0.2768	-1.2603	-1.8758	0.5477	0.9541	0.3269	-0.424	1.4311
-3.5601	-2.9329	-4.7969	-4.1373	-2.4382	-3.8222	-2.9947	-1.4252	-2.4676	-1.599	0.2856	-1.2309	-0.9158	-0.2562	-1.1661	-1.7727	0.5094	1.01	0.4034	-0.371	1.4782
-3.3805	-2.7415	-4.5701	-3.9518	-2.2468	-3.622	-2.8328	-1.2427	-2.2733	-1.4193	0.4211	-1.0571	-0.7715	-0.2238	-1.0395	-1.7109	0.4388	1.0601	0.5183	-0.2709	1.5872
-3.2274	-2.5943	-4.3846	-3.7927	-2.0672	-3.4423	-2.6797	-1.0836	-2.0937	-1.2809	0.5595	-0.8952	-0.639	-0.1914	-0.9276	-1.6402	0.3887	1.1249	0.6066	-0.2238	1.6549
-3.0389	-2.3881	-4.1373	-3.6161	-1.8964	-3.2421	-2.4971	-0.9217	-1.8699	-1.1131	0.6832	-0.7185	-0.5006	-0.1472	-0.8068	-1.5695	0.3092	1.1779	0.7185	-0.1355	1.7609
-2.8887	-2.2173	-3.9547	-3.4394	-1.7315	-3.0419	-2.3616	-0.7656	-1.6902	-0.9659	0.8157	-0.5624	-0.3651	-0.1384	-0.7038	-1.546	0.268	1.2132	0.8392	-0.0618	1.8493
-2.7238	-2.0731	-3.7692	-3.2922	-1.5666	-2.8887	-2.2173	-0.6449	-1.5195	-0.8363	0.9305	-0.424	-0.2562	-0.106	-0.5948	-1.5136	0.212	1.2485	0.9276	-0.0118	1.9376
-2.5736	-1.8787	-3.5719	-3.1155	-1.3693	-2.7032	-2.0848	-0.477	-1.3222	-0.6891	1.0454	-0.2709	-0.1031	-0.0766	-0.48	-1.4694	0.159	1.3222	1.0454	0.0883	1.9906
-2.4176	-1.705	-3.3687	-2.9623	-1.2132	-2.5148	-1.9199	-0.3151	-1.1484	-0.5595	1.1838	-0.1207	0.0353	-0.053	-0.3475	-1.4664	0.106	1.4134	1.1278	0.1678	2.0672
-2.2733	-1.5577	-3.195	-2.7916	-1.0306	-2.3587	-1.7668	-0.1885	-0.9982	-0.4299	1.2957	0.0029	0.1502	-0.0383	-0.2532	-1.4429	0.0648	1.4576	1.2397	0.2532	2.1643
-2.1408	-1.3899	-3.033	-2.6532	-0.8775	-2.2026	-1.6579	-0.0707	-0.8186	-0.3033	1.3869	0.1443	0.2709	-0.0088	-0.1472	-1.4282	0.0353	1.5342	1.331	0.321	2.2674
-2.0112	-1.2456	-2.9064	-2.5089	-0.745	-2.0789	-1.5548	0.0677	-0.6861	-0.1885	1.4694	0.2591	0.3681	0.0088	-0.0294	-1.3781	0.0147	1.599	1.4134	0.4181	2.3145
-1.8875	-1.1131	-2.7592	-2.3616	-0.5889	-1.9376	-1.4193	0.162	-0.5477	-0.0942	1.5518	0.3651	0.4682	0.0206	0.0736	-1.3398	-0.0206	1.6755	1.543	0.4977	2.447
-1.7992	-0.9776	-2.6649	-2.2645	-0.4594	-1.8669	-1.3457	0.2768	-0.4329	-0.0206	1.599	0.4329	0.5507	0.0118	0.1413	-1.3133	-0.0029	1.6991	1.6255	0.5565	2.4941
-1.7167	-0.8628	-2.5471	-2.1584	-0.3622	-1.7609	-1.275	0.371	-0.3327	0.0324	1.6873	0.5065	0.6184	0.0147	0.212	-1.2721	-0.0118	1.7403	1.705	0.6213	2.5648
-1.6166	-0.7774	-2.4794	-2.0937	-0.2827	-1.6844	-1.225	0.4535	-0.2591	0.0766	1.7315	0.5713	0.6567	0.0118	0.3092	-1.222	-0.0088	1.7786	1.7963	0.6567	2.6296
-1.5813	-0.7067	-2.4146	-2.023	-0.1973	-1.6431	-1.1543	0.5153	-0.1973	0.1237	1.7874	0.6066	0.692	0.0059	0.3534	-1.2397	-0.0088	1.7904	1.8787	0.6714	2.6826
-1.5283	-0.6802	-2.3705	-1.9788	-0.1207	-1.6255	-1.1514	0.5595	-0.1531	0.1708	1.811	0.6331	0.6861	0.0236	0.3887	-1.2073	-0.0324	1.7933	1.9553	0.6891	2.7621
-1.5136	-0.6596	-2.3499	-1.9435	-0.0795	-1.6078	-1.1308	0.6331	-0.1207	0.1885	1.8551	0.6567	0.7185	0.0088	0.4005	-1.222	-0.0324	1.808	2.023	0.7038	2.8387
-1.4782	-0.6037	-2.3557	-1.9347	-0.0442	-1.5931	-1.1337	0.6537	-0.109	0.1502	1.8699	0.6802	0.745	0.0236	0.427	-1.2162	-0.0412	1.7963	2.0789	0.7067	2.8887
-1.4841	-0.6302	-2.3734	-1.9405	-0.0177	-1.6107	-1.1366	0.6743	-0.0825	0.1649	1.8758	0.6626	0.7156	0.0265	0.3916	-1.2427	-0.0412	1.7904	2.1261	0.6684	2.9241
-1.5312	-0.6449	-2.397	-1.9641	-0.0059	-1.6255	-1.1573	0.6861	-0.106	0.1472	1.8875	0.6537	0.692	0.0118	0.3946	-1.2868	-0.0294	1.7845	2.1526	0.6596	2.9594
-1.546	-0.6626	-2.4352	-1.9464	-0.0177	-1.6284	-1.172	0.7097	-0.0972	0.1384	1.8934	0.6626	0.7038	0.0265	0.3681	-1.2957	-0.0442	1.7815	2.2262	0.6596	3.0036
-1.5842	-0.6802	-2.4765	-1.9405	-0.0236	-1.6637	-1.1867	0.7067	-0.1237	0.1413	1.8905	0.6537	0.692	0.0294	0.3269	-1.3604	-0.0412	1.7639	2.2438	0.6478	3.0242
-1.6225	-0.7244	-2.5442	-1.9935	-0.053	-1.6873	-1.1955	0.7214	-0.1413	0.1148	1.8934	0.6272	0.692	0.0177	0.2974	-1.384	-0.0383	1.7639	2.2527	0.6419	3.033
-1.6814	-0.7656	-2.5678	-2.0053	-0.0795	-1.7138	-1.2279	0.6979	-0.1531	0.109	1.8699	0.6272	0.6537	0.0236	0.2326	-1.4399	-0.0324	1.7933	2.238	0.6125	3.0242
-1.7315	-0.8186	-2.6178	-2.023	-0.0766	-1.7256	-1.2368	0.6743	-0.162	0.1178	1.8669	0.6243	0.6419	0.0147	0.2091	-1.4488	-0.0265	1.811	2.2527	0.5978	3.036
-1.7963	-0.8834	-2.6885	-2.0642	-0.1355	-1.7668	-1.275	0.6537	-0.215	0.0795	1.8257	0.6125	0.6272	-0.0029	0.1561	-1.5018	0.0059	1.7904	2.2468	0.5772	3.0124
-1.8581	-0.9305	-2.7386	-2.0789	-0.1767	-1.7933	-1.3015	0.6184	-0.2415	0.0471	1.8139	0.586	0.6331	-0.0236	0.1031	-1.5695	0.0471	1.7698	2.2026	0.5477	2.9682
-1.917	-0.9717	-2.8004	-2.1084	-0.212	-1.808	-1.3428	0.5889	-0.2768	0.0294	1.7963	0.5654	0.586	-0.0471	0.0501	-1.599	0.0795	1.7904	2.1879	0.5448	2.9506
-1.9818	-1.0483	-2.8799	-2.1496	-0.265	-1.8493	-1.3811	0.533	-0.3445	0	1.7668	0.533	0.5389	-0.0677	0.0059	-1.6402	0.1266	1.7756	2.1526	0.5183	2.9035
-2.0436	-1.0984	-2.9211	-2.1879	-0.2827	-1.8758	-1.4046	0.4977	-0.3475	-0.0147	1.7197	0.5271	0.5035	-0.0913	-0.0589	-1.6549	0.1826	1.7432	2.1113	0.4829	2.8387
-2.1113	-1.1573	-2.9506	-2.2409	-0.3386	-1.8905	-1.4429	0.4711	-0.3799	-0.0677	1.6844	0.4918	0.4859	-0.106	-0.1266	-1.6844	0.2474	1.6961	2.0672	0.4682	2.8004
-2.129	-1.1661	-2.9712	-2.2438	-0.3651	-1.9052	-1.4753	0.4299	-0.4064	-0.0825	1.6667	0.4829	0.4329	-0.1443	-0.1296	-1.6785	0.2856	1.6932	2.0907	0.4388	2.7651
-2.1702	-1.1897	-2.9859	-2.2792	-0.3916	-1.9258	-1.5077	0.424	-0.4446	-0.1178	1.6402	0.4505	0.4181	-0.1649	-0.1737	-1.6844	0.3475	1.6579	2.0613	0.4123	2.7062
-2.1908	-1.2103	-2.9918	-2.3086	-0.4152	-1.9258	-1.5489	0.374	-0.4505	-0.1355	1.6225	0.427	0.3916	-0.1855	-0.1678	-1.6637	0.3975	1.6284	2.0495	0.3593	2.6708
-2.1879	-1.2309	-3.0036	-2.3528	-0.4064	-1.914	-1.5548	0.374	-0.4682	-0.1531	1.599	0.4034	0.3475	-0.212	-0.1826	-1.6314	0.4388	1.6078	2.0436	0.3593	2.6325
-2.1673	-1.2132	-3.0065	-2.344	-0.4064	-1.8905	-1.5754	0.3416	-0.4623	-0.1678	1.5813	0.3916	0.3504	-0.2326	-0.1826	-1.5636	0.4829	1.5783	2.02	0.3357	2.5913
-2.1437	-1.2073	-2.9741	-2.341	-0.4181	-1.864	-1.596	0.3475	-0.4446	-0.1796	1.5725	0.4064	0.3121	-0.2621	-0.2032	-1.5548	0.5448	1.5489	2.02	0.321	2.5442
-2.1172	-1.1926	-2.9594	-2.3705	-0.4123	-1.8551	-1.5931	0.3445	-0.4505	-0.1914	1.543	0.4388	0.3269	-0.2827	-0.1973	-1.5371	0.5772	1.5371	2.023	0.3327	2.5619
-2.0789	-1.1484	-2.9005	-2.3351	-0.3828	-1.8051	-1.5725	0.3534	-0.4299	-0.1914	1.5371	0.424	0.3327	-0.3004	-0.1914	-1.4988	0.6095	1.546	2.0083	0.3239	2.5501
-2.0377	-1.1278	-2.8652	-2.3116	-0.3534	-1.7609	-1.5577	0.3504	-0.424	-0.159	1.5077	0.4417	0.3416	-0.3092	-0.1767	-1.4576	0.639	1.5518	2.0083	0.3504	2.5177
-1.9847	-1.1072	-2.7857	-2.2821	-0.3357	-1.702	-1.5136	0.3769	-0.4034	-0.159	1.5165	0.4711	0.3534	-0.3151	-0.1413	-1.4164	0.6537	1.5813	2.0377	0.3769	2.5324
-1.9229	-1.0513	-2.7268	-2.238	-0.2974	-1.6549	-1.5077	0.4034	-0.3386	-0.109	1.543	0.5242	0.3828	-0.3357	-0.1413	-1.3575	0.6596	1.6166	2.0524	0.4093	2.5413
-1.8787	-1.0159	-2.662	-2.182	-0.2739	-1.5842	-1.4606	0.424	-0.3004	-0.0913	1.5342	0.5418	0.3975	-0.3357	-0.1325	-1.3428	0.6714	1.6637	2.0789	0.4594	2.5589
-1.8169	-0.96	-2.556	-2.1437	-0.2415	-1.5253	-1.4458	0.424	-0.2532	-0.0795	1.5312	0.5801	0.4123	-0.3298	-0.1148	-1.2986	0.6596	1.705	2.0996	0.4888	2.556
-1.7462	-0.9129	-2.4765	-2.0642	-0.1973	-1.4841	-1.4017	0.4623	-0.2179	-0.0177	1.5577	0.6125	0.4535	-0.3121	-0.1031	-1.2456	0.6331	1.7815	2.1349	0.5448	2.5589
-1.6844	-0.8746	-2.4087	-2.0407	-0.1531	-1.4164	-1.3811	0.48	-0.1826	-0.0118	1.5607	0.6213	0.4741	-0.3062	-0.1001	-1.2279	0.6331	1.8345	2.1319	0.5919	2.5707
-1.5931	-0.8186	-2.2998	-1.9494	-0.0883	-1.3369	-1.3251	0.5271	-0.1266	0.0177	1.596	0.7126	0.4947	-0.3062	-0.0825	-1.1808	0.6213	1.9023	2.1526	0.6272	2.6119
-1.543	-0.798	-2.2144	-1.9199	-0.0707	-1.2986	-1.3074	0.5359	-0.109	0.0294	1.6255	0.7597	0.5271	-0.2856	-0.0766	-1.1661	0.6095	1.9435	2.1496	0.6684	2.6237
-1.4723	-0.7362	-2.1467	-1.864	-0.0324	-1.2338	-1.2986	0.5507	-0.053	0.0353	1.6726	0.801	0.5595	-0.2886	-0.0559	-1.1602	0.583	1.9906	2.1908	0.6684	2.6679
-1.3899	-0.6743	-2.0554	-1.8198	-0.0059	-1.169	-1.2662	0.6037	-0.0059	0.0766	1.7079	0.8422	0.5507	-0.2945	-0.053	-1.1514	0.5801	2.0613	2.2026	0.7097	2.7003
-1.3752	-0.6626	-1.9994	-1.7904	0.0206	-1.1514	-1.2633	0.6066	0.0088	0.0589	1.7344	0.8657	0.583	-0.2856	-0.0707	-1.1867	0.5772	2.0966	2.2115	0.7067	2.7062
-1.2868	-0.6095	-1.9229	-1.7403	0.0471	-1.0895	-1.2633	0.6567	0.0648	0.0677	1.7904	0.8952	0.5948	-0.2886	-0.0766	-1.2073	0.5742	2.1113	2.2173	0.7362	2.7386
-1.2485	-0.6007	-1.8669	-1.7138	0.1119	-1.066	-1.2368	0.6743	0.1148	0.0559	1.8404	0.9717	0.6066	-0.2827	-0.109	-1.2368	0.5595	2.1526	2.2438	0.7273	2.7886
-1.2162	-0.5448	-1.8021	-1.6726	0.1472	-1.0159	-1.2397	0.745	0.1796	0.0795	1.9052	1.0218	0.6095	-0.2562	-0.1355	-1.3015	0.5359	2.1732	2.2674	0.7509	2.8357
-1.1955	-0.5124	-1.7698	-1.649	0.2032	-0.9659	-1.2191	0.7862	0.2356	0.0795	1.9847	1.0807	0.6419	-0.2562	-0.1649	-1.3428	0.5124	2.2144	2.291	0.7686	2.8887
-1.1396	-0.48	-1.7079	-1.6166	0.2474	-0.9276	-1.225	0.8451	0.2739	0.0795	2.0613	1.1366	0.6478	-0.2415	-0.2385	-1.4076	0.5006	2.2232	2.3263	0.7568	2.9653
-1.1249	-0.4358	-1.6372	-1.5842	0.3033	-0.8657	-1.1779	0.8775	0.3416	0.0972	2.1378	1.2162	0.6684	-0.2532	-0.2739	-1.49	0.4859	2.2556	2.3734	0.7509	3.0448
-1.0836	-0.3828	-1.5901	-1.5165	0.3534	-0.8068	-1.1631	0.9717	0.4211	0.1413	2.2409	1.3015	0.6802	-0.2326	-0.3327	-1.5253	0.4711	2.2851	2.4411	0.7862	3.0772
-1.0748	-0.3357	-1.5047	-1.4871	0.4594	-0.7479	-1.119	1.0748	0.4947	0.1708	2.3322	1.3781	0.7185	-0.2267	-0.4123	-1.5754	0.4594	2.2939	2.4735	0.798	3.1626
-1.013	-0.2915	-1.4399	-1.4282	0.5153	-0.6891	-1.0836	1.1366	0.5889	0.2061	2.4205	1.4782	0.7479	-0.2209	-0.4888	-1.6431	0.4535	2.3116	2.503	0.8304	3.248
-1.0012	-0.2209	-1.4046	-1.3752	0.5683	-0.6302	-1.0542	1.2279	0.6478	0.2297	2.5413	1.599	0.7951	-0.2267	-0.5595	-1.6932	0.4476	2.344	2.5501	0.8451	3.3216
-0.9717	-0.159	-1.3281	-1.3369	0.6655	-0.5271	-1.0041	1.3398	0.7362	0.268	2.659	1.6844	0.8068	-0.2209	-0.6095	-1.7432	0.4329	2.3616	2.5795	0.8451	3.4188
-0.9511	-0.1296	-1.2721	-1.3045	0.7303	-0.4829	-0.9541	1.4341	0.8068	0.2974	2.7533	1.7904	0.8569	-0.215	-0.7185	-1.8375	0.4299	2.3881	2.6119	0.8893	3.4777
-0.9452	-0.0707	-1.222	-1.2603	0.8098	-0.4093	-0.9246	1.5077	0.8834	0.3269	2.8534	1.864	0.8922	-0.2267	-0.8216	-1.9199	0.4505	2.3852	2.6473	0.8775	3.5454
-0.9187	-0.0324	-1.1661	-1.1838	0.8746	-0.3092	-0.8716	1.6196	1.0071	0.3828	2.9947	1.9935	0.9423	-0.2002	-0.9217	-2.0083	0.4299	2.4087	2.6767	0.9217	3.6072
-0.904	0.0294	-1.1043	-1.1366	0.9688	-0.2179	-0.8216	1.7256	1.1249	0.4123	3.142	2.129	1.01	-0.2091	-1.013	-2.1143	0.4152	2.4294	2.7415	0.9158	3.7103
-0.8598	0.0412	-1.0395	-1.0954	1.0306	-0.1561	-0.7627	1.8257	1.2014	0.4623	3.2185	2.2291	1.0542	-0.2179	-1.116	-2.2144	0.4329	2.4235	2.7444	0.9423	3.7604
-0.8451	0.0883	-0.9717	-1.0218	1.1337	-0.0736	-0.6979	1.9435	1.3133	0.5359	3.3717	2.3528	1.116	-0.2091	-1.2191	-2.2674	0.4152	2.4323	2.7945	0.96	3.8222
-0.8245	0.159	-0.8952	-0.9894	1.2103	0.053	-0.6419	2.0701	1.4341	0.5889	3.5012	2.4824	1.1985	-0.215	-1.2927	-2.3499	0.424	2.4382	2.7974	1.0012	3.8693
-0.745	0.2326	-0.801	-0.8775	1.3074	0.1472	-0.5595	2.1791	1.5783	0.7008	3.6337	2.6119	1.2957	-0.2032	-1.3781	-2.3616	0.424	2.4824	2.8357	1.0159	3.9105
-0.6714	0.3121	-0.6832	-0.7774	1.4076	0.2827	-0.4682	2.3145	1.6902	0.7656	3.7751	2.7798	1.3899	-0.212	-1.4076	-2.3881	0.4181	2.503	2.874	1.0424	3.9783
-0.6508	0.3916	-0.6125	-0.7038	1.4988	0.3769	-0.3504	2.4117	1.8198	0.8716	3.8958	2.9182	1.5047	-0.2061	-1.4635	-2.4117	0.4152	2.5413	2.9035	1.0925	4.0254
-0.5772	0.4299	-0.4741	-0.583	1.596	0.5242	-0.2709	2.556	1.9494	0.9776	4.0195	3.0684	1.6048	-0.2002	-1.4871	-2.4087	0.4064	2.556	2.9241	1.1278	4.0666
-0.5035	0.53	-0.321	-0.4859	1.7109	0.6714	-0.1296	2.6708	2.1349	1.116	4.1638	3.2362	1.7285	-0.1885	-1.4723	-2.3351	0.3858	2.6178	2.9741	1.1602	4.1255
-0.4152	0.6361	-0.2061	-0.3534	1.8551	0.8039	-0.0059	2.7945	2.2527	1.225	4.2757	3.3923	1.8522	-0.1855	-1.49	-2.3027	0.3622	2.6885	3.0154	1.2044	4.2021
-0.318	0.7244	-0.0471	-0.2091	1.9847	0.9394	0.106	2.9241	2.4029	1.3516	4.4229	3.5424	1.9935	-0.1531	-1.4841	-2.235	0.318	2.7356	3.0448	1.2485	4.261
-0.1973	0.8422	0.1266	-0.0972	2.0731	1.0984	0.2179	3.0625	2.5265	1.4694	4.5643	3.6956	2.1261	-0.1384	-1.4547	-2.2085	0.2797	2.7945	3.0919	1.3369	4.3287
-0.1296	0.9335	0.2768	0.0412	2.1938	1.2574	0.3475	3.1655	2.6649	1.6107	4.6732	3.8369	2.2262	-0.106	-1.3958	-2.1614	0.2179	2.8799	3.1272	1.3958	4.3699
-0.0294	1.0365	0.4064	0.1443	2.3116	1.3693	0.4564	3.3098	2.8151	1.7403	4.7586	3.9665	2.3734	-0.0795	-1.3516	-2.0907	0.1649	2.93	3.1361	1.4547	4.4288
0.0471	1.1366	0.5624	0.2739	2.4087	1.4988	0.583	3.404	2.9447	1.8375	4.8646	4.0843	2.4735	-0.0501	-1.3398	-2.076	0.106	3.0095	3.1655	1.5106	4.473
0.1178	1.2279	0.6949	0.371	2.5324	1.5901	0.6743	3.4865	3.0301	1.8846	4.9736	4.1814	2.553	-0.0206	-1.2957	-2.0583	0.0442	3.0831	3.1803	1.5577	4.523
0.1767	1.3222	0.8157	0.4564	2.6002	1.6961	0.7597	3.5424	3.1155	1.9965	5.0354	4.2875	2.6208	-0.0029	-1.2868	-2.0524	-0.0059	3.1361	3.2009	1.6019	4.5525
0.2385	1.3958	0.9217	0.5212	2.6855	1.808	0.8333	3.622	3.2038	2.0554	5.1061	4.3581	2.6826	0.0412	-1.2809	-2.0318	-0.0707	3.1891	3.2009	1.6343	4.5966
0.3151	1.4488	1.0277	0.5683	2.7592	1.8493	0.8922	3.6808	3.2627	2.1261	5.1767	4.4465	2.7768	0.0707	-1.2957	-2.0495	-0.1325	3.2745	3.2126	1.6844	4.6261
0.3504	1.5077	1.119	0.6449	2.8357	1.9288	0.9364	3.7456	3.354	2.2115	5.2504	4.526	2.8593	0.0972	-1.2927	-2.0436	-0.1767	3.3452	3.2244	1.7432	4.6703
0.3946	1.5754	1.1838	0.692	2.8799	1.9965	0.9924	3.8222	3.407	2.2762	5.3269	4.5937	2.9182	0.106	-1.2927	-2.02	-0.2032	3.4099	3.2215	1.7933	4.6909
0.4829	1.6608	1.2927	0.7597	2.983	2.0642	1.0571	3.8958	3.5189	2.3764	5.4153	4.6968	3.0566	0.1355	-1.2809	-2.0083	-0.2415	3.5071	3.2421	1.8669	4.7527
0.5035	1.6902	1.3516	0.801	3.036	2.129	1.1131	3.9576	3.5572	2.4264	5.4889	4.7939	3.1361	0.1443	-1.2721	-1.9847	-0.2739	3.6396	3.2627	1.9376	4.8116
0.53	1.7609	1.4017	0.8598	3.1125	2.182	1.1926	4.046	3.6661	2.5413	5.6008	4.8999	3.2892	0.1708	-1.2692	-1.9612	-0.3004	3.7692	3.2863	2.0142	4.9206
0.5772	1.8434	1.4959	0.9246	3.192	2.2615	1.275	4.1461	3.7839	2.6826	5.7333	5.0207	3.4217	0.1767	-1.2721	-1.9347	-0.3239	3.9429	3.3245	2.1202	5.0089
0.6095	1.8669	1.5312	0.9688	3.245	2.3204	1.3398	4.1991	3.8546	2.768	5.8216	5.1326	3.5572	0.1767	-1.2485	-1.9435	-0.3327	4.0725	3.3569	2.2026	5.0619
0.6037	1.8993	1.5931	1.0159	3.3187	2.3822	1.4105	4.3022	3.9665	2.8887	5.9276	5.2504	3.7191	0.1943	-1.2574	-1.9347	-0.3445	4.2639	3.3569	2.2821	5.1355
0.6596	1.9818	1.6549	1.0954	3.3952	2.4588	1.5224	4.4141	4.0902	3.0301	6.0749	5.4153	3.8988	0.2002	-1.2456	-1.9288	-0.371	4.4582	3.4158	2.4146	5.2386
0.6419	2.02	1.6844	1.1337	3.4541	2.5089	1.6019	4.5112	4.205	3.1744	6.1838	5.5301	4.0607	0.2032	-1.2574	-1.97	-0.3622	4.6438	3.4364	2.5059	5.321
0.6743	2.0583	1.7462	1.2191	3.5395	2.6031	1.6726	4.6055	4.2963	3.3187	6.3104	5.6685	4.2227	0.2002	-1.2721	-2.0053	-0.3681	4.8263	3.4718	2.5972	5.4123
0.6537	2.0907	1.7786	1.2692	3.5984	2.6679	1.7668	4.6761	4.42	3.4423	6.443	5.8157	4.3876	0.1943	-1.2986	-2.0436	-0.3445	4.9942	3.5042	2.6855	5.4859
0.6979	2.1378	1.8669	1.3339	3.675	2.7592	1.8728	4.8175	4.579	3.6013	6.599	5.9865	4.5908	0.1767	-1.3398	-2.1084	-0.3298	5.1591	3.566	2.7857	5.5919
0.7214	2.1997	1.9347	1.4223	3.7486	2.8593	1.9994	4.9294	4.7468	3.7545	6.7433	6.1632	4.7763	0.1678	-1.3693	-2.1614	-0.318	5.3269	3.5984	2.8799	5.6832
0.7656	2.2615	1.9994	1.5165	3.8369	2.9712	2.1143	5.0648	4.8793	3.9076	6.9023	6.3193	4.9765	0.159	-1.3928	-2.2173	-0.3004	5.4859	3.6426	2.9888	5.7568
0.8157	2.3027	2.0907	1.6225	3.9341	3.0831	2.235	5.1709	5.0413	4.0342	7.0348	6.5019	5.1532	0.1561	-1.4341	-2.3263	-0.2915	5.6126	3.6661	3.0684	5.8246
0.854	2.3675	2.2026	1.7256	4.046	3.2038	2.3616	5.2975	5.2003	4.1991	7.1821	6.6815	5.3181	0.1531	-1.5018	-2.3852	-0.2768	5.7539	3.6867	3.1331	5.8982
0.9246	2.447	2.3204	1.8699	4.1314	3.3422	2.5089	5.4359	5.3475	4.367	7.3322	6.8493	5.5065	0.1443	-1.5548	-2.4588	-0.268	5.8923	3.7162	3.2362	5.9453
0.9747	2.5236	2.4323	1.9641	4.2315	3.4747	2.6502	5.536	5.5301	4.4936	7.4441	7.0289	5.695	0.1502	-1.6107	-2.5265	-0.2739	5.9983	3.7397	3.3157	5.9865
1.0306	2.6031	2.5295	2.1113	4.3346	3.6043	2.7739	5.6597	5.695	4.682	7.5649	7.188	5.8717	0.1561	-1.6696	-2.6119	-0.2797	6.122	3.7368	3.3658	6.0189
1.0895	2.659	2.6414	2.2173	4.4317	3.7339	2.9005	5.7598	5.8393	4.788	7.6709	7.3411	6.0189	0.1413	-1.7285	-2.659	-0.2532	6.1868	3.7162	3.4364	6.0248
1.1808	2.7651	2.7592	2.3234	4.5289	3.887	3.0183	5.8835	5.9777	4.9235	7.7946	7.4824	6.1632	0.1443	-1.7609	-2.7003	-0.2591	6.281	3.7339	3.5101	6.0278
1.2662	2.8593	2.874	2.447	4.6379	4.0165	3.1479	5.9865	6.1249	5.056	7.8711	7.6208	6.281	0.1472	-1.8228	-2.712	-0.2591	6.3605	3.7456	3.5631	6.0219
1.331	2.9388	3.0006	2.553	4.7674	4.1638	3.245	6.0896	6.2574	5.1561	7.9654	7.7563	6.4076	0.1443	-1.8728	-2.7709	-0.2562	6.4194	3.728	3.5896	6.0336
1.4105	3.0507	3.1155	2.6649	4.8617	4.2757	3.351	6.1779	6.3782	5.2651	8.0655	7.8564	6.5019	0.162	-1.8846	-2.7739	-0.2591	6.4695	3.7633	3.6249	6.0336
1.5018	3.142	3.2303	2.7651	4.9971	4.4141	3.4453	6.2898	6.5107	5.374	8.1361	8.0125	6.6285	0.1502	-1.9317	-2.821	-0.2621	6.5166	3.7751	3.6602	6.0307
1.6019	3.2745	3.3834	2.8416	5.112	4.5289	3.513	6.3811	6.6196	5.4565	8.2245	8.1185	6.6844	0.1443	-1.914	-2.8122	-0.2591	6.546	3.8016	3.675	6.0543
1.7138	3.407	3.4953	2.9211	5.2563	4.6732	3.6013	6.4901	6.7492	5.5331	8.2981	8.2215	6.7728	0.1443	-1.9199	-2.8033	-0.2709	6.5755	3.8104	3.6926	6.069
1.8404	3.569	3.6485	3.036	5.3947	4.8234	3.7015	6.6049	6.8788	5.642	8.3864	8.3305	6.8552	0.1502	-1.9082	-2.7798	-0.2797	6.5666	3.8693	3.7221	6.1014
1.9229	3.7044	3.7898	3.1272	5.5213	4.9677	3.7662	6.7168	6.9877	5.7038	8.463	8.4277	6.9082	0.1502	-1.8846	-2.7327	-0.2827	6.5696	3.9017	3.7339	6.0925
2.0966	3.8575	3.9282	3.1861	5.6567	5.1061	3.8605	6.8081	7.0937	5.7745	8.5248	8.5366	6.9759	0.1678	-1.8316	-2.6649	-0.2974	6.5431	3.9253	3.7456	6.0867
2.2527	4.0283	4.096	3.2922	5.8246	5.2651	3.9311	6.9053	7.2262	5.8452	8.6073	8.6338	7.0319	0.1767	-1.7403	-2.5972	-0.3269	6.5431	3.9665	3.781	6.0955
2.4146	4.1667	4.2639	3.3687	5.9276	5.3888	4.0165	7.0083	7.3087	5.8982	8.6191	8.7192	7.0731	0.1973	-1.6902	-2.5148	-0.371	6.5019	3.9959	3.7751	6.0837
2.5413	4.314	4.4023	3.4571	6.0719	5.5301	4.0695	7.0878	7.4088	5.9836	8.6485	8.7751	7.1173	0.2238	-1.6255	-2.4294	-0.4152	6.4753	4.0254	3.7957	6.0484
2.6885	4.4671	4.5525	3.5454	6.1809	5.6685	4.1844	7.1438	7.5089	6.0366	8.6809	8.834	7.1202	0.2444	-1.5489	-2.3322	-0.4741	6.4253	4.0578	3.8222	6.016
2.8269	4.576	4.6614	3.5984	6.2516	5.7598	4.2021	7.1556	7.5531	6.0484	8.6397	8.8812	7.1232	0.2709	-1.4812	-2.2615	-0.5183	6.3782	4.0224	3.8045	5.9483
2.9476	4.6673	4.7939	3.6455	6.3104	5.8687	4.2551	7.1791	7.6032	6.069	8.6073	8.8753	7.0967	0.3121	-1.4252	-2.2026	-0.5889	6.3369	4.0195	3.7957	5.8805
3.036	4.7557	4.8587	3.6573	6.3311	5.9571	4.2845	7.1556	7.6238	6.0749	8.5631	8.8694	7.0613	0.3239	-1.384	-2.1349	-0.6331	6.2486	3.9576	3.7869	5.7981
3.1449	4.8293	4.9677	3.7074	6.3605	6.0219	4.3198	7.132	7.6503	6.0719	8.4807	8.8252	6.9936	0.3504	-1.3222	-2.0672	-0.6979	6.2103	3.9105	3.8163	5.7038
3.1979	4.8676	5.0325	3.7397	6.3635	6.0572	4.3316	7.0996	7.6532	6.0631	8.3923	8.7958	6.9494	0.3946	-1.2544	-2.0289	-0.7568	6.1249	3.8723	3.8163	5.6155
3.2774	4.9029	5.0884	3.7456	6.3487	6.1279	4.3611	7.0407	7.6532	6.0484	8.2893	8.731	6.8434	0.4181	-1.2073	-1.9994	-0.8216	6.069	3.8192	3.7957	5.5065
3.3098	4.8852	5.1179	3.7427	6.3104	6.0955	4.3463	6.917	7.5914	5.9895	8.1597	8.625	6.7374	0.4358	-1.1278	-1.9317	-0.854	5.96	3.7074	3.7604	5.3799
3.3304	4.9029	5.1414	3.7604	6.2663	6.1455	4.3346	6.8493	7.5678	5.9247	8.0684	8.5307	6.6167	0.4653	-1.0954	-1.9111	-0.907	5.8658	3.6514	3.7427	5.3034
3.3363	4.8823	5.1561	3.7427	6.2044	6.1308	4.3346	6.7521	7.503	5.8717	7.9477	8.4394	6.4842	0.4859	-1.063	-1.8846	-0.9482	5.7539	3.5631	3.6691	5.1856
3.3304	4.8234	5.1473	3.7221	6.1161	6.1338	4.2757	6.6461	7.4176	5.7804	7.7975	8.2952	6.334	0.5035	-1.0365	-1.861	-0.9776	5.6538	3.4571	3.622	5.0766
3.3245	4.788	5.1267	3.6897	6.0395	6.1102	4.2344	6.549	7.3764	5.7097	7.6827	8.1744	6.2103	0.5124	-1.0189	-1.8434	-0.9953	5.5242	3.3805	3.5601	4.9912
3.2774	4.7321	5.1061	3.6396	5.9689	6.0984	4.1962	6.443	7.2734	5.6067	7.559	8.0714	6.0307	0.5153	-0.9865	-1.8375	-0.9953	5.377	3.2863	3.4718	4.9058
3.2804	4.6791	5.0678	3.6102	5.9011	6.066	4.1343	6.3605	7.2174	5.5007	7.453	7.9595	5.8776	0.5153	-0.9747	-1.8375	-0.9894	5.2209	3.2274	3.3746	4.8705
3.2686	4.6526	5.0737	3.6043	5.8246	6.0454	4.1078	6.2928	7.1526	5.3976	7.3617	7.827	5.7215	0.4888	-0.9629	-1.8522	-0.957	5.0472	3.1538	3.2804	4.8322
3.2391	4.5878	5.056	3.5719	5.7716	6.0395	4.0784	6.2162	7.1114	5.3034	7.2763	7.718	5.5566	0.4623	-0.957	-1.861	-0.9099	4.8528	3.1007	3.1685	4.7939
3.2391	4.5643	5.0619	3.566	5.7274	6.0278	4.046	6.1485	7.0643	5.2239	7.2145	7.6238	5.4182	0.4211	-0.9629	-1.8699	-0.851	4.7027	3.0831	3.0566	4.7439
3.2509	4.5554	5.0619	3.5277	5.7215	6.0395	4.0224	6.0955	7.0113	5.1296	7.1467	7.5413	5.2857	0.3975	-0.9158	-1.8551	-0.7833	4.5436	3.0684	2.9653	4.735
3.2627	4.5348	5.0913	3.5189	5.7392	6.0454	3.9812	6.0543	6.9966	5.0413	7.1055	7.4677	5.1296	0.3563	-0.9482	-1.8758	-0.6773	4.3728	3.036	2.8063	4.7292
3.2892	4.5731	5.1414	3.5424	5.7451	6.1279	4.0107	6.0808	7.0113	5.0148	7.0908	7.4324	5.0354	0.2974	-0.9217	-1.861	-0.5742	4.2079	3.036	2.712	4.7586
3.3452	4.6025	5.218	3.5955	5.7951	6.1868	3.9842	6.0778	7.0201	4.9677	7.079	7.397	4.9471	0.2297	-0.8834	-1.8434	-0.4388	4.043	3.0477	2.6149	4.8087
3.4011	4.6732	5.3093	3.6278	5.8894	6.2457	4.0136	6.1367	7.0996	4.9294	7.1232	7.4029	4.8734	0.1561	-0.8746	-1.8316	-0.3092	3.8752	3.089	2.5383	4.8352
3.4924	4.7615	5.4212	3.7044	5.9718	6.3664	4.0902	6.2162	7.1585	4.9441	7.1497	7.4383	4.8322	0.1001	-0.7951	-1.8021	-0.1885	3.7427	3.1272	2.4411	4.8941
3.5631	4.8558	5.5272	3.7574	6.0896	6.4636	4.1226	6.281	7.2439	4.9441	7.2056	7.4677	4.791	0.0324	-0.7597	-1.7963	-0.0442	3.6072	3.1979	2.3381	4.9235
3.6249	4.9618	5.6302	3.8251	6.1868	6.5637	4.1726	6.3576	7.3057	4.9206	7.2174	7.5119	4.7409	-0.0383	-0.7568	-1.8051	0.109	3.4453	3.2391	2.235	4.9883
3.725	5.112	5.7627	3.8811	6.3104	6.6785	4.2168	6.4341	7.397	4.9618	7.2822	7.559	4.6997	-0.106	-0.7156	-1.811	0.2385	3.3275	3.3187	2.1408	5.0472
3.7986	5.2032	5.8776	3.94	6.4371	6.7757	4.2433	6.5401	7.4618	4.9559	7.3234	7.6032	4.6644	-0.1914	-0.6832	-1.8316	0.4034	3.1685	3.3687	2.0171	5.0678
3.9194	5.3534	6.0307	4.0107	6.5725	6.9023	4.3022	6.6461	7.5825	4.9795	7.4176	7.665	4.629	-0.2739	-0.6478	-1.8404	0.5595	3.0271	3.4571	1.9229	5.1002
4.0077	5.5036	6.175	4.1049	6.7109	7.0554	4.3787	6.7463	7.7003	5.0207	7.4648	7.7445	4.6261	-0.3416	-0.6154	-1.8139	0.6979	2.9064	3.5336	1.8345	5.1532
4.1019	5.6361	6.3104	4.1814	6.8346	7.2027	4.4288	6.8375	7.8093	5.0383	7.5237	7.7769	4.6231	-0.427	-0.5919	-1.8257	0.8716	2.7651	3.5955	1.6991	5.1944
4.2256	5.8069	6.4665	4.2786	6.973	7.3322	4.5083	6.9642	7.9035	5.1002	7.6061	7.8623	4.629	-0.4977	-0.5507	-1.808	0.9982	2.6296	3.6808	1.6343	5.2621
4.3552	5.9777	6.6226	4.3846	7.1232	7.506	4.5937	7.0908	8.0449	5.1385	7.6856	7.9595	4.6496	-0.5654	-0.4829	-1.7698	1.1396	2.5295	3.7721	1.5725	5.2945
4.4877	6.1544	6.7993	4.4847	7.2645	7.6562	4.6703	7.1938	8.1744	5.1738	7.7504	8.0449	4.6585	-0.6243	-0.4329	-1.7167	1.2662	2.4146	3.8222	1.4812	5.3299
4.6202	6.3046	6.9583	4.6114	7.3911	7.8093	4.7498	7.3205	8.2804	5.2415	7.827	8.1479	4.6997	-0.6949	-0.3828	-1.7315	1.3987	2.3351	3.8899	1.4223	5.3593
4.791	6.5019	7.1556	4.7468	7.5502	8.0036	4.8646	7.4559	8.463	5.3446	7.9447	8.2628	4.7439	-0.7597	-0.318	-1.705	1.4959	2.2851	3.9665	1.3693	5.4329
4.9294	6.6432	7.3499	4.8911	7.7062	8.1509	4.9736	7.5737	8.5985	5.4388	8.0242	8.3747	4.8087	-0.798	-0.2739	-1.6814	1.6137	2.2409	4.043	1.3575	5.4771
5.0707	6.814	7.5237	5.0118	7.8535	8.3128	5.0884	7.7209	8.7634	5.5478	8.1391	8.5396	4.8999	-0.8451	-0.2238	-1.652	1.702	2.2144	4.1108	1.3369	5.5036
5.215	6.9583	7.7003	5.1532	7.986	8.4895	5.2533	7.8299	8.9371	5.6803	8.251	8.6691	5.0089	-0.8893	-0.1502	-1.6579	1.7786	2.1997	4.1697	1.3546	5.5743
5.3623	7.1408	7.877	5.3181	8.1538	8.6927	5.4153	8.0007	9.102	5.8305	8.3423	8.8252	5.1267	-0.9217	-0.1148	-1.6372	1.8316	2.2262	4.2344	1.3899	5.6361
5.4889	7.2822	8.0331	5.4447	8.2952	8.8635	5.5448	8.1067	9.2728	5.9718	8.4571	8.9607	5.2504	-0.9246	-0.0854	-1.6284	1.8551	2.2792	4.2757	1.437	5.6685
5.6067	7.4589	8.2098	5.6008	8.4512	9.0696	5.6832	8.2451	9.4642	6.1338	8.5749	9.1167	5.4005	-0.9305	-0.0559	-1.6549	1.8669	2.3292	4.3198	1.4723	5.7215
5.7598	7.6061	8.3864	5.7716	8.6102	9.2728	5.8481	8.4159	9.6438	6.2928	8.7015	9.2757	5.5537	-0.9511	0	-1.6314	1.8875	2.4058	4.3876	1.5401	5.7657
5.8776	7.7769	8.5572	5.9247	8.7575	9.4436	6.013	8.5425	9.8676	6.4606	8.8193	9.4259	5.7009	-0.9482	0.0236	-1.6343	1.8758	2.4912	4.4288	1.6314	5.7951
6.0101	7.933	8.7339	6.1043	8.9312	9.6468	6.1838	8.6897	10.0561	6.6609	8.9548	9.6026	5.8717	-0.9158	0.0736	-1.599	1.8463	2.6002	4.4906	1.7344	5.7892
6.1573	8.0684	8.89	6.2633	9.0578	9.8352	6.3399	8.8223	10.2269	6.8169	9.0431	9.7498	6.0071	-0.9158	0.1207	-1.5931	1.8345	2.6885	4.5377	1.7992	5.8305
6.2722	8.2215	9.0519	6.4371	9.208	10.0119	6.4901	8.9577	10.3977	7.0054	9.1285	9.8794	6.1809	-0.9129	0.2002	-1.546	1.8169	2.7651	4.5731	1.9082	5.8187
6.44	8.3541	9.2021	6.5902	9.3494	10.1739	6.6815	9.0637	10.5685	7.1497	9.208	10.0296	6.3104	-0.8893	0.2621	-1.4488	1.7933	2.821	4.6055	2.0024	5.8305
6.5607	8.5131	9.367	6.7463	9.4465	10.3505	6.8375	9.1697	10.698	7.2851	9.2698	10.1179	6.4459	-0.8834	0.3416	-1.3781	1.7668	2.8946	4.6673	2.0819	5.8128
6.7139	8.6574	9.5201	6.8876	9.6055	10.5243	6.973	9.2669	10.8718	7.4265	9.3346	10.2504	6.5549	-0.8893	0.4711	-1.2927	1.7491	2.9682	4.6791	2.1408	5.7922
6.8788	8.8105	9.6733	7.0613	9.7174	10.6892	7.1438	9.3876	11.0278	7.5796	9.3965	10.3417	6.6668	-0.8569	0.5978	-1.1779	1.705	3.033	4.7292	2.2527	5.7745
7.0554	8.9283	9.8293	7.1968	9.8529	10.8394	7.2822	9.4642	11.1486	7.7209	9.4171	10.4212	6.7492	-0.8481	0.7038	-1.0689	1.6873	3.0772	4.7586	2.3263	5.7598
7.2351	9.0902	10.0325	7.3764	9.9913	11.0278	7.453	9.5849	11.3135	7.877	9.476	10.5272	6.8905	-0.8422	0.8775	-0.9511	1.649	3.1449	4.8145	2.4323	5.7686
7.3823	9.2492	10.2092	7.5266	10.1297	11.2281	7.6267	9.6644	11.4725	8.0242	9.5437	10.6156	7.0054	-0.8039	1.0336	-0.7921	1.5872	3.2539	4.844	2.5295	5.7775
7.5884	9.3729	10.3918	7.6915	10.2593	11.3841	7.7887	9.7675	11.6197	8.1803	9.5761	10.7245	7.0967	-0.7774	1.1926	-0.6331	1.5401	3.3422	4.9058	2.6826	5.7833
7.774	9.529	10.5714	7.8741	10.3888	11.549	7.9595	9.8647	11.7434	8.3187	9.6468	10.8129	7.2292	-0.7391	1.3222	-0.4829	1.4841	3.4423	4.9647	2.7945	5.804
7.9389	9.688	10.754	8.0508	10.5361	11.7287	8.1303	9.953	11.8965	8.4925	9.6998	10.9041	7.3411	-0.7126	1.49	-0.318	1.4223	3.5336	5.0472	2.9064	5.8422
8.142	9.8382	10.9571	8.2422	10.6833	11.9259	8.3364	10.0708	12.0643	8.6544	9.7999	11.016	7.4883	-0.6832	1.6637	-0.1531	1.3575	3.672	5.1267	3.0713	5.91
8.304	9.9412	11.125	8.4071	10.7716	12.0967	8.5042	10.1709	12.191	8.7987	9.8382	11.1191	7.5914	-0.6537	1.8021	-0.0088	1.2898	3.7927	5.1974	3.1891	5.9571
8.4866	10.112	11.3193	8.5808	10.9159	12.2793	8.7104	10.2828	12.347	8.9754	9.9236	11.2339	7.7416	-0.6037	1.9759	0.1443	1.2132	3.9223	5.2769	3.3452	6.0013
8.6485	10.2239	11.5049	8.7575	11.0455	12.4295	8.8635	10.3859	12.4619	9.1049	9.9854	11.3164	7.8593	-0.5801	2.1231	0.3151	1.1573	4.0489	5.3181	3.4688	6.066
8.7869	10.3417	11.658	8.9018	11.1427	12.5973	9.0313	10.4713	12.5973	9.264	10.0443	11.4047	7.9477	-0.5654	2.238	0.4417	1.119	4.1284	5.3888	3.5807	6.0867
8.9665	10.4772	11.8671	9.0873	11.2752	12.7593	9.2051	10.5743	12.7298	9.4289	10.1209	11.496	8.0802	-0.5477	2.3822	0.6007	1.0866	4.2315	5.4506	3.7074	6.1514
9.1197	10.5626	12.0025	9.2404	11.3841	12.883	9.3582	10.648	12.8476	9.5437	10.1768	11.5873	8.1626	-0.5242	2.4824	0.745	1.0483	4.3287	5.4977	3.8075	6.1632
9.2375	10.648	12.1321	9.3788	11.4754	13.0037	9.473	10.7275	12.9448	9.6232	10.2063	11.6462	8.2215	-0.533	2.6208	0.8863	1.0571	4.3728	5.5478	3.8811	6.1956
9.3817	10.7275	12.2558	9.4936	11.5549	13.0979	9.5908	10.7716	13.0066	9.7292	10.2563	11.6845	8.2716	-0.5359	2.6885	1.0071	1.0748	4.3876	5.5625	3.9223	6.2251
9.4819	10.804	12.3912	9.6291	11.658	13.2039	9.7263	10.8511	13.1068	9.7969	10.3005	11.7463	8.3364	-0.5536	2.7916	1.1249	1.1072	4.4229	5.6184	4.0077	6.2574
9.6203	10.9012	12.5119	9.7852	11.7493	13.3423	9.8765	10.9218	13.2128	9.9177	10.3417	11.7964	8.3717	-0.5772	2.8475	1.2191	1.1543	4.4347	5.6597	4.0283	6.2839
9.7469	10.9719	12.6445	9.9236	11.8317	13.4454	10.0119	10.9689	13.3041	9.9913	10.3594	11.8553	8.41	-0.6125	2.9093	1.3251	1.2103	4.4347	5.7068	4.0666	6.2987
9.8441	11.0514	12.7446	10.0531	11.923	13.5514	10.1179	11.0484	13.3865	10.0737	10.3977	11.9318	8.4601	-0.6361	2.9771	1.3869	1.2662	4.4406	5.7627	4.1108	6.334
9.9707	11.1162	12.8771	10.1886	12.0025	13.6633	10.2357	11.1279	13.4631	10.165	10.4212	11.9819	8.4983	-0.6743	2.983	1.4399	1.3428	4.4494	5.8069	4.1608	6.3576
10.0561	11.1839	12.9743	10.3211	12.0585	13.7752	10.3476	11.1692	13.5602	10.2593	10.4477	12.0084	8.5602	-0.7097	3.0006	1.4753	1.4105	4.4317	5.854	4.1785	6.3811
10.1061	11.2693	13.0685	10.4566	12.1556	13.893	10.4831	11.2487	13.6456	10.3594	10.4889	12.082	8.5896	-0.7538	2.9947	1.4723	1.5136	4.4229	5.8923	4.2286	6.4223
10.2092	11.3341	13.1598	10.6038	12.2263	13.9902	10.6332	11.3164	13.7369	10.4595	10.5419	12.135	8.6485	-0.8039	3.0006	1.4399	1.5842	4.4553	5.963	4.2403	6.4842
10.2328	11.3782	13.2334	10.7216	12.3058	14.0991	10.7481	11.3547	13.8047	10.5567	10.5685	12.2145	8.7015	-0.8333	2.9947	1.4105	1.6608	4.4641	6.013	4.2698	6.5284
10.3417	11.4872	13.3571	10.9424	12.4089	14.2257	10.9159	11.4784	13.9372	10.7157	10.6656	12.3058	8.7899	-0.8657	3.0242	1.3899	1.7138	4.526	6.1161	4.3552	6.652
10.38	11.5284	13.4572	11.0632	12.509	14.3318	11.0514	11.549	14.0373	10.8276	10.7245	12.3677	8.8959	-0.8834	3.0124	1.331	1.7521	4.5878	6.1691	4.3964	6.7345
10.4448	11.602	13.5426	11.2045	12.5944	14.4348	11.1809	11.6285	14.1521	10.9542	10.7893	12.4295	8.9607	-0.9129	3.036	1.2839	1.8198	4.6143	6.2368	4.47	6.8317
10.4948	11.6845	13.628	11.3841	12.7004	14.5703	11.34	11.7345	14.264	11.1044	10.8688	12.4972	9.0549	-0.9364	3.0124	1.2073	1.861	4.685	6.3311	4.5436	6.9465
10.5184	11.7287	13.6957	11.5196	12.7711	14.6292	11.4842	11.7964	14.3494	11.2074	10.913	12.5679	9.1344	-0.957	3.0095	1.1484	1.9023	4.7321	6.4017	4.5849	7.0142
10.5773	11.7934	13.7929	11.6668	12.8889	14.7558	11.6403	11.8906	14.4819	11.337	11.0102	12.6592	9.2375	-0.9629	3.0006	1.0836	1.9229	4.8234	6.493	4.6614	7.1055
10.6215	11.8435	13.8577	11.8111	12.9772	14.853	11.7699	11.9907	14.5614	11.4607	11.0602	12.724	9.3258	-0.9747	3.0065	1.01	1.9464	4.8558	6.5666	4.735	7.1762
10.6745	11.9142	13.9489	11.9672	13.0862	14.9649	11.9289	12.0908	14.6939	11.6079	11.1603	12.7946	9.3965	-0.9865	2.9623	0.9305	1.9494	4.897	6.652	4.8145	7.2792
10.7304	11.9554	14.0108	12.0938	13.1598	15.0532	12.0526	12.1733	14.7764	11.7375	11.2074	12.8653	9.473	-1.0012	2.9535	0.8805	1.97	4.9647	6.6933	4.8823	7.3028
10.7363	12.0055	14.0667	12.2027	13.2216	15.1415	12.1851	12.2528	14.8588	11.8376	11.2693	12.933	9.5466	-0.9953	2.8917	0.8039	1.97	4.9824	6.7433	4.9294	7.3499
10.7834	12.0437	14.1168	12.3088	13.3158	15.2299	12.294	12.3146	14.9619	11.9436	11.3252	12.9801	9.632	-0.9776	2.8652	0.7156	1.9582	5.0177	6.7816	5.003	7.3911
10.8305	12.0997	14.1727	12.456	13.3953	15.3153	12.4207	12.3883	15.0414	12.0555	11.3576	13.0538	9.6674	-0.9835	2.8593	0.6891	1.9288	5.0472	6.8081	5.0619	7.4147
10.8453	12.1439	14.2051	12.562	13.4307	15.3889	12.5384	12.4442	15.1033	12.1645	11.3959	13.0979	9.7469	-0.9629	2.8328	0.6419	1.8964	5.1267	6.811	5.1149	7.4088
10.8953	12.1939	14.2758	12.6592	13.5043	15.4566	12.6474	12.5149	15.1887	12.2646	11.443	13.1333	9.8205	-0.9394	2.8151	0.5978	1.8551	5.1767	6.8405	5.1974	7.4294
10.9218	12.2263	14.3082	12.7446	13.5544	15.5008	12.7475	12.5591	15.2564	12.347	11.4519	13.1686	9.8765	-0.9217	2.8063	0.5477	1.8051	5.2415	6.8788	5.271	7.4294
10.9071	12.2351	14.2905	12.7887	13.5602	15.5185	12.7976	12.5679	15.2799	12.3971	11.443	13.1745	9.9059	-0.8952	2.7503	0.5242	1.7727	5.2769	6.8346	5.321	7.3882
10.8835	12.241	14.2994	12.8329	13.575	15.5185	12.88	12.5856	15.2888	12.4589	11.4312	13.1863	9.9412	-0.8657	2.715	0.4918	1.7079	5.3269	6.8405	5.3947	7.344
10.8659	12.2027	14.3052	12.8741	13.575	15.5096	12.8977	12.5738	15.3035	12.5237	11.4165	13.1892	9.9825	-0.8216	2.6826	0.48	1.6461	5.4005	6.8081	5.4712	7.3205
10.8217	12.1762	14.2611	12.8918	13.5632	15.4831	12.9242	12.5591	15.2711	12.5591	11.393	13.1509	9.9942	-0.7951	2.6826	0.4829	1.5695	5.4477	6.7728	5.5419	7.2645
10.7981	12.138	14.2287	12.8859	13.5308	15.4625	12.9536	12.5267	15.2505	12.5679	11.3311	13.1244	9.9883	-0.7686	2.6325	0.4623	1.4988	5.5095	6.7286	5.5713	7.2145
10.7275	12.082	14.1639	12.8535	13.4719	15.3948	12.9154	12.4707	15.1945	12.5797	11.3017	13.0567	9.9501	-0.7214	2.6119	0.4682	1.4223	5.5507	6.6785	5.6243	7.1438
10.6862	12.0378	14.0991	12.8476	13.4248	15.3447	12.9154	12.4265	15.1386	12.5532	11.2516	13.0096	9.9648	-0.6743	2.6031	0.48	1.3369	5.5919	6.655	5.6803	7.1026
10.6332	11.9996	14.0461	12.7917	13.3688	15.2947	12.9065	12.3883	15.0974	12.5473	11.1898	12.9507	9.9501	-0.6272	2.6119	0.5153	1.2456	5.6273	6.6285	5.7245	7.0672
10.5626	11.8965	13.9519	12.7505	13.2687	15.1769	12.8506	12.3117	14.9855	12.5002	11.1103	12.8712	9.8912	-0.5948	2.5972	0.533	1.1897	5.6626	6.5666	5.7657	7.0083
10.4683	11.7934	13.8547	12.6621	13.1804	15.0856	12.7711	12.2263	14.903	12.4354	11.0249	12.7858	9.8293	-0.5683	2.6119	0.5507	1.1308	5.6715	6.5136	5.7657	6.9524
10.4271	11.7198	13.7958	12.6179	13.1068	15.0267	12.7328	12.1645	14.8206	12.3912	11.0013	12.7269	9.7793	-0.53	2.6296	0.6272	1.0601	5.6626	6.4753	5.7981	6.9288
10.3653	11.6168	13.681	12.5237	12.9978	14.9177	12.6651	12.0614	14.7234	12.3176	10.8953	12.6091	9.7115	-0.5183	2.6296	0.6537	1.0277	5.6862	6.4312	5.801	6.864
10.3034	11.5402	13.6103	12.4442	12.9271	14.8265	12.6062	11.9878	14.6292	12.2705	10.8335	12.5443	9.6585	-0.5065	2.6208	0.6949	0.9717	5.695	6.39	5.8216	6.8052
10.2504	11.4636	13.5337	12.3883	12.8565	14.744	12.5178	11.9083	14.5467	12.2116	10.7805	12.4619	9.6114	-0.4711	2.662	0.7951	0.9394	5.7186	6.3369	5.8452	6.758
10.1827	11.337	13.413	12.2793	12.7446	14.6321	12.4324	11.8082	14.4436	12.1291	10.6892	12.3588	9.5378	-0.4564	2.7003	0.8628	0.8981	5.7303	6.2987	5.8393	6.6874
10.1356	11.2369	13.3335	12.1969	12.6209	14.5261	12.3647	11.6904	14.3376	12.0496	10.595	12.2999	9.473	-0.4417	2.7003	0.9482	0.8687	5.7392	6.2486	5.8364	6.6491
10.0561	11.1338	13.2157	12.085	12.5208	14.3995	12.2852	11.5903	14.2169	11.9466	10.5096	12.1645	9.4024	-0.4446	2.7179	1.013	0.8569	5.7303	6.1868	5.8422	6.599
9.9383	11.0219	13.0744	11.979	12.4089	14.2846	12.138	11.4519	14.1021	11.8759	10.4153	12.0614	9.2964	-0.4535	2.6885	1.0454	0.8805	5.7333	6.1426	5.8069	6.5342
9.8853	10.9041	12.989	11.8965	12.3029	14.1639	12.0614	11.3517	14.0019	11.7934	10.324	11.9731	9.2375	-0.4505	2.6797	1.1072	0.8746	5.7333	6.0955	5.8069	6.5136
9.7646	10.7775	12.8653	11.7699	12.191	14.0343	11.9819	11.231	13.8989	11.6904	10.2063	11.8435	9.1432	-0.4476	2.6473	1.1602	0.8922	5.7362	6.0366	5.7745	6.4783
9.6733	10.6538	12.724	11.6491	12.0643	13.8959	11.8553	11.1191	13.7929	11.5755	10.1091	11.7375	9.0372	-0.4682	2.5736	1.1543	0.9364	5.7215	6.0013	5.7392	6.44
9.5525	10.5419	12.6209	11.5373	11.9731	13.7811	11.7493	11.0219	13.6839	11.499	10.0325	11.6285	8.9695	-0.4918	2.5118	1.1308	0.9688	5.7127	5.9541	5.7215	6.4341
9.4436	10.4006	12.4619	11.4106	11.8258	13.6721	11.6315	10.8865	13.5426	11.3753	9.9088	11.5107	8.8517	-0.5183	2.4235	1.0925	1.0218	5.6744	5.8952	5.6773	6.3605
9.3317	10.2917	12.35	11.3046	11.7345	13.5514	11.5225	10.7893	13.4542	11.3017	9.8529	11.443	8.7722	-0.5448	2.3381	1.066	1.0748	5.6715	5.8658	5.6332	6.3517
9.2227	10.1621	12.2351	11.1927	11.6315	13.4277	11.4224	10.6921	13.3394	11.1957	9.7911	11.34	8.6632	-0.5683	2.2615	1.0071	1.1278	5.6479	5.8128	5.5625	6.3193
9.102	10.0414	12.1085	11.0926	11.5549	13.3217	11.3252	10.6126	13.2746	11.125	9.6998	11.2487	8.5749	-0.5978	2.1702	0.9394	1.1955	5.6243	5.7981	5.5272	6.2987
8.996	9.9442	12.0231	10.9866	11.443	13.2246	11.2516	10.5419	13.1833	11.0308	9.635	11.178	8.516	-0.6478	2.0789	0.8657	1.2692	5.6126	5.7775	5.4742	6.2663
8.9165	9.8647	11.9053	10.9041	11.3959	13.1244	11.1486	10.5037	13.1215	10.9748	9.6026	11.1309	8.4512	-0.6743	1.9935	0.7833	1.3487	5.5861	5.7539	5.4359	6.2486
8.8075	9.7881	11.8082	10.8453	11.3341	13.0479	11.1014	10.4566	13.0626	10.9248	9.5496	11.0779	8.3923	-0.7185	1.8758	0.6596	1.437	5.5448	5.7451	5.3888	6.2309
8.7162	9.6821	11.7139	10.7569	11.2428	12.9713	11.0308	10.3918	12.986	10.8718	9.4878	11.019	8.357	-0.7686	1.7756	0.5448	1.5371	5.5183	5.7215	5.3564	6.2162
8.6279	9.6232	11.6374	10.7245	11.2222	12.933	11.0131	10.3859	12.9595	10.8747	9.4819	11.019	8.3482	-0.8186	1.6932	0.4211	1.6284	5.5242	5.7186	5.3299	6.2103
8.5543	9.5437	11.5579	10.6862	11.1839	12.883	11.0043	10.3682	12.9448	10.86	9.4671	11.0337	8.3246	-0.8598	1.599	0.3004	1.7138	5.5272	5.7009	5.321	6.2162
8.4483	9.4848	11.4872	10.6303	11.1574	12.8535	10.9748	10.3447	12.9242	10.8511	9.4613	11.016	8.3099	-0.904	1.4871	0.1502	1.8021	5.5419	5.7097	5.3299	6.1927
8.3599	9.4406	11.4077	10.6008	11.1044	12.827	10.9601	10.3476	12.9124	10.8776	9.473	11.0013	8.3334	-0.9688	1.3869	-0.0059	1.8934	5.5596	5.7009	5.3151	6.2133
8.2893	9.3906	11.3635	10.595	11.0779	12.8005	10.9837	10.3594	12.9095	10.8835	9.4907	11.016	8.3541	-0.9894	1.3369	-0.1472	1.9641	5.6037	5.698	5.321	6.2133
8.1774	9.317	11.2899	10.5743	11.0573	12.8005	10.9748	10.3417	12.9065	10.91	9.4966	11.0102	8.357	-1.0336	1.2073	-0.321	2.0348	5.6243	5.6715	5.3181	6.2162
8.1008	9.2698	11.2575	10.5802	11.0455	12.8005	10.966	10.3653	12.8918	10.9395	9.5113	11.0396	8.3982	-1.0571	1.1131	-0.4741	2.0907	5.6891	5.6773	5.3416	6.2516
7.9919	9.2021	11.178	10.5478	11.019	12.7534	10.9807	10.3358	12.8889	10.9513	9.5378	11.0337	8.3953	-1.0866	1.0247	-0.639	2.1732	5.7127	5.6656	5.3299	6.2545
7.9241	9.1491	11.1397	10.5596	11.0072	12.7652	10.9984	10.3682	12.8653	11.0072	9.5496	11.0514	8.4394	-1.1131	0.9776	-0.7332	2.2232	5.751	5.6862	5.3829	6.2839
7.8328	9.0902	11.0808	10.5184	10.9807	12.7063	10.966	10.3682	12.8565	11.0013	9.5643	11.0425	8.4365	-1.1514	0.8598	-0.8952	2.291	5.7568	5.7009	5.3799	6.2898
7.7445	9.0343	11.0249	10.5184	10.963	12.7004	10.9748	10.38	12.8388	11.0249	9.5761	11.0543	8.4542	-1.1631	0.798	-0.9806	2.3057	5.7922	5.7038	5.3917	6.3222
7.6856	8.9724	10.9837	10.4801	10.9454	12.6827	10.963	10.3888	12.8241	11.0249	9.579	11.0484	8.4777	-1.1779	0.7303	-1.0689	2.3469	5.8187	5.7156	5.4123	6.3576
7.5943	8.9224	10.91	10.4683	10.913	12.6327	10.9365	10.3829	12.7711	11.0249	9.5879	11.0131	8.4394	-1.1897	0.6861	-1.1631	2.3822	5.801	5.7215	5.3947	6.3487
7.5266	8.8605	10.8688	10.433	10.8688	12.5944	10.9306	10.3623	12.7475	11.0043	9.5967	10.9778	8.4218	-1.2103	0.6213	-1.2309	2.397	5.7951	5.7274	5.3681	6.3841
7.4471	8.8252	10.8099	10.4094	10.857	12.5443	10.9012	10.3682	12.7122	11.0013	9.6085	10.9483	8.4041	-1.2073	0.5654	-1.2515	2.394	5.7922	5.7421	5.3829	6.4223
7.3823	8.7634	10.7334	10.3299	10.8276	12.5031	10.8394	10.3299	12.6238	10.9571	9.579	10.8983	8.3776	-1.2103	0.53	-1.3074	2.4235	5.7598	5.7215	5.3299	6.4017
7.3293	8.7192	10.6892	10.3123	10.7893	12.4619	10.8187	10.3152	12.562	10.9306	9.5525	10.8629	8.3423	-1.1985	0.5124	-1.3192	2.397	5.7274	5.7303	5.3358	6.4165
7.2734	8.6515	10.6215	10.2593	10.7363	12.4059	10.7599	10.2828	12.4884	10.8924	9.5084	10.7805	8.2834	-1.2044	0.4417	-1.3575	2.394	5.7097	5.7127	5.3299	6.4135
7.2086	8.5808	10.5685	10.1886	10.6803	12.3146	10.7245	10.2386	12.4265	10.8718	9.4613	10.7334	8.2451	-1.1926	0.4358	-1.384	2.3793	5.6597	5.6656	5.3299	6.3546
7.1261	8.5013	10.4683	10.1179	10.6097	12.2263	10.6568	10.1768	12.3441	10.7952	9.3935	10.6215	8.1892	-1.1779	0.4034	-1.3987	2.3292	5.6391	5.6214	5.2945	6.2957
7.0437	8.4542	10.3947	10.0296	10.5567	12.1586	10.5802	10.0944	12.2469	10.7334	9.3081	10.539	8.1038	-1.1484	0.3799	-1.4517	2.2851	5.5978	5.536	5.271	6.2368
6.9759	8.3511	10.3182	9.9383	10.4418	12.0378	10.4978	10.0149	12.1439	10.6568	9.208	10.4153	8.0331	-1.116	0.3416	-1.5195	2.2173	5.5625	5.4565	5.2445	6.1514
6.8788	8.251	10.1798	9.8293	10.3682	11.9259	10.4242	9.9265	12.0437	10.5743	9.1373	10.3093	7.9477	-1.0719	0.3327	-1.5607	2.1408	5.5596	5.377	5.2356	6.0513
6.7993	8.1656	10.1091	9.7381	10.2828	11.8082	10.3152	9.8028	11.9318	10.4683	9.0078	10.1827	7.8535	-1.0218	0.2915	-1.6019	2.0436	5.536	5.2886	5.2062	5.9571
6.6933	8.0714	9.9913	9.6203	10.1621	11.6727	10.1974	9.6909	11.7905	10.3682	8.8841	10.0149	7.7092	-0.9747	0.2532	-1.649	1.9523	5.4977	5.2003	5.1797	5.8511
6.6079	7.9801	9.8234	9.476	10.0649	11.5107	10.0443	9.5643	11.6138	10.2357	8.7428	9.8588	7.612	-0.9335	0.2326	-1.6755	1.8551	5.4329	5.0825	5.1444	5.7274
6.4871	7.8417	9.685	9.3111	9.9265	11.3458	9.903	9.4053	11.4636	10.0973	8.5543	9.6674	7.4677	-0.8863	0.2061	-1.7403	1.7668	5.3829	4.9618	5.0825	5.589
6.3693	7.7209	9.5525	9.1609	9.7557	11.2045	9.7616	9.2757	11.2781	9.9353	8.4071	9.4701	7.3205	-0.8275	0.2002	-1.7226	1.6726	5.3122	4.8352	5.0236	5.4329
6.2574	7.6238	9.4112	8.9842	9.635	11.0249	9.6144	9.1138	11.1014	9.7675	8.2392	9.2787	7.1438	-0.801	0.1708	-1.702	1.5842	5.2268	4.7468	4.9677	5.2857
6.1691	7.4913	9.2551	8.8193	9.5025	10.8276	9.423	8.9489	10.8953	9.6055	8.039	9.0637	6.9494	-0.7715	0.162	-1.705	1.5136	5.1149	4.5672	4.9058	5.1267
6.0749	7.3705	9.102	8.6367	9.3523	10.6627	9.2964	8.7958	10.7304	9.42	7.8593	8.8753	6.7787	-0.7273	0.1443	-1.652	1.4429	5.0383	4.4465	4.8381	5.0001
5.9748	7.2792	8.9842	8.4748	9.208	10.5154	9.1108	8.622	10.5184	9.2316	7.7003	8.6662	6.5902	-0.6802	0.1531	-1.5813	1.3575	4.9529	4.3346	4.7674	4.8469
5.857	7.1732	8.8429	8.2893	9.0461	10.3476	8.9224	8.4483	10.327	9.0578	7.4854	8.4512	6.4047	-0.6655	0.1384	-1.5401	1.3045	4.8322	4.2021	4.6761	4.685
5.7657	7.0702	8.6721	8.1303	8.9224	10.1827	8.7634	8.2745	10.1326	8.9018	7.3205	8.2422	6.2339	-0.6272	0.1413	-1.4723	1.2368	4.7557	4.0902	4.6143	4.5584
5.6685	6.9671	8.5808	7.9801	8.7663	10.0384	8.6338	8.1126	9.9501	8.7339	7.1291	8.0478	6.0631	-0.6007	0.1472	-1.3928	1.1808	4.682	3.9694	4.5613	4.4288
5.5949	6.8817	8.4277	7.8063	8.6309	9.8853	8.4718	7.9506	9.7528	8.572	6.9377	7.8564	5.9188	-0.5742	0.1325	-1.3045	1.1396	4.6114	3.8634	4.5112	4.2786
5.4889	6.7816	8.3217	7.6473	8.4895	9.7115	8.3276	7.7769	9.5908	8.4394	6.7639	7.6562	5.7362	-0.5477	0.0883	-1.2927	1.0895	4.5613	3.7486	4.4818	4.1373
5.3534	6.6756	8.1597	7.4765	8.3511	9.5761	8.1715	7.6032	9.3759	8.2539	6.5637	7.4353	5.5654	-0.5359	0.0677	-1.2279	1.0513	4.4965	3.6426	4.4141	3.99
5.2209	6.5578	8.0272	7.3146	8.1892	9.4053	8.0272	7.4265	9.2021	8.0861	6.3752	7.238	5.4064	-0.5065	0.0118	-1.222	0.9982	4.4376	3.513	4.3758	3.8752
5.0884	6.4371	7.8741	7.1703	8.0125	9.261	7.877	7.2469	9.0225	7.9241	6.1956	7.0496	5.2474	-0.4888	-0.0353	-1.2309	0.9629	4.3993	3.3864	4.3316	3.725
5.0001	6.3605	7.7651	7.0201	7.8829	9.1049	7.7592	7.0849	8.8488	7.8152	6.0307	6.8788	5.1179	-0.4417	-0.0795	-1.2279	0.8863	4.3993	3.298	4.3022	3.622
4.8587	6.2516	7.5943	6.8876	7.7386	8.9342	7.6208	6.9259	8.6515	7.6621	5.8305	6.6785	4.9824	-0.4211	-0.1413	-1.2544	0.8333	4.3493	3.1861	4.261	3.513
4.735	6.1426	7.4559	6.7345	7.5767	8.7869	7.5148	6.7492	8.4748	7.5266	5.6567	6.4695	4.8204	-0.374	-0.1943	-1.2809	0.7597	4.3346	3.0831	4.2021	3.3775
4.5996	6.0219	7.3381	6.6226	7.4412	8.6456	7.3882	6.5814	8.2952	7.4176	5.4683	6.2957	4.7115	-0.3445	-0.2297	-1.3222	0.6802	4.3257	2.9859	4.1579	3.2656
4.5024	5.9541	7.2115	6.5166	7.2881	8.5072	7.3087	6.4135	8.1391	7.3087	5.321	6.119	4.5849	-0.2915	-0.2886	-1.3663	0.5889	4.311	2.9005	4.1284	3.1803
4.4052	5.8452	7.079	6.4165	7.1291	8.3806	7.2086	6.2604	7.9683	7.1968	5.1502	5.963	4.4671	-0.2385	-0.3092	-1.4252	0.4947	4.3051	2.8004	4.0725	3.0448
4.3022	5.7627	6.9612	6.3252	7.0054	8.2333	7.1408	6.0955	7.7975	7.0702	4.9795	5.7892	4.3522	-0.1943	-0.3534	-1.49	0.3946	4.2816	2.715	4.0313	2.93
4.2256	5.6597	6.8375	6.2545	6.9023	8.1273	7.0525	5.96	7.665	7.0142	4.8352	5.642	4.2521	-0.1708	-0.3622	-1.5725	0.3151	4.2433	2.6149	3.99	2.8387
4.1167	5.5802	6.7669	6.2044	6.761	8.0125	6.9848	5.8099	7.5178	6.9288	4.6585	5.4918	4.152	-0.1031	-0.4005	-1.649	0.2297	4.2286	2.5265	3.9576	2.7474
4.0931	5.5154	6.6933	6.1809	6.6844	7.9359	6.9436	5.7068	7.3853	6.8434	4.5554	5.3652	4.0548	-0.0501	-0.3769	-1.6902	0.1207	4.2197	2.4706	3.94	2.6532
4.046	5.4624	6.6049	6.1367	6.5549	7.8623	6.92	5.6302	7.3205	6.8199	4.4317	5.268	4.0254	-0.0236	-0.3858	-1.7668	0.0412	4.2374	2.3911	3.9194	2.5678
4.0048	5.3888	6.549	6.122	6.4842	7.7769	6.9053	5.5183	7.2115	6.7728	4.3375	5.1915	3.9429	0.0294	-0.3828	-1.8286	-0.0412	4.2079	2.3292	3.9076	2.4676
3.9635	5.324	6.5107	6.1132	6.4106	7.7386	6.8788	5.4477	7.1291	6.7551	4.2315	5.1002	3.9194	0.0412	-0.4093	-1.9082	-0.106	4.2344	2.2733	3.9105	2.3881
3.9282	5.3151	6.493	6.1426	6.3517	7.6915	6.8699	5.4035	7.0937	6.7521	4.1697	5.0678	3.9341	0.0825	-0.3828	-1.9612	-0.1678	4.2403	2.2232	3.94	2.2939
3.9282	5.2886	6.4724	6.1367	6.3222	7.6738	6.8994	5.3358	7.0525	6.7728	4.0931	5.0501	3.9164	0.1355	-0.3769	-2.0083	-0.2385	4.2521	2.1643	3.9635	2.235
3.9164	5.2651	6.443	6.1809	6.2987	7.6562	6.9259	5.3181	7.0378	6.7993	4.0519	5.0295	3.94	0.1649	-0.3563	-2.0142	-0.3151	4.2904	2.1496	3.9959	2.1908
3.9135	5.2445	6.4547	6.1838	6.2928	7.6503	6.9465	5.2975	7.0554	6.8346	4.0489	5.0383	3.9635	0.2002	-0.3887	-2.0907	-0.3858	4.3522	2.1143	4.0401	2.1437
3.9105	5.2621	6.4842	6.2192	6.2839	7.6591	6.9966	5.3122	7.0466	6.8788	4.0519	5.0531	3.99	0.2297	-0.3681	-2.1231	-0.4417	4.3905	2.1143	4.0725	2.1261
3.9076	5.2415	6.5048	6.2633	6.3134	7.6414	7.0289	5.3269	7.0613	6.9082	4.0519	5.0913	4.0254	0.2709	-0.371	-2.1761	-0.5094	4.4553	2.0819	4.1226	2.0907
3.9194	5.2297	6.5048	6.2898	6.3281	7.6679	7.0525	5.3446	7.1055	6.9818	4.0872	5.1267	4.0843	0.2886	-0.3475	-2.1967	-0.5536	4.473	2.0907	4.152	2.0907
3.9105	5.2386	6.5077	6.3134	6.3369	7.6679	7.0731	5.3917	7.1497	7.0024	4.1137	5.1767	4.096	0.3062	-0.3327	-2.2144	-0.5889	4.5112	2.1054	4.2079	2.076
3.8811	5.218	6.4989	6.3222	6.3428	7.6738	7.0731	5.4005	7.135	7.0289	4.099	5.1856	4.1196	0.3121	-0.3357	-2.2792	-0.6154	4.5083	2.0878	4.2168	2.0642
3.9135	5.2386	6.5372	6.334	6.4047	7.6915	7.1261	5.4359	7.1909	7.0554	4.1579	5.2297	4.1638	0.3327	-0.3004	-2.2645	-0.6419	4.523	2.1202	4.2344	2.0848
3.9017	5.2268	6.5519	6.3458	6.4106	7.7062	7.132	5.4742	7.2204	7.1173	4.2021	5.2592	4.1814	0.3327	-0.2945	-2.2733	-0.6361	4.5024	2.1614	4.2521	2.0672
3.887	5.215	6.5431	6.3517	6.443	7.7092	7.1261	5.5478	7.2557	7.132	4.2462	5.3034	4.2109	0.3298	-0.2621	-2.2674	-0.6125	4.4906	2.1643	4.2698	2.0937
3.8958	5.2327	6.5814	6.3517	6.4901	7.718	7.1467	5.5978	7.3146	7.1291	4.2963	5.3711	4.2256	0.3033	-0.212	-2.2556	-0.6037	4.4612	2.1967	4.258	2.0966
3.8899	5.2474	6.5607	6.3399	6.5136	7.7268	7.1556	5.6538	7.3352	7.1497	4.3699	5.4094	4.2197	0.3092	-0.1914	-2.2173	-0.5919	4.4406	2.238	4.2551	2.1172
3.9017	5.2474	6.5814	6.3458	6.5637	7.7592	7.1526	5.7038	7.4	7.1644	4.4288	5.4742	4.2727	0.2915	-0.1531	-2.1673	-0.5742	4.42	2.2703	4.2462	2.1408
3.9135	5.2798	6.6049	6.3517	6.6403	7.7916	7.1615	5.7686	7.4412	7.2027	4.5024	5.5242	4.3022	0.2915	-0.0883	-2.0937	-0.5595	4.3993	2.3145	4.2492	2.182
3.9518	5.2916	6.6403	6.3517	6.6962	7.827	7.1821	5.8481	7.5089	7.2439	4.5495	5.5949	4.3405	0.2797	-0.053	-2.0466	-0.5418	4.3758	2.3499	4.2521	2.235
3.9576	5.3328	6.6756	6.3458	6.7463	7.8328	7.2027	5.9041	7.5649	7.2704	4.6202	5.6538	4.3758	0.2827	0.0059	-1.9494	-0.5418	4.364	2.394	4.2462	2.2674
3.9665	5.374	6.7021	6.3458	6.8169	7.8976	7.238	5.9865	7.6238	7.3264	4.6879	5.7303	4.4376	0.2797	0.0294	-1.8758	-0.5418	4.3581	2.447	4.2521	2.2968
3.9842	5.4005	6.7227	6.3723	6.8611	7.9094	7.2469	6.0484	7.6768	7.3529	4.7615	5.7951	4.4465	0.2739	0.0677	-1.8198	-0.5359	4.3581	2.4588	4.2374	2.3469
4.0077	5.4329	6.7227	6.3811	6.8964	7.933	7.2763	6.1014	7.7062	7.3676	4.8145	5.8452	4.4906	0.2739	0.1119	-1.7344	-0.5389	4.3405	2.5118	4.2374	2.3528
4.0195	5.4624	6.7934	6.3958	6.9259	7.9565	7.3234	6.175	7.7681	7.4235	4.8793	5.8952	4.5436	0.2945	0.1296	-1.6667	-0.5654	4.3522	2.5354	4.261	2.397
4.046	5.4565	6.758	6.4047	6.9494	7.9477	7.3057	6.1956	7.7887	7.4353	4.9235	5.91	4.5525	0.3092	0.1914	-1.5813	-0.5801	4.3257	2.553	4.2315	2.3822
4.1049	5.4889	6.7845	6.4017	6.9936	7.9654	7.3293	6.2133	7.824	7.4412	4.9559	5.9483	4.579	0.321	0.2209	-1.4959	-0.5978	4.3081	2.5678	4.2286	2.4235
4.0754	5.4771	6.761	6.387	6.9818	7.9565	7.3205	6.2604	7.8299	7.4471	4.9765	5.9306	4.5672	0.321	0.2797	-1.4105	-0.6184	4.2757	2.5648	4.2109	2.4117
4.1402	5.5036	6.7698	6.387	6.9936	7.9624	7.3028	6.2781	7.8535	7.453	5.003	5.9865	4.5937	0.3151	0.3416	-1.3398	-0.6184	4.2521	2.5795	4.205	2.4058
4.1667	5.5213	6.7904	6.3958	7.0113	7.9359	7.3116	6.3163	7.8417	7.4559	5.0472	5.9659	4.5878	0.3386	0.4005	-1.2544	-0.6419	4.2109	2.5854	4.1962	2.4235
4.2168	5.5242	6.7934	6.3988	7.0172	7.9418	7.3028	6.3134	7.8417	7.4353	5.0531	5.9689	4.5819	0.3239	0.4594	-1.1808	-0.6184	4.1756	2.5766	4.1461	2.4058
4.2492	5.5478	6.814	6.4312	7.0201	7.9241	7.3116	6.3075	7.8446	7.4324	5.0648	5.96	4.5584	0.3269	0.5359	-1.0571	-0.6154	4.1402	2.5913	4.1343	2.3793
4.3346	5.5919	6.8287	6.4695	7.0407	7.9359	7.3411	6.3458	7.8535	7.4471	5.0972	5.9689	4.576	0.3033	0.6125	-0.9688	-0.586	4.0578	2.6119	4.1226	2.3999
4.3993	5.6096	6.8699	6.4871	7.0702	7.93	7.347	6.3605	7.8652	7.45	5.109	5.9659	4.5613	0.2797	0.6979	-0.8569	-0.5448	4.043	2.6178	4.1343	2.4029
4.4906	5.6773	6.9112	6.5342	7.0967	7.9712	7.3764	6.3664	7.8741	7.4677	5.1414	5.9924	4.5731	0.2621	0.7892	-0.7362	-0.4977	3.9959	2.6325	4.1549	2.3793
4.579	5.6921	6.9347	6.5784	7.1114	7.9712	7.4	6.3399	7.8446	7.4795	5.1061	5.9865	4.5495	0.215	0.8687	-0.6596	-0.4093	3.9459	2.5913	4.1314	2.341
4.6496	5.7539	7.0113	6.6196	7.1114	8.0036	7.4176	6.3517	7.8652	7.4913	5.0943	5.9924	4.5436	0.1885	0.9747	-0.533	-0.3651	3.9341	2.5913	4.1402	2.3086
4.7321	5.8069	7.0613	6.6668	7.1173	7.9889	7.4412	6.334	7.8535	7.506	5.0648	5.9836	4.5348	0.1443	1.0483	-0.477	-0.2886	3.9076	2.6119	4.1549	2.2615
4.8028	5.8187	7.0937	6.7404	7.1379	7.9977	7.4471	6.3163	7.8328	7.5148	5.0354	5.9689	4.5289	0.1178	1.1308	-0.4034	-0.2356	3.8988	2.5972	4.1667	2.2321
4.8764	5.8864	7.1438	6.7728	7.1379	7.9948	7.45	6.2957	7.8299	7.5178	4.9942	5.9453	4.523	0.0883	1.1602	-0.374	-0.1796	3.8781	2.5707	4.1873	2.1614
4.9353	5.8982	7.2086	6.814	7.1261	8.0036	7.503	6.2692	7.8093	7.5413	4.95	5.9247	4.4965	0.0766	1.2162	-0.3033	-0.1502	3.8811	2.5501	4.2138	2.1143
4.9883	5.9365	7.2557	6.8552	7.1026	8.0036	7.4824	6.2221	7.7798	7.5325	4.8793	5.8835	4.473	0.0677	1.2839	-0.3151	-0.1178	3.8575	2.5413	4.258	2.0524
5.0531	5.9689	7.291	6.8847	7.0878	7.983	7.4412	6.1809	7.7327	7.5001	4.7998	5.8216	4.42	0.0589	1.3251	-0.2797	-0.1119	3.8458	2.4971	4.258	1.967
5.1296	5.9983	7.3381	6.8847	7.0878	7.9948	7.4648	6.1485	7.6915	7.4913	4.7292	5.7568	4.3728	0.0589	1.3575	-0.2886	-0.1119	3.834	2.4735	4.2933	1.8905
5.165	6.0189	7.3588	6.9023	7.0289	7.9683	7.4235	6.0631	7.6297	7.4324	4.632	5.6626	4.2816	0.0766	1.4193	-0.268	-0.1266	3.7898	2.394	4.2816	1.7727
5.2032	6.0366	7.4	6.8788	7.0172	7.9418	7.3764	5.9924	7.559	7.4118	4.5319	5.6096	4.1991	0.0795	1.4576	-0.2945	-0.1413	3.7368	2.3381	4.2845	1.6873
5.2297	6.0601	7.4324	6.8905	6.9936	7.9359	7.3411	5.9335	7.4795	7.3411	4.4229	5.5065	4.1402	0.0883	1.5018	-0.2709	-0.1649	3.6867	2.291	4.2727	1.596
5.2651	6.0454	7.4618	6.8817	6.9259	7.9065	7.3087	5.8187	7.3941	7.2498	4.258	5.3917	4.0136	0.0854	1.5607	-0.2768	-0.1678	3.5807	2.2144	4.2433	1.4723
5.2857	6.0749	7.4648	6.8434	6.8729	7.8741	7.2586	5.7215	7.2881	7.1585	4.1284	5.268	3.8988	0.0825	1.599	-0.2532	-0.1826	3.4983	2.1526	4.2021	1.3634
5.3328	6.0749	7.503	6.8287	6.7875	7.8446	7.1938	5.6096	7.1968	7.079	3.9871	5.1414	3.7898	0.0942	1.6637	-0.212	-0.1855	3.4423	2.0613	4.1814	1.2397
5.3858	6.0719	7.5237	6.814	6.7404	7.8181	7.1791	5.5183	7.0996	7.0172	3.8575	5.0118	3.6779	0.0942	1.7138	-0.1826	-0.1796	3.3805	1.9965	4.1667	1.119
5.4123	6.0631	7.5413	6.811	6.6609	7.7887	7.1085	5.3947	6.9789	6.9112	3.6838	4.8764	3.5483	0.0972	1.7963	-0.0883	-0.1855	3.298	1.9288	4.1314	0.9659
5.4477	6.1043	7.5737	6.8199	6.5872	7.7563	7.0584	5.271	6.8817	6.8287	3.5277	4.738	3.4306	0.1031	1.8758	0.0265	-0.1796	3.2391	1.8463	4.1137	0.8628
5.483	6.0837	7.5973	6.7875	6.5195	7.7062	7.0172	5.1591	6.7875	6.7256	3.3717	4.5878	3.2863	0.0795	1.9464	0.1207	-0.1561	3.1302	1.7609	4.0607	0.7067
5.5448	6.0867	7.609	6.7963	6.4695	7.6797	6.9642	5.0413	6.6579	6.6403	3.2068	4.4789	3.1832	0.0795	2.0495	0.2886	-0.1678	3.1007	1.6844	4.0578	0.6213
5.5919	6.0955	7.6414	6.7904	6.3752	7.6267	6.8994	4.9176	6.549	6.5195	3.0183	4.3257	3.033	0.0942	2.1437	0.4358	-0.1649	3.0183	1.6019	4.0401	0.4711
5.6391	6.0896	7.6709	6.7875	6.2957	7.5973	6.8493	4.7939	6.44	6.4371	2.8622	4.1873	2.9035	0.0883	2.2232	0.5683	-0.1678	2.9623	1.5283	3.9871	0.3622
5.6832	6.0955	7.6768	6.7993	6.1927	7.5708	6.7993	4.632	6.3075	6.3311	2.659	4.0136	2.7533	0.0883	2.288	0.7391	-0.1502	2.877	1.4282	3.9547	0.215
5.7038	6.0925	7.6709	6.7728	6.1073	7.5001	6.7315	4.4936	6.1514	6.1897	2.4706	3.8075	2.5913	0.0795	2.3793	0.8981	-0.1472	2.8004	1.3369	3.887	0.0883
5.7333	6.069	7.6679	6.7669	5.9865	7.4441	6.6491	4.3522	5.9895	6.069	2.2821	3.6426	2.4441	0.0913	2.4559	1.013	-0.1472	2.6885	1.2515	3.8369	-0.0236
5.7657	6.0484	7.6591	6.7551	5.8776	7.3588	6.5578	4.1814	5.8246	5.9247	2.0937	3.4423	2.2497	0.0854	2.5206	1.1543	-0.1472	2.609	1.1602	3.7162	-0.1649
5.801	6.0395	7.6738	6.7521	5.7627	7.2969	6.4665	4.0224	5.6567	5.7833	1.8934	3.2715	2.0848	0.0766	2.5471	1.2515	-0.1355	2.4824	1.0895	3.6573	-0.2915
5.8393	5.9924	7.6385	6.708	5.6479	7.2351	6.3841	3.8458	5.5124	5.6126	1.6991	3.0625	1.8934	0.0736	2.5913	1.3428	-0.1207	2.3881	0.9717	3.5572	-0.4211
5.8334	5.9483	7.6179	6.6726	5.5213	7.1497	6.2663	3.6926	5.3299	5.4565	1.5136	2.8563	1.7079	0.0589	2.5825	1.3722	-0.1031	2.2468	0.8746	3.4423	-0.5772
5.8599	5.9276	7.5855	6.6432	5.3888	7.0702	6.1544	3.5336	5.1532	5.3093	1.3074	2.6649	1.5548	0.0501	2.5913	1.3958	-0.0854	2.1172	0.7862	3.3304	-0.6832
5.854	5.8805	7.5737	6.6049	5.2769	6.9524	6.0513	3.3923	4.9912	5.1414	1.1249	2.4883	1.3811	0.0383	2.6208	1.4017	-0.0471	1.9994	0.6861	3.2303	-0.8186
5.8982	5.8687	7.5443	6.549	5.1826	6.8847	5.9659	3.2656	4.8352	5.0148	0.9894	2.3204	1.1985	0.0265	2.6267	1.3987	-0.0059	1.8758	0.6154	3.1155	-0.907
5.907	5.8422	7.5178	6.5136	5.0825	6.7875	5.8599	3.1066	4.682	4.8558	0.8304	2.1496	1.0454	-0.0088	2.6502	1.3869	0.0442	1.7462	0.5359	2.9918	-0.9953
5.91	5.7863	7.4854	6.4753	4.9588	6.7198	5.7421	2.9712	4.5348	4.7262	0.6832	1.9847	0.8863	-0.0412	2.6237	1.3663	0.1178	1.6314	0.4535	2.877	-1.0748
5.9217	5.7775	7.4648	6.4518	4.8823	6.6638	5.6832	2.877	4.4494	4.6173	0.5565	1.8728	0.7715	-0.0677	2.6325	1.3281	0.1678	1.5518	0.427	2.7945	-1.116
5.9483	5.7392	7.4618	6.4165	4.8204	6.5784	5.6037	2.7827	4.3169	4.526	0.4505	1.7521	0.6743	-0.1148	2.6237	1.278	0.2356	1.4841	0.3651	2.7091	-1.1779
5.9365	5.7097	7.4294	6.3811	4.7203	6.5195	5.5507	2.7032	4.2168	4.4288	0.3593	1.6343	0.5948	-0.1266	2.6355	1.2368	0.2827	1.4311	0.3327	2.659	-1.2309
5.9276	5.6921	7.4176	6.3693	4.6644	6.4371	5.4594	2.5972	4.1255	4.3493	0.2886	1.546	0.5183	-0.1649	2.6208	1.172	0.3416	1.3604	0.2739	2.5648	-1.2662
5.9306	5.6449	7.4029	6.3428	4.5966	6.3958	5.4153	2.5265	4.046	4.3051	0.2179	1.4782	0.4417	-0.1826	2.609	1.0689	0.3799	1.3281	0.2532	2.5118	-1.2809
5.9394	5.6067	7.3735	6.3075	4.5407	6.3458	5.3652	2.4824	3.9606	4.2403	0.1708	1.4193	0.3916	-0.2002	2.6208	0.9835	0.4034	1.3369	0.2209	2.4706	-1.3281
5.9159	5.5448	7.347	6.2604	4.4847	6.2751	5.3328	2.4235	3.8988	4.1903	0.1355	1.3516	0.3504	-0.1885	2.5972	0.8981	0.4123	1.3251	0.215	2.4441	-1.3487
5.9129	5.4977	7.3381	6.2457	4.417	6.2427	5.2563	2.3499	3.8134	4.1314	0.0825	1.2839	0.3151	-0.2091	2.6031	0.8157	0.4181	1.3251	0.2091	2.4117	-1.331
5.8422	5.4212	7.2881	6.1691	4.364	6.1514	5.2003	2.3204	3.7339	4.0578	0.0501	1.2279	0.2797	-0.1885	2.6002	0.7303	0.3946	1.3251	0.2002	2.3351	-1.3457
5.8422	5.3681	7.2439	6.1249	4.314	6.0984	5.1444	2.2497	3.6926	3.9989	0.0236	1.172	0.2415	-0.1737	2.5972	0.6743	0.3651	1.3339	0.2238	2.3116	-1.3251
5.801	5.3151	7.1938	6.0395	4.2256	6.013	5.0913	2.235	3.6249	3.9547	0.0088	1.1514	0.212	-0.1443	2.5678	0.6037	0.3269	1.3222	0.2209	2.2615	-1.2957
5.7568	5.2356	7.1085	5.9571	4.1756	5.9571	5.0295	2.1732	3.5719	3.9135	-0.0029	1.0807	0.1826	-0.1325	2.5707	0.5418	0.2768	1.3281	0.2326	2.2026	-1.2721
5.7156	5.1473	7.0672	5.8952	4.1167	5.8923	4.9677	2.1437	3.5101	3.884	-0.0206	1.0689	0.1649	-0.109	2.5648	0.4977	0.2179	1.3339	0.2297	2.1673	-1.2279
5.6744	5.0796	7.0024	5.8069	4.0695	5.8069	4.9235	2.1084	3.4629	3.8399	-0.0206	1.0778	0.1355	-0.0648	2.553	0.4682	0.1531	1.3163	0.2591	2.1319	-1.1808
5.6067	4.9736	6.9053	5.7068	4.0048	5.7421	4.8587	2.0848	3.4188	3.7927	-0.0265	1.0689	0.162	-0.0383	2.5089	0.4152	0.0942	1.3339	0.3062	2.0789	-1.1337
5.5301	4.9058	6.8493	5.6184	3.9311	5.6803	4.8204	2.0701	3.3805	3.778	-0.0118	1.0571	0.1737	-0.0059	2.4559	0.3298	0.0442	1.3398	0.3445	2.0436	-1.0719
5.4506	4.8145	6.7728	5.5389	3.8781	5.6096	4.7792	2.0436	3.3422	3.7545	-0.0029	1.0542	0.1737	0.0236	2.4352	0.2974	-0.0147	1.3604	0.3887	2.0171	-1.01
5.4064	4.7321	6.6933	5.4535	3.8281	5.5537	4.735	2.0554	3.3187	3.7397	0.0177	1.0719	0.2061	0.0383	2.397	0.2356	-0.0648	1.3722	0.4211	2.0024	-0.9394
5.3181	4.6438	6.599	5.3475	3.7662	5.4918	4.682	2.0436	3.2833	3.7368	0.0383	1.0748	0.2061	0.0648	2.3705	0.2061	-0.1119	1.4105	0.427	1.9935	-0.8687
5.2327	4.5554	6.4901	5.2327	3.7074	5.4182	4.6231	2.0318	3.248	3.7015	0.0412	1.0689	0.2444	0.0854	2.3145	0.1678	-0.1413	1.4399	0.4329	1.97	-0.8098
5.1385	4.4641	6.4194	5.1473	3.6514	5.3593	4.579	2.0289	3.2333	3.7044	0.0501	1.0925	0.2621	0.0972	2.2762	0.1325	-0.1708	1.4753	0.4535	1.9464	-0.7686
5.0648	4.3905	6.3046	5.0678	3.6013	5.2945	4.5436	2.0142	3.2068	3.7191	0.0766	1.1013	0.2768	0.1148	2.2497	0.0972	-0.2002	1.5106	0.4653	1.9494	-0.7421
4.9441	4.2551	6.1868	4.9323	3.5042	5.215	4.4936	1.9994	3.1508	3.6632	0.0736	1.1101	0.2827	0.1237	2.182	0.0825	-0.215	1.5253	0.4653	1.9288	-0.7097
4.8411	4.1814	6.0543	4.8293	3.4571	5.1444	4.4229	1.9612	3.1096	3.672	0.0883	1.0954	0.3121	0.1237	2.1408	0.0618	-0.2297	1.5666	0.4329	1.914	-0.6861
