"FZ"	"FC3"	"FCZ"	"FC4"	"C3"	"CZ"	"C4"	"CP3"	"CPZ"	"CP4"	"P3"	"PZ"	"P4"	"OZ"	"FP1"	"FP2"	"A2"	"P8"	"TP7"	"TP8"	"P7"	"VEOG"	"HEOG"
-0.8068	-1.0836	-0.9629	-0.1325	-0.6802	-0.8275	-0.7892	-0.3475	-0.7774	-1.0483	-0.0677	-0.6361	-0.7038	-0.162	-0.0236	-0.6419	0.3033	-0.5624	-0.3121	-0.5124	-0.1148	-6.5254	0.8805
-0.7803	-0.9747	-0.8952	-0.1237	-0.53	-0.7538	-0.7479	-0.2503	-0.6861	-0.9953	-0.0147	-0.5948	-0.6979	-0.1914	-0.0766	-0.6007	0.3622	-0.5359	-0.2297	-0.4888	-0.0353	-6.4518	0.8068
-0.7479	-0.8186	-0.8068	-0.1325	-0.4211	-0.6861	-0.7421	-0.1413	-0.6184	-0.9717	0.0471	-0.5536	-0.6596	-0.2238	-0.1855	-0.5948	0.4211	-0.5035	-0.1649	-0.5035	0.0177	-6.3811	0.7686
-0.7008	-0.6655	-0.7391	-0.1178	-0.2621	-0.5889	-0.6979	-0.0589	-0.5242	-0.9305	0.0589	-0.5006	-0.6213	-0.2474	-0.2945	-0.5536	0.477	-0.477	-0.0883	-0.4829	0.0501	-6.3369	0.7244
-0.6213	-0.4859	-0.6331	-0.109	-0.1413	-0.477	-0.6419	0.0294	-0.427	-0.8481	0.109	-0.4446	-0.5801	-0.2739	-0.3916	-0.477	0.53	-0.4181	-0.0059	-0.4653	0.0942	-6.2957	0.6802
-0.5065	-0.3386	-0.5565	-0.0913	-0.0088	-0.3828	-0.6066	0.1266	-0.3121	-0.7833	0.1561	-0.3593	-0.5448	-0.2974	-0.4829	-0.3946	0.5801	-0.3622	0.053	-0.4476	0.1325	-6.2751	0.6684
-0.3769	-0.1413	-0.4034	-0.053	0.1237	-0.2591	-0.5418	0.2474	-0.2091	-0.6832	0.2209	-0.2974	-0.4594	-0.3033	-0.5359	-0.2532	0.6007	-0.3033	0.106	-0.3769	0.1531	-6.2751	0.6508
-0.2503	0.0177	-0.2856	-0.0206	0.2474	-0.1355	-0.4829	0.3269	-0.0736	-0.6095	0.2797	-0.1885	-0.3887	-0.3239	-0.586	-0.109	0.6419	-0.2562	0.1708	-0.3475	0.1796	-6.2663	0.6331
-0.1502	0.1708	-0.1767	0.0177	0.3828	-0.0294	-0.4034	0.424	0.0501	-0.4947	0.3327	-0.109	-0.3151	-0.3386	-0.6037	0.0501	0.6655	-0.1796	0.2061	-0.2974	0.2002	-6.3075	0.6125
-0.0177	0.2974	-0.0559	0.0589	0.4829	0.0942	-0.318	0.5153	0.1502	-0.4123	0.3622	-0.0147	-0.2356	-0.3386	-0.5978	0.2179	0.6832	-0.109	0.2356	-0.2503	0.2061	-6.3222	0.6154
0.1001	0.4358	0.053	0.0854	0.5713	0.2061	-0.2474	0.6095	0.268	-0.2827	0.4211	0.0972	-0.1413	-0.3386	-0.5565	0.4594	0.6773	-0.0324	0.2562	-0.1855	0.2356	-6.4076	0.6037
0.1826	0.5418	0.1266	0.0913	0.6331	0.318	-0.1855	0.6684	0.3916	-0.1737	0.4564	0.1737	-0.0471	-0.3327	-0.5124	0.6508	0.6626	0.0324	0.3062	-0.1443	0.2356	-6.443	0.5919
0.2591	0.5948	0.1885	0.0825	0.6949	0.3858	-0.1001	0.7214	0.4829	-0.0648	0.4829	0.2503	0.0471	-0.3327	-0.4711	0.8922	0.6478	0.0972	0.2856	-0.0736	0.2356	-6.496	0.6007
0.2856	0.6272	0.2326	0.0766	0.7244	0.4711	-0.0442	0.7568	0.5683	0.0324	0.5242	0.3504	0.1296	-0.3151	-0.4329	1.0984	0.6125	0.1649	0.318	0.0147	0.2562	-6.5136	0.6037
0.2945	0.6419	0.268	0.0648	0.7332	0.533	0.0088	0.7892	0.6567	0.1325	0.5242	0.4181	0.2032	-0.2856	-0.3563	1.2927	0.5624	0.2267	0.3121	0.0795	0.2356	-6.5048	0.6066
0.265	0.6184	0.2709	0.0353	0.7126	0.5948	0.0589	0.7833	0.7214	0.2297	0.5683	0.4947	0.2886	-0.2591	-0.3239	1.4488	0.5124	0.2856	0.3121	0.1325	0.2562	-6.4812	0.6066
0.2297	0.5772	0.268	-0.0029	0.6832	0.6095	0.0942	0.798	0.7597	0.3033	0.5507	0.5536	0.3622	-0.2444	-0.2709	1.596	0.4535	0.3475	0.2945	0.1767	0.2326	-6.4194	0.586
0.1531	0.4711	0.2267	-0.0795	0.6125	0.6007	0.109	0.7656	0.7597	0.3563	0.5183	0.5595	0.4064	-0.2032	-0.2267	1.6961	0.3975	0.3769	0.2474	0.2091	0.1708	-6.334	0.5948
0.0559	0.3681	0.1737	-0.1561	0.5242	0.5978	0.1207	0.7273	0.7745	0.4093	0.4888	0.586	0.4653	-0.1767	-0.1649	1.7639	0.3475	0.4123	0.2091	0.2503	0.159	-6.2103	0.5772
-0.0236	0.2591	0.109	-0.2179	0.4594	0.583	0.1266	0.6626	0.7951	0.4535	0.4653	0.5978	0.4947	-0.1561	-0.1296	1.8051	0.2797	0.4623	0.1561	0.3033	0.1443	-6.0425	0.5536
-0.0707	0.1796	0.0883	-0.2797	0.3593	0.583	0.1296	0.6095	0.7803	0.5153	0.4564	0.639	0.5477	-0.1001	-0.0795	1.7933	0.212	0.5006	0.106	0.3445	0.109	-5.8776	0.5595
-0.1767	0.0442	-0.0029	-0.371	0.2827	0.533	0.1472	0.5271	0.7833	0.5624	0.4064	0.6066	0.5801	-0.0736	-0.0294	1.7432	0.1443	0.5242	0.0618	0.3828	0.0942	-5.6626	0.533
-0.2179	-0.0854	-0.0589	-0.4594	0.1914	0.477	0.1413	0.4358	0.7362	0.5742	0.3445	0.6095	0.6037	-0.0412	0.0177	1.6431	0.0913	0.5565	-0.0324	0.4034	0.0236	-5.4094	0.533
-0.2503	-0.1737	-0.106	-0.5035	0.1031	0.477	0.1472	0.374	0.692	0.6125	0.3062	0.586	0.6272	-0.0059	0.0559	1.5283	0.0177	0.5772	-0.0589	0.4535	-0.0265	-5.1561	0.5094
-0.268	-0.2532	-0.1031	-0.5153	0.0412	0.4505	0.1796	0.318	0.6979	0.6596	0.2768	0.5889	0.6773	0.0383	0.1148	1.4164	-0.0677	0.6154	-0.0913	0.48	-0.0118	-4.8941	0.4918
-0.2709	-0.3327	-0.1443	-0.5477	-0.0471	0.4123	0.1914	0.2444	0.6449	0.6655	0.212	0.5624	0.7038	0.0559	0.1413	1.2957	-0.1207	0.6213	-0.1413	0.4977	-0.0618	-4.6055	0.4918
-0.2797	-0.4181	-0.159	-0.53	-0.1148	0.3858	0.1855	0.1472	0.6066	0.6802	0.1796	0.5359	0.7273	0.0942	0.1531	1.1249	-0.1796	0.6626	-0.1826	0.5565	-0.0942	-4.3169	0.4947
-0.268	-0.4476	-0.2061	-0.5271	-0.162	0.3593	0.2297	0.1031	0.5801	0.7008	0.1296	0.53	0.7568	0.1266	0.1649	0.9717	-0.2356	0.6802	-0.2061	0.5772	-0.1443	-4.0048	0.4977
-0.2945	-0.4977	-0.2238	-0.5035	-0.2091	0.321	0.2591	0.0029	0.5565	0.7185	0.0795	0.4829	0.7745	0.1472	0.1531	0.7892	-0.2827	0.7038	-0.2503	0.6213	-0.159	-3.6897	0.4594
-0.2974	-0.5507	-0.2415	-0.4918	-0.2385	0.2709	0.268	-0.0707	0.4859	0.7303	0.0412	0.4594	0.7745	0.1531	0.1649	0.6095	-0.3004	0.7214	-0.2709	0.6243	-0.2032	-3.4129	0.4476
-0.3357	-0.5595	-0.2709	-0.4299	-0.2739	0.2621	0.2945	-0.1178	0.4417	0.7332	-0.0265	0.4181	0.7803	0.1649	0.1502	0.427	-0.3121	0.7391	-0.2856	0.6508	-0.2179	-3.1155	0.4476
-0.3269	-0.5742	-0.2739	-0.3975	-0.2709	0.2238	0.3062	-0.1767	0.4329	0.7479	-0.0707	0.4064	0.7951	0.1531	0.1266	0.2797	-0.3092	0.7627	-0.3004	0.6714	-0.2591	-2.8328	0.424
-0.3651	-0.5948	-0.3151	-0.3534	-0.3033	0.1914	0.3033	-0.2709	0.371	0.7038	-0.1472	0.3769	0.7715	0.1443	0.1178	0.1413	-0.2739	0.7479	-0.371	0.6567	-0.3121	-2.5854	0.3681
-0.3651	-0.5772	-0.321	-0.3033	-0.3121	0.1649	0.3327	-0.318	0.3357	0.6891	-0.1678	0.3416	0.7686	0.1296	0.0972	0.0501	-0.2444	0.7273	-0.3975	0.6743	-0.3622	-2.3292	0.3475
-0.4005	-0.5713	-0.318	-0.2562	-0.3327	0.1531	0.3327	-0.3504	0.2856	0.6714	-0.2385	0.3033	0.7273	0.0942	0.1148	-0.0294	-0.1973	0.7067	-0.4388	0.6419	-0.4152	-2.1172	0.2856
-0.3946	-0.5889	-0.3239	-0.1826	-0.3386	0.0913	0.3475	-0.4446	0.2444	0.6596	-0.2974	0.2739	0.7097	0.0766	0.1237	-0.109	-0.162	0.6626	-0.4947	0.6243	-0.4741	-1.9376	0.2532
-0.3769	-0.5713	-0.3357	-0.1178	-0.3475	0.1031	0.3475	-0.5124	0.2091	0.6184	-0.3445	0.2267	0.6537	0.0589	0.162	-0.109	-0.1119	0.6419	-0.5006	0.6037	-0.5212	-1.7668	0.2415
-0.318	-0.53	-0.2974	-0.0118	-0.3504	0.0942	0.3946	-0.5536	0.2061	0.6154	-0.3916	0.1943	0.6449	0.0383	0.212	-0.0707	-0.0854	0.6213	-0.5477	0.583	-0.5742	-1.6284	0.1914
-0.2238	-0.4859	-0.2267	0.0707	-0.3239	0.1384	0.4123	-0.5654	0.1973	0.6213	-0.4093	0.1973	0.6154	0.0206	0.3004	-0.0353	-0.0501	0.5919	-0.5742	0.5801	-0.6125	-1.49	0.1649
-0.1266	-0.4211	-0.1443	0.1826	-0.2886	0.1413	0.4476	-0.583	0.1796	0.6213	-0.4623	0.1737	0.6154	0.0147	0.3887	0.0677	-0.0353	0.5624	-0.5948	0.5772	-0.6449	-1.3811	0.1384
0.0088	-0.3799	-0.0707	0.2797	-0.265	0.1767	0.4918	-0.6125	0.1943	0.639	-0.4564	0.1561	0.6213	0	0.5035	0.1708	-0.0147	0.5536	-0.5978	0.5772	-0.6449	-1.2603	0.1031
0.1443	-0.2709	-0.0059	0.4181	-0.2209	0.215	0.5742	-0.5978	0.212	0.6714	-0.477	0.1885	0.6066	-0.0088	0.5919	0.3033	0.0088	0.5565	-0.6213	0.5801	-0.6802	-1.1631	0.0766
0.3092	-0.1855	0.1207	0.4977	-0.1796	0.3121	0.6331	-0.5595	0.2591	0.6979	-0.4358	0.2297	0.6243	-0.0059	0.6832	0.4388	0.0147	0.5271	-0.5889	0.5713	-0.6537	-1.0483	0.053
0.477	-0.0736	0.2621	0.6272	-0.0825	0.3681	0.7303	-0.5242	0.321	0.7686	-0.3946	0.2621	0.6832	-0.0088	0.7892	0.6066	0.0147	0.5624	-0.53	0.586	-0.6302	-0.9452	0.0353
0.6125	0.0471	0.3622	0.7126	-0.0265	0.4388	0.7745	-0.4623	0.3651	0.7892	-0.3504	0.3151	0.7156	-0.0088	0.8304	0.7273	0.0177	0.5683	-0.4947	0.6037	-0.5683	-0.8157	0.0059
0.7391	0.1561	0.4859	0.8039	0.0353	0.5183	0.8657	-0.3975	0.4388	0.851	-0.3033	0.374	0.7627	-0.0059	0.8805	0.8628	0.0177	0.6154	-0.4417	0.6302	-0.4977	-0.7126	0.0353
0.8186	0.2562	0.5595	0.8687	0.1001	0.5448	0.9305	-0.3445	0.4682	0.8952	-0.265	0.424	0.8068	-0.0118	0.8716	0.9335	0.0265	0.639	-0.3858	0.6596	-0.4564	-0.5565	0.0236
0.9158	0.3769	0.6626	0.9187	0.1914	0.6449	0.9924	-0.2474	0.5477	0.9511	-0.1885	0.4829	0.8422	0	0.9129	0.9924	0.0206	0.6567	-0.3062	0.6567	-0.3799	-0.4093	0.0118
0.9629	0.4888	0.7509	0.9835	0.2297	0.692	1.0483	-0.1737	0.5919	1.013	-0.1266	0.5271	0.854	-0.0118	0.8922	0.9953	0.0147	0.6596	-0.2621	0.6478	-0.2768	-0.2267	0.0059
0.9776	0.5948	0.8245	1.0218	0.318	0.7686	1.1043	-0.1001	0.6419	1.0336	-0.0618	0.6095	0.904	0.0088	0.8304	1.0277	-0.0029	0.6537	-0.1885	0.6714	-0.2474	-0.0383	0.0265
1.013	0.6684	0.8805	1.0454	0.3534	0.8127	1.1425	-0.0294	0.6861	1.0689	0.0236	0.6331	0.9246	0.0059	0.7833	0.9747	-0.0029	0.6449	-0.1443	0.6567	-0.1796	0.159	0.0442
1.0012	0.7774	0.9511	1.0571	0.4299	0.8598	1.1749	0.0353	0.7332	1.1131	0.0795	0.692	0.9423	0.0118	0.745	0.9423	-0.0383	0.6537	-0.0589	0.6655	-0.109	0.3887	0.0383
0.9953	0.8481	0.9776	1.0719	0.4446	0.8893	1.1808	0.0883	0.7627	1.1219	0.1148	0.7067	0.9394	0.0294	0.6714	0.854	-0.0618	0.6508	-0.0412	0.6508	-0.0707	0.6302	0.0707
0.9747	0.9276	1.0071	1.0689	0.5065	0.907	1.2014	0.1296	0.7862	1.116	0.1649	0.7421	0.9246	0.0383	0.6184	0.8186	-0.0913	0.6125	0.0029	0.6272	-0.0353	0.8805	0.0883
0.96	0.9629	1.0454	1.0866	0.5271	0.9276	1.2073	0.1531	0.7892	1.1249	0.1885	0.7509	0.8952	0.0618	0.533	0.7421	-0.1325	0.583	0.0059	0.6302	-0.0118	1.1425	0.1355
0.9688	1.0159	1.0807	1.066	0.5683	0.96	1.225	0.1855	0.8157	1.119	0.2238	0.7597	0.8893	0.0854	0.4711	0.6361	-0.1885	0.5389	0.0324	0.5978	0.0294	1.4282	0.1502
0.9806	1.0719	1.1043	1.0748	0.5889	0.9629	1.2162	0.2179	0.798	1.0954	0.2444	0.7627	0.8628	0.1119	0.4653	0.5654	-0.2326	0.5065	0.0648	0.586	0.0559	1.6961	0.1737
0.9717	1.1131	1.1072	1.066	0.5978	0.9835	1.1955	0.2591	0.801	1.0719	0.2915	0.7509	0.8245	0.1502	0.4446	0.4653	-0.2886	0.4594	0.0913	0.5595	0.0883	1.9877	0.2032
0.9835	1.1101	1.1278	1.0601	0.6037	0.9953	1.172	0.2797	0.8186	1.0395	0.3062	0.7656	0.7921	0.1737	0.4388	0.3593	-0.3327	0.4034	0.1001	0.5418	0.1148	2.2674	0.2179
0.9659	1.1013	1.1366	1.0336	0.6007	0.9688	1.1455	0.2945	0.7862	1.0012	0.3092	0.7391	0.7391	0.1885	0.4535	0.2444	-0.3799	0.3622	0.1237	0.53	0.1561	2.5295	0.2326
0.9511	1.0895	1.116	1.0071	0.5948	0.9894	1.1219	0.321	0.7892	0.957	0.3357	0.7244	0.6832	0.2297	0.5035	0.1443	-0.4505	0.3062	0.159	0.4888	0.159	2.7916	0.2297
0.9158	1.0513	1.0895	0.9865	0.6007	0.9541	1.0748	0.3416	0.7538	0.8863	0.3298	0.7156	0.6125	0.2444	0.5418	0.0206	-0.48	0.2621	0.1708	0.4711	0.1826	3.0242	0.2061
0.8392	0.9747	1.0277	0.9217	0.5507	0.9158	0.9953	0.2974	0.7156	0.8127	0.2974	0.6243	0.533	0.2503	0.5477	-0.0883	-0.4977	0.1796	0.2032	0.4005	0.2002	3.2421	0.1943
0.7745	0.9011	0.9335	0.8805	0.5094	0.8451	0.9305	0.2974	0.6655	0.7273	0.3004	0.5801	0.4417	0.268	0.5595	-0.2562	-0.5183	0.0913	0.2091	0.3475	0.1767	3.4158	0.1649
0.6714	0.8068	0.854	0.8157	0.4535	0.7833	0.8363	0.2621	0.583	0.6154	0.2621	0.4947	0.3327	0.2621	0.53	-0.374	-0.5242	0.0059	0.2179	0.2886	0.1767	3.5807	0.1266
0.5448	0.6684	0.745	0.745	0.3593	0.692	0.7479	0.2267	0.4977	0.5271	0.2238	0.424	0.212	0.2709	0.4888	-0.4859	-0.5271	-0.0854	0.1973	0.2356	0.1413	3.7074	0.1355
0.3916	0.5212	0.6508	0.6655	0.2945	0.6154	0.639	0.1678	0.3916	0.4064	0.1678	0.321	0.0972	0.2562	0.4653	-0.6066	-0.5124	-0.1855	0.2032	0.1325	0.1266	3.7957	0.0825
0.3004	0.4123	0.5448	0.6066	0.2356	0.5212	0.5477	0.1502	0.318	0.3121	0.1384	0.2562	0.0206	0.2532	0.3946	-0.7156	-0.4888	-0.2415	0.212	0.0707	0.1031	3.8988	0.0677
0.162	0.268	0.4299	0.533	0.1678	0.4152	0.4181	0.1148	0.2356	0.1914	0.0942	0.1649	-0.0913	0.2385	0.3121	-0.8068	-0.4623	-0.3386	0.212	0	0.0942	3.9812	0
0.0707	0.1472	0.3475	0.4329	0.1031	0.318	0.3092	0.0501	0.1384	0.0559	0.0589	0.0677	-0.212	0.2297	0.2444	-0.8805	-0.4358	-0.4211	0.2326	-0.0471	0.0795	4.0489	-0.0353
-0.0353	0.0294	0.2385	0.3622	0.0383	0.2297	0.215	0.0236	0.0589	-0.0442	0.0118	-0.0353	-0.3121	0.2061	0.1737	-0.9511	-0.3916	-0.5124	0.2032	-0.1237	0.0501	4.1255	-0.0854
-0.1178	-0.0825	0.1296	0.2562	-0.0471	0.1031	0.0736	-0.0383	-0.0795	-0.1561	-0.053	-0.1413	-0.4505	0.1855	0.1148	-0.9747	-0.3563	-0.583	0.1767	-0.2179	0.0206	4.1991	-0.109
-0.1885	-0.1472	0.0559	0.1737	-0.0942	-0.0147	-0.0177	-0.0677	-0.1708	-0.2768	-0.0913	-0.2474	-0.5624	0.1767	0.0442	-1.0395	-0.3239	-0.6714	0.1737	-0.2974	0.0059	4.2992	-0.1502
-0.2032	-0.2209	0	0.1148	-0.1296	-0.0854	-0.109	-0.106	-0.2621	-0.3681	-0.1443	-0.3357	-0.639	0.1649	0.0088	-1.0395	-0.3092	-0.7185	0.1826	-0.3651	-0.0206	4.3876	-0.1767
-0.2532	-0.2915	-0.0736	0.0206	-0.1796	-0.1796	-0.2238	-0.1472	-0.3593	-0.48	-0.2091	-0.4476	-0.7273	0.1355	-0.0913	-1.0778	-0.268	-0.798	0.1502	-0.4358	-0.0324	4.4818	-0.2091
-0.2503	-0.3593	-0.1207	-0.0501	-0.2179	-0.2827	-0.3239	-0.159	-0.4446	-0.5654	-0.2267	-0.5183	-0.8216	0.1207	-0.1502	-1.066	-0.2356	-0.8304	0.1531	-0.48	-0.0206	4.579	-0.2326
-0.2974	-0.3887	-0.1885	-0.1207	-0.2797	-0.4005	-0.424	-0.2032	-0.5565	-0.6802	-0.2797	-0.6272	-0.8863	0.109	-0.2385	-1.0807	-0.2002	-0.8657	0.1266	-0.533	-0.0589	4.6673	-0.2591
-0.3151	-0.4211	-0.2503	-0.2179	-0.3062	-0.4918	-0.5006	-0.2297	-0.6302	-0.7686	-0.2915	-0.7038	-0.9423	0.0942	-0.318	-1.0836	-0.1855	-0.907	0.1296	-0.6125	-0.0383	4.7586	-0.3121
-0.3563	-0.4741	-0.3121	-0.2856	-0.3622	-0.5889	-0.6037	-0.2621	-0.7332	-0.8569	-0.3416	-0.7745	-1.0071	0.0825	-0.3946	-1.0925	-0.162	-0.9364	0.1148	-0.6684	-0.0442	4.8381	-0.3651
-0.371	-0.4977	-0.3534	-0.3475	-0.3622	-0.6596	-0.6567	-0.2591	-0.798	-0.9276	-0.3593	-0.8363	-1.0542	0.0736	-0.4505	-1.0925	-0.1531	-0.9305	0.1207	-0.6949	-0.0501	4.8999	-0.3916
-0.4446	-0.5477	-0.4417	-0.4505	-0.4181	-0.7568	-0.7391	-0.3151	-0.907	-1.0071	-0.3946	-0.8922	-1.1013	0.0648	-0.4829	-1.1043	-0.1266	-0.9629	0.1031	-0.7509	-0.0471	4.9647	-0.4446
-0.4682	-0.5654	-0.4859	-0.5035	-0.4181	-0.8716	-0.8186	-0.2915	-0.9541	-1.0748	-0.3828	-0.9394	-1.1455	0.0707	-0.5006	-1.1131	-0.1413	-0.9717	0.106	-0.7627	-0.0059	5.0118	-0.5212
-0.53	-0.5889	-0.5389	-0.5801	-0.4594	-0.9452	-0.8716	-0.3151	-1.0395	-1.1308	-0.4358	-0.9747	-1.1573	0.0677	-0.5242	-1.0866	-0.1384	-0.9776	0.0972	-0.7892	0.0147	5.0442	-0.5772
-0.5772	-0.5742	-0.6007	-0.6596	-0.48	-1.0513	-0.9511	-0.3151	-1.1072	-1.2103	-0.4034	-1.0218	-1.1985	0.0677	-0.5477	-1.1101	-0.1296	-0.9747	0.1119	-0.8098	0.0442	5.0678	-0.6449
-0.6272	-0.5595	-0.6361	-0.7244	-0.4711	-1.0984	-1.0071	-0.3269	-1.1602	-1.2544	-0.4064	-1.0601	-1.1955	0.0648	-0.5801	-1.0689	-0.1355	-0.9541	0.1119	-0.8275	0.0501	5.0737	-0.6949
-0.6832	-0.5742	-0.7008	-0.7892	-0.5006	-1.172	-1.0306	-0.3327	-1.2191	-1.2662	-0.4005	-1.0866	-1.1955	0.0648	-0.6095	-1.0424	-0.1266	-0.9305	0.1031	-0.8392	0.0825	5.0796	-0.7509
-0.7156	-0.5565	-0.7214	-0.8304	-0.4888	-1.2368	-1.0571	-0.3033	-1.2427	-1.2662	-0.3622	-1.063	-1.2014	0.0618	-0.6684	-1.0218	-0.1207	-0.907	0.1178	-0.8451	0.1237	5.0943	-0.8275
-0.7303	-0.533	-0.7391	-0.851	-0.5242	-1.278	-1.119	-0.3121	-1.2868	-1.2839	-0.3622	-1.0836	-1.2044	0.0442	-0.6861	-0.9835	-0.0942	-0.8628	0.1443	-0.8451	0.1678	5.0913	-0.8805
-0.7244	-0.5006	-0.7597	-0.9158	-0.5448	-1.3428	-1.1278	-0.3269	-1.3045	-1.3104	-0.3386	-1.0866	-1.1838	0.0324	-0.7273	-0.96	-0.0677	-0.8569	0.1443	-0.851	0.1885	5.109	-0.9452
-0.6567	-0.4653	-0.7656	-0.9217	-0.5153	-1.3575	-1.1543	-0.2974	-1.3222	-1.3045	-0.3121	-1.0689	-1.1779	0.0353	-0.7597	-0.96	-0.0501	-0.7921	0.1443	-0.8392	0.2179	5.1532	-1.0071
-0.5919	-0.4623	-0.745	-0.9452	-0.5124	-1.3575	-1.172	-0.2827	-1.3163	-1.2986	-0.2739	-1.066	-1.1337	0.0059	-0.7627	-0.9482	-0.0206	-0.7509	0.162	-0.801	0.2444	5.1885	-1.066
-0.5389	-0.4064	-0.7332	-0.9423	-0.5153	-1.3575	-1.1867	-0.2945	-1.3428	-1.2927	-0.2415	-1.0365	-1.0954	-0.0118	-0.7538	-0.9394	0.0294	-0.7421	0.162	-0.8098	0.2532	5.2091	-1.1131
-0.4594	-0.374	-0.7038	-0.9394	-0.5212	-1.3546	-1.2014	-0.268	-1.3074	-1.2868	-0.212	-0.9924	-1.0601	-0.0236	-0.7656	-0.96	0.0618	-0.7067	0.1649	-0.801	0.2709	5.2356	-1.1838
-0.4034	-0.3298	-0.692	-0.9629	-0.4977	-1.3428	-1.2279	-0.2415	-1.2986	-1.2927	-0.1737	-0.9629	-1.0218	-0.053	-0.7391	-0.9865	0.1031	-0.6655	0.1678	-0.8039	0.3092	5.2621	-1.2397
-0.3151	-0.2827	-0.6626	-0.957	-0.477	-1.3339	-1.225	-0.2032	-1.2603	-1.2809	-0.1384	-0.9394	-0.9982	-0.0854	-0.6832	-1.0365	0.1561	-0.6449	0.1826	-0.8186	0.3004	5.2621	-1.2721
-0.2768	-0.2709	-0.6508	-0.9924	-0.4594	-1.3339	-1.2368	-0.1826	-1.2456	-1.2485	-0.0913	-0.904	-0.957	-0.106	-0.6743	-1.0424	0.2179	-0.6095	0.1767	-0.8098	0.318	5.2651	-1.3163
-0.2709	-0.2444	-0.6449	-1.0277	-0.4417	-1.3192	-1.2898	-0.1914	-1.2162	-1.278	-0.0913	-0.8746	-0.9511	-0.1502	-0.6567	-1.0925	0.2945	-0.6007	0.1472	-0.8392	0.2915	5.2916	-1.3398
-0.2709	-0.2209	-0.6508	-1.066	-0.4329	-1.3192	-1.3281	-0.1649	-1.1926	-1.2721	-0.0707	-0.8775	-0.9423	-0.1826	-0.5978	-1.1219	0.3593	-0.586	0.1531	-0.851	0.318	5.3093	-1.3752
-0.2945	-0.1973	-0.6626	-1.1337	-0.4005	-1.2986	-1.3428	-0.1443	-1.1543	-1.2544	-0.0265	-0.8392	-0.907	-0.2179	-0.5978	-1.1661	0.424	-0.5536	0.1296	-0.8569	0.321	5.3358	-1.3958
-0.3386	-0.1973	-0.7067	-1.2132	-0.427	-1.3104	-1.4046	-0.159	-1.1514	-1.2927	-0.0442	-0.8275	-0.9129	-0.265	-0.5889	-1.2574	0.5124	-0.5536	0.1355	-0.8834	0.3269	5.3711	-1.3987
-0.3799	-0.1531	-0.7156	-1.2662	-0.371	-1.3015	-1.4429	-0.1031	-1.0895	-1.2839	-0.0029	-0.7862	-0.8952	-0.3092	-0.5713	-1.2898	0.586	-0.5507	0.1355	-0.9217	0.3327	5.3888	-1.3987
-0.4299	-0.1384	-0.7303	-1.3575	-0.3327	-1.278	-1.4723	-0.1031	-1.0571	-1.2603	0.0265	-0.7509	-0.8805	-0.3151	-0.533	-1.3457	0.639	-0.5212	0.1325	-0.9217	0.3416	5.4506	-1.3958
-0.4918	-0.106	-0.7715	-1.4547	-0.3327	-1.275	-1.5312	-0.0618	-1.0365	-1.2986	0.0206	-0.7421	-0.9011	-0.371	-0.5359	-1.4017	0.7244	-0.5595	0.1413	-0.9541	0.3386	5.5095	-1.3899
-0.5536	-0.1031	-0.8098	-1.5283	-0.3269	-1.278	-1.5695	-0.0618	-0.9894	-1.3192	0.0265	-0.7038	-0.8922	-0.4123	-0.5448	-1.5106	0.798	-0.5507	0.1531	-0.9924	0.371	5.5919	-1.3752
-0.6154	-0.1148	-0.8451	-1.599	-0.2886	-1.2868	-1.6137	-0.0559	-0.9629	-1.3339	0.0206	-0.7038	-0.9158	-0.4505	-0.533	-1.599	0.8775	-0.5595	0.1531	-1.01	0.3504	5.6715	-1.3516
-0.6243	-0.0972	-0.8805	-1.6579	-0.2621	-1.2485	-1.6137	-0.0265	-0.8981	-1.3104	0.0177	-0.6802	-0.8746	-0.4711	-0.5183	-1.6549	0.9276	-0.5271	0.1737	-0.9953	0.3769	5.7657	-1.3575
-0.6714	-0.0736	-0.8775	-1.6991	-0.2444	-1.2397	-1.6402	-0.0029	-0.8863	-1.3045	0.0177	-0.6714	-0.8893	-0.4888	-0.5389	-1.7698	0.9806	-0.5507	0.1914	-1.0218	0.3769	5.8776	-1.3516
-0.639	-0.0501	-0.8805	-1.755	-0.1855	-1.2279	-1.6314	0.0088	-0.8451	-1.2986	0.0265	-0.6596	-0.854	-0.5271	-0.583	-1.8404	1.0159	-0.5624	0.2591	-1.0277	0.3828	5.9689	-1.3192
-0.6773	-0.0559	-0.9217	-1.8286	-0.1855	-1.1926	-1.6314	0.0147	-0.801	-1.2957	0.0206	-0.6537	-0.8481	-0.5389	-0.6243	-1.9759	1.0601	-0.5389	0.2562	-1.0306	0.3975	6.0749	-1.3104
-0.6596	-0.0442	-0.9129	-1.8286	-0.1502	-1.172	-1.6078	0.053	-0.7568	-1.2809	0.0236	-0.6243	-0.8157	-0.5507	-0.6449	-2.0495	1.0689	-0.5153	0.2945	-1.0012	0.4064	6.1662	-1.2839
-0.6567	-0.0412	-0.907	-1.8228	-0.1413	-1.1514	-1.5783	0.0324	-0.7214	-1.2515	-0.0118	-0.5948	-0.7774	-0.5536	-0.7008	-2.1084	1.0807	-0.4859	0.3357	-0.9776	0.424	6.228	-1.2721
-0.6949	-0.1001	-0.9335	-1.861	-0.1325	-1.1396	-1.546	0.0294	-0.692	-1.2103	-0.0265	-0.5801	-0.7391	-0.5477	-0.7391	-2.1702	1.0748	-0.4417	0.3269	-0.9364	0.4358	6.3046	-1.2338
-0.7156	-0.0854	-0.9335	-1.8316	-0.1119	-1.1278	-1.5253	0.053	-0.6773	-1.1602	-0.0353	-0.5624	-0.7156	-0.5418	-0.7479	-2.2026	1.063	-0.4093	0.3416	-0.8952	0.4299	6.3369	-1.2162
-0.7214	-0.106	-0.9482	-1.8257	-0.109	-1.0895	-1.4429	0.0324	-0.6537	-1.116	-0.0707	-0.5565	-0.6655	-0.5271	-0.7568	-2.2144	1.0365	-0.3416	0.3239	-0.8304	0.4123	6.3576	-1.2014
-0.7686	-0.1708	-0.9747	-1.7786	-0.1384	-1.0895	-1.3516	0.0029	-0.6567	-1.0807	-0.0972	-0.5477	-0.6184	-0.5153	-0.7686	-2.2674	1.0071	-0.321	0.3357	-0.7597	0.3799	6.3546	-1.2044
-0.8245	-0.2297	-1.0012	-1.7521	-0.1796	-1.0895	-1.3015	-0.0353	-0.6478	-1.0189	-0.1266	-0.5389	-0.5948	-0.4947	-0.801	-2.2674	0.9747	-0.2591	0.2945	-0.7156	0.3445	6.3517	-1.225
-0.8657	-0.3151	-1.013	-1.705	-0.2267	-1.0836	-1.2191	-0.0825	-0.6626	-0.957	-0.1384	-0.5477	-0.5654	-0.4682	-0.7715	-2.288	0.9187	-0.215	0.2562	-0.6537	0.2974	6.3311	-1.225
-0.9011	-0.3946	-1.0395	-1.6255	-0.2768	-1.0807	-1.1337	-0.1237	-0.6684	-0.907	-0.1826	-0.53	-0.5065	-0.4446	-0.7745	-2.3057	0.8863	-0.1443	0.2238	-0.5889	0.2562	6.2898	-1.2485
-0.9394	-0.4594	-1.0336	-1.546	-0.3386	-1.0984	-1.0277	-0.1649	-0.6684	-0.8068	-0.212	-0.5242	-0.4535	-0.424	-0.7921	-2.3175	0.8275	-0.0913	0.1943	-0.5183	0.215	6.2486	-1.2397
-0.957	-0.5595	-1.066	-1.4547	-0.4181	-1.0866	-0.9011	-0.2209	-0.7008	-0.7273	-0.2532	-0.5124	-0.4093	-0.3975	-0.801	-2.2645	0.7774	-0.0412	0.1325	-0.4358	0.1561	6.1956	-1.2692
-0.9894	-0.6213	-1.0778	-1.331	-0.4653	-1.119	-0.8098	-0.2915	-0.7303	-0.6537	-0.3004	-0.5359	-0.3681	-0.3769	-0.7568	-2.235	0.7391	-0.0059	0.0795	-0.3651	0.1119	6.1603	-1.2721
-0.9511	-0.6861	-1.0601	-1.2368	-0.5153	-1.116	-0.7185	-0.3416	-0.7479	-0.5713	-0.3239	-0.53	-0.3062	-0.3475	-0.7538	-2.1938	0.6861	0.0559	0.0559	-0.2915	0.0648	6.1426	-1.2633
-0.9187	-0.7156	-1.0513	-1.116	-0.5565	-1.116	-0.5948	-0.3975	-0.7774	-0.48	-0.3386	-0.5035	-0.2827	-0.3327	-0.7185	-2.1054	0.6478	0.0854	0	-0.2356	0.0324	6.1397	-1.2721
-0.8805	-0.7332	-1.0071	-0.9835	-0.5948	-1.1013	-0.5006	-0.4476	-0.7715	-0.4093	-0.3357	-0.5094	-0.2415	-0.318	-0.6626	-2.0466	0.6154	0.1413	-0.0412	-0.1678	0.0118	6.1426	-1.278
-0.8068	-0.7803	-0.9865	-0.8775	-0.6773	-1.1337	-0.4064	-0.5065	-0.8127	-0.321	-0.3887	-0.4888	-0.1885	-0.2827	-0.6331	-2.0053	0.583	0.1678	-0.0766	-0.0825	-0.0265	6.1632	-1.2603
-0.7479	-0.7833	-0.9717	-0.7509	-0.7126	-1.1278	-0.3121	-0.5536	-0.8392	-0.2591	-0.4005	-0.4977	-0.1678	-0.2797	-0.6125	-1.8934	0.5477	0.1561	-0.1207	-0.0383	-0.0442	6.1779	-1.2338
-0.6743	-0.7597	-0.9011	-0.6596	-0.7479	-1.116	-0.2532	-0.5948	-0.8569	-0.2209	-0.4211	-0.5212	-0.1296	-0.2591	-0.5624	-1.8228	0.5153	0.1678	-0.1649	-0.0059	-0.0736	6.1691	-1.1955
-0.5948	-0.7627	-0.8687	-0.5801	-0.7686	-1.1514	-0.1885	-0.6567	-0.8775	-0.162	-0.4682	-0.5359	-0.1325	-0.2503	-0.5801	-1.7315	0.4829	0.1885	-0.2061	0.0648	-0.0942	6.1485	-1.1955
-0.5389	-0.7244	-0.8363	-0.4918	-0.7774	-1.1396	-0.1296	-0.7185	-0.9217	-0.1237	-0.4947	-0.5507	-0.1266	-0.2297	-0.5919	-1.652	0.4535	0.1561	-0.268	0.0707	-0.1325	6.1308	-1.1455
-0.477	-0.7332	-0.8333	-0.427	-0.8068	-1.1278	-0.0913	-0.7833	-0.9482	-0.1207	-0.5124	-0.5654	-0.1325	-0.215	-0.6037	-1.5695	0.4181	0.1531	-0.3092	0.0972	-0.1649	6.1073	-1.116
-0.4299	-0.6949	-0.7715	-0.374	-0.8363	-1.1455	-0.0707	-0.8363	-0.9924	-0.1148	-0.5654	-0.6184	-0.1708	-0.1973	-0.6272	-1.4871	0.4005	0.1119	-0.3651	0.0883	-0.2267	6.0454	-1.066
-0.371	-0.6449	-0.7568	-0.3386	-0.8481	-1.1425	-0.0766	-0.8952	-1.0189	-0.1119	-0.5889	-0.6331	-0.1914	-0.1885	-0.6154	-1.4282	0.371	0.053	-0.3828	0.0648	-0.2444	5.9836	-1.0395
-0.3504	-0.6184	-0.7509	-0.3092	-0.8863	-1.172	-0.109	-0.9541	-1.0836	-0.1325	-0.6537	-0.6714	-0.2238	-0.1796	-0.6331	-1.3752	0.3651	-0.0088	-0.4358	0.0383	-0.2739	5.9394	-1.0277
-0.2974	-0.6007	-0.7244	-0.2797	-0.904	-1.1661	-0.109	-0.9982	-1.1337	-0.1649	-0.6655	-0.7156	-0.2709	-0.1737	-0.583	-1.2957	0.3534	-0.0383	-0.4594	-0.0029	-0.3239	5.8717	-1.013
-0.268	-0.5919	-0.6861	-0.2709	-0.9187	-1.169	-0.1384	-1.0542	-1.1631	-0.212	-0.7097	-0.7362	-0.3033	-0.1767	-0.5507	-1.2103	0.3563	-0.1178	-0.5124	-0.0383	-0.3239	5.8128	-0.9894
-0.2415	-0.5801	-0.6714	-0.2709	-0.9217	-1.1631	-0.1943	-1.0984	-1.222	-0.2739	-0.7509	-0.7833	-0.3622	-0.1708	-0.4829	-1.1308	0.3563	-0.1826	-0.5477	-0.0883	-0.3799	5.7716	-0.9806
-0.2297	-0.5389	-0.6567	-0.2856	-0.96	-1.169	-0.2415	-1.1219	-1.222	-0.318	-0.7862	-0.8157	-0.4299	-0.1737	-0.4005	-1.0071	0.3445	-0.2415	-0.5742	-0.1472	-0.4181	5.7421	-0.9924
-0.1885	-0.5683	-0.639	-0.3121	-0.9806	-1.1631	-0.2915	-1.1779	-1.2957	-0.4034	-0.8186	-0.8569	-0.4741	-0.1708	-0.371	-0.904	0.3534	-0.318	-0.6213	-0.212	-0.4417	5.7627	-0.9924
-0.159	-0.5683	-0.6508	-0.3681	-0.9953	-1.1779	-0.3769	-1.2309	-1.3192	-0.4594	-0.8628	-0.8981	-0.5536	-0.1767	-0.3357	-0.7774	0.3593	-0.4152	-0.6773	-0.2768	-0.477	5.7922	-1.0041
-0.109	-0.5624	-0.6449	-0.4123	-1.0159	-1.1749	-0.427	-1.278	-1.3487	-0.5624	-0.904	-0.9335	-0.6213	-0.1826	-0.2974	-0.6361	0.3769	-0.5065	-0.7008	-0.3651	-0.5183	5.8658	-1.0189
-0.0589	-0.5801	-0.6243	-0.4888	-1.0424	-1.1661	-0.4859	-1.2986	-1.3752	-0.6213	-0.9629	-0.9629	-0.6979	-0.1885	-0.265	-0.5065	0.3828	-0.5948	-0.7097	-0.4358	-0.5507	5.9483	-1.0306
-0.0265	-0.5565	-0.6184	-0.5536	-1.0218	-1.1661	-0.5271	-1.3133	-1.3928	-0.7038	-0.9865	-1.0071	-0.7568	-0.1826	-0.2444	-0.4034	0.3769	-0.6478	-0.7479	-0.5065	-0.6154	6.0601	-1.0513
0.0294	-0.5742	-0.5948	-0.6066	-1.066	-1.1308	-0.5978	-1.3457	-1.3958	-0.7892	-1.0719	-1.0513	-0.851	-0.1885	-0.2061	-0.2827	0.3858	-0.7421	-0.8039	-0.6007	-0.6655	6.175	-1.063
0.0501	-0.5624	-0.6213	-0.6684	-1.0454	-1.1278	-0.6684	-1.384	-1.4134	-0.8805	-1.1308	-1.0807	-0.9099	-0.1943	-0.1708	-0.2326	0.3975	-0.8245	-0.8392	-0.6743	-0.7244	6.2957	-1.0689
0.0294	-0.5359	-0.6066	-0.7509	-1.0542	-1.0866	-0.7156	-1.3987	-1.4105	-0.9246	-1.1573	-1.0866	-0.9806	-0.1914	-0.1561	-0.2474	0.4005	-0.904	-0.8628	-0.7391	-0.7862	6.4459	-1.0601
0.0294	-0.5389	-0.6184	-0.7921	-1.0424	-1.066	-0.7686	-1.3958	-1.4105	-1.0071	-1.2162	-1.1043	-1.0012	-0.1914	-0.1355	-0.268	0.4034	-0.9776	-0.9011	-0.8098	-0.8275	6.6079	-1.0336
-0.0236	-0.5359	-0.6361	-0.8657	-1.0689	-1.0513	-0.8186	-1.4134	-1.3811	-1.063	-1.2338	-1.1337	-1.0836	-0.1914	-0.1266	-0.3269	0.4064	-1.0542	-0.9364	-0.8598	-0.904	6.7904	-1.0071
-0.0618	-0.5683	-0.6537	-0.8805	-1.0689	-1.013	-0.8569	-1.4076	-1.3546	-1.0836	-1.2633	-1.1308	-1.1131	-0.1973	-0.1119	-0.4476	0.3916	-1.1072	-0.9688	-0.9187	-0.9335	6.9848	-0.9953
-0.1767	-0.5595	-0.7185	-0.9482	-1.063	-0.9806	-0.9099	-1.4341	-1.3369	-1.119	-1.3074	-1.1337	-1.169	-0.1914	-0.1325	-0.583	0.4034	-1.1631	-1.013	-0.9835	-1.0306	7.1732	-0.96
-0.2415	-0.5477	-0.7244	-0.9717	-1.0836	-0.9629	-0.9511	-1.4399	-1.3163	-1.1867	-1.3339	-1.1337	-1.2073	-0.1826	-0.1502	-0.7303	0.3799	-1.2279	-1.0601	-1.0012	-1.0807	7.3646	-0.9217
-0.321	-0.533	-0.7273	-0.96	-1.0513	-0.8893	-0.9335	-1.4282	-1.2368	-1.1926	-1.3457	-1.1043	-1.2103	-0.1767	-0.1561	-0.8952	0.3651	-1.2515	-1.0424	-1.0247	-1.1308	7.5295	-0.8893
-0.3858	-0.5448	-0.745	-0.9364	-1.0542	-0.8304	-0.9394	-1.4017	-1.1661	-1.172	-1.3339	-1.0454	-1.2132	-0.1649	-0.1767	-1.0513	0.3239	-1.2544	-1.0719	-1.0247	-1.1631	7.6974	-0.8068
-0.4653	-0.5242	-0.7303	-0.9364	-1.0306	-0.7479	-0.9217	-1.3752	-1.119	-1.1838	-1.3457	-1.0336	-1.2103	-0.1443	-0.1885	-1.2162	0.3033	-1.278	-1.0984	-1.0424	-1.2191	7.8417	-0.7686
-0.5271	-0.5035	-0.7479	-0.8922	-1.0336	-0.6861	-0.8952	-1.3604	-1.0395	-1.1573	-1.3693	-0.9835	-1.1838	-0.1325	-0.1325	-1.3516	0.2739	-1.2692	-1.1396	-1.0189	-1.2839	7.9241	-0.7038
-0.5595	-0.5124	-0.7391	-0.8275	-1.0571	-0.6302	-0.8569	-1.3516	-0.9688	-1.1043	-1.3634	-0.957	-1.1808	-0.1296	-0.0972	-1.5224	0.2562	-1.2692	-1.1661	-1.0012	-1.331	7.9919	-0.6243
-0.5242	-0.4977	-0.6802	-0.7185	-1.0336	-0.5448	-0.8039	-1.3281	-0.8775	-1.0571	-1.3604	-0.9158	-1.1514	-0.1178	-0.0177	-1.5872	0.2209	-1.2603	-1.1867	-0.9776	-1.3634	8.0449	-0.5683
-0.477	-0.4653	-0.6066	-0.6184	-1.0306	-0.4535	-0.7509	-1.2898	-0.7803	-1.0306	-1.3663	-0.8893	-1.1484	-0.0972	0.0677	-1.6932	0.1914	-1.2279	-1.2014	-0.9511	-1.3899	8.0596	-0.5153
-0.427	-0.4505	-0.5242	-0.4918	-1.0218	-0.3593	-0.6684	-1.2721	-0.7185	-0.9776	-1.3752	-0.8657	-1.1131	-0.0883	0.159	-1.7874	0.1737	-1.225	-1.2162	-0.9011	-1.4046	8.0655	-0.477
-0.3475	-0.3975	-0.4388	-0.3327	-0.9953	-0.2856	-0.6095	-1.275	-0.6596	-0.9452	-1.3604	-0.851	-1.1043	-0.0795	0.2974	-1.864	0.1561	-1.1926	-1.222	-0.8569	-1.4517	8.0478	-0.424
-0.2591	-0.3622	-0.3622	-0.1855	-0.9747	-0.1855	-0.53	-1.2456	-0.586	-0.8834	-1.3663	-0.854	-1.0954	-0.0766	0.4181	-1.9052	0.1472	-1.1749	-1.2309	-0.8127	-1.4753	8.0242	-0.3975
-0.1531	-0.3269	-0.2503	-0.0265	-0.9659	-0.1237	-0.4623	-1.222	-0.5507	-0.8746	-1.384	-0.8598	-1.0954	-0.0825	0.533	-1.9788	0.1502	-1.1897	-1.225	-0.8068	-1.5018	8.0007	-0.3651
-0.0618	-0.2739	-0.1561	0.1355	-0.9158	-0.0324	-0.374	-1.1955	-0.4888	-0.8157	-1.3811	-0.8422	-1.0836	-0.0736	0.6537	-1.9494	0.1325	-1.1514	-1.1985	-0.7597	-1.5077	7.9654	-0.3327
0.0353	-0.2532	-0.053	0.3033	-0.9129	-0.0147	-0.3121	-1.2044	-0.477	-0.7921	-1.3958	-0.9011	-1.1043	-0.0677	0.7715	-1.9494	0.1355	-1.1455	-1.2368	-0.7538	-1.546	7.9241	-0.3357
0.1148	-0.2297	0.0442	0.4564	-0.9011	0.0324	-0.2621	-1.2103	-0.4682	-0.7951	-1.4429	-0.9482	-1.1425	-0.0618	0.8922	-1.8934	0.1325	-1.1308	-1.278	-0.7303	-1.5607	7.8711	-0.3298
0.1708	-0.2209	0.1325	0.583	-0.8834	0.0677	-0.2091	-1.2044	-0.4888	-0.7892	-1.4871	-1.0071	-1.1867	-0.0559	1.0012	-1.8345	0.1178	-1.1131	-1.2721	-0.7097	-1.6048	7.8505	-0.3534
0.2297	-0.2297	0.1649	0.6714	-0.9158	0.0648	-0.2032	-1.2633	-0.5094	-0.8127	-1.5342	-1.063	-1.2073	-0.0559	1.0984	-1.755	0.1148	-1.0719	-1.3015	-0.6949	-1.6166	7.824	-0.3504
0.2621	-0.2326	0.2326	0.7597	-0.8981	0.0707	-0.1767	-1.2662	-0.53	-0.8157	-1.5872	-1.1779	-1.2603	-0.053	1.1985	-1.6461	0.0972	-1.0601	-1.3398	-0.6949	-1.6461	7.8152	-0.3651
0.2709	-0.2503	0.2444	0.8304	-0.9305	0.0265	-0.1796	-1.3281	-0.639	-0.8687	-1.6579	-1.275	-1.3104	-0.0324	1.2633	-1.5165	0.0677	-0.9953	-1.3693	-0.7097	-1.7315	7.8122	-0.3799
0.2856	-0.2709	0.2415	0.8451	-0.96	-0.0236	-0.1973	-1.3722	-0.7244	-0.9099	-1.7226	-1.3869	-1.3575	-0.0147	1.2986	-1.3693	0.0353	-0.9511	-1.4193	-0.6891	-1.7639	7.8093	-0.3916
0.2444	-0.3445	0.2415	0.8422	-1.0336	-0.1178	-0.2297	-1.4753	-0.854	-0.9953	-1.8286	-1.5283	-1.4311	-0.0088	1.3369	-1.2132	0.0059	-0.9246	-1.4782	-0.7362	-1.8228	7.7887	-0.3975
0.2444	-0.374	0.2238	0.8068	-1.0778	-0.212	-0.2768	-1.5548	-0.9953	-1.0719	-1.9258	-1.6755	-1.4959	0.0206	1.3339	-1.0247	-0.0383	-0.8422	-1.5548	-0.7391	-1.8816	7.774	-0.3858
0.2297	-0.4446	0.159	0.7303	-1.1897	-0.3416	-0.3593	-1.652	-1.1573	-1.1749	-2.0289	-1.8434	-1.5165	0.0501	1.3045	-0.8451	-0.0766	-0.7833	-1.6284	-0.7185	-1.9347	7.7445	-0.3769
0.2179	-0.5124	0.106	0.6979	-1.278	-0.4888	-0.4535	-1.7727	-1.3251	-1.2574	-2.1378	-1.9877	-1.6166	0.0677	1.2338	-0.6891	-0.1148	-0.6773	-1.6902	-0.7391	-1.9906	7.7268	-0.3416
0.1649	-0.6125	-0.0118	0.5565	-1.4017	-0.6684	-0.5477	-1.8699	-1.5165	-1.3722	-2.2497	-2.1673	-1.6461	0.0648	1.1897	-0.5212	-0.1296	-0.5772	-1.7639	-0.7479	-2.0436	7.7033	-0.3386
0.1413	-0.7214	-0.1148	0.4358	-1.5136	-0.8451	-0.6714	-2.0289	-1.7256	-1.49	-2.394	-2.341	-1.6991	0.0707	1.1249	-0.4299	-0.1472	-0.4918	-1.8463	-0.7833	-2.1025	7.6797	-0.3386
0.0677	-0.8363	-0.2739	0.2827	-1.6608	-1.0454	-0.7774	-2.1702	-1.9494	-1.6078	-2.4971	-2.4971	-1.6991	0.0795	1.0277	-0.3269	-0.159	-0.3445	-1.9229	-0.801	-2.1584	7.6532	-0.3357
0	-1.0041	-0.4388	0.1207	-1.8316	-1.278	-0.9276	-2.3145	-2.185	-1.6902	-2.6178	-2.6561	-1.7226	0.0883	0.9335	-0.2915	-0.1737	-0.1885	-2.0083	-0.8127	-2.2144	7.6532	-0.3416
-0.1296	-1.1514	-0.6154	-0.0648	-2.0053	-1.5106	-1.0807	-2.4588	-2.4029	-1.8139	-2.7356	-2.8122	-1.7315	0.0942	0.8687	-0.2856	-0.1914	-0.0088	-2.0848	-0.798	-2.2527	7.6208	-0.3239
-0.3062	-1.3339	-0.8422	-0.2768	-2.2144	-1.7815	-1.2397	-2.6325	-2.662	-1.9347	-2.874	-2.9565	-1.705	0.0942	0.7214	-0.321	-0.1885	0.1767	-2.185	-0.801	-2.3057	7.6032	-0.3327
-0.5242	-1.5783	-1.0836	-0.5448	-2.4323	-2.0436	-1.3987	-2.8181	-2.9005	-2.0318	-2.9947	-3.1243	-1.7109	0.0825	0.5212	-0.374	-0.1767	0.3563	-2.2851	-0.8039	-2.3881	7.5973	-0.3445
-0.7538	-1.8198	-1.3634	-0.7774	-2.6532	-2.3351	-1.5607	-2.9947	-3.1508	-2.1084	-3.1125	-3.2421	-1.6343	0.0825	0.3298	-0.4564	-0.1708	0.5919	-2.3881	-0.8039	-2.4294	7.5855	-0.3622
-1.013	-2.0642	-1.6402	-1.0395	-2.874	-2.6414	-1.7344	-3.1832	-3.404	-2.1908	-3.2333	-3.3952	-1.5695	0.0736	0.1207	-0.5271	-0.1678	0.8392	-2.4824	-0.7597	-2.4618	7.556	-0.3858
-1.3163	-2.3469	-1.9582	-1.3192	-3.1302	-2.9064	-1.9023	-3.3658	-3.6249	-2.2409	-3.3599	-3.5012	-1.4871	0.0795	-0.1296	-0.6095	-0.1531	1.0954	-2.5913	-0.7568	-2.503	7.5472	-0.3887
-1.6372	-2.6414	-2.2645	-1.6107	-3.3834	-3.2097	-2.0524	-3.5336	-3.8929	-2.2821	-3.4306	-3.6367	-1.3752	0.0766	-0.4093	-0.7362	-0.1472	1.3752	-2.7003	-0.6949	-2.556	7.5413	-0.4181
-1.9847	-2.9329	-2.606	-1.8522	-3.6308	-3.4836	-2.2173	-3.7221	-4.1108	-2.3204	-3.5366	-3.7074	-1.2574	0.0559	-0.6861	-0.8805	-0.1237	1.6667	-2.8033	-0.6567	-2.5884	7.5649	-0.4329
-2.2851	-3.2391	-2.9035	-2.1555	-3.8752	-3.7427	-2.3557	-3.8516	-4.2786	-2.3263	-3.566	-3.7604	-1.1072	0.0707	-0.9394	-1.01	-0.1384	1.9729	-2.8681	-0.6007	-2.5736	7.559	-0.4446
-2.6296	-3.5277	-3.2333	-2.4323	-4.0931	-3.993	-2.5148	-3.9959	-4.4582	-2.3499	-3.6072	-3.7898	-0.957	0.0677	-1.2103	-1.1573	-0.1472	2.2939	-2.9682	-0.5242	-2.5471	7.5855	-0.4358
-2.9123	-3.7957	-3.5248	-2.6973	-4.2992	-4.1991	-2.6119	-4.1049	-4.6231	-2.3234	-3.6102	-3.7957	-0.7833	0.0766	-1.4134	-1.3722	-0.1561	2.6149	-3.0124	-0.4446	-2.5148	7.6179	-0.4476
-3.1979	-4.0578	-3.7898	-2.9476	-4.4641	-4.3993	-2.7651	-4.1756	-4.7056	-2.2998	-3.5807	-3.7692	-0.583	0.0942	-1.6225	-1.5813	-0.1973	2.9506	-3.0536	-0.3534	-2.4765	7.6532	-0.4505
-3.4894	-4.2875	-4.0754	-3.1891	-4.5966	-4.5407	-2.8504	-4.2344	-4.7998	-2.2468	-3.5336	-3.7309	-0.3504	0.1207	-1.808	-1.8375	-0.2415	3.2774	-3.089	-0.2474	-2.3852	7.6974	-0.4505
-3.7162	-4.4818	-4.3022	-3.4011	-4.7439	-4.6938	-2.9771	-4.2875	-4.8617	-2.1879	-3.46	-3.6573	-0.1178	0.1384	-1.9847	-2.1643	-0.2945	3.6131	-3.1037	-0.1649	-2.291	7.7504	-0.4476
-3.9518	-4.6909	-4.5407	-3.6455	-4.8676	-4.8411	-3.0595	-4.3081	-4.9323	-2.1584	-3.3687	-3.5896	0.0736	0.1767	-2.1614	-2.5059	-0.3475	3.9017	-3.1479	-0.0854	-2.1997	7.8211	-0.4329
-4.205	-4.8411	-4.7615	-3.8399	-4.9824	-4.9441	-3.1773	-4.3257	-4.9412	-2.0672	-3.2804	-3.4894	0.2856	0.1973	-2.3351	-2.8298	-0.4005	4.1903	-3.1361	0.0118	-2.0966	7.8711	-0.4181
-4.4023	-5.0325	-4.9618	-4.0725	-5.0913	-5.0619	-3.2745	-4.3375	-5.0001	-2.0495	-3.1596	-3.404	0.4653	0.2297	-2.5413	-3.2539	-0.4564	4.4524	-3.1449	0.0501	-2.0024	7.9212	-0.427
-4.6555	-5.1915	-5.2032	-4.3051	-5.162	-5.1679	-3.3746	-4.3405	-5.0295	-2.02	-3.0507	-3.3304	0.6508	0.2591	-2.7592	-3.6514	-0.5035	4.685	-3.1066	0.106	-1.8728	7.9506	-0.3975
-4.8734	-5.3505	-5.4035	-4.4995	-5.2563	-5.2769	-3.4629	-4.3405	-5.059	-2.0053	-2.9623	-3.2391	0.7686	0.2915	-3.0006	-4.0813	-0.5624	4.9176	-3.1243	0.1678	-1.7609	7.9565	-0.3828
-5.1473	-5.4859	-5.6391	-4.7144	-5.3711	-5.3799	-3.6249	-4.3405	-5.0737	-2.0112	-2.8622	-3.1744	0.8981	0.2945	-3.298	-4.5142	-0.586	5.0648	-3.1007	0.2032	-1.6314	7.93	-0.3534
-5.4035	-5.6479	-5.8864	-4.9294	-5.4742	-5.5007	-3.7604	-4.3905	-5.1237	-2.023	-2.7709	-3.1155	0.9835	0.3033	-3.5807	-4.9412	-0.6243	5.218	-3.1007	0.2002	-1.5106	7.877	-0.3298
-5.6685	-5.7892	-6.1367	-5.1296	-5.5566	-5.6273	-3.9046	-4.417	-5.2032	-2.0789	-2.6855	-3.0742	1.0336	0.3151	-3.8664	-5.3387	-0.6508	5.3269	-3.0831	0.1855	-1.3987	7.774	-0.3269
-5.9424	-5.9159	-6.3693	-5.3181	-5.6803	-5.7568	-4.0578	-4.4553	-5.2798	-2.1231	-2.6119	-3.036	1.0395	0.3239	-4.1873	-5.7451	-0.6596	5.3829	-3.0742	0.162	-1.2692	7.6503	-0.2974
-6.1927	-6.0808	-6.6108	-5.5242	-5.8069	-5.9129	-4.2403	-4.5024	-5.3475	-2.1967	-2.5825	-3.036	1.0571	0.3298	-4.4877	-6.0896	-0.6655	5.4094	-3.0654	0.1384	-1.172	7.4854	-0.2856
-6.4606	-6.228	-6.8758	-5.7303	-5.9541	-6.0631	-4.417	-4.632	-5.4594	-2.288	-2.5795	-3.0625	0.957	0.3357	-4.7704	-6.4017	-0.6714	5.4212	-3.0742	0.0766	-1.1249	7.2999	-0.268
-6.708	-6.4017	-7.1379	-5.9159	-6.1367	-6.2633	-4.5849	-4.738	-5.5919	-2.4117	-2.5795	-3.1243	0.8746	0.3357	-5.0266	-6.7109	-0.6567	5.3711	-3.089	0.0118	-1.0424	7.0996	-0.2709
-6.9436	-6.5401	-7.3853	-6.0925	-6.3252	-6.4724	-4.788	-4.8705	-5.748	-2.5707	-2.6267	-3.2333	0.7479	0.318	-5.2563	-6.9877	-0.6478	5.2769	-3.1214	-0.0913	-0.9953	6.9053	-0.2886
-7.1497	-6.7198	-7.6208	-6.2604	-6.4812	-6.6874	-4.9736	-5.0266	-5.9011	-2.7327	-2.6914	-3.3275	0.6037	0.3269	-5.4388	-7.2027	-0.6419	5.2091	-3.1567	-0.1443	-0.9541	6.7227	-0.3121
-7.3264	-6.8434	-7.8387	-6.4047	-6.7021	-6.8699	-5.1532	-5.2091	-6.1014	-2.8917	-2.7916	-3.4364	0.4417	0.3151	-5.5507	-7.3646	-0.6272	5.0737	-3.2097	-0.2444	-0.9364	6.5519	-0.318
-7.5266	-7.0083	-8.0831	-6.5519	-6.9082	-7.1055	-5.3534	-5.4123	-6.2898	-3.0772	-2.8858	-3.5925	0.2503	0.2974	-5.6597	-7.5413	-0.5919	4.9147	-3.2509	-0.3445	-0.9335	6.4282	-0.3475
-7.6238	-7.1202	-8.2716	-6.6815	-7.0878	-7.3146	-5.5272	-5.5949	-6.4783	-3.2509	-2.9977	-3.7456	0.0589	0.2945	-5.6773	-7.6238	-0.583	4.7498	-3.2863	-0.4299	-0.907	6.3134	-0.3504
-7.7681	-7.2675	-8.4807	-6.7934	-7.3057	-7.5443	-5.698	-5.7892	-6.708	-3.4423	-3.1596	-3.8988	-0.1737	0.2856	-5.6891	-7.7622	-0.5654	4.576	-3.351	-0.5065	-0.9364	6.2574	-0.371
-7.8152	-7.3322	-8.6102	-6.8876	-7.4913	-7.7298	-5.8275	-6.0101	-6.8935	-3.6072	-3.3157	-4.096	-0.3858	0.2768	-5.5978	-7.7916	-0.5448	4.364	-3.4364	-0.5948	-0.9688	6.2074	-0.3975
-7.8829	-7.4118	-8.7722	-6.9524	-7.6591	-7.9359	-5.9718	-6.2015	-7.0908	-3.7839	-3.4894	-4.2786	-0.6361	0.2591	-5.5095	-7.827	-0.5183	4.1402	-3.4659	-0.6802	-1.0041	6.2044	-0.4093
-7.9801	-7.5148	-8.8929	-7.026	-7.8623	-8.1096	-6.1043	-6.4165	-7.2881	-3.9665	-3.7074	-4.4818	-0.8893	0.2474	-5.3505	-7.8505	-0.477	3.9105	-3.5483	-0.7597	-1.0807	6.2251	-0.3946
-8.0566	-7.559	-8.9901	-7.0525	-7.9801	-8.3128	-6.1985	-6.599	-7.4736	-4.1343	-3.887	-4.6909	-1.1072	0.215	-5.1826	-7.9006	-0.4358	3.6897	-3.566	-0.8275	-1.1573	6.2751	-0.4152
-8.0861	-7.5914	-9.0784	-7.0554	-8.1126	-8.4424	-6.2722	-6.7963	-7.6267	-4.3257	-4.0813	-4.8676	-1.3781	0.1943	-4.9883	-7.877	-0.4005	3.4158	-3.6543	-0.9129	-1.2279	6.3693	-0.4034
-8.1008	-7.5649	-9.1138	-7.0083	-8.1774	-8.5572	-6.3369	-6.9642	-7.774	-4.4612	-4.2639	-5.0472	-1.6284	0.1914	-4.8057	-7.8564	-0.3769	3.1626	-3.7074	-0.9717	-1.3487	6.4783	-0.4211
-8.0537	-7.5413	-9.102	-6.9553	-8.2098	-8.5985	-6.3163	-7.0437	-7.8358	-4.5466	-4.42	-5.2032	-1.8169	0.1826	-4.6143	-7.7946	-0.3563	2.8828	-3.728	-1.0306	-1.437	6.6226	-0.4299
-8.0301	-7.4353	-9.0431	-6.8493	-8.1921	-8.6073	-6.2722	-7.1114	-7.8623	-4.6379	-4.5672	-5.3093	-2.0171	0.1561	-4.3699	-7.6886	-0.3386	2.606	-3.7486	-1.0571	-1.5342	6.7639	-0.4181
-7.9124	-7.3116	-8.9165	-6.7139	-8.1361	-8.5572	-6.1691	-7.1497	-7.8741	-4.6673	-4.685	-5.4035	-2.1908	0.1678	-4.1785	-7.5354	-0.3386	2.3587	-3.7751	-1.0748	-1.6372	6.9377	-0.4299
-7.7416	-7.1055	-8.7221	-6.5225	-7.983	-8.4277	-6.0572	-7.135	-7.7975	-4.6585	-4.7586	-5.4359	-2.2998	0.1885	-3.94	-7.3116	-0.371	2.1113	-3.7869	-1.0601	-1.7079	7.1173	-0.4093
-7.5413	-6.8994	-8.5101	-6.3075	-7.8328	-8.2569	-5.9188	-7.0554	-7.6915	-4.632	-4.8293	-5.43	-2.4323	0.2061	-3.7103	-7.026	-0.4034	1.8345	-3.7692	-1.0277	-1.8257	7.2999	-0.3651
-7.2792	-6.5872	-8.1921	-6.0307	-7.556	-8.0125	-5.6744	-6.917	-7.4913	-4.5466	-4.8322	-5.3681	-2.5148	0.2297	-3.4512	-6.6579	-0.4564	1.5872	-3.7397	-0.9982	-1.914	7.4618	-0.321
-6.9612	-6.2751	-7.8564	-5.7598	-7.2645	-7.7092	-5.4182	-6.7551	-7.2586	-4.4141	-4.8352	-5.2828	-2.5442	0.268	-3.2244	-6.228	-0.533	1.3722	-3.7191	-0.9394	-1.9994	7.6532	-0.265
-6.6108	-5.9335	-7.4353	-5.4418	-6.9494	-7.3735	-5.1385	-6.549	-6.9701	-4.2462	-4.7704	-5.1826	-2.556	0.2945	-2.9741	-5.7186	-0.6007	1.1308	-3.6926	-0.8922	-2.1113	7.8181	-0.1943
-6.1779	-5.5301	-6.9524	-5.0796	-6.5431	-6.9259	-4.8175	-6.3046	-6.6079	-4.0695	-4.7085	-4.9824	-2.556	0.3504	-2.6973	-5.1473	-0.6891	0.9099	-3.6514	-0.7951	-2.2232	7.986	-0.1148
-5.7068	-5.0825	-6.4695	-4.6997	-6.1132	-6.4842	-4.4494	-6.0189	-6.2221	-3.8045	-4.5966	-4.7704	-2.4824	0.4181	-2.4382	-4.5554	-0.801	0.6979	-3.5807	-0.7156	-2.2821	8.1656	-0.0029
-5.2209	-4.6526	-5.9453	-4.2933	-5.6685	-5.9748	-4.0813	-5.7068	-5.8452	-3.5955	-4.4877	-4.5348	-2.4676	0.4505	-2.1467	-3.9341	-0.8893	0.4741	-3.5159	-0.6361	-2.3764	8.3393	0.0942
-4.7085	-4.205	-5.3799	-3.884	-5.2003	-5.4565	-3.7162	-5.3564	-5.377	-3.3334	-4.3405	-4.311	-2.394	0.4977	-1.8669	-3.3599	-0.9806	0.2385	-3.4394	-0.5507	-2.4441	8.5396	0.2091
-4.1844	-3.7132	-4.8057	-3.4924	-4.7233	-4.9382	-3.3187	-4.9824	-4.9235	-3.0448	-4.1697	-4.0401	-2.3234	0.5448	-1.5666	-2.7827	-1.0719	0.0294	-3.351	-0.4476	-2.5265	8.7663	0.3004
-3.6956	-3.2715	-4.2403	-3.0949	-4.2727	-4.4023	-2.9417	-4.6496	-4.4877	-2.8122	-4.0136	-3.7751	-2.2674	0.5742	-1.3015	-2.288	-1.1366	-0.2091	-3.2951	-0.4123	-2.5943	9.0048	0.371
-3.2215	-2.8475	-3.7132	-2.7268	-3.8251	-3.8899	-2.5854	-4.3257	-4.046	-2.553	-3.8428	-3.5189	-2.2115	0.6125	-1.0247	-1.8404	-1.2044	-0.4564	-3.2126	-0.3504	-2.6767	9.2757	0.4623
-2.7857	-2.45	-3.192	-2.3616	-3.404	-3.4158	-2.2556	-3.99	-3.6131	-2.3499	-3.6867	-3.2774	-2.1555	0.6361	-0.7597	-1.4723	-1.2397	-0.7214	-3.1302	-0.3062	-2.7415	9.5408	0.5389
-2.3322	-2.0613	-2.6826	-1.9965	-3.0183	-2.9005	-1.9317	-3.6602	-3.2068	-2.1143	-3.5101	-3.0301	-2.1084	0.6626	-0.4476	-1.1101	-1.2839	-0.9747	-3.0124	-0.2856	-2.7592	9.794	0.5801
-1.917	-1.6991	-2.185	-1.652	-2.6355	-2.4588	-1.652	-3.3422	-2.8004	-1.9288	-3.3658	-2.7827	-2.0878	0.6773	-0.1678	-0.7951	-1.3015	-1.2544	-2.9447	-0.2739	-2.8269	10.0531	0.5772
-1.5136	-1.3663	-1.7344	-1.3281	-2.3057	-2.0495	-1.3869	-3.0536	-2.4235	-1.7344	-3.2097	-2.553	-2.0731	0.6655	0.1296	-0.5536	-1.3163	-1.5342	-2.8328	-0.2886	-2.8652	10.3123	0.6037
-1.1337	-1.0866	-1.2809	-1.0454	-2.0142	-1.6343	-1.1366	-2.7945	-2.0524	-1.5754	-3.0477	-2.341	-2.0524	0.6743	0.4152	-0.318	-1.3192	-1.808	-2.7827	-0.2915	-2.9152	10.5596	0.5948
-0.7538	-0.7803	-0.8569	-0.7185	-1.6873	-1.2368	-0.8687	-2.5206	-1.7403	-1.4105	-2.8828	-2.1526	-2.0407	0.692	0.6891	-0.1148	-1.3398	-2.0789	-2.7032	-0.3092	-2.93	10.8158	0.5742
-0.3946	-0.5271	-0.477	-0.4505	-1.4606	-0.9129	-0.6891	-2.3145	-1.4252	-1.2868	-2.7297	-1.9494	-2.0112	0.6891	0.9717	0.0589	-1.3516	-2.3528	-2.6355	-0.3386	-2.98	11.0926	0.5565
-0.0677	-0.2915	-0.1237	-0.1649	-1.2633	-0.5772	-0.48	-2.0966	-1.1366	-1.1779	-2.5913	-1.7403	-2.0024	0.6979	1.2132	0.2326	-1.3752	-2.5972	-2.5825	-0.3828	-3.0154	11.3665	0.5183
0.2856	-0.0913	0.2209	0.1119	-1.0866	-0.3004	-0.3062	-1.9347	-0.8863	-1.063	-2.4559	-1.5783	-2.0024	0.7097	1.4812	0.3651	-1.3958	-2.8475	-2.5324	-0.4181	-3.0625	11.6285	0.48
0.639	0.0913	0.5359	0.3445	-0.9335	-0.0383	-0.1561	-1.7668	-0.6596	-0.9688	-2.341	-1.4134	-1.9994	0.7244	1.705	0.53	-1.4252	-3.0742	-2.4883	-0.4564	-3.0978	11.8641	0.4594
0.9482	0.2797	0.8481	0.586	-0.8363	0.1443	-0.0353	-1.6402	-0.4653	-0.8863	-2.2262	-1.2603	-1.9729	0.7391	1.9229	0.6449	-1.4488	-3.2774	-2.4706	-0.4741	-3.1655	12.0879	0.4299
1.2809	0.4299	1.119	0.8039	-0.7273	0.3593	0.0825	-1.5224	-0.2797	-0.7951	-2.1231	-1.1219	-1.967	0.7686	2.1025	0.8068	-1.4959	-3.4453	-2.4382	-0.4888	-3.192	12.2881	0.4034
1.5666	0.5978	1.3339	0.9717	-0.6302	0.533	0.1737	-1.4282	-0.1266	-0.7303	-2.0436	-0.9806	-1.967	0.7892	2.2497	0.9217	-1.5371	-3.6249	-2.4235	-0.533	-3.245	12.4648	0.3681
1.808	0.6832	1.4988	1.1249	-0.6066	0.6243	0.2002	-1.3869	-0.0118	-0.7479	-1.9759	-0.9011	-1.9759	0.798	2.3793	0.9717	-1.5725	-3.7927	-2.4205	-0.5889	-3.3187	12.6091	0.3445
2.0554	0.8157	1.6991	1.2515	-0.586	0.7362	0.2415	-1.3133	0.0854	-0.7273	-1.9199	-0.8245	-1.9906	0.8245	2.4853	1.066	-1.6343	-3.9311	-2.3999	-0.6037	-3.351	12.7151	0.318
2.235	0.8981	1.7963	1.3369	-0.5624	0.7862	0.2385	-1.2692	0.1266	-0.7303	-1.8758	-0.7627	-2.0083	0.8569	2.5943	1.0954	-1.6932	-4.043	-2.4294	-0.6567	-3.4276	12.7828	0.2886
2.3911	0.9806	1.8787	1.3987	-0.5418	0.8451	0.212	-1.2427	0.1708	-0.7833	-1.8345	-0.7391	-2.0407	0.8775	2.6149	1.0895	-1.7491	-4.1461	-2.4294	-0.7097	-3.4924	12.83	0.2503
2.5089	1.0218	1.9317	1.437	-0.5683	0.8216	0.1796	-1.2574	0.1855	-0.8363	-1.8316	-0.7362	-2.0937	0.9276	2.659	1.0601	-1.8139	-4.2286	-2.4529	-0.7656	-3.5454	12.8388	0.2032
2.5736	1.063	1.9347	1.4252	-0.5948	0.798	0.1178	-1.2839	0.1502	-0.9158	-1.8375	-0.7656	-2.1555	0.9541	2.6473	0.9982	-1.8905	-4.314	-2.4441	-0.854	-3.619	12.8035	0.1767
2.6002	1.0925	1.8934	1.4105	-0.6773	0.7303	0.0206	-1.3163	0.0883	-1.0159	-1.864	-0.8127	-2.2262	0.9865	2.6267	0.9305	-1.9523	-4.3728	-2.4588	-0.9129	-3.6779	12.7593	0.1384
2.5972	1.0925	1.8316	1.3693	-0.7126	0.6567	-0.106	-1.3575	0.0147	-1.1396	-1.9111	-0.8805	-2.3145	1.0189	2.5795	0.8157	-2.0112	-4.4023	-2.4853	-0.9835	-3.7604	12.6739	0.0854
2.5707	1.1072	1.7698	1.3104	-0.7656	0.5683	-0.2385	-1.4164	-0.109	-1.2427	-1.967	-0.9629	-2.3675	1.0424	2.4971	0.692	-2.0731	-4.4347	-2.5059	-1.0483	-3.8369	12.5944	0.0501
2.5177	1.0925	1.6785	1.2309	-0.8422	0.4653	-0.3534	-1.49	-0.2002	-1.3693	-2.0259	-1.0365	-2.4323	1.0836	2.4323	0.5536	-2.1408	-4.4435	-2.5648	-1.1278	-3.8929	12.5031	0.0088
2.4559	1.063	1.5725	1.116	-0.8981	0.3445	-0.5094	-1.5607	-0.3416	-1.5077	-2.1172	-1.1602	-2.4971	1.116	2.3204	0.374	-2.1967	-4.4317	-2.6267	-1.2132	-3.993	12.4472	-0.0442
2.3557	1.0306	1.4871	1.0159	-0.9776	0.2415	-0.6449	-1.652	-0.424	-1.6402	-2.185	-1.2574	-2.5619	1.1308	2.182	0.1855	-2.2438	-4.3876	-2.6738	-1.2927	-4.0578	12.4148	-0.1237
2.2615	1.013	1.3398	0.8893	-1.0542	0.1119	-0.7862	-1.7256	-0.5772	-1.7609	-2.2821	-1.3781	-2.5943	1.1484	2.0613	-0.0147	-2.2821	-4.3522	-2.7327	-1.3428	-4.152	12.4265	-0.1708
2.1879	1.0012	1.2515	0.7862	-1.0984	0.0324	-0.907	-1.7904	-0.6861	-1.8728	-2.3646	-1.4723	-2.6178	1.169	1.8846	-0.2091	-2.3116	-4.2492	-2.8004	-1.3693	-4.2079	12.453	-0.2179
2.0701	0.957	1.1278	0.6626	-1.1396	-0.0942	-1.0336	-1.864	-0.8068	-1.9729	-2.4529	-1.5901	-2.6443	1.1838	1.7315	-0.4093	-2.3351	-4.1638	-2.8357	-1.4341	-4.2845	12.509	-0.265
1.9553	0.9482	1.0483	0.5448	-1.1926	-0.1767	-1.1455	-1.9405	-0.9394	-2.0407	-2.5442	-1.6961	-2.6355	1.1897	1.5312	-0.5889	-2.3528	-4.046	-2.8887	-1.4488	-4.3257	12.5767	-0.3357
1.8434	0.9276	0.9394	0.4535	-1.169	-0.2444	-1.2103	-1.9729	-1.0336	-2.1172	-2.5913	-1.7904	-2.5854	1.1867	1.3663	-0.7627	-2.3587	-3.8605	-2.8858	-1.4664	-4.3257	12.6562	-0.3858
1.7256	0.9217	0.8805	0.3504	-1.1955	-0.3092	-1.2839	-2.0142	-1.1396	-2.1791	-2.6767	-1.8993	-2.5943	1.2132	1.2044	-0.8481	-2.3793	-3.7221	-2.9064	-1.4547	-4.3257	12.7298	-0.4358
1.6107	0.9305	0.8245	0.2797	-1.1661	-0.3651	-1.3339	-2.0466	-1.2338	-2.185	-2.7533	-1.9906	-2.5354	1.2191	1.0719	-0.9688	-2.3822	-3.5366	-2.9123	-1.4664	-4.2875	12.7887	-0.4977
1.4576	0.9276	0.7362	0.1943	-1.1308	-0.4211	-1.3752	-2.0848	-1.3163	-2.1997	-2.8033	-2.0848	-2.4706	1.2014	0.9659	-1.066	-2.3793	-3.3334	-2.8976	-1.4164	-4.2227	12.8506	-0.5212
1.275	0.8922	0.6743	0.1355	-1.1131	-0.4888	-1.4134	-2.129	-1.4341	-2.238	-2.874	-2.2438	-2.4529	1.2132	0.8098	-1.2073	-2.3764	-3.1361	-2.8799	-1.4223	-4.1903	12.9271	-0.5683
1.0836	0.8922	0.5948	0.0766	-1.0984	-0.5359	-1.4458	-2.1879	-1.5636	-2.2762	-2.9535	-2.3675	-2.447	1.1897	0.7303	-1.3133	-2.3557	-2.9329	-2.8387	-1.3899	-4.1343	12.9831	-0.6154
0.904	0.8569	0.5242	0.0236	-1.1043	-0.6125	-1.4782	-2.2586	-1.7197	-2.3175	-3.0566	-2.5177	-2.4323	1.1955	0.6478	-1.4694	-2.3616	-2.7533	-2.821	-1.3752	-4.046	13.0331	-0.6361
0.6949	0.7892	0.4388	-0.0589	-1.1631	-0.7038	-1.5283	-2.3616	-1.8964	-2.3557	-3.1861	-2.7327	-2.4264	1.1779	0.5919	-1.5842	-2.3204	-2.606	-2.8652	-1.3546	-4.0372	13.0714	-0.6684
0.4888	0.7008	0.321	-0.1325	-1.2073	-0.8157	-1.5695	-2.4676	-2.076	-2.3793	-3.3245	-2.9123	-2.4352	1.1631	0.5448	-1.6991	-2.291	-2.4264	-2.8652	-1.3074	-3.9812	13.1244	-0.7185
0.2886	0.6154	0.2297	-0.2179	-1.2485	-0.9305	-1.5901	-2.5795	-2.2762	-2.4058	-3.4394	-3.1449	-2.45	1.1337	0.5212	-1.7963	-2.2586	-2.2232	-2.8681	-1.278	-3.9076	13.1686	-0.7509
0.1031	0.5006	0.1502	-0.2709	-1.3104	-1.0336	-1.6225	-2.6797	-2.4735	-2.447	-3.5896	-3.3599	-2.4441	1.1278	0.5654	-1.8434	-2.2291	-2.0583	-2.8976	-1.2309	-3.887	13.2098	-0.8127
-0.0648	0.371	0.0442	-0.371	-1.4193	-1.169	-1.6696	-2.8239	-2.662	-2.447	-3.7339	-3.5778	-2.4676	1.1101	0.5948	-1.864	-2.2026	-1.8816	-2.9388	-1.1926	-3.8516	13.2363	-0.8481
-0.1885	0.2621	-0.0353	-0.427	-1.5106	-1.2721	-1.6608	-2.9565	-2.8387	-2.4441	-3.8575	-3.7397	-2.4323	1.1072	0.6331	-1.8257	-2.1967	-1.6844	-2.9712	-1.1101	-3.8016	13.2717	-0.8834
-0.268	0.1119	-0.1296	-0.4918	-1.6019	-1.3781	-1.6461	-3.0831	-3.036	-2.4411	-3.9812	-3.9253	-2.4205	1.1013	0.7067	-1.7786	-2.1967	-1.4782	-2.9977	-1.0719	-3.7721	13.307	-0.9276
-0.3593	-0.0501	-0.1943	-0.5359	-1.705	-1.4871	-1.649	-3.2126	-3.2068	-2.4205	-4.1019	-4.1108	-2.4058	1.1131	0.8068	-1.6961	-2.1908	-1.2544	-3.0242	-0.9865	-3.7221	13.3129	-0.9482
-0.4446	-0.1678	-0.265	-0.5978	-1.8375	-1.5842	-1.6549	-3.3187	-3.3746	-2.3822	-4.2079	-4.2668	-2.3322	1.116	0.8863	-1.5577	-2.1967	-1.0159	-3.0389	-0.8893	-3.6691	13.307	-1.0012
-0.4711	-0.3269	-0.3298	-0.6832	-1.9464	-1.7167	-1.6284	-3.4394	-3.569	-2.3381	-4.3228	-4.3993	-2.2733	1.1101	0.9688	-1.4046	-2.185	-0.7951	-3.0713	-0.7833	-3.6131	13.3011	-1.013
-0.5212	-0.4682	-0.4564	-0.7627	-2.0583	-1.8198	-1.5901	-3.569	-3.728	-2.288	-4.3846	-4.5142	-2.1702	1.1101	1.0571	-1.2368	-2.185	-0.5565	-3.0742	-0.7008	-3.5542	13.2864	-1.0483
-0.5948	-0.6037	-0.5124	-0.854	-2.1967	-1.9759	-1.599	-3.7132	-3.9105	-2.2703	-4.4906	-4.6614	-2.1349	1.0984	1.1337	-1.0984	-2.1643	-0.3651	-3.1155	-0.6184	-3.5395	13.2746	-1.0866
-0.6537	-0.7627	-0.6714	-0.9511	-2.341	-2.1378	-1.6078	-3.8369	-4.1049	-2.2762	-4.579	-4.8057	-2.0731	1.0954	1.1543	-0.9747	-2.1584	-0.1413	-3.142	-0.533	-3.5012	13.2746	-1.1278
-0.8068	-0.9305	-0.8363	-1.0866	-2.5236	-2.3175	-1.6372	-3.9783	-4.3228	-2.2674	-4.6467	-4.9588	-2.0583	1.0778	1.1867	-0.8805	-2.129	0.0559	-3.1479	-0.4653	-3.4453	13.2746	-1.1425
-0.9364	-1.116	-1.0159	-1.2044	-2.6708	-2.4824	-1.6844	-4.1226	-4.5377	-2.2821	-4.7674	-5.1267	-2.0554	1.0807	1.1779	-0.8039	-2.1172	0.2444	-3.2068	-0.4005	-3.4247	13.2805	-1.1779
-1.0925	-1.2809	-1.1779	-1.3693	-2.8357	-2.7209	-1.7815	-4.2668	-4.7321	-2.3292	-4.8676	-5.2621	-2.0731	1.0542	1.1043	-0.8422	-2.0819	0.3916	-3.2156	-0.3828	-3.3805	13.3158	-1.1897
-1.2603	-1.4723	-1.4134	-1.5312	-3.0419	-2.9476	-1.8375	-4.4347	-4.9765	-2.3911	-4.9382	-5.4418	-2.1054	1.0483	1.0306	-0.8716	-2.0613	0.5242	-3.2745	-0.3475	-3.351	13.3217	-1.2162
-1.4429	-1.6549	-1.6372	-1.7285	-3.248	-3.1538	-1.9376	-4.5554	-5.1856	-2.4618	-5.0383	-5.6067	-2.1408	1.0306	0.9364	-0.9688	-2.0171	0.6508	-3.2656	-0.3504	-3.3039	13.3335	-1.2309
-1.6166	-1.8198	-1.8581	-1.8669	-3.3775	-3.3775	-2.0318	-4.6997	-5.3976	-2.5354	-5.0796	-5.7215	-2.1702	1.0159	0.7803	-1.063	-1.9935	0.7862	-3.2656	-0.3298	-3.2126	13.3571	-1.2368
-1.8198	-1.9935	-2.1054	-2.0554	-3.5866	-3.6102	-2.1555	-4.8263	-5.6067	-2.609	-5.1532	-5.8776	-2.2497	0.9953	0.6125	-1.1955	-1.9553	0.8657	-3.2745	-0.3416	-3.1626	13.3659	-1.225
-1.9759	-2.1555	-2.3204	-2.2056	-3.6926	-3.8016	-2.2762	-4.9029	-5.7804	-2.6738	-5.1856	-5.9865	-2.2762	0.9747	0.4034	-1.3428	-1.914	0.9364	-3.2568	-0.3386	-3.086	13.3571	-1.2191
-2.1231	-2.2733	-2.5059	-2.3557	-3.8516	-4.0195	-2.3852	-4.9853	-5.9247	-2.7386	-5.218	-6.069	-2.2939	0.9423	0.1855	-1.4547	-1.8699	1.0365	-3.2097	-0.3269	-3.0389	13.3423	-1.1867
-2.2556	-2.3587	-2.712	-2.4559	-3.9812	-4.1962	-2.45	-5.0648	-6.069	-2.7857	-5.2415	-6.1338	-2.2968	0.9187	-0.0324	-1.6137	-1.8404	1.1101	-3.1744	-0.3416	-2.9241	13.3423	-1.1602
-2.3557	-2.4853	-2.8711	-2.556	-4.0548	-4.3257	-2.5118	-5.0972	-6.119	-2.8387	-5.2032	-6.1662	-2.2762	0.9276	-0.2444	-1.7285	-1.8139	1.2014	-3.1596	-0.3357	-2.8504	13.3129	-1.1484
-2.4235	-2.553	-3.0006	-2.6119	-4.1108	-4.4406	-2.5501	-5.0884	-6.1632	-2.7945	-5.1738	-6.1308	-2.2144	0.9099	-0.4358	-1.861	-1.7904	1.3163	-3.0742	-0.3121	-2.7533	13.2982	-1.1308
-2.4441	-2.5648	-3.1096	-2.6178	-4.1196	-4.4965	-2.5825	-5.0531	-6.1632	-2.7886	-5.0737	-6.0719	-2.1584	0.904	-0.6066	-2.0289	-1.7815	1.4488	-3.0095	-0.2739	-2.6208	13.2864	-1.119
-2.4529	-2.5943	-3.1832	-2.6325	-4.1255	-4.5436	-2.5884	-4.9912	-6.1426	-2.7415	-4.9677	-5.9895	-2.0613	0.9011	-0.7568	-2.1467	-1.7698	1.5577	-2.9152	-0.2209	-2.4941	13.2569	-1.116
-2.4824	-2.5884	-3.2598	-2.5913	-4.1049	-4.579	-2.6149	-4.9323	-6.0867	-2.712	-4.8469	-5.9217	-1.97	0.8893	-0.9335	-2.3175	-1.7491	1.6667	-2.8269	-0.2091	-2.3587	13.2422	-1.0895
-2.4588	-2.5854	-3.301	-2.556	-4.0666	-4.576	-2.5854	-4.8263	-6.0366	-2.6738	-4.7321	-5.8128	-1.9052	0.8834	-1.0395	-2.4883	-1.7344	1.7432	-2.7503	-0.1678	-2.2262	13.2039	-1.0866
-2.4735	-2.5736	-3.3422	-2.5	-4.0165	-4.5731	-2.609	-4.738	-5.963	-2.6208	-4.6231	-5.698	-1.8198	0.8746	-1.1602	-2.6885	-1.7109	1.8522	-2.6797	-0.1178	-2.0966	13.1774	-1.1013
-2.4794	-2.5471	-3.3834	-2.4647	-3.937	-4.5525	-2.6031	-4.6379	-5.8952	-2.6149	-4.4847	-5.5978	-1.7639	0.8569	-1.2515	-2.8504	-1.6726	1.9052	-2.5943	-0.0854	-1.9612	13.1362	-1.0984
-2.4971	-2.5383	-3.4541	-2.4087	-3.9076	-4.579	-2.6178	-4.5466	-5.8216	-2.5884	-4.3817	-5.5419	-1.7432	0.8422	-1.3869	-3.0507	-1.6343	1.967	-2.5383	-0.0795	-1.8286	13.1097	-1.0807
-2.5383	-2.4912	-3.4571	-2.3646	-3.8546	-4.5554	-2.6031	-4.4612	-5.751	-2.5913	-4.2551	-5.4594	-1.702	0.8157	-1.4282	-3.2068	-1.596	2.0083	-2.4824	-0.0677	-1.7374	13.0803	-1.0778
-2.5913	-2.4676	-3.5071	-2.3322	-3.7721	-4.5613	-2.659	-4.4023	-5.7156	-2.5972	-4.1608	-5.3858	-1.7226	0.798	-1.4812	-3.404	-1.5577	1.9906	-2.4352	-0.106	-1.6608	13.0803	-1.066
-2.6119	-2.4441	-3.5807	-2.3175	-3.725	-4.5731	-2.715	-4.2992	-5.6744	-2.6267	-4.1108	-5.3681	-1.758	0.7656	-1.5047	-3.5454	-1.5165	1.9788	-2.3764	-0.1325	-1.5725	13.0803	-1.0159
-2.6855	-2.4441	-3.6013	-2.3263	-3.6808	-4.5878	-2.768	-4.2551	-5.6538	-2.7032	-4.0607	-5.3681	-1.808	0.7568	-1.5195	-3.6867	-1.4841	1.967	-2.3822	-0.1561	-1.5165	13.1156	-0.9894
-2.7268	-2.3822	-3.6396	-2.2998	-3.6013	-4.5672	-2.7945	-4.1667	-5.6008	-2.7297	-3.9606	-5.3358	-1.8404	0.7391	-1.5047	-3.8192	-1.4429	1.9464	-2.3528	-0.1649	-1.4576	13.2039	-0.9806
-2.7739	-2.3557	-3.6543	-2.3263	-3.5542	-4.5672	-2.8475	-4.1019	-5.5802	-2.768	-3.9253	-5.2886	-1.8934	0.7126	-1.4399	-3.9076	-1.4017	1.8964	-2.3322	-0.2091	-1.4017	13.3011	-0.9099
-2.7709	-2.291	-3.6367	-2.3263	-3.4924	-4.5525	-2.8946	-4.0313	-5.5537	-2.8328	-3.8369	-5.268	-1.9405	0.7273	-1.3369	-3.9753	-1.3987	1.861	-2.3116	-0.2356	-1.3663	13.4425	-0.8716
-2.7739	-2.235	-3.6337	-2.3263	-3.4099	-4.5142	-2.9565	-3.9606	-5.5036	-2.8711	-3.7633	-5.2268	-1.9935	0.6891	-1.2692	-4.046	-1.3575	1.8139	-2.3027	-0.2797	-1.3133	13.6398	-0.8275
-2.7533	-2.1437	-3.6161	-2.3116	-3.3304	-4.4759	-2.9771	-3.8634	-5.4418	-2.8828	-3.6897	-5.1885	-1.9935	0.6802	-1.1779	-4.099	-1.3339	1.7756	-2.2674	-0.3004	-1.275	13.8812	-0.7892
-2.7356	-2.0495	-3.5631	-2.3086	-3.2568	-4.4082	-2.9888	-3.7751	-5.4005	-2.9093	-3.6308	-5.1355	-2.0112	0.6832	-1.0925	-4.1549	-1.331	1.758	-2.2468	-0.3269	-1.2338	14.1727	-0.745
-2.6914	-1.9376	-3.5248	-2.3204	-3.1567	-4.3405	-2.9977	-3.6779	-5.3122	-2.9152	-3.5483	-5.0796	-2.0289	0.6537	-1.01	-4.1991	-1.2986	1.7491	-2.2144	-0.371	-1.1955	14.4731	-0.7038
-2.6119	-1.8404	-3.4423	-2.3057	-3.0654	-4.2786	-3.0212	-3.5984	-5.2415	-2.9182	-3.4688	-5.0207	-2.0289	0.6419	-0.9129	-4.2197	-1.2809	1.7138	-2.1997	-0.3651	-1.1484	14.7882	-0.6537
-2.5795	-1.7668	-3.3746	-2.3469	-3.0065	-4.2315	-3.0625	-3.5395	-5.1797	-2.9329	-3.407	-5.0001	-2.0259	0.639	-0.8834	-4.2668	-1.2633	1.6991	-2.1997	-0.3916	-1.1043	15.1386	-0.6184
-2.5678	-1.7109	-3.3717	-2.4058	-2.9388	-4.1638	-3.0978	-3.4924	-5.1444	-2.9712	-3.3452	-4.9588	-2.0142	0.6272	-0.8127	-4.2757	-1.2456	1.6755	-2.1997	-0.4329	-1.1013	15.4743	-0.5919
-2.5825	-1.6461	-3.3628	-2.5059	-2.9417	-4.1549	-3.1538	-3.4688	-5.1385	-3.0095	-3.3481	-4.9382	-2.0642	0.6302	-0.7509	-4.2904	-1.2368	1.6402	-2.2115	-0.4947	-1.1043	15.8218	-0.5801
-2.6031	-1.6225	-3.3363	-2.5972	-2.9211	-4.1461	-3.2244	-3.4482	-5.1296	-3.0713	-3.3393	-4.9677	-2.1378	0.6184	-0.6537	-4.2904	-1.2279	1.5548	-2.2115	-0.5565	-1.0954	16.1751	-0.5654
-2.659	-1.6284	-3.3658	-2.7091	-2.9417	-4.1667	-3.3157	-3.4836	-5.165	-3.1479	-3.3775	-5.0001	-2.1732	0.6272	-0.6095	-4.2875	-1.225	1.5165	-2.2468	-0.6007	-1.119	16.5226	-0.5595
-2.7474	-1.6991	-3.4541	-2.8711	-3.0183	-4.2344	-3.4364	-3.5542	-5.2209	-3.2627	-3.4158	-5.0825	-2.2998	0.6154	-0.5742	-4.2757	-1.2073	1.4488	-2.2939	-0.692	-1.1366	16.876	-0.5507
-2.8475	-1.7521	-3.5189	-3.0536	-3.0919	-4.3051	-3.5454	-3.5778	-5.321	-3.3717	-3.4806	-5.1532	-2.3852	0.6037	-0.5094	-4.2963	-1.1985	1.3693	-2.341	-0.7833	-1.2044	17.1999	-0.5713
-2.9623	-1.8257	-3.6249	-3.1979	-3.192	-4.3699	-3.7015	-3.6779	-5.4241	-3.5071	-3.5454	-5.2474	-2.5089	0.6007	-0.4535	-4.2639	-1.1926	1.2898	-2.3852	-0.8834	-1.2279	17.5091	-0.5713
-3.0684	-1.9435	-3.7074	-3.3952	-3.3039	-4.5112	-3.8487	-3.7662	-5.5331	-3.6514	-3.6278	-5.3475	-2.6502	0.5801	-0.3916	-4.2256	-1.1661	1.1631	-2.4294	-1.013	-1.2927	17.7741	-0.6095
-3.2126	-2.0966	-3.8428	-3.5984	-3.4482	-4.6496	-4.0283	-3.8958	-5.6626	-3.8222	-3.728	-5.4742	-2.8004	0.5742	-0.3534	-4.1785	-1.1396	1.0365	-2.4912	-1.1249	-1.3487	17.992	-0.639
-3.3157	-2.2409	-3.9724	-3.7662	-3.566	-4.7439	-4.1608	-4.0283	-5.7716	-3.937	-3.8281	-5.5978	-2.927	0.5742	-0.2591	-4.0725	-1.1101	0.9364	-2.5471	-1.2427	-1.3899	18.1716	-0.639
-3.3864	-2.3351	-4.0784	-3.9253	-3.6956	-4.8882	-4.2992	-4.1137	-5.8952	-4.0872	-3.8929	-5.698	-3.036	0.5448	-0.159	-3.9194	-1.0778	0.854	-2.5589	-1.3339	-1.4193	18.313	-0.6743
-3.4335	-2.4824	-4.1785	-4.0695	-3.8163	-4.9706	-4.42	-4.1873	-5.9924	-4.205	-3.9459	-5.7863	-3.1508	0.5359	-0.0736	-3.778	-1.0454	0.7568	-2.5648	-1.4223	-1.4105	18.4249	-0.692
-3.4571	-2.6237	-4.2786	-4.1991	-3.9547	-5.1002	-4.5525	-4.2845	-6.0984	-4.3022	-4.0018	-5.854	-3.2215	0.5094	-0.0118	-3.619	-1.013	0.692	-2.5825	-1.5312	-1.4311	18.5103	-0.7097
-3.4983	-2.7415	-4.367	-4.3463	-4.0725	-5.2239	-4.6703	-4.367	-6.1868	-4.4141	-4.0519	-5.9011	-3.2892	0.4888	0.1031	-3.4453	-0.96	0.6125	-2.609	-1.6078	-1.4341	18.5544	-0.7214
-3.513	-2.8799	-4.4494	-4.4406	-4.1667	-5.3093	-4.7792	-4.4288	-6.2516	-4.4789	-4.0902	-5.9306	-3.3187	0.4682	0.1826	-3.2686	-0.9129	0.583	-2.5825	-1.6637	-1.4164	18.5662	-0.7509
-3.4924	-2.9977	-4.5554	-4.5319	-4.2963	-5.3888	-4.8764	-4.4965	-6.334	-4.5613	-4.1226	-5.9806	-3.3687	0.4299	0.2562	-3.0801	-0.854	0.4977	-2.5707	-1.7344	-1.4134	18.5309	-0.7774
-3.4924	-3.139	-4.6261	-4.6173	-4.4141	-5.5095	-4.9677	-4.5436	-6.3958	-4.6114	-4.1343	-6.0101	-3.4011	0.4064	0.3327	-2.927	-0.7951	0.4888	-2.5589	-1.8051	-1.3928	18.4366	-0.801
-3.5366	-3.2627	-4.738	-4.7262	-4.5201	-5.6214	-5.0707	-4.6025	-6.4695	-4.6909	-4.152	-6.0631	-3.4306	0.371	0.3828	-2.768	-0.7185	0.4358	-2.5736	-1.8816	-1.3869	18.2865	-0.8245
-3.566	-3.3658	-4.844	-4.8145	-4.6084	-5.7274	-5.1473	-4.6379	-6.5401	-4.7498	-4.1785	-6.0955	-3.4806	0.3357	0.424	-2.6031	-0.6743	0.3887	-2.5678	-1.9347	-1.3575	18.1186	-0.8746
-3.6102	-3.5071	-4.9824	-4.9058	-4.7203	-5.8452	-5.2356	-4.7409	-6.6461	-4.8234	-4.205	-6.1397	-3.5336	0.3092	0.4417	-2.447	-0.6243	0.3622	-2.5707	-2.0024	-1.331	17.9095	-0.8922
-3.6779	-3.6249	-5.0766	-4.9736	-4.8263	-5.9777	-5.3181	-4.7792	-6.7168	-4.8823	-4.2462	-6.1985	-3.5866	0.3121	0.4653	-2.3175	-0.5889	0.3092	-2.5707	-2.0466	-1.3722	17.6916	-0.9187
-3.7515	-3.7662	-5.1856	-5.0501	-4.9353	-6.1249	-5.4153	-4.8734	-6.8022	-4.9412	-4.3169	-6.2339	-3.6455	0.2856	0.427	-2.1997	-0.5536	0.2591	-2.5913	-2.1084	-1.3869	17.4502	-0.9364
-3.8369	-3.9194	-5.3446	-5.1267	-5.0472	-6.2604	-5.4948	-4.9264	-6.9023	-5.0177	-4.367	-6.3163	-3.6838	0.2768	0.4123	-2.1025	-0.5359	0.2091	-2.6002	-2.1437	-1.3958	17.2352	-0.957
-3.9311	-4.0224	-5.483	-5.162	-5.1473	-6.3988	-5.5861	-5.006	-7.0231	-5.0325	-4.3846	-6.387	-3.7074	0.2797	0.4064	-1.9877	-0.5389	0.1885	-2.6208	-2.1791	-1.4311	17.032	-0.96
-4.0401	-4.1667	-5.6538	-5.2356	-5.2592	-6.5313	-5.6715	-5.056	-7.0878	-5.1267	-4.4288	-6.4253	-3.7662	0.2739	0.3622	-1.8993	-0.5418	0.1237	-2.6414	-2.2115	-1.4547	16.8495	-0.9776
-4.099	-4.314	-5.7804	-5.2533	-5.3416	-6.6697	-5.7097	-5.1296	-7.188	-5.1532	-4.473	-6.4577	-3.8045	0.2797	0.3445	-1.8257	-0.5624	0.0972	-2.659	-2.2291	-1.4841	16.6993	-0.9835
-4.2021	-4.4465	-5.91	-5.2739	-5.43	-6.7993	-5.7451	-5.1915	-7.2763	-5.1679	-4.5142	-6.5077	-3.8104	0.2945	0.3151	-1.7521	-0.583	0.0854	-2.6944	-2.2321	-1.5371	16.5668	-0.9982
-4.2904	-4.5554	-6.0189	-5.2916	-5.5124	-6.8935	-5.801	-5.215	-7.3322	-5.162	-4.5289	-6.5077	-3.8016	0.3121	0.3033	-1.6991	-0.6213	0.0825	-2.6855	-2.2026	-1.5312	16.499	-0.957
-4.3405	-4.6673	-6.122	-5.3122	-5.5743	-6.9759	-5.7951	-5.2445	-7.3558	-5.1473	-4.5112	-6.5107	-3.725	0.3386	0.3004	-1.6343	-0.6537	0.0825	-2.7032	-2.1967	-1.5695	16.4608	-0.9423
-4.3993	-4.7557	-6.2309	-5.3093	-5.6361	-7.0378	-5.801	-5.268	-7.3558	-5.0796	-4.5083	-6.4665	-3.7015	0.3534	0.268	-1.6078	-0.6861	0.0736	-2.7268	-2.2085	-1.5931	16.4608	-0.9187
-4.4141	-4.8411	-6.3163	-5.2886	-5.6538	-7.0908	-5.7627	-5.2297	-7.3352	-5.0266	-4.4582	-6.4106	-3.619	0.371	0.265	-1.5901	-0.7214	0.1207	-2.7268	-2.1408	-1.599	16.4873	-0.904
-4.4376	-4.9088	-6.3693	-5.2769	-5.7009	-7.1143	-5.7451	-5.2268	-7.3057	-4.9647	-4.4229	-6.3399	-3.5542	0.3887	0.2267	-1.6608	-0.745	0.1561	-2.7268	-2.1231	-1.6107	16.555	-0.9158
-4.4906	-4.9853	-6.4459	-5.2945	-5.751	-7.1379	-5.7068	-5.215	-7.2851	-4.8911	-4.3846	-6.2633	-3.4512	0.3916	0.1943	-1.6844	-0.7745	0.1855	-2.7444	-2.0966	-1.6019	16.6404	-0.9217
-4.5643	-5.056	-6.5342	-5.3299	-5.7657	-7.1644	-5.7097	-5.1915	-7.2616	-4.8322	-4.3257	-6.2015	-3.351	0.4005	0.106	-1.7963	-0.7862	0.212	-2.7621	-2.0613	-1.6078	16.7611	-0.9276
-4.6261	-5.1444	-6.6049	-5.3358	-5.8128	-7.2056	-5.6744	-5.1679	-7.2262	-4.7468	-4.258	-6.1426	-3.2656	0.4211	0.109	-1.8964	-0.8127	0.2591	-2.7562	-2.0259	-1.5783	16.8818	-0.9452
-4.7645	-5.2415	-6.7315	-5.374	-5.8805	-7.2292	-5.6803	-5.1856	-7.2027	-4.7174	-4.2492	-6.0955	-3.2362	0.4211	0.0677	-2.02	-0.8186	0.265	-2.8033	-2.0348	-1.596	17.0144	-0.9924
-4.9088	-5.3564	-6.8729	-5.4535	-5.9718	-7.2999	-5.7156	-5.2003	-7.2056	-4.6879	-4.2344	-6.0454	-3.1538	0.4358	0.0294	-2.185	-0.8392	0.2915	-2.8269	-2.0318	-1.5931	17.1557	-1.0218
-5.0737	-5.483	-6.9995	-5.5566	-6.0307	-7.3499	-5.7392	-5.2356	-7.2086	-4.6585	-4.2315	-6.0307	-3.1331	0.4358	0.0324	-2.3793	-0.8451	0.2856	-2.8858	-2.0407	-1.6019	17.2882	-1.0513
-5.2769	-5.6067	-7.1791	-5.6685	-6.122	-7.4383	-5.7981	-5.2857	-7.2262	-4.6526	-4.2138	-5.9983	-3.1272	0.4181	0.0147	-2.556	-0.8451	0.2621	-2.9653	-2.0789	-1.6372	17.4237	-1.0954
-5.4889	-5.7539	-7.347	-5.7951	-6.228	-7.5207	-5.8422	-5.3416	-7.2645	-4.6644	-4.2138	-5.9865	-3.1155	0.4417	-0.0029	-2.7209	-0.8716	0.268	-3.0183	-2.0789	-1.6343	17.5915	-1.1308
-5.7274	-5.9217	-7.5178	-5.9188	-6.3723	-7.6267	-5.9129	-5.4182	-7.3087	-4.6703	-4.2403	-5.963	-3.1155	0.4653	-0.0206	-2.9093	-0.8922	0.2238	-3.0801	-2.1437	-1.6549	17.7446	-1.1602
-5.963	-6.0896	-7.7298	-6.0896	-6.5077	-7.7416	-5.9865	-5.4712	-7.3617	-4.6997	-4.2403	-5.9718	-3.1184	0.4653	-0.0589	-3.0742	-0.904	0.215	-3.1773	-2.1555	-1.6844	17.9419	-1.169
-6.175	-6.2486	-7.9124	-6.2192	-6.6226	-7.8211	-6.0631	-5.536	-7.3794	-4.6968	-4.2374	-5.9689	-3.1007	0.4741	-0.1119	-3.2568	-0.9276	0.215	-3.2539	-2.1761	-1.702	18.1392	-1.1779
-6.3487	-6.3782	-8.0714	-6.3841	-6.7404	-7.8829	-6.1132	-5.5743	-7.4088	-4.7115	-4.2492	-5.9512	-3.0772	0.4888	-0.1207	-3.3982	-0.96	0.1973	-3.3304	-2.2115	-1.7109	18.3453	-1.1955
-6.4989	-6.5107	-8.2157	-6.4842	-6.8493	-7.9389	-6.1603	-5.6126	-7.3941	-4.6673	-4.2021	-5.8687	-3.0124	0.5153	-0.1325	-3.5189	-1.01	0.2297	-3.3864	-2.1967	-1.7315	18.5721	-1.1897
-6.6373	-6.6373	-8.3276	-6.602	-6.9583	-8.0036	-6.175	-5.6479	-7.3794	-4.632	-4.1697	-5.801	-2.9417	0.5271	-0.1737	-3.6072	-1.0424	0.2886	-3.4364	-2.1614	-1.7226	18.8136	-1.1484
-6.7374	-6.7286	-8.4159	-6.6638	-7.026	-8.0007	-6.1897	-5.6332	-7.3087	-4.5377	-4.0931	-5.6626	-2.8122	0.5742	-0.2061	-3.6573	-1.116	0.3858	-3.4865	-2.1025	-1.6932	19.0491	-1.1366
-6.8052	-6.8199	-8.4925	-6.758	-7.0937	-8.0036	-6.1838	-5.6332	-7.2645	-4.4376	-4.0165	-5.5478	-2.6767	0.6066	-0.2385	-3.7162	-1.1749	0.477	-3.513	-2.0554	-1.6696	19.3083	-1.0807
-6.9053	-6.8729	-8.5808	-6.814	-7.1497	-7.983	-6.1779	-5.6096	-7.2056	-4.3611	-3.9164	-5.4182	-2.5442	0.6272	-0.2827	-3.7869	-1.2191	0.5683	-3.5424	-1.9906	-1.6314	19.5497	-1.0218
-6.9141	-6.9141	-8.6102	-6.8022	-7.1673	-7.9418	-6.119	-5.5743	-7.0878	-4.2492	-3.8016	-5.268	-2.3999	0.6626	-0.2856	-3.7869	-1.2868	0.7156	-3.5483	-1.8905	-1.5607	19.7588	-0.9659
-6.9612	-6.9288	-8.6397	-6.7757	-7.1644	-7.8888	-6.0248	-5.5154	-6.9524	-4.1049	-3.6691	-5.0619	-2.1967	0.7008	-0.3151	-3.8134	-1.3575	0.8716	-3.5277	-1.7668	-1.4959	19.959	-0.904
-7.0231	-6.9583	-8.6868	-6.7904	-7.2027	-7.8682	-5.9777	-5.4653	-6.867	-3.9989	-3.5424	-4.9294	-2.0348	0.7067	-0.3475	-3.8222	-1.3958	1.01	-3.5424	-1.702	-1.4164	20.1269	-0.854
-7.0554	-6.9671	-8.6897	-6.7374	-7.1938	-7.8034	-5.8952	-5.3976	-6.7433	-3.8575	-3.4099	-4.7439	-1.8551	0.745	-0.3975	-3.7839	-1.4517	1.1838	-3.4894	-1.5725	-1.3133	20.2417	-0.7921
-7.0613	-6.9966	-8.6897	-6.6609	-7.185	-7.7357	-5.8128	-5.3034	-6.6196	-3.7103	-3.2539	-4.5849	-1.6667	0.7538	-0.4388	-3.7545	-1.4871	1.3487	-3.4571	-1.4341	-1.2368	20.3477	-0.7273
-7.079	-6.973	-8.6809	-6.5902	-7.1732	-7.6679	-5.7421	-5.2386	-6.4724	-3.5601	-3.1302	-4.4052	-1.5136	0.7715	-0.4711	-3.6602	-1.5195	1.4988	-3.3746	-1.3015	-1.1278	20.3919	-0.6773
-7.079	-6.9583	-8.6426	-6.5019	-7.132	-7.5855	-5.6332	-5.1355	-6.3252	-3.4217	-2.9594	-4.2138	-1.3074	0.7921	-0.533	-3.6102	-1.5607	1.6961	-3.3245	-1.1543	-1.0071	20.4537	-0.6449
-7.0643	-6.9406	-8.6132	-6.4135	-7.1143	-7.5207	-5.5566	-5.0501	-6.1985	-3.2892	-2.8416	-4.0313	-1.1396	0.8068	-0.5713	-3.5218	-1.5872	1.8463	-3.2715	-1.0395	-0.9364	20.4861	-0.6007
-7.0378	-6.9023	-8.6014	-6.2898	-7.0554	-7.4118	-5.4447	-4.9382	-6.0366	-3.1479	-2.7032	-3.8575	-0.9717	0.8098	-0.6302	-3.4217	-1.6107	2.0348	-3.2215	-0.8981	-0.8422	20.5009	-0.5477
-6.9907	-6.8582	-8.5366	-6.1838	-7.0142	-7.3293	-5.321	-4.8263	-5.907	-2.9947	-2.5766	-3.6838	-0.7774	0.8304	-0.6567	-3.3069	-1.6402	2.2056	-3.1655	-0.7126	-0.7627	20.495	-0.5153
-6.9347	-6.7845	-8.4365	-6.0278	-6.9465	-7.2086	-5.1915	-4.7409	-5.751	-2.8269	-2.4352	-3.513	-0.6007	0.8569	-0.6478	-3.2303	-1.6785	2.3852	-3.1125	-0.5801	-0.6979	20.4861	-0.4682
-6.814	-6.6933	-8.357	-5.8923	-6.8552	-7.1026	-5.0648	-4.632	-5.5919	-2.6708	-2.3204	-3.3245	-0.4093	0.8628	-0.6419	-3.1361	-1.702	2.5413	-3.0713	-0.4505	-0.6361	20.4655	-0.4505
-6.652	-6.5431	-8.198	-5.7038	-6.7256	-6.917	-4.9147	-4.4936	-5.374	-2.4912	-2.1673	-3.086	-0.2179	0.8863	-0.5948	-3.0183	-1.7521	2.715	-3.0036	-0.2856	-0.5507	20.4596	-0.4123
-6.4488	-6.4518	-8.039	-5.5183	-6.6255	-6.7521	-4.7615	-4.3434	-5.162	-2.3027	-2.0053	-2.8446	0.0147	0.9217	-0.533	-2.9388	-1.8021	2.9093	-2.9682	-0.1178	-0.4977	20.4596	-0.3769
-6.2427	-6.2722	-7.8593	-5.3122	-6.4488	-6.5666	-4.5613	-4.1844	-4.9441	-2.076	-1.8404	-2.6149	0.2385	0.9541	-0.4682	-2.8504	-1.8758	3.1066	-2.9005	0.0648	-0.4388	20.4596	-0.3916
-6.0484	-6.1161	-7.6768	-5.1267	-6.2928	-6.3693	-4.364	-4.0165	-4.7056	-1.8816	-1.6814	-2.3646	0.4682	0.9776	-0.4093	-2.7474	-1.9258	3.2715	-2.8681	0.2179	-0.3946	20.4743	-0.4064
-5.8364	-5.9541	-7.506	-4.9529	-6.1514	-6.1691	-4.1903	-3.8664	-4.4965	-1.6873	-1.5253	-2.1408	0.6861	0.9982	-0.3534	-2.6561	-1.9847	3.4335	-2.8181	0.3799	-0.3327	20.5067	-0.4211
-5.6361	-5.801	-7.3087	-4.7615	-5.9983	-5.963	-4.0195	-3.6867	-4.2433	-1.4753	-1.3428	-1.8816	0.9335	1.0542	-0.2621	-2.5413	-2.0495	3.6161	-2.7621	0.5448	-0.2886	20.545	-0.4299
-5.4624	-5.6715	-7.1615	-4.6084	-5.8511	-5.7657	-3.8428	-3.5395	-3.9989	-1.2868	-1.2073	-1.6549	1.1043	1.0689	-0.1973	-2.4323	-2.0907	3.7515	-2.7386	0.6891	-0.2297	20.6069	-0.4918
-5.3004	-5.5478	-6.9494	-4.4995	-5.6862	-5.5478	-3.6779	-3.3452	-3.8134	-1.1101	-1.0365	-1.4311	1.2957	1.0984	-0.109	-2.3116	-2.1526	3.8811	-2.6561	0.8068	-0.1796	20.7011	-0.5448
-5.1326	-5.4123	-6.8081	-4.3699	-5.5507	-5.3829	-3.5277	-3.195	-3.5866	-0.9482	-0.9276	-1.2162	1.4606	1.1072	-0.0442	-2.1467	-2.1908	3.993	-2.6002	0.9158	-0.1384	20.8042	-0.5978
-5.0354	-5.3416	-6.7168	-4.3022	-5.4329	-5.2356	-3.4453	-3.0978	-3.4306	-0.8363	-0.8127	-1.0601	1.5783	1.1278	0.0353	-2.0495	-2.2232	4.0695	-2.5736	0.9924	-0.0942	20.9367	-0.6802
-4.95	-5.2651	-6.5843	-4.2433	-5.3093	-5.109	-3.354	-2.9653	-3.2774	-0.7509	-0.7214	-0.9129	1.6549	1.1219	0.0913	-1.9082	-2.2232	4.1078	-2.5148	1.0513	-0.0766	21.0839	-0.7597
-4.8764	-5.2268	-6.4871	-4.2168	-5.2297	-4.9795	-3.2686	-2.877	-3.1538	-0.6714	-0.6243	-0.798	1.7374	1.1278	0.2209	-1.808	-2.2321	4.1343	-2.5118	1.0866	-0.0265	21.2429	-0.851
-4.8293	-5.1856	-6.4047	-4.1726	-5.162	-4.8499	-3.1891	-2.8004	-2.9888	-0.5919	-0.5153	-0.6361	1.808	1.1249	0.2974	-1.7197	-2.2262	4.1402	-2.4941	1.1219	-0.0059	21.4343	-0.957
-4.7763	-5.1591	-6.3222	-4.1579	-5.0737	-4.7262	-3.139	-2.7032	-2.9064	-0.5477	-0.4476	-0.5359	1.8139	1.1131	0.424	-1.6755	-2.2056	4.1284	-2.4441	1.0984	0.0412	21.6669	-1.066
-4.7203	-5.1061	-6.2339	-4.1196	-4.9795	-4.6173	-3.0831	-2.5972	-2.7444	-0.4888	-0.3327	-0.4123	1.8758	1.1072	0.5683	-1.6166	-2.1938	4.1078	-2.3911	1.1072	0.1001	21.9055	-1.1749
-4.6968	-5.1061	-6.1514	-4.1402	-4.9147	-4.5112	-3.0419	-2.5442	-2.6384	-0.4653	-0.2797	-0.3004	1.9052	1.0778	0.7156	-1.6019	-2.1378	4.0813	-2.3616	1.0895	0.1296	22.1764	-1.3015
-4.5908	-5.0413	-6.0601	-4.1137	-4.8175	-4.3787	-2.983	-2.4294	-2.5059	-0.3975	-0.1796	-0.1708	1.9553	1.0689	0.8893	-1.5607	-2.1054	4.0607	-2.2939	1.0778	0.2032	22.462	-1.3869
-4.523	-4.9853	-5.9571	-4.0931	-4.7409	-4.2492	-2.9152	-2.3145	-2.3587	-0.3327	-0.0766	-0.0294	2.0112	1.0483	1.0483	-1.546	-2.0672	4.0578	-2.2409	1.0895	0.2532	22.7565	-1.493
-4.4229	-4.9294	-5.8393	-4.0519	-4.6408	-4.0695	-2.8593	-2.185	-2.2085	-0.268	0.0383	0.1148	2.0907	1.0306	1.2103	-1.5253	-2.02	4.0401	-2.1879	1.0748	0.2827	23.0362	-1.599
-4.311	-4.844	-5.7245	-4.0018	-4.5201	-3.9459	-2.7739	-2.0848	-2.0377	-0.1767	0.1649	0.2886	2.1732	0.9924	1.3693	-1.5253	-1.9641	4.0224	-2.1054	1.0571	0.3681	23.3101	-1.6932
-4.1844	-4.735	-5.5861	-3.94	-4.3846	-3.7692	-2.6855	-1.9553	-1.8581	-0.0736	0.2974	0.4388	2.2703	0.9835	1.5165	-1.4841	-1.9376	4.0136	-1.9994	1.0542	0.4388	23.5515	-1.7639
-4.0666	-4.6349	-5.4418	-3.887	-4.261	-3.5925	-2.5766	-1.8286	-1.6696	0.0206	0.4123	0.6302	2.3705	0.9688	1.5931	-1.4812	-1.8905	3.9989	-1.9405	1.0571	0.4859	23.7842	-1.8169
-3.9635	-4.5171	-5.3151	-3.7721	-4.1196	-3.4482	-2.5206	-1.6991	-1.493	0.0913	0.53	0.7774	2.4294	0.9305	1.6372	-1.4753	-1.8434	3.9665	-1.8758	1.0277	0.5595	23.9903	-1.8522
-3.8399	-4.367	-5.1826	-3.6661	-3.9694	-3.2656	-2.4146	-1.5636	-1.2957	0.1649	0.6302	0.9335	2.5059	0.9129	1.6461	-1.49	-1.808	3.9459	-1.7904	1.0277	0.6007	24.1846	-1.8905
-3.7604	-4.2168	-5.059	-3.5807	-3.8516	-3.1331	-2.3263	-1.4841	-1.1337	0.2415	0.7273	1.066	2.556	0.8922	1.5695	-1.4812	-1.758	3.9223	-1.7521	1.013	0.6154	24.3378	-1.8964
-3.6779	-4.0872	-4.9206	-3.4453	-3.728	-2.9682	-2.235	-1.3604	-0.9806	0.2974	0.8304	1.222	2.606	0.8746	1.4841	-1.5312	-1.7226	3.8752	-1.7167	1.0012	0.6449	24.5115	-1.8993
-3.5925	-3.9488	-4.8087	-3.3393	-3.6013	-2.8446	-2.1761	-1.2957	-0.8304	0.3622	0.9011	1.3222	2.6384	0.8481	1.3634	-1.6048	-1.6696	3.8163	-1.6667	0.9659	0.6419	24.6558	-1.8787
-3.5012	-3.834	-4.685	-3.2303	-3.46	-2.6738	-2.1084	-1.2014	-0.6861	0.3916	0.9776	1.4341	2.6561	0.8481	1.2544	-1.6726	-1.6549	3.7662	-1.6166	0.9688	0.6596	24.7942	-1.8787
-3.4659	-3.6691	-4.5495	-3.0919	-3.3334	-2.5501	-2.0289	-1.0866	-0.5183	0.4388	1.0189	1.5518	2.6914	0.8304	1.1013	-1.7845	-1.6343	3.6897	-1.5783	0.957	0.7067	24.9208	-1.8404
-3.351	-3.5042	-4.4553	-2.9712	-3.2244	-2.4058	-1.9523	-0.9982	-0.3769	0.4741	1.1101	1.6225	2.6944	0.8304	0.9806	-1.8993	-1.6225	3.6485	-1.5283	0.9187	0.7008	25.0268	-1.7963
-3.2715	-3.3481	-4.3434	-2.8593	-3.0801	-2.2556	-1.8993	-0.9217	-0.2444	0.5065	1.1484	1.7138	2.7003	0.8127	0.8775	-2.0053	-1.6019	3.5837	-1.493	0.9276	0.7332	25.1299	-1.7462
-3.1655	-3.1685	-4.1814	-2.6649	-2.9211	-2.1143	-1.7815	-0.8275	-0.0883	0.586	1.2279	1.808	2.7356	0.8157	0.7656	-2.1054	-1.6019	3.5513	-1.4547	0.9364	0.745	25.2241	-1.7109
-3.0212	-2.9712	-4.0254	-2.4941	-2.7651	-1.9553	-1.6932	-0.7185	0.053	0.6361	1.3045	1.8905	2.7503	0.8098	0.7214	-2.1908	-1.596	3.4865	-1.3928	0.9305	0.7656	25.3036	-1.6549
-2.877	-2.7827	-3.8605	-2.3145	-2.5884	-1.7698	-1.5872	-0.6037	0.2032	0.7097	1.3634	1.9906	2.7857	0.8127	0.6508	-2.2792	-1.5872	3.4777	-1.3104	0.9747	0.8127	25.4067	-1.6048
-2.6973	-2.5589	-3.6956	-2.1231	-2.4205	-1.599	-1.4399	-0.4741	0.3799	0.801	1.4635	2.1319	2.877	0.8039	0.6567	-2.3116	-1.5783	3.4453	-1.2191	0.9865	0.8687	25.4715	-1.5283
-2.5206	-2.3557	-3.4953	-1.9612	-2.2615	-1.4046	-1.3192	-0.3504	0.5477	0.8746	1.543	2.238	2.9211	0.7892	0.639	-2.3086	-1.5548	3.4423	-1.1573	1.0071	0.907	25.5304	-1.4841
-2.3116	-2.1231	-3.2922	-1.7786	-2.0613	-1.2044	-1.2014	-0.1914	0.7332	0.9865	1.6814	2.3999	3.0124	0.7745	0.6302	-2.235	-1.5312	3.4217	-1.063	1.0454	0.9659	25.5863	-1.4164
-2.1496	-1.917	-3.1125	-1.6196	-1.8728	-1.0277	-1.0689	-0.0589	0.9099	1.0748	1.7786	2.5206	3.0625	0.7479	0.6154	-2.2232	-1.493	3.4247	-0.9924	1.0542	1.0218	25.654	-1.3604
-1.9582	-1.7344	-2.9182	-1.4399	-1.6755	-0.8333	-0.9394	0.1031	1.0689	1.1779	1.861	2.6355	3.1331	0.7332	0.6537	-2.1113	-1.4547	3.4423	-0.907	1.1101	1.1013	25.6835	-1.3251
-1.8316	-1.5371	-2.7621	-1.3251	-1.5077	-0.6832	-0.8451	0.2415	1.2368	1.2692	1.97	2.7415	3.195	0.7244	0.6302	-2.0259	-1.4223	3.46	-0.8304	1.1249	1.172	25.7188	-1.2898
-1.702	-1.3928	-2.6208	-1.2309	-1.3104	-0.5359	-0.7686	0.3769	1.3663	1.2957	2.0436	2.821	3.2539	0.6891	0.6154	-1.8964	-1.3575	3.4247	-0.745	1.1013	1.2162	25.7365	-1.2809
-1.6078	-1.2309	-2.4824	-1.1602	-1.1838	-0.3887	-0.6861	0.5065	1.4959	1.3604	2.129	2.9005	3.2598	0.6596	0.6714	-1.7167	-1.3015	3.407	-0.6802	1.116	1.278	25.7394	-1.2809
-1.5636	-1.1543	-2.3852	-1.1308	-1.0719	-0.2739	-0.6361	0.583	1.5813	1.4017	2.1908	2.9417	3.2686	0.6184	0.6626	-1.5607	-1.225	3.3775	-0.6213	1.0836	1.3104	25.7394	-1.3015
-1.5165	-1.063	-2.2968	-1.1131	-0.9305	-0.1767	-0.6095	0.6802	1.6873	1.4076	2.2232	2.9771	3.2745	0.5889	0.7332	-1.3457	-1.169	3.3157	-0.5654	1.0424	1.3516	25.7277	-1.3104
-1.5077	-1.0218	-2.2409	-1.119	-0.8422	-0.106	-0.6302	0.7627	1.7226	1.4017	2.2409	2.98	3.2656	0.5536	0.7391	-1.1396	-1.1013	3.2539	-0.5212	0.9924	1.3752	25.76	-1.3339
-1.5371	-1.0071	-2.2026	-1.1808	-0.7627	-0.0589	-0.6361	0.798	1.7462	1.3634	2.238	2.9535	3.2038	0.5271	0.7745	-0.9305	-1.0218	3.2068	-0.5153	0.9423	1.3369	25.8101	-1.384
-1.5489	-0.9629	-2.1496	-1.2191	-0.6979	0.0029	-0.6478	0.8775	1.7756	1.3398	2.2615	2.9476	3.142	0.4829	0.8245	-0.7833	-0.9659	3.1066	-0.4859	0.854	1.3752	25.8837	-1.4399
-1.599	-0.9541	-2.1084	-1.2633	-0.6302	0.0442	-0.6979	0.9011	1.808	1.3339	2.2703	2.9329	3.0801	0.4564	0.8451	-0.6331	-0.9099	3.0654	-0.4741	0.8039	1.3634	26.0103	-1.4635
-1.6019	-0.9423	-2.076	-1.2927	-0.5418	0.1178	-0.6949	0.9452	1.8286	1.3074	2.2674	2.9123	3.033	0.4505	0.8716	-0.4918	-0.8805	3.0095	-0.4505	0.7303	1.3546	26.1399	-1.493
-1.6137	-0.907	-2.0554	-1.3163	-0.477	0.2002	-0.7067	1.0306	1.8728	1.2692	2.2821	2.9211	3.0036	0.427	0.904	-0.4005	-0.8451	2.9623	-0.4417	0.6714	1.3163	26.3166	-1.5253
-1.5931	-0.851	-1.9553	-1.3339	-0.3504	0.2827	-0.7067	1.0984	1.9229	1.2839	2.3469	2.9535	2.9918	0.4329	0.9452	-0.2768	-0.8481	2.93	-0.4358	0.6302	1.3104	26.4815	-1.5607
-1.5401	-0.7892	-1.8728	-1.3369	-0.2356	0.3799	-0.6714	1.2073	2.0259	1.3163	2.3793	2.9859	2.9947	0.4388	1.0277	-0.2032	-0.854	2.8887	-0.374	0.583	1.3428	26.6817	-1.5725
-1.4812	-0.7038	-1.755	-1.3015	-0.1296	0.4947	-0.6567	1.3045	2.1202	1.3546	2.4676	3.0566	3.0212	0.4476	1.0807	-0.1413	-0.8687	2.8799	-0.318	0.5624	1.3604	26.879	-1.5783
-1.3752	-0.586	-1.6431	-1.2309	0.0383	0.6449	-0.6007	1.4606	2.2409	1.4134	2.5825	3.1508	3.0772	0.4535	1.1366	-0.1119	-0.904	2.874	-0.2621	0.533	1.437	27.0704	-1.599
-1.3104	-0.4947	-1.5077	-1.1808	0.1885	0.7833	-0.5153	1.6078	2.3793	1.4988	2.6855	3.2539	3.1744	0.48	1.2044	-0.0707	-0.9482	2.9093	-0.1973	0.5418	1.5018	27.2501	-1.6137
-1.1985	-0.4064	-1.3693	-1.1072	0.3357	0.9394	-0.4594	1.758	2.5059	1.5872	2.8092	3.3599	3.2686	0.4918	1.2544	-0.0736	-0.9776	2.9329	-0.1325	0.5359	1.546	27.4091	-1.6137
-1.1219	-0.2739	-1.222	-1.0336	0.4859	1.0954	-0.3622	1.8964	2.6826	1.6932	2.9476	3.4894	3.3569	0.5035	1.3163	-0.0412	-1.01	2.9594	-0.0442	0.5507	1.6343	27.5504	-1.6137
-1.0424	-0.1737	-1.1013	-0.9394	0.6449	1.2397	-0.2768	2.0466	2.8357	1.7904	3.089	3.622	3.4453	0.5183	1.4017	-0.0294	-1.0365	2.9977	0.0294	0.5654	1.702	27.6505	-1.6019
-0.9659	-0.0795	-1.01	-0.8628	0.8127	1.3869	-0.1767	2.2262	2.983	1.9199	3.2097	3.7397	3.5483	0.533	1.4753	-0.0501	-1.0513	3.0507	0.0795	0.5654	1.7756	27.7595	-1.6107
-0.904	0.0147	-0.8834	-0.7686	0.9659	1.5518	-0.0795	2.3852	3.1331	2.0407	3.3363	3.8899	3.6455	0.5389	1.5783	-0.0825	-1.0601	3.0919	0.1207	0.586	1.8345	27.8537	-1.6107
-0.8363	0.1148	-0.745	-0.6861	1.119	1.6873	0.0353	2.5265	3.3069	2.1584	3.4983	4.0224	3.7662	0.5359	1.6696	-0.0942	-1.063	3.139	0.1826	0.6243	1.8993	27.9479	-1.5872
-0.8127	0.2209	-0.6626	-0.5742	1.2544	1.8169	0.1384	2.712	3.4541	2.3145	3.6632	4.1491	3.8752	0.5271	1.7874	-0.1796	-1.0483	3.192	0.2179	0.6449	1.9729	28.0569	-1.5842
-0.7421	0.318	-0.533	-0.4594	1.4223	1.9759	0.2562	2.8681	3.6396	2.4559	3.8222	4.3463	4.0165	0.533	1.8787	-0.2091	-1.0571	3.2774	0.2827	0.7156	2.0642	28.157	-1.5607
-0.6949	0.48	-0.4093	-0.3033	1.5725	2.1467	0.427	3.0566	3.8192	2.6267	3.9812	4.4995	4.1667	0.5418	1.9935	-0.2444	-1.0601	3.3452	0.3475	0.7774	2.1349	28.2895	-1.5165
-0.639	0.5948	-0.2709	-0.159	1.7609	2.3469	0.5919	3.2303	4.0578	2.8151	4.1726	4.682	4.3257	0.53	2.1202	-0.2591	-1.0483	3.4276	0.424	0.8481	2.2556	28.4044	-1.4576
-0.5359	0.7509	-0.1413	0.0294	1.9523	2.5295	0.7951	3.4364	4.2403	3.0124	4.3463	4.9176	4.5083	0.5389	2.2291	-0.2415	-1.0513	3.5277	0.5094	0.9394	2.3764	28.5133	-1.3899
-0.4358	0.9187	0.0324	0.2061	2.1437	2.712	0.9659	3.619	4.4995	3.2215	4.5701	5.1444	4.6968	0.5389	2.3086	-0.2503	-1.0542	3.6308	0.6007	1.0306	2.4853	28.6488	-1.3163
-0.2797	1.0807	0.2385	0.4064	2.3646	2.9476	1.1631	3.8428	4.7292	3.4188	4.7998	5.3681	4.9235	0.5389	2.4441	-0.2326	-1.0571	3.725	0.7126	1.1308	2.6355	28.7754	-1.2162
-0.106	1.2809	0.4152	0.6272	2.5678	3.1567	1.4046	4.0519	4.9795	3.6867	4.9912	5.6184	5.162	0.5448	2.5383	-0.1708	-1.0689	3.8634	0.8333	1.2603	2.7651	28.9138	-1.0984
0.0501	1.49	0.6243	0.801	2.7444	3.3805	1.599	4.2786	5.2091	3.9341	5.2239	5.8805	5.3888	0.5418	2.6149	-0.1413	-1.0571	3.9635	0.9394	1.3752	2.927	29.0404	-0.9806
0.268	1.702	0.8628	1.0277	2.9888	3.6043	1.8345	4.5083	5.4712	4.1756	5.4594	6.119	5.6184	0.5389	2.715	-0.0795	-1.066	4.0813	1.1043	1.49	3.1096	29.1464	-0.8775
0.4977	1.9347	1.0748	1.2515	3.2244	3.8516	2.0642	4.7615	5.7568	4.4288	5.7068	6.4047	5.8658	0.5389	2.7857	-0.0677	-1.0571	4.2315	1.2456	1.6372	3.2892	29.2318	-0.7568
0.7303	2.129	1.2957	1.4812	3.4188	4.0578	2.3116	4.9706	6.0071	4.6703	5.9188	6.6285	6.0778	0.5359	2.8181	-0.0236	-1.0542	4.3434	1.3811	1.7786	3.4747	29.3084	-0.6567
0.9423	2.3322	1.5371	1.7285	3.6661	4.3081	2.5471	5.1709	6.2663	4.9117	6.1455	6.8699	6.2987	0.5359	2.8446	-0.0294	-1.0542	4.47	1.5342	1.8993	3.6514	29.3702	-0.5624
1.1514	2.5177	1.7256	1.9258	3.8752	4.4995	2.7474	5.3711	6.4665	5.1326	6.3487	7.079	6.4753	0.533	2.8181	-0.0353	-1.0395	4.5849	1.6667	2.0289	3.8134	29.4144	-0.4859
1.3663	2.7327	1.9847	2.1378	4.0931	4.7144	2.98	5.5596	6.6962	5.3534	6.5696	7.3116	6.6668	0.533	2.8092	-0.0088	-1.0454	4.7027	1.8169	2.1496	4.0077	29.4527	-0.3975
1.5548	2.9241	2.1702	2.3528	4.2963	4.897	3.1803	5.7598	6.8788	5.5272	6.7433	7.4795	6.8405	0.5242	2.7356	0.0236	-1.0542	4.791	1.9405	2.2497	4.1432	29.4762	-0.3445
1.7256	3.1155	2.3705	2.5825	4.4906	5.0796	3.3923	5.9129	7.0584	5.7362	6.8994	7.6709	7.0113	0.5271	2.7003	0.0353	-1.0483	4.897	2.0436	2.3557	4.2757	29.5057	-0.3062
1.9052	3.2892	2.5884	2.768	4.6526	5.2592	3.5837	6.0484	7.2115	5.907	7.0466	7.8181	7.1467	0.5418	2.6414	0.1148	-1.066	4.9736	2.129	2.4559	4.367	29.5263	-0.2621
2.0583	3.4571	2.7739	2.9741	4.8293	5.4359	3.7898	6.1897	7.3676	6.1161	7.1644	7.9683	7.2851	0.5477	2.606	0.2032	-1.0954	5.0678	2.2203	2.5589	4.4553	29.5351	-0.2385
2.2291	3.6308	2.9447	3.1744	4.9795	5.5978	3.9783	6.2957	7.5237	6.2751	7.2645	8.089	7.4118	0.5654	2.556	0.2356	-1.1101	5.1591	2.2762	2.6325	4.5201	29.5734	-0.215
2.3764	3.8104	3.1272	3.3628	5.1502	5.7598	4.1844	6.4017	7.6621	6.443	7.3705	8.2363	7.5502	0.5919	2.5236	0.2974	-1.1602	5.2886	2.344	2.7386	4.5731	29.6117	-0.1914
2.5678	3.9753	3.3275	3.5454	5.3034	5.9041	4.3728	6.4989	7.7798	6.602	7.4913	8.3305	7.6974	0.6125	2.4735	0.3622	-1.1985	5.4035	2.3911	2.8357	4.579	29.65	-0.1855
2.7386	4.1373	3.4865	3.7221	5.4388	6.0395	4.5554	6.5843	7.8682	6.7433	7.5266	8.4218	7.7887	0.6508	2.4618	0.4388	-1.2603	5.5124	2.4323	2.9358	4.632	29.703	-0.1737
2.9211	4.2786	3.6926	3.8546	5.5596	6.1603	4.6909	6.652	7.9506	6.8729	7.5531	8.4925	7.8917	0.6802	2.4029	0.5183	-1.3251	5.6391	2.4794	3.033	4.6143	29.7884	-0.1885
3.0536	4.3993	3.8163	3.9576	5.6803	6.2368	4.8381	6.6697	7.9977	6.9995	7.5737	8.5307	7.983	0.7214	2.3469	0.6037	-1.3869	5.7598	2.4794	3.1155	4.6114	29.8973	-0.1855
3.1714	4.5083	3.94	4.0401	5.7215	6.3016	4.9382	6.6756	8.0242	7.0996	7.5796	8.5513	8.0861	0.7332	2.288	0.7038	-1.4488	5.8952	2.4883	3.192	4.5908	29.9916	-0.1914
3.2745	4.6025	4.0107	4.0843	5.7922	6.3428	5.0354	6.6874	8.0449	7.1791	7.5825	8.5661	8.1509	0.7803	2.2203	0.7921	-1.5253	6.016	2.4853	3.3039	4.5436	30.1034	-0.1826
3.3157	4.6467	4.0519	4.1049	5.8128	6.3281	5.109	6.6785	7.9977	7.2292	7.5354	8.5455	8.1921	0.8186	2.1319	0.8775	-1.599	6.1455	2.4529	3.3599	4.4936	30.2212	-0.2002
3.3481	4.6614	4.0695	4.0725	5.804	6.3016	5.1296	6.6108	7.9241	7.2616	7.4765	8.4807	8.2068	0.851	2.0436	0.9394	-1.6726	6.2663	2.4441	3.4011	4.4376	30.3567	-0.2267
3.3245	4.6467	4.0519	4.0401	5.7451	6.2221	5.1414	6.5313	7.8005	7.2734	7.3794	8.4041	8.2392	0.8775	1.914	0.9452	-1.7315	6.3929	2.394	3.4718	4.3846	30.4863	-0.2503
3.248	4.5849	3.9606	3.9547	5.6744	6.1397	5.0943	6.4341	7.7003	7.241	7.2557	8.3276	8.2157	0.9158	1.758	0.9541	-1.7874	6.5225	2.3234	3.4983	4.311	30.5923	-0.2238
3.1302	4.5083	3.8752	3.8723	5.5478	5.9983	5.0472	6.3104	7.5325	7.188	7.1232	8.1862	8.2098	0.9423	1.5666	0.8893	-1.8463	6.6432	2.2321	3.5424	4.2227	30.7572	-0.2209
2.9947	4.3758	3.7339	3.7633	5.4182	5.801	4.9647	6.1426	7.3146	7.1085	6.9524	7.9889	8.1597	0.9688	1.4164	0.8245	-1.8993	6.7256	2.0966	3.5866	4.1049	30.8514	-0.2061
2.8446	4.2668	3.569	3.6514	5.2651	5.6243	4.8558	5.9748	7.1232	7.0554	6.7639	7.8299	8.1155	0.9924	1.2309	0.7185	-1.9582	6.8964	2.0259	3.5896	3.99	31.0016	-0.1855
2.6325	4.0784	3.4011	3.5159	5.0737	5.427	4.7615	5.7892	6.8905	6.9612	6.5725	7.6473	8.0714	1.0336	1.0807	0.583	-2.0377	7.026	1.8875	3.6249	3.8575	31.137	-0.1943
2.4559	3.8752	3.2274	3.404	4.8646	5.2121	4.6349	5.5684	6.6756	6.8699	6.3399	7.4559	8.0508	1.066	0.9246	0.4505	-2.1025	7.1732	1.7462	3.6779	3.7074	31.2548	-0.1708
2.2438	3.7015	3.0124	3.2509	4.6408	4.9824	4.523	5.3475	6.4253	6.7698	6.1102	7.241	8.0095	1.116	0.7568	0.2709	-2.1791	7.3588	1.5901	3.7191	3.5248	31.4138	-0.1531
2.0377	3.4718	2.8151	3.1272	4.4141	4.7822	4.4288	5.109	6.1985	6.6668	5.8658	7.0378	7.9977	1.1425	0.6302	0.0972	-2.2586	7.556	1.3987	3.7839	3.3216	31.5463	-0.106
1.864	3.2627	2.609	3.0006	4.1726	4.5466	4.3081	4.8676	5.9394	6.5578	5.6184	6.8317	8.0036	1.2014	0.5065	-0.0236	-2.3587	7.7887	1.2515	3.8575	3.139	31.6995	-0.0677
1.702	3.0477	2.4264	2.8799	3.937	4.3257	4.205	4.629	5.7038	6.4871	5.3623	6.6403	8.039	1.2515	0.3475	-0.1502	-2.4588	8.0242	1.0424	3.9253	2.8917	31.8438	-0.0029
1.5342	2.8387	2.2438	2.7768	3.6926	4.1226	4.0902	4.3581	5.483	6.4253	5.0943	6.4518	8.0949	1.3133	0.2061	-0.2915	-2.5619	8.3128	0.8275	4.0313	2.6826	31.9851	0.0589
1.3811	2.6296	2.0495	2.6973	3.4335	3.9194	4.0077	4.096	5.2798	6.3782	4.8381	6.281	8.1597	1.3693	0.0942	-0.371	-2.6826	8.6191	0.6243	4.1196	2.4264	32.1117	0.1178
1.2279	2.4117	1.8699	2.5854	3.1832	3.7427	3.9076	3.8605	5.0707	6.2957	4.5643	6.1102	8.2422	1.4341	-0.0383	-0.4388	-2.8092	8.9489	0.4211	4.2668	2.1908	32.2354	0.2061
1.0778	2.185	1.6902	2.5059	2.9064	3.5542	3.8016	3.5896	4.8145	6.2486	4.2992	5.91	8.304	1.4959	-0.1855	-0.5271	-2.9329	9.2463	0.162	4.3817	1.917	32.3326	0.3004
0.9129	1.9464	1.5018	2.4205	2.609	3.3452	3.6956	3.2804	4.5937	6.1809	4.0313	5.7068	8.3835	1.5577	-0.3004	-0.6243	-3.0536	9.5938	-0.0736	4.526	1.6461	32.415	0.3946
0.7332	1.7167	1.2898	2.3027	2.3175	3.1302	3.5572	2.9741	4.3552	6.0867	3.7162	5.5124	8.4306	1.6137	-0.4505	-0.7656	-3.1773	9.9	-0.3092	4.6202	1.3752	32.4798	0.4711
0.53	1.4723	1.066	2.1879	2.0112	2.8976	3.407	2.6885	4.0843	5.9718	3.404	5.2886	8.4718	1.6785	-0.5801	-0.8775	-3.301	10.2357	-0.5536	4.7498	1.0954	32.5181	0.5683
0.318	1.2044	0.8392	2.0495	1.6902	2.659	3.2421	2.3822	3.834	5.8629	3.1007	5.0648	8.4807	1.7315	-0.7362	-1.0277	-3.4099	10.5243	-0.7833	4.8411	0.8657	32.5151	0.6567
0.106	0.9835	0.6125	1.9612	1.3869	2.4294	3.1096	2.0789	3.5542	5.7568	2.8328	4.8558	8.516	1.7963	-0.8746	-1.1838	-3.5336	10.8158	-1.0454	4.9647	0.6095	32.5034	0.7597
-0.1207	0.7067	0.3681	1.8139	1.0542	2.1879	2.9093	1.7432	3.2539	5.5802	2.5236	4.5996	8.5042	1.861	-0.9776	-1.2868	-3.6602	11.1162	-1.275	5.0295	0.3475	32.468	0.8422
-0.3357	0.4741	0.1207	1.6814	0.7391	1.9347	2.7415	1.4341	2.9712	5.427	2.2056	4.3463	8.4571	1.9258	-1.1072	-1.4458	-3.7839	11.3782	-1.493	5.1149	0.1296	32.4445	0.9129
-0.5683	0.1943	-0.1148	1.5489	0.4211	1.6343	2.5501	1.116	2.6649	5.2769	1.9494	4.1196	8.4601	1.9877	-1.2103	-1.5577	-3.9223	11.6138	-1.6991	5.2091	-0.0825	32.3915	1.0012
-0.7774	0.0236	-0.3269	1.4429	0.1384	1.3869	2.3646	0.8304	2.3822	5.1031	1.6873	3.8929	8.4071	2.0613	-1.3133	-1.7167	-4.0578	11.8288	-1.8581	5.268	-0.2621	32.3561	1.0836
-0.9452	-0.1943	-0.5183	1.3487	-0.1325	1.1808	2.185	0.5919	2.1113	4.9412	1.4488	3.6808	8.3688	2.1437	-1.4488	-1.864	-4.2079	12.0673	-2.0142	5.3681	-0.3887	32.312	1.1897
-1.116	-0.374	-0.7214	1.2309	-0.3946	0.907	2.0112	0.3033	1.7963	4.788	1.2132	3.4394	8.3187	2.1879	-1.5312	-1.9788	-4.3463	12.2558	-2.1467	5.4359	-0.5448	32.2943	1.2456
-1.2368	-0.5418	-0.8863	1.1573	-0.6331	0.7067	1.861	0.0766	1.5783	4.6349	1.0012	3.2656	8.2745	2.2586	-1.6048	-2.0996	-4.4671	12.4472	-2.2792	5.4918	-0.6331	32.2707	1.3192
-1.3222	-0.6508	-1.0041	1.0895	-0.8157	0.5094	1.7256	-0.1325	1.3604	4.523	0.8481	3.089	8.248	2.3263	-1.6608	-2.2321	-4.6143	12.6238	-2.3734	5.5772	-0.7185	32.2442	1.3869
-1.3899	-0.7715	-1.1543	1.01	-0.9982	0.3092	1.599	-0.3151	1.119	4.3787	0.6891	2.9152	8.2157	2.3852	-1.7698	-2.3616	-4.7174	12.7828	-2.4941	5.6008	-0.7951	32.2354	1.4311
-1.4223	-0.8245	-1.2338	0.9806	-1.1484	0.1767	1.5047	-0.4417	0.9541	4.2875	0.5919	2.7974	8.1685	2.4294	-1.8758	-2.4794	-4.8145	12.933	-2.5471	5.6391	-0.801	32.259	1.4488
-1.4282	-0.8805	-1.2839	0.9452	-1.2662	0.0412	1.3752	-0.5683	0.7686	4.1667	0.5094	2.6914	8.1273	2.4676	-1.917	-2.5972	-4.8823	13.0273	-2.6325	5.6685	-0.8127	32.2648	1.4664
-1.4341	-0.9099	-1.3074	0.9217	-1.3487	-0.0825	1.3045	-0.6095	0.6302	4.0843	0.4741	2.5766	8.092	2.503	-1.9729	-2.6649	-4.9294	13.0979	-2.6296	5.7068	-0.7627	32.2531	1.4841
-1.4046	-0.904	-1.3487	0.8628	-1.3781	-0.1943	1.1838	-0.7038	0.5065	3.9694	0.4299	2.4912	8.0036	2.4971	-2.0436	-2.7651	-4.9382	13.1215	-2.6532	5.6715	-0.7479	32.3002	1.4723
-1.3928	-0.9246	-1.3722	0.8098	-1.4164	-0.2915	1.0778	-0.7391	0.4034	3.8634	0.4093	2.4323	7.933	2.4912	-2.0731	-2.8475	-4.9088	13.1009	-2.6738	5.642	-0.6714	32.3443	1.437
-1.3928	-0.9129	-1.3604	0.7656	-1.4399	-0.3681	0.9629	-0.7774	0.2886	3.6956	0.3887	2.344	7.7946	2.4441	-2.076	-2.9388	-4.844	13.0331	-2.6414	5.5448	-0.6095	32.4032	1.3987
-1.4076	-0.8952	-1.3811	0.7097	-1.4076	-0.4034	0.8687	-0.7597	0.2209	3.5748	0.4093	2.2939	7.6886	2.3999	-2.0848	-3.0301	-4.7615	12.9478	-2.6002	5.4683	-0.5124	32.4975	1.3045
-1.3781	-0.8451	-1.3487	0.6891	-1.3516	-0.424	0.7803	-0.7008	0.2002	3.4718	0.4535	2.2645	7.5649	2.3557	-2.0289	-3.1066	-4.6644	12.8388	-2.5295	5.3534	-0.4034	32.6035	1.2368
-1.3575	-0.7745	-1.3045	0.6184	-1.2868	-0.4446	0.7156	-0.6537	0.1826	3.3687	0.5094	2.2497	7.4706	2.288	-1.967	-3.2009	-4.526	12.7122	-2.4588	5.2297	-0.3092	32.6918	1.1455
-1.3369	-0.6537	-1.225	0.6066	-1.1366	-0.4181	0.6596	-0.5477	0.2032	3.2627	0.6066	2.2645	7.3529	2.2173	-1.8345	-3.2509	-4.3993	12.5326	-2.344	5.0943	-0.1649	32.7743	1.0689
-1.2868	-0.5448	-1.1631	0.5948	-1.013	-0.3651	0.6095	-0.4123	0.265	3.1979	0.7097	2.3057	7.238	2.1437	-1.7432	-3.3452	-4.2227	12.3588	-2.238	4.9618	-0.0383	32.8626	0.9629
-1.1985	-0.4034	-1.0218	0.6243	-0.8039	-0.2562	0.6184	-0.2739	0.374	3.1567	0.8628	2.397	7.1644	2.0613	-1.5931	-3.3628	-4.0666	12.1586	-2.0701	4.844	0.1296	32.9421	0.8598
-1.1278	-0.2415	-0.9099	0.6419	-0.6184	-0.162	0.5978	-0.109	0.5006	3.1037	1.0306	2.5	7.0554	1.97	-1.4547	-3.3599	-3.887	11.9348	-1.9229	4.7085	0.2797	33.0305	0.7627
-1.0012	-0.0501	-0.7303	0.6979	-0.3622	0.0206	0.6331	0.1531	0.6861	3.1272	1.2515	2.6649	7.0496	1.8787	-1.2898	-3.3393	-3.7221	11.7552	-1.7285	4.5996	0.4446	33.1188	0.6655
-0.8422	0.1885	-0.5359	0.7391	-0.1237	0.162	0.7008	0.371	0.8922	3.1714	1.4311	2.8181	7.0319	1.8021	-1.1043	-3.2833	-3.5542	11.5814	-1.543	4.5024	0.6154	33.1983	0.5889
-0.6743	0.3799	-0.3327	0.8068	0.1355	0.4005	0.7656	0.6125	1.1043	3.2244	1.6667	3.0183	7.0201	1.7197	-0.9129	-3.1685	-3.3864	11.4047	-1.3663	4.3993	0.7833	33.2984	0.4947
-0.48	0.6125	-0.1325	0.8716	0.4093	0.6184	0.8304	0.8746	1.3781	3.2951	1.9052	3.2333	7.0319	1.6196	-0.7362	-3.0742	-3.2185	11.2222	-1.1779	4.3228	0.9364	33.3956	0.424
-0.3092	0.8098	0.0913	0.96	0.7097	0.8363	0.9305	1.1396	1.649	3.3834	2.1202	3.4836	7.0702	1.5518	-0.533	-2.9417	-3.0654	11.0514	-0.9806	4.2168	1.0689	33.5046	0.3416
-0.109	1.0247	0.2974	1.0336	0.9659	1.1013	1.0601	1.3958	1.914	3.4865	2.3822	3.7015	7.1055	1.4959	-0.3563	-2.8033	-2.93	10.8835	-0.7892	4.1903	1.222	33.64	0.2385
0.0471	1.2103	0.4829	1.1043	1.2014	1.3281	1.1573	1.6343	2.1791	3.5866	2.6002	3.9253	7.1379	1.4164	-0.1531	-2.6443	-2.7916	10.7127	-0.6154	4.0872	1.3516	33.7519	0.1413
0.1973	1.3457	0.6684	1.1631	1.4311	1.5518	1.2692	1.8934	2.4676	3.6779	2.8239	4.1579	7.1526	1.3575	0.0236	-2.4971	-2.662	10.539	-0.4623	3.9989	1.4694	33.8756	0.0265
0.2827	1.4664	0.801	1.1838	1.6196	1.7403	1.3015	2.0937	2.7062	3.7427	2.9859	4.314	7.1497	1.2898	0.159	-2.3499	-2.5236	10.3388	-0.3416	3.9223	1.5489	33.9963	-0.0766
0.3357	1.5577	0.9276	1.1867	1.8021	1.9288	1.3752	2.2821	2.9476	3.7927	3.1567	4.5112	7.1232	1.2132	0.2503	-2.2115	-2.397	10.0914	-0.2532	3.8163	1.6255	34.1112	-0.2002
0.3946	1.6196	0.9924	1.1543	1.9405	2.0937	1.4311	2.4411	3.1538	3.8605	3.298	4.6526	7.1202	1.169	0.3062	-2.0996	-2.2821	9.8617	-0.159	3.7162	1.6755	34.226	-0.3357
0.4005	1.6902	1.0689	1.1278	2.0554	2.2291	1.437	2.5766	3.3363	3.8752	3.4306	4.7851	7.0643	1.0895	0.3445	-1.9935	-2.1643	9.5967	-0.0707	3.5866	1.7079	34.332	-0.4711
0.374	1.7079	1.0925	1.063	2.1614	2.3381	1.4694	2.712	3.5101	3.8988	3.5307	4.9176	6.9995	1.0424	0.318	-1.9082	-2.0642	9.3287	-0.0206	3.4629	1.7226	34.4586	-0.6213
0.321	1.6991	1.1219	0.9953	2.2144	2.4676	1.4635	2.821	3.6661	3.9076	3.6278	5.0089	6.917	1.01	0.2621	-1.8669	-1.97	9.0578	0.0648	3.3334	1.7285	34.5676	-0.7421
0.2503	1.6844	1.1219	0.9099	2.2762	2.556	1.4311	2.8976	3.8104	3.9164	3.7103	5.109	6.8317	0.957	0.1943	-1.8404	-1.8728	8.7398	0.0913	3.1979	1.7285	34.6942	-0.8716
0.1855	1.6873	1.1249	0.8245	2.3086	2.6414	1.4311	3.0036	3.9459	3.9017	3.7839	5.2032	6.7492	0.907	0.0913	-1.8345	-1.7963	8.4336	0.1384	3.0595	1.7138	34.8385	-0.9953
0.1355	1.652	1.1013	0.7303	2.3469	2.7062	1.4076	3.0625	4.0666	3.9046	3.834	5.268	6.6638	0.8805	0.0029	-1.8434	-1.7256	8.1155	0.1502	2.8946	1.6667	34.9533	-1.1455
0.1148	1.6372	1.1072	0.6714	2.3764	2.8092	1.4517	3.1449	4.2344	3.9488	3.937	5.4035	6.6255	0.8628	-0.109	-1.8699	-1.6902	7.8181	0.1767	2.7857	1.6755	35.0976	-1.2427
0.0795	1.5901	1.0836	0.5978	2.394	2.8828	1.4252	3.2185	4.3434	3.9282	3.99	5.5065	6.5637	0.8333	-0.2532	-1.9317	-1.6461	7.5178	0.1767	2.6767	1.6166	35.2449	-1.3339
0.0825	1.5666	1.0895	0.5153	2.397	2.9565	1.437	3.2833	4.4906	3.9488	4.0607	5.6243	6.5107	0.8245	-0.3416	-1.9729	-1.6137	7.1938	0.1855	2.5678	1.6019	35.3833	-1.3987
0.1001	1.546	1.0866	0.4564	2.4176	3.0301	1.4576	3.3334	4.6496	3.9959	4.1255	5.7568	6.493	0.8098	-0.4829	-2.0377	-1.5901	6.917	0.2297	2.4706	1.5577	35.5128	-1.4723
0.106	1.5548	1.0925	0.3828	2.4087	3.1037	1.4606	3.3952	4.7615	4.0195	4.2079	5.8776	6.4783	0.7951	-0.5919	-2.1084	-1.5725	6.6314	0.2503	2.3646	1.5165	35.6188	-1.5253
0.1178	1.5224	1.0954	0.3151	2.397	3.1714	1.4635	3.4571	4.8852	4.0519	4.2786	5.9777	6.4459	0.7951	-0.7038	-2.2026	-1.5548	6.3988	0.2974	2.288	1.4871	35.719	-1.5725
0.1296	1.5342	1.0571	0.2356	2.3881	3.2126	1.4606	3.5366	5.0118	4.0813	4.3611	6.1161	6.4547	0.7892	-0.8157	-2.3469	-1.546	6.1397	0.3327	2.1938	1.4723	35.7955	-1.6107
0.0972	1.49	0.9865	0.1207	2.3528	3.2156	1.4311	3.5542	5.0619	4.0548	4.42	6.2074	6.4223	0.7686	-0.9158	-2.4765	-1.4959	5.8805	0.3475	2.0819	1.4429	35.8544	-1.6343
0.0589	1.4664	0.9364	0.0442	2.2998	3.2038	1.3869	3.5483	5.1355	4.0637	4.4465	6.2722	6.3517	0.7568	-1.0041	-2.609	-1.4694	5.6184	0.3563	2.0024	1.4282	35.8956	-1.6726
-0.0059	1.4458	0.8746	-0.0442	2.2733	3.1714	1.3575	3.566	5.1767	4.0165	4.4641	6.3075	6.3104	0.7362	-1.1013	-2.7474	-1.4193	5.3534	0.3887	1.9052	1.4134	35.9045	-1.6961
-0.0766	1.4164	0.7774	-0.1472	2.2085	3.1037	1.2898	3.5542	5.1885	3.9547	4.47	6.3399	6.2221	0.7097	-1.1631	-2.9211	-1.3781	5.1002	0.4093	1.7786	1.4105	35.9192	-1.7226
-0.1502	1.3752	0.6655	-0.265	2.1526	3.0536	1.2132	3.5101	5.1767	3.8811	4.4759	6.3281	6.1308	0.6684	-1.2397	-3.086	-1.3163	4.8263	0.4329	1.6696	1.3987	35.9339	-1.7521
-0.2739	1.3457	0.5477	-0.3975	2.0583	2.9506	1.119	3.4512	5.1002	3.781	4.4494	6.3104	5.9895	0.6272	-1.3163	-3.2627	-1.2427	4.5407	0.424	1.5195	1.3575	35.9369	-1.7815
-0.3916	1.3251	0.4181	-0.5006	1.9788	2.8387	1.013	3.3864	5.0266	3.6691	4.3993	6.2398	5.8599	0.6037	-1.3398	-3.407	-1.169	4.2845	0.4299	1.3811	1.3339	35.9133	-1.7845
-0.4653	1.3222	0.321	-0.6007	1.9405	2.7386	0.9629	3.351	4.9559	3.5807	4.3611	6.2103	5.7451	0.5772	-1.3428	-3.4983	-1.1043	4.0254	0.4388	1.2662	1.3192	35.9045	-1.8051
-0.5978	1.2809	0.1973	-0.692	1.8758	2.6355	0.9011	3.2686	4.8705	3.4836	4.314	6.1544	5.5949	0.53	-1.3722	-3.5837	-1.0277	3.7662	0.4623	1.1484	1.2957	35.8956	-1.8493
-0.6626	1.3015	0.1502	-0.7686	1.8375	2.5471	0.8333	3.2215	4.8381	3.4011	4.2374	6.0808	5.4859	0.4918	-1.3015	-3.566	-0.9629	3.5513	0.4623	1.013	1.2927	35.8603	-1.8522
-0.7244	1.3133	0.0442	-0.8186	1.8021	2.4853	0.7862	3.1861	4.7586	3.3069	4.1962	6.0278	5.4005	0.4594	-1.2014	-3.5424	-0.904	3.3481	0.4711	0.9158	1.2515	35.8632	-1.8581
-0.7391	1.3369	0.0265	-0.8363	1.8316	2.4676	0.7656	3.1596	4.7439	3.2892	4.1491	6.013	5.3358	0.4299	-1.0748	-3.4482	-0.8481	3.1685	0.4358	0.8304	1.2103	35.8279	-1.8404
-0.745	1.4252	0.0442	-0.8451	1.861	2.4647	0.8098	3.1714	4.7409	3.2686	4.1638	6.0219	5.3093	0.4123	-0.9099	-3.3363	-0.8186	3.0536	0.4476	0.7774	1.2014	35.8308	-1.8169
-0.6743	1.5165	0.0883	-0.7921	1.9229	2.5236	0.8569	3.2038	4.791	3.3363	4.1814	6.0513	5.3151	0.4093	-0.7244	-3.2156	-0.801	2.9682	0.4859	0.7774	1.1955	35.8573	-1.8021
-0.5978	1.6107	0.1531	-0.7391	2.0142	2.5884	0.9364	3.2568	4.8411	3.3717	4.2021	6.0925	5.3505	0.3858	-0.4977	-3.0801	-0.7686	2.8946	0.4977	0.7332	1.1955	35.8868	-1.811
-0.5035	1.7167	0.2474	-0.6449	2.1025	2.6885	1.0395	3.3128	4.9206	3.4688	4.2727	6.1603	5.4329	0.3975	-0.2621	-2.9623	-0.7803	2.877	0.533	0.7568	1.2073	35.9339	-1.811
-0.4034	1.8493	0.371	-0.5595	2.2232	2.8004	1.1631	3.3805	5.0118	3.566	4.2904	6.2574	5.5007	0.3916	-0.0236	-2.8357	-0.7862	2.8622	0.5654	0.7803	1.2309	35.9692	-1.7963
-0.3298	1.9612	0.5035	-0.4505	2.344	2.9447	1.2868	3.4894	5.1326	3.6632	4.3699	6.3576	5.5919	0.4064	0.1973	-2.7444	-0.7951	2.8946	0.5889	0.8157	1.2309	36.037	-1.7904
-0.2415	2.0966	0.6095	-0.3651	2.4883	3.1066	1.4429	3.5866	5.2533	3.7869	4.4229	6.443	5.6862	0.4152	0.3916	-2.6502	-0.8098	2.9211	0.6331	0.8569	1.2574	36.1135	-1.7933
-0.1796	2.2173	0.7391	-0.2503	2.6208	3.2303	1.5725	3.6691	5.3534	3.9194	4.5142	6.5136	5.7657	0.4181	0.6272	-2.5913	-0.8451	2.9329	0.6802	0.8893	1.2927	36.1695	-1.7904
-0.1001	2.2998	0.8716	-0.1502	2.7827	3.3864	1.7079	3.7692	5.4683	4.0401	4.5966	6.6108	5.8275	0.4417	0.8275	-2.5354	-0.8775	2.9888	0.7273	0.9423	1.3457	36.2431	-1.7756
-0.0825	2.3911	0.9982	-0.0736	2.9035	3.5159	1.7992	3.8811	5.5684	4.1343	4.6408	6.6638	5.9011	0.4505	0.9629	-2.5236	-0.8893	2.9888	0.7479	0.96	1.3604	36.2902	-1.7904
-0.0206	2.5206	1.1249	0.0147	3.0684	3.6602	1.9347	4.0018	5.6685	4.2374	4.6938	6.7256	5.96	0.4711	1.1337	-2.4647	-0.9187	3.0389	0.7921	0.9953	1.4193	36.355	-1.7933
0.0088	2.553	1.2279	0.1001	3.1685	3.7721	2.0259	4.0666	5.7598	4.314	4.7763	6.7639	5.9777	0.4829	1.1955	-2.5295	-0.9394	3.0566	0.8245	1.0424	1.4311	36.4139	-1.7963
0.0589	2.609	1.3398	0.1796	3.3069	3.9194	2.1261	4.1726	5.8481	4.3817	4.8145	6.8022	6.0071	0.4918	1.275	-2.556	-0.957	3.0389	0.8304	1.0454	1.4753	36.4757	-1.8051
0.1031	2.6797	1.4488	0.2209	3.407	4.0313	2.2291	4.2492	5.9365	4.4465	4.8676	6.8317	5.9983	0.4859	1.3604	-2.5913	-0.9629	3.036	0.851	1.0925	1.5106	36.5464	-1.8228
0.1472	2.7238	1.5518	0.321	3.5042	4.1549	2.3116	4.3198	6.013	4.4877	4.9176	6.867	6.0101	0.4918	1.3546	-2.6325	-0.9659	3.0154	0.8746	1.1013	1.5312	36.6377	-1.8051
0.2297	2.7356	1.6873	0.4123	3.5955	4.3051	2.4117	4.3993	6.119	4.5584	4.9559	6.9082	6.0454	0.4918	1.3811	-2.6502	-0.9629	3.0271	0.8952	1.116	1.5489	36.7408	-1.7963
0.3504	2.7768	1.811	0.5212	3.7015	4.4553	2.5413	4.523	6.2574	4.6761	5.0207	7.0054	6.1132	0.5065	1.3722	-2.662	-0.9688	3.0654	0.9158	1.1808	1.599	36.8615	-1.8021
0.48	2.8328	1.9494	0.6449	3.8134	4.5908	2.6532	4.6408	6.387	4.7674	5.1002	7.0761	6.172	0.4947	1.3487	-2.6178	-0.9776	3.0742	0.9511	1.2515	1.6137	36.9616	-1.7668
0.6037	2.8917	2.1143	0.7921	3.887	4.7498	2.7739	4.7498	6.5254	4.8764	5.1885	7.185	6.2722	0.5065	1.3133	-2.5707	-0.9924	3.1508	0.9835	1.3251	1.6667	37.0706	-1.7344
0.745	2.9388	2.2586	0.9541	3.993	4.897	2.9241	4.8499	6.6726	4.9765	5.2828	7.294	6.3664	0.5035	1.2515	-2.5	-0.9924	3.2274	1.0189	1.4193	1.6873	37.1736	-1.6873
0.8952	3.0477	2.4529	1.1249	4.1108	5.0884	3.089	4.9765	6.8611	5.1414	5.3799	7.4265	6.493	0.5212	1.2073	-2.3822	-1.0395	3.3098	1.0807	1.5577	1.7668	37.2679	-1.6284
1.0571	3.1066	2.6178	1.3428	4.2433	5.2504	3.2362	5.1179	6.9995	5.2886	5.5036	7.5472	6.6314	0.5389	1.1602	-2.238	-1.063	3.4276	1.1573	1.6814	1.8463	37.3444	-1.5695
1.1779	3.1861	2.7857	1.543	4.3375	5.4212	3.3893	5.2327	7.1467	5.4153	5.5978	7.7003	6.761	0.5565	1.1337	-2.1113	-1.0895	3.4983	1.1926	1.808	1.8993	37.4004	-1.5106
1.3133	3.2804	2.9358	1.7432	4.4347	5.5507	3.5159	5.3446	7.2999	5.5036	5.7038	7.8328	6.8788	0.5683	1.1101	-1.97	-1.1249	3.5896	1.2574	1.9494	1.9729	37.4386	-1.4399
1.4488	3.3717	3.086	1.967	4.523	5.6862	3.675	5.4388	7.4265	5.6332	5.7892	7.9447	6.973	0.583	1.1072	-1.8404	-1.1602	3.6426	1.3104	2.0554	2.0142	37.4563	-1.3781
1.5577	3.4453	3.2539	2.1614	4.5966	5.7804	3.831	5.536	7.5384	5.751	5.8658	8.0449	7.0584	0.6007	1.1072	-1.702	-1.1955	3.6985	1.4076	2.1791	2.0672	37.471	-1.3163
1.6844	3.5748	3.351	2.3911	4.682	5.9041	3.9311	5.6096	7.6297	5.8187	5.9365	8.1244	7.1055	0.6213	1.1396	-1.5725	-1.2427	3.7339	1.4576	2.288	2.0878	37.4681	-1.2397
1.7815	3.6337	3.4953	2.5884	4.738	5.9836	4.0401	5.6508	7.7268	5.8982	5.9865	8.195	7.1379	0.6331	1.1396	-1.4606	-1.2692	3.725	1.5253	2.3822	2.0848	37.471	-1.1573
1.8964	3.7574	3.6161	2.7916	4.8175	6.0719	4.1491	5.7156	7.7975	5.9453	6.0013	8.2539	7.1556	0.6655	1.2162	-1.3516	-1.3133	3.7662	1.5783	2.4794	2.0672	37.4651	-1.0807
2.0083	3.8575	3.7368	3.0183	4.8911	6.1514	4.2551	5.7833	7.8858	6.0189	6.0013	8.3158	7.1968	0.6861	1.2456	-1.2515	-1.3604	3.7368	1.6431	2.5324	2.0377	37.4946	-1.0247
2.1555	3.9724	3.8752	3.2568	4.9736	6.2398	4.3876	5.8422	7.9683	6.0572	6.0336	8.3658	7.2056	0.7097	1.2809	-1.1661	-1.4046	3.7044	1.6961	2.6237	2.0407	37.524	-0.9482
2.3234	4.1461	4.043	3.4718	5.059	6.3163	4.523	5.8923	8.0272	6.1308	6.0189	8.3894	7.2115	0.7391	1.4105	-1.0336	-1.4606	3.6543	1.758	2.6885	1.9847	37.5682	-0.8657
2.5177	4.3022	4.1932	3.6838	5.165	6.4194	4.6614	5.9689	8.1391	6.2015	6.0307	8.4512	7.2527	0.7656	1.4606	-0.9364	-1.5106	3.6131	1.8286	2.7562	1.9347	37.633	-0.801
2.7592	4.5112	4.4023	3.9665	5.2975	6.5519	4.8028	6.0513	8.2657	6.3075	6.0749	8.5248	7.3087	0.801	1.5842	-0.8392	-1.5783	3.5896	1.8846	2.8563	1.9258	37.7243	-0.7067
3.0124	4.7321	4.6143	4.2256	5.4565	6.705	4.9706	6.1662	8.4071	6.4488	6.1249	8.622	7.3735	0.8363	1.7315	-0.6979	-1.6549	3.619	1.9847	2.9859	1.9052	37.8244	-0.6361
3.298	4.9647	4.8381	4.4965	5.6243	6.8729	5.1591	6.2751	8.569	6.5755	6.1485	8.7221	7.4677	0.8716	1.8846	-0.5536	-1.7256	3.622	2.0377	3.0801	1.8758	37.9186	-0.533
3.5513	5.1944	5.0531	4.7527	5.8364	7.0525	5.3623	6.3958	8.7133	6.708	6.2074	8.8252	7.5708	0.8981	2.076	-0.4653	-1.7845	3.6455	2.1437	3.2009	1.8522	38.0217	-0.4417
3.8546	5.4418	5.2798	5.0354	6.0366	7.2675	5.5625	6.546	8.9165	6.9082	6.2722	8.9783	7.7092	0.9394	2.2821	-0.3239	-1.861	3.6602	2.2144	3.3304	1.8522	38.1571	-0.371
4.0872	5.6891	5.5242	5.2798	6.2015	7.4471	5.7539	6.6785	9.0902	7.0643	6.3104	9.0726	7.7946	0.957	2.5236	-0.2415	-1.8964	3.6985	2.3086	3.4482	1.8257	38.272	-0.3004
4.3699	5.9335	5.7568	5.5389	6.4341	7.6827	5.9689	6.814	9.2728	7.2321	6.3723	9.2021	7.9241	0.9982	2.7297	-0.1001	-1.9553	3.7574	2.3705	3.5483	1.7933	38.3898	-0.2385
4.5849	6.1397	5.96	5.7598	6.6255	7.8593	6.1455	6.9229	9.4259	7.3735	6.4194	9.2846	7.986	1.013	2.9741	0.0206	-2.0083	3.7545	2.4176	3.619	1.7344	38.537	-0.1855
4.7822	6.3664	6.1338	5.9424	6.814	8.0419	6.3075	7.0525	9.6085	7.4942	6.4341	9.3611	8.0743	1.0336	3.2097	0.1413	-2.0466	3.7751	2.447	3.7132	1.6667	38.6666	-0.1355
5.0118	6.5696	6.3517	6.1249	6.9936	8.251	6.4724	7.1497	9.7528	7.6562	6.4577	9.4465	8.142	1.0542	3.4364	0.3062	-2.0937	3.7957	2.5	3.8016	1.649	38.7726	-0.1178
5.1767	6.761	6.5578	6.281	7.1644	8.4571	6.6403	7.2734	9.8794	7.7651	6.4636	9.4966	8.198	1.0807	3.6838	0.5183	-2.129	3.8134	2.5177	3.8428	1.599	38.8845	-0.0883
5.3564	6.9524	6.7168	6.4135	7.3676	8.6397	6.7757	7.3499	10.0178	7.8564	6.4724	9.529	8.2392	1.0866	3.8487	0.6861	-2.1496	3.7986	2.5354	3.9046	1.5401	38.9905	-0.0648
5.4889	7.1291	6.9229	6.5254	7.5384	8.8046	6.8847	7.4206	10.1415	7.9506	6.4577	9.5466	8.251	1.1043	4.0607	0.9129	-2.1732	3.778	2.5324	3.9223	1.4488	39.0847	-0.053
5.6538	7.2704	7.0761	6.6344	7.7062	9.0137	7.0024	7.506	10.2416	8.0419	6.4459	9.5614	8.2657	1.116	4.2727	1.1396	-2.1938	3.7692	2.5383	3.9576	1.3899	39.1731	-0.0501
5.801	7.4235	7.2469	6.705	7.8476	9.158	7.1143	7.6002	10.3505	8.1008	6.4371	9.5673	8.2657	1.1219	4.4759	1.384	-2.2115	3.728	2.5354	3.9783	1.3663	39.3056	-0.0589
5.9453	7.5413	7.4059	6.7521	7.9624	9.3229	7.1762	7.6414	10.4242	8.1626	6.4253	9.5584	8.2304	1.119	4.6408	1.6078	-2.2144	3.7221	2.5354	3.9459	1.3015	39.4499	-0.0883
6.0925	7.6856	7.5855	6.7816	8.1008	9.4907	7.2734	7.7386	10.5243	8.2039	6.4165	9.5584	8.2392	1.1396	4.8145	1.8404	-2.2291	3.7074	2.5589	3.9753	1.2574	39.6177	-0.1001
6.228	7.7798	7.7563	6.811	8.2098	9.6527	7.3499	7.7975	10.6126	8.2451	6.4106	9.5525	8.2186	1.1249	5.0118	2.0731	-2.2085	3.6632	2.5619	3.9635	1.2338	39.7826	-0.1178
6.3664	7.8917	7.9006	6.811	8.3511	9.8264	7.4147	7.8535	10.6803	8.2834	6.4076	9.5437	8.2215	1.1072	5.1797	2.2733	-2.1879	3.6485	2.5795	3.9606	1.1955	39.9475	-0.159
6.5019	7.986	8.036	6.7934	8.4336	9.9383	7.4353	7.9212	10.7481	8.3099	6.4047	9.529	8.198	1.0836	5.3623	2.4706	-2.1467	3.6337	2.5884	3.937	1.1897	40.1065	-0.212
6.6255	8.0596	8.1833	6.7757	8.5513	10.0649	7.4854	7.9565	10.8217	8.3187	6.3958	9.526	8.1715	1.063	5.5065	2.7003	-2.1025	3.6131	2.5854	3.887	1.1808	40.2567	-0.2562
6.708	8.1126	8.304	6.6933	8.6102	10.1356	7.5148	7.9977	10.8276	8.3276	6.3811	9.4936	8.1273	1.0513	5.6891	2.8652	-2.0495	3.5837	2.5913	3.8575	1.1749	40.3863	-0.2768
6.7728	8.1509	8.3717	6.6226	8.6603	10.2269	7.5119	8.0272	10.8629	8.3128	6.3458	9.4171	8.0684	1.0218	5.854	3.0507	-1.9906	3.5483	2.6031	3.8016	1.1838	40.4952	-0.3121
6.7698	8.1244	8.4365	6.5225	8.6986	10.2504	7.4795	8.0449	10.8423	8.2745	6.3016	9.367	7.9977	0.96	5.9718	3.2303	-1.9111	3.5159	2.5825	3.728	1.169	40.6277	-0.3651
6.758	8.1361	8.4571	6.39	8.6897	10.271	7.4235	8.0331	10.7981	8.1803	6.2398	9.2669	7.9094	0.9246	6.0984	3.3393	-1.8198	3.4453	2.5736	3.6426	1.1749	40.7278	-0.374
6.6962	8.0655	8.4571	6.2486	8.6338	10.221	7.3352	7.9506	10.6951	8.0773	6.1632	9.1373	7.7681	0.8834	6.2574	3.4718	-1.7256	3.3775	2.5177	3.5218	1.1249	40.8015	-0.4034
6.6167	7.9742	8.4247	6.0808	8.5926	10.1591	7.2174	7.8888	10.6008	7.9271	6.0808	8.996	7.6267	0.8363	6.3605	3.5807	-1.6314	3.2686	2.4735	3.404	1.1043	40.8751	-0.4623
6.4989	7.8829	8.3482	5.9159	8.5013	10.0767	7.1143	7.8063	10.4477	7.7857	5.9659	8.8399	7.4795	0.7803	6.4547	3.6808	-1.546	3.192	2.4176	3.2922	1.0719	40.9104	-0.4711
6.3664	7.7327	8.2422	5.751	8.3894	9.9236	6.9642	7.6886	10.3034	7.612	5.854	8.6574	7.2763	0.7421	6.5136	3.7368	-1.4488	3.0831	2.3499	3.139	1.0159	40.9487	-0.5124
6.2133	7.5708	8.1126	5.5448	8.2451	9.7557	6.8169	7.5413	10.0826	7.4176	5.7186	8.4159	7.0878	0.692	6.599	3.7869	-1.3575	2.9358	2.2556	2.9888	0.957	40.9546	-0.5359
6.0395	7.4	8.0066	5.377	8.0979	9.5731	6.6344	7.3882	9.9177	7.2174	5.5861	8.2392	6.8817	0.6714	6.6668	3.8134	-1.3015	2.8122	2.1732	2.8475	0.8834	40.9575	-0.5477
5.91	7.2086	7.8505	5.2091	7.8917	9.3817	6.4812	7.2027	9.6792	7.0054	5.4329	7.9948	6.6756	0.6331	6.705	3.8575	-1.2485	2.6797	2.0789	2.6885	0.8039	40.934	-0.5772
5.7775	7.0231	7.7239	5.0619	7.7445	9.2051	6.334	7.079	9.4789	6.8346	5.3063	7.8063	6.496	0.6154	6.7374	3.8811	-1.2132	2.5589	1.9906	2.5589	0.7244	40.931	-0.5683
5.6715	6.8464	7.5619	4.8911	7.5472	9.0137	6.1573	6.9112	9.264	6.6108	5.1738	7.6179	6.3104	0.5978	6.7433	3.8781	-1.1985	2.4146	1.8816	2.4352	0.6361	40.9163	-0.5801
5.5772	6.655	7.45	4.7615	7.3529	8.8164	6.0278	6.7492	9.0814	6.4488	5.0766	7.45	6.1573	0.6066	6.7021	3.8281	-1.1897	2.3528	1.808	2.3351	0.5978	40.9163	-0.5889
5.4889	6.4753	7.3234	4.6555	7.1821	8.6309	5.8864	6.6108	8.9106	6.3104	4.9795	7.3175	6.0101	0.6184	6.6726	3.8192	-1.2132	2.2586	1.7491	2.238	0.5271	40.9134	-0.583
5.3976	6.2722	7.1909	4.5643	6.9907	8.4689	5.7598	6.4871	8.7428	6.1514	4.8882	7.185	5.8776	0.6272	6.6196	3.7486	-1.2397	2.2026	1.6726	2.1378	0.5094	40.8927	-0.586
5.3505	6.1249	7.082	4.5054	6.8523	8.3187	5.6773	6.3752	8.5778	6.0601	4.8411	7.0996	5.8128	0.6567	6.5342	3.6691	-1.2839	2.1584	1.6137	2.0907	0.4918	40.8869	-0.586
5.2739	5.9865	6.9671	4.4641	6.6785	8.1715	5.589	6.2692	8.4394	5.9247	4.7998	6.9877	5.7245	0.6714	6.4194	3.569	-1.331	2.1261	1.5636	2.0466	0.4711	40.8633	-0.5742
5.2327	5.8687	6.8817	4.4288	6.5784	8.0331	5.5272	6.1956	8.3128	5.854	4.7822	6.9141	5.6891	0.7126	6.3222	3.4806	-1.3987	2.0996	1.543	1.9729	0.4829	40.825	-0.5654
5.1679	5.7657	6.7875	4.4259	6.4636	7.9241	5.4535	6.1161	8.195	5.7627	4.7763	6.8375	5.6243	0.7303	6.1897	3.3599	-1.4488	2.0878	1.5106	1.9464	0.4859	40.7838	-0.5389
5.0943	5.6773	6.708	4.4347	6.3546	7.8005	5.4035	6.0366	8.0979	5.6832	4.7557	6.761	5.5654	0.745	6.0189	3.2421	-1.4812	2.0848	1.4988	1.8846	0.5124	40.7544	-0.53
5.0207	5.5831	6.602	4.4465	6.2574	7.6944	5.3387	5.963	8.0066	5.6155	4.7292	6.6903	5.5124	0.7538	5.8511	3.0448	-1.5077	2.0819	1.4812	1.8522	0.5565	40.7485	-0.533
4.9647	5.5389	6.5225	4.4936	6.172	7.6179	5.3093	5.9335	7.9035	5.5419	4.7144	6.6226	5.4535	0.7715	5.6803	2.877	-1.5136	2.0583	1.4753	1.7933	0.5772	40.722	-0.533
4.9058	5.5007	6.4724	4.5377	6.1426	7.5354	5.268	5.9041	7.8387	5.4918	4.7144	6.5814	5.4153	0.7774	5.5772	2.712	-1.4988	2.02	1.4664	1.7315	0.5948	40.719	-0.5183
4.8823	5.5065	6.4312	4.6379	6.1161	7.4854	5.2592	5.9041	7.7857	5.4535	4.7557	6.5607	5.3623	0.7686	5.4418	2.5442	-1.4871	1.9818	1.4753	1.6961	0.6626	40.7308	-0.5271
4.8411	5.483	6.39	4.6703	6.0601	7.4235	5.2091	5.8776	7.7327	5.4153	4.7645	6.5136	5.3151	0.7479	5.2916	2.3381	-1.4399	1.9288	1.4753	1.6431	0.7038	40.7661	-0.5212
4.8381	5.5095	6.3723	4.7645	6.0719	7.4118	5.2091	5.8746	7.7239	5.3711	4.7851	6.5195	5.2975	0.7067	5.1885	2.2085	-1.3869	1.864	1.493	1.6078	0.745	40.8015	-0.5242
4.844	5.5242	6.3782	4.8469	6.0543	7.3735	5.2121	5.8835	7.6974	5.3387	4.8234	6.4989	5.2828	0.6802	5.0796	2.0848	-1.3222	1.8434	1.5253	1.5666	0.798	40.8633	-0.5094
4.8999	5.589	6.4282	4.9382	6.0925	7.4088	5.2386	5.9306	7.7092	5.3534	4.8705	6.5519	5.2769	0.6537	5.0236	2.0171	-1.2721	1.8198	1.5783	1.5018	0.8716	40.934	-0.53
4.9853	5.6184	6.4636	5.0295	6.122	7.4324	5.2563	5.9541	7.7445	5.374	4.9176	6.5814	5.2769	0.6243	4.9883	1.9935	-1.1926	1.7815	1.6048	1.4959	0.9129	41.0076	-0.53
5.0766	5.7245	6.5372	5.1414	6.1779	7.4824	5.3004	6.0248	7.8122	5.4153	5.0001	6.6756	5.3534	0.5919	5.0354	2.0171	-1.1455	1.7874	1.6637	1.5136	0.9835	41.09	-0.5507
5.1797	5.7539	6.5725	5.2032	6.2309	7.5531	5.3534	6.0749	7.8858	5.4624	5.0678	6.7639	5.427	0.5389	5.0972	2.0966	-1.0571	1.7698	1.7344	1.5018	1.0513	41.1578	-0.5683
5.2651	5.8099	6.655	5.2563	6.2957	7.6061	5.4182	6.1455	7.933	5.5213	5.1326	6.8405	5.4889	0.5183	5.1797	2.1614	-0.9865	1.7639	1.7992	1.5253	1.1219	41.2196	-0.5801
5.3534	5.8687	6.708	5.3387	6.3369	7.6856	5.483	6.1985	8.0184	5.6037	5.1797	6.9406	5.5596	0.4594	5.2975	2.2674	-0.9158	1.7756	1.8522	1.5342	1.1631	41.2903	-0.6449
5.4153	5.8952	6.7698	5.3564	6.39	7.7268	5.5213	6.2516	8.092	5.6567	5.2356	7.026	5.6597	0.4417	5.4359	2.3793	-0.8481	1.7727	1.8934	1.546	1.2191	41.361	-0.6655
5.4771	5.9247	6.7669	5.3888	6.3988	7.7798	5.5537	6.2898	8.142	5.7038	5.2798	7.0878	5.695	0.4005	5.5684	2.4853	-0.7774	1.7786	1.9612	1.596	1.2456	41.4257	-0.7244
5.4918	5.8599	6.8022	5.3593	6.3929	7.7916	5.5743	6.2957	8.195	5.7362	5.3004	7.1438	5.7598	0.3651	5.6862	2.6325	-0.7126	1.7491	1.9906	1.6048	1.2662	41.5023	-0.7656
5.5183	5.8364	6.7551	5.3534	6.3723	7.827	5.5713	6.281	8.2068	5.7598	5.3093	7.1762	5.7863	0.3327	5.8069	2.7503	-0.6419	1.7197	2.0053	1.6196	1.2809	41.6024	-0.8304
5.4742	5.7598	6.7345	5.2916	6.3163	7.7916	5.5684	6.2457	8.195	5.7686	5.2945	7.2056	5.7775	0.2797	5.9247	2.8563	-0.5683	1.6696	2.0318	1.6078	1.2986	41.7143	-0.9452
5.4359	5.6361	6.6461	5.2297	6.2133	7.7445	5.5448	6.2044	8.1626	5.7392	5.268	7.1791	5.7568	0.2562	6.0572	2.9888	-0.5035	1.596	2.0466	1.5872	1.2839	41.8144	-1.0159
5.3623	5.5036	6.5666	5.1179	6.1308	7.6827	5.4918	6.1249	8.1361	5.6921	5.2121	7.1408	5.7333	0.2179	6.1838	3.086	-0.4329	1.5283	2.0524	1.5695	1.2368	41.944	-1.1043
5.2592	5.3534	6.4665	5.0148	5.9954	7.609	5.4624	6.0219	8.0625	5.6391	5.1237	7.0967	5.6567	0.1737	6.3163	3.1803	-0.3563	1.4252	2.0259	1.5342	1.1808	42.0853	-1.169
5.1532	5.1444	6.3222	4.9088	5.8481	7.503	5.3299	5.9011	7.9889	5.5419	5.003	7.0113	5.5713	0.1502	6.4459	3.2922	-0.3033	1.3251	1.9788	1.4841	1.1278	42.262	-1.2633
5.059	4.9942	6.1985	4.8204	5.7009	7.4294	5.3004	5.7892	7.9212	5.5065	4.9264	6.9524	5.5272	0.1355	6.5872	3.3658	-0.2621	1.2515	1.9464	1.4488	1.0601	42.4417	-1.3192
4.9942	4.8057	6.1161	4.7056	5.5183	7.3175	5.2769	5.6538	7.8152	5.4447	4.8234	6.8699	5.4418	0.1266	6.7227	3.4217	-0.2474	1.172	1.8934	1.4076	0.9541	42.6331	-1.3722
4.9323	4.6114	5.963	4.6231	5.3681	7.2262	5.2062	5.5242	7.7298	5.3976	4.7144	6.8081	5.3917	0.1296	6.8611	3.4541	-0.2356	1.1131	1.8404	1.4076	0.8569	42.8068	-1.4017
4.8911	4.4435	5.8952	4.5584	5.1944	7.1291	5.1738	5.4035	7.6886	5.3505	4.6379	6.7463	5.3505	0.1325	6.9436	3.4423	-0.2385	1.0748	1.7786	1.4076	0.7833	42.9982	-1.4105
4.8793	4.3228	5.8246	4.526	5.0678	7.0643	5.1826	5.2945	7.6297	5.3299	4.5495	6.7256	5.3475	0.1384	7.079	3.4512	-0.2739	1.0719	1.7403	1.4193	0.7362	43.169	-1.4252
4.8676	4.1991	5.748	4.5054	4.9412	6.9907	5.1797	5.1767	7.5855	5.3416	4.4965	6.6785	5.3681	0.1561	7.132	3.4482	-0.2974	1.0719	1.6696	1.4606	0.6684	43.3103	-1.4223
4.8999	4.0813	5.7068	4.5407	4.8293	6.973	5.2062	5.1179	7.5708	5.3711	4.4494	6.6903	5.4182	0.1796	7.2292	3.4777	-0.3651	1.1072	1.6579	1.5165	0.6184	43.4163	-1.4134
4.9147	3.9959	5.6656	4.5672	4.7233	6.9347	5.2356	5.0236	7.5354	5.3976	4.4023	6.6638	5.4388	0.2179	7.291	3.4688	-0.4123	1.1543	1.5901	1.5666	0.5742	43.4988	-1.4046
4.8941	3.9194	5.6155	4.5996	4.6143	6.8876	5.2621	4.9529	7.5119	5.4094	4.3434	6.655	5.4889	0.2621	7.3381	3.4836	-0.4977	1.2544	1.5695	1.6637	0.5271	43.5665	-1.3869
4.9029	3.8458	5.5743	4.6202	4.5083	6.8611	5.3063	4.8617	7.4824	5.4594	4.2875	6.6373	5.5183	0.2856	7.3794	3.4865	-0.5713	1.3281	1.5047	1.7197	0.4711	43.6107	-1.3693
4.8852	3.8163	5.5478	4.6968	4.4317	6.8022	5.3299	4.7586	7.4412	5.4859	4.2315	6.6137	5.5625	0.3298	7.4118	3.5071	-0.6449	1.4046	1.4458	1.8051	0.4299	43.6313	-1.3604
4.8204	3.7692	5.4889	4.7439	4.3346	6.7492	5.3593	4.6791	7.3853	5.4859	4.2021	6.5607	5.5654	0.3769	7.4206	3.4777	-0.7214	1.4753	1.3987	1.861	0.3799	43.6637	-1.3546
4.7586	3.7545	5.4506	4.8057	4.2462	6.705	5.3976	4.5878	7.3205	5.483	4.1432	6.5225	5.589	0.4005	7.3882	3.4335	-0.798	1.5401	1.3546	1.9435	0.3092	43.7255	-1.331
4.6879	3.7515	5.3947	4.8646	4.2227	6.6638	5.4064	4.4877	7.2851	5.4889	4.0754	6.4547	5.5743	0.4476	7.3794	3.3923	-0.8834	1.6078	1.3045	1.9788	0.265	43.7491	-1.3104
4.5937	3.728	5.3181	4.897	4.1196	6.5843	5.4094	4.417	7.2115	5.4624	4.0018	6.4135	5.5389	0.4859	7.3146	3.301	-0.9394	1.6667	1.2338	2.0436	0.1826	43.7933	-1.2633
4.5201	3.7486	5.2592	4.9618	4.0607	6.5342	5.4035	4.3346	7.1408	5.4447	3.9223	6.3016	5.4948	0.5035	7.2645	3.2539	-0.9953	1.7138	1.1631	2.0907	0.1296	43.8315	-1.2191
4.4229	3.7486	5.2032	4.9647	4.0048	6.4695	5.4064	4.2256	7.0466	5.4064	3.8163	6.2251	5.4506	0.5389	7.2086	3.1655	-1.0571	1.7226	1.0895	2.1202	0.0559	43.8845	-1.1749
4.3522	3.7427	5.1267	4.9736	3.9223	6.4076	5.4035	4.1255	6.9259	5.3416	3.725	6.0984	5.377	0.5477	7.1556	3.0919	-1.0866	1.7167	0.9982	2.1526	-0.0353	43.9464	-1.1249
4.3257	3.7397	5.0825	4.9942	3.884	6.3428	5.3858	4.0372	6.8582	5.3034	3.6396	6.0042	5.324	0.5772	7.1202	3.033	-1.1396	1.7374	0.957	2.1643	-0.106	43.9906	-1.0836
4.2698	3.7486	5.0266	4.9824	3.831	6.2898	5.3652	3.9724	6.7875	5.2533	3.5719	5.9247	5.271	0.6095	7.1232	2.9447	-1.2014	1.7432	0.9129	2.1967	-0.1266	44.02	-1.0247
4.2816	3.7604	4.9883	5.006	3.7869	6.2368	5.3593	3.887	6.7168	5.2003	3.4718	5.8393	5.2121	0.6331	7.135	2.9035	-1.2544	1.7344	0.8333	2.2262	-0.1678	44.0347	-0.9894
4.2433	3.7368	4.9529	4.9853	3.7103	6.1779	5.3122	3.8251	6.6373	5.1679	3.3923	5.7362	5.1532	0.6567	7.1732	2.8328	-1.2927	1.7403	0.8363	2.2173	-0.1973	44.0406	-0.9394
4.2256	3.7339	4.8823	4.9264	3.6661	6.1249	5.2886	3.7721	6.5519	5.1296	3.3187	5.6332	5.0913	0.6743	7.2262	2.8328	-1.3457	1.7344	0.7951	2.2203	-0.2032	44.0023	-0.8922
4.2109	3.7132	4.8293	4.8499	3.5984	6.0631	5.2474	3.7044	6.4724	5.0825	3.2244	5.5331	5.0325	0.7038	7.3146	2.7827	-1.3899	1.7344	0.7774	2.238	-0.2474	43.9641	-0.854
4.1579	3.6602	4.7763	4.7822	3.5336	5.9777	5.215	3.6102	6.3811	5.0442	3.1508	5.4359	4.9942	0.7214	7.3794	2.7857	-1.4282	1.7285	0.7421	2.2527	-0.2797	43.9199	-0.8333
4.0872	3.5896	4.6644	4.6673	3.4453	5.8629	5.1237	3.5159	6.2486	4.9647	3.0271	5.3093	4.9058	0.7273	7.4206	2.7562	-1.4282	1.7079	0.7097	2.2085	-0.3269	43.861	-0.8275
3.9989	3.5042	4.5731	4.5348	3.3717	5.7451	5.0383	3.4335	6.122	4.8764	2.9211	5.1826	4.8057	0.7421	7.4618	2.8181	-1.4399	1.6755	0.6419	2.2232	-0.3828	43.7844	-0.8098
3.9105	3.4188	4.4435	4.3846	3.2863	5.6332	4.9529	3.3334	5.9659	4.791	2.7945	5.0236	4.6938	0.7362	7.4383	2.8387	-1.4399	1.6107	0.5978	2.185	-0.4388	43.6873	-0.7892
3.7515	3.3039	4.2698	4.205	3.1773	5.48	4.844	3.195	5.7981	4.6438	2.6149	4.8263	4.5613	0.7332	7.3764	2.8475	-1.4311	1.5342	0.53	2.1202	-0.53	43.6077	-0.8068
3.6161	3.1744	4.1078	4.0283	3.0566	5.321	4.7144	3.0978	5.6008	4.526	2.5	4.6644	4.417	0.7185	7.3146	2.9093	-1.4311	1.4723	0.4829	2.0731	-0.583	43.5165	-0.8127
3.46	3.0477	3.9105	3.8428	2.9476	5.1237	4.5643	2.9506	5.3829	4.3935	2.3175	4.4347	4.2138	0.7273	7.2469	2.9712	-1.4134	1.3752	0.427	2.0142	-0.6449	43.4134	-0.8157
3.2568	2.9093	3.7545	3.6426	2.8092	4.9294	4.4288	2.8298	5.1767	4.2551	2.1702	4.2197	4.0666	0.7214	7.1526	3.0271	-1.4134	1.275	0.3534	1.9729	-0.7097	43.3162	-0.8068
3.0742	2.7533	3.5631	3.4335	2.6797	4.735	4.2963	2.6944	4.9441	4.0931	2.0083	3.993	3.8781	0.7214	7.0731	3.086	-1.4134	1.1779	0.2886	1.8669	-0.7951	43.2397	-0.8216
2.9093	2.606	3.354	3.2598	2.5324	4.5495	4.1697	2.5766	4.735	3.9547	1.8669	3.781	3.6926	0.7214	6.9671	3.1685	-1.4252	1.0778	0.2385	1.7786	-0.8304	43.1896	-0.8216
2.7651	2.4441	3.1714	3.0654	2.4441	4.3728	4.0107	2.4529	4.5319	3.8045	1.7079	3.5778	3.5277	0.7391	6.8905	3.2303	-1.4429	0.9806	0.2032	1.7226	-0.8805	43.166	-0.7951
2.6473	2.3145	3.033	2.8976	2.3204	4.2286	3.8929	2.3705	4.3552	3.7103	1.6019	3.3952	3.3952	0.7479	6.8758	3.3452	-1.4782	0.9276	0.1737	1.6667	-0.9246	43.1602	-0.7656
2.4735	2.1702	2.8534	2.7386	2.1879	4.0637	3.7662	2.2733	4.1756	3.5896	1.4812	3.2303	3.2715	0.7597	6.8169	3.4158	-1.4871	0.8598	0.1531	1.6048	-0.9629	43.1955	-0.7568
2.4029	2.0466	2.715	2.5678	2.1113	3.9459	3.6779	2.2056	4.0313	3.5189	1.3987	3.1155	3.1714	0.7627	6.8199	3.5336	-1.5195	0.8039	0.1737	1.5548	-0.9629	43.2308	-0.7273
2.3292	1.9523	2.5854	2.4323	2.0318	3.8693	3.6249	2.1437	3.9253	3.4482	1.3339	2.9977	3.1096	0.7745	6.8317	3.6779	-1.543	0.7774	0.1678	1.5666	-0.9806	43.2721	-0.692
2.2468	1.8522	2.4794	2.291	1.9877	3.7898	3.5248	2.1378	3.8251	3.4158	1.2662	2.9064	3.0684	0.7892	6.8052	3.781	-1.5489	0.7715	0.1767	1.5548	-0.9835	43.2868	-0.6508
2.1584	1.7786	2.397	2.1643	1.9494	3.7339	3.4865	2.0819	3.7545	3.407	1.2397	2.8504	3.0301	0.7803	6.8081	3.9223	-1.5548	0.7921	0.1767	1.5548	-0.9953	43.3044	-0.6302
2.0907	1.7256	2.3175	2.0672	1.9052	3.6956	3.4512	2.0878	3.728	3.404	1.225	2.8092	3.0124	0.7921	6.8375	4.0342	-1.5489	0.8451	0.2032	1.5813	-0.9747	43.3015	-0.5948
2.0142	1.6579	2.238	1.97	1.8816	3.6779	3.4306	2.0583	3.6691	3.3893	1.2014	2.7562	2.9918	0.7803	6.8317	4.1402	-1.543	0.8746	0.2267	1.5872	-0.957	43.3251	-0.5713
1.917	1.5813	2.1702	1.8728	1.864	3.622	3.4306	2.0613	3.622	3.3952	1.2162	2.7209	2.9977	0.7774	6.8052	4.2227	-1.5253	0.9276	0.2267	1.6078	-0.9217	43.3368	-0.5418
1.8051	1.546	2.1084	1.8228	1.8375	3.6396	3.4482	2.0701	3.5984	3.4247	1.2338	2.7091	3.0036	0.7774	6.7993	4.2727	-1.5047	0.9659	0.2562	1.6402	-0.8952	43.3574	-0.5183
1.7403	1.5077	2.0672	1.7727	1.808	3.675	3.404	2.0672	3.6102	3.4129	1.222	2.6855	2.983	0.7538	6.758	4.2816	-1.4841	1.0159	0.2591	1.6608	-0.8628	43.4075	-0.4888
1.6107	1.4252	1.9847	1.7197	1.7815	3.6455	3.4217	2.0407	3.5837	3.3952	1.2103	2.6325	2.9506	0.7273	6.7286	4.2462	-1.4223	1.0365	0.2591	1.6549	-0.8481	43.487	-0.4505
1.5489	1.4076	1.9729	1.6932	1.7845	3.6808	3.4306	2.0672	3.566	3.4129	1.2279	2.6237	2.9447	0.7156	6.7227	4.1873	-1.4017	1.0836	0.2915	1.6785	-0.8127	43.596	-0.4329
1.4458	1.3428	1.9317	1.6785	1.7609	3.7015	3.4453	2.076	3.5807	3.404	1.2515	2.609	2.9241	0.6949	6.6785	4.1167	-1.3487	1.0895	0.2915	1.6991	-0.7597	43.7373	-0.4093
1.3781	1.3222	1.9288	1.7079	1.7639	3.7191	3.46	2.0819	3.5925	3.4188	1.2456	2.6002	2.8976	0.6537	6.6373	3.99	-1.2868	1.0866	0.3004	1.6961	-0.7008	43.914	-0.3828
1.3516	1.2957	1.9258	1.7491	1.7698	3.7986	3.5424	2.1202	3.6779	3.4629	1.3369	2.606	2.9241	0.6361	6.6255	3.8634	-1.2544	1.1249	0.3357	1.7285	-0.6213	44.1231	-0.3563
1.3663	1.3339	1.9877	1.8345	1.8345	3.9046	3.622	2.1761	3.7221	3.4983	1.3722	2.6296	2.9064	0.6184	6.6432	3.728	-1.2132	1.1396	0.3916	1.7374	-0.5389	44.3557	-0.3239
1.4164	1.3958	2.1054	1.9729	1.9111	4.0224	3.7486	2.2586	3.7957	3.6043	1.4458	2.6914	2.9712	0.6037	6.6756	3.5984	-1.1867	1.169	0.4623	1.7933	-0.4152	44.5942	-0.2856
1.4871	1.4458	2.2203	2.1143	1.9935	4.1785	3.8752	2.3764	3.9459	3.6867	1.5401	2.7886	3.0183	0.5948	6.6844	3.4423	-1.1661	1.1838	0.53	1.8228	-0.2945	44.8769	-0.268
1.6225	1.5783	2.397	2.3086	2.1172	4.3787	4.0401	2.5059	4.1255	3.8222	1.6814	2.9329	3.1066	0.586	6.6991	3.3128	-1.1455	1.2191	0.6184	1.8787	-0.1914	45.1566	-0.2385
1.7815	1.7374	2.6002	2.5354	2.2674	4.5878	4.2374	2.6649	4.3081	3.9694	1.8345	3.0625	3.2391	0.5713	6.7404	3.1626	-1.1337	1.2603	0.7391	1.9258	-0.0383	45.4099	-0.2002
1.9553	1.917	2.8063	2.7857	2.4529	4.8322	4.4612	2.8446	4.5319	4.1549	1.9935	3.2333	3.3658	0.583	6.7521	3.0389	-1.1308	1.3281	0.8333	2.0142	0.1325	45.7014	-0.159
2.1584	2.1319	3.0595	3.0566	2.6561	5.0796	4.6791	3.0448	4.7527	4.3346	2.1908	3.4158	3.5159	0.5772	6.7286	2.9594	-1.1278	1.3752	0.9659	2.0966	0.2945	45.9635	-0.1355
2.341	2.3086	3.3187	3.2951	2.8711	5.3122	4.8823	3.2421	4.9883	4.5083	2.3852	3.6102	3.6396	0.5624	6.7109	2.8563	-1.116	1.4134	1.0513	2.1526	0.4181	46.2226	-0.106
2.5206	2.556	3.5218	3.5071	3.0919	5.5684	5.0648	3.4364	5.2091	4.6703	2.553	3.7662	3.7397	0.5536	6.6609	2.7945	-1.1013	1.4576	1.1808	2.1938	0.5713	46.467	-0.053
2.6944	2.7827	3.7692	3.8104	3.3216	5.8187	5.3004	3.6485	5.4388	4.8411	2.7533	3.9606	3.8988	0.5624	6.6344	2.7356	-1.1072	1.4959	1.3015	2.2703	0.7273	46.7173	-0.0442
2.8534	2.9741	3.9812	4.0048	3.513	6.016	5.4447	3.8163	5.6155	4.9677	2.8711	4.0725	3.9547	0.5507	6.602	2.6649	-1.0778	1.4782	1.3722	2.2733	0.854	46.9529	-0.0029
2.9476	3.1803	4.1844	4.2168	3.6838	6.1868	5.5919	3.9753	5.7922	5.0943	3.0212	4.205	4.0519	0.5359	6.5814	2.5972	-1.0513	1.4841	1.4664	2.288	0.9423	47.1885	0.0029
3.0536	3.3393	4.3463	4.3611	3.8516	6.3664	5.748	4.1226	5.9483	5.1709	3.142	4.311	4.096	0.5153	6.5755	2.5295	-1.0218	1.4311	1.5548	2.2615	1.0542	47.4594	0.0147
3.1508	3.4865	4.5348	4.523	4.0165	6.5107	5.8511	4.2374	6.0719	5.2297	3.2598	4.3787	4.1019	0.5035	6.5843	2.4735	-0.9835	1.3693	1.6343	2.2262	1.1455	47.7156	-0.0118
3.2185	3.6161	4.6732	4.6408	4.1461	6.6196	5.91	4.3581	6.1603	5.2739	3.3452	4.4524	4.0902	0.48	6.6049	2.3999	-0.9423	1.2986	1.6814	2.185	1.2368	47.9776	-0.053
