"FZ"	"FC3"	"FCZ"	"FC4"	"C3"	"CZ"	"C4"	"CP3"	"CPZ"	"CP4"	"P3"	"PZ"	"P4"	"OZ"	"P8"	"TP7"	"TP8"	"P7"	"Subject"	"Points"	"Time"	"Trial"	"Rejected"	"Correct"
-1.1749	-10.4065	-0.5035	2.6855	-10.2386	-3.1891	5.2032	-10.91	0.6714	6.7139	-5.0354	0	7.5531	14.9384	5.7068	-2.5177	5.2032	-5.2032	1	231	130	2	1	2
-1.3428	-10.0708	-0.6714	2.5177	-9.903	-3.1891	5.0354	-10.91	0.5035	6.546	-5.3711	-0.1678	6.8817	15.6097	4.8676	-2.5177	5.0354	-5.7068	1	232	131	2	1	2
-1.6785	-10.0708	-1.0071	2.182	-9.903	-3.5248	4.6997	-10.91	0.1678	5.7068	-5.7068	-0.5035	5.8746	16.1133	3.8605	-2.3499	4.8676	-6.2103	1	233	132	2	1	2
-1.6785	-9.7351	-1.1749	2.0142	-9.5673	-3.5248	4.1962	-10.7422	0	5.3711	-6.0425	-0.8392	4.8676	16.2811	2.8534	-2.5177	4.364	-6.546	1	234	133	2	1	2
-2.0142	-9.7351	-1.5106	1.5106	-9.3994	-3.6926	3.8605	-10.91	-0.3357	4.6997	-6.2103	-1.1749	4.0283	16.449	1.8463	-2.182	4.0283	-6.7139	1	235	134	2	1	2
-2.3499	-9.5673	-1.8463	1.1749	-9.2316	-4.0283	3.3569	-10.7422	-0.6714	3.8605	-6.3782	-1.5106	2.8534	16.2811	0.5035	-2.0142	3.5248	-6.8817	1	236	135	2	1	2
-2.5177	-9.5673	-2.182	1.0071	-8.8959	-4.1962	3.0212	-10.4065	-0.8392	3.5248	-6.2103	-1.5106	2.182	15.7776	-0.1678	-1.5106	3.1891	-6.546	1	237	136	2	1	2
-2.6855	-9.5673	-2.3499	0.6714	-8.8959	-4.364	2.6855	-10.0708	-1.0071	3.0212	-5.7068	-1.3428	1.5106	15.4419	-0.8392	-0.8392	2.8534	-6.2103	1	238	137	2	1	2
-2.8534	-9.5673	-2.5177	0.5035	-8.728	-4.5319	2.3499	-9.903	-1.1749	2.5177	-5.5389	-1.3428	1.0071	14.6027	-1.5106	0	2.5177	-5.8746	1	239	138	2	1	2
-2.8534	-9.7351	-2.8534	0.1678	-8.5602	-4.6997	2.182	-9.3994	-1.1749	2.182	-5.0354	-1.1749	0.6714	13.5956	-2.0142	0.5035	2.0142	-5.2032	1	240	139	2	1	2
-2.8534	-9.5673	-3.0212	0.1678	-8.5602	-5.0354	1.8463	-9.0637	-1.3428	1.8463	-4.8676	-1.0071	0.1678	12.5885	-2.3499	1.0071	1.5106	-4.6997	1	241	140	2	1	2
-3.0212	-9.903	-3.3569	-0.1678	-8.5602	-5.3711	1.5106	-8.5602	-1.6785	1.3428	-4.364	-0.8392	-0.1678	11.7493	-2.6855	1.8463	1.3428	-4.1962	1	242	141	2	1	2
-3.1891	-10.0708	-3.5248	-0.3357	-8.5602	-5.7068	1.3428	-8.3923	-1.6785	1.0071	-4.0283	-0.6714	-0.5035	10.7422	-3.0212	2.3499	1.0071	-3.6926	1	243	142	2	1	2
-3.1891	-10.2386	-3.8605	-0.3357	-8.3923	-5.8746	1.1749	-8.0566	-1.8463	0.8392	-3.5248	-0.5035	-0.8392	10.0708	-3.0212	3.0212	0.5035	-3.0212	1	244	143	2	1	2
-3.1891	-10.2386	-3.8605	-0.3357	-8.3923	-6.0425	1.0071	-7.3853	-2.0142	0.6714	-3.1891	-0.3357	-0.8392	9.0637	-3.0212	3.5248	0.5035	-2.5177	1	245	144	2	1	2
-3.1891	-10.4065	-4.1962	-0.5035	-8.5602	-6.546	0.6714	-7.2174	-2.182	0.1678	-2.6855	-0.1678	-1.0071	8.2245	-2.8534	4.1962	0.3357	-2.0142	1	246	145	2	1	2
-3.1891	-10.4065	-4.364	-0.3357	-8.5602	-6.8817	0.6714	-6.8817	-2.5177	-0.1678	-2.3499	0	-1.0071	7.2174	-2.8534	4.6997	0.1678	-1.6785	1	247	146	2	1	2
-3.1891	-10.4065	-4.5319	-0.5035	-8.5602	-7.0496	0.5035	-6.546	-2.5177	-0.3357	-1.8463	0.1678	-1.1749	5.7068	-2.5177	5.0354	0.3357	-1.0071	1	248	147	2	1	2
-3.0212	-10.4065	-4.5319	-0.1678	-8.3923	-7.2174	0.5035	-6.0425	-2.5177	-0.3357	-1.6785	0.5035	-0.8392	4.1962	-2.0142	5.5389	0.5035	-0.6714	1	249	148	2	1	2
-3.0212	-10.4065	-4.6997	0	-8.2245	-7.5531	0.3357	-5.7068	-2.6855	-0.5035	-1.3428	0.6714	-0.8392	2.6855	-1.6785	5.8746	0.6714	-0.3357	1	250	149	2	1	2
-2.8534	-10.4065	-4.6997	0.1678	-8.2245	-7.7209	0.1678	-5.5389	-2.6855	-0.8392	-1.0071	1.0071	-0.8392	1.1749	-1.5106	6.2103	0.6714	0	1	251	150	2	1	2
-3.0212	-10.4065	-4.8676	0	-8.2245	-8.0566	0	-5.2032	-3.0212	-0.8392	-1.0071	1.0071	-0.8392	-0.3357	-1.6785	6.546	0.6714	0	1	252	151	2	1	2
-3.0212	-10.4065	-5.0354	0.1678	-8.0566	-8.2245	-0.1678	-5.0354	-3.0212	-1.3428	-0.8392	1.0071	-1.0071	-1.5106	-1.6785	6.546	0.5035	0	1	253	152	2	1	2
-3.1891	-10.7422	-5.0354	-0.1678	-8.2245	-8.5602	-0.3357	-5.2032	-3.1891	-1.6785	-1.0071	1.0071	-1.1749	-2.8534	-2.182	6.546	0.3357	-0.3357	1	254	153	2	1	2
-3.3569	-11.0779	-5.3711	-0.3357	-8.2245	-8.8959	-1.0071	-5.3711	-3.5248	-2.0142	-1.1749	0.8392	-1.5106	-4.1962	-2.6855	6.3782	-0.3357	-0.6714	1	255	154	2	1	2
-3.3569	-11.2457	-5.5389	-0.6714	-8.2245	-9.0637	-1.1749	-5.3711	-3.6926	-2.5177	-1.3428	0.8392	-1.6785	-4.8676	-3.5248	6.2103	-0.5035	-1.0071	1	256	155	2	1	2
-3.5248	-11.4136	-5.8746	-1.0071	-8.2245	-9.2316	-1.6785	-5.3711	-4.0283	-3.0212	-1.8463	0.6714	-2.182	-5.2032	-4.364	5.8746	-1.1749	-1.6785	1	257	156	2	1	2
-3.8605	-11.7493	-6.0425	-1.5106	-8.5602	-9.7351	-2.3499	-5.7068	-4.364	-3.3569	-2.3499	0.3357	-2.6855	-5.5389	-5.3711	5.5389	-1.8463	-2.3499	1	258	157	2	1	2
-4.364	-12.085	-6.546	-2.182	-8.5602	-10.0708	-2.8534	-6.2103	-4.8676	-3.8605	-2.6855	0	-3.1891	-5.2032	-6.3782	5.2032	-2.5177	-2.8534	1	259	158	2	1	2
-4.5319	-11.9171	-6.546	-2.8534	-8.5602	-10.2386	-3.3569	-6.3782	-5.0354	-4.5319	-3.3569	-0.3357	-3.6926	-4.364	-7.3853	4.6997	-3.1891	-3.3569	1	260	159	2	1	2
-4.8676	-11.7493	-6.7139	-3.3569	-8.5602	-10.0708	-3.6926	-6.7139	-5.2032	-4.8676	-3.6926	-0.5035	-4.0283	-3.3569	-8.0566	4.364	-3.6926	-3.6926	1	261	160	2	1	2
-5.2032	-11.7493	-7.2174	-3.8605	-8.5602	-10.4065	-4.1962	-6.8817	-5.3711	-5.2032	-4.0283	-0.6714	-4.1962	-2.3499	-9.0637	4.1962	-4.5319	-4.1962	1	262	161	2	1	2
-5.5389	-11.2457	-7.2174	-4.5319	-8.3923	-10.4065	-4.364	-6.8817	-5.5389	-5.3711	-4.364	-0.6714	-4.364	-1.3428	-9.5673	4.0283	-4.8676	-4.1962	1	263	162	2	1	2
-6.0425	-11.2457	-7.7209	-5.2032	-8.3923	-10.4065	-4.8676	-7.0496	-5.5389	-5.7068	-4.6997	-1.0071	-4.5319	-0.8392	-10.2386	3.8605	-5.3711	-4.5319	1	264	163	2	1	2
-6.3782	-10.7422	-7.7209	-5.8746	-8.2245	-10.4065	-5.2032	-7.0496	-5.5389	-5.8746	-4.8676	-0.8392	-4.6997	-0.6714	-10.4065	3.5248	-5.7068	-4.364	1	265	164	2	1	2
-6.7139	-10.4065	-7.8888	-6.546	-8.2245	-10.4065	-5.3711	-7.2174	-5.3711	-5.8746	-4.8676	-0.8392	-4.5319	-0.6714	-10.7422	3.6926	-6.0425	-4.364	1	266	165	2	1	2
-7.0496	-10.2386	-8.2245	-7.0496	-8.2245	-10.4065	-5.7068	-7.0496	-5.2032	-5.8746	-4.8676	-0.6714	-4.364	-1.0071	-10.7422	3.6926	-6.0425	-4.1962	1	267	166	2	1	2
-7.2174	-9.903	-8.3923	-7.3853	-7.7209	-10.0708	-5.5389	-7.0496	-5.0354	-5.7068	-4.8676	-0.5035	-4.0283	-1.0071	-10.4065	3.5248	-6.2103	-4.0283	1	268	167	2	1	2
-7.3853	-9.5673	-8.5602	-7.8888	-7.5531	-9.7351	-5.3711	-6.8817	-4.5319	-5.3711	-4.6997	0	-3.3569	-1.6785	-9.7351	3.6926	-5.8746	-3.5248	1	269	168	2	1	2
-7.5531	-9.2316	-8.3923	-8.0566	-7.3853	-9.3994	-5.2032	-6.7139	-4.0283	-4.8676	-4.364	0.3357	-2.6855	-2.0142	-9.0637	3.8605	-5.3711	-3.3569	1	270	169	2	1	2
-7.5531	-9.0637	-8.3923	-8.2245	-7.2174	-9.0637	-4.8676	-6.2103	-3.5248	-4.1962	-4.0283	1.0071	-1.8463	-2.6855	-8.2245	3.8605	-5.0354	-2.8534	1	271	170	2	1	2
-7.2174	-8.5602	-8.2245	-8.0566	-6.7139	-8.3923	-4.1962	-5.7068	-2.5177	-3.3569	-3.5248	1.8463	-0.6714	-3.0212	-6.7139	4.0283	-4.1962	-2.182	1	272	171	2	1	2
-7.0496	-8.3923	-7.8888	-7.7209	-6.3782	-7.7209	-3.5248	-5.3711	-1.8463	-2.5177	-2.8534	2.5177	0.6714	-3.3569	-5.5389	4.0283	-3.1891	-1.6785	1	273	172	2	1	2
-6.8817	-8.2245	-7.7209	-7.3853	-5.8746	-7.2174	-3.0212	-4.6997	-0.8392	-1.5106	-2.0142	3.5248	1.6785	-3.5248	-4.1962	4.364	-2.5177	-1.1749	1	274	173	2	1	2
-6.7139	-8.0566	-7.3853	-6.8817	-5.5389	-6.546	-2.182	-4.0283	0	-0.5035	-1.1749	4.6997	3.0212	-3.1891	-2.6855	4.6997	-1.6785	-0.5035	1	275	174	2	1	2
-6.546	-7.8888	-7.0496	-6.546	-5.2032	-5.8746	-1.5106	-3.5248	0.8392	0.5035	-0.5035	5.5389	4.364	-2.8534	-1.3428	4.8676	-0.6714	-0.1678	1	276	175	2	1	2
-6.3782	-7.8888	-6.8817	-6.0425	-4.8676	-5.2032	-0.6714	-3.0212	2.0142	1.5106	0	6.3782	5.3711	-2.182	-0.1678	4.8676	0.1678	0	1	277	176	2	1	2
-6.3782	-7.8888	-6.7139	-5.5389	-4.6997	-4.8676	-0.1678	-2.6855	2.5177	2.182	0.6714	7.0496	6.546	-1.8463	0.6714	5.0354	0.8392	0.1678	1	278	177	2	1	2
-6.2103	-8.0566	-6.546	-4.8676	-4.6997	-4.364	0.5035	-2.182	3.3569	3.1891	1.0071	7.7209	7.3853	-1.1749	1.6785	5.0354	1.3428	0.3357	1	279	178	2	1	2
-6.546	-8.3923	-6.546	-4.6997	-4.5319	-4.1962	0.8392	-1.8463	4.0283	3.6926	1.5106	8.3923	8.0566	-1.3428	2.3499	5.0354	1.8463	0.5035	1	280	179	2	1	2
-6.8817	-8.8959	-6.7139	-4.1962	-4.6997	-4.0283	1.1749	-1.5106	4.5319	4.364	1.8463	8.728	8.5602	-2.0142	2.6855	4.8676	2.0142	0.3357	1	281	180	2	1	2
-7.2174	-9.3994	-6.7139	-3.8605	-4.6997	-3.8605	1.5106	-1.1749	4.8676	4.8676	2.0142	9.0637	9.0637	-2.6855	3.0212	4.8676	2.0142	0.1678	1	282	181	2	1	2
-7.3853	-9.903	-6.7139	-3.6926	-4.8676	-3.6926	1.8463	-1.1749	5.3711	5.2032	2.182	9.3994	9.3994	-3.6926	3.1891	4.5319	2.0142	0.3357	1	283	182	2	1	2
-7.3853	-10.2386	-6.546	-3.1891	-5.0354	-3.3569	2.182	-0.8392	5.7068	5.7068	2.5177	9.5673	9.7351	-4.6997	3.3569	4.364	2.0142	0.1678	1	284	183	2	1	2
-7.5531	-10.7422	-6.7139	-3.0212	-4.8676	-3.1891	2.5177	-0.6714	6.0425	6.0425	2.8534	9.903	10.4065	-6.0425	3.5248	4.1962	2.0142	0.1678	1	285	184	2	1	2
-7.7209	-11.0779	-6.7139	-2.8534	-5.0354	-3.0212	2.6855	-0.5035	6.546	6.546	3.1891	10.2386	10.7422	-7.0496	3.6926	4.0283	2.0142	0.3357	1	286	185	2	1	2
-7.8888	-11.5814	-6.7139	-2.5177	-5.0354	-2.6855	3.0212	-0.1678	6.7139	6.8817	3.1891	10.2386	10.91	-7.8888	3.6926	3.6926	1.8463	0.1678	1	287	186	2	1	2
-8.0566	-11.9171	-6.7139	-2.3499	-4.8676	-2.3499	3.1891	0	7.2174	7.2174	3.8605	10.7422	11.4136	-8.5602	4.0283	3.6926	1.8463	0.6714	1	288	187	2	1	2
-8.3923	-12.2528	-6.7139	-2.3499	-4.6997	-2.182	3.3569	0.1678	7.3853	7.5531	4.0283	10.7422	11.5814	-9.0637	4.1962	3.5248	1.8463	0.6714	1	289	188	2	1	2
-8.3923	-12.5885	-6.8817	-2.182	-4.8676	-1.8463	3.5248	0.3357	7.7209	7.7209	4.1962	10.91	11.7493	-9.2316	4.1962	3.1891	1.5106	1.0071	1	290	189	2	1	2
-8.728	-12.9242	-7.0496	-2.3499	-4.5319	-1.6785	3.5248	0.5035	8.0566	7.8888	4.5319	11.2457	12.085	-9.2316	4.364	3.3569	1.5106	1.3428	1	291	190	2	1	2
12.7563	13.5956	15.4419	26.5198	21.6522	20.3094	23.4985	18.9667	18.2953	20.3094	5.5389	9.5673	12.4207	1.1749	6.7139	15.9454	11.5814	9.0637	1	231	130	3	1	2
13.2599	14.4348	15.7776	26.6876	22.4915	20.6451	23.3307	20.3094	18.9667	20.3094	6.3782	10.0708	12.7563	0.8392	7.0496	16.6168	11.9171	9.5673	1	232	131	3	1	2
13.4277	14.9384	15.9454	26.6876	23.4985	20.813	23.1628	21.3165	19.3024	20.1416	7.3853	10.5743	12.7563	0	7.5531	17.2882	12.2528	10.0708	1	233	132	3	1	2
13.7634	15.7776	16.2811	26.6876	24.3378	20.9808	22.995	22.6593	19.9738	20.1416	8.3923	11.2457	12.9242	-0.5035	8.0566	17.9596	12.4207	10.7422	1	234	133	3	1	2
14.267	16.449	16.449	26.6876	25.3448	21.1487	22.8271	23.8342	20.3094	20.3094	9.0637	11.7493	13.2599	-1.5106	8.2245	18.7988	12.5885	11.4136	1	235	134	3	1	2
14.7705	17.1204	16.6168	26.6876	26.0162	21.3165	22.6593	24.8413	20.6451	20.1416	9.903	12.2528	13.4277	-2.0142	8.5602	19.4702	12.9242	12.085	1	236	135	3	1	2
14.9384	17.4561	16.6168	26.3519	26.6876	21.4844	22.4915	25.6805	20.9808	20.1416	10.5743	12.5885	13.5956	-2.6855	8.728	20.1416	12.9242	12.5885	1	237	136	3	1	2
15.4419	18.1274	16.7847	26.1841	27.359	21.6522	22.3236	26.6876	21.3165	20.1416	11.4136	13.092	13.7634	-3.1891	9.0637	20.813	13.092	13.4277	1	238	137	3	1	2
15.7776	18.4631	16.6168	25.8484	27.8625	21.4844	22.1558	27.359	21.3165	20.1416	11.7493	13.2599	13.7634	-3.3569	9.0637	21.1487	13.092	13.9313	1	239	138	3	1	2
16.1133	18.631	16.6168	25.3448	28.0304	21.4844	21.8201	27.8625	21.3165	19.9738	12.2528	13.4277	13.7634	-3.3569	9.0637	21.6522	12.9242	14.4348	1	240	139	3	1	2
16.6168	19.1345	16.6168	25.0092	28.3661	21.4844	21.6522	28.5339	21.4844	20.1416	12.5885	13.7634	13.9313	-2.8534	9.2316	21.9879	12.9242	15.1062	1	241	140	3	1	2
16.9525	19.4702	16.6168	24.6735	28.7018	21.1487	21.3165	29.0375	21.3165	20.1416	12.7563	14.0991	13.9313	-1.6785	9.2316	22.3236	12.7563	15.7776	1	242	141	3	1	2
16.9525	19.6381	16.2811	24.1699	28.5339	21.1487	21.3165	29.0375	21.1487	19.9738	12.9242	14.0991	13.9313	-0.3357	9.3994	22.3236	12.5885	16.2811	1	243	142	3	1	2
17.2882	19.9738	16.449	24.0021	28.5339	20.813	21.1487	29.2053	20.9808	19.9738	12.9242	14.0991	13.9313	1.5106	9.5673	22.6593	12.5885	16.7847	1	244	143	3	1	2
17.4561	19.9738	16.1133	23.4985	28.1982	20.4773	20.9808	29.0375	20.6451	19.8059	12.7563	14.0991	13.9313	3.1891	9.5673	22.8271	12.4207	17.1204	1	245	144	3	1	2
17.4561	19.9738	15.7776	23.1628	27.8625	20.3094	20.9808	28.8696	20.3094	19.8059	12.5885	13.9313	13.9313	4.6997	9.5673	22.6593	12.4207	17.4561	1	246	145	3	1	2
17.4561	19.9738	15.4419	22.6593	27.359	19.6381	20.813	28.3661	19.9738	19.4702	12.2528	13.7634	14.0991	5.8746	9.3994	22.4915	12.2528	17.6239	1	247	146	3	1	2
17.4561	19.8059	15.1062	22.3236	26.6876	19.1345	20.6451	27.8625	19.4702	19.4702	11.7493	13.5956	14.0991	6.8817	9.5673	22.1558	12.085	17.7917	1	248	147	3	1	2
17.2882	19.6381	14.7705	21.9879	26.0162	18.7988	20.6451	27.359	18.9667	19.3024	11.4136	13.4277	14.267	7.2174	9.7351	21.9879	12.085	17.7917	1	249	148	3	1	2
17.1204	19.3024	14.267	21.6522	25.177	18.1274	20.4773	26.5198	18.4631	19.1345	10.7422	13.2599	14.0991	7.3853	9.7351	21.3165	11.7493	17.6239	1	250	149	3	1	2
16.9525	19.1345	14.0991	21.3165	24.6735	17.7917	20.6451	25.5127	17.9596	18.9667	10.0708	12.9242	14.267	7.5531	9.903	20.6451	11.7493	17.4561	1	251	150	3	1	2
16.7847	18.631	13.5956	21.1487	23.6664	17.2882	20.6451	24.5056	17.2882	18.7988	9.2316	12.7563	14.0991	7.3853	10.0708	19.8059	11.5814	16.9525	1	252	151	3	1	2
16.6168	17.9596	13.2599	20.9808	22.6593	16.6168	20.4773	23.3307	16.6168	18.631	8.3923	12.2528	13.9313	7.2174	10.2386	18.9667	11.4136	16.2811	1	253	152	3	1	2
16.449	17.4561	12.9242	20.813	21.8201	16.2811	20.4773	22.1558	16.1133	18.4631	7.5531	11.9171	13.7634	7.2174	10.4065	17.7917	11.5814	15.4419	1	254	153	3	1	2
16.2811	16.7847	12.5885	20.6451	20.813	15.6097	20.3094	20.813	15.4419	17.9596	6.546	11.4136	13.5956	6.8817	10.2386	16.6168	11.2457	14.267	1	255	154	3	1	2
16.1133	16.1133	12.2528	20.3094	19.9738	15.1062	20.1416	19.4702	14.7705	17.6239	5.5389	10.91	13.4277	6.546	10.0708	15.274	11.0779	13.2599	1	256	155	3	1	2
15.6097	15.274	11.9171	20.1416	18.9667	14.4348	19.9738	18.2953	13.9313	17.2882	4.364	10.2386	12.9242	6.2103	9.903	13.9313	10.7422	12.085	1	257	156	3	1	2
15.274	14.4348	11.5814	19.9738	18.2953	13.9313	19.6381	17.1204	13.4277	16.7847	3.5248	9.7351	12.5885	6.2103	9.7351	12.7563	10.4065	11.0779	1	258	157	3	1	2
15.1062	13.7634	11.4136	19.6381	17.6239	13.4277	19.4702	15.9454	12.7563	16.449	2.6855	9.2316	12.2528	6.2103	9.3994	11.4136	10.2386	10.0708	1	259	158	3	1	2
14.7705	13.092	11.2457	19.4702	16.9525	13.092	19.1345	14.9384	12.2528	16.1133	1.8463	8.728	11.9171	6.7139	9.0637	10.4065	9.903	9.2316	1	260	159	3	1	2
14.267	12.4207	10.91	19.1345	16.2811	12.5885	18.7988	13.7634	11.5814	15.4419	1.0071	8.2245	11.4136	7.2174	8.5602	9.3994	9.3994	8.0566	1	261	160	3	1	2
14.0991	11.9171	10.7422	18.9667	15.7776	12.2528	18.4631	12.9242	11.2457	15.1062	0.3357	7.7209	11.0779	8.0566	8.2245	8.3923	9.0637	7.2174	1	262	161	3	1	2
13.5956	11.2457	10.4065	18.631	15.274	11.7493	17.9596	11.9171	10.5743	14.4348	-0.5035	7.2174	10.4065	8.3923	7.5531	7.5531	8.5602	6.0425	1	263	162	3	1	2
13.2599	10.7422	10.2386	18.2953	14.6027	11.5814	17.6239	10.91	10.0708	13.7634	-1.3428	6.546	9.903	8.2245	6.7139	6.8817	8.0566	5.0354	1	264	163	3	1	2
12.7563	10.0708	9.7351	17.9596	14.0991	11.0779	17.1204	10.0708	9.5673	13.2599	-2.182	5.8746	9.2316	7.7209	6.0425	6.0425	7.5531	4.0283	1	265	164	3	1	2
12.4207	9.5673	9.5673	17.6239	13.5956	10.91	16.7847	9.3994	8.8959	12.7563	-2.6855	5.5389	8.728	6.8817	5.3711	5.2032	7.0496	3.0212	1	266	165	3	1	2
11.7493	9.0637	9.2316	17.2882	13.2599	10.4065	16.2811	8.5602	8.5602	12.085	-3.3569	4.8676	8.2245	5.7068	4.5319	4.6997	6.3782	2.3499	1	267	166	3	1	2
11.2457	8.5602	8.728	16.7847	12.9242	10.0708	15.6097	8.0566	8.2245	11.4136	-4.0283	4.364	7.5531	4.364	3.8605	4.1962	5.8746	1.5106	1	268	167	3	1	2
10.91	8.0566	8.5602	16.449	12.5885	9.7351	15.274	7.7209	7.8888	11.0779	-4.5319	4.1962	7.2174	3.1891	3.1891	3.6926	5.3711	0.8392	1	269	168	3	1	2
10.4065	7.7209	8.0566	16.1133	12.5885	9.7351	14.7705	7.2174	7.7209	10.5743	-4.8676	3.8605	6.7139	1.6785	2.5177	3.3569	5.0354	0.3357	1	270	169	3	1	2
10.0708	7.3853	7.8888	15.7776	12.4207	9.5673	14.4348	7.0496	7.5531	10.2386	-5.0354	3.6926	6.546	0.1678	2.182	3.0212	4.5319	-0.1678	1	271	170	3	1	2
10.0708	7.3853	7.7209	15.7776	12.5885	9.7351	14.4348	7.0496	7.5531	10.2386	-5.3711	3.5248	6.546	-1.1749	1.8463	2.8534	4.1962	-0.6714	1	272	171	3	1	2
9.7351	7.3853	7.7209	15.4419	12.5885	9.7351	14.0991	7.0496	7.5531	9.903	-5.5389	3.5248	6.3782	-2.3499	1.5106	2.8534	3.8605	-1.0071	1	273	172	3	1	2
9.903	7.5531	7.5531	15.4419	13.092	10.0708	14.0991	7.3853	7.8888	9.7351	-5.3711	3.5248	6.3782	-3.0212	1.3428	3.3569	3.3569	-1.0071	1	274	173	3	1	2
9.903	7.7209	7.7209	15.4419	13.092	10.0708	14.0991	7.7209	8.0566	10.0708	-5.3711	3.8605	6.546	-3.3569	1.3428	3.3569	3.3569	-1.1749	1	275	174	3	1	2
10.0708	8.0566	7.7209	15.6097	13.5956	10.7422	14.267	8.0566	8.5602	10.0708	-5.0354	4.1962	6.8817	-3.1891	1.8463	3.6926	3.1891	-1.1749	1	276	175	3	1	2
10.0708	8.5602	7.8888	15.6097	14.0991	10.91	14.0991	8.5602	9.0637	10.4065	-4.8676	4.364	7.0496	-2.3499	2.0142	4.364	3.0212	-1.0071	1	277	176	3	1	2
10.4065	8.8959	8.0566	15.9454	14.7705	11.4136	14.6027	9.3994	9.3994	10.7422	-4.6997	4.8676	7.5531	-1.5106	2.6855	4.6997	3.3569	-1.0071	1	278	177	3	1	2
10.5743	9.5673	8.3923	16.2811	15.274	11.7493	14.7705	9.903	10.2386	11.0779	-4.364	5.2032	7.8888	-0.6714	3.1891	5.2032	3.3569	-0.8392	1	279	178	3	1	2
10.7422	10.2386	8.5602	16.6168	15.7776	12.2528	15.1062	10.7422	10.7422	11.5814	-3.8605	5.8746	8.3923	0.1678	3.8605	5.8746	3.5248	-0.3357	1	280	179	3	1	2
10.91	10.91	8.728	16.9525	16.2811	12.7563	15.4419	11.5814	11.4136	12.085	-3.3569	6.3782	9.0637	0.3357	4.5319	6.546	3.8605	0.1678	1	281	180	3	1	2
11.2457	11.7493	9.2316	17.2882	16.9525	13.2599	15.9454	12.5885	12.085	12.5885	-2.6855	6.8817	9.7351	0.3357	5.2032	7.3853	4.1962	1.0071	1	282	181	3	1	2
11.4136	12.5885	9.5673	17.7917	17.7917	13.9313	16.449	13.5956	12.7563	13.2599	-2.0142	7.7209	10.4065	0.1678	6.0425	8.2245	4.6997	1.6785	1	283	182	3	1	2
11.7493	13.092	9.903	18.1274	18.631	14.4348	16.7847	14.7705	13.4277	13.9313	-1.1749	8.3923	11.0779	-0.5035	6.7139	9.2316	4.8676	2.8534	1	284	183	3	1	2
11.9171	13.9313	10.0708	18.631	19.3024	14.7705	17.4561	15.7776	14.267	14.4348	-0.3357	9.2316	11.7493	-0.6714	7.3853	10.5743	5.2032	4.1962	1	285	184	3	1	2
12.2528	14.6027	10.4065	18.9667	20.1416	15.274	17.7917	16.9525	14.7705	15.1062	0.5035	10.0708	12.4207	-1.1749	7.7209	11.4136	5.7068	5.5389	1	286	185	3	1	2
12.4207	15.4419	10.7422	19.1345	20.9808	15.6097	18.2953	17.9596	15.6097	15.6097	1.6785	10.7422	13.092	-1.6785	8.3923	12.9242	6.0425	7.2174	1	287	186	3	1	2
12.4207	15.7776	10.91	19.4702	21.6522	15.9454	18.4631	18.9667	15.9454	15.9454	2.5177	11.4136	13.5956	-2.0142	8.8959	13.9313	6.3782	8.728	1	288	187	3	1	2
12.4207	16.449	10.91	19.4702	22.3236	15.9454	18.631	19.6381	16.2811	16.2811	3.3569	11.7493	14.0991	-2.3499	9.0637	14.9384	6.546	9.903	1	289	188	3	1	2
12.2528	16.7847	10.91	19.3024	22.8271	16.1133	18.631	20.4773	16.449	16.2811	3.8605	12.085	14.267	-2.8534	9.0637	15.7776	6.546	11.2457	1	290	189	3	1	2
11.9171	17.1204	10.5743	19.1345	23.3307	15.9454	18.631	20.813	16.449	16.449	4.5319	12.085	14.267	-2.8534	9.2316	16.6168	6.7139	12.2528	1	291	190	3	1	2
10.5743	13.2599	9.903	12.5885	17.4561	11.4136	18.631	17.7917	13.7634	22.6593	16.6168	16.2811	22.995	13.7634	19.3024	7.8888	12.085	13.2599	1	231	130	4	1	2
10.5743	13.2599	9.903	12.9242	17.4561	11.5814	19.3024	17.9596	14.0991	23.4985	16.9525	16.7847	24.0021	13.5956	19.9738	7.8888	12.4207	13.4277	1	232	131	4	1	2
10.5743	13.092	9.7351	13.2599	17.4561	11.7493	19.9738	17.7917	14.4348	24.5056	17.1204	17.4561	24.8413	13.092	20.4773	7.8888	12.9242	13.9313	1	233	132	4	1	2
10.2386	13.092	9.5673	13.7634	17.2882	11.7493	20.6451	17.4561	14.6027	25.177	17.4561	17.6239	25.6805	12.4207	20.813	7.7209	13.4277	14.0991	1	234	133	4	1	2
10.0708	12.7563	9.2316	13.9313	16.9525	11.5814	21.3165	16.9525	14.7705	26.0162	17.2882	18.1274	26.5198	11.5814	21.4844	7.5531	13.9313	14.267	1	235	134	4	1	2
10.0708	12.7563	9.2316	14.6027	16.6168	11.5814	21.9879	16.6168	15.1062	27.0233	17.4561	18.4631	27.359	10.91	22.1558	7.7209	14.9384	14.4348	1	236	135	4	1	2
10.0708	12.2528	8.8959	14.9384	15.9454	11.4136	22.4915	15.6097	15.1062	27.6947	17.2882	18.631	28.1982	9.903	22.8271	7.7209	15.4419	14.4348	1	237	136	4	1	2
10.0708	12.085	8.728	15.4419	15.274	11.2457	23.1628	14.9384	15.1062	28.3661	17.1204	18.7988	28.7018	9.2316	23.6664	7.7209	16.449	14.267	1	238	137	4	1	2
9.903	11.5814	8.3923	15.6097	14.4348	10.91	23.6664	13.7634	14.7705	28.8696	16.7847	18.7988	29.2053	8.5602	24.1699	7.2174	17.1204	13.9313	1	239	138	4	1	2
9.7351	11.0779	8.0566	15.7776	13.5956	10.4065	23.8342	12.5885	14.6027	29.2053	16.449	18.631	29.7089	7.8888	25.0092	7.0496	17.7917	13.4277	1	240	139	4	1	2
9.3994	10.4065	7.5531	15.7776	12.2528	9.7351	24.0021	11.2457	13.9313	29.2053	15.7776	18.4631	29.8767	7.5531	25.177	6.7139	18.1274	12.9242	1	241	140	4	1	2
9.0637	9.7351	7.0496	15.7776	11.4136	9.2316	24.1699	9.903	13.5956	29.2053	15.274	18.2953	29.8767	7.5531	25.5127	6.3782	18.631	12.5885	1	242	141	4	1	2
8.728	8.728	6.3782	15.7776	10.0708	8.5602	23.8342	8.3923	13.092	29.0375	14.4348	17.7917	29.8767	7.7209	25.5127	5.8746	18.9667	11.7493	1	243	142	4	1	2
7.8888	7.7209	5.3711	15.4419	8.5602	7.7209	23.4985	6.7139	12.2528	28.5339	13.7634	17.2882	29.2053	7.8888	25.3448	5.0354	18.7988	11.0779	1	244	143	4	1	2
7.0496	6.546	4.5319	14.9384	6.7139	6.7139	22.8271	5.2032	11.2457	27.5269	12.5885	16.449	28.5339	7.8888	24.6735	4.1962	18.631	10.2386	1	245	144	4	1	2
6.3782	5.3711	3.5248	14.6027	5.2032	5.5389	21.9879	3.5248	10.5743	26.8555	11.7493	15.7776	27.6947	8.0566	24.0021	3.6926	18.2953	9.5673	1	246	145	4	1	2
5.3711	4.0283	2.3499	13.7634	3.3569	4.1962	20.9808	1.8463	9.2316	25.5127	10.4065	14.6027	26.5198	7.3853	22.995	2.6855	17.6239	8.3923	1	247	146	4	1	2
4.364	2.5177	1.3428	13.092	1.8463	3.3569	19.9738	0.1678	8.2245	24.3378	9.3994	13.7634	25.3448	6.3782	21.9879	2.0142	16.9525	7.5531	1	248	147	4	1	2
3.3569	1.0071	0	12.2528	0	2.0142	18.631	-1.6785	7.0496	22.8271	8.2245	12.7563	23.8342	5.3711	20.9808	1.0071	15.9454	6.546	1	249	148	4	1	2
2.0142	-0.6714	-1.3428	11.2457	-1.8463	0.6714	17.2882	-3.1891	5.8746	21.3165	6.7139	11.7493	22.3236	3.8605	19.4702	0.1678	15.1062	5.5389	1	250	149	4	1	2
1.0071	-2.3499	-2.5177	10.2386	-3.5248	-0.6714	15.7776	-4.8676	4.5319	19.6381	5.5389	10.7422	20.813	2.5177	18.1274	-0.6714	14.0991	4.5319	1	251	150	4	1	2
-0.3357	-4.1962	-4.0283	9.0637	-5.5389	-2.3499	13.9313	-6.546	3.1891	17.7917	4.1962	9.5673	19.1345	1.0071	16.7847	-1.6785	12.7563	3.3569	1	252	151	4	1	2
-1.5106	-6.0425	-5.3711	7.7209	-7.2174	-3.5248	12.2528	-8.0566	2.0142	16.1133	3.0212	8.5602	17.4561	-0.5035	15.4419	-2.5177	11.7493	2.5177	1	253	152	4	1	2
-2.8534	-7.8888	-7.0496	6.546	-9.0637	-4.8676	10.5743	-9.5673	0.6714	14.267	1.8463	7.7209	15.9454	-2.182	14.267	-3.3569	10.5743	1.5106	1	254	153	4	1	2
-3.8605	-9.5673	-8.2245	5.2032	-10.4065	-6.2103	8.8959	-10.91	-0.5035	12.5885	0.6714	6.7139	14.4348	-3.5248	13.092	-4.0283	9.3994	0.6714	1	255	154	4	1	2
-5.0354	-11.4136	-9.7351	3.8605	-11.7493	-7.3853	7.3853	-12.085	-1.5106	10.91	-0.3357	6.0425	13.2599	-5.2032	12.2528	-4.8676	8.3923	0	1	256	155	4	1	2
-5.7068	-12.7563	-10.7422	2.5177	-12.7563	-8.3923	5.8746	-12.9242	-2.5177	9.5673	-1.0071	5.3711	12.085	-6.3782	11.5814	-5.2032	7.5531	-0.6714	1	257	156	4	1	2
-6.8817	-13.9313	-11.9171	1.5106	-13.7634	-9.3994	4.364	-13.7634	-3.5248	8.2245	-1.6785	5.2032	11.0779	-7.7209	11.0779	-5.8746	6.546	-0.8392	1	258	157	4	1	2
-7.3853	-14.9384	-12.7563	0.3357	-14.4348	-10.0708	3.1891	-14.267	-3.8605	7.3853	-2.182	4.8676	10.4065	-8.2245	10.5743	-5.8746	6.2103	-1.1749	1	259	158	4	1	2
-8.2245	-15.7776	-13.5956	-0.6714	-14.7705	-10.7422	2.3499	-14.6027	-4.364	6.3782	-2.5177	4.6997	9.903	-8.3923	10.4065	-6.0425	5.7068	-1.3428	1	260	159	4	1	2
-8.728	-16.2811	-14.267	-1.3428	-15.1062	-11.2457	1.5106	-14.9384	-4.8676	5.7068	-2.6855	4.5319	9.3994	-8.2245	10.4065	-6.0425	5.3711	-1.3428	1	261	160	4	1	2
-9.3994	-16.6168	-14.7705	-2.0142	-15.1062	-11.7493	0.8392	-15.1062	-5.2032	5.2032	-2.6855	4.6997	9.2316	-7.7209	10.5743	-6.0425	5.2032	-1.1749	1	262	161	4	1	2
-9.903	-16.7847	-15.274	-2.6855	-15.1062	-12.085	0.3357	-15.274	-5.5389	4.8676	-2.6855	4.6997	9.2316	-7.5531	10.91	-6.2103	4.8676	-1.0071	1	263	162	4	1	2
-10.2386	-16.7847	-15.7776	-3.1891	-15.1062	-12.4207	0	-15.274	-5.7068	4.8676	-2.6855	4.8676	9.2316	-7.5531	11.4136	-6.0425	4.8676	-0.8392	1	264	163	4	1	2
-10.5743	-16.7847	-16.1133	-3.6926	-14.7705	-12.5885	-0.3357	-15.1062	-5.8746	4.6997	-2.5177	5.0354	9.3994	-7.5531	11.7493	-5.8746	5.0354	-0.6714	1	265	164	4	1	2
-10.91	-16.449	-16.2811	-4.0283	-14.6027	-12.7563	-0.5035	-14.7705	-6.0425	4.5319	-2.3499	5.2032	9.3994	-8.0566	12.2528	-5.8746	4.8676	-0.3357	1	266	165	4	1	2
-11.2457	-16.2811	-16.449	-4.364	-14.267	-12.9242	-0.6714	-14.7705	-6.2103	4.5319	-2.182	5.2032	9.3994	-8.728	12.5885	-5.8746	4.8676	-0.1678	1	267	166	4	1	2
-11.2457	-15.7776	-16.449	-4.5319	-13.7634	-12.9242	-0.6714	-14.4348	-6.3782	4.5319	-1.8463	5.3711	9.5673	-9.0637	13.092	-5.7068	5.0354	0	1	268	167	4	1	2
-11.2457	-15.4419	-16.449	-4.6997	-13.2599	-12.9242	-0.3357	-14.4348	-6.546	4.6997	-1.8463	5.2032	9.3994	-9.5673	13.4277	-5.8746	5.0354	0	1	269	168	4	1	2
-11.0779	-14.7705	-16.2811	-4.5319	-12.7563	-12.7563	-0.1678	-14.0991	-6.546	4.6997	-1.8463	5.0354	9.3994	-9.7351	13.4277	-5.8746	5.2032	-0.3357	1	270	169	4	1	2
-10.7422	-14.267	-15.9454	-4.1962	-12.2528	-12.5885	0.1678	-14.0991	-6.7139	4.8676	-1.8463	4.8676	9.2316	-9.5673	13.4277	-6.0425	5.2032	-0.5035	1	271	170	4	1	2
-10.4065	-13.7634	-15.6097	-4.0283	-11.7493	-12.4207	0.6714	-13.9313	-6.8817	4.8676	-1.8463	4.5319	9.0637	-9.5673	13.4277	-6.2103	5.3711	-0.8392	1	272	171	4	1	2
-10.2386	-13.2599	-15.274	-3.8605	-11.4136	-12.2528	1.0071	-14.0991	-7.2174	5.2032	-1.8463	4.1962	9.0637	-9.5673	13.5956	-6.546	5.3711	-1.1749	1	273	172	4	1	2
-9.7351	-12.9242	-14.9384	-3.3569	-11.0779	-12.085	1.5106	-14.0991	-7.3853	5.3711	-2.0142	3.8605	8.728	-9.2316	13.4277	-6.7139	5.3711	-1.6785	1	274	173	4	1	2
-9.2316	-12.2528	-14.267	-2.8534	-10.5743	-11.9171	2.0142	-13.7634	-7.3853	5.5389	-2.182	3.3569	8.3923	-8.2245	13.2599	-6.7139	5.5389	-2.0142	1	275	174	4	1	2
-8.5602	-11.7493	-13.7634	-2.182	-10.0708	-11.7493	2.6855	-13.7634	-7.5531	5.7068	-2.3499	2.8534	8.2245	-7.2174	13.092	-6.8817	5.7068	-2.182	1	276	175	4	1	2
-8.3923	-11.2457	-13.2599	-1.8463	-9.7351	-11.5814	3.1891	-13.5956	-7.8888	6.0425	-2.5177	2.5177	8.0566	-6.0425	12.7563	-6.8817	5.5389	-2.3499	1	277	176	4	1	2
-7.7209	-10.5743	-12.5885	-1.1749	-9.0637	-11.0779	3.8605	-13.2599	-7.7209	6.2103	-2.5177	2.182	7.7209	-4.364	12.5885	-6.546	5.7068	-2.0142	1	278	177	4	1	2
-7.0496	-10.2386	-12.2528	-0.6714	-8.3923	-10.7422	4.364	-13.092	-7.8888	6.3782	-2.3499	1.6785	7.5531	-2.6855	12.4207	-6.2103	5.8746	-2.0142	1	279	178	4	1	2
-6.7139	-9.7351	-11.7493	-0.3357	-7.8888	-10.5743	5.0354	-12.7563	-7.8888	6.7139	-2.0142	1.6785	7.5531	-1.0071	12.4207	-5.8746	5.7068	-1.3428	1	280	179	4	1	2
-6.0425	-9.0637	-11.0779	0.5035	-7.2174	-10.0708	5.7068	-12.085	-7.5531	7.2174	-1.5106	1.6785	7.7209	0.5035	12.7563	-5.3711	6.0425	-0.6714	1	281	180	4	1	2
-5.3711	-8.3923	-10.5743	1.1749	-6.3782	-9.5673	6.2103	-11.2457	-7.2174	7.3853	-1.0071	1.5106	7.7209	1.5106	12.7563	-4.5319	6.2103	-0.1678	1	282	181	4	1	2
-4.6997	-7.5531	-9.7351	2.0142	-5.3711	-8.8959	7.0496	-10.2386	-6.8817	7.8888	-0.3357	1.8463	8.0566	2.5177	13.2599	-3.8605	6.546	0.8392	1	283	182	4	1	2
-4.1962	-7.0496	-9.2316	2.8534	-4.6997	-8.5602	7.7209	-9.5673	-6.7139	8.3923	0.3357	2.182	8.5602	3.1891	13.9313	-3.1891	6.7139	1.6785	1	284	183	4	1	2
-3.1891	-6.546	-8.5602	3.3569	-3.6926	-7.8888	8.2245	-8.5602	-6.0425	8.728	1.0071	2.3499	8.8959	3.5248	14.6027	-2.3499	7.2174	2.3499	1	285	184	4	1	2
-2.5177	-5.8746	-8.2245	4.1962	-2.5177	-7.2174	9.0637	-7.8888	-5.7068	9.2316	1.8463	2.6855	9.5673	4.1962	15.274	-1.5106	7.3853	3.1891	1	286	185	4	1	2
-2.0142	-5.3711	-7.7209	4.6997	-1.6785	-6.7139	9.5673	-6.8817	-5.2032	9.5673	2.3499	3.0212	9.903	4.364	15.9454	-0.6714	7.7209	4.0283	1	287	186	4	1	2
-1.3428	-4.6997	-7.2174	5.2032	-0.6714	-6.2103	10.0708	-6.0425	-4.6997	9.903	3.0212	3.5248	10.4065	4.5319	16.449	0.1678	8.0566	4.6997	1	288	187	4	1	2
-1.1749	-4.5319	-7.0496	5.3711	0.1678	-5.7068	10.2386	-5.3711	-4.364	10.2386	3.5248	3.6926	10.91	4.8676	16.9525	0.8392	8.2245	5.3711	1	289	188	4	1	2
-0.8392	-4.1962	-6.8817	5.5389	0.8392	-5.3711	10.4065	-4.5319	-3.8605	10.5743	4.0283	4.0283	11.2457	5.2032	17.4561	1.5106	8.3923	6.0425	1	290	189	4	1	2
-1.0071	-4.1962	-7.0496	5.3711	1.5106	-5.2032	10.4065	-3.8605	-3.6926	10.5743	4.364	4.364	11.5814	5.7068	17.7917	2.182	8.3923	6.546	1	291	190	4	1	2
-4.6997	-0.6714	-5.5389	-2.5177	0.3357	-1.8463	-5.0354	2.3499	0.1678	-3.0212	6.7139	1.1749	-0.5035	-15.6097	-7.7209	6.7139	-8.0566	6.2103	1	231	130	5	1	2
-4.1962	-0.5035	-4.8676	-2.182	0.6714	-1.1749	-4.8676	2.3499	0.1678	-3.3569	6.7139	1.1749	-0.6714	-15.7776	-8.2245	6.3782	-8.5602	6.2103	1	232	131	5	1	2
-4.0283	-0.6714	-4.364	-2.182	0.3357	-0.8392	-4.8676	1.8463	0.3357	-3.5248	6.3782	0.8392	-1.1749	-16.2811	-8.8959	6.2103	-9.5673	6.3782	1	233	132	5	1	2
-3.8605	-0.6714	-3.8605	-2.182	0.3357	-0.3357	-4.8676	1.5106	0.1678	-3.8605	6.2103	0.5035	-1.5106	-16.9525	-9.3994	5.8746	-10.2386	6.3782	1	234	133	5	1	2
-3.6926	-0.8392	-3.3569	-2.0142	0	-0.1678	-4.8676	1.1749	0.1678	-4.1962	6.0425	0.5035	-2.0142	-17.4561	-9.903	5.3711	-10.7422	6.2103	1	235	134	5	1	2
-3.5248	-1.0071	-3.0212	-2.3499	-0.3357	0.1678	-5.0354	0.8392	0.1678	-4.364	5.8746	0.1678	-2.5177	-18.2953	-10.7422	4.8676	-11.5814	6.0425	1	236	135	5	1	2
-3.3569	-1.3428	-2.8534	-2.5177	-0.8392	0.3357	-5.2032	0.3357	0	-4.6997	5.5389	-0.1678	-3.0212	-18.631	-11.4136	4.364	-12.2528	5.8746	1	237	136	5	1	2
-3.3569	-1.6785	-2.5177	-2.5177	-1.3428	0.5035	-5.2032	-0.3357	-0.1678	-5.0354	5.2032	-0.3357	-3.5248	-18.7988	-11.9171	3.6926	-12.9242	5.5389	1	238	137	5	1	2
-3.3569	-2.182	-2.5177	-2.8534	-1.6785	0.6714	-5.3711	-0.8392	-0.3357	-5.0354	5.0354	-0.5035	-3.8605	-18.631	-12.4207	3.0212	-13.4277	5.2032	1	239	138	5	1	2
-3.5248	-2.8534	-2.6855	-3.1891	-2.5177	0.3357	-5.7068	-1.5106	-0.6714	-5.5389	4.5319	-1.0071	-4.364	-18.4631	-13.092	2.3499	-14.267	4.8676	1	240	139	5	1	2
-3.6926	-3.5248	-3.0212	-3.6926	-3.0212	0.3357	-5.8746	-1.8463	-1.0071	-5.8746	4.1962	-1.3428	-4.8676	-17.6239	-13.5956	1.5106	-14.6027	4.364	1	241	140	5	1	2
-4.0283	-4.1962	-3.0212	-4.0283	-3.6926	0.3357	-6.0425	-2.3499	-1.1749	-6.0425	4.1962	-1.5106	-4.8676	-16.2811	-13.7634	0.8392	-14.9384	3.8605	1	242	141	5	1	2
-4.5319	-5.0354	-3.6926	-4.6997	-4.1962	0	-6.546	-2.8534	-1.3428	-6.0425	4.0283	-1.5106	-5.0354	-14.9384	-13.7634	0	-14.9384	3.6926	1	243	142	5	1	2
-4.8676	-5.7068	-4.0283	-5.2032	-4.8676	-0.1678	-6.7139	-3.0212	-1.5106	-6.2103	4.0283	-1.5106	-4.8676	-13.2599	-13.4277	-0.8392	-14.9384	3.3569	1	244	143	5	1	2
-5.7068	-6.546	-4.6997	-5.8746	-5.5389	-0.5035	-6.8817	-3.3569	-1.6785	-6.0425	4.0283	-1.5106	-4.5319	-11.5814	-13.092	-1.6785	-14.7705	2.8534	1	245	144	5	1	2
-6.546	-7.2174	-5.3711	-6.7139	-6.2103	-0.8392	-7.3853	-3.8605	-1.8463	-6.2103	4.0283	-1.3428	-4.5319	-10.2386	-12.5885	-2.5177	-14.6027	2.6855	1	246	145	5	1	2
-7.3853	-8.0566	-6.3782	-7.3853	-6.7139	-1.5106	-7.7209	-3.8605	-2.182	-6.2103	4.0283	-1.3428	-4.0283	-8.8959	-12.085	-3.1891	-14.4348	2.0142	1	247	146	5	1	2
-8.3923	-8.728	-7.0496	-8.3923	-7.0496	-1.8463	-8.0566	-4.364	-2.3499	-6.0425	4.1962	-1.0071	-3.8605	-8.2245	-11.4136	-3.8605	-14.0991	1.6785	1	248	147	5	1	2
-9.2316	-9.7351	-8.2245	-9.2316	-7.7209	-2.3499	-8.5602	-4.5319	-2.5177	-6.0425	4.1962	-1.0071	-3.5248	-7.8888	-11.0779	-4.5319	-13.7634	1.0071	1	249	148	5	1	2
-10.2386	-10.2386	-9.0637	-10.0708	-8.2245	-2.8534	-8.8959	-4.6997	-2.8534	-6.2103	4.1962	-0.8392	-3.1891	-7.7209	-10.91	-5.3711	-13.5956	0.5035	1	250	149	5	1	2
-11.0779	-10.91	-10.0708	-10.5743	-8.3923	-3.5248	-9.5673	-4.8676	-3.0212	-6.2103	4.364	-0.6714	-3.0212	-7.7209	-10.7422	-5.8746	-13.5956	0	1	251	150	5	1	2
-11.7493	-11.2457	-10.7422	-11.2457	-8.5602	-3.8605	-9.7351	-4.8676	-3.0212	-6.0425	4.5319	-0.6714	-3.0212	-7.8888	-10.7422	-6.3782	-13.5956	-0.6714	1	252	151	5	1	2
-12.5885	-11.9171	-11.7493	-11.7493	-8.728	-4.5319	-10.2386	-5.0354	-3.3569	-6.2103	4.5319	-0.5035	-2.8534	-8.2245	-10.91	-6.8817	-13.7634	-1.3428	1	253	152	5	1	2
-12.9242	-11.9171	-12.085	-11.9171	-8.728	-4.8676	-10.4065	-4.8676	-3.3569	-6.2103	4.8676	-0.3357	-2.6855	-8.2245	-10.91	-7.0496	-13.5956	-1.6785	1	254	153	5	1	2
-13.4277	-12.085	-12.5885	-12.085	-8.5602	-5.2032	-10.5743	-4.6997	-3.6926	-6.0425	5.0354	-0.1678	-2.6855	-8.8959	-11.2457	-7.5531	-13.5956	-2.3499	1	255	154	5	1	2
-13.7634	-12.2528	-13.092	-12.2528	-8.2245	-5.3711	-10.7422	-4.5319	-3.6926	-6.0425	5.2032	0	-2.6855	-9.2316	-11.5814	-7.7209	-13.5956	-2.8534	1	256	155	5	1	2
-13.9313	-12.2528	-13.4277	-12.085	-7.8888	-5.7068	-10.91	-4.1962	-3.6926	-6.0425	5.3711	0	-2.5177	-9.5673	-11.9171	-8.0566	-13.4277	-3.5248	1	257	156	5	1	2
-14.0991	-12.4207	-13.5956	-12.085	-7.7209	-5.8746	-10.91	-4.1962	-3.8605	-6.2103	5.7068	0	-2.6855	-9.7351	-12.4207	-8.3923	-13.5956	-4.0283	1	258	157	5	1	2
-13.9313	-12.2528	-13.5956	-11.7493	-7.2174	-5.8746	-10.91	-3.6926	-3.8605	-6.0425	5.8746	0.3357	-2.8534	-9.5673	-12.7563	-8.5602	-13.4277	-4.364	1	259	158	5	1	2
-13.7634	-11.9171	-13.4277	-11.5814	-6.546	-5.8746	-10.91	-3.1891	-3.8605	-6.0425	6.2103	0.3357	-2.8534	-9.0637	-13.2599	-8.5602	-13.4277	-4.6997	1	260	159	5	1	2
-13.5956	-11.7493	-13.4277	-11.2457	-6.0425	-5.7068	-10.7422	-3.0212	-4.0283	-6.0425	6.3782	0.1678	-2.8534	-8.3923	-13.7634	-8.5602	-13.7634	-5.2032	1	261	160	5	1	2
-13.2599	-11.4136	-13.092	-10.91	-5.7068	-5.5389	-10.5743	-2.6855	-3.8605	-6.0425	6.546	0.5035	-3.0212	-7.7209	-14.267	-8.5602	-13.7634	-5.3711	1	262	161	5	1	2
-12.9242	-11.0779	-12.9242	-10.5743	-4.8676	-5.3711	-10.4065	-2.3499	-3.6926	-5.7068	7.0496	0.6714	-3.0212	-7.0496	-14.4348	-8.3923	-13.5956	-5.5389	1	263	162	5	1	2
-12.5885	-10.4065	-12.4207	-10.0708	-4.364	-5.0354	-10.0708	-1.6785	-3.6926	-5.5389	7.2174	0.6714	-3.0212	-6.8817	-14.6027	-8.2245	-13.5956	-5.7068	1	264	163	5	1	2
-12.2528	-10.0708	-12.085	-9.7351	-3.8605	-5.0354	-9.7351	-1.5106	-3.5248	-5.2032	7.5531	1.0071	-2.8534	-7.2174	-14.7705	-8.0566	-13.5956	-5.7068	1	265	164	5	1	2
-11.5814	-9.2316	-11.4136	-9.0637	-3.3569	-4.5319	-9.0637	-1.0071	-3.1891	-5.0354	7.8888	1.3428	-2.6855	-7.7209	-14.7705	-7.7209	-13.7634	-5.7068	1	266	165	5	1	2
-11.2457	-8.728	-10.91	-8.5602	-3.0212	-4.364	-8.728	-0.6714	-3.0212	-4.5319	8.2245	1.3428	-2.5177	-8.3923	-14.6027	-7.3853	-13.7634	-5.8746	1	267	166	5	1	2
-10.5743	-8.0566	-10.2386	-7.8888	-2.3499	-3.6926	-8.0566	-0.3357	-2.6855	-3.8605	8.728	2.0142	-1.8463	-8.728	-14.0991	-7.0496	-13.5956	-5.3711	1	268	167	5	1	2
-9.903	-7.2174	-9.3994	-7.2174	-1.8463	-3.3569	-7.3853	0.1678	-2.182	-3.1891	9.0637	2.5177	-1.3428	-9.0637	-13.5956	-6.7139	-13.2599	-5.3711	1	269	168	5	1	2
-9.2316	-6.546	-8.728	-6.546	-1.3428	-2.6855	-6.546	0.5035	-1.8463	-2.5177	9.7351	3.0212	-0.5035	-9.2316	-12.7563	-6.2103	-13.092	-4.8676	1	270	169	5	1	2
-8.3923	-5.8746	-7.8888	-5.7068	-0.8392	-2.0142	-5.7068	1.0071	-1.3428	-1.6785	10.0708	3.8605	0.3357	-9.3994	-11.9171	-5.7068	-12.5885	-4.5319	1	271	170	5	1	2
-7.5531	-4.8676	-6.8817	-4.8676	-0.3357	-1.5106	-4.8676	1.5106	-0.5035	-0.5035	10.7422	4.5319	1.5106	-9.2316	-10.7422	-5.2032	-11.7493	-3.8605	1	272	171	5	1	2
-6.7139	-4.0283	-6.0425	-4.1962	0.1678	-0.8392	-4.0283	1.8463	0	0.5035	11.2457	5.3711	2.5177	-9.0637	-9.3994	-4.6997	-11.2457	-3.5248	1	273	172	5	1	2
-6.0425	-3.3569	-5.2032	-3.3569	0.5035	-0.3357	-3.1891	2.0142	0.5035	1.3428	11.9171	6.0425	3.6926	-8.5602	-8.2245	-4.364	-10.5743	-3.3569	1	274	173	5	1	2
-5.2032	-2.3499	-4.1962	-2.5177	1.1749	0.3357	-2.3499	2.5177	1.0071	2.6855	12.4207	7.0496	5.0354	-7.5531	-6.8817	-3.8605	-9.7351	-2.6855	1	275	174	5	1	2
-4.1962	-1.1749	-3.0212	-1.5106	1.6785	1.1749	-1.1749	3.0212	1.8463	3.5248	12.9242	7.7209	6.2103	-6.2103	-5.3711	-3.3569	-8.8959	-2.182	1	276	175	5	1	2
-3.5248	-0.1678	-2.182	-0.6714	2.0142	1.8463	-0.5035	3.1891	2.6855	4.6997	13.5956	8.5602	7.3853	-4.6997	-4.1962	-3.1891	-8.0566	-2.0142	1	277	176	5	1	2
-2.6855	0.8392	-1.3428	0	2.8534	2.6855	0.5035	3.6926	3.3569	5.8746	14.267	9.3994	8.5602	-2.8534	-2.6855	-2.8534	-7.2174	-1.5106	1	278	177	5	1	2
-2.0142	2.182	-0.5035	0.6714	3.5248	3.3569	1.3428	4.364	4.0283	6.7139	14.6027	10.2386	9.903	-1.1749	-1.5106	-2.5177	-6.3782	-1.0071	1	279	178	5	1	2
-1.3428	3.5248	0.5035	1.3428	4.1962	4.1962	2.182	4.6997	4.8676	7.7209	15.274	11.0779	10.91	0.3357	-0.5035	-2.182	-5.3711	-0.6714	1	280	179	5	1	2
-0.6714	5.0354	1.3428	1.8463	5.0354	5.2032	2.8534	5.2032	5.7068	8.728	16.1133	12.085	12.085	1.6785	0.8392	-2.0142	-4.6997	-0.1678	1	281	180	5	1	2
-0.1678	6.2103	2.182	2.3499	6.0425	5.8746	3.5248	5.7068	6.546	9.5673	16.449	12.5885	13.2599	2.5177	1.6785	-1.8463	-4.1962	0.1678	1	282	181	5	1	2
0.3357	7.5531	2.6855	2.5177	6.7139	6.3782	3.8605	6.0425	7.0496	10.0708	17.1204	13.2599	13.9313	3.0212	2.5177	-1.8463	-3.5248	0.5035	1	283	182	5	1	2
1.0071	8.728	3.1891	2.6855	7.3853	6.8817	4.1962	6.7139	7.5531	10.7422	17.6239	13.5956	14.7705	3.1891	3.1891	-1.8463	-3.1891	0.8392	1	284	183	5	1	2
1.3428	9.903	3.5248	2.8534	8.0566	7.3853	4.364	7.2174	8.2245	10.91	17.9596	13.9313	15.1062	3.0212	3.5248	-1.8463	-2.8534	1.1749	1	285	184	5	1	2
1.6785	10.91	3.8605	2.6855	8.728	8.0566	4.6997	7.7209	8.5602	11.4136	18.4631	14.267	15.7776	2.8534	3.8605	-2.0142	-2.5177	1.6785	1	286	185	5	1	2
2.0142	11.9171	4.1962	2.8534	9.7351	8.5602	4.6997	8.3923	9.2316	11.5814	18.9667	14.6027	16.2811	2.8534	4.0283	-2.0142	-2.5177	2.182	1	287	186	5	1	2
2.5177	13.092	4.6997	2.6855	10.5743	9.2316	5.0354	9.0637	9.903	11.9171	19.6381	14.7705	16.6168	2.6855	4.1962	-1.8463	-2.3499	2.5177	1	288	187	5	1	2
2.8534	14.0991	5.0354	2.6855	11.5814	9.7351	5.2032	9.903	10.2386	12.2528	20.1416	15.1062	16.9525	2.182	4.0283	-1.8463	-2.0142	3.0212	1	289	188	5	1	2
3.1891	14.9384	5.3711	2.8534	12.5885	10.4065	5.3711	10.91	10.91	12.4207	20.813	15.4419	17.2882	2.182	4.1962	-1.6785	-1.8463	3.5248	1	290	189	5	1	2
3.5248	16.1133	5.8746	2.8534	13.5956	11.0779	5.5389	11.5814	11.5814	12.7563	21.4844	15.7776	17.7917	2.3499	4.364	-1.5106	-1.8463	4.1962	1	291	190	5	1	2
-3.1891	-1.6785	-3.5248	-5.7068	-2.3499	-5.0354	-3.8605	1.6785	-2.182	0.6714	3.3569	2.0142	7.2174	0.5035	18.2953	5.5389	15.4419	3.6926	1	231	130	6	1	2
-3.6926	-2.6855	-4.364	-6.2103	-3.3569	-5.8746	-4.6997	0.6714	-3.0212	-0.3357	2.3499	1.0071	6.7139	0.5035	17.9596	5.0354	15.6097	2.8534	1	232	131	6	1	2
-4.1962	-3.8605	-5.2032	-6.546	-4.5319	-6.546	-5.2032	-0.5035	-3.8605	-1.1749	1.1749	0.3357	5.7068	0	17.4561	4.364	15.274	1.8463	1	233	132	6	1	2
-5.0354	-5.0354	-6.3782	-7.2174	-6.0425	-7.5531	-5.8746	-1.8463	-5.0354	-2.0142	-0.1678	-0.8392	5.0354	-1.0071	16.9525	3.6926	15.1062	0.8392	1	234	133	6	1	2
-5.7068	-6.546	-7.2174	-7.7209	-7.2174	-8.3923	-6.2103	-3.1891	-5.8746	-2.6855	-1.5106	-1.6785	4.1962	-1.8463	16.2811	2.6855	14.6027	-0.1678	1	235	134	6	1	2
-6.3782	-7.7209	-8.0566	-8.2245	-8.5602	-9.2316	-6.7139	-4.6997	-6.8817	-3.3569	-3.0212	-2.8534	3.3569	-3.0212	15.4419	1.8463	14.267	-1.3428	1	236	135	6	1	2
-7.0496	-9.0637	-8.8959	-8.728	-9.903	-9.903	-6.8817	-6.0425	-7.8888	-3.8605	-4.364	-3.8605	2.5177	-4.364	14.7705	0.8392	13.9313	-2.3499	1	237	136	6	1	2
-8.0566	-10.4065	-9.903	-9.2316	-11.2457	-10.7422	-7.0496	-7.3853	-8.8959	-4.364	-5.8746	-4.8676	1.8463	-5.7068	13.9313	-0.1678	13.5956	-3.3569	1	238	137	6	1	2
-8.728	-11.9171	-11.0779	-9.903	-12.4207	-11.7493	-7.2174	-8.8959	-9.903	-4.8676	-7.0496	-5.8746	0.8392	-7.3853	13.092	-1.1749	12.9242	-4.364	1	239	138	6	1	2
-9.5673	-13.2599	-11.9171	-10.4065	-13.7634	-12.4207	-7.2174	-10.2386	-10.91	-5.3711	-8.2245	-6.8817	0.1678	-9.2316	12.4207	-2.3499	12.5885	-5.2032	1	240	139	6	1	2
-10.0708	-14.4348	-12.7563	-10.91	-14.7705	-13.092	-7.2174	-11.2457	-11.7493	-5.5389	-9.3994	-7.8888	-0.5035	-10.7422	11.4136	-3.1891	12.085	-5.8746	1	241	140	6	1	2
-10.7422	-15.274	-13.4277	-11.2457	-15.4419	-13.2599	-7.0496	-12.2528	-12.2528	-5.5389	-10.0708	-8.3923	-1.0071	-12.085	10.7422	-3.8605	11.7493	-6.2103	1	242	141	6	1	2
-11.4136	-16.2811	-13.9313	-11.5814	-16.2811	-13.7634	-6.7139	-13.2599	-12.9242	-5.5389	-11.0779	-9.0637	-1.5106	-12.9242	9.903	-4.6997	11.2457	-6.7139	1	243	142	6	1	2
-12.085	-17.1204	-14.7705	-11.9171	-17.1204	-14.4348	-6.546	-14.267	-13.7634	-5.7068	-11.9171	-9.7351	-2.0142	-13.9313	9.3994	-5.5389	10.91	-7.2174	1	244	143	6	1	2
-12.7563	-17.9596	-15.274	-12.085	-17.6239	-14.7705	-6.2103	-14.7705	-14.0991	-5.5389	-12.4207	-10.2386	-2.3499	-14.4348	8.728	-6.0425	10.5743	-7.2174	1	245	144	6	1	2
-13.092	-18.4631	-15.6097	-12.085	-17.9596	-14.7705	-5.5389	-15.274	-14.267	-5.3711	-12.5885	-10.2386	-2.3499	-14.6027	8.3923	-6.3782	10.2386	-6.8817	1	246	145	6	1	2
-13.4277	-18.9667	-15.9454	-12.085	-18.2953	-14.9384	-5.3711	-15.4419	-14.6027	-5.0354	-12.9242	-10.4065	-2.5177	-14.9384	8.3923	-6.546	9.903	-6.7139	1	247	146	6	1	2
-13.9313	-19.3024	-16.1133	-12.2528	-18.4631	-14.9384	-4.6997	-15.6097	-14.6027	-4.8676	-12.9242	-10.2386	-2.3499	-15.6097	8.2245	-6.7139	9.7351	-6.2103	1	248	147	6	1	2
-13.9313	-19.3024	-16.1133	-11.7493	-18.2953	-14.7705	-4.0283	-15.4419	-14.0991	-4.1962	-12.5885	-9.903	-2.0142	-15.9454	8.3923	-6.546	9.7351	-5.3711	1	249	148	6	1	2
-14.0991	-19.4702	-15.9454	-11.4136	-18.1274	-14.6027	-3.3569	-15.274	-13.9313	-3.6926	-12.2528	-9.3994	-1.6785	-16.7847	8.3923	-6.3782	9.3994	-4.5319	1	250	149	6	1	2
-13.9313	-19.1345	-15.4419	-10.91	-17.4561	-13.9313	-2.5177	-14.6027	-13.4277	-3.0212	-11.5814	-8.728	-1.0071	-17.2882	8.728	-5.8746	9.3994	-3.3569	1	251	150	6	1	2
-13.5956	-18.9667	-15.1062	-10.2386	-16.9525	-13.4277	-1.8463	-14.0991	-12.7563	-2.3499	-11.0779	-7.8888	-0.5035	-17.9596	9.0637	-5.3711	9.2316	-2.3499	1	252	151	6	1	2
-13.2599	-18.631	-14.4348	-9.5673	-16.449	-12.9242	-1.0071	-13.4277	-12.085	-1.6785	-10.2386	-7.2174	0.1678	-18.4631	9.5673	-4.8676	9.3994	-1.3428	1	253	152	6	1	2
-12.9242	-18.2953	-13.7634	-9.0637	-15.7776	-12.2528	-0.3357	-12.7563	-11.5814	-1.3428	-9.7351	-6.546	0.8392	-19.1345	10.0708	-4.5319	9.3994	-0.3357	1	254	153	6	1	2
-12.5885	-18.1274	-13.2599	-8.3923	-15.274	-11.9171	0	-12.2528	-10.91	-1.0071	-9.3994	-6.0425	1.1749	-19.6381	10.2386	-4.1962	9.3994	0.1678	1	255	154	6	1	2
-11.9171	-17.7917	-12.5885	-7.7209	-14.7705	-11.4136	0.3357	-11.5814	-10.2386	-0.6714	-8.728	-5.3711	1.5106	-20.1416	10.4065	-3.6926	9.5673	0.6714	1	256	155	6	1	2
-11.5814	-17.6239	-12.085	-7.2174	-14.4348	-11.0779	0.5035	-11.2457	-9.903	-0.6714	-8.3923	-4.8676	1.8463	-20.4773	10.5743	-3.6926	9.7351	1.0071	1	257	156	6	1	2
-11.0779	-17.2882	-11.4136	-6.7139	-14.0991	-10.7422	0.3357	-10.5743	-9.3994	-0.8392	-8.0566	-4.364	1.6785	-20.3094	10.5743	-3.3569	9.5673	1.1749	1	258	157	6	1	2
-10.7422	-17.2882	-11.2457	-6.7139	-13.9313	-10.7422	0	-10.4065	-9.2316	-1.1749	-8.0566	-4.364	1.5106	-19.9738	10.0708	-3.3569	9.0637	1.1749	1	259	158	6	1	2
-10.5743	-17.2882	-11.0779	-6.546	-13.9313	-10.91	-0.6714	-10.4065	-9.3994	-1.8463	-8.2245	-4.5319	1.1749	-19.1345	9.903	-3.3569	8.8959	0.8392	1	260	159	6	1	2
-10.0708	-17.1204	-10.7422	-6.3782	-13.9313	-10.91	-1.3428	-10.2386	-9.3994	-2.5177	-8.2245	-4.5319	0.6714	-17.9596	9.3994	-3.5248	8.728	0.5035	1	261	160	6	1	2
-9.903	-16.9525	-10.91	-6.546	-14.267	-11.2457	-2.3499	-10.4065	-9.7351	-3.5248	-8.728	-4.8676	-0.1678	-16.2811	9.0637	-3.6926	8.2245	0.1678	1	262	161	6	1	2
-9.7351	-16.7847	-10.91	-6.8817	-14.4348	-11.5814	-3.3569	-10.5743	-9.903	-4.6997	-9.0637	-5.2032	-0.8392	-14.6027	8.5602	-3.6926	8.0566	-0.5035	1	263	162	6	1	2
-9.7351	-16.7847	-11.0779	-7.2174	-14.7705	-12.2528	-4.5319	-10.91	-10.4065	-6.0425	-9.5673	-5.7068	-1.8463	-13.092	8.0566	-3.8605	7.5531	-1.1749	1	264	163	6	1	2
-9.7351	-16.7847	-11.4136	-7.5531	-15.4419	-12.7563	-6.0425	-11.4136	-11.0779	-7.3853	-10.2386	-6.3782	-2.8534	-12.085	7.5531	-4.1962	7.2174	-1.8463	1	265	164	6	1	2
-9.7351	-16.7847	-11.9171	-8.0566	-15.9454	-13.4277	-7.3853	-11.9171	-11.7493	-8.8959	-10.91	-7.2174	-4.0283	-11.5814	6.8817	-4.6997	6.7139	-2.6855	1	266	165	6	1	2
-10.0708	-16.9525	-12.4207	-8.5602	-16.6168	-14.267	-8.8959	-12.4207	-12.4207	-10.4065	-11.7493	-8.0566	-5.2032	-11.7493	6.2103	-5.2032	6.2103	-3.6926	1	267	166	6	1	2
-10.2386	-17.2882	-13.092	-9.0637	-17.4561	-14.9384	-10.4065	-13.092	-13.2599	-12.085	-12.7563	-8.8959	-6.3782	-11.9171	5.2032	-5.8746	5.7068	-4.8676	1	268	167	6	1	2
-10.4065	-17.4561	-13.7634	-9.7351	-18.2953	-15.7776	-11.9171	-13.7634	-14.0991	-13.5956	-13.7634	-9.7351	-7.7209	-12.4207	4.5319	-6.546	5.0354	-6.0425	1	269	168	6	1	2
-10.91	-17.9596	-14.6027	-10.7422	-19.3024	-16.7847	-13.7634	-14.6027	-15.1062	-15.274	-14.9384	-10.91	-9.2316	-13.4277	3.5248	-7.5531	4.364	-7.3853	1	270	169	6	1	2
-11.2457	-18.2953	-15.274	-11.2457	-20.4773	-17.7917	-15.1062	-15.4419	-16.2811	-16.7847	-16.1133	-11.9171	-10.5743	-14.267	2.6855	-8.5602	3.6926	-8.728	1	271	170	6	1	2
-11.7493	-18.631	-16.1133	-11.9171	-21.3165	-18.631	-16.449	-16.2811	-17.1204	-18.1274	-17.2882	-12.9242	-11.7493	-14.9384	1.8463	-9.3994	3.1891	-10.0708	1	272	171	6	1	2
-12.085	-19.1345	-16.7847	-12.4207	-22.3236	-19.4702	-17.4561	-17.1204	-18.1274	-19.3024	-18.4631	-13.9313	-12.9242	-15.7776	1.1749	-10.4065	2.3499	-11.4136	1	273	172	6	1	2
-12.4207	-19.4702	-17.4561	-12.7563	-22.995	-20.1416	-18.2953	-17.7917	-18.7988	-20.1416	-19.4702	-14.7705	-13.5956	-16.1133	0.8392	-11.4136	2.182	-12.5885	1	274	173	6	1	2
-12.5885	-19.8059	-17.7917	-12.7563	-23.6664	-20.4773	-18.631	-18.1274	-19.3024	-20.6451	-20.1416	-15.274	-14.0991	-15.9454	0.8392	-12.085	2.182	-13.4277	1	275	174	6	1	2
-12.7563	-19.9738	-18.1274	-12.7563	-24.1699	-20.813	-18.7988	-18.631	-19.6381	-20.813	-20.813	-15.7776	-14.4348	-15.274	0.8392	-12.7563	2.182	-14.267	1	276	175	6	1	2
-13.092	-20.3094	-18.631	-12.7563	-24.6735	-21.1487	-18.7988	-18.9667	-19.9738	-20.9808	-21.4844	-16.2811	-14.6027	-14.267	1.0071	-13.5956	2.182	-15.1062	1	277	176	6	1	2
-13.4277	-20.6451	-18.9667	-12.5885	-25.177	-21.4844	-18.631	-19.3024	-20.3094	-20.813	-22.1558	-16.7847	-14.6027	-12.9242	1.3428	-14.267	2.5177	-15.9454	1	278	177	6	1	2
-13.4277	-20.813	-19.1345	-12.085	-25.3448	-21.3165	-17.9596	-19.4702	-20.3094	-20.3094	-22.6593	-16.9525	-14.267	-11.4136	1.6785	-14.9384	2.8534	-16.6168	1	279	178	6	1	2
-13.5956	-20.813	-19.3024	-11.5814	-25.6805	-21.4844	-17.4561	-19.6381	-20.4773	-19.6381	-23.1628	-17.2882	-13.9313	-10.0708	2.3499	-15.4419	3.1891	-17.1204	1	280	179	6	1	2
-13.7634	-20.813	-19.3024	-10.91	-25.6805	-21.3165	-16.449	-19.6381	-20.3094	-18.7988	-23.4985	-17.2882	-13.5956	-9.0637	2.8534	-15.9454	3.6926	-17.6239	1	281	180	6	1	2
-13.5956	-20.6451	-19.1345	-10.2386	-25.6805	-20.9808	-15.4419	-19.8059	-20.1416	-17.7917	-23.6664	-17.2882	-12.7563	-8.5602	3.5248	-16.449	4.1962	-18.1274	1	282	181	6	1	2
-13.4277	-20.4773	-18.9667	-9.5673	-25.5127	-20.6451	-14.267	-19.6381	-19.8059	-16.6168	-23.8342	-17.2882	-12.085	-8.3923	4.0283	-16.7847	4.5319	-18.4631	1	283	182	6	1	2
-13.2599	-20.3094	-18.7988	-8.5602	-25.3448	-20.4773	-13.092	-19.4702	-19.6381	-15.1062	-23.8342	-16.9525	-11.2457	-8.5602	4.8676	-16.9525	5.2032	-18.631	1	284	183	6	1	2
-12.7563	-20.1416	-18.1274	-7.7209	-25.3448	-19.8059	-11.4136	-19.3024	-18.9667	-13.4277	-23.6664	-16.6168	-10.0708	-8.728	5.7068	-17.1204	5.7068	-18.631	1	285	184	6	1	2
-12.2528	-19.4702	-17.4561	-6.3782	-24.6735	-18.9667	-9.5673	-18.7988	-18.2953	-11.5814	-23.3307	-16.1133	-8.8959	-8.728	6.546	-16.9525	6.7139	-18.4631	1	286	185	6	1	2
-11.5814	-18.9667	-16.6168	-5.2032	-24.0021	-18.1274	-7.5531	-18.1274	-17.2882	-9.3994	-22.6593	-15.274	-7.2174	-8.8959	7.3853	-16.6168	7.5531	-17.9596	1	287	186	6	1	2
-10.7422	-18.4631	-15.9454	-3.6926	-23.4985	-17.1204	-5.5389	-17.6239	-16.449	-7.2174	-21.8201	-14.4348	-5.5389	-9.2316	8.728	-16.2811	8.5602	-17.2882	1	288	187	6	1	2
-9.7351	-17.7917	-14.7705	-2.0142	-22.4915	-15.9454	-3.1891	-16.6168	-15.1062	-4.6997	-20.9808	-13.2599	-3.8605	-9.7351	9.7351	-15.9454	9.7351	-16.6168	1	289	188	6	1	2
-8.5602	-17.1204	-13.4277	-0.5035	-21.6522	-14.6027	-1.0071	-15.7776	-13.9313	-2.3499	-19.9738	-12.085	-1.8463	-10.0708	10.91	-15.274	10.91	-15.7776	1	290	189	6	1	2
-7.5531	-16.2811	-12.4207	1.1749	-20.813	-13.4277	1.3428	-14.9384	-12.7563	0.1678	-18.9667	-10.91	0	-10.7422	12.2528	-14.6027	12.085	-14.9384	1	291	190	6	1	2
18.2953	14.0991	24.8413	20.9808	28.5339	31.3873	24.5056	22.3236	35.2478	27.1912	31.2195	29.0375	24.6735	20.9808	14.267	11.9171	13.7634	14.267	1	231	130	7	1	2
17.9596	13.7634	24.5056	20.813	27.8625	31.0516	23.6664	21.6522	34.7443	25.8484	30.2124	28.3661	23.6664	20.813	12.9242	11.4136	12.5885	13.4277	1	232	131	7	1	2
17.6239	13.4277	24.1699	20.813	27.359	30.7159	22.995	20.9808	34.4086	25.0092	29.2053	27.6947	22.4915	20.4773	11.9171	10.7422	11.5814	12.9242	1	233	132	7	1	2
17.4561	13.4277	24.1699	20.9808	26.8555	30.3802	22.3236	20.6451	34.0729	24.0021	28.3661	27.1912	21.6522	19.9738	10.91	10.2386	10.7422	12.2528	1	234	133	7	1	2
17.2882	13.092	24.0021	20.9808	26.1841	30.2124	21.9879	20.1416	33.905	23.1628	27.6947	26.8555	20.9808	19.3024	10.0708	9.7351	9.903	11.7493	1	235	134	7	1	2
17.2882	13.2599	24.1699	21.3165	26.0162	30.5481	21.9879	19.9738	34.0729	22.8271	27.5269	26.8555	20.813	18.7988	9.3994	9.3994	9.3994	11.5814	1	236	135	7	1	2
17.2882	13.092	24.1699	21.6522	25.6805	30.7159	21.6522	19.6381	34.4086	22.3236	27.1912	26.8555	20.4773	17.9596	9.0637	9.2316	8.728	11.2457	1	237	136	7	1	2
17.6239	13.4277	24.8413	22.1558	25.6805	31.0516	21.9879	19.8059	34.9121	22.6593	27.1912	27.359	20.813	17.4561	9.0637	9.3994	8.5602	11.4136	1	238	137	7	1	2
17.7917	13.4277	25.0092	22.6593	25.5127	31.5552	21.9879	19.8059	35.2478	22.6593	27.359	27.6947	20.9808	16.7847	9.2316	9.3994	8.3923	11.5814	1	239	138	7	1	2
18.2953	13.5956	25.5127	22.995	25.8484	32.2266	22.4915	19.9738	35.9192	22.995	27.6947	28.3661	21.4844	16.1133	9.903	9.5673	8.3923	11.9171	1	240	139	7	1	2
18.631	14.0991	26.1841	23.6664	26.0162	32.7301	22.995	20.4773	36.5906	23.4985	28.1982	29.2053	22.1558	15.6097	10.4065	9.903	8.5602	12.5885	1	241	140	7	1	2
18.9667	14.4348	26.8555	24.1699	26.1841	33.4015	23.4985	20.6451	37.262	24.0021	28.7018	29.8767	23.1628	15.274	11.0779	10.4065	9.0637	13.092	1	242	141	7	1	2
19.4702	14.7705	27.359	24.5056	26.3519	33.7372	23.8342	20.9808	37.9333	24.6735	29.0375	30.5481	23.8342	15.1062	11.7493	10.7422	9.2316	13.5956	1	243	142	7	1	2
19.4702	14.7705	27.5269	24.5056	26.3519	34.2407	24.1699	20.9808	38.1012	25.0092	29.2053	30.7159	24.3378	15.274	12.085	10.91	9.2316	13.7634	1	244	143	7	1	2
19.8059	15.1062	27.8625	24.8413	26.3519	34.4086	24.3378	20.9808	38.269	25.5127	29.2053	31.0516	24.6735	15.4419	12.5885	11.2457	9.3994	13.9313	1	245	144	7	1	2
19.6381	14.9384	27.8625	24.6735	26.0162	34.2407	24.3378	20.6451	38.1012	25.5127	29.0375	31.0516	24.8413	15.7776	12.5885	11.2457	9.2316	13.7634	1	246	145	7	1	2
19.6381	14.9384	27.8625	24.5056	25.8484	34.0729	24.3378	20.3094	37.9333	25.6805	28.7018	30.8838	25.177	16.1133	12.7563	11.2457	9.2316	13.7634	1	247	146	7	1	2
19.4702	14.7705	27.6947	24.3378	25.3448	33.7372	24.1699	20.1416	37.5977	25.8484	28.3661	30.8838	25.177	15.9454	12.7563	11.4136	9.2316	13.5956	1	248	147	7	1	2
19.3024	14.4348	27.359	23.8342	24.8413	33.2336	23.8342	19.3024	36.9263	25.6805	27.8625	30.3802	25.0092	15.7776	12.7563	11.2457	8.8959	13.092	1	249	148	7	1	2
18.631	13.9313	26.8555	23.3307	24.1699	32.3944	23.3307	18.631	36.2549	25.3448	27.0233	29.7089	24.6735	15.274	12.4207	11.0779	8.728	12.5885	1	250	149	7	1	2
17.7917	13.2599	25.8484	22.3236	23.1628	31.3873	22.4915	17.7917	35.08	24.6735	26.0162	28.7018	24.0021	14.4348	12.085	10.5743	8.0566	11.9171	1	251	150	7	1	2
17.1204	12.4207	24.8413	21.3165	22.3236	30.2124	21.4844	16.6168	33.905	24.0021	24.8413	27.6947	23.3307	13.4277	11.5814	10.2386	7.7209	11.0779	1	252	151	7	1	2
15.9454	11.5814	23.8342	19.9738	21.1487	28.7018	20.3094	15.6097	32.3944	22.8271	23.3307	26.5198	22.3236	12.2528	10.7422	9.3994	6.8817	10.0708	1	253	152	7	1	2
14.7705	10.4065	22.3236	18.631	19.8059	27.1912	18.9667	14.267	30.8838	21.8201	21.9879	25.3448	21.4844	10.91	10.2386	8.728	6.2103	9.0637	1	254	153	7	1	2
13.5956	9.5673	20.9808	16.9525	18.4631	25.6805	17.4561	12.9242	29.3732	20.6451	20.6451	24.1699	20.3094	9.3994	9.5673	8.0566	5.3711	8.3923	1	255	154	7	1	2
12.085	8.0566	19.3024	15.274	17.1204	24.0021	15.7776	11.5814	27.6947	19.1345	19.3024	22.6593	19.3024	7.5531	8.8959	7.0496	4.6997	7.3853	1	256	155	7	1	2
10.5743	6.8817	17.7917	13.4277	15.7776	22.3236	13.9313	10.2386	26.0162	17.6239	17.7917	21.3165	17.9596	6.0425	8.2245	6.3782	3.8605	6.3782	1	257	156	7	1	2
8.8959	5.5389	15.9454	11.5814	14.4348	20.6451	12.085	8.8959	24.5056	16.1133	16.6168	20.1416	16.7847	4.6997	7.7209	5.5389	3.1891	5.8746	1	258	157	7	1	2
7.3853	4.364	14.4348	9.7351	13.092	18.9667	10.2386	7.7209	22.995	14.6027	15.274	18.9667	15.6097	3.3569	7.2174	4.5319	2.5177	5.0354	1	259	158	7	1	2
5.8746	3.0212	12.7563	7.8888	11.9171	17.4561	8.2245	6.3782	21.4844	12.9242	14.0991	17.9596	14.4348	2.6855	6.8817	3.8605	1.6785	4.5319	1	260	159	7	1	2
4.364	2.0142	11.2457	6.0425	10.7422	15.7776	6.3782	5.3711	20.1416	11.4136	12.9242	16.7847	13.092	2.3499	6.3782	3.0212	1.0071	3.8605	1	261	160	7	1	2
2.8534	0.8392	9.5673	4.0283	9.903	14.4348	4.364	4.1962	18.9667	9.7351	11.9171	15.7776	12.085	2.182	6.2103	2.182	0.5035	3.3569	1	262	161	7	1	2
1.6785	-0.1678	8.2245	2.3499	8.728	13.2599	2.3499	3.0212	17.7917	8.0566	10.91	14.7705	10.91	2.3499	5.7068	1.1749	-0.3357	2.6855	1	263	162	7	1	2
0.3357	-1.0071	7.0496	0.8392	7.8888	11.9171	0.6714	2.182	16.6168	6.2103	10.0708	13.9313	9.7351	2.5177	5.5389	0.6714	-0.8392	2.3499	1	264	163	7	1	2
-1.0071	-1.6785	5.7068	-1.0071	7.0496	10.7422	-1.0071	1.3428	15.4419	4.8676	9.0637	12.9242	8.5602	2.5177	5.2032	0	-1.3428	1.6785	1	265	164	7	1	2
-1.8463	-2.182	5.0354	-2.0142	6.546	9.903	-2.5177	0.8392	14.9384	3.5248	8.3923	12.5885	7.8888	2.6855	5.3711	-0.5035	-1.6785	1.5106	1	266	165	7	1	2
-2.5177	-2.5177	4.0283	-3.3569	6.3782	9.0637	-3.8605	0.1678	14.267	2.3499	8.2245	11.9171	7.0496	2.5177	5.2032	-0.8392	-2.182	1.3428	1	267	166	7	1	2
-3.3569	-2.8534	3.1891	-4.5319	5.8746	8.3923	-5.2032	-0.1678	13.5956	1.1749	7.8888	11.5814	6.2103	1.8463	5.0354	-1.0071	-2.6855	1.1749	1	268	167	7	1	2
-3.8605	-2.8534	2.8534	-5.5389	5.8746	7.8888	-6.3782	-0.5035	13.092	0.1678	7.7209	11.4136	5.5389	1.3428	4.8676	-1.1749	-3.0212	1.3428	1	269	168	7	1	2
-4.5319	-3.0212	2.5177	-6.3782	5.5389	7.7209	-7.3853	-0.6714	12.7563	-0.8392	7.7209	11.2457	4.8676	0.5035	4.6997	-1.3428	-3.6926	1.5106	1	270	169	7	1	2
-4.8676	-2.8534	2.182	-7.0496	5.7068	7.5531	-8.2245	-0.6714	12.5885	-1.6785	7.8888	11.2457	4.364	-0.6714	4.5319	-1.3428	-4.0283	1.6785	1	271	170	7	1	2
-4.6997	-2.5177	2.182	-7.3853	6.0425	7.2174	-8.5602	-0.5035	12.7563	-2.0142	8.3923	11.4136	4.0283	-1.5106	4.1962	-1.0071	-4.364	2.182	1	272	171	7	1	2
-5.0354	-2.5177	2.3499	-7.7209	6.0425	7.3853	-8.8959	-0.3357	12.7563	-2.5177	8.8959	11.4136	3.6926	-2.6855	4.1962	-1.0071	-4.6997	2.3499	1	273	172	7	1	2
-4.8676	-2.182	2.6855	-7.7209	6.546	7.7209	-9.0637	0	12.9242	-2.5177	9.3994	11.7493	3.6926	-3.6926	4.1962	-0.8392	-4.8676	2.6855	1	274	173	7	1	2
-4.6997	-1.5106	2.8534	-7.7209	6.8817	7.8888	-8.728	0.5035	13.092	-2.5177	9.903	11.9171	3.8605	-4.364	4.0283	-0.6714	-5.0354	2.8534	1	275	174	7	1	2
-4.364	-1.0071	3.3569	-7.3853	7.5531	8.3923	-8.2245	0.8392	13.4277	-2.3499	10.2386	12.2528	3.8605	-5.0354	4.1962	-0.5035	-5.0354	3.0212	1	276	175	7	1	2
-3.8605	-0.3357	3.6926	-7.2174	8.0566	8.5602	-7.8888	1.0071	13.7634	-2.0142	10.7422	12.5885	4.0283	-5.3711	4.0283	-0.5035	-5.2032	3.0212	1	277	176	7	1	2
-3.6926	0.1678	4.364	-6.7139	8.3923	9.2316	-7.0496	1.3428	14.0991	-1.5106	11.4136	13.092	4.364	-5.7068	4.364	-0.6714	-5.2032	2.8534	1	278	177	7	1	2
-3.3569	1.0071	4.8676	-6.2103	8.8959	9.903	-6.0425	1.8463	14.6027	-0.8392	11.9171	13.2599	4.8676	-5.7068	4.6997	-0.6714	-5.3711	2.8534	1	279	178	7	1	2
-2.8534	1.8463	5.3711	-5.3711	9.5673	10.4065	-5.0354	2.3499	15.1062	0	12.5885	13.7634	5.7068	-6.0425	5.0354	-0.6714	-5.2032	2.6855	1	280	179	7	1	2
-2.5177	2.5177	5.8746	-4.6997	10.2386	11.0779	-3.6926	2.8534	15.7776	1.1749	13.2599	14.267	6.546	-6.546	5.7068	-0.6714	-4.8676	2.6855	1	281	180	7	1	2
-2.0142	3.5248	6.546	-3.5248	11.0779	11.7493	-2.0142	3.6926	16.449	2.5177	13.7634	14.9384	7.3853	-7.2174	6.2103	-0.5035	-4.364	2.5177	1	282	181	7	1	2
-1.6785	4.0283	7.2174	-2.5177	11.5814	12.5885	-0.5035	4.1962	17.2882	3.6926	14.6027	15.6097	8.728	-8.3923	7.2174	-0.5035	-3.8605	2.5177	1	283	182	7	1	2
-1.0071	4.8676	7.7209	-1.3428	12.4207	13.2599	1.1749	4.8676	17.9596	5.2032	15.4419	16.2811	9.903	-9.3994	8.2245	-0.5035	-3.0212	2.5177	1	284	183	7	1	2
-0.6714	5.7068	8.2245	-0.1678	13.092	14.0991	3.0212	5.7068	18.7988	6.8817	16.1133	16.9525	11.0779	-10.4065	9.2316	-0.3357	-2.182	2.5177	1	285	184	7	1	2
-0.1678	6.7139	8.728	1.0071	13.7634	14.7705	4.6997	6.546	19.4702	8.5602	16.7847	17.6239	12.5885	-11.2457	10.2386	-0.1678	-1.1749	2.6855	1	286	185	7	1	2
0.3357	7.3853	9.2316	2.182	14.267	15.4419	6.546	7.0496	20.1416	10.0708	17.2882	18.1274	13.7634	-11.9171	11.0779	-0.1678	-0.3357	2.6855	1	287	186	7	1	2
1.0071	8.2245	9.903	3.5248	15.1062	16.449	8.2245	7.8888	21.1487	11.9171	18.1274	19.1345	15.1062	-12.2528	12.2528	0.1678	0.6714	3.1891	1	288	187	7	1	2
1.3428	8.5602	10.2386	4.5319	15.4419	16.9525	9.7351	8.5602	21.6522	13.2599	18.631	19.4702	16.1133	-12.7563	12.9242	0.3357	1.1749	3.0212	1	289	188	7	1	2
1.8463	9.2316	10.7422	5.7068	15.9454	17.6239	11.2457	9.0637	22.3236	14.6027	19.1345	19.9738	16.9525	-12.9242	13.4277	0.6714	2.0142	3.3569	1	290	189	7	1	2
2.3499	9.7351	11.0779	6.8817	16.449	18.1274	12.7563	9.7351	23.1628	15.9454	19.8059	20.3094	17.9596	-12.9242	14.0991	0.8392	2.8534	3.5248	1	291	190	7	1	2
-1.0071	-0.1678	0.3357	-4.1962	6.3782	-0.3357	-0.3357	18.631	2.6855	0.8392	9.7351	2.8534	3.3569	-1.6785	2.0142	8.728	-1.1749	14.0991	1	231	130	8	1	2
-2.3499	-1.6785	-1.1749	-5.0354	5.0354	-1.6785	-0.8392	17.4561	1.1749	0.6714	8.728	1.8463	3.3569	-1.8463	3.5248	7.8888	-0.5035	13.4277	1	232	131	8	1	2
-3.5248	-2.8534	-2.5177	-5.8746	3.6926	-3.3569	-1.5106	16.6168	-0.3357	0.3357	7.5531	0.6714	3.1891	-2.182	4.6997	7.0496	0.1678	12.9242	1	233	132	8	1	2
-4.5319	-4.364	-3.8605	-6.3782	2.6855	-4.5319	-1.8463	15.6097	-1.6785	0	6.7139	-0.1678	3.1891	-2.8534	5.8746	6.3782	1.0071	12.2528	1	234	133	8	1	2
-5.3711	-5.3711	-4.8676	-6.8817	1.6785	-5.8746	-2.182	14.7705	-2.8534	-0.1678	5.7068	-1.1749	3.0212	-3.8605	6.7139	5.5389	1.3428	11.5814	1	235	134	8	1	2
-6.546	-6.8817	-6.3782	-7.5531	0.3357	-7.2174	-2.8534	13.9313	-4.364	-0.8392	4.8676	-2.3499	2.6855	-5.0354	7.5531	4.6997	1.6785	10.91	1	236	135	8	1	2
-7.7209	-8.2245	-7.7209	-8.2245	-0.6714	-8.728	-3.5248	12.9242	-5.7068	-1.3428	3.8605	-3.3569	2.182	-6.546	7.7209	4.0283	1.6785	10.2386	1	237	136	8	1	2
-8.3923	-9.0637	-8.5602	-8.5602	-1.5106	-9.7351	-3.8605	12.085	-7.0496	-1.6785	2.8534	-4.1962	1.8463	-7.8888	7.5531	3.3569	1.8463	9.3994	1	238	137	8	1	2
-9.3994	-10.2386	-9.903	-9.2316	-2.6855	-11.0779	-4.5319	11.0779	-8.2245	-2.5177	2.0142	-5.5389	1.0071	-9.3994	7.5531	2.5177	1.6785	8.5602	1	239	138	8	1	2
-9.903	-11.2457	-10.91	-9.5673	-3.3569	-12.085	-4.8676	10.2386	-9.3994	-3.0212	1.1749	-6.546	0.5035	-10.7422	7.0496	1.8463	1.5106	7.5531	1	240	139	8	1	2
-10.7422	-12.085	-12.085	-9.903	-4.0283	-12.9242	-5.3711	9.5673	-10.5743	-3.3569	0.5035	-7.2174	-0.1678	-11.9171	6.8817	1.3428	1.1749	7.2174	1	241	140	8	1	2
-11.0779	-12.7563	-12.7563	-10.2386	-4.5319	-13.5956	-5.5389	8.728	-11.2457	-3.8605	0	-7.8888	-0.5035	-13.092	6.2103	1.0071	1.1749	6.3782	1	242	141	8	1	2
-11.4136	-13.2599	-13.4277	-10.2386	-5.0354	-14.4348	-5.7068	8.3923	-11.9171	-4.0283	-0.5035	-8.5602	-1.0071	-13.7634	5.8746	0.6714	0.8392	6.0425	1	243	142	8	1	2
-11.5814	-13.4277	-13.9313	-10.4065	-5.0354	-14.6027	-5.7068	8.0566	-12.4207	-4.1962	-0.6714	-8.8959	-1.1749	-14.267	5.3711	0.8392	0.6714	5.7068	1	244	143	8	1	2
-11.9171	-13.7634	-14.4348	-10.2386	-5.3711	-15.1062	-5.7068	7.8888	-12.7563	-4.364	-1.0071	-9.0637	-1.5106	-14.7705	4.8676	0.8392	0.6714	5.7068	1	245	144	8	1	2
-11.9171	-13.5956	-14.6027	-10.2386	-5.2032	-15.274	-5.7068	7.7209	-12.9242	-4.364	-0.8392	-9.0637	-1.5106	-14.9384	4.5319	0.8392	0.5035	5.7068	1	246	145	8	1	2
-11.9171	-13.4277	-14.7705	-10.0708	-5.0354	-15.274	-5.3711	7.7209	-12.7563	-4.1962	-0.6714	-8.728	-1.3428	-15.274	4.364	1.1749	0.3357	5.8746	1	247	146	8	1	2
-11.7493	-13.2599	-14.6027	-9.903	-5.0354	-15.1062	-5.0354	7.8888	-12.4207	-3.8605	-0.5035	-8.5602	-1.1749	-15.9454	4.0283	1.5106	0.3357	6.0425	1	248	147	8	1	2
-11.7493	-12.9242	-14.7705	-9.5673	-4.6997	-14.7705	-4.5319	8.0566	-12.2528	-3.5248	-0.3357	-8.0566	-0.8392	-16.7847	3.6926	1.8463	0.1678	6.2103	1	249	148	8	1	2
-11.4136	-12.4207	-14.4348	-9.3994	-4.364	-14.4348	-4.0283	8.3923	-11.7493	-3.0212	0	-7.7209	-0.5035	-17.7917	3.5248	2.182	0.1678	6.2103	1	250	149	8	1	2
-11.0779	-12.085	-14.267	-8.8959	-4.1962	-14.0991	-3.6926	8.8959	-11.2457	-2.5177	0.1678	-7.2174	0	-18.7988	3.3569	2.182	0	6.3782	1	251	150	8	1	2
-10.7422	-11.4136	-13.7634	-8.5602	-3.6926	-13.5956	-3.0212	9.0637	-10.5743	-2.0142	0.5035	-6.3782	0.5035	-19.4702	3.3569	2.3499	0.3357	6.3782	1	252	151	8	1	2
-10.4065	-11.2457	-13.4277	-8.3923	-3.3569	-12.9242	-2.6855	9.3994	-9.903	-1.5106	0.5035	-5.7068	0.8392	-20.1416	3.3569	2.5177	0.3357	6.3782	1	253	152	8	1	2
-9.903	-10.7422	-12.9242	-7.8888	-3.1891	-12.5885	-2.182	9.3994	-9.5673	-1.0071	0.6714	-5.0354	1.3428	-20.6451	3.3569	2.3499	0.1678	5.8746	1	254	153	8	1	2
-9.5673	-10.4065	-12.4207	-7.5531	-2.8534	-11.9171	-1.5106	9.7351	-8.728	-0.5035	0.5035	-4.1962	2.182	-21.1487	3.3569	2.0142	0.5035	5.5389	1	255	154	8	1	2
-9.0637	-10.0708	-11.9171	-7.0496	-2.6855	-11.4136	-1.0071	10.0708	-7.8888	0.1678	0.5035	-3.6926	2.8534	-21.6522	3.6926	1.8463	0.6714	4.8676	1	256	155	8	1	2
-8.5602	-9.5673	-11.2457	-6.7139	-2.3499	-10.7422	-0.3357	10.0708	-7.2174	0.8392	0.5035	-2.8534	3.5248	-21.9879	4.0283	1.6785	0.8392	4.364	1	257	156	8	1	2
-8.0566	-9.2316	-10.7422	-6.3782	-2.182	-10.0708	0.1678	10.4065	-6.546	1.3428	0.5035	-2.0142	4.1962	-22.1558	4.364	1.3428	0.8392	3.6926	1	258	157	8	1	2
-7.3853	-8.728	-9.903	-5.5389	-1.5106	-9.0637	1.0071	10.5743	-5.5389	2.3499	0.6714	-1.0071	5.2032	-21.9879	5.0354	1.0071	1.3428	3.1891	1	259	158	8	1	2
-6.8817	-8.0566	-8.8959	-4.8676	-1.1749	-8.3923	1.6785	10.91	-4.6997	3.0212	0.6714	-0.1678	6.0425	-21.6522	5.5389	0.6714	1.6785	2.3499	1	260	159	8	1	2
-6.3782	-7.7209	-8.2245	-4.364	-0.8392	-7.5531	2.5177	11.2457	-3.6926	3.8605	0.8392	0.8392	7.0496	-21.3165	6.546	0.3357	2.0142	1.8463	1	261	160	8	1	2
-5.8746	-7.0496	-7.3853	-3.5248	-0.1678	-6.3782	3.5248	11.7493	-2.8534	4.6997	1.0071	1.8463	8.0566	-20.6451	7.3853	0	2.5177	1.1749	1	262	161	8	1	2
-5.5389	-6.3782	-6.3782	-2.6855	0.3357	-5.5389	4.364	12.085	-1.8463	5.7068	1.1749	2.8534	9.2316	-20.3094	8.2245	-0.3357	3.0212	0.3357	1	263	162	8	1	2
-5.0354	-5.7068	-5.7068	-1.8463	0.8392	-4.5319	5.2032	12.4207	-0.6714	6.7139	1.5106	4.0283	10.2386	-20.1416	9.0637	-0.6714	3.6926	-0.1678	1	264	163	8	1	2
-4.5319	-5.0354	-4.8676	-1.0071	1.3428	-3.6926	6.0425	12.7563	0.1678	7.5531	1.8463	4.8676	11.2457	-20.3094	10.0708	-1.1749	4.0283	-1.0071	1	265	164	8	1	2
-4.364	-4.5319	-4.364	-0.5035	1.6785	-3.0212	6.7139	13.2599	1.0071	8.2245	1.8463	5.8746	12.085	-21.1487	10.5743	-1.6785	4.364	-1.6785	1	266	165	8	1	2
-4.0283	-4.0283	-3.6926	0.1678	2.0142	-2.3499	7.3853	13.5956	1.6785	9.2316	2.182	6.7139	12.9242	-21.4844	11.0779	-2.182	4.5319	-2.182	1	267	166	8	1	2
-3.6926	-3.3569	-3.0212	0.8392	2.5177	-1.5106	8.3923	13.9313	2.5177	9.903	2.5177	7.3853	13.4277	-21.8201	11.2457	-2.5177	4.6997	-2.5177	1	268	167	8	1	2
-3.3569	-2.8534	-2.3499	1.6785	3.0212	-0.6714	9.0637	14.267	3.3569	10.4065	3.0212	7.8888	14.0991	-21.9879	11.5814	-2.8534	4.8676	-3.0212	1	269	168	8	1	2
-3.0212	-2.3499	-1.8463	2.3499	3.3569	-0.3357	9.5673	14.7705	3.8605	11.0779	3.1891	8.5602	14.6027	-21.9879	11.5814	-3.1891	4.8676	-3.3569	1	270	169	8	1	2
-2.5177	-1.8463	-1.3428	3.0212	3.8605	0.3357	10.4065	15.4419	4.5319	11.7493	3.6926	9.3994	15.274	-21.8201	11.7493	-3.3569	5.2032	-3.5248	1	271	170	8	1	2
-2.0142	-1.1749	-0.6714	3.8605	4.5319	1.1749	11.2457	15.9454	5.3711	12.5885	4.364	10.0708	15.9454	-21.3165	11.9171	-3.1891	5.3711	-3.3569	1	272	171	8	1	2
-1.5106	-0.5035	0	4.8676	5.2032	1.8463	12.085	16.7847	6.2103	13.5956	5.2032	11.0779	16.7847	-20.4773	12.4207	-2.8534	5.7068	-3.0212	1	273	172	8	1	2
-0.8392	0.1678	0.6714	5.7068	6.0425	2.6855	13.2599	17.7917	7.0496	14.4348	6.0425	11.9171	17.6239	-19.3024	12.7563	-2.5177	6.2103	-2.3499	1	274	173	8	1	2
-0.3357	0.8392	1.5106	6.7139	7.0496	3.6926	14.267	18.631	8.2245	15.4419	7.2174	12.7563	18.4631	-17.4561	13.2599	-1.8463	6.546	-1.5106	1	275	174	8	1	2
0	1.5106	2.0142	7.7209	7.8888	4.364	15.274	19.6381	9.0637	16.449	8.2245	13.5956	19.3024	-15.4419	13.7634	-1.1749	7.0496	-0.6714	1	276	175	8	1	2
0.5035	2.0142	2.3499	8.5602	8.728	5.2032	16.2811	20.6451	10.0708	17.4561	9.3994	14.6027	20.1416	-13.092	14.267	-0.3357	7.5531	0.5035	1	277	176	8	1	2
0.5035	2.5177	2.6855	9.2316	9.3994	5.7068	17.1204	21.6522	10.91	18.2953	10.5743	15.4419	20.9808	-10.5743	14.7705	0	8.0566	1.5106	1	278	177	8	1	2
0.6714	3.0212	3.0212	10.0708	10.2386	6.3782	17.9596	22.6593	11.5814	19.1345	11.7493	16.1133	21.4844	-8.0566	15.1062	0.8392	8.3923	2.6855	1	279	178	8	1	2
0.5035	3.3569	3.1891	10.4065	10.7422	6.7139	18.631	23.6664	12.2528	19.8059	12.7563	16.7847	22.1558	-6.0425	15.6097	1.5106	8.728	3.8605	1	280	179	8	1	2
0.3357	3.8605	3.1891	10.7422	11.2457	7.0496	19.3024	24.5056	12.7563	20.4773	13.9313	17.4561	22.8271	-4.5319	15.9454	2.182	9.0637	5.0354	1	281	180	8	1	2
0.3357	4.1962	3.3569	11.0779	11.9171	7.3853	19.6381	25.3448	13.2599	20.9808	14.9384	17.7917	23.1628	-3.5248	16.2811	3.1891	9.2316	6.3782	1	282	181	8	1	2
0	4.5319	3.3569	11.0779	12.4207	7.3853	19.9738	26.3519	13.7634	21.4844	15.9454	18.4631	23.8342	-3.3569	16.6168	3.8605	9.5673	7.7209	1	283	182	8	1	2
-0.3357	4.8676	3.1891	10.91	12.9242	7.5531	20.1416	27.0233	13.9313	21.8201	16.9525	18.7988	24.1699	-3.6926	16.7847	4.5319	9.5673	8.728	1	284	183	8	1	2
-0.6714	4.8676	2.8534	10.7422	13.092	7.3853	20.3094	27.8625	14.267	22.1558	17.9596	19.3024	24.6735	-4.5319	17.2882	5.2032	9.903	10.0708	1	285	184	8	1	2
-1.3428	4.8676	2.3499	10.2386	13.4277	7.2174	20.3094	28.5339	14.4348	22.3236	18.7988	19.6381	25.0092	-5.8746	17.4561	5.7068	9.903	11.4136	1	286	185	8	1	2
-1.8463	4.8676	2.182	9.7351	13.7634	7.2174	20.1416	29.2053	14.6027	22.4915	19.8059	19.9738	25.3448	-7.0496	17.6239	6.3782	9.903	12.5885	1	287	186	8	1	2
-2.3499	4.5319	1.5106	8.8959	13.9313	7.0496	19.9738	29.8767	14.6027	22.6593	20.6451	20.3094	25.6805	-8.728	17.9596	6.8817	9.903	13.7634	1	288	187	8	1	2
-3.0212	4.1962	1.0071	8.2245	13.9313	6.7139	19.8059	30.3802	14.6027	22.6593	21.4844	20.4773	26.0162	-10.4065	18.2953	7.2174	10.0708	14.9384	1	289	188	8	1	2
-3.5248	3.8605	0.5035	7.2174	13.9313	6.3782	19.4702	31.0516	14.7705	22.8271	22.3236	20.813	26.5198	-12.085	18.7988	7.5531	10.0708	16.1133	1	290	189	8	1	2
-4.0283	3.3569	0	6.2103	13.5956	5.7068	18.9667	31.3873	14.6027	22.4915	22.8271	20.9808	26.6876	-13.2599	18.9667	7.7209	9.7351	17.1204	1	291	190	8	1	2
23.8342	22.1558	26.0162	17.2882	19.9738	21.4844	17.9596	21.4844	17.9596	16.6168	17.7917	16.2811	16.9525	-0.3357	22.995	10.91	16.7847	16.1133	1	231	130	9	1	2
23.3307	21.6522	25.6805	16.7847	19.3024	20.9808	17.4561	20.1416	17.2882	15.9454	16.449	15.274	15.9454	0	21.9879	10.0708	15.6097	14.6027	1	232	131	9	1	2
22.995	21.3165	25.3448	16.449	18.631	20.6451	17.1204	19.3024	16.6168	15.4419	15.274	14.6027	14.9384	0.1678	20.9808	9.0637	14.9384	13.5956	1	233	132	9	1	2
22.6593	21.1487	25.0092	16.1133	18.1274	20.3094	16.7847	18.2953	16.2811	14.9384	14.267	13.7634	14.267	0.3357	19.9738	8.3923	14.0991	12.4207	1	234	133	9	1	2
22.3236	20.6451	24.8413	15.9454	17.6239	20.1416	16.6168	17.4561	15.9454	14.4348	13.4277	13.4277	13.5956	0.8392	19.4702	7.7209	13.4277	11.5814	1	235	134	9	1	2
21.9879	20.3094	24.5056	15.7776	17.1204	19.8059	16.2811	16.9525	15.6097	14.0991	12.7563	12.9242	13.092	1.1749	18.631	7.0496	12.7563	10.5743	1	236	135	9	1	2
21.6522	19.8059	24.0021	15.6097	16.449	19.3024	15.7776	16.1133	15.1062	13.5956	12.2528	12.7563	12.5885	1.6785	18.2953	6.546	12.4207	10.0708	1	237	136	9	1	2
21.4844	19.6381	24.0021	15.6097	16.1133	19.1345	15.6097	15.9454	15.1062	13.2599	11.9171	12.4207	12.4207	2.3499	17.7917	6.0425	11.9171	9.3994	1	238	137	9	1	2
20.9808	18.7988	23.3307	15.1062	15.6097	18.7988	15.274	15.1062	14.6027	12.7563	11.4136	12.4207	11.9171	2.5177	17.1204	5.7068	11.4136	8.728	1	239	138	9	1	2
20.4773	18.2953	22.995	14.9384	15.1062	18.4631	14.9384	14.7705	14.6027	12.4207	11.2457	12.4207	11.5814	3.0212	16.7847	5.3711	10.91	8.2245	1	240	139	9	1	2
19.9738	17.7917	22.6593	14.7705	14.6027	17.9596	14.267	14.4348	14.267	11.9171	11.0779	12.5885	11.2457	3.3569	16.1133	4.8676	10.2386	8.0566	1	241	140	9	1	2
19.4702	17.1204	22.1558	14.267	14.0991	17.6239	13.9313	13.9313	13.9313	11.4136	10.91	12.4207	11.2457	4.0283	15.6097	4.5319	9.7351	7.7209	1	242	141	9	1	2
18.7988	16.2811	21.4844	13.7634	13.4277	16.7847	13.2599	13.4277	13.7634	10.7422	10.7422	12.4207	10.7422	4.6997	14.6027	4.364	8.8959	7.3853	1	243	142	9	1	2
17.7917	15.274	20.6451	13.092	12.5885	15.9454	12.2528	12.7563	13.092	10.0708	10.5743	12.4207	10.2386	5.2032	13.5956	3.6926	7.8888	7.0496	1	244	143	9	1	2
16.7847	14.0991	19.6381	12.4207	11.9171	15.1062	11.4136	12.085	12.4207	9.2316	10.4065	12.4207	9.5673	5.8746	12.5885	3.1891	6.8817	6.7139	1	245	144	9	1	2
15.7776	13.2599	18.7988	11.9171	10.91	14.267	10.5743	11.5814	11.7493	8.2245	10.4065	12.4207	9.2316	6.546	11.5814	2.8534	6.0425	6.7139	1	246	145	9	1	2
14.9384	12.085	17.9596	11.0779	10.2386	13.4277	9.7351	10.91	11.4136	7.3853	10.2386	12.085	8.5602	6.546	10.4065	2.3499	5.0354	6.7139	1	247	146	9	1	2
13.7634	10.91	16.9525	10.2386	9.0637	12.2528	8.3923	9.903	10.5743	6.2103	9.903	11.9171	7.8888	6.3782	9.2316	1.5106	3.8605	6.3782	1	248	147	9	1	2
12.4207	9.3994	15.7776	9.2316	8.0566	11.2457	7.2174	9.0637	9.7351	5.2032	9.5673	11.7493	7.2174	5.5389	8.0566	0.8392	2.8534	6.2103	1	249	148	9	1	2
11.0779	7.8888	14.4348	7.8888	6.7139	9.903	6.0425	8.2245	8.728	4.0283	9.2316	11.5814	6.546	4.364	6.8817	0	1.5106	5.8746	1	250	149	9	1	2
9.7351	6.3782	13.2599	6.7139	5.7068	8.8959	4.8676	7.2174	8.2245	3.1891	8.8959	11.4136	5.8746	3.0212	6.0425	-0.6714	0.6714	5.5389	1	251	150	9	1	2
8.5602	4.8676	12.085	5.5389	4.5319	7.8888	3.6926	6.3782	7.5531	2.3499	8.5602	11.4136	5.5389	1.5106	5.3711	-1.5106	-0.3357	5.3711	1	252	151	9	1	2
7.3853	3.5248	11.0779	4.364	3.3569	6.8817	2.3499	5.3711	6.8817	1.3428	8.2245	11.2457	5.2032	-0.1678	4.6997	-2.0142	-1.3428	5.2032	1	253	152	9	1	2
6.2103	2.182	10.0708	3.0212	2.3499	5.8746	1.3428	4.364	6.3782	0.5035	7.8888	11.2457	5.0354	-2.0142	4.0283	-2.8534	-2.0142	4.8676	1	254	153	9	1	2
5.2032	0.8392	9.2316	1.8463	1.5106	5.2032	0.3357	3.6926	5.8746	-0.3357	7.3853	11.2457	4.6997	-3.8605	3.5248	-3.5248	-2.8534	4.5319	1	255	154	9	1	2
4.5319	-0.3357	8.5602	0.5035	0.3357	4.364	-0.8392	2.6855	5.3711	-1.0071	7.2174	11.2457	4.364	-5.7068	3.3569	-4.0283	-3.6926	4.5319	1	256	155	9	1	2
3.5248	-1.5106	7.8888	-0.6714	-0.3357	3.8605	-1.6785	1.8463	5.2032	-1.6785	6.7139	11.4136	4.1962	-7.3853	2.8534	-4.6997	-4.0283	4.364	1	257	156	9	1	2
2.8534	-2.5177	7.3853	-1.6785	-1.1749	3.1891	-2.5177	1.0071	4.6997	-2.3499	5.8746	11.4136	4.1962	-8.8959	2.5177	-5.3711	-4.6997	3.6926	1	258	157	9	1	2
2.182	-3.3569	6.7139	-2.5177	-2.0142	2.8534	-3.1891	0.3357	4.5319	-2.8534	5.3711	11.4136	4.0283	-9.903	2.182	-5.8746	-5.2032	3.1891	1	259	158	9	1	2
1.5106	-4.0283	6.546	-3.6926	-2.5177	2.5177	-3.8605	-0.5035	4.364	-3.5248	4.5319	11.5814	3.6926	-10.4065	1.8463	-6.546	-5.7068	2.6855	1	260	159	9	1	2
1.3428	-4.5319	6.2103	-4.1962	-3.0212	2.3499	-4.5319	-1.3428	4.0283	-3.8605	3.6926	11.4136	3.5248	-10.5743	1.6785	-7.2174	-5.8746	1.8463	1	261	160	9	1	2
1.3428	-5.0354	6.0425	-5.0354	-3.6926	2.182	-5.0354	-2.182	3.8605	-4.5319	2.6855	11.0779	3.1891	-10.5743	1.3428	-8.0566	-6.3782	0.8392	1	262	161	9	1	2
1.1749	-5.0354	6.2103	-5.5389	-4.0283	2.182	-5.5389	-3.1891	3.6926	-4.8676	1.8463	10.91	3.0212	-10.2386	1.3428	-8.8959	-6.3782	0	1	263	162	9	1	2
1.1749	-4.8676	6.3782	-5.7068	-4.364	2.3499	-5.8746	-3.6926	3.6926	-5.0354	0.8392	10.91	2.8534	-9.903	1.3428	-9.3994	-6.546	-1.0071	1	264	163	9	1	2
1.6785	-4.6997	6.546	-5.8746	-4.5319	2.3499	-5.8746	-4.364	3.8605	-5.0354	-0.3357	10.7422	2.8534	-9.5673	1.3428	-10.0708	-6.3782	-1.8463	1	265	164	9	1	2
1.8463	-4.364	7.0496	-5.8746	-4.6997	2.8534	-5.7068	-5.0354	4.0283	-5.0354	-1.0071	10.7422	2.8534	-9.2316	1.8463	-10.91	-6.2103	-2.8534	1	266	165	9	1	2
2.3499	-3.6926	7.7209	-5.3711	-4.6997	3.1891	-5.3711	-5.5389	4.1962	-4.6997	-2.0142	10.5743	2.8534	-8.728	2.0142	-11.4136	-5.8746	-3.8605	1	267	166	9	1	2
3.0212	-3.3569	8.0566	-5.2032	-4.6997	3.5248	-5.2032	-6.2103	4.364	-4.6997	-3.0212	10.5743	3.0212	-8.5602	2.3499	-12.4207	-5.7068	-5.0354	1	268	167	9	1	2
3.5248	-2.6855	8.5602	-4.8676	-4.6997	4.0283	-4.8676	-6.546	4.5319	-4.364	-3.6926	10.4065	3.1891	-7.8888	3.0212	-13.092	-5.0354	-6.0425	1	269	168	9	1	2
3.8605	-2.3499	8.728	-4.364	-4.6997	4.364	-4.1962	-7.0496	4.6997	-3.8605	-4.5319	10.2386	3.3569	-7.2174	3.5248	-13.7634	-4.5319	-7.0496	1	270	169	9	1	2
4.364	-1.8463	9.3994	-3.8605	-4.6997	4.5319	-3.6926	-7.7209	5.0354	-3.5248	-5.5389	10.0708	3.8605	-6.546	4.364	-14.4348	-4.0283	-8.0566	1	271	170	9	1	2
4.8676	-1.5106	9.5673	-3.3569	-4.6997	5.0354	-3.0212	-8.0566	5.3711	-2.5177	-6.0425	10.2386	4.364	-5.5389	5.0354	-14.9384	-3.1891	-8.728	1	272	171	9	1	2
5.2032	-1.1749	9.903	-2.8534	-4.6997	5.3711	-2.0142	-8.3923	5.3711	-1.8463	-6.7139	10.0708	4.8676	-4.364	5.8746	-15.4419	-2.3499	-9.5673	1	273	172	9	1	2
5.7068	-1.0071	10.4065	-2.182	-4.6997	5.5389	-1.3428	-8.728	5.5389	-1.0071	-7.3853	10.0708	5.3711	-3.1891	7.0496	-15.9454	-1.5106	-10.2386	1	274	173	9	1	2
6.3782	-0.6714	10.7422	-1.5106	-4.5319	6.0425	-0.3357	-8.728	5.8746	0	-7.7209	10.4065	6.2103	-1.1749	8.0566	-16.1133	-0.5035	-10.7422	1	275	174	9	1	2
6.7139	-0.3357	11.0779	-0.8392	-4.5319	6.3782	0.6714	-9.0637	6.0425	1.0071	-8.2245	10.4065	6.8817	1.0071	8.8959	-16.449	0.5035	-11.4136	1	276	175	9	1	2
7.2174	-0.1678	11.2457	-0.1678	-4.5319	6.7139	1.6785	-9.0637	6.3782	2.182	-8.5602	10.5743	7.7209	3.5248	9.903	-16.7847	1.3428	-12.085	1	277	176	9	1	2
7.3853	0.1678	11.5814	0.6714	-4.364	7.0496	2.8534	-9.0637	6.546	3.3569	-8.8959	10.4065	8.3923	6.3782	10.91	-16.7847	2.5177	-12.9242	1	278	177	9	1	2
7.7209	0.3357	11.7493	1.5106	-4.364	7.3853	3.6926	-8.8959	6.7139	4.5319	-9.2316	10.4065	9.2316	8.5602	11.5814	-16.9525	3.3569	-13.5956	1	279	178	9	1	2
8.0566	0.5035	11.9171	2.0142	-4.364	7.5531	4.8676	-8.728	6.8817	5.7068	-9.3994	10.5743	9.7351	10.7422	12.2528	-17.1204	4.1962	-14.267	1	280	179	9	1	2
8.2245	0.6714	12.2528	2.8534	-4.1962	7.8888	6.0425	-8.5602	6.8817	6.7139	-9.7351	10.4065	10.5743	12.2528	12.7563	-17.2882	5.0354	-15.1062	1	281	180	9	1	2
8.3923	0.8392	12.4207	3.5248	-4.1962	8.0566	6.8817	-8.5602	7.0496	8.0566	-9.903	10.4065	11.0779	12.9242	12.9242	-17.2882	5.3711	-15.7776	1	282	181	9	1	2
8.728	1.0071	12.5885	4.1962	-3.8605	8.3923	8.0566	-8.0566	7.2174	9.0637	-9.903	10.4065	11.7493	13.2599	12.9242	-17.2882	5.8746	-16.2811	1	283	182	9	1	2
8.8959	1.1749	12.7563	4.6997	-3.6926	8.3923	8.728	-7.3853	7.3853	10.0708	-9.7351	10.4065	12.085	13.092	12.7563	-17.1204	6.2103	-16.7847	1	284	183	9	1	2
8.728	1.5106	12.7563	5.2032	-3.3569	8.3923	9.5673	-6.8817	7.5531	10.7422	-9.5673	10.2386	12.4207	12.4207	12.5885	-16.9525	6.3782	-17.2882	1	285	184	9	1	2
9.2316	1.5106	13.092	5.8746	-3.1891	8.8959	10.5743	-6.3782	7.5531	11.9171	-9.3994	10.2386	13.092	11.7493	12.2528	-16.7847	6.7139	-17.6239	1	286	185	9	1	2
9.3994	1.6785	13.092	6.7139	-2.8534	8.8959	11.2457	-5.5389	7.7209	12.5885	-8.8959	10.2386	13.2599	10.7422	11.9171	-16.6168	6.8817	-17.9596	1	287	186	9	1	2
9.5673	2.0142	13.2599	7.3853	-2.182	9.2316	12.085	-4.5319	7.8888	13.4277	-8.0566	10.4065	13.7634	9.3994	11.7493	-16.1133	6.7139	-17.6239	1	288	187	9	1	2
9.903	2.182	13.5956	8.0566	-1.6785	9.5673	13.092	-3.6926	8.0566	14.267	-7.3853	10.7422	14.4348	8.2245	11.5814	-15.7776	7.0496	-17.4561	1	289	188	9	1	2
10.2386	2.5177	13.7634	8.728	-1.1749	9.7351	13.7634	-2.5177	8.3923	15.1062	-6.546	11.0779	14.7705	6.8817	11.4136	-15.1062	7.2174	-16.9525	1	290	189	9	1	2
10.5743	3.1891	14.0991	9.5673	0	9.903	14.6027	-1.0071	8.8959	15.9454	-5.0354	11.5814	15.6097	5.7068	11.4136	-14.0991	7.2174	-16.1133	1	291	190	9	1	2
-7.0496	-13.4277	-12.5885	-8.728	-15.4419	-20.4773	-11.5814	-16.9525	-26.3519	-13.9313	-15.9454	-15.7776	-10.5743	3.5248	-4.8676	-11.2457	-0.8392	-14.267	1	231	130	10	1	2
-7.2174	-13.5956	-12.7563	-8.3923	-15.4419	-20.4773	-11.0779	-17.1204	-26.3519	-13.2599	-16.1133	-15.6097	-9.5673	2.182	-3.3569	-11.5814	0.3357	-14.6027	1	232	131	10	1	2
-7.2174	-13.9313	-12.9242	-8.0566	-15.6097	-20.6451	-10.7422	-17.2882	-26.1841	-12.7563	-16.1133	-15.274	-8.5602	0.6714	-2.0142	-11.7493	1.1749	-14.7705	1	233	132	10	1	2
-7.0496	-13.7634	-12.7563	-7.5531	-15.6097	-20.3094	-10.2386	-17.1204	-25.6805	-11.9171	-15.9454	-14.7705	-7.5531	-1.0071	-0.6714	-11.7493	2.3499	-14.6027	1	234	133	10	1	2
-7.2174	-13.9313	-12.9242	-7.3853	-15.4419	-20.1416	-9.7351	-16.9525	-25.177	-11.0779	-15.6097	-14.0991	-6.546	-2.6855	0.6714	-11.7493	3.1891	-14.6027	1	235	134	10	1	2
-7.0496	-13.7634	-12.9242	-7.0496	-15.274	-19.8059	-9.3994	-16.6168	-24.5056	-10.2386	-15.274	-13.4277	-5.5389	-4.364	1.8463	-11.7493	3.8605	-14.6027	1	236	135	10	1	2
-6.7139	-13.5956	-12.7563	-6.8817	-14.9384	-19.3024	-8.728	-16.1133	-23.6664	-9.2316	-14.6027	-12.5885	-4.1962	-5.7068	3.0212	-11.5814	4.8676	-14.267	1	237	136	10	1	2
-6.7139	-13.2599	-12.5885	-6.7139	-14.7705	-18.631	-8.0566	-15.6097	-22.8271	-8.2245	-14.0991	-11.7493	-3.0212	-7.2174	3.8605	-11.5814	5.7068	-14.267	1	238	137	10	1	2
-6.546	-13.092	-12.5885	-6.7139	-14.4348	-18.1274	-7.5531	-15.274	-21.8201	-7.2174	-13.4277	-10.7422	-2.0142	-8.3923	4.8676	-11.4136	6.3782	-14.0991	1	239	138	10	1	2
-6.2103	-12.7563	-12.2528	-6.3782	-13.9313	-17.4561	-6.7139	-14.4348	-20.6451	-6.0425	-12.5885	-9.3994	-0.5035	-8.8959	5.8746	-11.2457	7.2174	-13.5956	1	240	139	10	1	2
-6.0425	-12.4207	-12.085	-6.2103	-13.4277	-16.6168	-6.0425	-13.7634	-19.3024	-4.6997	-11.7493	-8.2245	0.6714	-9.2316	6.8817	-10.91	7.7209	-13.2599	1	241	140	10	1	2
-5.8746	-12.2528	-12.085	-6.2103	-12.9242	-16.1133	-5.5389	-12.9242	-18.1274	-3.5248	-10.7422	-6.8817	2.0142	-9.0637	7.5531	-10.7422	8.0566	-12.7563	1	242	141	10	1	2
-5.8746	-11.7493	-11.7493	-6.0425	-12.4207	-15.274	-4.6997	-12.085	-16.6168	-2.3499	-9.7351	-5.5389	3.0212	-8.3923	8.2245	-10.2386	8.3923	-12.085	1	243	142	10	1	2
-5.8746	-11.5814	-11.7493	-6.0425	-11.9171	-14.4348	-4.0283	-11.2457	-15.274	-1.0071	-8.5602	-4.0283	4.364	-7.3853	9.0637	-9.903	8.728	-11.4136	1	244	143	10	1	2
-5.7068	-10.91	-11.2457	-6.0425	-11.2457	-13.5956	-3.3569	-10.0708	-13.7634	0.1678	-7.3853	-2.5177	5.7068	-6.2103	9.2316	-9.2316	9.0637	-10.5743	1	245	144	10	1	2
-5.7068	-10.5743	-11.0779	-5.7068	-10.5743	-12.5885	-2.3499	-8.8959	-12.085	1.6785	-6.0425	-1.0071	7.0496	-5.2032	9.7351	-8.728	9.2316	-9.3994	1	246	145	10	1	2
-5.7068	-10.0708	-10.91	-5.8746	-9.903	-11.9171	-1.6785	-7.7209	-10.7422	2.8534	-4.6997	0.6714	8.2245	-4.364	10.4065	-8.0566	9.2316	-8.2245	1	247	146	10	1	2
-5.8746	-9.903	-10.7422	-5.5389	-9.2316	-11.0779	-0.8392	-6.2103	-8.8959	4.0283	-3.1891	2.3499	9.5673	-4.0283	10.7422	-7.2174	9.5673	-6.8817	1	248	147	10	1	2
-5.7068	-9.3994	-10.4065	-5.3711	-8.5602	-10.0708	0	-4.6997	-7.3853	5.5389	-1.5106	4.0283	10.5743	-3.8605	11.0779	-6.2103	9.5673	-5.3711	1	249	148	10	1	2
-5.7068	-9.0637	-10.0708	-5.0354	-7.7209	-9.2316	0.8392	-3.3569	-5.7068	6.7139	0	6.0425	12.085	-3.8605	11.7493	-5.3711	9.903	-3.8605	1	250	149	10	1	2
-5.5389	-8.3923	-9.5673	-4.5319	-6.7139	-8.0566	2.0142	-1.5106	-4.0283	8.3923	1.6785	7.7209	13.4277	-4.1962	12.2528	-4.364	10.0708	-2.3499	1	251	150	10	1	2
-5.3711	-8.0566	-9.2316	-4.0283	-5.8746	-7.2174	2.8534	0.1678	-2.3499	9.7351	3.5248	9.3994	14.6027	-4.8676	12.9242	-3.1891	10.7422	-0.8392	1	252	151	10	1	2
-5.0354	-7.7209	-8.728	-3.1891	-4.8676	-6.0425	4.0283	1.6785	-0.8392	10.91	5.0354	10.91	15.6097	-5.5389	13.5956	-2.182	11.0779	0.8392	1	253	152	10	1	2
-5.2032	-7.5531	-8.5602	-2.6855	-4.1962	-5.3711	4.8676	3.3569	0.5035	12.2528	6.546	12.5885	16.7847	-6.546	14.267	-1.3428	11.4136	2.182	1	254	153	10	1	2
-4.8676	-7.3853	-8.2245	-2.0142	-3.3569	-4.5319	6.0425	4.6997	2.0142	13.4277	7.8888	13.7634	17.7917	-7.5531	14.9384	-0.1678	11.7493	3.6926	1	255	154	10	1	2
-4.8676	-7.2174	-7.8888	-1.5106	-2.6855	-4.0283	6.7139	5.8746	2.8534	14.267	8.728	14.6027	18.2953	-8.5602	15.1062	0.6714	11.7493	4.6997	1	256	155	10	1	2
-4.5319	-7.0496	-7.7209	-0.8392	-2.0142	-3.3569	7.3853	6.8817	3.5248	15.1062	9.903	15.4419	18.7988	-9.3994	15.4419	1.5106	11.9171	5.7068	1	257	156	10	1	2
-4.6997	-7.3853	-7.7209	-0.5035	-1.6785	-3.0212	8.2245	7.8888	4.364	15.6097	10.5743	16.1133	19.1345	-9.903	15.4419	2.3499	11.9171	6.8817	1	258	157	10	1	2
-4.5319	-7.5531	-7.8888	0	-1.3428	-3.0212	8.5602	8.5602	4.6997	15.9454	10.91	16.1133	18.9667	-10.0708	14.9384	3.0212	11.5814	7.3853	1	259	158	10	1	2
-4.6997	-7.7209	-7.8888	0.1678	-1.1749	-3.0212	8.728	9.0637	4.5319	16.1133	11.2457	16.1133	18.631	-9.7351	14.4348	3.6926	11.2457	8.0566	1	260	159	10	1	2
-5.2032	-8.3923	-8.5602	0.1678	-1.3428	-3.1891	8.8959	9.3994	4.5319	16.1133	11.0779	15.7776	18.2953	-9.3994	13.7634	4.1962	10.91	8.3923	1	261	160	10	1	2
-5.5389	-8.8959	-8.8959	0.1678	-1.3428	-3.5248	8.728	9.5673	4.1962	15.7776	10.91	15.1062	17.2882	-8.728	12.7563	4.5319	10.0708	8.5602	1	262	161	10	1	2
-6.2103	-9.7351	-9.5673	-0.3357	-1.8463	-4.1962	8.5602	9.3994	3.8605	15.4419	10.5743	14.267	16.6168	-8.3923	11.7493	5.0354	9.5673	8.5602	1	263	162	10	1	2
-6.8817	-10.2386	-10.2386	-0.6714	-2.182	-4.6997	7.8888	9.0637	2.8534	14.6027	9.903	13.2599	15.4419	-8.3923	10.5743	5.2032	8.8959	8.3923	1	264	163	10	1	2
-7.7209	-10.91	-11.0779	-1.3428	-2.5177	-5.3711	7.5531	8.5602	2.182	13.9313	9.0637	11.9171	14.267	-8.728	9.5673	5.5389	8.3923	8.0566	1	265	164	10	1	2
-8.728	-11.7493	-11.9171	-2.182	-3.1891	-6.0425	7.0496	8.0566	1.3428	13.2599	8.3923	10.7422	13.2599	-9.0637	8.3923	5.8746	7.7209	7.8888	1	266	165	10	1	2
-9.3994	-12.4207	-12.7563	-3.0212	-3.8605	-6.8817	6.2103	7.7209	0.6714	12.5885	7.7209	9.7351	12.2528	-9.5673	7.5531	6.2103	7.3853	7.7209	1	267	166	10	1	2
-10.2386	-13.092	-13.5956	-3.6926	-4.1962	-7.3853	5.5389	6.8817	-0.3357	11.7493	6.8817	8.3923	11.0779	-10.0708	6.8817	6.2103	7.0496	7.2174	1	268	167	10	1	2
-11.4136	-13.9313	-14.6027	-4.6997	-4.8676	-8.3923	4.6997	6.3782	-1.1749	11.0779	6.0425	7.2174	10.0708	-10.5743	6.2103	6.546	6.7139	6.8817	1	269	168	10	1	2
-12.085	-14.4348	-15.274	-5.7068	-5.3711	-8.728	4.1962	5.7068	-1.8463	10.2386	5.3711	6.0425	9.2316	-10.7422	5.8746	6.7139	7.0496	6.546	1	270	169	10	1	2
-12.9242	-14.9384	-15.9454	-6.7139	-5.8746	-9.3994	3.3569	5.3711	-2.6855	9.903	4.6997	5.0354	8.3923	-10.91	5.7068	6.8817	7.0496	6.546	1	271	170	10	1	2
-13.5956	-15.274	-16.449	-7.5531	-6.3782	-9.7351	2.8534	4.6997	-3.1891	9.2316	4.1962	4.1962	7.7209	-10.5743	6.0425	6.8817	7.2174	6.3782	1	272	171	10	1	2
-14.0991	-15.7776	-17.1204	-8.3923	-6.8817	-10.0708	2.3499	4.1962	-3.6926	8.5602	3.5248	3.5248	7.2174	-10.2386	6.546	7.0496	7.7209	6.0425	1	273	172	10	1	2
-14.4348	-15.9454	-17.2882	-8.8959	-7.0496	-10.2386	2.0142	3.6926	-4.0283	8.2245	3.1891	2.8534	7.0496	-9.5673	7.0496	7.2174	8.3923	6.0425	1	274	173	10	1	2
-14.6027	-16.2811	-17.6239	-9.3994	-7.3853	-10.2386	1.6785	3.6926	-4.1962	7.8888	2.8534	2.5177	6.7139	-8.5602	7.8888	7.5531	8.8959	6.0425	1	275	174	10	1	2
-14.6027	-16.1133	-17.6239	-9.903	-7.2174	-10.2386	1.5106	3.5248	-4.364	7.5531	2.6855	2.3499	6.7139	-7.2174	8.728	7.7209	9.5673	6.546	1	276	175	10	1	2
-14.6027	-16.1133	-17.6239	-10.0708	-7.3853	-10.0708	1.1749	3.5248	-4.364	7.5531	2.8534	2.182	6.7139	-5.5389	10.0708	8.2245	10.2386	6.8817	1	277	176	10	1	2
-14.6027	-15.7776	-17.4561	-10.4065	-7.3853	-9.903	1.0071	3.6926	-4.364	7.3853	3.1891	2.182	6.7139	-3.8605	11.2457	8.728	11.2457	7.3853	1	278	177	10	1	2
-14.267	-15.274	-16.9525	-10.2386	-6.7139	-9.3994	1.0071	4.0283	-3.8605	7.2174	3.3569	2.3499	7.0496	-1.8463	12.4207	9.0637	11.7493	8.0566	1	279	178	10	1	2
-13.7634	-14.7705	-16.449	-10.0708	-6.3782	-8.8959	1.0071	4.5319	-3.3569	7.2174	3.8605	2.6855	7.3853	-0.1678	13.5956	9.5673	12.4207	8.8959	1	280	179	10	1	2
-13.2599	-14.0991	-15.9454	-9.903	-5.8746	-8.3923	1.1749	5.0354	-3.0212	7.2174	4.364	3.0212	7.7209	1.1749	14.6027	10.0708	12.9242	9.5673	1	281	180	10	1	2
-12.7563	-13.4277	-15.4419	-9.5673	-5.3711	-8.0566	1.1749	5.5389	-2.8534	7.0496	4.8676	3.3569	7.8888	1.8463	15.4419	10.4065	13.092	10.4065	1	282	181	10	1	2
-12.4207	-12.9242	-15.1062	-9.5673	-4.8676	-7.7209	1.1749	6.2103	-2.5177	6.7139	5.3711	3.5248	8.0566	2.5177	16.1133	10.7422	13.5956	11.0779	1	283	182	10	1	2
-11.7493	-12.2528	-14.6027	-9.0637	-4.1962	-7.3853	1.0071	6.7139	-2.0142	6.7139	5.8746	3.8605	8.2245	2.6855	16.6168	11.0779	13.7634	11.4136	1	284	183	10	1	2
-11.2457	-11.4136	-13.9313	-8.5602	-3.3569	-6.7139	1.1749	7.0496	-1.6785	6.546	6.2103	4.1962	8.3923	2.6855	16.9525	11.4136	13.7634	11.7493	1	285	184	10	1	2
-10.7422	-10.91	-13.4277	-8.2245	-2.8534	-6.3782	1.1749	7.7209	-1.3428	6.2103	6.8817	4.5319	8.3923	2.6855	17.1204	11.5814	13.7634	12.085	1	286	185	10	1	2
-9.903	-9.903	-12.5885	-7.7209	-2.182	-6.0425	1.1749	8.2245	-1.1749	6.2103	7.0496	4.8676	8.5602	2.6855	16.9525	11.7493	13.5956	11.9171	1	287	186	10	1	2
-9.3994	-9.3994	-12.2528	-7.3853	-1.5106	-5.5389	1.3428	8.728	-0.8392	6.0425	7.5531	5.0354	8.5602	3.0212	16.7847	11.9171	13.4277	12.085	1	288	187	10	1	2
-8.728	-9.0637	-11.7493	-6.8817	-1.1749	-5.3711	1.1749	9.0637	-0.6714	5.8746	7.7209	5.3711	8.3923	3.0212	16.449	11.7493	12.9242	11.9171	1	289	188	10	1	2
-8.2245	-8.3923	-11.2457	-6.3782	-0.3357	-5.0354	1.3428	9.3994	-0.6714	5.7068	7.8888	5.5389	8.3923	3.3569	15.7776	11.5814	12.4207	11.7493	1	290	189	10	1	2
-7.2174	-7.8888	-10.5743	-5.5389	0.1678	-4.5319	1.8463	9.7351	-0.1678	5.8746	8.2245	5.7068	8.5602	4.1962	15.1062	11.4136	11.9171	11.4136	1	291	190	10	1	2
11.9171	18.4631	17.7917	11.4136	18.7988	18.7988	14.6027	27.6947	20.4773	16.449	19.3024	19.3024	19.4702	0.8392	16.6168	17.7917	15.6097	15.9454	1	231	130	11	1	2
11.7493	18.7988	17.7917	11.4136	19.6381	19.1345	14.7705	28.7018	21.1487	16.7847	20.1416	19.9738	19.6381	-0.5035	15.9454	18.7988	15.4419	17.1204	1	232	131	11	1	2
11.9171	19.3024	18.1274	11.9171	20.4773	19.4702	14.9384	29.541	21.6522	16.9525	20.9808	20.9808	19.4702	-1.5106	15.1062	19.6381	14.9384	18.2953	1	233	132	11	1	2
11.7493	19.4702	18.1274	12.085	21.1487	19.8059	15.1062	30.3802	22.1558	16.9525	21.9879	21.8201	19.3024	-2.8534	14.267	20.6451	14.6027	19.4702	1	234	133	11	1	2
11.4136	19.4702	17.7917	12.085	21.9879	19.9738	15.1062	31.2195	22.3236	16.7847	22.8271	22.3236	19.1345	-4.1962	13.4277	21.4844	14.0991	20.813	1	235	134	11	1	2
11.2457	19.4702	17.6239	12.085	22.4915	19.9738	14.9384	31.8909	22.4915	16.6168	23.3307	22.8271	18.7988	-5.7068	12.4207	22.3236	13.2599	21.6522	1	236	135	11	1	2
11.0779	19.6381	17.6239	12.2528	22.8271	20.1416	14.7705	32.3944	22.6593	16.1133	23.8342	23.3307	18.2953	-7.0496	11.2457	22.8271	12.5885	22.4915	1	237	136	11	1	2
10.7422	19.4702	17.2882	12.2528	23.1628	19.8059	14.267	32.8979	22.4915	15.6097	24.1699	23.4985	17.7917	-8.5602	10.2386	23.3307	11.9171	23.1628	1	238	137	11	1	2
10.2386	19.3024	16.9525	11.9171	23.4985	19.4702	13.9313	33.0658	22.1558	14.7705	24.3378	23.3307	17.1204	-10.0708	9.2316	23.8342	11.0779	23.4985	1	239	138	11	1	2
9.7351	18.9667	16.6168	11.9171	23.6664	19.1345	13.4277	33.4015	21.8201	14.0991	24.3378	23.3307	16.6168	-11.0779	8.2245	24.0021	10.5743	23.6664	1	240	139	11	1	2
9.3994	18.7988	16.2811	11.7493	23.4985	18.631	12.9242	32.8979	21.3165	13.4277	24.0021	23.1628	15.6097	-11.7493	7.2174	24.0021	9.903	23.4985	1	241	140	11	1	2
9.0637	18.4631	15.9454	11.5814	23.4985	18.1274	12.2528	32.8979	20.813	12.5885	23.6664	22.995	14.9384	-11.7493	6.7139	24.0021	9.3994	23.3307	1	242	141	11	1	2
8.5602	18.1274	15.6097	11.5814	23.4985	17.4561	11.7493	32.5623	20.3094	11.5814	23.4985	22.4915	14.4348	-11.4136	6.2103	23.8342	9.3994	22.995	1	243	142	11	1	2
8.2245	17.9596	15.4419	11.5814	23.1628	17.1204	11.5814	32.2266	19.6381	11.0779	22.6593	22.3236	13.9313	-10.4065	6.0425	23.3307	9.2316	22.4915	1	244	143	11	1	2
8.0566	17.6239	15.1062	11.5814	22.8271	16.449	11.0779	31.8909	18.9667	10.2386	22.3236	21.9879	13.4277	-9.3994	6.0425	23.1628	9.3994	21.9879	1	245	144	11	1	2
7.8888	17.2882	14.9384	11.7493	22.4915	15.9454	10.7422	31.3873	18.2953	9.903	21.6522	21.4844	12.9242	-8.2245	6.2103	22.6593	9.3994	21.3165	1	246	145	11	1	2
7.8888	17.1204	14.9384	12.2528	22.1558	15.6097	10.5743	30.7159	17.6239	9.3994	20.813	21.1487	12.9242	-7.2174	6.7139	22.1558	9.7351	20.4773	1	247	146	11	1	2
7.7209	16.7847	14.9384	12.2528	21.8201	14.9384	10.2386	30.0446	16.9525	8.728	20.1416	20.4773	12.4207	-6.7139	7.0496	21.6522	10.0708	19.8059	1	248	147	11	1	2
7.7209	16.6168	14.9384	12.5885	21.3165	14.4348	10.0708	29.541	16.1133	8.2245	19.4702	19.9738	12.2528	-6.3782	7.5531	21.1487	10.4065	18.9667	1	249	148	11	1	2
7.7209	16.1133	14.7705	12.7563	20.6451	13.9313	9.903	28.7018	15.1062	7.7209	18.2953	19.3024	11.9171	-6.546	7.8888	20.3094	10.7422	18.1274	1	250	149	11	1	2
8.0566	15.7776	14.9384	13.092	19.8059	13.5956	10.0708	27.5269	14.4348	7.3853	17.2882	18.4631	11.7493	-6.8817	8.3923	19.6381	10.91	16.9525	1	251	150	11	1	2
8.3923	15.274	14.9384	13.5956	19.1345	12.9242	10.0708	26.6876	13.5956	7.0496	16.2811	17.7917	11.4136	-7.2174	8.728	18.9667	11.0779	15.9454	1	252	151	11	1	2
8.5602	14.7705	15.1062	13.7634	18.4631	12.5885	10.0708	25.8484	12.5885	6.8817	15.1062	17.1204	11.0779	-7.7209	8.728	18.4631	11.4136	15.1062	1	253	152	11	1	2
8.728	14.267	15.1062	14.0991	17.6239	12.085	10.2386	24.8413	11.7493	6.7139	14.0991	16.2811	10.91	-8.0566	8.8959	17.6239	11.5814	14.267	1	254	153	11	1	2
8.8959	13.4277	15.1062	14.0991	16.7847	11.7493	10.4065	23.8342	10.91	6.7139	12.7563	15.6097	10.5743	-8.728	8.8959	16.9525	11.7493	13.4277	1	255	154	11	1	2
8.8959	12.9242	14.9384	14.4348	15.7776	11.2457	10.5743	22.6593	10.0708	6.546	11.9171	14.7705	10.4065	-8.8959	8.8959	16.2811	11.7493	12.4207	1	256	155	11	1	2
9.0637	12.085	14.7705	14.4348	14.9384	10.7422	10.91	21.8201	9.2316	6.546	10.7422	14.0991	10.2386	-9.0637	9.0637	15.9454	12.085	11.7493	1	257	156	11	1	2
9.2316	11.4136	14.6027	14.6027	14.0991	10.5743	11.4136	20.813	8.728	6.8817	9.903	13.4277	10.2386	-8.5602	9.3994	15.274	12.4207	11.0779	1	258	157	11	1	2
9.3994	10.7422	14.6027	14.9384	13.4277	10.4065	11.9171	19.8059	8.3923	7.5531	9.2316	13.2599	10.4065	-7.7209	9.903	14.6027	12.7563	10.7422	1	259	158	11	1	2
9.3994	10.2386	14.6027	14.9384	12.7563	10.0708	12.4207	19.3024	8.0566	7.8888	8.5602	12.7563	10.7422	-6.546	10.2386	14.0991	13.5956	10.2386	1	260	159	11	1	2
9.5673	9.7351	14.4348	15.1062	12.085	10.0708	13.092	18.4631	8.0566	8.728	7.8888	12.4207	11.0779	-5.2032	11.0779	13.5956	14.0991	9.903	1	261	160	11	1	2
9.5673	9.3994	14.267	15.274	11.4136	10.0708	13.9313	17.9596	7.7209	9.5673	7.3853	12.4207	11.7493	-4.1962	11.9171	13.2599	14.9384	9.7351	1	262	161	11	1	2
9.3994	9.0637	13.9313	15.4419	10.91	10.0708	14.7705	17.4561	7.8888	10.4065	7.0496	12.2528	12.2528	-3.1891	12.4207	12.5885	15.4419	9.3994	1	263	162	11	1	2
9.2316	8.8959	13.5956	15.4419	10.4065	10.0708	15.4419	17.1204	7.7209	11.2457	6.546	12.085	12.9242	-2.6855	13.5956	12.4207	16.449	9.2316	1	264	163	11	1	2
9.2316	8.5602	13.4277	15.274	10.0708	10.0708	16.1133	16.7847	7.8888	12.2528	6.0425	12.085	13.5956	-2.6855	14.4348	12.085	17.1204	9.0637	1	265	164	11	1	2
9.0637	8.3923	13.092	15.4419	9.7351	9.903	16.6168	16.449	8.2245	12.9242	5.8746	12.085	14.267	-3.0212	15.1062	11.5814	17.9596	8.8959	1	266	165	11	1	2
8.728	8.2245	12.5885	15.1062	9.2316	9.7351	17.2882	16.1133	8.0566	13.7634	5.2032	12.085	14.7705	-3.5248	15.9454	11.4136	18.4631	8.728	1	267	166	11	1	2
8.2245	7.8888	11.9171	14.9384	8.8959	9.7351	17.7917	15.6097	8.0566	14.4348	4.6997	11.7493	15.1062	-4.5319	16.449	11.0779	19.1345	8.5602	1	268	167	11	1	2
8.0566	7.8888	11.5814	14.7705	8.5602	9.7351	17.9596	15.6097	8.0566	14.9384	4.5319	11.7493	15.7776	-5.2032	16.9525	10.5743	19.3024	8.3923	1	269	168	11	1	2
7.5531	7.7209	10.91	14.4348	8.0566	9.5673	18.2953	15.1062	8.0566	15.274	4.0283	11.4136	15.7776	-6.2103	16.9525	10.4065	19.6381	8.2245	1	270	169	11	1	2
7.2174	7.7209	10.2386	14.0991	7.7209	9.2316	18.1274	14.6027	7.7209	15.6097	3.3569	11.0779	15.9454	-7.0496	16.9525	10.0708	19.6381	7.8888	1	271	170	11	1	2
6.7139	7.3853	9.7351	13.7634	7.3853	8.8959	17.9596	14.0991	7.5531	15.4419	2.8534	10.4065	15.7776	-8.0566	16.9525	9.903	19.6381	7.5531	1	272	171	11	1	2
6.2103	7.0496	9.0637	13.4277	6.7139	8.3923	17.6239	13.4277	7.0496	15.1062	2.0142	9.903	15.4419	-8.5602	16.7847	9.5673	19.4702	7.3853	1	273	172	11	1	2
5.7068	6.8817	8.3923	12.9242	6.2103	8.0566	17.1204	12.7563	6.546	14.7705	1.1749	9.0637	15.1062	-8.728	16.2811	9.2316	19.1345	6.8817	1	274	173	11	1	2
5.2032	6.546	7.5531	12.4207	5.5389	7.3853	16.449	11.9171	5.7068	14.267	0.3357	8.0566	14.6027	-8.5602	15.9454	9.0637	18.7988	6.3782	1	275	174	11	1	2
4.6997	6.2103	7.0496	11.9171	4.8676	6.8817	15.9454	11.0779	5.0354	13.4277	-0.6714	7.0496	13.9313	-8.0566	15.274	8.728	18.2953	5.8746	1	276	175	11	1	2
4.0283	5.7068	6.0425	11.2457	4.1962	6.0425	14.9384	10.0708	4.0283	12.7563	-1.5106	5.8746	12.9242	-7.5531	14.9384	8.3923	17.9596	5.0354	1	277	176	11	1	2
3.5248	5.5389	5.3711	10.7422	3.5248	5.3711	13.9313	9.0637	3.1891	11.7493	-2.5177	4.6997	12.2528	-6.7139	14.267	8.0566	17.2882	4.5319	1	278	177	11	1	2
2.8534	4.8676	4.8676	10.0708	2.6855	4.5319	12.9242	8.0566	2.182	10.7422	-3.6926	3.3569	11.2457	-6.2103	13.5956	7.5531	16.449	3.8605	1	279	178	11	1	2
2.3499	4.364	4.0283	9.3994	1.8463	3.8605	12.085	6.8817	1.1749	9.5673	-4.6997	2.182	10.2386	-6.0425	12.9242	7.2174	15.7776	3.1891	1	280	179	11	1	2
2.0142	4.1962	3.5248	9.0637	1.3428	3.1891	11.0779	5.8746	0.1678	8.728	-5.7068	0.8392	9.7351	-5.7068	12.4207	7.0496	15.274	2.5177	1	281	180	11	1	2
1.6785	4.0283	3.0212	8.728	0.6714	2.5177	10.2386	5.0354	-0.6714	7.8888	-6.546	-0.3357	8.8959	-6.0425	11.7493	6.8817	14.6027	2.0142	1	282	181	11	1	2
1.5106	3.8605	2.6855	8.3923	0.1678	1.8463	9.3994	4.1962	-1.5106	7.0496	-7.2174	-1.3428	8.2245	-6.3782	11.0779	6.546	13.9313	1.3428	1	283	182	11	1	2
1.3428	3.5248	2.3499	8.0566	-0.5035	1.3428	8.728	3.3569	-2.182	6.3782	-7.8888	-2.5177	7.7209	-6.8817	10.7422	6.2103	13.4277	0.8392	1	284	183	11	1	2
1.0071	3.3569	2.0142	7.8888	-1.0071	0.8392	8.2245	2.5177	-2.8534	6.0425	-8.5602	-3.3569	7.3853	-7.5531	10.4065	5.8746	12.9242	0.5035	1	285	184	11	1	2
1.0071	3.1891	1.8463	7.7209	-1.5106	0.5035	7.7209	2.0142	-3.3569	5.5389	-9.0637	-4.1962	7.0496	-8.2245	10.2386	5.5389	12.9242	0	1	286	185	11	1	2
0.8392	2.8534	1.5106	7.5531	-2.0142	0.1678	7.3853	1.3428	-3.6926	5.3711	-9.3994	-4.8676	7.0496	-8.8959	10.2386	5.3711	12.7563	-0.3357	1	287	186	11	1	2
1.1749	2.5177	1.5106	7.7209	-2.3499	0	7.3853	0.8392	-3.8605	5.5389	-9.3994	-5.0354	7.5531	-9.3994	10.91	5.2032	12.7563	-0.3357	1	288	187	11	1	2
1.1749	2.182	1.5106	7.5531	-2.6855	0	7.5531	0.3357	-3.8605	5.8746	-9.5673	-5.2032	8.0566	-10.2386	11.4136	4.8676	13.092	-0.3357	1	289	188	11	1	2
1.3428	2.0142	1.6785	7.7209	-3.0212	0	7.7209	0.1678	-3.5248	6.546	-9.3994	-4.8676	8.8959	-10.7422	12.5885	4.6997	13.5956	-0.1678	1	290	189	11	1	2
1.5106	1.8463	1.8463	8.0566	-3.1891	0.3357	8.3923	0.1678	-3.0212	7.3853	-8.8959	-4.5319	9.903	-11.0779	13.7634	4.5319	14.267	0	1	291	190	11	1	2
10.7422	20.6451	15.274	6.546	16.9525	17.1204	11.4136	7.5531	20.6451	19.4702	7.2174	16.1133	19.1345	15.1062	1.1749	5.2032	2.0142	-2.5177	1	231	130	12	1	2
10.4065	20.4773	15.1062	6.546	16.6168	17.1204	11.0779	7.5531	20.4773	19.3024	7.0496	15.7776	18.7988	13.092	0.5035	4.6997	1.6785	-2.6855	1	232	131	12	1	2
10.0708	20.1416	14.7705	6.3782	16.2811	16.7847	10.7422	7.3853	20.3094	18.9667	6.8817	15.4419	18.1274	10.7422	-0.3357	4.364	1.1749	-2.8534	1	233	132	12	1	2
9.5673	20.1416	14.6027	6.2103	16.1133	16.449	10.4065	7.3853	19.9738	18.631	6.7139	14.9384	17.6239	8.5602	-1.1749	4.0283	0.6714	-3.0212	1	234	133	12	1	2
9.2316	19.8059	14.267	6.2103	15.7776	16.1133	10.0708	7.3853	19.4702	18.2953	6.546	14.6027	16.9525	6.2103	-2.0142	3.5248	0.1678	-2.8534	1	235	134	12	1	2
8.8959	19.3024	13.9313	5.8746	15.4419	15.6097	9.3994	7.2174	18.7988	17.6239	6.546	13.9313	16.1133	3.8605	-2.8534	3.0212	-0.3357	-2.8534	1	236	135	12	1	2
8.3923	18.9667	13.4277	5.8746	14.9384	15.1062	8.8959	6.8817	18.2953	16.7847	6.3782	13.5956	15.1062	1.5106	-3.6926	2.6855	-0.8392	-2.3499	1	237	136	12	1	2
8.0566	18.4631	13.092	5.7068	14.7705	14.4348	8.2245	6.8817	17.6239	16.1133	6.2103	13.092	14.267	-0.5035	-4.5319	2.5177	-1.5106	-2.3499	1	238	137	12	1	2
7.7209	17.7917	12.5885	5.7068	14.267	13.9313	7.7209	6.546	17.1204	15.274	6.0425	12.4207	13.4277	-2.182	-5.2032	2.3499	-2.0142	-1.8463	1	239	138	12	1	2
7.5531	17.2882	12.085	5.8746	14.0991	13.5956	7.3853	6.546	16.449	14.6027	6.0425	12.2528	12.7563	-3.5248	-5.5389	2.5177	-2.3499	-1.5106	1	240	139	12	1	2
7.2174	16.6168	11.5814	5.8746	13.7634	13.092	6.8817	6.2103	15.9454	13.9313	6.0425	11.9171	12.085	-4.364	-5.8746	2.6855	-2.6855	-1.0071	1	241	140	12	1	2
6.8817	16.1133	11.2457	6.0425	13.2599	12.5885	6.3782	6.0425	15.4419	13.2599	6.2103	11.5814	11.4136	-4.5319	-6.0425	2.6855	-3.0212	-0.1678	1	242	141	12	1	2
6.7139	15.6097	10.91	6.2103	13.092	12.2528	6.2103	5.8746	15.1062	12.7563	6.2103	11.5814	11.0779	-4.364	-5.8746	3.1891	-3.1891	0.5035	1	243	142	12	1	2
6.3782	15.274	10.4065	6.3782	12.9242	11.7493	5.8746	5.7068	14.6027	12.085	6.3782	11.5814	10.4065	-3.8605	-5.7068	3.3569	-3.1891	1.3428	1	244	143	12	1	2
6.2103	15.1062	10.2386	6.7139	12.7563	11.5814	5.8746	5.7068	14.4348	11.5814	6.7139	11.5814	10.4065	-3.3569	-5.5389	4.0283	-2.8534	2.182	1	245	144	12	1	2
5.8746	14.7705	9.903	6.8817	12.7563	11.4136	5.7068	5.3711	14.0991	11.0779	6.7139	11.4136	10.0708	-2.8534	-5.3711	4.364	-2.8534	2.8534	1	246	145	12	1	2
5.7068	14.6027	9.7351	7.0496	12.4207	11.0779	5.5389	5.3711	13.9313	10.7422	6.8817	11.5814	9.903	-2.5177	-5.2032	5.0354	-2.5177	3.6926	1	247	146	12	1	2
5.5389	14.4348	9.3994	7.2174	12.4207	10.91	5.5389	5.2032	13.7634	10.2386	7.2174	11.5814	9.5673	-2.3499	-4.8676	5.5389	-2.3499	4.1962	1	248	147	12	1	2
5.5389	14.4348	9.2316	7.3853	12.4207	10.7422	5.3711	5.2032	13.7634	9.7351	7.3853	11.7493	9.3994	-2.5177	-4.5319	6.2103	-2.0142	4.8676	1	249	148	12	1	2
5.5389	14.6027	9.3994	7.5531	12.4207	10.7422	5.3711	5.0354	13.7634	9.5673	7.7209	11.7493	9.2316	-2.6855	-4.1962	6.7139	-1.6785	5.5389	1	250	149	12	1	2
5.5389	14.9384	9.3994	7.7209	12.5885	10.7422	5.3711	5.0354	13.9313	9.3994	7.8888	11.9171	9.2316	-3.3569	-3.8605	7.3853	-1.3428	6.2103	1	251	150	12	1	2
5.7068	15.1062	9.3994	7.8888	12.5885	10.7422	5.2032	4.8676	14.0991	9.0637	8.0566	11.9171	9.0637	-3.8605	-3.6926	7.8888	-1.1749	6.7139	1	252	151	12	1	2
5.7068	15.1062	9.2316	7.8888	12.7563	10.5743	5.0354	4.6997	14.0991	8.5602	8.0566	11.9171	8.8959	-4.364	-3.6926	8.5602	-1.0071	6.8817	1	253	152	12	1	2
5.8746	15.4419	9.3994	7.8888	12.9242	10.7422	5.0354	4.5319	14.267	8.3923	8.2245	11.9171	8.728	-5.0354	-3.5248	9.0637	-0.6714	7.2174	1	254	153	12	1	2
5.8746	15.6097	9.3994	7.7209	12.9242	10.7422	4.8676	4.364	14.267	8.0566	8.2245	11.9171	8.5602	-5.5389	-3.3569	9.3994	-0.5035	7.3853	1	255	154	12	1	2
6.2103	15.9454	9.3994	7.5531	13.092	10.91	4.8676	4.364	14.4348	7.8888	8.2245	11.9171	8.5602	-5.8746	-3.3569	9.7351	-0.3357	7.5531	1	256	155	12	1	2
6.3782	16.1133	9.7351	7.3853	13.2599	11.0779	4.8676	4.1962	14.6027	7.8888	8.3923	12.085	8.5602	-5.8746	-3.1891	9.903	0	7.7209	1	257	156	12	1	2
6.546	16.6168	9.903	7.2174	13.5956	11.4136	4.8676	4.364	14.7705	7.8888	8.5602	12.2528	8.5602	-5.3711	-3.1891	10.2386	0.1678	7.8888	1	258	157	12	1	2
6.7139	16.6168	9.903	7.0496	13.9313	11.5814	4.8676	4.1962	14.9384	7.5531	8.5602	12.2528	8.3923	-4.5319	-3.3569	10.4065	0.3357	7.7209	1	259	158	12	1	2
6.8817	17.1204	10.0708	6.7139	14.0991	11.7493	4.8676	4.364	15.274	7.7209	8.5602	12.2528	8.3923	-3.5248	-3.3569	10.5743	0.5035	7.7209	1	260	159	12	1	2
6.8817	17.1204	10.0708	6.2103	14.4348	11.9171	4.8676	4.0283	15.274	7.5531	8.3923	12.085	8.2245	-2.182	-3.8605	10.5743	0.5035	7.3853	1	261	160	12	1	2
7.0496	17.6239	10.2386	5.8746	14.7705	12.085	4.8676	4.0283	15.4419	7.5531	8.2245	11.9171	8.0566	-1.1749	-4.0283	10.4065	0.3357	7.0496	1	262	161	12	1	2
7.0496	17.7917	10.2386	5.3711	14.9384	12.2528	4.8676	4.0283	15.6097	7.5531	8.2245	11.9171	7.8888	-0.5035	-4.364	10.2386	0.3357	6.546	1	263	162	12	1	2
7.2174	18.1274	10.2386	5.0354	15.274	12.4207	4.8676	4.0283	15.6097	7.5531	7.8888	11.7493	7.7209	-0.1678	-4.8676	10.0708	0.1678	6.0425	1	264	163	12	1	2
7.2174	18.2953	10.2386	4.5319	15.4419	12.4207	4.6997	4.0283	15.7776	7.3853	7.7209	11.5814	7.3853	-0.1678	-5.2032	9.7351	0	5.3711	1	265	164	12	1	2
7.3853	18.7988	10.4065	4.364	15.9454	12.7563	4.8676	4.1962	15.9454	7.5531	7.7209	11.5814	7.2174	-0.3357	-5.5389	9.5673	-0.1678	5.0354	1	266	165	12	1	2
7.3853	19.1345	10.4065	4.0283	16.2811	12.9242	5.0354	4.0283	16.1133	7.5531	7.3853	11.2457	7.0496	-0.6714	-6.0425	9.2316	-0.3357	4.1962	1	267	166	12	1	2
7.7209	19.8059	10.7422	3.8605	16.7847	13.2599	5.2032	4.1962	16.449	7.8888	7.3853	11.2457	7.0496	-1.1749	-6.2103	9.0637	-0.5035	3.8605	1	268	167	12	1	2
8.0566	20.1416	10.91	3.6926	17.1204	13.4277	5.3711	4.0283	16.6168	7.8888	7.2174	11.2457	7.0496	-2.0142	-6.7139	8.728	-0.6714	3.1891	1	269	168	12	1	2
8.2245	20.813	11.0779	3.5248	17.4561	13.7634	5.5389	4.0283	16.6168	7.8888	7.0496	11.0779	6.8817	-2.8534	-7.0496	8.2245	-1.0071	2.5177	1	270	169	12	1	2
8.5602	21.3165	11.4136	3.6926	17.9596	14.0991	5.8746	4.1962	16.9525	8.2245	7.0496	11.0779	6.7139	-3.8605	-7.3853	8.2245	-1.3428	2.182	1	271	170	12	1	2
9.0637	21.8201	11.9171	3.8605	18.631	14.6027	6.3782	4.1962	17.4561	8.5602	7.0496	11.2457	6.7139	-4.6997	-7.5531	8.0566	-1.3428	1.8463	1	272	171	12	1	2
9.7351	22.6593	12.5885	4.364	18.9667	15.1062	6.7139	4.364	17.7917	8.728	7.0496	11.0779	6.7139	-5.2032	-7.5531	8.2245	-1.5106	1.5106	1	273	172	12	1	2
10.2386	23.3307	13.2599	4.8676	19.8059	15.7776	7.2174	4.6997	18.2953	9.2316	7.2174	11.2457	6.8817	-5.3711	-7.5531	8.2245	-1.5106	1.5106	1	274	173	12	1	2
11.0779	24.1699	14.0991	5.5389	20.4773	16.449	8.0566	5.2032	18.9667	9.7351	7.7209	11.7493	6.8817	-5.2032	-7.3853	8.728	-1.5106	1.6785	1	275	174	12	1	2
12.085	25.177	15.274	6.546	21.4844	17.4561	8.8959	5.5389	19.6381	10.2386	8.3923	12.085	7.2174	-4.5319	-7.3853	9.3994	-1.3428	2.182	1	276	175	12	1	2
13.092	26.1841	16.2811	7.5531	22.3236	18.2953	9.5673	6.2103	20.4773	10.7422	8.728	12.4207	7.5531	-3.5248	-7.2174	10.0708	-1.1749	2.5177	1	277	176	12	1	2
13.7634	27.0233	17.1204	8.728	22.995	18.9667	10.4065	6.546	20.9808	11.0779	9.2316	12.5885	7.5531	-2.3499	-7.0496	10.7422	-1.3428	2.8534	1	278	177	12	1	2
14.7705	27.8625	18.1274	9.7351	24.0021	19.8059	11.0779	7.2174	21.6522	11.5814	9.7351	12.7563	7.3853	-1.3428	-6.8817	11.4136	-1.0071	3.3569	1	279	178	12	1	2
15.4419	28.7018	19.1345	10.7422	24.6735	20.4773	11.5814	7.3853	22.1558	11.5814	10.0708	12.7563	7.2174	-0.3357	-6.8817	11.9171	-1.0071	3.5248	1	280	179	12	1	2
16.2811	29.7089	20.1416	11.9171	25.3448	21.1487	12.2528	7.7209	22.4915	11.7493	10.4065	12.7563	7.0496	0.3357	-6.8817	12.2528	-1.0071	3.8605	1	281	180	12	1	2
16.9525	30.3802	20.9808	12.9242	25.8484	21.6522	12.7563	7.8888	22.8271	11.7493	10.4065	12.5885	6.546	1.0071	-7.0496	12.5885	-1.0071	3.8605	1	282	181	12	1	2
17.6239	31.0516	21.8201	14.0991	26.5198	22.1558	13.092	7.8888	22.8271	11.7493	10.5743	12.2528	6.0425	1.6785	-7.3853	12.7563	-1.0071	3.8605	1	283	182	12	1	2
18.1274	31.723	22.4915	15.274	26.8555	22.3236	13.4277	8.2245	22.8271	11.5814	10.5743	11.9171	5.5389	2.3499	-7.5531	12.9242	-1.1749	3.8605	1	284	183	12	1	2
18.7988	32.0587	22.995	16.1133	27.0233	22.4915	13.7634	8.0566	22.6593	11.2457	10.4065	11.4136	4.8676	3.3569	-7.7209	12.7563	-1.5106	3.6926	1	285	184	12	1	2
19.3024	32.7301	23.8342	17.1204	27.1912	22.8271	14.0991	8.2245	22.6593	11.2457	10.4065	11.0779	4.5319	4.364	-7.8888	12.9242	-1.5106	3.8605	1	286	185	12	1	2
19.8059	32.8979	24.3378	18.1274	27.359	22.995	14.4348	8.2245	22.6593	11.0779	10.5743	10.7422	4.0283	5.5389	-7.8888	12.9242	-1.6785	4.0283	1	287	186	12	1	2
20.6451	33.2336	24.8413	19.3024	27.6947	23.1628	15.1062	8.2245	22.4915	10.91	10.7422	10.4065	4.0283	7.0496	-7.5531	12.9242	-1.6785	4.364	1	288	187	12	1	2
21.1487	33.5693	25.3448	20.3094	27.8625	23.3307	15.6097	8.3923	22.4915	11.0779	11.0779	10.4065	3.8605	8.5602	-6.8817	13.2599	-1.3428	4.8676	1	289	188	12	1	2
21.6522	33.905	26.0162	21.3165	28.1982	23.6664	15.9454	8.728	22.6593	11.2457	11.4136	10.2386	3.8605	10.2386	-6.0425	13.5956	-1.0071	5.5389	1	290	189	12	1	2
21.9879	33.905	26.3519	22.1558	28.1982	23.8342	16.2811	8.728	22.4915	11.2457	11.7493	10.0708	3.8605	12.085	-5.3711	13.7634	-0.6714	5.8746	1	291	190	12	1	2
15.9454	20.3094	19.1345	20.3094	22.3236	16.7847	21.9879	19.9738	16.2811	23.3307	12.4207	18.631	24.5056	2.6855	17.6239	10.0708	17.7917	9.0637	1	231	130	13	1	2
15.9454	20.6451	19.1345	19.8059	22.4915	16.9525	21.9879	20.3094	16.449	22.995	12.2528	18.631	24.1699	1.8463	16.6168	9.903	17.4561	8.8959	1	232	131	13	1	2
15.6097	20.4773	18.7988	19.3024	22.4915	16.7847	21.6522	20.3094	16.449	22.6593	12.085	18.4631	23.6664	0.6714	15.6097	9.7351	16.7847	8.3923	1	233	132	13	1	2
15.6097	20.1416	18.4631	18.9667	22.1558	16.7847	21.1487	20.1416	16.6168	21.9879	11.5814	18.2953	22.8271	-0.8392	14.4348	9.5673	16.1133	7.8888	1	234	133	13	1	2
15.4419	19.9738	18.1274	18.4631	21.8201	16.6168	20.813	20.1416	16.449	21.4844	11.2457	18.1274	22.1558	-2.5177	13.4277	9.3994	15.274	7.3853	1	235	134	13	1	2
14.9384	19.6381	17.6239	17.6239	21.4844	16.1133	20.1416	19.8059	16.1133	20.813	10.7422	17.4561	21.3165	-4.364	12.4207	9.2316	14.6027	6.8817	1	236	135	13	1	2
14.6027	19.1345	17.1204	17.1204	20.9808	15.7776	19.6381	19.4702	15.7776	19.9738	10.2386	16.9525	20.1416	-6.0425	11.4136	9.2316	13.9313	6.2103	1	237	136	13	1	2
14.4348	18.631	16.6168	16.449	20.3094	15.274	19.1345	19.1345	15.4419	19.1345	9.5673	16.449	19.3024	-7.3853	10.5743	9.0637	13.2599	5.8746	1	238	137	13	1	2
14.0991	17.9596	16.1133	15.7776	19.6381	14.7705	18.4631	18.631	14.9384	18.2953	9.2316	15.7776	18.2953	-8.728	9.7351	9.0637	12.4207	5.5389	1	239	138	13	1	2
13.7634	17.2882	15.7776	15.274	18.9667	14.4348	18.1274	18.1274	14.6027	17.7917	8.8959	15.274	17.6239	-9.7351	9.2316	8.8959	11.7493	5.7068	1	240	139	13	1	2
13.5956	16.9525	15.274	14.4348	18.2953	13.7634	17.4561	17.7917	13.9313	16.9525	8.2245	14.6027	16.6168	-10.4065	8.5602	8.8959	11.0779	5.3711	1	241	140	13	1	2
13.2599	16.1133	14.7705	13.9313	17.2882	13.2599	16.9525	16.9525	13.4277	16.449	7.8888	13.9313	15.7776	-10.5743	8.3923	8.728	10.2386	5.3711	1	242	141	13	1	2
12.7563	15.4419	14.267	13.2599	16.449	12.5885	16.2811	16.1133	12.5885	15.6097	7.2174	13.2599	14.9384	-10.5743	8.0566	8.3923	9.5673	5.2032	1	243	142	13	1	2
12.2528	14.6027	13.4277	12.5885	15.1062	11.7493	15.6097	15.4419	11.7493	14.7705	6.3782	12.2528	13.9313	-10.7422	7.7209	7.8888	8.8959	4.6997	1	244	143	13	1	2
11.7493	13.5956	12.7563	11.9171	14.0991	11.0779	14.9384	14.267	10.91	14.0991	5.5389	11.4136	13.092	-10.91	7.5531	7.0496	8.5602	4.1962	1	245	144	13	1	2
11.2457	12.7563	11.9171	11.2457	12.7563	10.2386	14.267	13.092	10.0708	13.2599	4.6997	10.2386	12.2528	-11.5814	7.5531	6.3782	7.8888	3.5248	1	246	145	13	1	2
10.7422	11.7493	10.91	10.2386	11.4136	9.0637	13.2599	11.9171	8.8959	12.4207	3.5248	9.3994	11.4136	-12.5885	7.3853	5.3711	7.2174	2.8534	1	247	146	13	1	2
9.903	10.91	10.2386	9.5673	10.0708	8.0566	12.4207	10.5743	7.8888	11.7493	2.3499	8.2245	10.4065	-13.9313	7.3853	4.364	6.8817	1.8463	1	248	147	13	1	2
9.2316	9.903	9.2316	8.728	8.5602	7.2174	11.5814	9.3994	6.7139	10.7422	1.3428	7.2174	9.7351	-15.274	7.5531	3.3569	6.546	1.0071	1	249	148	13	1	2
8.8959	9.0637	8.5602	8.0566	7.3853	6.3782	10.7422	8.2245	5.8746	10.2386	0.3357	6.3782	8.8959	-16.449	7.7209	2.182	6.3782	0	1	250	149	13	1	2
8.3923	8.0566	7.7209	7.3853	6.2103	5.7068	10.0708	7.0496	5.0354	9.7351	-0.8392	5.5389	8.3923	-17.6239	8.0566	1.3428	6.3782	-1.0071	1	251	150	13	1	2
8.0566	7.2174	7.0496	6.8817	5.0354	5.0354	9.3994	6.0425	4.0283	9.0637	-1.5106	4.8676	7.8888	-18.631	8.5602	0.1678	6.2103	-1.8463	1	252	151	13	1	2
7.3853	6.2103	6.2103	6.0425	3.6926	4.0283	8.5602	4.8676	3.1891	8.3923	-2.6855	4.0283	7.2174	-19.8059	8.5602	-1.0071	5.8746	-3.1891	1	253	152	13	1	2
6.8817	5.3711	5.7068	5.3711	2.8534	3.5248	7.8888	4.0283	2.3499	7.8888	-3.5248	3.3569	6.8817	-20.3094	8.8959	-1.6785	6.0425	-4.1962	1	254	153	13	1	2
6.3782	4.364	4.8676	4.6997	1.6785	2.6855	7.0496	3.1891	1.5106	7.2174	-4.5319	2.5177	6.2103	-20.813	8.8959	-2.6855	5.8746	-5.5389	1	255	154	13	1	2
5.7068	3.1891	4.0283	3.8605	0.6714	2.182	6.546	2.3499	0.8392	6.8817	-5.2032	2.0142	5.7068	-20.9808	9.0637	-3.6926	5.7068	-6.546	1	256	155	13	1	2
5.0354	2.182	3.1891	3.3569	-0.3357	1.5106	5.7068	1.5106	0.1678	6.2103	-6.0425	1.3428	5.2032	-20.813	9.0637	-4.364	5.5389	-7.5531	1	257	156	13	1	2
4.1962	1.0071	2.3499	2.5177	-1.3428	0.8392	5.0354	0.6714	-0.6714	5.7068	-7.0496	0.6714	4.5319	-20.3094	9.0637	-5.3711	5.3711	-8.8959	1	258	157	13	1	2
3.5248	0	1.6785	1.8463	-2.0142	0.3357	4.364	0.1678	-1.1749	5.2032	-7.5531	0.3357	4.364	-19.4702	9.3994	-5.8746	5.5389	-9.7351	1	259	158	13	1	2
2.5177	-1.0071	0.8392	1.1749	-2.8534	-0.1678	3.8605	-0.3357	-1.8463	4.8676	-8.2245	0	4.0283	-18.4631	9.5673	-6.3782	5.5389	-10.5743	1	260	159	13	1	2
2.0142	-1.6785	0.1678	0.6714	-3.3569	-0.5035	3.6926	-0.6714	-2.0142	4.6997	-8.5602	-0.1678	4.1962	-17.2882	10.2386	-6.7139	5.8746	-11.0779	1	261	160	13	1	2
1.1749	-2.6855	-0.6714	0.1678	-3.6926	-0.6714	3.3569	-1.0071	-2.182	4.6997	-8.728	-0.1678	4.364	-16.449	10.7422	-6.8817	6.2103	-11.5814	1	262	161	13	1	2
0.3357	-3.3569	-1.3428	-0.5035	-4.1962	-1.0071	3.0212	-1.3428	-2.5177	4.5319	-9.0637	-0.3357	4.364	-15.9454	11.2457	-7.0496	6.3782	-12.085	1	263	162	13	1	2
-0.3357	-3.8605	-1.6785	-0.6714	-4.364	-1.3428	2.8534	-1.3428	-2.5177	4.6997	-9.2316	-0.1678	4.8676	-15.7776	11.7493	-7.0496	6.8817	-12.085	1	264	163	13	1	2
-1.0071	-4.5319	-2.3499	-1.1749	-4.8676	-1.3428	2.8534	-1.6785	-2.6855	4.5319	-9.3994	-0.1678	5.0354	-16.1133	12.2528	-6.8817	7.2174	-12.4207	1	265	164	13	1	2
-1.3428	-4.8676	-2.6855	-1.1749	-4.8676	-1.3428	3.0212	-1.5106	-2.5177	4.6997	-9.2316	0	5.5389	-16.1133	12.9242	-6.7139	7.5531	-12.4207	1	266	165	13	1	2
-2.0142	-5.5389	-3.1891	-1.3428	-5.0354	-1.6785	2.8534	-1.6785	-2.5177	4.6997	-9.3994	0.1678	5.5389	-16.6168	13.092	-6.546	7.5531	-12.4207	1	267	166	13	1	2
-2.3499	-5.7068	-3.3569	-1.5106	-5.2032	-1.5106	3.1891	-1.6785	-2.3499	4.8676	-9.2316	0.3357	5.8746	-16.7847	13.4277	-6.3782	7.8888	-12.2528	1	268	167	13	1	2
-2.6855	-6.0425	-3.5248	-1.3428	-5.2032	-1.5106	3.3569	-1.6785	-2.3499	5.2032	-9.2316	0.5035	6.2103	-16.7847	13.5956	-6.0425	8.2245	-12.085	1	269	168	13	1	2
-2.8534	-6.546	-3.6926	-1.3428	-5.3711	-1.6785	3.5248	-1.8463	-2.5177	5.2032	-9.3994	0.3357	6.2103	-16.9525	13.5956	-5.8746	8.2245	-12.085	1	270	169	13	1	2
-3.0212	-6.8817	-3.8605	-1.0071	-5.5389	-1.6785	4.0283	-1.8463	-2.5177	5.3711	-9.5673	0.3357	6.3782	-16.6168	13.5956	-5.7068	8.3923	-12.085	1	271	170	13	1	2
-3.0212	-7.2174	-3.8605	-0.6714	-5.5389	-1.8463	4.364	-2.0142	-2.5177	5.5389	-9.5673	0.3357	6.546	-16.2811	13.4277	-5.3711	8.5602	-11.9171	1	272	171	13	1	2
-3.0212	-7.5531	-3.8605	-0.3357	-5.7068	-1.8463	4.6997	-2.182	-2.5177	5.7068	-9.7351	0.1678	6.7139	-15.6097	13.4277	-5.0354	8.728	-11.9171	1	273	172	13	1	2
-2.6855	-7.8888	-3.8605	0	-5.8746	-2.0142	5.2032	-2.3499	-2.5177	5.8746	-9.903	0	6.8817	-14.6027	13.4277	-4.8676	8.8959	-11.9171	1	274	173	13	1	2
-2.6855	-8.3923	-4.0283	0.5035	-6.0425	-2.182	5.5389	-2.6855	-2.8534	6.0425	-10.2386	-0.3357	6.8817	-13.092	13.5956	-4.6997	9.0637	-12.085	1	275	174	13	1	2
-2.6855	-8.728	-4.0283	0.6714	-6.546	-2.5177	5.8746	-3.1891	-3.1891	5.8746	-10.7422	-0.8392	7.0496	-11.5814	13.5956	-4.6997	9.2316	-12.2528	1	276	175	13	1	2
-2.5177	-8.8959	-4.0283	1.1749	-6.8817	-2.8534	6.0425	-3.3569	-3.5248	6.0425	-11.0779	-1.1749	7.2174	-9.7351	14.0991	-4.6997	9.5673	-12.2528	1	277	176	13	1	2
-2.3499	-9.3994	-4.1962	1.5106	-7.0496	-3.0212	6.546	-3.6926	-3.8605	6.2103	-11.2457	-1.3428	7.3853	-7.8888	14.6027	-4.6997	9.7351	-12.2528	1	278	177	13	1	2
-2.3499	-9.5673	-4.364	1.6785	-7.5531	-3.3569	6.546	-4.0283	-4.1962	6.2103	-11.7493	-1.6785	7.5531	-6.0425	15.274	-4.5319	10.0708	-12.4207	1	279	178	13	1	2
-2.3499	-9.903	-4.5319	1.8463	-7.8888	-3.6926	6.8817	-4.5319	-4.5319	6.3782	-12.085	-2.182	7.8888	-5.0354	15.6097	-4.6997	10.2386	-12.4207	1	280	179	13	1	2
-2.0142	-10.0708	-4.5319	2.182	-8.0566	-3.8605	7.0496	-4.5319	-4.8676	6.3782	-12.4207	-2.182	8.0566	-3.8605	16.2811	-4.6997	10.7422	-12.085	1	281	180	13	1	2
-1.8463	-10.0708	-4.364	2.6855	-8.2245	-4.0283	7.2174	-4.6997	-5.0354	6.7139	-12.2528	-2.3499	8.3923	-3.0212	16.9525	-4.364	11.0779	-11.7493	1	282	181	13	1	2
-1.6785	-10.2386	-4.364	3.0212	-8.2245	-4.0283	7.5531	-4.6997	-5.0354	6.8817	-12.2528	-2.5177	8.8959	-2.6855	17.4561	-4.364	11.2457	-11.4136	1	283	182	13	1	2
-1.6785	-10.5743	-4.5319	3.0212	-8.3923	-4.364	7.3853	-4.6997	-5.2032	6.8817	-12.2528	-2.6855	8.8959	-2.5177	17.6239	-4.0283	11.0779	-11.0779	1	284	183	13	1	2
-1.6785	-10.5743	-4.5319	3.0212	-8.5602	-4.364	7.5531	-4.8676	-5.2032	6.8817	-12.2528	-2.6855	8.8959	-2.8534	17.7917	-4.0283	10.91	-10.5743	1	285	184	13	1	2
-1.3428	-10.7422	-4.364	3.1891	-8.3923	-4.364	7.5531	-4.6997	-5.2032	7.0496	-11.7493	-2.6855	9.0637	-3.3569	17.9596	-3.6926	10.91	-9.903	1	286	185	13	1	2
-1.1749	-10.7422	-4.364	3.3569	-8.0566	-4.1962	7.7209	-4.5319	-5.0354	7.2174	-11.5814	-2.6855	9.2316	-4.0283	17.6239	-3.3569	10.4065	-9.3994	1	287	186	13	1	2
-1.3428	-11.0779	-4.5319	3.1891	-8.0566	-4.1962	7.5531	-4.364	-5.2032	7.0496	-11.4136	-3.0212	9.0637	-5.3711	17.1204	-3.1891	9.7351	-8.8959	1	288	187	13	1	2
-1.1749	-11.0779	-4.1962	3.0212	-7.8888	-4.0283	7.5531	-4.1962	-4.8676	7.0496	-11.0779	-3.0212	8.8959	-6.2103	16.449	-2.6855	9.3994	-8.3923	1	289	188	13	1	2
-1.1749	-11.0779	-4.1962	3.0212	-7.3853	-3.6926	7.5531	-3.5248	-4.6997	7.0496	-10.91	-3.1891	8.728	-7.0496	15.4419	-2.5177	8.8959	-8.0566	1	290	189	13	1	2
-1.1749	-11.0779	-4.0283	2.6855	-7.0496	-3.5248	7.5531	-3.3569	-4.5319	7.0496	-10.7422	-3.5248	8.2245	-7.8888	14.6027	-2.3499	8.3923	-7.8888	1	291	190	13	1	2
-11.9171	-25.8484	-13.4277	-10.5743	-22.4915	-12.085	-3.5248	-17.4561	-12.085	-1.8463	-14.267	-8.2245	0.3357	-19.8059	6.8817	-11.7493	6.3782	-9.3994	1	231	130	15	1	2
-12.4207	-26.5198	-14.0991	-11.4136	-22.995	-12.9242	-4.1962	-18.1274	-12.7563	-2.3499	-14.7705	-9.0637	-0.5035	-19.8059	6.2103	-11.7493	5.8746	-9.7351	1	232	131	15	1	2
-12.9242	-26.8555	-14.7705	-12.085	-22.995	-13.4277	-4.5319	-18.2953	-13.2599	-2.8534	-15.274	-9.7351	-1.3428	-19.8059	5.3711	-11.4136	5.3711	-10.0708	1	233	132	15	1	2
-13.4277	-27.1912	-15.1062	-12.9242	-23.1628	-13.9313	-5.0354	-18.7988	-13.9313	-3.6926	-15.7776	-10.4065	-2.3499	-20.1416	4.5319	-11.2457	4.8676	-10.2386	1	234	133	15	1	2
-13.9313	-27.5269	-15.6097	-13.7634	-23.3307	-14.6027	-5.7068	-19.1345	-14.6027	-4.5319	-16.2811	-11.0779	-3.3569	-20.1416	3.5248	-11.0779	4.1962	-10.4065	1	235	134	15	1	2
-14.4348	-27.8625	-16.1133	-14.4348	-23.3307	-15.1062	-6.2103	-19.3024	-15.274	-5.3711	-16.7847	-11.9171	-4.5319	-20.4773	2.5177	-10.91	3.6926	-10.7422	1	236	135	15	1	2
-14.6027	-27.8625	-16.2811	-14.9384	-22.995	-15.4419	-6.7139	-19.3024	-15.7776	-6.0425	-16.9525	-12.4207	-5.3711	-20.6451	1.8463	-10.5743	3.0212	-10.7422	1	237	136	15	1	2
-14.6027	-27.6947	-16.2811	-15.4419	-22.4915	-15.6097	-6.8817	-18.9667	-16.1133	-6.546	-17.1204	-12.7563	-6.2103	-20.6451	1.1749	-10.0708	2.3499	-10.5743	1	238	137	15	1	2
-14.267	-27.1912	-15.9454	-15.274	-21.6522	-15.4419	-6.8817	-18.4631	-16.1133	-6.8817	-16.9525	-12.9242	-6.546	-20.3094	1.0071	-9.2316	2.182	-10.0708	1	239	138	15	1	2
-14.0991	-26.8555	-15.7776	-15.274	-20.9808	-15.4419	-7.0496	-17.9596	-16.2811	-7.0496	-16.7847	-13.092	-7.0496	-19.8059	0.6714	-8.5602	2.0142	-9.903	1	240	139	15	1	2
-13.5956	-26.1841	-15.274	-14.9384	-20.1416	-15.1062	-6.7139	-17.2882	-16.1133	-7.2174	-16.449	-13.092	-7.2174	-18.9667	0.6714	-8.0566	1.8463	-9.2316	1	241	140	15	1	2
-13.092	-25.3448	-14.6027	-14.6027	-19.1345	-14.6027	-6.3782	-16.6168	-15.9454	-7.2174	-15.9454	-12.7563	-7.2174	-17.4561	0.8392	-7.2174	1.8463	-8.5602	1	242	141	15	1	2
-12.7563	-24.6735	-14.0991	-14.267	-18.1274	-14.0991	-6.0425	-15.7776	-15.6097	-7.2174	-15.4419	-12.5885	-7.2174	-15.9454	0.8392	-6.546	1.6785	-7.8888	1	243	142	15	1	2
-12.2528	-23.4985	-13.2599	-13.5956	-16.9525	-13.2599	-5.5389	-14.6027	-15.1062	-6.8817	-14.7705	-11.9171	-7.0496	-14.267	1.1749	-5.7068	1.8463	-7.0496	1	244	143	15	1	2
-11.5814	-22.6593	-12.4207	-12.9242	-16.1133	-12.7563	-5.2032	-13.7634	-14.7705	-6.7139	-14.4348	-11.5814	-7.0496	-12.9242	1.1749	-5.0354	1.5106	-6.546	1	245	144	15	1	2
-11.0779	-21.6522	-11.7493	-12.4207	-14.9384	-11.9171	-4.5319	-12.7563	-14.267	-6.3782	-14.0991	-11.0779	-6.7139	-11.9171	1.1749	-4.5319	1.5106	-6.0425	1	246	145	15	1	2
-10.5743	-20.6451	-11.0779	-11.5814	-14.267	-11.4136	-4.0283	-11.7493	-13.5956	-6.2103	-13.5956	-10.7422	-6.546	-11.4136	1.1749	-4.1962	1.3428	-5.7068	1	247	146	15	1	2
-9.903	-19.3024	-9.903	-10.91	-12.9242	-10.4065	-3.1891	-10.7422	-12.7563	-5.5389	-12.9242	-10.0708	-5.8746	-10.91	1.3428	-3.5248	1.3428	-5.2032	1	248	147	15	1	2
-9.2316	-18.1274	-9.0637	-10.0708	-11.9171	-9.3994	-2.5177	-9.5673	-12.2528	-5.0354	-12.4207	-9.3994	-5.7068	-10.91	1.1749	-3.1891	1.3428	-4.8676	1	249	148	15	1	2
-8.5602	-16.7847	-8.2245	-9.5673	-11.2457	-8.8959	-2.0142	-8.728	-11.5814	-4.6997	-12.085	-8.8959	-5.3711	-11.0779	1.0071	-3.0212	1.0071	-4.6997	1	250	149	15	1	2
-7.8888	-15.6097	-7.5531	-8.728	-10.0708	-7.8888	-1.3428	-7.7209	-10.7422	-4.1962	-11.7493	-8.2245	-4.8676	-11.0779	1.0071	-2.8534	0.8392	-4.5319	1	251	150	15	1	2
-7.3853	-14.267	-6.546	-8.2245	-9.2316	-6.8817	-0.6714	-6.7139	-9.903	-3.5248	-11.2457	-7.5531	-4.364	-11.2457	0.8392	-2.8534	0.8392	-4.5319	1	252	151	15	1	2
-6.7139	-12.9242	-5.8746	-7.5531	-8.2245	-6.3782	-0.3357	-5.8746	-9.3994	-3.0212	-11.2457	-7.0496	-4.0283	-11.5814	0.5035	-2.8534	0.8392	-4.5319	1	253	152	15	1	2
-6.0425	-11.4136	-4.8676	-6.8817	-7.3853	-5.3711	0.5035	-5.0354	-8.5602	-2.182	-10.7422	-6.3782	-3.3569	-11.5814	0.6714	-2.8534	0.8392	-4.6997	1	254	153	15	1	2
-5.5389	-10.2386	-4.364	-6.3782	-6.546	-4.6997	1.0071	-4.364	-7.7209	-1.6785	-10.5743	-5.8746	-2.8534	-11.7493	0.5035	-3.0212	0.8392	-4.8676	1	255	154	15	1	2
-5.0354	-8.8959	-3.5248	-5.8746	-5.7068	-3.6926	1.8463	-3.6926	-6.7139	-1.0071	-10.0708	-5.0354	-2.182	-11.2457	0.8392	-3.0212	1.0071	-5.0354	1	256	155	15	1	2
-4.6997	-7.5531	-3.0212	-5.3711	-5.0354	-3.0212	2.3499	-3.0212	-6.0425	-0.3357	-9.7351	-4.5319	-1.6785	-10.91	0.6714	-3.3569	1.0071	-5.3711	1	257	156	15	1	2
-4.364	-6.3782	-2.5177	-5.0354	-4.364	-2.3499	2.8534	-2.5177	-5.3711	0.3357	-9.5673	-4.0283	-1.1749	-10.4065	0.6714	-3.5248	0.8392	-5.7068	1	258	157	15	1	2
-4.0283	-5.2032	-1.8463	-4.364	-3.5248	-1.6785	3.5248	-2.0142	-4.5319	1.0071	-9.2316	-3.5248	-0.3357	-9.3994	1.0071	-3.5248	1.0071	-6.0425	1	259	158	15	1	2
-3.6926	-3.8605	-1.1749	-4.0283	-2.8534	-1.0071	4.0283	-1.5106	-3.6926	1.8463	-8.8959	-2.8534	0.3357	-8.0566	1.1749	-3.6926	1.1749	-6.2103	1	260	159	15	1	2
-3.5248	-3.0212	-0.6714	-3.3569	-2.3499	-0.3357	4.6997	-1.0071	-2.8534	2.5177	-8.5602	-2.3499	1.1749	-7.0496	1.3428	-3.6926	1.3428	-6.546	1	261	160	15	1	2
-3.3569	-2.182	-0.3357	-3.0212	-1.8463	0.3357	5.2032	-0.6714	-2.182	3.1891	-8.3923	-1.8463	1.6785	-6.2103	1.6785	-3.8605	1.6785	-6.8817	1	262	161	15	1	2
-3.1891	-1.6785	0	-2.3499	-1.3428	1.0071	6.0425	-0.1678	-1.3428	4.1962	-8.0566	-1.1749	2.6855	-5.7068	2.182	-3.6926	2.182	-7.0496	1	263	162	15	1	2
-3.1891	-1.1749	0.5035	-1.8463	-0.8392	1.3428	6.546	0.1678	-0.6714	5.0354	-7.8888	-0.5035	3.5248	-5.8746	2.5177	-3.6926	2.6855	-7.2174	1	264	163	15	1	2
-2.8534	-0.8392	1.0071	-1.1749	-0.5035	2.182	7.3853	0.5035	0.3357	5.8746	-7.2174	0.1678	4.5319	-6.2103	3.3569	-3.5248	3.5248	-7.3853	1	265	164	15	1	2
-2.8534	-0.8392	1.1749	-0.6714	-0.3357	2.5177	7.8888	0.8392	1.1749	6.7139	-6.8817	0.8392	5.2032	-7.0496	4.0283	-3.5248	4.0283	-7.5531	1	266	165	15	1	2
-2.8534	-0.8392	1.5106	0	0.1678	3.1891	8.728	1.3428	2.0142	7.5531	-6.2103	1.6785	6.2103	-7.8888	4.8676	-3.3569	4.8676	-7.3853	1	267	166	15	1	2
-2.8534	-1.3428	1.6785	0.3357	0.1678	3.5248	9.0637	1.3428	2.6855	8.3923	-5.8746	2.182	7.0496	-8.8959	5.3711	-3.3569	5.7068	-7.5531	1	268	167	15	1	2
-2.6855	-1.5106	2.0142	0.8392	0.3357	3.8605	9.7351	1.6785	3.3569	9.0637	-5.3711	3.0212	7.8888	-10.0708	6.0425	-3.1891	6.2103	-7.3853	1	269	168	15	1	2
-2.6855	-2.0142	2.182	1.1749	0.5035	4.1962	10.2386	2.0142	4.0283	9.903	-4.8676	3.6926	8.728	-11.4136	6.8817	-3.1891	7.0496	-7.3853	1	270	169	15	1	2
-2.5177	-2.5177	2.5177	1.6785	0.5035	4.5319	10.7422	2.3499	4.8676	10.7422	-4.1962	4.5319	9.5673	-12.4207	7.5531	-2.8534	7.7209	-7.0496	1	271	170	15	1	2
-2.5177	-3.1891	2.5177	2.0142	0.6714	4.8676	11.2457	2.5177	5.2032	11.2457	-3.6926	5.0354	10.0708	-13.7634	8.0566	-3.0212	8.2245	-7.0496	1	272	171	15	1	2
