"FZ"	"FC3"	"FCZ"	"FC4"	"C3"	"CZ"	"C4"	"CP3"	"CPZ"	"CP4"	"P3"	"PZ"	"P4"	"OZ"	"P8"	"TP7"	"TP8"	"P7"	"Subject"	"Points"	"Time"	"Trial"	"Rejected"	"Correct"
-0.1678	1.8463	-1.0071	-1.6785	0.6714	-5.3711	-3.5248	-3.0212	-7.3853	-3.1891	-14.7705	-5.7068	-11.4136	1.5106	-2.6855	-5.2032	-6.2103	-5.2032	62	231	130	2	1	2
0.8392	2.6855	0	-0.6714	1.1749	-4.5319	-2.6855	-3.0212	-6.8817	-2.8534	-14.9384	-5.2032	-11.0779	1.3428	-2.5177	-5.5389	-6.0425	-5.7068	62	232	131	2	1	2
1.8463	3.5248	1.0071	0.1678	1.6785	-3.6926	-2.182	-3.1891	-6.2103	-2.5177	-15.1062	-4.5319	-10.7422	1.1749	-2.3499	-5.8746	-5.8746	-6.546	62	233	132	2	1	2
2.5177	4.364	2.0142	1.0071	2.0142	-2.8534	-1.5106	-3.3569	-5.5389	-2.182	-15.6097	-4.0283	-10.4065	1.0071	-2.182	-6.2103	-5.7068	-7.2174	62	234	133	2	1	2
3.1891	5.2032	2.8534	1.6785	2.5177	-2.0142	-0.8392	-3.5248	-5.0354	-2.0142	-15.7776	-3.3569	-10.0708	0.8392	-2.182	-6.546	-5.7068	-7.8888	62	235	134	2	1	2
3.8605	5.8746	3.3569	2.182	2.8534	-1.5106	-0.3357	-3.6926	-4.5319	-1.8463	-15.9454	-2.8534	-9.7351	0.6714	-2.0142	-6.8817	-5.5389	-8.3923	62	236	135	2	1	2
4.5319	6.546	4.0283	2.8534	3.1891	-1.0071	0.1678	-3.8605	-4.0283	-1.6785	-16.1133	-2.182	-9.3994	0.5035	-2.0142	-7.2174	-5.5389	-9.0637	62	237	136	2	1	2
5.0354	7.0496	4.6997	3.3569	3.3569	-0.3357	0.5035	-4.0283	-3.5248	-1.6785	-16.2811	-1.6785	-9.2316	0.3357	-2.0142	-7.7209	-5.5389	-9.5673	62	238	137	2	1	2
5.3711	7.3853	5.2032	3.8605	3.3569	0	0.6714	-4.364	-3.1891	-1.6785	-16.449	-1.3428	-9.0637	0.1678	-2.0142	-8.0566	-5.5389	-10.2386	62	239	138	2	1	2
5.8746	7.7209	5.5389	4.1962	3.5248	0.1678	0.8392	-4.6997	-2.8534	-1.6785	-16.449	-0.8392	-8.8959	0	-2.182	-8.3923	-5.7068	-10.5743	62	240	139	2	1	2
6.3782	8.0566	5.7068	4.5319	3.5248	0.5035	1.1749	-5.0354	-2.5177	-1.6785	-16.6168	-0.3357	-8.5602	-0.1678	-2.3499	-8.5602	-5.7068	-10.91	62	241	140	2	1	2
6.7139	8.2245	6.0425	4.6997	3.3569	0.5035	1.3428	-5.2032	-2.182	-1.8463	-16.6168	0	-8.3923	-0.3357	-2.3499	-8.728	-5.8746	-11.0779	62	242	141	2	1	2
7.0496	8.3923	6.0425	5.0354	3.0212	0.6714	1.3428	-5.5389	-2.0142	-1.8463	-16.449	0.5035	-8.2245	-0.6714	-2.6855	-8.8959	-6.0425	-11.2457	62	243	142	2	1	2
7.2174	8.3923	6.2103	5.0354	2.6855	0.6714	1.1749	-5.8746	-1.8463	-2.0142	-16.2811	0.8392	-8.0566	-0.6714	-2.8534	-9.0637	-6.2103	-11.2457	62	244	143	2	1	2
7.5531	8.3923	6.2103	5.2032	2.3499	0.6714	1.1749	-6.0425	-1.5106	-2.182	-16.2811	1.1749	-7.8888	-0.8392	-3.0212	-8.8959	-6.3782	-11.2457	62	245	144	2	1	2
7.5531	8.2245	6.0425	5.2032	1.8463	0.5035	1.0071	-6.3782	-1.5106	-2.3499	-16.1133	1.5106	-7.8888	-0.8392	-3.3569	-8.8959	-6.546	-11.2457	62	246	145	2	1	2
7.3853	7.8888	5.7068	5.0354	1.3428	0.1678	0.6714	-6.7139	-1.5106	-2.6855	-15.9454	1.6785	-7.8888	-0.8392	-3.6926	-8.8959	-6.7139	-11.0779	62	247	146	2	1	2
7.0496	7.5531	5.2032	4.6997	0.6714	-0.1678	0.1678	-7.2174	-1.5106	-3.0212	-15.9454	1.8463	-7.8888	-0.8392	-4.0283	-8.8959	-7.0496	-10.91	62	248	147	2	1	2
6.546	7.0496	4.6997	4.1962	-0.3357	-0.8392	-0.5035	-7.8888	-1.8463	-3.5248	-15.7776	1.8463	-8.0566	-0.8392	-4.364	-8.8959	-7.2174	-10.5743	62	249	148	2	1	2
5.8746	6.3782	4.1962	3.8605	-1.0071	-1.3428	-1.0071	-8.3923	-2.0142	-3.8605	-15.6097	1.8463	-8.0566	-0.8392	-4.6997	-8.8959	-7.5531	-10.4065	62	250	149	2	1	2
5.3711	5.7068	3.5248	3.3569	-2.0142	-1.6785	-1.5106	-8.8959	-2.182	-4.1962	-15.7776	1.8463	-8.2245	-1.0071	-5.0354	-8.728	-7.7209	-10.2386	62	251	150	2	1	2
4.364	4.8676	2.5177	2.6855	-2.8534	-2.3499	-2.182	-9.3994	-2.6855	-4.6997	-15.7776	1.5106	-8.5602	-1.0071	-5.5389	-8.8959	-8.0566	-9.7351	62	252	151	2	1	2
3.1891	3.8605	1.8463	2.0142	-3.8605	-3.1891	-2.8534	-10.0708	-3.1891	-5.2032	-15.9454	1.1749	-9.0637	-1.1749	-6.0425	-8.8959	-8.3923	-9.5673	62	253	152	2	1	2
2.3499	2.6855	0.8392	1.1749	-5.0354	-4.0283	-3.6926	-10.91	-3.6926	-5.7068	-16.1133	0.8392	-9.3994	-1.3428	-6.3782	-8.728	-8.728	-9.2316	62	254	153	2	1	2
1.5106	1.8463	0	0.5035	-6.0425	-4.5319	-4.364	-11.5814	-4.0283	-6.0425	-16.1133	0.6714	-9.5673	-1.5106	-6.546	-8.5602	-8.8959	-8.8959	62	255	154	2	1	2
0.5035	0.8392	-0.8392	-0.3357	-7.0496	-5.2032	-5.0354	-12.2528	-4.5319	-6.546	-16.2811	0.1678	-9.903	-1.6785	-7.0496	-8.2245	-9.0637	-8.3923	62	256	155	2	1	2
-0.5035	-0.1678	-1.8463	-1.0071	-7.7209	-5.8746	-5.7068	-12.5885	-5.0354	-7.0496	-16.1133	-0.1678	-10.2386	-1.6785	-7.3853	-7.8888	-9.3994	-7.7209	62	257	156	2	1	2
-1.1749	-1.0071	-2.3499	-1.6785	-8.5602	-6.3782	-6.2103	-13.092	-5.3711	-7.2174	-16.1133	-0.5035	-10.4065	-1.8463	-7.3853	-7.3853	-9.3994	-7.0496	62	258	157	2	1	2
-2.0142	-1.8463	-3.0212	-2.3499	-9.2316	-6.8817	-6.7139	-13.2599	-5.7068	-7.3853	-15.7776	-0.8392	-10.5743	-1.8463	-7.7209	-7.0496	-9.5673	-6.2103	62	259	158	2	1	2
-2.6855	-2.5177	-3.5248	-3.0212	-9.903	-7.2174	-7.0496	-13.5956	-6.0425	-7.5531	-15.6097	-1.0071	-10.5743	-2.0142	-7.7209	-6.3782	-9.5673	-5.3711	62	260	159	2	1	2
-3.0212	-3.3569	-4.1962	-3.6926	-10.2386	-7.5531	-7.5531	-13.7634	-6.2103	-7.5531	-15.274	-1.1749	-10.7422	-2.0142	-8.0566	-5.8746	-9.7351	-4.364	62	261	160	2	1	2
-3.6926	-4.0283	-4.5319	-4.1962	-10.91	-7.8888	-7.7209	-13.7634	-6.3782	-7.5531	-14.9384	-1.3428	-10.7422	-2.182	-8.0566	-5.0354	-9.7351	-3.3569	62	262	161	2	1	2
-4.0283	-4.8676	-5.2032	-4.8676	-11.2457	-8.2245	-8.0566	-13.7634	-6.7139	-7.5531	-14.4348	-1.5106	-10.91	-2.182	-8.2245	-4.364	-9.903	-2.182	62	263	162	2	1	2
-4.6997	-5.5389	-5.7068	-5.5389	-11.5814	-8.3923	-8.3923	-13.5956	-6.7139	-7.3853	-13.9313	-1.6785	-10.7422	-2.182	-8.0566	-3.6926	-9.903	-1.0071	62	264	163	2	1	2
-5.7068	-6.2103	-6.3782	-6.0425	-12.085	-8.8959	-8.5602	-13.5956	-6.8817	-7.3853	-13.4277	-1.6785	-10.7422	-2.3499	-8.0566	-3.0212	-9.903	0.1678	62	265	164	2	1	2
-6.3782	-7.2174	-7.0496	-7.0496	-12.4207	-9.0637	-8.8959	-13.4277	-7.0496	-7.2174	-13.092	-2.0142	-10.7422	-2.3499	-8.0566	-2.5177	-9.903	1.1749	62	266	165	2	1	2
-7.2174	-7.7209	-7.7209	-7.7209	-12.9242	-9.3994	-9.3994	-13.2599	-7.0496	-6.8817	-12.4207	-1.8463	-10.5743	-2.5177	-7.8888	-2.0142	-9.903	2.3499	62	267	166	2	1	2
-8.2245	-8.3923	-8.3923	-8.3923	-13.092	-9.903	-9.5673	-12.9242	-7.0496	-6.7139	-11.9171	-2.0142	-10.4065	-2.6855	-7.7209	-1.5106	-9.903	3.3569	62	268	167	2	1	2
-9.0637	-9.2316	-9.0637	-9.0637	-13.2599	-10.0708	-9.7351	-12.5885	-7.0496	-6.3782	-11.2457	-1.8463	-10.2386	-2.8534	-7.5531	-1.1749	-9.7351	4.364	62	269	168	2	1	2
-9.903	-9.7351	-9.5673	-9.7351	-13.2599	-10.2386	-9.903	-12.085	-7.2174	-6.2103	-10.7422	-2.0142	-10.2386	-3.0212	-7.3853	-1.0071	-9.903	5.2032	62	270	169	2	1	2
-10.7422	-10.0708	-10.2386	-10.4065	-13.092	-10.4065	-9.903	-11.5814	-7.2174	-5.8746	-10.0708	-1.8463	-10.0708	-3.1891	-7.2174	-0.6714	-9.7351	6.0425	62	271	170	2	1	2
-11.4136	-10.4065	-10.5743	-10.7422	-12.9242	-10.5743	-9.903	-11.0779	-7.2174	-5.3711	-9.3994	-1.8463	-9.7351	-3.3569	-6.8817	-0.3357	-9.7351	6.8817	62	272	171	2	1	2
-12.085	-10.7422	-11.0779	-11.2457	-12.7563	-10.7422	-10.0708	-10.4065	-7.0496	-5.0354	-8.728	-1.6785	-9.5673	-3.5248	-6.546	-0.1678	-9.7351	7.7209	62	273	172	2	1	2
-12.5885	-11.0779	-11.5814	-11.5814	-12.5885	-10.91	-10.2386	-9.7351	-6.7139	-4.5319	-7.7209	-1.3428	-9.0637	-3.6926	-6.2103	0.1678	-9.3994	8.728	62	274	173	2	1	2
-12.9242	-11.0779	-11.5814	-11.9171	-12.085	-10.7422	-10.2386	-8.8959	-6.7139	-4.0283	-7.0496	-1.1749	-8.728	-3.6926	-5.8746	0.3357	-9.3994	9.3994	62	275	174	2	1	2
-13.2599	-10.91	-11.7493	-12.085	-11.5814	-10.7422	-10.0708	-8.0566	-6.3782	-3.5248	-6.0425	-0.6714	-8.2245	-3.6926	-5.5389	0.6714	-9.2316	10.2386	62	276	175	2	1	2
-13.4277	-10.91	-11.9171	-12.2528	-10.91	-10.7422	-10.0708	-7.0496	-6.0425	-3.0212	-5.2032	-0.3357	-7.7209	-3.6926	-5.2032	0.8392	-9.0637	10.91	62	277	176	2	1	2
-13.5956	-10.7422	-12.085	-12.4207	-10.4065	-10.5743	-9.903	-6.0425	-5.7068	-2.3499	-4.1962	0	-7.2174	-3.6926	-4.8676	1.1749	-8.8959	11.5814	62	278	177	2	1	2
-13.7634	-10.7422	-12.2528	-12.7563	-9.5673	-10.5743	-9.7351	-5.2032	-5.3711	-1.8463	-3.1891	0.3357	-6.7139	-3.6926	-4.364	1.5106	-8.728	12.2528	62	279	178	2	1	2
-13.9313	-10.5743	-12.4207	-12.9242	-8.8959	-10.4065	-9.7351	-4.1962	-5.0354	-1.5106	-2.3499	0.6714	-6.2103	-3.6926	-4.0283	1.6785	-8.5602	12.7563	62	280	179	2	1	2
-14.0991	-10.5743	-12.5885	-13.092	-8.2245	-10.4065	-9.7351	-3.0212	-4.6997	-0.8392	-1.5106	1.0071	-5.7068	-3.6926	-3.6926	2.0142	-8.3923	13.2599	62	281	180	2	1	2
-14.7705	-10.7422	-12.9242	-13.2599	-7.7209	-10.5743	-9.903	-2.182	-4.364	-0.5035	-0.5035	1.5106	-5.2032	-3.8605	-3.3569	2.182	-8.2245	13.7634	62	282	181	2	1	2
-15.1062	-10.4065	-13.2599	-13.5956	-7.0496	-10.7422	-9.903	-1.1749	-4.1962	-0.3357	0.3357	1.6785	-4.6997	-3.8605	-2.8534	2.6855	-8.0566	14.0991	62	283	182	2	1	2
-15.4419	-10.4065	-13.5956	-13.7634	-6.3782	-10.7422	-9.7351	-0.3357	-4.1962	-0.1678	1.0071	1.8463	-4.364	-3.8605	-2.5177	2.8534	-7.8888	14.7705	62	284	183	2	1	2
-16.1133	-10.2386	-13.7634	-13.9313	-5.7068	-10.7422	-9.903	0.5035	-4.0283	0	1.6785	2.0142	-4.0283	-3.8605	-2.182	3.1891	-7.7209	15.1062	62	285	184	2	1	2
-16.449	-10.0708	-14.0991	-14.0991	-5.0354	-10.7422	-9.903	1.3428	-4.0283	0	2.182	2.182	-3.8605	-3.8605	-2.0142	3.5248	-7.8888	15.274	62	286	185	2	1	2
-16.9525	-9.903	-14.267	-14.0991	-4.1962	-10.7422	-9.903	2.3499	-3.6926	0.3357	2.8534	2.3499	-3.5248	-3.8605	-1.5106	3.8605	-7.7209	15.7776	62	287	186	2	1	2
-17.4561	-9.903	-14.6027	-14.267	-3.5248	-10.91	-10.0708	3.3569	-3.3569	0.5035	3.6926	2.6855	-3.1891	-4.0283	-1.1749	4.5319	-7.5531	16.1133	62	288	187	2	1	2
-17.7917	-9.5673	-14.7705	-14.4348	-2.8534	-10.91	-10.0708	4.1962	-3.3569	0.3357	4.1962	2.6855	-3.0212	-4.0283	-1.0071	4.8676	-7.5531	16.449	62	289	188	2	1	2
-18.1274	-9.3994	-15.1062	-14.6027	-2.182	-10.91	-10.0708	4.8676	-3.1891	0.5035	4.8676	3.0212	-2.8534	-4.0283	-0.8392	5.5389	-7.5531	16.9525	62	290	189	2	1	2
-18.2953	-9.0637	-15.274	-14.7705	-1.5106	-10.7422	-10.0708	5.7068	-3.0212	0.3357	5.5389	3.1891	-2.6855	-4.0283	-0.5035	6.2103	-7.5531	17.2882	62	291	190	2	1	2
-4.6997	-10.5743	-4.6997	-11.0779	-11.2457	-4.5319	-10.91	-4.5319	-3.5248	-11.4136	5.2032	-1.1749	1.3428	8.0566	2.3499	-7.0496	2.8534	2.3499	62	231	130	3	1	2
-5.2032	-11.4136	-5.5389	-11.2457	-12.7563	-5.7068	-11.4136	-6.0425	-5.0354	-12.085	3.5248	-2.6855	0.6714	8.3923	2.182	-8.0566	2.8534	1.1749	62	232	131	3	1	2
-5.8746	-12.2528	-6.2103	-11.0779	-14.0991	-7.0496	-11.9171	-7.5531	-6.546	-12.7563	2.0142	-4.0283	0	8.728	2.182	-9.0637	3.0212	-0.1678	62	233	132	3	1	2
-6.546	-13.4277	-7.3853	-11.2457	-15.6097	-8.2245	-12.5885	-9.3994	-8.2245	-13.4277	0.1678	-5.7068	-0.8392	8.8959	2.0142	-10.0708	3.0212	-1.6785	62	234	133	3	1	2
-7.2174	-14.4348	-8.3923	-11.2457	-16.9525	-9.5673	-13.092	-11.0779	-9.903	-14.267	-1.6785	-7.5531	-1.6785	9.0637	1.6785	-11.2457	2.8534	-3.1891	62	235	134	3	1	2
-7.8888	-15.4419	-9.3994	-11.2457	-18.4631	-11.0779	-13.4277	-12.7563	-11.5814	-14.9384	-3.5248	-9.3994	-2.5177	9.2316	1.5106	-12.4207	2.6855	-4.8676	62	236	135	3	1	2
-8.5602	-16.6168	-10.4065	-11.2457	-19.9738	-12.4207	-13.9313	-14.4348	-13.2599	-15.4419	-5.5389	-11.0779	-3.5248	9.3994	1.3428	-13.5956	2.6855	-6.546	62	237	136	3	1	2
-8.8959	-17.6239	-11.2457	-11.0779	-21.6522	-13.5956	-14.267	-16.1133	-14.7705	-16.1133	-7.3853	-12.7563	-4.5319	9.7351	1.0071	-14.6027	2.5177	-8.2245	62	238	137	3	1	2
-9.5673	-18.7988	-12.2528	-11.0779	-23.1628	-14.9384	-14.6027	-18.1274	-16.7847	-16.7847	-9.3994	-14.7705	-5.3711	9.903	0.8392	-15.7776	2.3499	-9.903	62	239	138	3	1	2
-10.0708	-19.8059	-13.2599	-10.91	-24.5056	-16.2811	-14.7705	-19.6381	-18.2953	-17.2882	-11.4136	-16.6168	-6.2103	10.0708	0.6714	-17.1204	2.3499	-11.9171	62	240	139	3	1	2
-10.0708	-20.813	-13.7634	-10.5743	-25.8484	-17.6239	-14.9384	-21.4844	-19.9738	-17.7917	-13.4277	-18.4631	-7.0496	10.4065	0.3357	-18.2953	2.3499	-13.5956	62	241	140	3	1	2
-10.4065	-21.6522	-14.6027	-10.2386	-27.0233	-18.631	-14.9384	-22.995	-21.4844	-18.1274	-15.4419	-20.1416	-7.8888	10.5743	0.3357	-19.3024	2.3499	-15.6097	62	242	141	3	1	2
-10.4065	-22.4915	-15.1062	-9.903	-28.1982	-19.6381	-14.9384	-24.8413	-23.1628	-18.631	-17.4561	-21.9879	-8.728	10.91	0	-20.4773	2.3499	-17.2882	62	243	142	3	1	2
-10.2386	-23.1628	-15.4419	-9.3994	-29.3732	-20.6451	-14.7705	-26.1841	-24.5056	-18.7988	-19.4702	-23.6664	-9.2316	11.2457	0	-21.4844	2.5177	-19.1345	62	244	143	3	1	2
-10.0708	-23.6664	-16.1133	-9.0637	-30.2124	-21.3165	-14.4348	-27.359	-25.6805	-18.7988	-21.3165	-25.3448	-9.903	11.4136	0	-22.4915	2.5177	-20.9808	62	245	144	3	1	2
-10.0708	-24.3378	-16.2811	-8.5602	-31.0516	-21.9879	-14.267	-28.7018	-26.8555	-18.9667	-23.3307	-26.8555	-10.4065	11.5814	-0.3357	-23.6664	2.6855	-22.6593	62	246	145	3	1	2
-9.7351	-24.8413	-16.449	-7.7209	-31.8909	-22.8271	-13.7634	-30.0446	-28.0304	-18.9667	-25.0092	-28.3661	-10.91	11.9171	-0.3357	-24.5056	2.8534	-24.3378	62	247	146	3	1	2
-9.5673	-25.177	-16.6168	-7.2174	-32.3944	-23.1628	-13.4277	-31.0516	-29.0375	-18.9667	-26.6876	-29.7089	-11.2457	12.085	-0.3357	-25.5127	3.0212	-26.1841	62	248	147	3	1	2
-9.2316	-25.5127	-16.6168	-6.3782	-32.8979	-23.4985	-12.5885	-31.8909	-29.7089	-18.631	-28.1982	-31.0516	-11.5814	12.2528	-0.1678	-26.1841	3.3569	-27.6947	62	249	148	3	1	2
-8.8959	-25.5127	-16.449	-5.7068	-33.0658	-23.8342	-11.9171	-32.7301	-30.3802	-18.2953	-29.8767	-32.2266	-11.9171	12.4207	0	-26.8555	3.8605	-29.0375	62	250	149	3	1	2
-8.3923	-25.3448	-16.1133	-5.2032	-33.0658	-23.8342	-11.2457	-33.4015	-31.0516	-17.9596	-31.0516	-33.2336	-11.9171	12.4207	0.1678	-27.5269	4.1962	-30.2124	62	251	150	3	1	2
-7.5531	-25.177	-15.6097	-4.0283	-33.0658	-23.8342	-10.2386	-33.7372	-31.3873	-17.2882	-32.2266	-34.0729	-11.9171	12.5885	0.1678	-28.0304	4.6997	-31.5552	62	252	151	3	1	2
-6.8817	-24.5056	-14.9384	-3.0212	-32.7301	-23.6664	-9.2316	-33.905	-31.5552	-16.6168	-33.0658	-34.5764	-11.5814	12.5885	0.6714	-28.1982	5.5389	-32.3944	62	253	152	3	1	2
-5.8746	-24.0021	-14.0991	-2.0142	-32.2266	-23.3307	-8.2245	-34.0729	-31.5552	-15.7776	-33.905	-35.2478	-11.4136	12.5885	1.0071	-28.3661	6.0425	-33.4015	62	254	153	3	1	2
-5.0354	-23.1628	-13.4277	-0.8392	-31.5552	-22.8271	-7.2174	-34.0729	-31.5552	-14.9384	-34.5764	-35.5835	-11.0779	12.5885	1.3428	-28.5339	6.7139	-34.0729	62	255	154	3	1	2
-3.8605	-22.3236	-12.2528	0.3357	-30.8838	-22.3236	-5.8746	-34.0729	-31.5552	-14.0991	-35.08	-35.9192	-10.7422	12.5885	1.6785	-28.7018	7.5531	-34.7443	62	256	155	3	1	2
-2.5177	-21.4844	-11.0779	1.6785	-30.0446	-21.6522	-4.6997	-33.905	-31.2195	-13.092	-35.4156	-36.087	-10.4065	12.5885	2.0142	-28.7018	8.2245	-35.4156	62	257	156	3	1	2
-1.3428	-20.4773	-9.903	3.0212	-29.2053	-20.9808	-3.3569	-33.5693	-31.0516	-12.4207	-35.7513	-36.4227	-10.0708	12.5885	2.3499	-28.8696	8.728	-35.9192	62	258	157	3	1	2
0	-19.6381	-8.5602	4.0283	-28.3661	-20.1416	-2.0142	-33.4015	-30.5481	-11.4136	-35.9192	-36.2549	-9.5673	12.5885	2.5177	-28.7018	9.3994	-36.2549	62	259	158	3	1	2
1.1749	-18.4631	-7.5531	5.2032	-27.1912	-19.3024	-1.0071	-32.7301	-30.0446	-10.5743	-35.9192	-36.087	-9.0637	12.4207	2.6855	-28.3661	10.0708	-36.4227	62	260	159	3	1	2
2.5177	-17.2882	-6.3782	6.3782	-26.0162	-18.2953	0.3357	-32.0587	-29.541	-9.5673	-35.7513	-35.9192	-8.5602	12.4207	3.0212	-28.1982	10.7422	-36.4227	62	261	160	3	1	2
3.8605	-16.1133	-5.0354	7.5531	-25.0092	-17.6239	1.3428	-31.5552	-28.8696	-8.5602	-35.5835	-35.7513	-8.2245	12.4207	3.1891	-27.8625	11.0779	-36.5906	62	262	161	3	1	2
4.6997	-15.274	-4.0283	8.3923	-23.8342	-16.6168	2.3499	-30.7159	-28.1982	-7.8888	-35.2478	-35.4156	-7.7209	12.2528	3.3569	-27.5269	11.5814	-36.4227	62	263	162	3	1	2
5.5389	-14.267	-3.0212	9.2316	-22.6593	-15.7776	3.3569	-30.0446	-27.5269	-7.2174	-34.9121	-35.08	-7.2174	12.2528	3.5248	-27.1912	12.085	-36.2549	62	264	163	3	1	2
6.2103	-13.2599	-2.0142	10.0708	-21.8201	-14.9384	4.1962	-29.3732	-26.6876	-6.546	-34.4086	-34.7443	-7.0496	12.2528	3.6926	-26.8555	12.2528	-36.2549	62	265	164	3	1	2
6.546	-12.5885	-1.3428	10.4065	-20.813	-14.4348	4.6997	-28.5339	-26.0162	-6.0425	-33.905	-34.4086	-6.7139	12.085	3.6926	-26.5198	12.5885	-36.087	62	266	165	3	1	2
6.8817	-11.7493	-0.8392	11.0779	-19.8059	-13.7634	5.3711	-27.6947	-25.5127	-5.5389	-33.4015	-34.2407	-6.7139	12.085	3.8605	-26.3519	12.5885	-35.9192	62	267	166	3	1	2
7.0496	-11.4136	-0.5035	11.0779	-18.7988	-13.2599	5.7068	-26.6876	-25.0092	-5.3711	-32.7301	-33.7372	-6.546	11.9171	3.6926	-25.8484	12.7563	-35.4156	62	268	167	3	1	2
6.8817	-11.0779	-0.3357	11.0779	-18.1274	-12.9242	5.8746	-26.0162	-24.5056	-5.3711	-32.2266	-33.5693	-6.546	11.7493	3.5248	-25.3448	12.7563	-34.9121	62	269	168	3	1	2
6.7139	-10.5743	-0.1678	11.0779	-17.4561	-12.4207	6.2103	-25.177	-24.1699	-5.0354	-31.5552	-33.2336	-6.7139	11.7493	3.5248	-24.8413	12.5885	-34.4086	62	270	169	3	1	2
6.3782	-10.2386	-0.1678	10.91	-16.9525	-12.085	6.2103	-24.3378	-23.6664	-5.0354	-30.7159	-32.8979	-6.7139	11.5814	3.3569	-24.3378	12.4207	-33.5693	62	271	170	3	1	2
6.0425	-9.903	-0.3357	10.4065	-16.2811	-11.9171	6.2103	-23.3307	-23.3307	-5.2032	-29.7089	-32.5623	-6.8817	11.4136	3.3569	-23.6664	12.4207	-32.7301	62	272	171	3	1	2
5.7068	-9.7351	-0.5035	9.903	-15.7776	-11.7493	6.2103	-22.4915	-22.8271	-5.3711	-28.7018	-32.0587	-6.8817	11.2457	3.1891	-23.1628	12.2528	-31.8909	62	273	172	3	1	2
5.3711	-9.7351	-0.8392	9.2316	-15.1062	-11.5814	6.0425	-21.4844	-22.4915	-5.7068	-27.6947	-31.723	-7.0496	11.0779	3.0212	-22.6593	12.085	-31.0516	62	274	173	3	1	2
4.6997	-9.5673	-1.3428	8.3923	-14.7705	-11.5814	5.5389	-20.6451	-22.3236	-6.0425	-26.6876	-31.2195	-7.2174	10.91	2.8534	-22.1558	11.7493	-30.2124	62	275	174	3	1	2
4.1962	-9.5673	-2.0142	7.3853	-14.4348	-11.7493	5.0354	-19.8059	-22.1558	-6.7139	-25.6805	-30.8838	-7.3853	10.7422	2.6855	-21.6522	11.4136	-29.3732	62	276	175	3	1	2
3.5248	-9.7351	-2.6855	6.2103	-14.267	-11.9171	4.364	-19.1345	-21.9879	-7.2174	-24.6735	-30.5481	-7.7209	10.5743	2.3499	-21.3165	11.0779	-28.5339	62	277	176	3	1	2
2.6855	-9.903	-3.5248	4.6997	-14.0991	-12.2528	3.5248	-18.2953	-21.9879	-8.0566	-23.6664	-30.2124	-8.0566	10.4065	2.3499	-20.813	10.7422	-27.8625	62	278	177	3	1	2
1.6785	-10.0708	-4.5319	3.3569	-14.0991	-12.5885	2.6855	-17.7917	-21.8201	-8.8959	-22.8271	-30.0446	-8.3923	10.2386	2.0142	-20.4773	10.2386	-27.1912	62	279	178	3	1	2
0.6714	-10.5743	-5.8746	1.5106	-14.0991	-13.2599	1.5106	-16.9525	-21.8201	-9.7351	-21.8201	-29.541	-8.5602	10.0708	1.8463	-20.1416	9.903	-26.5198	62	280	179	3	1	2
-1.0071	-10.91	-7.2174	-0.3357	-14.267	-13.9313	0	-16.449	-21.9879	-10.91	-20.813	-29.3732	-9.0637	9.7351	1.3428	-19.9738	9.3994	-26.0162	62	281	180	3	1	2
-2.3499	-11.5814	-8.5602	-2.3499	-14.4348	-14.6027	-1.1749	-15.9454	-22.1558	-11.9171	-19.8059	-29.2053	-9.3994	9.5673	1.0071	-19.8059	8.728	-25.177	62	282	181	3	1	2
-3.8605	-11.9171	-10.0708	-4.364	-14.6027	-15.6097	-2.5177	-15.4419	-22.6593	-13.092	-19.1345	-29.0375	-10.0708	9.3994	0.6714	-19.6381	8.0566	-24.6735	62	283	182	3	1	2
-5.5389	-12.4207	-11.4136	-6.546	-14.6027	-16.1133	-4.0283	-14.7705	-22.6593	-14.0991	-18.2953	-28.8696	-10.5743	9.2316	0.3357	-19.4702	7.3853	-24.0021	62	284	183	3	1	2
-7.2174	-12.9242	-12.9242	-8.5602	-14.7705	-16.9525	-5.5389	-14.267	-22.8271	-15.274	-17.2882	-28.5339	-11.0779	9.0637	0.3357	-19.1345	6.7139	-23.1628	62	285	184	3	1	2
-8.8959	-13.4277	-14.6027	-10.91	-14.9384	-17.7917	-7.2174	-14.0991	-23.1628	-16.449	-16.2811	-28.1982	-11.4136	8.728	0	-18.7988	6.3782	-22.4915	62	286	185	3	1	2
-10.4065	-13.9313	-16.1133	-12.9242	-14.7705	-18.4631	-8.8959	-13.5956	-23.3307	-17.6239	-15.274	-27.8625	-11.9171	8.5602	-0.1678	-18.631	5.7068	-21.6522	62	287	186	3	1	2
-11.9171	-14.0991	-17.2882	-14.9384	-14.7705	-19.1345	-10.2386	-12.9242	-23.3307	-18.7988	-14.267	-27.5269	-12.2528	8.3923	-0.5035	-18.2953	5.0354	-20.6451	62	288	187	3	1	2
-13.092	-14.4348	-18.7988	-17.1204	-14.7705	-19.9738	-11.9171	-12.2528	-23.4985	-19.8059	-13.2599	-27.0233	-12.7563	8.2245	-0.8392	-17.9596	4.364	-19.6381	62	289	188	3	1	2
-14.267	-14.267	-19.9738	-19.3024	-14.4348	-20.6451	-13.4277	-11.5814	-23.4985	-20.813	-12.085	-26.6876	-13.2599	8.2245	-1.0071	-17.6239	3.6926	-18.631	62	290	189	3	1	2
-15.274	-14.4348	-20.9808	-21.1487	-14.0991	-20.9808	-14.9384	-10.91	-23.6664	-21.9879	-11.0779	-26.1841	-13.5956	8.0566	-1.3428	-17.2882	3.0212	-17.1204	62	291	190	3	1	2
-13.092	-12.5885	-13.9313	-6.2103	-1.6785	-5.7068	-1.1749	15.9454	5.7068	5.7068	31.0516	13.5956	10.91	-1.3428	4.8676	9.5673	3.5248	24.0021	62	231	130	4	1	2
-14.0991	-13.5956	-14.9384	-6.546	-2.8534	-6.546	-1.6785	15.274	5.2032	5.7068	30.7159	13.2599	11.0779	-1.1749	5.3711	8.8959	3.8605	23.6664	62	232	131	4	1	2
-14.9384	-14.6027	-15.7776	-6.8817	-3.8605	-7.2174	-2.0142	14.4348	4.364	5.3711	30.0446	12.7563	11.0779	-1.0071	5.8746	8.0566	4.0283	22.8271	62	233	132	4	1	2
-15.9454	-15.7776	-16.7847	-7.2174	-5.0354	-8.0566	-2.3499	13.4277	3.8605	5.0354	29.3732	12.2528	11.2457	-0.8392	6.2103	7.0496	4.1962	22.1558	62	234	133	4	1	2
-16.7847	-16.7847	-17.6239	-7.5531	-6.2103	-8.8959	-2.5177	12.4207	3.0212	4.8676	28.7018	11.7493	11.2457	-0.6714	6.7139	6.2103	4.364	21.3165	62	235	134	4	1	2
-17.7917	-17.9596	-18.631	-7.8888	-7.5531	-9.5673	-2.8534	11.5814	2.5177	4.6997	27.8625	11.2457	11.4136	-0.5035	7.0496	5.3711	4.6997	20.3094	62	236	135	4	1	2
-18.2953	-18.9667	-19.3024	-8.2245	-8.5602	-10.2386	-3.1891	10.2386	1.6785	4.364	26.8555	10.5743	11.4136	-0.1678	7.7209	4.1962	4.8676	19.1345	62	237	136	4	1	2
-18.7988	-19.8059	-19.9738	-8.3923	-9.7351	-10.91	-3.3569	9.3994	1.0071	4.1962	25.8484	9.903	11.4136	0.1678	8.0566	3.3569	5.0354	17.9596	62	238	137	4	1	2
-19.1345	-20.813	-20.4773	-8.5602	-10.91	-11.4136	-3.6926	8.2245	0.3357	4.0283	25.0092	9.3994	11.4136	0.5035	8.5602	2.3499	5.5389	16.7847	62	239	138	4	1	2
-19.4702	-21.4844	-21.1487	-8.5602	-11.9171	-11.9171	-4.0283	7.0496	-0.1678	3.8605	24.0021	8.728	11.4136	0.8392	8.8959	1.3428	5.7068	15.6097	62	240	139	4	1	2
-19.8059	-22.4915	-21.4844	-8.728	-13.092	-12.5885	-4.1962	6.2103	-0.8392	3.8605	23.1628	8.2245	11.5814	1.0071	9.3994	0.3357	6.0425	14.6027	62	241	140	4	1	2
-19.8059	-22.8271	-21.8201	-8.8959	-13.9313	-12.9242	-4.364	5.2032	-1.3428	3.6926	22.1558	7.7209	11.5814	1.5106	9.903	-0.5035	6.546	13.4277	62	242	141	4	1	2
-19.8059	-23.4985	-21.8201	-8.8959	-14.6027	-12.9242	-4.364	4.364	-1.6785	3.6926	21.1487	7.0496	11.4136	1.6785	10.0708	-1.3428	6.7139	12.085	62	243	142	4	1	2
-19.9738	-24.0021	-22.1558	-8.8959	-15.4419	-13.2599	-4.5319	3.3569	-2.182	3.5248	20.1416	6.546	11.2457	1.8463	10.5743	-2.182	7.0496	10.91	62	244	143	4	1	2
-19.9738	-24.3378	-22.4915	-9.2316	-16.2811	-13.4277	-4.6997	2.3499	-2.5177	3.5248	19.4702	6.2103	11.4136	2.182	11.0779	-2.8534	7.5531	9.903	62	245	144	4	1	2
-20.3094	-24.8413	-22.4915	-9.3994	-17.1204	-13.5956	-4.8676	1.3428	-2.8534	3.3569	18.631	5.8746	11.4136	2.3499	11.2457	-3.5248	7.8888	8.728	62	246	145	4	1	2
-20.3094	-25.177	-22.6593	-9.3994	-17.7917	-13.7634	-5.0354	0.5035	-3.1891	3.1891	17.7917	5.3711	11.2457	2.5177	11.5814	-4.364	8.2245	7.5531	62	247	146	4	1	2
-20.4773	-25.5127	-22.6593	-9.5673	-18.1274	-13.7634	-5.2032	-0.3357	-3.6926	3.0212	16.7847	4.6997	10.91	2.5177	11.5814	-5.0354	8.3923	6.3782	62	248	147	4	1	2
-20.6451	-25.5127	-22.6593	-9.7351	-18.631	-13.7634	-5.0354	-1.0071	-3.8605	2.8534	15.9454	4.1962	10.7422	2.6855	11.7493	-5.7068	8.5602	5.3711	62	249	148	4	1	2
-20.4773	-25.6805	-22.3236	-9.7351	-19.1345	-13.5956	-5.2032	-1.5106	-3.8605	2.6855	15.1062	3.8605	10.7422	2.8534	11.9171	-6.2103	8.8959	4.364	62	250	149	4	1	2
-20.4773	-25.6805	-22.1558	-9.7351	-19.4702	-13.5956	-5.2032	-2.182	-4.0283	2.8534	14.267	3.5248	10.5743	3.0212	12.085	-6.8817	9.0637	3.3569	62	251	150	4	1	2
-20.3094	-25.6805	-21.8201	-9.7351	-19.6381	-13.4277	-5.2032	-2.6855	-4.0283	2.6855	13.5956	3.1891	10.4065	3.1891	12.085	-7.3853	9.2316	2.5177	62	252	151	4	1	2
-19.8059	-25.5127	-21.4844	-9.7351	-19.8059	-13.092	-5.2032	-3.1891	-4.0283	2.8534	13.092	3.1891	10.4065	3.5248	12.2528	-7.8888	9.5673	1.6785	62	253	152	4	1	2
-19.3024	-25.177	-20.9808	-9.5673	-19.8059	-12.7563	-5.0354	-3.3569	-3.8605	2.6855	12.5885	2.8534	10.2386	3.6926	12.2528	-8.2245	9.7351	1.0071	62	254	153	4	1	2
-18.631	-24.8413	-20.3094	-9.5673	-19.8059	-12.2528	-4.8676	-3.5248	-3.6926	2.6855	12.085	2.8534	10.2386	4.0283	12.4207	-8.5602	9.903	0.5035	62	255	154	4	1	2
-17.7917	-24.5056	-19.4702	-9.2316	-19.4702	-11.7493	-4.6997	-3.6926	-3.1891	3.0212	11.9171	3.0212	10.4065	4.5319	12.5885	-8.728	10.2386	0	62	256	155	4	1	2
-16.6168	-23.8342	-18.4631	-8.8959	-19.1345	-11.0779	-4.1962	-3.5248	-2.8534	3.0212	11.5814	3.1891	10.4065	4.8676	12.5885	-8.8959	10.4065	-0.3357	62	257	156	4	1	2
-15.6097	-23.3307	-17.4561	-8.5602	-18.7988	-10.4065	-4.0283	-3.6926	-2.3499	3.3569	11.5814	3.5248	10.5743	5.3711	12.7563	-9.0637	10.7422	-0.6714	62	258	157	4	1	2
-14.4348	-22.6593	-16.2811	-8.0566	-18.1274	-9.5673	-3.5248	-3.3569	-1.8463	3.5248	11.4136	3.6926	10.7422	5.7068	12.9242	-9.0637	10.91	-0.8392	62	259	158	4	1	2
-13.4277	-21.9879	-15.274	-7.7209	-17.7917	-8.728	-3.3569	-3.3569	-1.1749	3.8605	11.4136	4.0283	10.91	6.2103	13.092	-9.2316	11.2457	-1.1749	62	260	159	4	1	2
-12.2528	-21.3165	-14.0991	-7.2174	-17.2882	-7.8888	-3.0212	-3.1891	-0.6714	4.0283	11.2457	4.1962	11.0779	6.546	13.2599	-9.2316	11.4136	-1.1749	62	261	160	4	1	2
-11.2457	-20.6451	-13.2599	-6.8817	-16.7847	-7.2174	-2.6855	-3.1891	-0.1678	4.364	11.2457	4.5319	11.2457	7.0496	13.4277	-9.2316	11.7493	-1.5106	62	262	161	4	1	2
-10.2386	-19.9738	-12.2528	-6.546	-16.2811	-6.2103	-2.3499	-3.1891	0.1678	4.364	11.0779	4.6997	11.4136	7.3853	13.4277	-9.2316	11.7493	-1.5106	62	263	162	4	1	2
-9.7351	-19.6381	-11.5814	-6.3782	-15.9454	-5.7068	-2.182	-3.3569	0.6714	4.5319	10.91	4.8676	11.5814	7.7209	13.4277	-9.3994	11.9171	-1.8463	62	264	163	4	1	2
-8.8959	-19.1345	-10.7422	-5.8746	-15.6097	-4.8676	-2.182	-3.1891	1.0071	4.5319	10.4065	4.8676	11.4136	7.8888	13.2599	-9.5673	11.7493	-2.182	62	265	164	4	1	2
-8.3923	-18.7988	-10.0708	-5.7068	-15.4419	-4.1962	-2.0142	-3.3569	1.5106	4.8676	10.2386	5.0354	11.5814	8.2245	13.2599	-9.7351	11.9171	-2.5177	62	266	165	4	1	2
-7.8888	-18.4631	-9.3994	-5.3711	-15.274	-3.6926	-1.8463	-3.5248	1.8463	4.8676	9.903	5.0354	11.5814	8.3923	13.2599	-10.0708	11.7493	-3.0212	62	267	166	4	1	2
-7.2174	-17.9596	-8.8959	-5.2032	-14.9384	-3.0212	-1.5106	-3.6926	2.182	4.8676	9.0637	4.8676	11.2457	8.3923	12.9242	-10.2386	11.5814	-3.3569	62	268	167	4	1	2
-6.7139	-17.4561	-8.2245	-4.8676	-14.7705	-2.5177	-1.3428	-3.8605	2.3499	5.0354	8.5602	4.5319	11.0779	8.3923	12.7563	-10.5743	11.2457	-3.8605	62	269	168	4	1	2
-6.3782	-17.4561	-7.7209	-4.6997	-14.7705	-2.0142	-1.1749	-4.1962	2.6855	5.2032	8.2245	4.5319	10.91	8.3923	12.2528	-11.0779	11.0779	-4.364	62	270	169	4	1	2
-5.8746	-16.9525	-7.3853	-4.364	-14.6027	-1.5106	-1.1749	-4.364	2.6855	5.0354	7.5531	4.1962	10.5743	8.2245	11.9171	-11.0779	10.7422	-4.6997	62	271	170	4	1	2
-5.2032	-16.6168	-6.8817	-4.1962	-14.6027	-1.1749	-0.8392	-4.8676	2.6855	5.2032	7.0496	4.0283	10.5743	8.2245	11.7493	-11.2457	10.5743	-5.0354	62	272	171	4	1	2
-4.6997	-16.2811	-6.546	-4.0283	-14.4348	-0.8392	-0.6714	-5.2032	2.6855	5.0354	6.3782	3.5248	10.2386	8.0566	11.2457	-11.4136	10.2386	-5.7068	62	273	172	4	1	2
-4.1962	-15.7776	-5.8746	-3.6926	-14.267	-0.5035	-0.6714	-5.3711	2.6855	5.0354	5.8746	3.1891	9.903	7.8888	10.91	-11.4136	9.903	-5.8746	62	274	173	4	1	2
-3.5248	-15.4419	-5.7068	-3.6926	-14.267	-0.3357	-0.6714	-5.5389	2.5177	5.0354	5.0354	2.8534	9.5673	7.7209	10.4065	-11.5814	9.5673	-6.2103	62	275	174	4	1	2
-3.1891	-15.1062	-5.2032	-3.5248	-14.267	-0.1678	-0.5035	-6.0425	2.3499	4.8676	4.364	2.182	9.0637	7.5531	10.0708	-11.7493	8.8959	-6.3782	62	276	175	4	1	2
-3.0212	-14.9384	-5.0354	-3.6926	-14.267	0	-0.6714	-6.546	2.0142	4.6997	3.5248	1.6785	8.8959	7.3853	9.5673	-12.2528	8.5602	-6.8817	62	277	176	4	1	2
-2.5177	-14.6027	-5.0354	-3.6926	-14.4348	0	-0.6714	-6.7139	1.8463	4.5319	3.0212	1.1749	8.5602	7.2174	9.0637	-12.2528	8.2245	-7.0496	62	278	177	4	1	2
-2.5177	-14.4348	-4.6997	-3.8605	-14.267	0	-0.6714	-6.8817	1.5106	4.364	2.3499	0.6714	8.2245	7.0496	8.3923	-12.4207	7.7209	-7.2174	62	279	178	4	1	2
-2.6855	-14.0991	-4.8676	-4.0283	-14.0991	-0.1678	-1.0071	-7.0496	1.0071	4.0283	1.8463	0	7.7209	6.7139	8.0566	-12.4207	7.0496	-7.2174	62	280	179	4	1	2
-2.6855	-13.7634	-4.6997	-4.0283	-13.9313	-0.1678	-1.1749	-7.0496	0.8392	3.6926	1.3428	-0.6714	7.5531	6.546	7.7209	-12.5885	6.7139	-7.3853	62	281	180	4	1	2
-2.8534	-13.7634	-4.6997	-4.5319	-13.9313	-0.1678	-1.1749	-7.3853	0.5035	3.6926	0.8392	-1.1749	7.2174	6.3782	7.2174	-12.5885	6.3782	-7.3853	62	282	181	4	1	2
-2.8534	-13.2599	-4.6997	-4.6997	-13.5956	-0.3357	-1.3428	-7.2174	-0.1678	3.3569	0.3357	-1.6785	6.7139	6.0425	6.8817	-12.5885	5.8746	-7.2174	62	283	182	4	1	2
-3.1891	-12.9242	-4.6997	-4.6997	-13.2599	-0.5035	-1.5106	-7.0496	-0.5035	3.1891	0	-2.182	6.7139	5.8746	6.7139	-12.4207	5.7068	-7.2174	62	284	183	4	1	2
-3.1891	-12.7563	-4.6997	-5.0354	-12.9242	-0.6714	-1.5106	-6.8817	-0.8392	3.0212	-0.1678	-2.6855	6.546	5.7068	6.546	-12.2528	5.3711	-7.0496	62	285	184	4	1	2
-3.3569	-12.4207	-4.6997	-5.2032	-12.5885	-0.6714	-1.6785	-6.7139	-1.1749	3.0212	-0.3357	-3.1891	6.3782	5.5389	6.2103	-12.085	5.0354	-6.7139	62	286	185	4	1	2
-3.3569	-12.2528	-4.6997	-5.3711	-12.2528	-0.6714	-1.8463	-6.3782	-1.3428	2.8534	-0.3357	-3.6926	6.2103	5.3711	6.2103	-11.9171	4.8676	-6.2103	62	287	186	4	1	2
-3.3569	-12.085	-4.5319	-5.5389	-11.9171	-0.6714	-1.8463	-5.8746	-1.5106	2.8534	-0.1678	-4.0283	6.3782	5.2032	6.0425	-11.5814	4.6997	-5.7068	62	288	187	4	1	2
-3.3569	-11.5814	-4.364	-5.3711	-11.2457	-0.6714	-1.8463	-5.2032	-1.6785	2.8534	0	-4.1962	6.3782	5.0354	6.0425	-11.2457	4.5319	-5.2032	62	289	188	4	1	2
-3.3569	-11.5814	-4.5319	-5.5389	-10.91	-0.6714	-1.6785	-4.6997	-1.6785	2.8534	0.1678	-4.364	6.546	4.8676	5.7068	-10.91	4.5319	-4.6997	62	290	189	4	1	2
-3.1891	-11.0779	-4.1962	-5.3711	-10.2386	-0.5035	-1.6785	-4.0283	-1.8463	3.0212	0.6714	-4.5319	6.7139	4.6997	5.7068	-10.4065	4.364	-3.8605	62	291	190	4	1	2
-15.4419	-18.4631	-20.1416	-16.7847	-28.0304	-29.541	-20.813	-35.4156	-35.5835	-19.8059	-35.4156	-33.0658	-12.4207	3.0212	-5.8746	-16.2811	-10.2386	-25.0092	62	231	130	5	1	2
-14.267	-17.2882	-18.7988	-15.4419	-26.5198	-28.1982	-19.1345	-34.4086	-34.4086	-17.9596	-35.08	-32.2266	-11.0779	2.8534	-5.3711	-15.9454	-9.5673	-25.177	62	232	131	5	1	2
-13.092	-15.9454	-17.2882	-13.9313	-25.0092	-26.6876	-17.2882	-33.0658	-32.8979	-16.1133	-34.5764	-31.3873	-9.7351	2.8534	-5.0354	-15.7776	-8.8959	-25.3448	62	233	132	5	1	2
-11.7493	-14.6027	-15.7776	-12.4207	-23.3307	-25.0092	-15.4419	-31.8909	-31.3873	-14.0991	-33.905	-30.3802	-8.2245	2.6855	-4.6997	-15.274	-8.2245	-25.3448	62	234	133	5	1	2
-10.0708	-12.9242	-13.9313	-10.7422	-21.4844	-23.1628	-13.4277	-30.2124	-29.541	-11.9171	-33.0658	-29.0375	-6.3782	2.5177	-4.1962	-14.7705	-7.3853	-25.3448	62	235	134	5	1	2
-8.5602	-11.2457	-12.085	-9.0637	-19.4702	-21.4844	-11.5814	-28.8696	-27.8625	-9.903	-32.3944	-27.8625	-4.8676	2.3499	-3.8605	-14.267	-6.7139	-25.177	62	236	135	5	1	2
-6.8817	-9.5673	-10.2386	-7.3853	-17.4561	-19.6381	-9.5673	-27.1912	-26.0162	-7.8888	-31.3873	-26.5198	-3.3569	2.3499	-3.3569	-13.7634	-6.0425	-25.177	62	237	136	5	1	2
-4.8676	-7.8888	-8.3923	-5.5389	-15.6097	-17.7917	-7.5531	-25.6805	-24.1699	-5.8746	-30.3802	-25.177	-1.8463	2.182	-3.0212	-13.092	-5.3711	-24.8413	62	238	137	5	1	2
-3.0212	-6.0425	-6.3782	-3.6926	-13.5956	-15.6097	-5.5389	-24.0021	-22.3236	-3.8605	-29.3732	-23.8342	-0.1678	2.0142	-2.6855	-12.4207	-4.8676	-24.6735	62	239	138	5	1	2
-0.8392	-4.0283	-4.364	-2.0142	-11.5814	-13.7634	-3.3569	-22.3236	-20.3094	-1.8463	-28.3661	-22.3236	1.3428	1.6785	-2.182	-11.7493	-4.1962	-24.3378	62	240	139	5	1	2
1.1749	-2.0142	-2.182	-0.1678	-9.5673	-11.7493	-1.3428	-20.6451	-18.4631	0.1678	-27.359	-20.813	2.8534	1.5106	-1.8463	-11.0779	-3.6926	-23.8342	62	241	140	5	1	2
3.1891	-0.1678	-0.3357	1.6785	-7.5531	-9.903	0.5035	-18.9667	-16.6168	2.0142	-26.3519	-19.4702	4.364	1.3428	-1.5106	-10.4065	-3.1891	-23.4985	62	242	141	5	1	2
5.0354	1.6785	1.6785	3.5248	-5.5389	-8.0566	2.3499	-17.2882	-14.6027	3.8605	-25.177	-17.9596	5.7068	1.1749	-1.1749	-9.3994	-2.6855	-22.8271	62	243	142	5	1	2
6.7139	3.1891	3.3569	5.0354	-3.8605	-6.3782	4.0283	-15.7776	-12.9242	5.3711	-24.3378	-16.7847	7.0496	0.8392	-1.0071	-8.728	-2.3499	-22.4915	62	244	143	5	1	2
8.3923	5.0354	5.0354	6.546	-2.3499	-4.6997	5.7068	-14.267	-11.4136	7.0496	-23.3307	-15.4419	8.2245	0.5035	-0.8392	-8.2245	-2.0142	-22.1558	62	245	144	5	1	2
9.903	6.546	6.7139	7.8888	-0.8392	-3.1891	7.2174	-12.9242	-9.903	8.728	-22.4915	-14.267	9.3994	0.1678	-0.5035	-7.3853	-1.6785	-21.6522	62	246	145	5	1	2
11.2457	7.8888	8.2245	9.3994	0.6714	-1.6785	8.728	-11.4136	-8.5602	9.903	-21.4844	-12.9242	10.4065	-0.1678	-0.3357	-6.7139	-1.3428	-21.3165	62	247	146	5	1	2
12.5885	9.2316	9.5673	10.5743	2.0142	-0.1678	10.0708	-10.0708	-7.0496	11.2457	-20.4773	-11.9171	11.2457	-0.5035	-0.1678	-6.0425	-1.1749	-20.813	62	248	147	5	1	2
13.7634	10.2386	10.91	11.7493	3.5248	1.0071	11.2457	-8.728	-5.8746	12.2528	-19.6381	-10.91	12.085	-0.8392	-0.1678	-5.2032	-1.0071	-20.1416	62	249	148	5	1	2
14.7705	11.4136	12.085	12.7563	4.6997	2.5177	12.2528	-7.3853	-4.5319	13.2599	-18.631	-9.903	12.7563	-1.1749	0	-4.364	-0.8392	-19.6381	62	250	149	5	1	2
15.7776	12.2528	13.092	13.7634	5.7068	3.6926	13.2599	-6.2103	-3.5248	14.0991	-17.6239	-9.0637	13.4277	-1.5106	0.1678	-3.5248	-0.6714	-18.9667	62	251	150	5	1	2
16.7847	13.2599	14.0991	14.6027	6.8817	4.5319	14.0991	-4.6997	-2.182	14.9384	-16.449	-8.2245	13.9313	-1.6785	0.3357	-2.3499	-0.6714	-18.1274	62	252	151	5	1	2
17.6239	13.9313	14.9384	15.274	7.7209	5.5389	14.9384	-3.5248	-1.1749	15.4419	-15.4419	-7.3853	14.267	-2.0142	0.5035	-1.5106	-0.6714	-17.4561	62	253	152	5	1	2
18.631	14.6027	15.9454	16.2811	8.5602	6.7139	15.7776	-2.5177	-0.3357	16.1133	-14.4348	-6.546	14.7705	-2.3499	0.5035	-0.6714	-0.6714	-16.7847	62	254	153	5	1	2
19.4702	15.274	16.7847	16.9525	9.5673	7.7209	16.449	-1.0071	0.8392	16.7847	-13.092	-5.7068	15.274	-2.5177	0.5035	0.3357	-0.5035	-16.1133	62	255	154	5	1	2
19.9738	15.6097	17.4561	17.2882	10.2386	8.3923	16.9525	0.1678	1.8463	17.2882	-12.085	-4.8676	15.4419	-2.6855	0.6714	1.1749	-0.3357	-15.1062	62	256	155	5	1	2
20.6451	15.9454	18.1274	17.7917	10.91	9.3994	17.4561	1.3428	2.8534	17.6239	-10.7422	-4.0283	15.4419	-2.8534	0.8392	2.0142	-0.1678	-14.267	62	257	156	5	1	2
21.1487	16.449	18.631	18.4631	11.7493	10.2386	17.9596	2.5177	3.8605	18.1274	-9.5673	-3.3569	15.7776	-3.0212	0.8392	2.8534	-0.3357	-13.4277	62	258	157	5	1	2
21.3165	16.449	19.1345	18.631	12.085	10.91	18.2953	3.5248	4.6997	18.4631	-8.2245	-2.5177	15.9454	-3.0212	1.0071	3.3569	-0.1678	-12.4207	62	259	158	5	1	2
21.6522	16.7847	19.4702	18.9667	12.5885	11.5814	18.631	4.6997	5.7068	18.7988	-7.0496	-2.0142	16.1133	-3.1891	1.0071	3.8605	-0.1678	-11.5814	62	260	159	5	1	2
21.6522	16.9525	19.6381	19.1345	13.2599	12.2528	18.7988	5.7068	6.546	19.1345	-5.5389	-1.1749	16.1133	-3.1891	1.0071	4.364	0	-10.5743	62	261	160	5	1	2
21.4844	16.9525	19.8059	19.3024	13.5956	12.9242	18.9667	6.8817	7.5531	19.3024	-4.1962	-0.3357	16.2811	-3.1891	1.1749	4.8676	0.1678	-9.7351	62	262	161	5	1	2
20.9808	16.7847	19.6381	19.1345	13.7634	13.2599	18.7988	7.5531	8.2245	19.3024	-2.8534	0.5035	16.1133	-3.1891	1.3428	5.0354	0.3357	-8.728	62	263	162	5	1	2
20.813	16.6168	19.6381	18.9667	14.0991	13.7634	18.7988	8.3923	8.8959	19.3024	-1.5106	1.1749	16.1133	-3.1891	1.3428	5.2032	0.3357	-7.8888	62	264	163	5	1	2
20.4773	16.2811	19.6381	18.7988	14.267	14.0991	18.7988	9.2316	9.7351	19.3024	-0.1678	1.8463	15.9454	-3.1891	1.3428	5.3711	0.5035	-7.0496	62	265	164	5	1	2
20.1416	16.2811	19.4702	18.7988	14.6027	14.267	18.7988	10.0708	10.4065	19.1345	1.0071	2.5177	15.9454	-3.1891	1.5106	5.7068	0.6714	-6.2103	62	266	165	5	1	2
19.9738	15.9454	19.3024	18.4631	14.6027	14.7705	18.631	10.91	11.2457	19.1345	2.3499	3.3569	15.7776	-3.1891	1.5106	5.8746	1.0071	-5.2032	62	267	166	5	1	2
19.6381	15.9454	19.3024	18.4631	14.9384	14.9384	18.631	11.5814	11.7493	19.1345	3.5248	4.0283	15.7776	-3.3569	1.3428	6.0425	1.1749	-4.5319	62	268	167	5	1	2
19.4702	15.6097	18.7988	18.1274	14.6027	15.1062	18.2953	12.085	12.085	18.631	4.6997	4.5319	15.4419	-3.3569	1.5106	6.2103	1.1749	-3.5248	62	269	168	5	1	2
19.3024	15.4419	18.631	17.9596	14.7705	15.1062	17.9596	12.5885	12.5885	18.2953	5.7068	5.0354	15.1062	-3.3569	1.5106	6.546	1.3428	-2.5177	62	270	169	5	1	2
19.1345	15.1062	18.2953	17.7917	14.4348	15.1062	17.7917	12.9242	12.9242	17.9596	6.7139	5.5389	14.7705	-3.5248	1.1749	6.7139	1.3428	-1.6785	62	271	170	5	1	2
18.7988	14.9384	17.9596	17.2882	14.0991	14.9384	17.2882	13.092	12.9242	17.1204	7.5531	5.7068	13.9313	-3.5248	1.0071	6.7139	1.1749	-0.8392	62	272	171	5	1	2
18.631	14.6027	17.6239	16.7847	13.9313	14.4348	16.6168	13.2599	12.9242	16.6168	8.2245	5.8746	13.4277	-3.5248	0.8392	7.0496	1.0071	-0.1678	62	273	172	5	1	2
18.4631	14.0991	16.9525	16.449	13.4277	14.0991	15.9454	13.2599	12.9242	15.7776	9.0637	6.2103	12.7563	-3.5248	0.5035	7.0496	0.8392	0.8392	62	274	173	5	1	2
17.9596	13.5956	16.2811	15.9454	12.7563	13.5956	15.274	13.092	12.5885	14.9384	9.5673	6.2103	11.9171	-3.5248	0.1678	7.2174	0.5035	1.5106	62	275	174	5	1	2
17.2882	13.092	15.4419	15.274	12.085	12.7563	14.4348	12.9242	12.2528	13.9313	10.0708	6.0425	11.0779	-3.5248	0	7.3853	0.1678	2.182	62	276	175	5	1	2
16.6168	12.4207	14.6027	14.4348	11.5814	12.085	13.5956	12.5885	11.7493	13.092	10.5743	6.2103	10.4065	-3.5248	-0.5035	7.5531	-0.1678	3.0212	62	277	176	5	1	2
15.7776	11.4136	13.5956	13.5956	10.5743	11.0779	12.5885	12.085	11.0779	11.7493	10.91	6.0425	9.3994	-3.3569	-0.6714	7.3853	-0.5035	3.6926	62	278	177	5	1	2
14.7705	10.7422	12.5885	12.5885	9.7351	10.2386	11.4136	11.7493	10.5743	10.91	11.2457	5.8746	8.5602	-3.3569	-1.1749	7.3853	-1.1749	4.364	62	279	178	5	1	2
13.5956	9.903	11.4136	11.5814	8.728	9.0637	10.4065	11.2457	9.903	9.7351	11.4136	5.8746	7.7209	-3.1891	-1.1749	7.5531	-1.3428	5.0354	62	280	179	5	1	2
12.5885	8.8959	10.4065	10.5743	7.7209	8.0566	9.2316	10.5743	9.2316	8.3923	11.7493	5.7068	7.0496	-3.0212	-1.3428	7.2174	-1.8463	5.7068	62	281	180	5	1	2
11.5814	8.0566	9.2316	9.5673	6.7139	6.8817	8.2245	9.903	8.3923	7.2174	11.9171	5.5389	6.2103	-2.8534	-1.5106	7.0496	-2.182	6.2103	62	282	181	5	1	2
10.2386	7.0496	8.2245	8.5602	5.7068	5.7068	7.0496	9.3994	7.8888	6.2103	12.085	5.3711	5.5389	-2.6855	-1.6785	6.7139	-2.5177	6.7139	62	283	182	5	1	2
9.3994	6.2103	7.2174	7.5531	4.6997	4.6997	5.8746	8.8959	7.0496	5.2032	12.2528	5.2032	4.8676	-2.3499	-1.5106	6.3782	-2.8534	7.0496	62	284	183	5	1	2
8.3923	5.3711	6.2103	6.7139	3.8605	3.6926	4.8676	8.2245	6.546	4.1962	12.4207	5.0354	4.364	-2.182	-1.5106	6.0425	-3.0212	7.5531	62	285	184	5	1	2
7.5531	4.5319	5.3711	5.8746	3.0212	2.6855	3.8605	7.7209	5.8746	3.1891	12.5885	5.0354	3.8605	-2.0142	-1.3428	5.7068	-3.3569	7.8888	62	286	185	5	1	2
6.7139	3.8605	4.5319	5.0354	2.182	1.6785	2.8534	7.2174	5.2032	2.182	12.7563	5.0354	3.5248	-1.8463	-1.1749	5.2032	-3.5248	8.3923	62	287	186	5	1	2
6.2103	3.0212	3.8605	4.1962	1.3428	0.8392	1.8463	6.8817	4.8676	1.3428	13.092	5.0354	3.3569	-1.6785	-1.0071	5.0354	-3.6926	8.8959	62	288	187	5	1	2
5.5389	2.182	2.8534	3.3569	0.5035	-0.1678	0.8392	6.2103	4.1962	0.3357	13.092	5.0354	2.8534	-1.5106	-0.8392	4.5319	-3.8605	9.0637	62	289	188	5	1	2
4.6997	1.5106	2.182	2.8534	-0.1678	-0.8392	0	5.7068	3.6926	-0.3357	13.092	5.0354	2.6855	-1.1749	-0.5035	4.0283	-4.0283	9.3994	62	290	189	5	1	2
4.1962	0.8392	1.3428	1.8463	-1.0071	-1.6785	-1.0071	5.2032	3.1891	-1.3428	13.4277	5.0354	2.3499	-1.0071	-0.3357	3.6926	-4.1962	9.7351	62	291	190	5	1	2
-10.2386	-12.4207	-11.4136	-8.2245	-17.4561	-12.5885	-9.7351	-22.1558	-17.6239	-10.7422	-23.8342	-20.3094	-8.2245	-1.1749	-9.5673	-10.5743	-11.0779	-15.4419	62	231	130	6	1	2
-9.903	-11.9171	-11.2457	-7.8888	-16.9525	-12.085	-9.0637	-21.8201	-17.2882	-9.903	-24.0021	-20.1416	-7.7209	-1.3428	-9.2316	-10.7422	-10.7422	-16.1133	62	232	131	6	1	2
-9.5673	-11.2457	-10.5743	-7.0496	-16.2811	-11.5814	-8.2245	-21.3165	-16.7847	-8.8959	-23.8342	-19.8059	-7.0496	-1.3428	-8.3923	-10.7422	-10.0708	-16.6168	62	233	132	6	1	2
-9.0637	-10.5743	-10.0708	-6.3782	-15.7776	-10.91	-7.3853	-20.813	-16.1133	-7.8888	-23.6664	-19.3024	-6.3782	-1.5106	-7.7209	-10.5743	-9.3994	-17.1204	62	234	133	6	1	2
-8.5602	-9.903	-9.5673	-5.7068	-15.1062	-10.0708	-6.546	-20.3094	-15.7776	-7.0496	-23.4985	-18.9667	-5.7068	-1.6785	-7.0496	-10.5743	-8.728	-17.2882	62	235	134	6	1	2
-7.7209	-9.2316	-8.728	-4.6997	-14.267	-9.2316	-5.5389	-19.4702	-14.9384	-5.8746	-22.995	-18.2953	-4.8676	-1.6785	-6.2103	-10.2386	-7.8888	-17.4561	62	236	135	6	1	2
-6.7139	-8.3923	-7.8888	-3.6926	-13.5956	-8.5602	-4.364	-18.7988	-14.267	-4.8676	-22.4915	-17.6239	-4.0283	-1.6785	-5.2032	-9.7351	-6.8817	-17.6239	62	237	136	6	1	2
-5.8746	-7.5531	-7.0496	-2.8534	-12.7563	-7.7209	-3.5248	-17.9596	-13.5956	-3.6926	-21.9879	-17.1204	-3.3569	-1.6785	-4.364	-9.5673	-6.0425	-17.7917	62	238	137	6	1	2
-5.0354	-6.8817	-6.2103	-1.8463	-11.9171	-6.8817	-2.3499	-17.2882	-12.9242	-2.8534	-21.4844	-16.6168	-2.5177	-1.6785	-3.6926	-9.2316	-5.2032	-17.7917	62	239	138	6	1	2
-4.364	-6.2103	-5.5389	-1.0071	-11.0779	-6.3782	-1.1749	-16.449	-12.2528	-1.6785	-20.9808	-15.7776	-1.6785	-1.6785	-2.8534	-8.728	-4.1962	-17.7917	62	240	139	6	1	2
-3.6926	-5.7068	-4.8676	-0.1678	-10.5743	-5.7068	-0.1678	-15.7776	-11.5814	-0.6714	-20.4773	-15.274	-1.0071	-1.6785	-2.0142	-8.3923	-3.5248	-17.7917	62	241	140	6	1	2
-3.0212	-4.8676	-4.0283	0.8392	-9.5673	-4.8676	0.8392	-14.7705	-10.7422	0.1678	-19.4702	-14.4348	-0.3357	-1.5106	-1.1749	-7.8888	-2.3499	-17.2882	62	242	141	6	1	2
-2.5177	-4.364	-3.5248	1.6785	-8.728	-4.364	1.8463	-13.9313	-10.0708	1.5106	-18.7988	-13.7634	0.5035	-1.5106	-0.1678	-7.2174	-1.3428	-16.9525	62	243	142	6	1	2
-2.182	-3.8605	-3.0212	2.3499	-8.0566	-3.6926	2.8534	-12.9242	-9.2316	2.3499	-18.1274	-13.092	1.1749	-1.5106	0.5035	-6.7139	-0.6714	-16.6168	62	244	143	6	1	2
-2.0142	-3.1891	-2.5177	2.8534	-7.2174	-2.8534	4.0283	-12.085	-8.5602	3.0212	-17.1204	-12.2528	2.0142	-1.5106	1.1749	-6.0425	0.3357	-16.1133	62	245	144	6	1	2
-1.6785	-2.6855	-2.0142	3.5248	-6.546	-2.3499	4.8676	-11.0779	-7.8888	4.0283	-16.1133	-11.5814	2.5177	-1.5106	1.8463	-5.3711	1.0071	-15.6097	62	246	145	6	1	2
-1.5106	-2.3499	-1.6785	3.6926	-5.5389	-2.0142	5.5389	-10.0708	-7.0496	4.6997	-15.1062	-10.7422	3.0212	-1.5106	2.182	-4.5319	1.6785	-14.9384	62	247	146	6	1	2
-1.5106	-2.182	-1.5106	4.364	-5.0354	-1.6785	6.3782	-9.0637	-6.3782	5.5389	-14.267	-10.2386	3.6926	-1.6785	2.8534	-3.8605	2.3499	-14.0991	62	248	147	6	1	2
-1.5106	-1.6785	-1.0071	4.364	-4.364	-1.3428	7.0496	-8.0566	-5.8746	6.0425	-13.092	-9.3994	4.0283	-1.6785	3.1891	-3.1891	2.8534	-13.4277	62	249	148	6	1	2
-1.6785	-1.6785	-1.0071	4.8676	-3.6926	-1.0071	7.8888	-7.2174	-5.0354	6.546	-12.085	-8.728	4.5319	-1.8463	3.6926	-2.3499	3.5248	-12.5885	62	250	149	6	1	2
-1.5106	-1.1749	-0.6714	4.8676	-2.8534	-0.8392	8.2245	-5.8746	-4.5319	7.0496	-10.7422	-8.0566	4.8676	-1.8463	4.0283	-1.3428	3.6926	-11.5814	62	251	150	6	1	2
-1.8463	-1.1749	-0.6714	4.8676	-2.182	-0.5035	8.728	-5.0354	-3.8605	7.7209	-9.7351	-7.3853	5.2032	-2.0142	4.364	-0.5035	4.1962	-10.5743	62	252	151	6	1	2
-2.0142	-1.1749	-0.8392	4.6997	-1.6785	-0.3357	9.2316	-3.8605	-3.3569	7.8888	-8.5602	-6.7139	5.5389	-2.182	4.364	0.5035	4.5319	-9.5673	62	253	152	6	1	2
-2.0142	-1.0071	-0.6714	4.5319	-1.0071	-0.3357	9.3994	-2.8534	-2.8534	8.0566	-7.3853	-6.0425	5.5389	-2.182	4.5319	1.5106	4.6997	-8.3923	62	254	153	6	1	2
-2.182	-0.8392	-0.6714	4.364	-0.3357	-0.1678	9.5673	-1.5106	-2.3499	8.5602	-5.8746	-5.2032	6.0425	-2.182	4.6997	2.3499	5.2032	-7.2174	62	255	154	6	1	2
-2.3499	-0.8392	-1.0071	4.364	0.3357	0	9.7351	-0.3357	-1.6785	8.728	-4.8676	-4.5319	6.2103	-2.3499	4.8676	3.3569	5.3711	-6.2103	62	256	155	6	1	2
-2.6855	-0.8392	-0.8392	4.1962	1.0071	0	9.903	0.6714	-1.1749	8.728	-3.5248	-3.6926	6.3782	-2.3499	4.8676	4.0283	5.5389	-5.0354	62	257	156	6	1	2
-3.0212	-0.6714	-1.0071	3.8605	1.3428	0	9.7351	1.6785	-0.6714	8.8959	-2.3499	-3.3569	6.3782	-2.3499	4.8676	4.6997	5.5389	-4.0283	62	258	157	6	1	2
-3.3569	-0.6714	-1.1749	3.5248	1.8463	0	10.0708	2.6855	-0.1678	8.8959	-1.0071	-2.3499	6.7139	-2.3499	5.2032	5.5389	5.8746	-2.8534	62	259	158	6	1	2
-3.6926	-0.6714	-1.5106	3.1891	2.3499	0.1678	9.903	3.6926	0.1678	8.8959	0	-2.0142	6.7139	-2.3499	5.2032	5.7068	5.7068	-2.182	62	260	159	6	1	2
-4.0283	-0.5035	-1.5106	3.0212	2.6855	-0.1678	9.5673	4.364	0.3357	8.728	1.1749	-1.3428	6.7139	-2.182	5.2032	6.0425	5.7068	-1.0071	62	261	160	6	1	2
-4.5319	-0.6714	-1.8463	2.6855	3.1891	0	9.5673	5.3711	0.8392	8.728	2.182	-0.8392	6.7139	-2.182	5.2032	6.546	5.8746	-0.3357	62	262	161	6	1	2
-4.6997	-0.6714	-2.0142	2.3499	3.3569	-0.1678	9.2316	5.8746	1.0071	8.3923	3.1891	-0.3357	6.7139	-2.0142	5.2032	6.7139	5.7068	0.5035	62	263	162	6	1	2
-5.0354	-0.6714	-2.3499	2.0142	3.6926	-0.1678	9.0637	6.7139	1.1749	8.2245	4.0283	0	6.7139	-2.0142	5.2032	7.0496	5.7068	1.3428	62	264	163	6	1	2
-5.2032	-0.6714	-2.5177	1.6785	3.8605	-0.5035	8.5602	7.0496	1.3428	7.8888	4.6997	0.1678	6.3782	-1.8463	4.8676	7.0496	5.3711	2.0142	62	265	164	6	1	2
-5.3711	-0.8392	-2.8534	1.3428	4.0283	-0.6714	8.2245	7.5531	1.3428	7.5531	5.5389	0.5035	6.3782	-1.8463	4.8676	7.2174	5.2032	2.6855	62	266	165	6	1	2
-5.5389	-0.6714	-2.8534	1.1749	4.0283	-0.8392	7.7209	7.8888	1.3428	7.0496	6.0425	0.6714	6.0425	-1.6785	4.5319	7.3853	4.8676	3.0212	62	267	166	6	1	2
-5.3711	-0.8392	-3.0212	1.0071	4.364	-0.8392	7.5531	8.2245	1.3428	6.7139	6.546	0.8392	6.0425	-1.6785	4.364	7.3853	4.6997	3.6926	62	268	167	6	1	2
-5.3711	-1.0071	-3.3569	0.8392	4.1962	-1.1749	6.8817	8.5602	1.5106	6.3782	6.8817	0.8392	5.7068	-1.6785	4.1962	7.3853	4.364	4.0283	62	269	168	6	1	2
-5.2032	-1.0071	-3.3569	0.5035	4.0283	-1.5106	6.3782	8.728	1.3428	5.8746	7.5531	1.0071	5.5389	-1.6785	4.0283	7.3853	4.0283	4.5319	62	270	169	6	1	2
-5.0354	-1.0071	-3.5248	0	3.8605	-1.8463	5.7068	8.5602	1.1749	5.2032	7.5531	0.8392	5.0354	-1.6785	3.5248	7.0496	3.5248	4.6997	62	271	170	6	1	2
-4.6997	-1.1749	-3.5248	0	3.8605	-2.0142	5.3711	8.5602	1.0071	4.6997	7.8888	0.8392	4.8676	-1.6785	3.3569	6.8817	3.1891	5.3711	62	272	171	6	1	2
-4.6997	-1.1749	-3.6926	-0.1678	3.6926	-2.182	4.8676	8.728	1.0071	4.1962	8.2245	0.8392	4.5319	-1.8463	3.0212	6.8817	2.8534	5.8746	62	273	172	6	1	2
-4.6997	-1.3428	-4.0283	-0.6714	3.5248	-2.5177	4.1962	8.5602	0.8392	3.6926	8.5602	0.6714	4.1962	-2.0142	2.6855	6.546	2.3499	6.2103	62	274	173	6	1	2
-4.364	-1.3428	-4.0283	-0.6714	3.1891	-2.8534	3.6926	8.5602	0.6714	3.1891	8.728	0.6714	3.8605	-2.0142	2.3499	6.3782	2.0142	6.7139	62	275	174	6	1	2
-4.364	-1.3428	-4.1962	-0.8392	3.0212	-3.1891	3.3569	8.5602	0.5035	2.8534	9.0637	0.5035	3.6926	-2.182	2.182	6.2103	1.6785	7.2174	62	276	175	6	1	2
-4.364	-1.5106	-4.1962	-0.8392	2.8534	-3.3569	2.8534	8.728	0.6714	2.3499	9.3994	0.5035	3.5248	-2.3499	2.0142	6.2103	1.5106	7.7209	62	277	176	6	1	2
-4.364	-1.5106	-4.364	-1.0071	2.6855	-3.5248	2.6855	8.728	0.5035	2.0142	9.5673	0.5035	3.3569	-2.5177	1.8463	6.2103	1.3428	8.2245	62	278	177	6	1	2
-4.5319	-1.5106	-4.6997	-1.1749	2.8534	-3.6926	2.5177	8.728	0.6714	1.8463	10.0708	0.6714	3.1891	-2.6855	1.8463	6.3782	1.3428	8.728	62	279	178	6	1	2
-4.364	-1.6785	-4.6997	-1.1749	2.5177	-3.8605	2.0142	8.3923	0.3357	1.3428	10.2386	0.3357	3.1891	-2.6855	1.5106	6.2103	1.0071	9.0637	62	280	179	6	1	2
-4.5319	-1.8463	-5.0354	-1.5106	2.182	-4.1962	2.0142	8.3923	0.3357	1.0071	10.4065	0.5035	3.0212	-2.8534	1.6785	6.546	1.1749	9.3994	62	281	180	6	1	2
-4.5319	-1.8463	-5.0354	-1.5106	2.0142	-4.1962	1.5106	8.0566	0.1678	0.6714	10.2386	0.1678	2.6855	-2.8534	1.3428	6.546	0.8392	9.3994	62	282	181	6	1	2
-4.364	-2.0142	-5.0354	-1.5106	1.6785	-4.364	1.3428	7.8888	0	0.3357	10.2386	0	2.5177	-2.8534	1.3428	6.7139	0.8392	9.903	62	283	182	6	1	2
-4.1962	-1.8463	-4.8676	-1.5106	1.5106	-4.364	1.1749	7.7209	-0.1678	0	10.4065	0	2.3499	-2.8534	1.1749	7.0496	0.6714	10.2386	62	284	183	6	1	2
-4.0283	-2.0142	-5.2032	-1.6785	1.3428	-4.6997	1.0071	7.7209	-0.1678	-0.1678	10.4065	0	2.3499	-3.0212	1.1749	7.2174	0.8392	10.5743	62	285	184	6	1	2
-3.5248	-2.0142	-4.8676	-1.5106	1.0071	-4.6997	0.8392	7.3853	-0.3357	-0.3357	10.2386	-0.3357	2.182	-2.8534	1.1749	7.7209	0.6714	10.7422	62	286	185	6	1	2
-3.1891	-2.0142	-4.8676	-1.6785	0.8392	-4.6997	0.5035	7.0496	-0.5035	-0.6714	10.0708	-0.5035	2.0142	-2.8534	1.1749	7.8888	0.6714	10.91	62	287	186	6	1	2
-3.1891	-2.182	-4.8676	-1.8463	0.6714	-4.6997	0.5035	6.7139	-0.6714	-0.8392	10.0708	-0.6714	1.8463	-2.8534	1.1749	8.0566	0.6714	11.0779	62	288	187	6	1	2
-2.8534	-2.182	-4.6997	-1.6785	0.3357	-4.8676	0	6.2103	-1.0071	-1.3428	9.5673	-1.1749	1.5106	-2.6855	1.0071	8.0566	0.3357	11.0779	62	289	188	6	1	2
-3.0212	-2.5177	-5.0354	-2.3499	0	-5.2032	-0.3357	5.7068	-1.3428	-1.8463	9.2316	-1.5106	1.3428	-2.6855	1.0071	7.8888	0.1678	11.0779	62	290	189	6	1	2
-3.0212	-2.8534	-5.2032	-2.6855	-0.6714	-5.7068	-0.8392	4.8676	-2.0142	-2.5177	8.728	-2.182	0.8392	-2.5177	0.6714	7.5531	-0.1678	10.7422	62	291	190	6	1	2
0.5035	-0.8392	-1.1749	1.3428	1.0071	-2.6855	-2.8534	1.5106	-0.8392	-2.3499	1.6785	0.3357	-2.3499	-6.3782	-2.8534	8.0566	-4.364	9.0637	62	231	130	7	1	2
1.1749	-0.1678	-0.3357	2.0142	1.3428	-2.0142	-2.5177	1.6785	-0.3357	-2.0142	1.8463	1.0071	-1.8463	-6.546	-2.5177	7.8888	-3.8605	8.8959	62	232	131	7	1	2
2.182	0.1678	0.5035	2.6855	1.8463	-1.5106	-2.182	1.8463	0.1678	-1.5106	2.182	1.5106	-1.6785	-6.7139	-2.182	7.5531	-3.3569	8.8959	62	233	132	7	1	2
3.0212	0.6714	1.0071	3.0212	2.182	-1.0071	-2.0142	2.0142	0.6714	-1.5106	2.5177	1.8463	-1.5106	-6.8817	-1.8463	7.2174	-3.0212	8.728	62	234	133	7	1	2
3.8605	1.0071	2.182	3.8605	2.5177	-0.3357	-1.3428	2.5177	1.5106	-1.0071	3.1891	2.5177	-1.0071	-6.7139	-1.3428	7.3853	-2.3499	9.0637	62	235	134	7	1	2
4.6997	1.3428	2.8534	4.364	3.0212	0	-1.1749	2.5177	1.6785	-0.6714	3.5248	2.8534	-0.6714	-6.7139	-1.1749	7.2174	-2.0142	9.2316	62	236	135	7	1	2
5.3711	1.5106	3.5248	5.0354	3.1891	0.6714	-0.6714	3.0212	2.3499	-0.5035	3.8605	3.5248	-0.5035	-6.546	-0.8392	7.5531	-1.3428	9.7351	62	237	136	7	1	2
6.0425	1.8463	4.0283	5.5389	3.5248	0.8392	-0.5035	3.0212	2.6855	-0.3357	4.1962	3.6926	-0.3357	-6.546	-0.6714	7.7209	-0.8392	9.903	62	238	137	7	1	2
6.3782	2.182	4.364	6.2103	3.8605	1.1749	-0.1678	3.5248	3.1891	-0.1678	4.6997	4.1962	0	-6.3782	-0.1678	7.8888	-0.5035	10.4065	62	239	138	7	1	2
6.546	2.182	4.6997	6.3782	4.0283	1.6785	0.1678	3.6926	3.5248	0.1678	5.2032	4.6997	0.1678	-6.0425	0	8.3923	0	10.91	62	240	139	7	1	2
6.7139	2.182	4.8676	6.7139	4.1962	1.6785	0.1678	3.8605	3.6926	0.1678	5.2032	5.0354	0.3357	-5.8746	0.3357	8.3923	0.1678	10.91	62	241	140	7	1	2
6.3782	2.0142	4.5319	6.546	4.0283	1.6785	0.1678	3.8605	3.8605	0.1678	5.3711	5.0354	0.1678	-5.7068	0.3357	8.5602	0.3357	10.7422	62	242	141	7	1	2
5.7068	1.6785	4.1962	6.2103	3.8605	1.6785	0.1678	3.8605	4.0283	0.1678	5.5389	5.3711	0.1678	-5.3711	0.6714	8.8959	0.5035	10.7422	62	243	142	7	1	2
5.0354	1.3428	3.6926	5.8746	3.6926	1.5106	0	3.8605	3.8605	0	5.7068	5.3711	0	-5.2032	0.6714	9.2316	0.5035	10.5743	62	244	143	7	1	2
4.364	1.0071	3.1891	5.3711	3.8605	1.1749	-0.3357	3.6926	3.6926	-0.3357	5.5389	5.3711	-0.1678	-5.0354	0.6714	9.3994	0.6714	10.2386	62	245	144	7	1	2
3.3569	0.5035	2.5177	4.5319	3.5248	0.6714	-0.8392	3.5248	3.5248	-0.5035	5.3711	5.3711	-0.5035	-4.8676	0.8392	9.5673	0.5035	10.2386	62	246	145	7	1	2
2.5177	0	1.6785	3.8605	3.1891	0.5035	-1.0071	3.6926	3.5248	-0.6714	5.3711	5.3711	-0.3357	-4.5319	0.8392	9.903	0.5035	10.0708	62	247	146	7	1	2
1.5106	-0.5035	0.8392	3.0212	3.0212	0	-1.6785	3.3569	3.3569	-1.0071	5.3711	5.2032	-0.6714	-4.364	0.8392	10.0708	0.3357	9.7351	62	248	147	7	1	2
0.5035	-1.0071	-0.1678	1.8463	2.3499	-0.8392	-2.3499	3.0212	2.8534	-1.6785	4.8676	5.0354	-1.3428	-4.364	0.1678	9.7351	-0.1678	9.0637	62	249	148	7	1	2
-0.6714	-1.5106	-1.3428	0.6714	2.182	-1.3428	-3.1891	2.8534	2.3499	-2.182	4.6997	4.6997	-1.6785	-4.1962	-0.3357	9.7351	-0.8392	8.728	62	250	149	7	1	2
-1.8463	-2.3499	-2.182	-0.3357	1.6785	-1.8463	-3.8605	2.5177	2.0142	-2.6855	4.364	4.364	-2.0142	-4.0283	-0.8392	9.5673	-1.5106	8.0566	62	251	150	7	1	2
-3.0212	-2.8534	-3.3569	-1.6785	1.0071	-2.8534	-5.0354	2.0142	1.5106	-3.5248	3.8605	4.0283	-2.6855	-4.0283	-1.8463	9.0637	-2.182	7.3853	62	252	151	7	1	2
-4.0283	-3.5248	-4.1962	-2.6855	0.5035	-3.3569	-5.7068	1.8463	1.0071	-4.0283	3.5248	3.8605	-3.1891	-3.8605	-2.6855	8.8959	-3.0212	6.7139	62	253	152	7	1	2
-5.0354	-4.1962	-5.2032	-3.8605	0.1678	-4.0283	-6.546	1.6785	0.6714	-4.6997	3.1891	3.5248	-3.5248	-3.6926	-3.1891	8.3923	-3.5248	6.2103	62	254	153	7	1	2
-5.8746	-4.6997	-6.0425	-4.8676	-0.3357	-4.5319	-7.2174	1.3428	0.3357	-5.0354	3.0212	3.3569	-4.0283	-3.5248	-3.8605	8.2245	-4.364	5.7068	62	255	154	7	1	2
-6.8817	-5.0354	-6.8817	-5.8746	-0.6714	-5.2032	-8.0566	1.0071	-0.1678	-5.7068	2.5177	2.8534	-4.364	-3.5248	-4.5319	7.5531	-4.8676	4.8676	62	256	155	7	1	2
-7.5531	-5.3711	-7.5531	-6.546	-0.8392	-5.3711	-8.5602	1.0071	-0.3357	-5.8746	2.5177	2.8534	-4.6997	-3.5248	-4.8676	7.3853	-5.3711	4.364	62	257	156	7	1	2
-8.2245	-5.7068	-7.8888	-7.0496	-1.0071	-5.7068	-8.8959	1.0071	-0.5035	-6.0425	2.3499	2.8534	-4.6997	-3.6926	-5.0354	7.2174	-5.7068	4.0283	62	258	157	7	1	2
-8.5602	-5.3711	-8.2245	-7.2174	-0.8392	-5.5389	-8.8959	1.0071	-0.5035	-6.0425	2.3499	3.0212	-4.5319	-3.8605	-5.0354	7.2174	-5.7068	3.5248	62	259	158	7	1	2
-8.8959	-5.5389	-8.5602	-7.5531	-1.0071	-5.7068	-9.2316	0.8392	-0.6714	-6.2103	2.0142	2.8534	-4.6997	-4.1962	-5.2032	7.2174	-5.8746	3.0212	62	260	159	7	1	2
-9.3994	-5.7068	-9.0637	-7.8888	-1.1749	-6.2103	-9.3994	0.6714	-0.8392	-6.546	1.6785	2.5177	-4.6997	-4.6997	-5.7068	6.7139	-6.0425	2.182	62	261	160	7	1	2
-9.5673	-5.7068	-9.0637	-8.0566	-1.3428	-6.2103	-9.3994	0.5035	-1.0071	-6.3782	1.5106	2.6855	-4.8676	-4.8676	-5.7068	6.8817	-6.2103	1.8463	62	262	161	7	1	2
-9.903	-5.8746	-9.2316	-8.2245	-1.5106	-6.3782	-9.7351	0.3357	-1.1749	-6.7139	1.0071	2.3499	-5.0354	-5.2032	-6.0425	6.546	-6.546	1.1749	62	263	162	7	1	2
-9.903	-6.0425	-9.3994	-8.2245	-1.6785	-6.7139	-9.7351	0	-1.5106	-6.7139	0.8392	2.182	-5.2032	-5.3711	-6.3782	6.546	-6.546	0.5035	62	264	163	7	1	2
-10.0708	-6.2103	-9.5673	-8.3923	-1.8463	-6.8817	-9.903	-0.1678	-1.6785	-7.0496	0.3357	2.0142	-5.5389	-5.5389	-6.7139	6.3782	-7.0496	0	62	265	164	7	1	2
-10.2386	-6.546	-9.7351	-8.5602	-2.3499	-7.0496	-9.903	-0.6714	-2.182	-7.3853	-0.3357	1.6785	-5.8746	-5.7068	-7.2174	6.2103	-7.2174	-0.3357	62	266	165	7	1	2
-10.0708	-6.7139	-9.903	-8.3923	-2.5177	-7.3853	-9.903	-1.0071	-2.3499	-7.5531	-0.6714	1.5106	-6.2103	-5.7068	-7.5531	6.3782	-7.5531	-0.8392	62	267	166	7	1	2
-10.0708	-6.8817	-9.7351	-8.3923	-2.8534	-7.3853	-10.0708	-1.5106	-2.8534	-7.7209	-1.1749	1.1749	-6.546	-5.7068	-8.0566	6.3782	-7.8888	-1.1749	62	268	167	7	1	2
-9.903	-7.3853	-9.903	-8.3923	-3.1891	-7.7209	-10.2386	-2.0142	-3.1891	-8.0566	-1.6785	0.8392	-6.8817	-5.7068	-8.5602	6.2103	-8.2245	-1.6785	62	269	168	7	1	2
-9.7351	-7.7209	-9.7351	-8.2245	-3.5248	-7.8888	-10.0708	-2.3499	-3.5248	-8.2245	-2.182	0.6714	-7.2174	-5.5389	-8.728	6.0425	-8.3923	-1.8463	62	270	169	7	1	2
-9.903	-8.2245	-9.903	-8.2245	-4.1962	-8.0566	-10.2386	-2.8534	-3.8605	-8.5602	-2.6855	0.3357	-7.5531	-5.5389	-9.3994	5.8746	-8.8959	-2.3499	62	271	170	7	1	2
-10.0708	-8.5602	-10.0708	-8.2245	-4.8676	-8.2245	-10.2386	-3.3569	-4.364	-8.728	-3.1891	0	-7.8888	-5.5389	-9.903	5.5389	-9.0637	-2.6855	62	272	171	7	1	2
-10.4065	-9.2316	-10.2386	-8.2245	-5.3711	-8.5602	-10.4065	-4.0283	-4.6997	-9.0637	-3.6926	-0.3357	-8.2245	-5.5389	-10.2386	5.0354	-9.3994	-2.8534	62	273	172	7	1	2
-10.5743	-9.903	-10.4065	-8.2245	-6.0425	-8.728	-10.2386	-4.5319	-5.0354	-9.0637	-4.1962	-0.5035	-8.3923	-5.5389	-10.5743	4.8676	-9.7351	-2.8534	62	274	173	7	1	2
-11.0779	-10.5743	-10.91	-8.3923	-6.8817	-9.0637	-10.2386	-5.2032	-5.3711	-9.3994	-4.5319	-0.6714	-8.8959	-5.7068	-11.0779	4.6997	-9.903	-3.0212	62	275	174	7	1	2
-11.9171	-11.4136	-11.2457	-8.3923	-7.5531	-9.3994	-10.4065	-5.7068	-5.7068	-9.5673	-5.0354	-1.0071	-9.0637	-5.8746	-11.2457	4.1962	-10.0708	-3.0212	62	276	175	7	1	2
-12.4207	-12.2528	-11.4136	-8.3923	-8.2245	-9.5673	-10.4065	-6.2103	-5.8746	-9.3994	-5.2032	-1.1749	-9.2316	-5.8746	-11.5814	4.0283	-10.0708	-3.1891	62	277	176	7	1	2
-13.092	-12.9242	-12.085	-8.5602	-8.8959	-9.903	-10.4065	-6.7139	-6.2103	-9.5673	-5.7068	-1.5106	-9.5673	-6.0425	-11.5814	3.6926	-10.4065	-3.1891	62	278	177	7	1	2
-13.7634	-13.7634	-12.4207	-8.5602	-9.5673	-10.2386	-10.2386	-7.2174	-6.3782	-9.3994	-6.0425	-1.6785	-9.3994	-6.0425	-11.5814	3.5248	-10.2386	-3.0212	62	279	178	7	1	2
-14.267	-14.267	-12.5885	-8.3923	-10.0708	-10.4065	-10.0708	-7.3853	-6.3782	-9.0637	-6.0425	-1.5106	-9.3994	-5.8746	-11.0779	3.5248	-9.903	-2.6855	62	280	179	7	1	2
-14.9384	-14.9384	-12.9242	-8.5602	-10.7422	-10.5743	-9.903	-7.8888	-6.546	-9.0637	-6.2103	-1.8463	-9.3994	-5.8746	-10.91	3.3569	-9.7351	-2.5177	62	281	180	7	1	2
-15.274	-15.4419	-13.092	-8.2245	-11.0779	-10.7422	-9.7351	-7.8888	-6.546	-8.728	-6.2103	-1.8463	-9.2316	-5.7068	-10.5743	3.6926	-9.2316	-2.182	62	282	181	7	1	2
-15.7776	-16.1133	-13.4277	-8.2245	-11.7493	-10.91	-9.5673	-8.2245	-6.7139	-8.5602	-6.2103	-1.8463	-9.2316	-5.7068	-10.0708	3.5248	-9.0637	-2.0142	62	283	182	7	1	2
-15.9454	-16.449	-13.5956	-8.0566	-11.9171	-10.91	-9.3994	-8.3923	-6.7139	-8.3923	-6.2103	-2.0142	-9.2316	-5.5389	-9.7351	3.5248	-8.728	-1.8463	62	284	183	7	1	2
-16.1133	-16.9525	-13.7634	-8.0566	-12.4207	-11.0779	-9.0637	-8.5602	-6.8817	-8.2245	-6.2103	-2.182	-9.0637	-5.3711	-9.3994	3.5248	-8.3923	-1.8463	62	285	184	7	1	2
-16.2811	-17.4561	-14.0991	-7.7209	-12.5885	-11.2457	-9.0637	-8.728	-6.8817	-8.0566	-6.3782	-2.3499	-9.0637	-5.2032	-8.8959	3.5248	-7.8888	-1.6785	62	286	185	7	1	2
-16.2811	-17.6239	-13.9313	-7.7209	-12.9242	-11.4136	-8.8959	-8.728	-6.8817	-7.8888	-6.2103	-2.5177	-8.8959	-4.8676	-8.5602	3.3569	-7.5531	-1.5106	62	287	186	7	1	2
-16.6168	-17.9596	-14.267	-7.7209	-13.4277	-11.5814	-8.8959	-9.0637	-7.2174	-7.8888	-6.546	-2.6855	-9.0637	-4.6997	-8.5602	3.0212	-7.3853	-1.5106	62	288	187	7	1	2
-16.9525	-18.2953	-14.4348	-7.5531	-13.4277	-11.9171	-8.8959	-9.2316	-7.2174	-8.0566	-6.3782	-2.8534	-9.0637	-4.364	-8.3923	2.8534	-7.3853	-1.6785	62	289	188	7	1	2
-17.1204	-18.631	-14.7705	-7.5531	-13.9313	-12.2528	-9.0637	-9.5673	-7.7209	-8.2245	-6.7139	-3.3569	-9.3994	-4.1962	-8.5602	2.3499	-7.3853	-1.8463	62	290	189	7	1	2
-17.6239	-18.7988	-15.1062	-7.7209	-14.0991	-12.4207	-9.2316	-9.903	-8.0566	-8.3923	-6.8817	-3.8605	-9.5673	-4.0283	-8.728	1.8463	-7.5531	-2.3499	62	291	190	7	1	2
-9.0637	-1.6785	-7.2174	-10.2386	-1.8463	-0.3357	-5.3711	-0.5035	3.3569	-2.8534	1.8463	-2.5177	-3.0212	0.6714	0.6714	4.5319	7.2174	-1.6785	62	231	130	9	1	2
-9.7351	-2.182	-8.0566	-10.7422	-2.3499	-1.1749	-5.8746	-1.5106	2.3499	-3.5248	0.3357	-3.8605	-3.8605	0.8392	0	4.0283	6.8817	-3.1891	62	232	131	9	1	2
-10.0708	-2.6855	-8.728	-11.4136	-2.6855	-1.8463	-6.3782	-2.5177	1.5106	-4.0283	-1.0071	-5.0354	-4.5319	1.1749	-0.6714	3.5248	6.8817	-4.5319	62	233	132	9	1	2
-10.2386	-2.8534	-8.8959	-11.5814	-2.8534	-2.182	-6.546	-3.1891	0.8392	-4.1962	-2.0142	-6.0425	-5.0354	1.3428	-1.1749	3.1891	6.546	-5.5389	62	234	133	9	1	2
-10.7422	-3.0212	-9.2316	-11.7493	-3.3569	-2.5177	-6.7139	-3.8605	0.3357	-4.364	-3.1891	-6.8817	-5.5389	1.5106	-1.5106	2.8534	6.2103	-6.7139	62	235	134	9	1	2
-10.7422	-3.0212	-9.3994	-11.9171	-3.5248	-2.8534	-6.8817	-4.364	-0.3357	-4.5319	-4.1962	-7.7209	-6.2103	1.6785	-1.8463	2.6855	6.0425	-7.7209	62	236	135	9	1	2
-11.0779	-3.0212	-9.7351	-11.9171	-3.6926	-3.1891	-6.8817	-5.0354	-0.8392	-4.8676	-5.0354	-8.728	-6.546	1.8463	-2.3499	2.3499	5.7068	-8.728	62	237	136	9	1	2
-11.2457	-3.0212	-9.7351	-11.5814	-3.5248	-3.0212	-6.546	-5.3711	-1.1749	-4.6997	-5.8746	-9.2316	-6.7139	2.0142	-2.5177	2.3499	5.5389	-9.3994	62	238	137	9	1	2
-11.2457	-2.6855	-9.7351	-11.4136	-3.3569	-3.0212	-6.2103	-5.5389	-1.5106	-4.5319	-6.546	-9.903	-7.0496	2.0142	-2.8534	2.0142	5.2032	-10.2386	62	239	138	9	1	2
-11.0779	-2.0142	-9.3994	-10.7422	-3.1891	-2.6855	-5.7068	-5.5389	-1.5106	-4.1962	-6.8817	-10.2386	-6.8817	2.0142	-2.6855	2.182	4.8676	-10.5743	62	240	139	9	1	2
-11.0779	-1.8463	-9.2316	-10.0708	-3.0212	-2.5177	-5.2032	-5.8746	-2.0142	-3.8605	-7.3853	-10.7422	-7.0496	2.0142	-3.0212	2.182	4.6997	-11.2457	62	241	140	9	1	2
-10.91	-1.0071	-8.8959	-9.5673	-2.5177	-2.3499	-4.5319	-5.8746	-2.182	-3.3569	-7.7209	-11.0779	-7.0496	2.0142	-3.0212	2.3499	4.1962	-11.7493	62	242	141	9	1	2
-10.7422	-0.3357	-8.3923	-8.5602	-2.0142	-2.0142	-3.6926	-5.7068	-2.182	-3.0212	-7.8888	-11.4136	-6.8817	1.8463	-3.0212	2.5177	3.8605	-12.085	62	243	142	9	1	2
-10.2386	0.3357	-7.7209	-7.8888	-1.8463	-1.5106	-3.0212	-5.7068	-2.182	-2.3499	-8.0566	-11.7493	-6.8817	1.8463	-2.8534	2.8534	3.8605	-12.2528	62	244	143	9	1	2
-9.903	1.0071	-7.3853	-7.0496	-1.5106	-1.3428	-2.3499	-5.7068	-2.3499	-1.8463	-8.5602	-12.085	-6.8817	1.8463	-3.0212	2.8534	3.5248	-12.7563	62	245	144	9	1	2
-9.3994	1.8463	-6.8817	-6.2103	-1.0071	-0.8392	-1.6785	-5.7068	-2.5177	-1.1749	-8.5602	-12.2528	-6.546	1.8463	-2.8534	2.8534	3.5248	-13.092	62	246	145	9	1	2
-8.5602	2.8534	-5.8746	-5.2032	-0.5035	-0.5035	-0.6714	-5.3711	-2.5177	-0.6714	-8.5602	-12.2528	-6.0425	1.8463	-2.5177	3.1891	3.6926	-13.2599	62	247	146	9	1	2
-7.8888	3.6926	-5.2032	-4.5319	0	0	0	-5.2032	-2.5177	0	-8.5602	-12.5885	-5.8746	2.0142	-2.3499	3.5248	3.3569	-13.4277	62	248	147	9	1	2
-6.7139	4.8676	-4.1962	-3.3569	0.6714	0.6714	1.0071	-4.8676	-2.5177	0.6714	-8.5602	-12.4207	-5.5389	2.0142	-2.182	3.8605	3.5248	-13.5956	62	249	148	9	1	2
-5.7068	6.0425	-3.1891	-2.5177	1.3428	1.0071	1.6785	-4.5319	-2.3499	1.3428	-8.3923	-12.4207	-5.2032	2.182	-2.0142	4.364	3.5248	-13.5956	62	250	149	9	1	2
-4.6997	7.2174	-2.5177	-1.8463	1.8463	1.3428	2.182	-4.1962	-2.5177	1.6785	-8.3923	-12.5885	-5.0354	2.3499	-1.8463	4.5319	3.5248	-13.7634	62	251	150	9	1	2
-3.8605	8.0566	-1.8463	-1.3428	2.0142	1.5106	2.5177	-4.0283	-2.6855	2.182	-8.2245	-12.7563	-4.8676	2.3499	-1.8463	4.6997	3.3569	-13.9313	62	252	151	9	1	2
-3.0212	8.8959	-1.3428	-0.8392	2.182	1.6785	2.8534	-3.8605	-2.8534	2.5177	-8.2245	-12.9242	-4.6997	2.3499	-1.6785	5.0354	3.3569	-13.9313	62	253	152	9	1	2
-2.5177	9.3994	-0.8392	-0.3357	2.182	1.6785	3.1891	-4.0283	-3.1891	2.8534	-8.3923	-13.2599	-4.364	2.182	-1.5106	5.2032	3.1891	-13.9313	62	254	153	9	1	2
-2.0142	9.3994	-0.6714	0	2.0142	1.5106	3.3569	-4.1962	-3.5248	3.0212	-8.5602	-13.5956	-4.1962	2.182	-1.3428	5.5389	2.8534	-14.0991	62	255	154	9	1	2
-1.8463	9.3994	-0.5035	0	1.6785	1.1749	3.5248	-4.5319	-4.0283	3.3569	-8.728	-13.7634	-4.0283	2.0142	-1.1749	5.7068	2.5177	-14.0991	62	256	155	9	1	2
-1.6785	9.3994	-0.5035	0.3357	1.1749	1.0071	3.5248	-4.8676	-4.364	3.8605	-8.5602	-14.0991	-4.0283	1.8463	-0.8392	5.7068	2.5177	-14.0991	62	257	156	9	1	2
-1.5106	9.2316	-0.6714	0.3357	0.6714	0.6714	3.5248	-4.8676	-4.6997	3.6926	-8.728	-14.4348	-3.6926	1.5106	-0.5035	5.7068	2.5177	-14.0991	62	258	157	9	1	2
-1.6785	8.5602	-1.0071	0	0	0.1678	3.0212	-5.3711	-5.2032	3.8605	-8.8959	-14.6027	-3.6926	1.3428	-0.5035	5.5389	2.8534	-14.267	62	259	158	9	1	2
-1.8463	8.2245	-1.1749	0	-0.3357	-0.1678	2.8534	-5.7068	-5.5389	3.8605	-8.8959	-14.6027	-3.6926	1.0071	-0.1678	5.8746	3.0212	-14.267	62	260	159	9	1	2
-2.0142	7.8888	-1.5106	-0.3357	-1.0071	-0.6714	2.3499	-5.7068	-5.8746	3.8605	-8.728	-14.7705	-3.6926	0.8392	-0.1678	5.7068	3.3569	-14.4348	62	261	160	9	1	2
-2.0142	7.5531	-1.6785	-0.5035	-1.1749	-1.0071	2.0142	-5.7068	-6.0425	3.6926	-8.5602	-14.6027	-3.3569	0.5035	0.1678	6.0425	3.6926	-14.267	62	262	161	9	1	2
-2.182	7.2174	-2.0142	-1.0071	-1.5106	-1.3428	1.5106	-5.7068	-6.2103	3.8605	-8.2245	-14.4348	-3.3569	0.3357	0.1678	6.2103	4.0283	-14.0991	62	263	162	9	1	2
-2.182	7.0496	-2.182	-1.1749	-1.6785	-1.5106	1.0071	-5.3711	-6.0425	3.8605	-7.8888	-14.0991	-3.3569	0.1678	0.3357	6.3782	4.364	-13.7634	62	264	163	9	1	2
-2.182	6.7139	-2.182	-1.5106	-1.5106	-1.8463	0.6714	-5.2032	-6.0425	3.6926	-7.5531	-13.9313	-3.1891	0	0.3357	6.7139	4.6997	-13.5956	62	265	164	9	1	2
-2.182	6.3782	-2.5177	-1.8463	-1.5106	-2.0142	0.3357	-4.8676	-6.0425	3.3569	-7.0496	-13.5956	-3.1891	-0.1678	0.3357	7.0496	4.8676	-13.2599	62	266	165	9	1	2
-2.182	6.2103	-2.5177	-2.0142	-1.3428	-2.0142	0	-4.364	-5.7068	3.3569	-6.3782	-12.9242	-3.0212	-0.3357	0.5035	7.5531	5.0354	-12.5885	62	267	166	9	1	2
-2.182	6.0425	-2.5177	-2.3499	-1.0071	-2.0142	-0.3357	-3.6926	-5.3711	3.3569	-5.7068	-12.4207	-2.8534	-0.5035	0.5035	8.0566	5.0354	-12.085	62	268	167	9	1	2
-2.182	6.0425	-2.5177	-2.5177	-0.6714	-2.0142	-0.6714	-3.0212	-4.8676	3.3569	-5.0354	-11.7493	-2.6855	-0.6714	0.6714	8.5602	5.2032	-11.4136	62	269	168	9	1	2
-2.3499	5.8746	-2.6855	-2.8534	-0.3357	-2.0142	-0.8392	-2.182	-4.5319	3.1891	-4.1962	-11.0779	-2.3499	-0.8392	0.6714	9.2316	5.3711	-10.7422	62	270	169	9	1	2
-2.6855	5.8746	-2.6855	-3.1891	0.1678	-1.8463	-1.1749	-1.5106	-4.0283	3.1891	-3.5248	-10.4065	-2.182	-1.0071	0.6714	9.7351	5.7068	-10.0708	62	271	170	9	1	2
-2.8534	5.8746	-2.6855	-3.5248	0.8392	-1.6785	-1.3428	-0.5035	-3.3569	3.3569	-2.5177	-9.5673	-1.8463	-1.0071	1.0071	10.4065	5.7068	-9.2316	62	272	171	9	1	2
-3.1891	5.7068	-3.0212	-3.8605	1.3428	-1.6785	-1.5106	0.5035	-2.8534	3.3569	-1.6785	-8.8959	-1.6785	-1.1749	1.0071	10.7422	5.8746	-8.5602	62	273	172	9	1	2
-3.5248	5.7068	-3.0212	-4.1962	1.8463	-1.3428	-1.6785	1.5106	-2.0142	3.5248	-0.6714	-8.0566	-1.1749	-1.1749	1.1749	11.2457	6.0425	-7.7209	62	274	173	9	1	2
-4.0283	5.7068	-3.1891	-4.6997	2.5177	-1.3428	-1.8463	2.5177	-1.5106	3.6926	0.1678	-7.2174	-1.0071	-1.3428	1.3428	11.4136	6.2103	-7.2174	62	275	174	9	1	2
-4.364	5.7068	-3.3569	-5.0354	3.1891	-1.0071	-1.8463	3.5248	-0.8392	3.6926	1.1749	-6.3782	-0.6714	-1.3428	1.5106	11.9171	6.2103	-6.3782	62	276	175	9	1	2
-4.8676	5.8746	-3.5248	-5.5389	3.8605	-0.8392	-2.0142	4.5319	-0.1678	3.8605	2.0142	-5.7068	-0.3357	-1.5106	1.5106	12.085	6.3782	-5.8746	62	277	176	9	1	2
-5.0354	6.0425	-3.6926	-5.7068	4.5319	-0.5035	-2.0142	5.7068	0.5035	4.0283	2.8534	-4.8676	0	-1.5106	1.6785	12.5885	6.546	-5.2032	62	278	177	9	1	2
-5.0354	6.0425	-3.5248	-5.8746	5.2032	-0.1678	-2.0142	6.7139	1.1749	4.0283	3.8605	-4.0283	0.1678	-1.5106	1.8463	13.092	6.3782	-4.5319	62	279	178	9	1	2
-5.2032	6.3782	-3.5248	-5.7068	6.0425	0.1678	-1.6785	7.5531	1.8463	4.364	4.6997	-3.1891	0.5035	-1.5106	1.8463	13.4277	6.3782	-4.0283	62	280	179	9	1	2
-5.2032	6.546	-3.3569	-6.0425	6.7139	0.3357	-1.5106	8.3923	2.5177	4.5319	5.3711	-2.5177	0.8392	-1.6785	1.8463	13.9313	6.3782	-3.6926	62	281	180	9	1	2
-5.0354	6.8817	-3.1891	-5.7068	7.3853	0.8392	-1.1749	9.5673	3.1891	4.8676	6.2103	-1.8463	1.0071	-1.6785	2.0142	14.267	6.546	-3.1891	62	282	181	9	1	2
-4.6997	7.2174	-3.0212	-5.5389	8.0566	1.1749	-0.8392	10.4065	4.0283	5.0354	7.0496	-1.0071	1.3428	-1.6785	2.182	14.6027	6.546	-2.8534	62	283	182	9	1	2
-4.364	7.7209	-2.8534	-5.3711	8.728	1.5106	-0.6714	11.2457	4.5319	5.2032	7.7209	-0.5035	1.5106	-1.6785	2.182	14.9384	6.546	-2.5177	62	284	183	9	1	2
-4.1962	8.0566	-2.6855	-5.0354	9.3994	1.8463	-0.3357	11.9171	5.2032	5.2032	8.2245	0	1.5106	-1.6785	2.182	15.274	6.546	-2.182	62	285	184	9	1	2
-4.0283	8.5602	-2.5177	-4.6997	10.0708	2.3499	0	12.4207	5.7068	5.2032	8.728	0.5035	1.6785	-1.5106	2.3499	15.4419	6.3782	-1.6785	62	286	185	9	1	2
-4.0283	8.8959	-2.5177	-4.5319	10.5743	2.5177	0.1678	13.092	6.0425	5.3711	9.2316	0.8392	1.6785	-1.5106	2.3499	15.7776	6.546	-1.3428	62	287	186	9	1	2
-4.0283	9.2316	-2.5177	-4.364	11.0779	2.6855	0.3357	13.5956	6.546	5.2032	9.5673	1.1749	1.6785	-1.3428	2.5177	15.7776	6.546	-0.6714	62	288	187	9	1	2
-4.1962	9.3994	-2.5177	-4.1962	11.4136	2.6855	0.3357	14.0991	6.8817	5.3711	10.0708	1.3428	1.6785	-1.3428	2.3499	15.6097	6.7139	-0.1678	62	289	188	9	1	2
-4.1962	9.903	-2.5177	-3.8605	12.085	3.0212	0.5035	14.6027	7.2174	5.3711	10.5743	1.5106	1.6785	-1.1749	2.5177	15.6097	6.8817	0.5035	62	290	189	9	1	2
-4.1962	10.4065	-2.5177	-3.5248	12.5885	3.1891	0.6714	15.1062	7.3853	5.2032	10.7422	1.8463	1.5106	-1.0071	2.6855	15.274	6.8817	1.0071	62	291	190	9	1	2
-21.3165	-30.3802	-22.6593	-14.267	-27.6947	-18.9667	-11.2457	-28.1982	-21.6522	-12.4207	-30.8838	-24.3378	-5.8746	8.0566	13.4277	-25.177	13.9313	-27.5269	62	231	130	10	1	2
-20.6451	-30.0446	-21.8201	-13.7634	-27.5269	-18.4631	-10.4065	-28.3661	-21.4844	-11.7493	-31.2195	-24.5056	-5.3711	8.3923	13.5956	-25.3448	14.267	-27.359	62	232	131	10	1	2
-19.8059	-29.8767	-21.3165	-13.2599	-27.5269	-18.1274	-9.903	-28.5339	-21.3165	-11.4136	-31.5552	-24.5056	-5.2032	8.5602	13.4277	-25.5127	14.4348	-27.1912	62	233	132	10	1	2
-18.9667	-29.7089	-20.6451	-12.5885	-27.359	-17.7917	-9.2316	-28.5339	-20.9808	-10.91	-31.8909	-24.5056	-4.8676	8.728	13.2599	-25.6805	14.4348	-27.0233	62	234	133	10	1	2
-18.2953	-29.3732	-20.1416	-12.085	-27.1912	-17.2882	-8.8959	-28.5339	-20.813	-10.7422	-31.8909	-24.5056	-4.8676	8.728	12.9242	-25.6805	14.4348	-27.1912	62	235	134	10	1	2
-17.7917	-29.0375	-19.6381	-11.5814	-26.8555	-16.7847	-8.3923	-28.3661	-20.4773	-10.4065	-32.0587	-24.3378	-4.6997	8.8959	12.7563	-25.6805	14.4348	-27.0233	62	236	135	10	1	2
-17.6239	-28.7018	-19.1345	-11.4136	-26.6876	-16.449	-8.2245	-28.5339	-20.4773	-10.2386	-32.2266	-24.3378	-4.5319	8.8959	12.4207	-25.6805	14.267	-27.0233	62	237	136	10	1	2
-17.2882	-28.5339	-18.9667	-11.2457	-26.6876	-16.2811	-8.0566	-28.3661	-20.3094	-10.0708	-32.3944	-24.5056	-4.6997	8.8959	12.085	-25.5127	14.0991	-27.1912	62	238	137	10	1	2
-17.1204	-28.3661	-18.7988	-11.0779	-26.3519	-16.1133	-7.8888	-28.3661	-20.3094	-9.7351	-32.5623	-24.5056	-4.6997	8.8959	11.7493	-25.5127	13.7634	-27.1912	62	239	138	10	1	2
-17.1204	-28.3661	-18.631	-11.2457	-26.3519	-15.9454	-8.0566	-28.5339	-20.3094	-9.7351	-32.8979	-24.5056	-4.8676	8.728	11.2457	-25.3448	13.5956	-27.359	62	240	139	10	1	2
-16.7847	-28.1982	-18.4631	-11.0779	-26.0162	-15.9454	-7.8888	-28.3661	-20.3094	-9.903	-32.8979	-24.5056	-4.8676	8.5602	10.7422	-25.177	13.4277	-27.1912	62	241	140	10	1	2
-16.9525	-28.0304	-18.631	-11.2457	-26.0162	-15.6097	-8.0566	-28.5339	-20.4773	-9.7351	-33.0658	-24.8413	-5.0354	8.3923	10.4065	-25.0092	13.092	-27.1912	62	242	141	10	1	2
-16.6168	-27.6947	-18.4631	-11.2457	-25.5127	-15.6097	-8.0566	-28.3661	-20.4773	-9.7351	-33.0658	-24.8413	-5.2032	8.2245	9.903	-24.5056	12.7563	-27.1912	62	243	142	10	1	2
-16.449	-27.359	-18.1274	-11.2457	-25.177	-15.4419	-8.2245	-27.8625	-20.3094	-9.903	-33.0658	-24.6735	-5.7068	7.8888	9.2316	-24.1699	12.5885	-27.359	62	244	143	10	1	2
-15.9454	-26.6876	-17.9596	-11.4136	-24.5056	-15.4419	-8.3923	-27.6947	-20.3094	-9.903	-32.7301	-24.6735	-5.8746	7.7209	8.728	-23.8342	12.2528	-27.1912	62	245	144	10	1	2
-15.6097	-26.3519	-17.9596	-11.5814	-24.0021	-15.1062	-8.728	-27.5269	-20.4773	-10.0708	-32.7301	-24.8413	-6.2103	7.5531	8.0566	-23.4985	11.7493	-27.0233	62	246	145	10	1	2
-15.1062	-25.5127	-17.6239	-11.9171	-23.3307	-15.1062	-8.8959	-27.0233	-20.4773	-10.2386	-32.3944	-24.8413	-6.7139	7.3853	7.5531	-22.995	11.2457	-26.8555	62	247	146	10	1	2
-14.6027	-24.5056	-17.4561	-12.085	-22.4915	-14.9384	-9.2316	-26.3519	-20.4773	-10.5743	-32.0587	-24.6735	-7.2174	7.2174	6.8817	-22.3236	10.7422	-26.3519	62	248	147	10	1	2
-14.0991	-23.6664	-17.1204	-12.2528	-21.6522	-14.9384	-9.5673	-25.8484	-20.4773	-10.91	-31.5552	-24.6735	-7.7209	7.0496	6.2103	-21.6522	10.2386	-25.8484	62	249	148	10	1	2
-13.5956	-22.8271	-16.9525	-12.5885	-20.813	-14.9384	-10.0708	-25.177	-20.4773	-11.2457	-31.0516	-24.6735	-8.2245	6.8817	5.3711	-20.813	9.3994	-25.3448	62	250	149	10	1	2
-13.4277	-21.9879	-16.9525	-12.7563	-20.1416	-15.1062	-10.91	-24.5056	-20.6451	-11.9171	-30.5481	-24.6735	-8.8959	6.546	4.364	-20.1416	8.728	-24.8413	62	251	150	10	1	2
-13.4277	-21.4844	-16.9525	-13.2599	-19.4702	-15.274	-11.4136	-23.8342	-20.6451	-12.4207	-29.8767	-24.5056	-9.5673	6.3782	3.5248	-19.4702	8.0566	-24.1699	62	252	151	10	1	2
-13.2599	-21.1487	-17.2882	-13.7634	-19.1345	-15.4419	-11.9171	-23.3307	-20.813	-12.9242	-29.541	-24.6735	-10.2386	6.2103	2.6855	-18.9667	7.0496	-23.4985	62	253	152	10	1	2
-13.7634	-20.813	-17.4561	-14.267	-18.7988	-15.9454	-12.7563	-22.8271	-21.1487	-13.9313	-28.8696	-24.6735	-11.2457	5.8746	1.6785	-18.4631	6.2103	-22.995	62	254	153	10	1	2
-14.267	-20.9808	-17.7917	-14.9384	-18.631	-16.1133	-13.4277	-22.1558	-21.3165	-14.7705	-28.1982	-24.8413	-11.9171	5.7068	0.8392	-18.2953	5.2032	-22.3236	62	255	154	10	1	2
-14.6027	-20.9808	-18.1274	-15.6097	-18.4631	-16.7847	-14.4348	-21.4844	-21.3165	-15.6097	-27.359	-24.6735	-12.7563	5.3711	-0.3357	-17.6239	4.364	-21.8201	62	256	155	10	1	2
-15.274	-21.1487	-18.631	-16.2811	-18.2953	-16.9525	-15.4419	-20.9808	-21.6522	-16.2811	-26.6876	-24.6735	-13.5956	5.2032	-1.0071	-17.2882	3.5248	-21.1487	62	257	156	10	1	2
-15.7776	-21.3165	-19.1345	-16.7847	-18.4631	-17.4561	-16.1133	-19.9738	-21.6522	-17.1204	-25.6805	-24.3378	-14.4348	4.8676	-1.8463	-16.7847	2.6855	-20.4773	62	258	157	10	1	2
-16.2811	-21.4844	-19.4702	-17.1204	-18.1274	-17.6239	-16.7847	-19.1345	-21.6522	-17.7917	-24.5056	-24.0021	-14.9384	4.6997	-2.5177	-16.449	2.0142	-19.6381	62	259	158	10	1	2
-16.9525	-21.8201	-19.9738	-17.7917	-18.1274	-18.1274	-17.7917	-18.4631	-21.6522	-18.4631	-23.6664	-23.8342	-15.6097	4.5319	-3.1891	-16.2811	1.1749	-18.9667	62	260	159	10	1	2
-17.4561	-21.9879	-20.3094	-18.1274	-18.1274	-18.2953	-18.2953	-17.6239	-21.4844	-19.1345	-22.4915	-23.3307	-16.1133	4.364	-3.6926	-15.7776	0.5035	-18.631	62	261	160	10	1	2
-17.7917	-22.4915	-20.813	-18.4631	-17.9596	-18.4631	-18.9667	-16.7847	-21.4844	-19.6381	-21.3165	-22.995	-16.449	4.364	-4.0283	-15.4419	0	-17.7917	62	262	161	10	1	2
-18.1274	-22.6593	-20.9808	-18.7988	-17.7917	-18.631	-19.4702	-15.9454	-21.3165	-19.9738	-20.3094	-22.3236	-16.6168	4.1962	-4.1962	-15.274	-0.5035	-17.1204	62	263	162	10	1	2
-18.1274	-22.6593	-21.1487	-18.7988	-17.6239	-18.4631	-19.8059	-15.274	-20.813	-20.3094	-19.1345	-21.6522	-16.9525	3.8605	-4.364	-14.6027	-0.6714	-16.449	62	264	163	10	1	2
-18.1274	-22.6593	-21.1487	-18.9667	-17.1204	-18.631	-19.9738	-14.0991	-20.3094	-20.3094	-17.7917	-20.813	-16.7847	3.6926	-4.0283	-14.0991	-0.8392	-15.6097	62	265	164	10	1	2
-17.7917	-22.3236	-21.1487	-18.7988	-16.6168	-18.2953	-19.9738	-13.092	-19.6381	-20.1416	-16.449	-19.8059	-16.6168	3.3569	-3.8605	-13.092	-0.5035	-14.7705	62	266	165	10	1	2
-17.7917	-21.9879	-20.9808	-18.7988	-15.9454	-17.9596	-19.9738	-11.9171	-18.9667	-19.6381	-14.9384	-18.7988	-15.7776	3.1891	-3.1891	-12.4207	-0.3357	-13.7634	62	267	166	10	1	2
-17.7917	-21.6522	-20.9808	-18.9667	-15.4419	-17.6239	-19.8059	-11.0779	-18.2953	-19.3024	-13.4277	-17.7917	-15.4419	2.8534	-2.6855	-11.5814	-0.1678	-12.7563	62	268	167	10	1	2
-17.7917	-21.3165	-20.9808	-18.7988	-14.7705	-17.2882	-19.4702	-10.0708	-17.2882	-18.9667	-12.2528	-16.7847	-14.7705	2.5177	-2.0142	-10.4065	0.1678	-11.9171	62	269	168	10	1	2
-17.7917	-20.9808	-20.9808	-18.631	-14.4348	-16.9525	-18.9667	-9.2316	-16.7847	-18.1274	-11.0779	-15.7776	-14.267	2.182	-1.5106	-9.5673	0.8392	-11.0779	62	270	169	10	1	2
-17.9596	-20.6451	-21.3165	-18.631	-13.9313	-16.7847	-18.631	-8.5602	-16.1133	-17.4561	-10.0708	-14.7705	-13.4277	1.8463	-0.6714	-8.8959	1.1749	-10.4065	62	271	170	10	1	2
-18.1274	-20.4773	-21.3165	-18.7988	-13.4277	-16.2811	-18.1274	-7.7209	-15.274	-16.9525	-8.8959	-13.7634	-12.5885	1.5106	0.1678	-8.0566	1.5106	-9.5673	62	272	171	10	1	2
-18.4631	-20.1416	-21.3165	-18.7988	-13.092	-15.9454	-17.6239	-7.3853	-14.7705	-16.1133	-8.2245	-13.092	-12.085	1.3428	0.6714	-7.5531	2.182	-9.0637	62	273	172	10	1	2
-18.631	-19.8059	-21.4844	-18.7988	-12.5885	-15.7776	-16.9525	-6.7139	-13.9313	-15.274	-7.2174	-11.9171	-11.0779	1.1749	1.5106	-7.0496	2.6855	-8.3923	62	274	173	10	1	2
-18.9667	-19.3024	-21.4844	-18.7988	-12.2528	-15.4419	-16.2811	-6.3782	-13.2599	-14.4348	-6.546	-11.2457	-10.2386	1.0071	2.3499	-6.3782	3.1891	-7.8888	62	275	174	10	1	2
-19.1345	-18.9667	-21.6522	-18.9667	-11.4136	-14.9384	-15.9454	-5.7068	-12.4207	-13.4277	-5.8746	-10.0708	-9.3994	0.8392	3.1891	-5.7068	3.8605	-7.2174	62	276	175	10	1	2
-18.9667	-18.2953	-21.4844	-18.7988	-10.7422	-14.6027	-15.1062	-5.2032	-11.7493	-12.4207	-5.0354	-9.3994	-8.3923	0.8392	4.0283	-5.3711	4.6997	-6.7139	62	277	176	10	1	2
-19.1345	-17.7917	-21.4844	-18.7988	-10.2386	-14.267	-14.4348	-4.8676	-11.2457	-11.5814	-4.6997	-8.728	-7.5531	0.8392	5.0354	-4.8676	5.2032	-6.2103	62	278	177	10	1	2
-18.9667	-17.1204	-21.3165	-18.7988	-9.5673	-13.9313	-13.9313	-4.1962	-10.4065	-10.5743	-4.1962	-7.8888	-6.546	1.0071	5.8746	-4.1962	6.0425	-5.8746	62	279	178	10	1	2
-18.9667	-16.6168	-21.1487	-18.9667	-8.8959	-13.5956	-13.092	-4.0283	-10.0708	-9.7351	-3.6926	-7.2174	-5.5389	1.1749	6.7139	-3.8605	6.7139	-5.5389	62	280	179	10	1	2
-18.7988	-16.2811	-21.1487	-18.9667	-8.728	-13.7634	-12.5885	-3.8605	-9.5673	-9.0637	-3.6926	-6.7139	-4.8676	1.5106	7.3853	-3.5248	7.5531	-5.3711	62	281	180	10	1	2
-18.7988	-15.9454	-21.1487	-19.1345	-8.5602	-13.5956	-12.085	-3.6926	-9.3994	-8.0566	-3.6926	-6.3782	-4.1962	1.8463	8.3923	-3.3569	8.0566	-5.0354	62	282	181	10	1	2
-19.3024	-16.2811	-21.4844	-19.6381	-8.5602	-13.7634	-11.7493	-3.8605	-9.2316	-7.5531	-3.8605	-6.2103	-3.5248	2.0142	9.2316	-3.0212	8.5602	-4.8676	62	283	182	10	1	2
-19.8059	-16.6168	-22.1558	-20.1416	-8.8959	-14.0991	-11.4136	-4.1962	-9.3994	-7.0496	-4.0283	-6.0425	-3.0212	2.5177	9.903	-3.1891	8.8959	-4.8676	62	284	183	10	1	2
-20.4773	-17.2882	-22.8271	-20.813	-9.7351	-14.6027	-11.5814	-4.8676	-9.903	-6.8817	-4.6997	-6.2103	-2.6855	2.6855	10.4065	-3.5248	9.3994	-4.8676	62	285	184	10	1	2
-21.4844	-18.1274	-23.6664	-21.4844	-10.4065	-15.4419	-11.5814	-5.3711	-10.2386	-6.7139	-5.2032	-6.3782	-2.5177	3.0212	11.0779	-3.6926	9.7351	-4.8676	62	286	185	10	1	2
-22.6593	-19.1345	-24.8413	-22.4915	-11.0779	-16.1133	-11.7493	-6.0425	-10.7422	-6.546	-5.8746	-6.7139	-2.182	3.3569	11.5814	-3.8605	10.0708	-4.8676	62	287	186	10	1	2
-23.8342	-20.3094	-26.0162	-23.3307	-12.085	-16.9525	-12.085	-6.7139	-11.4136	-6.3782	-6.546	-7.2174	-2.0142	3.6926	12.2528	-3.8605	10.2386	-4.6997	62	288	187	10	1	2
-25.177	-21.6522	-27.1912	-24.3378	-13.092	-18.1274	-12.4207	-7.5531	-12.2528	-6.546	-7.2174	-7.7209	-2.0142	3.8605	12.7563	-4.0283	10.2386	-4.6997	62	289	188	10	1	2
-26.6876	-22.8271	-28.3661	-25.3448	-14.267	-19.4702	-12.9242	-8.3923	-12.9242	-6.7139	-8.0566	-8.5602	-2.0142	4.0283	13.092	-4.0283	10.2386	-4.6997	62	290	189	10	1	2
-28.0304	-24.1699	-29.541	-26.3519	-15.6097	-20.4773	-13.5956	-9.5673	-13.9313	-6.8817	-8.8959	-9.2316	-2.182	4.0283	13.4277	-4.364	10.0708	-4.8676	62	291	190	10	1	2
-0.5035	26.8555	-3.8605	-17.1204	31.3873	-7.0496	-22.4915	31.5552	-8.5602	-24.8413	20.6451	-7.5531	-24.1699	-8.3923	-16.7847	37.7655	-19.4702	33.5693	62	231	130	11	1	2
-0.3357	26.3519	-3.8605	-16.7847	30.7159	-7.2174	-22.4915	31.0516	-8.5602	-24.8413	20.3094	-7.5531	-24.1699	-8.5602	-17.2882	37.0941	-19.8059	32.8979	62	232	131	11	1	2
-0.3357	25.8484	-3.8605	-16.6168	30.0446	-7.2174	-22.3236	30.2124	-8.5602	-24.5056	19.8059	-7.3853	-24.1699	-8.728	-17.6239	36.2549	-20.1416	31.8909	62	233	132	11	1	2
-0.1678	25.3448	-3.5248	-16.1133	29.3732	-6.8817	-21.8201	29.541	-8.2245	-24.1699	19.4702	-7.0496	-23.8342	-8.728	-17.7917	35.4156	-20.1416	30.8838	62	234	133	11	1	2
0.1678	25.177	-3.3569	-15.6097	28.8696	-6.8817	-21.3165	28.8696	-8.0566	-23.6664	19.1345	-6.8817	-23.6664	-8.8959	-17.9596	34.5764	-20.3094	30.0446	62	235	134	11	1	2
0.1678	24.6735	-3.1891	-15.1062	28.0304	-6.546	-20.6451	28.0304	-7.7209	-22.995	18.4631	-6.546	-23.1628	-8.8959	-17.9596	33.4015	-20.1416	28.8696	62	236	135	11	1	2
0.3357	24.5056	-2.8534	-14.6027	27.5269	-6.2103	-20.1416	27.359	-7.3853	-22.3236	18.1274	-6.2103	-22.6593	-8.8959	-17.9596	32.3944	-19.9738	27.8625	62	237	136	11	1	2
0.3357	24.1699	-2.6855	-13.9313	27.0233	-5.8746	-19.4702	26.6876	-7.0496	-21.6522	17.6239	-5.8746	-22.1558	-8.8959	-17.9596	31.3873	-19.8059	26.6876	62	238	137	11	1	2
0.8392	23.8342	-2.3499	-13.4277	26.5198	-5.5389	-18.9667	26.0162	-6.7139	-20.9808	17.1204	-5.5389	-21.6522	-8.8959	-17.9596	30.2124	-19.4702	25.6805	62	239	138	11	1	2
0.8392	23.4985	-2.182	-12.7563	25.8484	-5.0354	-18.1274	25.0092	-6.2103	-20.1416	16.449	-5.0354	-20.9808	-8.728	-17.7917	28.8696	-19.1345	24.3378	62	240	139	11	1	2
1.0071	22.995	-1.6785	-12.085	25.177	-4.5319	-17.4561	24.3378	-5.5389	-19.1345	16.1133	-4.364	-19.9738	-8.5602	-17.6239	27.6947	-18.4631	23.1628	62	241	140	11	1	2
1.1749	22.6593	-1.5106	-11.5814	24.3378	-4.1962	-16.7847	23.4985	-5.0354	-18.1274	15.6097	-3.8605	-19.3024	-8.3923	-17.1204	26.5198	-17.9596	21.9879	62	242	141	11	1	2
1.6785	22.1558	-1.1749	-10.91	24.0021	-3.5248	-15.9454	22.8271	-4.5319	-17.2882	15.274	-3.5248	-18.4631	-8.2245	-16.7847	25.5127	-17.4561	21.1487	62	243	142	11	1	2
2.0142	21.8201	-0.8392	-10.2386	23.1628	-3.1891	-15.1062	21.9879	-4.0283	-16.1133	14.7705	-3.0212	-17.6239	-8.0566	-16.449	24.1699	-16.7847	19.9738	62	244	143	11	1	2
2.5177	21.3165	-0.5035	-9.5673	22.1558	-2.6855	-14.267	21.1487	-3.3569	-15.1062	14.267	-2.5177	-16.6168	-7.8888	-16.1133	22.995	-16.1133	18.9667	62	245	144	11	1	2
2.8534	20.4773	0	-8.728	21.4844	-2.0142	-13.4277	19.9738	-2.6855	-13.9313	13.5956	-2.0142	-15.6097	-7.5531	-15.4419	21.6522	-15.274	17.7917	62	246	145	11	1	2
3.1891	19.8059	0.3357	-8.2245	20.3094	-1.5106	-12.7563	18.7988	-2.3499	-12.9242	13.092	-1.5106	-14.6027	-7.3853	-14.9384	20.4773	-14.4348	16.6168	62	247	146	11	1	2
3.3569	18.9667	0.3357	-7.8888	19.3024	-1.1749	-11.9171	17.6239	-2.0142	-12.085	12.2528	-1.1749	-13.7634	-7.2174	-14.4348	19.4702	-13.7634	15.4419	62	248	147	11	1	2
3.3569	17.7917	0.6714	-7.2174	18.1274	-0.8392	-11.2457	16.1133	-1.5106	-10.91	11.5814	-0.8392	-12.9242	-6.8817	-13.9313	17.9596	-13.092	14.267	62	249	148	11	1	2
3.0212	16.6168	0.5035	-7.0496	16.7847	-0.5035	-10.7422	14.9384	-1.1749	-10.2386	10.5743	-0.8392	-12.085	-6.7139	-13.5956	16.7847	-12.5885	13.092	62	250	149	11	1	2
2.6855	15.1062	0.3357	-6.7139	15.1062	-0.3357	-10.0708	13.4277	-0.8392	-9.3994	9.7351	-0.6714	-11.2457	-6.3782	-12.9242	15.4419	-11.7493	12.085	62	251	150	11	1	2
2.0142	13.5956	0.1678	-6.3782	13.4277	-0.1678	-9.3994	11.7493	-0.8392	-8.728	8.728	-0.5035	-10.5743	-6.2103	-12.5885	14.0991	-11.2457	11.2457	62	252	151	11	1	2
1.1749	11.9171	-0.3357	-6.2103	11.9171	-0.1678	-8.8959	10.2386	-0.6714	-7.8888	7.5531	-0.5035	-9.903	-6.0425	-12.085	12.7563	-10.7422	10.2386	62	253	152	11	1	2
0.3357	10.0708	-0.8392	-6.0425	9.903	-0.3357	-8.5602	8.3923	-0.8392	-7.3853	6.546	-0.6714	-9.3994	-6.0425	-11.7493	11.4136	-10.0708	9.0637	62	254	153	11	1	2
-0.8392	7.8888	-1.5106	-5.8746	7.8888	-0.3357	-8.0566	6.546	-0.8392	-6.546	5.5389	-0.6714	-8.5602	-5.8746	-11.0779	10.0708	-9.3994	8.2245	62	255	154	11	1	2
-2.0142	6.0425	-2.3499	-5.8746	5.7068	-0.8392	-7.7209	4.8676	-1.0071	-5.8746	4.1962	-0.8392	-8.0566	-5.8746	-10.7422	8.728	-8.8959	7.0496	62	256	155	11	1	2
-3.1891	3.6926	-3.0212	-5.7068	3.8605	-1.0071	-7.2174	3.0212	-1.1749	-5.3711	2.8534	-1.1749	-7.3853	-5.7068	-10.0708	7.3853	-8.3923	6.0425	62	257	156	11	1	2
-4.364	1.5106	-4.0283	-5.5389	1.5106	-1.3428	-6.8817	1.0071	-1.5106	-4.6997	1.5106	-1.3428	-6.8817	-5.5389	-9.5673	6.0425	-7.8888	5.0354	62	258	157	11	1	2
-5.5389	-1.0071	-4.8676	-5.7068	-0.6714	-1.8463	-6.3782	-0.8392	-2.0142	-4.364	0.1678	-1.6785	-6.3782	-5.3711	-9.0637	4.6997	-7.3853	4.0283	62	259	158	11	1	2
-6.7139	-3.5248	-5.8746	-5.7068	-3.1891	-2.5177	-6.2103	-2.8534	-2.5177	-3.5248	-1.1749	-2.182	-6.0425	-5.2032	-8.3923	3.3569	-6.8817	3.1891	62	260	159	11	1	2
-7.8888	-5.7068	-6.546	-5.5389	-5.2032	-2.8534	-5.7068	-4.5319	-2.6855	-3.1891	-2.3499	-2.3499	-5.2032	-4.8676	-8.0566	2.182	-6.546	2.3499	62	261	160	11	1	2
-8.8959	-8.0566	-7.3853	-5.3711	-7.3853	-3.1891	-5.2032	-6.3782	-3.1891	-2.6855	-3.5248	-2.5177	-4.6997	-4.5319	-7.3853	1.1749	-5.7068	1.8463	62	262	161	11	1	2
-10.2386	-10.4065	-8.5602	-5.3711	-9.7351	-4.0283	-5.0354	-8.3923	-3.6926	-2.182	-5.0354	-3.0212	-4.364	-4.1962	-6.8817	0	-5.2032	0.8392	62	263	162	11	1	2
-11.2457	-12.7563	-9.3994	-5.3711	-12.085	-4.5319	-4.8676	-10.2386	-4.1962	-1.8463	-6.2103	-3.3569	-3.8605	-3.8605	-6.2103	-1.0071	-4.6997	0.1678	62	264	163	11	1	2
-12.4207	-15.1062	-10.4065	-5.5389	-14.0991	-5.2032	-4.6997	-12.085	-4.8676	-1.6785	-7.5531	-3.8605	-3.5248	-3.6926	-5.7068	-2.0142	-4.364	-0.5035	62	265	164	11	1	2
-13.5956	-17.4561	-11.4136	-5.5389	-16.449	-6.0425	-4.5319	-14.0991	-5.3711	-1.3428	-9.0637	-4.364	-3.1891	-3.1891	-4.8676	-3.1891	-3.8605	-1.3428	62	266	165	11	1	2
-14.9384	-19.8059	-12.5885	-5.7068	-18.7988	-6.7139	-4.6997	-16.1133	-6.0425	-1.1749	-10.4065	-5.0354	-3.0212	-3.0212	-4.5319	-4.1962	-3.5248	-2.182	62	267	166	11	1	2
-16.6168	-22.1558	-13.7634	-6.2103	-20.9808	-7.5531	-4.6997	-17.9596	-6.7139	-1.1749	-11.9171	-5.7068	-2.8534	-2.6855	-4.0283	-5.3711	-3.1891	-3.0212	62	268	167	11	1	2
-17.9596	-24.5056	-15.1062	-6.3782	-23.3307	-8.5602	-4.8676	-19.9738	-7.5531	-1.3428	-13.4277	-6.3782	-2.8534	-2.3499	-3.5248	-6.546	-3.0212	-3.8605	62	269	168	11	1	2
-19.6381	-26.8555	-16.6168	-6.8817	-25.3448	-9.5673	-5.2032	-21.9879	-8.3923	-1.3428	-14.7705	-7.2174	-2.8534	-1.8463	-3.0212	-7.7209	-2.6855	-4.6997	62	270	169	11	1	2
-21.1487	-29.0375	-17.7917	-7.5531	-27.5269	-10.5743	-5.7068	-24.0021	-9.3994	-1.6785	-16.2811	-8.0566	-2.6855	-1.5106	-2.6855	-8.728	-2.5177	-5.3711	62	271	170	11	1	2
-22.4915	-30.8838	-18.7988	-7.7209	-29.3732	-11.4136	-5.7068	-25.6805	-10.0708	-1.8463	-17.4561	-8.5602	-2.6855	-1.1749	-2.3499	-9.3994	-2.3499	-6.0425	62	272	171	11	1	2
-23.6664	-32.7301	-20.1416	-8.0566	-31.2195	-12.4207	-6.2103	-27.359	-10.91	-2.182	-18.7988	-9.3994	-3.0212	-0.6714	-2.0142	-9.903	-2.0142	-6.3782	62	273	172	11	1	2
-24.8413	-34.4086	-21.1487	-8.5602	-32.8979	-13.2599	-6.546	-29.0375	-11.7493	-2.6855	-20.1416	-10.2386	-3.1891	-0.3357	-1.5106	-10.5743	-2.182	-6.8817	62	274	173	11	1	2
-25.6805	-35.7513	-21.8201	-8.728	-34.0729	-14.0991	-6.8817	-30.5481	-12.5885	-3.1891	-20.9808	-10.91	-3.3569	0	-1.3428	-10.91	-2.182	-7.2174	62	275	174	11	1	2
-26.3519	-36.9263	-22.4915	-8.8959	-35.4156	-14.7705	-7.0496	-31.8909	-13.2599	-3.3569	-21.9879	-11.4136	-3.3569	0.5035	-1.0071	-11.2457	-2.182	-7.5531	62	276	175	11	1	2
-27.0233	-37.9333	-23.1628	-9.3994	-36.5906	-15.4419	-7.5531	-33.0658	-13.9313	-3.8605	-22.995	-12.085	-3.6926	1.0071	-0.6714	-11.5814	-1.8463	-7.8888	62	277	176	11	1	2
-27.1912	-38.7726	-23.6664	-9.5673	-37.262	-16.1133	-7.8888	-33.905	-14.4348	-4.364	-23.6664	-12.5885	-3.8605	1.5106	-0.3357	-11.5814	-1.8463	-7.8888	62	278	177	11	1	2
-27.1912	-39.444	-23.8342	-9.7351	-37.7655	-16.6168	-8.0566	-34.7443	-14.9384	-4.6997	-24.1699	-12.9242	-4.0283	1.8463	-0.1678	-11.5814	-2.0142	-7.8888	62	279	178	11	1	2
-27.1912	-39.6118	-24.0021	-9.903	-38.1012	-16.7847	-8.3923	-35.2478	-15.274	-5.0354	-24.3378	-13.2599	-4.1962	2.3499	0.3357	-11.5814	-2.0142	-7.8888	62	280	179	11	1	2
-27.1912	-39.9475	-24.1699	-10.2386	-38.269	-17.2882	-8.728	-35.5835	-15.7776	-5.5389	-24.5056	-13.5956	-4.5319	2.8534	0.6714	-11.5814	-2.0142	-7.7209	62	281	180	11	1	2
-27.0233	-39.9475	-24.3378	-10.7422	-38.1012	-17.6239	-9.0637	-35.7513	-15.7776	-5.8746	-24.5056	-13.7634	-4.5319	3.1891	0.8392	-11.4136	-2.0142	-7.5531	62	282	181	11	1	2
-26.8555	-39.444	-24.5056	-10.91	-37.7655	-17.9596	-9.3994	-35.7513	-15.9454	-6.3782	-24.3378	-13.7634	-4.6997	3.5248	1.1749	-11.2457	-2.182	-7.2174	62	283	182	11	1	2
-26.6876	-39.1083	-24.5056	-11.2457	-37.0941	-18.1274	-9.7351	-35.2478	-16.1133	-6.7139	-24.0021	-13.5956	-4.8676	3.6926	1.1749	-10.91	-2.3499	-6.7139	62	284	183	11	1	2
-26.6876	-38.6047	-24.3378	-11.7493	-36.5906	-18.2953	-10.0708	-34.9121	-16.1133	-7.2174	-23.4985	-13.4277	-5.0354	3.8605	1.3428	-10.7422	-2.5177	-6.3782	62	285	184	11	1	2
-26.5198	-38.1012	-24.5056	-12.2528	-35.7513	-18.1274	-10.5743	-34.0729	-16.1133	-7.5531	-22.995	-13.2599	-5.0354	4.0283	1.5106	-10.4065	-2.6855	-5.8746	62	286	185	11	1	2
-26.6876	-37.5977	-24.5056	-12.7563	-34.9121	-18.2953	-10.91	-33.4015	-16.1133	-7.8888	-22.3236	-13.092	-5.3711	4.1962	1.8463	-10.2386	-2.8534	-5.3711	62	287	186	11	1	2
-26.6876	-36.5906	-24.3378	-13.092	-33.7372	-18.1274	-11.2457	-32.0587	-15.6097	-8.0566	-21.1487	-12.5885	-5.2032	4.1962	1.8463	-9.7351	-3.0212	-4.5319	62	288	187	11	1	2
-26.6876	-35.9192	-24.3378	-13.7634	-32.5623	-18.1274	-11.7493	-31.0516	-15.6097	-8.5602	-20.1416	-12.2528	-5.3711	4.1962	2.0142	-9.3994	-3.1891	-4.0283	62	289	188	11	1	2
-26.6876	-34.9121	-24.1699	-14.267	-31.2195	-17.7917	-11.9171	-29.3732	-15.1062	-8.728	-18.9667	-11.5814	-5.2032	4.0283	2.182	-8.728	-3.3569	-3.0212	62	290	189	11	1	2
-26.6876	-33.905	-24.0021	-14.7705	-29.7089	-17.6239	-12.2528	-27.8625	-14.6027	-8.8959	-17.6239	-11.0779	-5.2032	4.0283	2.3499	-8.0566	-3.3569	-2.182	62	291	190	11	1	2
-12.085	-12.9242	-10.7422	-9.903	-6.3782	-6.3782	-8.728	2.8534	0.8392	-5.2032	9.5673	5.8746	-2.8534	-3.8605	-9.3994	6.8817	-8.2245	5.8746	62	231	130	12	1	2
-10.91	-12.085	-9.7351	-9.2316	-5.8746	-5.7068	-8.2245	2.8534	1.0071	-4.6997	9.0637	5.8746	-2.5177	-3.8605	-9.7351	6.546	-8.2245	5.2032	62	232	131	12	1	2
-9.903	-11.0779	-8.8959	-8.2245	-5.0354	-5.0354	-7.3853	2.8534	1.6785	-4.1962	8.5602	5.8746	-2.0142	-3.6926	-9.5673	6.3782	-7.8888	4.364	62	233	132	12	1	2
-9.0637	-10.2386	-7.8888	-7.5531	-4.5319	-4.1962	-6.7139	2.6855	2.0142	-3.5248	7.8888	5.8746	-1.6785	-3.5248	-9.5673	5.7068	-7.5531	3.1891	62	234	133	12	1	2
-8.2245	-9.3994	-7.2174	-7.0496	-4.0283	-3.6926	-6.3782	2.3499	2.3499	-3.0212	7.2174	5.8746	-1.1749	-3.5248	-9.7351	5.0354	-7.3853	2.3499	62	235	134	12	1	2
-7.5531	-8.5602	-6.3782	-6.2103	-3.5248	-3.0212	-5.5389	2.182	2.5177	-2.5177	6.3782	5.7068	-1.0071	-3.3569	-9.7351	4.1962	-7.2174	1.3428	62	236	135	12	1	2
-7.0496	-7.7209	-5.8746	-5.8746	-3.1891	-2.5177	-5.2032	1.8463	2.6855	-2.182	5.7068	5.7068	-0.5035	-3.3569	-9.7351	3.5248	-7.0496	0.3357	62	237	136	12	1	2
-6.3782	-7.0496	-5.2032	-5.3711	-2.8534	-1.8463	-4.6997	1.6785	3.0212	-1.6785	4.8676	5.5389	-0.1678	-3.3569	-9.903	2.6855	-6.8817	-0.8392	62	238	137	12	1	2
-5.7068	-6.0425	-4.364	-4.8676	-2.182	-1.1749	-4.1962	1.5106	3.1891	-1.0071	4.0283	5.3711	0	-3.1891	-9.7351	1.8463	-6.7139	-1.8463	62	239	138	12	1	2
-5.0354	-5.2032	-3.6926	-4.5319	-1.8463	-0.6714	-3.8605	1.1749	3.5248	-0.6714	3.3569	5.2032	0.3357	-3.1891	-9.903	1.1749	-6.546	-2.8534	62	240	139	12	1	2
-4.364	-4.364	-3.0212	-4.1962	-1.5106	-0.1678	-3.5248	0.8392	3.8605	-0.1678	2.6855	5.2032	0.8392	-3.1891	-9.903	0.5035	-6.546	-3.6926	62	241	140	12	1	2
-3.6926	-3.5248	-2.5177	-3.6926	-1.3428	0.3357	-3.0212	0.6714	4.0283	0.1678	2.0142	5.0354	1.1749	-3.1891	-9.903	-0.1678	-6.3782	-4.5319	62	242	141	12	1	2
-3.1891	-2.6855	-1.8463	-3.1891	-1.0071	0.6714	-2.6855	0.3357	4.0283	0.5035	1.3428	5.0354	1.5106	-3.1891	-9.903	-0.6714	-6.2103	-5.3711	62	243	142	12	1	2
-2.5177	-2.0142	-1.0071	-2.6855	-0.5035	1.1749	-2.182	0.1678	4.364	0.8392	0.8392	4.8676	1.8463	-3.1891	-9.7351	-1.0071	-6.0425	-5.8746	62	244	143	12	1	2
-1.6785	-1.1749	-0.3357	-2.182	-0.1678	1.8463	-1.6785	0	4.6997	1.5106	0.5035	5.0354	2.3499	-3.1891	-9.5673	-1.0071	-5.7068	-6.546	62	245	144	12	1	2
-0.8392	-0.5035	0.5035	-1.5106	0.1678	2.3499	-1.0071	0.1678	5.0354	2.182	0	5.0354	2.5177	-3.1891	-9.2316	-1.0071	-5.3711	-6.7139	62	246	145	12	1	2
-0.1678	0.1678	1.1749	-1.0071	0.5035	2.8534	-0.5035	-0.1678	5.2032	2.5177	-0.3357	4.8676	2.8534	-3.3569	-9.0637	-1.1749	-5.3711	-7.0496	62	247	146	12	1	2
0.5035	0.6714	1.8463	-0.5035	0.6714	3.3569	0.1678	-0.1678	5.5389	3.0212	-0.6714	5.0354	3.3569	-3.5248	-8.8959	-1.1749	-5.0354	-7.2174	62	248	147	12	1	2
0.6714	1.1749	2.182	-0.1678	0.8392	3.8605	0.3357	-0.1678	6.0425	3.3569	-0.8392	5.2032	3.6926	-3.8605	-8.8959	-1.3428	-5.0354	-7.5531	62	249	148	12	1	2
1.0071	1.5106	2.6855	0.1678	1.0071	4.0283	0.8392	-0.5035	6.0425	3.6926	-1.3428	4.8676	3.6926	-4.0283	-8.5602	-1.3428	-4.8676	-7.8888	62	250	149	12	1	2
1.1749	1.8463	3.0212	0.5035	1.0071	4.364	1.0071	-0.5035	6.2103	4.0283	-1.5106	4.8676	4.0283	-4.1962	-8.3923	-1.5106	-4.6997	-8.0566	62	251	150	12	1	2
1.1749	1.8463	3.0212	0.3357	1.0071	4.364	1.0071	-0.6714	6.2103	3.8605	-2.0142	4.6997	3.8605	-4.5319	-8.3923	-1.6785	-4.6997	-8.3923	62	252	151	12	1	2
0.8392	1.8463	3.1891	0.1678	0.8392	4.364	0.8392	-1.1749	6.0425	3.8605	-2.3499	4.364	3.8605	-4.8676	-8.3923	-1.8463	-4.6997	-8.728	62	253	152	12	1	2
0.5035	1.5106	3.0212	0	0.5035	4.5319	0.6714	-1.5106	6.0425	3.8605	-3.0212	4.1962	3.6926	-5.2032	-8.5602	-2.0142	-4.6997	-9.0637	62	254	153	12	1	2
0.3357	1.3428	3.0212	-0.1678	0.5035	4.1962	0.3357	-1.8463	5.8746	3.6926	-3.3569	3.6926	3.3569	-5.3711	-8.5602	-2.0142	-4.8676	-9.2316	62	255	154	12	1	2
0.1678	1.0071	2.8534	-0.3357	0.3357	4.1962	0	-2.182	5.7068	3.3569	-3.8605	3.5248	3.1891	-5.7068	-8.5602	-2.182	-5.0354	-9.5673	62	256	155	12	1	2
-0.1678	0.6714	2.8534	-0.5035	0.1678	4.1962	-0.1678	-2.5177	5.5389	3.1891	-4.1962	3.1891	2.8534	-5.8746	-8.728	-2.182	-5.2032	-9.5673	62	257	156	12	1	2
-0.1678	0.5035	2.8534	-0.5035	0	4.1962	-0.3357	-2.8534	5.2032	3.0212	-4.5319	2.8534	2.5177	-6.0425	-8.728	-2.3499	-5.2032	-9.7351	62	258	157	12	1	2
0	0.1678	2.8534	-0.6714	0	4.1962	-0.6714	-3.0212	5.2032	2.6855	-4.8676	2.5177	2.0142	-6.2103	-8.8959	-2.182	-5.3711	-9.7351	62	259	158	12	1	2
0.1678	0	3.0212	-0.6714	0	4.1962	-0.6714	-3.0212	5.0354	2.5177	-4.8676	2.182	1.6785	-6.2103	-8.8959	-2.0142	-5.3711	-9.5673	62	260	159	12	1	2
0.6714	-0.1678	3.1891	-0.6714	0	4.364	-1.0071	-3.1891	5.0354	2.3499	-5.2032	2.0142	1.3428	-6.3782	-9.0637	-1.8463	-5.7068	-9.3994	62	261	160	12	1	2
1.0071	-0.3357	3.3569	-0.6714	0	4.5319	-1.0071	-3.1891	5.0354	2.182	-5.3711	1.8463	0.8392	-6.3782	-9.2316	-1.6785	-5.7068	-9.2316	62	262	161	12	1	2
1.6785	0	3.8605	-0.5035	0.1678	4.5319	-1.0071	-3.0212	4.8676	1.8463	-5.2032	1.5106	0.5035	-6.2103	-9.0637	-1.3428	-5.7068	-8.728	62	263	162	12	1	2
2.182	0	4.364	-0.1678	0.5035	4.8676	-0.8392	-2.8534	4.8676	1.8463	-5.2032	1.3428	0.1678	-6.0425	-9.0637	-1.0071	-5.5389	-8.0566	62	264	163	12	1	2
2.5177	0.1678	4.6997	0	0.6714	5.0354	-0.8392	-2.6855	4.8676	1.6785	-5.0354	1.1749	-0.1678	-5.8746	-9.0637	-0.6714	-5.5389	-7.5531	62	265	164	12	1	2
3.0212	0.1678	5.0354	0.3357	0.8392	5.0354	-0.6714	-2.5177	4.6997	1.5106	-5.0354	0.8392	-0.6714	-5.7068	-9.0637	-0.3357	-5.5389	-7.0496	62	266	165	12	1	2
3.5248	0.1678	5.3711	0.5035	1.0071	5.5389	-0.5035	-2.5177	4.6997	1.3428	-5.0354	1.0071	-1.0071	-5.5389	-9.0637	-0.1678	-5.3711	-6.546	62	267	166	12	1	2
3.5248	0.3357	5.5389	0.8392	1.3428	5.5389	-0.3357	-2.3499	4.5319	1.1749	-4.8676	0.6714	-1.3428	-5.2032	-8.8959	0.1678	-5.3711	-5.8746	62	268	167	12	1	2
3.5248	0.3357	5.5389	1.0071	1.3428	5.5389	-0.3357	-2.3499	4.1962	0.8392	-5.0354	0.1678	-1.6785	-5.0354	-8.8959	0.3357	-5.3711	-5.5389	62	269	168	12	1	2
3.8605	0.5035	5.8746	1.0071	1.3428	5.5389	-0.3357	-2.5177	4.0283	0.5035	-5.0354	-0.1678	-2.0142	-4.8676	-9.0637	0.1678	-5.5389	-5.3711	62	270	169	12	1	2
3.6926	0.5035	5.7068	1.3428	1.5106	5.3711	-0.1678	-2.5177	3.6926	0.3357	-4.8676	-0.5035	-2.5177	-4.5319	-8.8959	0.1678	-5.5389	-5.0354	62	271	170	12	1	2
3.6926	0.5035	5.8746	1.1749	1.3428	5.3711	-0.1678	-2.8534	3.3569	0	-5.0354	-1.0071	-3.0212	-4.364	-9.0637	0	-5.7068	-4.8676	62	272	171	12	1	2
3.5248	0.5035	5.7068	1.3428	1.3428	5.2032	-0.1678	-3.0212	3.0212	-0.3357	-5.2032	-1.3428	-3.3569	-4.0283	-9.0637	-0.3357	-5.8746	-4.6997	62	273	172	12	1	2
3.6926	0.5035	5.7068	1.3428	1.1749	5.2032	-0.1678	-3.1891	2.6855	-0.5035	-5.2032	-1.6785	-3.6926	-3.6926	-9.2316	-0.6714	-6.0425	-4.6997	62	274	173	12	1	2
3.6926	0.6714	5.7068	1.5106	1.0071	5.0354	-0.1678	-3.3569	2.3499	-0.6714	-5.3711	-2.0142	-4.1962	-3.3569	-9.2316	-1.0071	-6.0425	-4.5319	62	275	174	12	1	2
3.8605	0.8392	5.8746	1.5106	0.8392	5.0354	-0.1678	-3.5248	2.182	-1.0071	-5.3711	-2.3499	-4.364	-3.1891	-9.2316	-1.5106	-6.2103	-4.5319	62	276	175	12	1	2
4.1962	1.3428	6.0425	1.6785	1.0071	5.2032	0.1678	-3.5248	1.6785	-1.0071	-5.2032	-2.3499	-4.5319	-2.8534	-9.0637	-1.6785	-6.0425	-4.1962	62	277	176	12	1	2
4.364	1.6785	6.2103	2.0142	1.1749	5.3711	0.3357	-3.5248	1.6785	-1.0071	-5.0354	-2.3499	-4.5319	-2.6855	-8.8959	-2.0142	-6.0425	-4.0283	62	278	177	12	1	2
4.8676	2.182	6.546	2.182	1.1749	5.5389	0.6714	-3.3569	1.5106	-0.8392	-4.8676	-2.3499	-4.5319	-2.5177	-8.728	-2.3499	-5.8746	-3.8605	62	279	178	12	1	2
5.3711	2.6855	6.8817	2.3499	1.3428	5.7068	0.8392	-3.3569	1.5106	-0.8392	-4.6997	-2.3499	-4.364	-2.3499	-8.5602	-2.3499	-5.7068	-3.5248	62	280	179	12	1	2
5.7068	3.0212	7.0496	2.5177	1.3428	6.0425	0.8392	-3.3569	1.6785	-0.8392	-4.6997	-2.5177	-4.364	-2.3499	-8.3923	-2.6855	-5.7068	-3.3569	62	281	180	12	1	2
6.0425	3.5248	7.2174	2.8534	1.5106	5.8746	1.0071	-3.1891	1.5106	-0.6714	-4.364	-2.5177	-4.1962	-2.182	-8.0566	-2.6855	-5.5389	-3.1891	62	282	181	12	1	2
6.0425	3.8605	7.0496	2.8534	1.5106	5.8746	1.0071	-3.1891	1.5106	-0.6714	-4.1962	-2.5177	-4.0283	-2.182	-7.7209	-3.0212	-5.3711	-2.8534	62	283	182	12	1	2
5.8746	4.0283	7.0496	2.8534	1.5106	5.8746	1.0071	-3.3569	1.3428	-0.6714	-4.1962	-2.3499	-3.8605	-2.182	-7.3853	-3.1891	-5.2032	-2.6855	62	284	183	12	1	2
5.7068	4.1962	7.0496	2.8534	1.1749	5.8746	1.0071	-3.3569	1.0071	-0.6714	-4.0283	-2.3499	-3.6926	-2.182	-7.0496	-3.3569	-5.0354	-2.6855	62	285	184	12	1	2
5.3711	4.0283	6.546	2.8534	1.0071	5.7068	0.8392	-3.5248	1.0071	-0.6714	-3.8605	-2.3499	-3.5248	-2.182	-6.8817	-3.5248	-4.8676	-2.5177	62	286	185	12	1	2
5.0354	3.8605	6.3782	2.8534	0.6714	5.2032	0.6714	-3.5248	0.6714	-0.6714	-3.8605	-2.3499	-3.3569	-2.182	-6.7139	-3.6926	-4.6997	-2.3499	62	287	186	12	1	2
4.364	3.6926	5.8746	2.5177	0.3357	4.8676	0.5035	-3.6926	0.5035	-0.6714	-3.8605	-2.3499	-3.1891	-2.182	-6.546	-3.8605	-4.6997	-2.182	62	288	187	12	1	2
3.8605	3.5248	5.3711	2.3499	0	4.5319	0.1678	-3.6926	0.3357	-0.6714	-3.6926	-2.182	-3.0212	-2.182	-6.3782	-3.8605	-4.6997	-2.0142	62	289	188	12	1	2
3.5248	3.1891	5.0354	2.3499	-0.3357	4.364	0.1678	-3.5248	0.3357	-1.0071	-3.5248	-2.182	-2.8534	-2.182	-6.2103	-3.6926	-4.5319	-1.6785	62	290	189	12	1	2
3.0212	2.8534	4.6997	2.182	-0.5035	4.1962	0	-3.3569	0.1678	-0.8392	-3.1891	-1.8463	-2.6855	-2.182	-5.8746	-3.5248	-4.5319	-1.3428	62	291	190	12	1	2
10.2386	6.546	12.2528	0.5035	9.3994	10.91	1.3428	10.2386	5.3711	-2.8534	9.2316	-0.3357	2.5177	2.182	-6.0425	5.0354	-1.6785	2.182	62	231	130	18	1	2
10.91	7.0496	13.092	1.6785	9.903	11.9171	2.3499	10.7422	6.546	-1.6785	9.7351	0.6714	3.6926	2.3499	-5.0354	5.0354	-0.5035	2.3499	62	232	131	18	1	2
11.5814	7.5531	13.9313	2.8534	10.4065	12.7563	3.5248	11.2457	7.3853	-0.5035	10.2386	1.1749	4.8676	2.5177	-3.8605	5.0354	0.5035	2.0142	62	233	132	18	1	2
12.085	7.8888	14.6027	4.0283	10.91	13.5956	4.6997	11.7493	8.2245	0.6714	10.5743	2.0142	6.2103	2.6855	-2.8534	5.0354	1.5106	1.8463	62	234	133	18	1	2
12.7563	8.2245	15.6097	5.3711	11.5814	14.6027	6.0425	12.2528	9.0637	2.3499	11.0779	2.6855	7.3853	2.8534	-1.5106	4.6997	3.0212	1.5106	62	235	134	18	1	2
13.4277	8.5602	16.449	6.7139	12.085	15.4419	7.5531	12.5885	10.0708	3.5248	11.2457	3.5248	8.8959	3.0212	-0.3357	4.6997	4.5319	0.8392	62	236	135	18	1	2
14.0991	9.0637	16.9525	8.0566	12.5885	16.2811	8.728	12.9242	10.7422	4.8676	11.4136	4.0283	10.0708	3.1891	1.0071	4.5319	5.7068	0.3357	62	237	136	18	1	2
14.9384	9.5673	17.9596	9.5673	13.092	17.1204	10.2386	13.4277	11.5814	6.3782	11.7493	4.5319	11.5814	3.3569	2.3499	4.364	7.2174	-0.3357	62	238	137	18	1	2
16.1133	10.2386	18.9667	11.0779	13.7634	18.1274	12.085	13.9313	12.7563	7.8888	12.085	5.5389	13.092	3.6926	3.8605	4.1962	9.0637	-0.6714	62	239	138	18	1	2
17.1204	10.91	19.8059	12.5885	14.6027	18.9667	13.5956	14.267	13.4277	9.3994	12.2528	6.2103	14.4348	3.8605	5.2032	4.0283	10.2386	-1.1749	62	240	139	18	1	2
18.2953	11.5814	20.813	13.9313	15.1062	19.8059	14.9384	14.7705	14.4348	10.7422	12.5885	6.7139	15.7776	4.0283	6.3782	3.8605	11.4136	-1.8463	62	241	140	18	1	2
19.4702	12.4207	21.8201	15.4419	15.7776	20.813	16.6168	15.1062	15.1062	12.085	12.7563	7.5531	17.1204	4.364	7.3853	3.6926	12.7563	-2.5177	62	242	141	18	1	2
20.6451	12.9242	22.6593	16.449	16.449	21.4844	17.7917	15.4419	15.9454	13.2599	12.7563	8.0566	18.2953	4.5319	8.3923	3.3569	13.5956	-3.0212	62	243	142	18	1	2
21.4844	13.5956	23.3307	17.6239	16.7847	22.1558	18.9667	15.4419	16.449	14.267	12.5885	8.5602	19.1345	4.5319	9.2316	3.1891	14.6027	-3.6926	62	244	143	18	1	2
22.4915	13.9313	24.1699	18.631	17.1204	22.8271	20.3094	15.4419	16.9525	15.274	12.5885	8.8959	20.3094	4.6997	10.0708	2.6855	15.274	-4.5319	62	245	144	18	1	2
23.1628	14.267	24.6735	19.6381	17.4561	23.1628	21.4844	15.6097	17.6239	16.1133	12.5885	9.3994	21.3165	4.8676	10.91	2.5177	16.1133	-5.0354	62	246	145	18	1	2
23.4985	14.267	24.8413	20.1416	17.4561	23.4985	22.3236	15.4419	17.7917	16.9525	12.085	9.5673	21.9879	4.8676	11.5814	2.0142	16.6168	-5.8746	62	247	146	18	1	2
23.3307	14.267	24.8413	20.6451	17.4561	23.6664	23.3307	15.274	17.9596	17.4561	11.7493	9.7351	22.6593	5.0354	12.085	1.6785	17.2882	-6.546	62	248	147	18	1	2
23.1628	13.7634	24.8413	20.813	17.1204	23.6664	23.8342	14.9384	17.9596	17.9596	11.4136	9.7351	23.1628	5.2032	12.5885	0.8392	17.4561	-7.7209	62	249	148	18	1	2
22.4915	13.5956	24.5056	20.9808	16.9525	23.4985	24.3378	14.4348	17.9596	18.2953	10.91	9.7351	23.4985	5.3711	12.9242	0.5035	17.9596	-8.3923	62	250	149	18	1	2
21.8201	13.092	24.0021	20.6451	16.449	23.3307	24.6735	13.7634	17.6239	18.2953	10.0708	9.5673	23.8342	5.5389	13.4277	0	18.1274	-9.2316	62	251	150	18	1	2
21.3165	12.4207	23.6664	20.4773	15.9454	23.1628	24.8413	13.092	17.4561	18.2953	9.3994	9.0637	24.0021	5.7068	13.5956	-0.6714	18.4631	-10.0708	62	252	151	18	1	2
20.6451	11.9171	23.1628	20.3094	15.6097	22.8271	24.6735	12.5885	16.9525	18.2953	8.3923	8.728	23.8342	5.8746	13.7634	-1.1749	18.631	-11.0779	62	253	152	18	1	2
19.9738	11.2457	22.8271	20.1416	15.1062	22.4915	24.6735	11.7493	16.6168	18.1274	7.5531	8.3923	23.8342	6.0425	13.4277	-1.8463	18.631	-12.085	62	254	153	18	1	2
19.6381	10.91	22.4915	19.8059	14.6027	22.1558	24.6735	11.0779	16.2811	17.7917	6.7139	7.8888	23.6664	6.2103	13.5956	-2.182	18.7988	-12.9242	62	255	154	18	1	2
19.3024	10.2386	22.1558	19.3024	14.0991	21.8201	24.3378	10.2386	15.6097	17.4561	5.5389	7.2174	23.3307	6.2103	13.4277	-2.5177	18.7988	-13.7634	62	256	155	18	1	2
19.1345	9.7351	21.8201	19.3024	13.7634	21.4844	24.3378	9.5673	15.274	17.1204	4.6997	6.7139	22.995	6.3782	13.2599	-3.0212	18.7988	-14.6027	62	257	156	18	1	2
18.9667	9.5673	21.4844	18.9667	13.2599	21.1487	24.0021	8.728	14.6027	16.6168	3.6926	6.0425	22.4915	6.3782	13.2599	-3.1891	18.7988	-15.274	62	258	157	18	1	2
18.7988	9.0637	21.3165	18.9667	12.9242	20.813	23.6664	8.2245	14.267	16.1133	2.8534	5.3711	22.1558	6.546	12.9242	-3.5248	18.631	-16.1133	62	259	158	18	1	2
18.4631	8.8959	20.9808	18.4631	12.2528	20.3094	23.3307	7.3853	13.5956	15.6097	1.8463	4.5319	21.6522	6.546	12.7563	-3.6926	18.631	-16.6168	62	260	159	18	1	2
18.4631	8.2245	20.6451	18.4631	11.9171	20.1416	22.995	6.7139	12.9242	15.1062	1.0071	3.8605	21.1487	6.7139	12.4207	-4.1962	18.631	-17.4561	62	261	160	18	1	2
18.2953	7.7209	20.1416	18.1274	11.4136	19.6381	22.4915	5.7068	12.4207	14.6027	0	3.1891	20.6451	6.8817	12.2528	-4.364	18.631	-17.9596	62	262	161	18	1	2
17.4561	7.2174	19.6381	17.6239	10.5743	18.9667	21.9879	4.6997	11.5814	13.7634	-1.0071	2.3499	19.9738	6.8817	11.9171	-4.5319	18.631	-18.631	62	263	162	18	1	2
16.7847	6.2103	18.7988	17.1204	9.903	18.2953	21.3165	3.6926	10.5743	13.092	-2.0142	1.3428	19.3024	7.0496	11.4136	-4.8676	18.2953	-19.1345	62	264	163	18	1	2
15.7776	5.2032	17.9596	16.449	8.8959	17.6239	20.6451	2.8534	9.7351	12.4207	-3.0212	0.3357	18.4631	7.2174	11.0779	-5.2032	18.1274	-19.6381	62	265	164	18	1	2
14.7705	4.1962	16.9525	15.7776	8.0566	16.6168	19.9738	1.8463	8.728	11.5814	-4.1962	-0.5035	17.9596	7.3853	10.7422	-5.5389	17.7917	-20.1416	62	266	165	18	1	2
13.4277	3.1891	15.7776	14.7705	7.0496	15.7776	19.1345	0.6714	7.5531	10.7422	-5.0354	-1.8463	17.1204	7.3853	10.2386	-5.7068	17.4561	-20.3094	62	267	166	18	1	2
12.4207	2.0142	14.7705	14.0991	6.0425	14.9384	18.4631	0	6.7139	9.903	-5.8746	-2.6855	16.449	7.5531	9.903	-5.8746	16.9525	-20.813	62	268	167	18	1	2
11.2457	1.1749	13.5956	13.092	5.2032	13.9313	17.2882	-1.0071	5.5389	9.0637	-6.7139	-3.6926	15.6097	7.3853	9.5673	-6.0425	16.6168	-20.9808	62	269	168	18	1	2
10.2386	0.1678	12.5885	12.085	4.364	13.2599	16.6168	-1.5106	4.6997	8.3923	-7.3853	-4.5319	15.1062	7.3853	9.0637	-6.2103	16.1133	-21.1487	62	270	169	18	1	2
9.0637	-0.6714	11.5814	11.2457	3.6926	12.4207	15.6097	-2.182	3.6926	7.5531	-7.8888	-5.3711	14.267	7.2174	8.728	-5.8746	15.7776	-20.9808	62	271	170	18	1	2
8.0566	-1.3428	10.5743	10.2386	3.0212	11.4136	14.7705	-2.8534	2.6855	6.7139	-8.3923	-6.3782	13.7634	7.0496	8.2245	-5.8746	15.274	-20.813	62	272	171	18	1	2
7.2174	-2.3499	9.5673	9.2316	2.182	10.7422	13.9313	-3.3569	1.8463	6.0425	-9.0637	-7.0496	13.092	7.0496	7.8888	-5.8746	14.6027	-20.6451	62	273	172	18	1	2
6.3782	-3.1891	8.728	8.2245	1.5106	10.0708	12.9242	-3.6926	1.0071	5.2032	-9.2316	-7.8888	12.4207	7.0496	7.3853	-5.8746	14.0991	-20.4773	62	274	173	18	1	2
5.5389	-4.0283	7.7209	7.3853	0.8392	9.0637	11.9171	-4.1962	-0.1678	4.364	-9.5673	-8.8959	11.7493	6.8817	6.8817	-5.7068	13.4277	-20.3094	62	275	174	18	1	2
5.0354	-4.6997	6.8817	6.7139	0.1678	8.3923	11.2457	-4.5319	-0.8392	3.6926	-9.903	-9.3994	11.2457	6.8817	6.7139	-5.5389	13.092	-19.8059	62	276	175	18	1	2
4.6997	-5.3711	6.3782	5.8746	-0.3357	7.8888	10.5743	-4.6997	-1.3428	3.1891	-9.903	-9.903	11.0779	6.8817	6.3782	-5.2032	12.5885	-19.4702	62	277	176	18	1	2
4.5319	-6.0425	5.7068	5.3711	-0.8392	7.3853	10.0708	-4.8676	-2.0142	2.8534	-9.7351	-10.4065	10.7422	6.7139	6.2103	-5.0354	12.4207	-18.9667	62	278	177	18	1	2
4.0283	-6.546	5.2032	5.0354	-1.3428	6.8817	9.3994	-4.8676	-2.6855	2.3499	-9.5673	-10.91	10.4065	6.3782	6.2103	-4.6997	12.2528	-18.1274	62	279	178	18	1	2
3.5248	-7.2174	4.5319	4.5319	-1.5106	6.3782	8.8959	-4.8676	-3.0212	1.8463	-9.5673	-11.2457	10.2386	6.2103	5.8746	-4.364	12.085	-17.4561	62	280	179	18	1	2
3.0212	-7.7209	3.8605	4.0283	-2.0142	5.7068	8.3923	-4.8676	-3.6926	1.5106	-9.0637	-11.9171	9.903	5.8746	6.0425	-4.0283	11.9171	-16.7847	62	281	180	18	1	2
2.182	-8.5602	3.0212	3.3569	-2.5177	5.0354	7.5531	-4.8676	-4.5319	0.8392	-9.0637	-12.4207	9.5673	5.5389	5.7068	-3.6926	11.5814	-16.2811	62	282	181	18	1	2
1.3428	-9.3994	2.3499	2.6855	-3.0212	4.364	6.8817	-5.0354	-4.8676	0.3357	-9.0637	-12.7563	9.2316	5.3711	5.5389	-3.5248	11.4136	-15.6097	62	283	182	18	1	2
0.5035	-10.0708	1.3428	2.0142	-3.6926	3.5248	6.0425	-5.2032	-5.5389	-0.1678	-8.8959	-13.2599	8.728	5.0354	5.2032	-3.1891	11.2457	-14.7705	62	284	183	18	1	2
-0.3357	-11.0779	0.5035	1.3428	-4.1962	2.6855	5.2032	-5.3711	-6.2103	-0.8392	-8.5602	-13.7634	8.2245	4.6997	4.8676	-2.8534	10.7422	-14.0991	62	285	184	18	1	2
-1.1749	-11.7493	-0.5035	0.5035	-4.8676	1.8463	4.0283	-5.2032	-7.0496	-1.6785	-8.5602	-14.267	7.7209	4.364	4.364	-2.3499	10.0708	-13.5956	62	286	185	18	1	2
-2.0142	-12.5885	-1.3428	-0.5035	-5.2032	0.8392	3.1891	-5.3711	-7.5531	-2.3499	-8.3923	-14.7705	7.0496	4.0283	3.8605	-1.8463	9.2316	-12.9242	62	287	186	18	1	2
-2.6855	-13.4277	-2.182	-1.5106	-5.8746	0.1678	2.182	-5.7068	-8.2245	-3.1891	-8.5602	-15.274	6.2103	3.6926	2.8534	-1.3428	8.3923	-12.4207	62	288	187	18	1	2
-3.1891	-13.9313	-3.0212	-2.182	-6.0425	-0.8392	1.3428	-5.5389	-8.728	-4.0283	-8.2245	-15.7776	5.5389	3.1891	2.182	-0.8392	7.5531	-11.4136	62	289	188	18	1	2
-3.6926	-14.4348	-3.6926	-2.8534	-6.546	-1.5106	0.3357	-5.5389	-9.2316	-4.8676	-8.0566	-16.1133	5.0354	2.8534	1.5106	-0.1678	6.546	-10.7422	62	290	189	18	1	2
-4.0283	-14.7705	-4.364	-3.3569	-6.8817	-2.5177	-0.5035	-5.5389	-9.903	-5.7068	-7.8888	-16.2811	4.364	2.5177	0.8392	0.5035	5.5389	-10.0708	62	291	190	18	1	2
1.0071	2.182	0.1678	-3.3569	5.2032	-2.0142	-4.364	3.3569	-1.0071	-5.3711	-0.1678	-0.3357	-2.8534	0.1678	-14.6027	-1.3428	-11.5814	-7.0496	62	231	130	20	1	2
1.1749	2.182	0.5035	-2.8534	5.5389	-1.3428	-3.8605	3.6926	-0.6714	-4.8676	-0.3357	0	-2.5177	0.1678	-14.0991	-1.6785	-10.91	-7.3853	62	232	131	20	1	2
1.1749	2.3499	0.8392	-2.6855	5.7068	-0.6714	-3.1891	3.8605	0	-4.1962	-0.1678	0.3357	-1.8463	0.1678	-13.4277	-2.0142	-10.4065	-7.7209	62	233	132	20	1	2
1.1749	2.5177	1.0071	-2.3499	6.2103	-0.1678	-2.8534	4.1962	0.5035	-3.8605	0	0.8392	-1.3428	0	-13.092	-2.3499	-9.903	-7.8888	62	234	133	20	1	2
1.1749	2.8534	1.3428	-1.8463	6.546	0.6714	-2.3499	4.5319	1.1749	-3.1891	0.1678	1.1749	-0.6714	0	-12.4207	-2.6855	-9.2316	-8.2245	62	235	134	20	1	2
1.3428	3.0212	1.6785	-1.6785	7.0496	1.1749	-1.8463	4.8676	1.8463	-2.3499	0.3357	1.5106	0	0	-11.9171	-3.0212	-8.3923	-8.5602	62	236	135	20	1	2
1.6785	3.3569	2.3499	-1.0071	7.2174	2.0142	-1.1749	5.0354	2.3499	-1.8463	0.3357	1.8463	0.8392	0.1678	-11.2457	-3.5248	-7.7209	-8.8959	62	237	136	20	1	2
2.0142	3.6926	2.6855	-0.5035	7.5531	2.6855	-0.6714	5.2032	3.0212	-1.3428	0.3357	2.182	1.5106	0.3357	-10.7422	-3.6926	-7.0496	-9.2316	62	238	137	20	1	2
2.3499	4.0283	3.3569	-0.3357	8.0566	3.3569	-0.3357	5.3711	3.3569	-0.6714	0.3357	2.5177	2.0142	0.5035	-10.0708	-4.0283	-6.2103	-9.5673	62	239	138	20	1	2
2.6855	4.364	3.6926	0	8.3923	3.8605	0	5.3711	3.8605	-0.3357	0.3357	2.6855	2.5177	0.5035	-9.7351	-4.364	-5.8746	-9.903	62	240	139	20	1	2
3.1891	4.8676	4.364	0.6714	8.8959	4.364	0.8392	5.5389	4.364	0.1678	0.1678	3.0212	3.0212	0.6714	-9.0637	-4.364	-5.2032	-10.0708	62	241	140	20	1	2
4.0283	5.2032	5.0354	1.0071	9.2316	5.0354	1.1749	5.3711	4.6997	0.5035	0	3.1891	3.6926	0.8392	-8.3923	-4.6997	-4.364	-10.4065	62	242	141	20	1	2
4.5319	5.3711	5.7068	1.5106	9.3994	5.7068	1.6785	5.5389	5.2032	1.0071	0	3.5248	4.1962	0.8392	-7.8888	-4.6997	-3.8605	-10.5743	62	243	142	20	1	2
4.8676	5.7068	6.2103	1.8463	9.5673	6.0425	2.0142	5.3711	5.3711	1.3428	-0.3357	3.6926	4.5319	0.8392	-7.3853	-5.0354	-3.1891	-10.91	62	244	143	20	1	2
5.3711	5.7068	6.546	2.182	9.5673	6.2103	2.0142	5.0354	5.3711	1.5106	-0.6714	3.5248	5.0354	0.8392	-6.8817	-5.5389	-2.6855	-11.4136	62	245	144	20	1	2
5.7068	5.8746	6.7139	2.5177	9.5673	6.3782	2.3499	4.6997	5.5389	1.6785	-1.0071	3.5248	5.3711	0.8392	-6.546	-5.7068	-2.182	-11.9171	62	246	145	20	1	2
5.7068	5.8746	6.8817	2.5177	9.5673	6.546	2.5177	4.364	5.3711	1.6785	-1.3428	3.3569	5.3711	0.6714	-6.3782	-6.0425	-2.0142	-12.4207	62	247	146	20	1	2
5.8746	5.7068	7.2174	2.6855	9.2316	6.3782	2.3499	3.8605	5.2032	1.6785	-1.8463	3.1891	5.5389	0.6714	-6.0425	-6.546	-1.5106	-12.5885	62	248	147	20	1	2
5.8746	5.3711	7.2174	2.6855	8.8959	6.2103	2.5177	3.1891	4.8676	1.3428	-2.3499	2.8534	5.5389	0.5035	-5.8746	-6.8817	-1.3428	-12.9242	62	249	148	20	1	2
5.7068	5.0354	7.0496	2.6855	8.3923	5.8746	2.3499	2.6855	4.364	1.1749	-3.0212	2.5177	5.5389	0.3357	-5.7068	-7.2174	-1.1749	-13.2599	62	250	149	20	1	2
5.8746	4.8676	7.0496	2.5177	8.2245	5.7068	2.182	2.0142	4.0283	0.8392	-3.5248	2.0142	5.3711	0.1678	-5.7068	-7.5531	-1.1749	-13.5956	62	251	150	20	1	2
5.7068	4.5319	6.8817	2.5177	7.7209	5.3711	2.0142	1.3428	3.5248	0.5035	-4.0283	1.6785	5.2032	0	-5.7068	-7.8888	-1.1749	-13.9313	62	252	151	20	1	2
5.5389	4.1962	6.8817	2.5177	7.2174	5.0354	1.8463	0.6714	3.0212	0	-4.5319	1.1749	4.8676	-0.1678	-5.8746	-8.2245	-1.1749	-14.267	62	253	152	20	1	2
5.5389	3.6926	6.7139	2.3499	6.7139	4.6997	1.5106	0	2.3499	-0.5035	-5.0354	0.6714	4.5319	-0.3357	-6.0425	-8.3923	-1.5106	-14.4348	62	254	153	20	1	2
5.3711	3.5248	6.7139	2.0142	6.3782	4.1962	1.5106	-0.6714	2.0142	-0.8392	-5.3711	0.3357	4.0283	-0.5035	-6.2103	-8.5602	-1.6785	-14.7705	62	255	154	20	1	2
5.5389	3.0212	6.546	1.8463	5.7068	4.0283	1.0071	-1.1749	1.3428	-1.3428	-5.7068	-0.1678	3.6926	-0.5035	-6.3782	-8.5602	-1.8463	-14.7705	62	256	155	20	1	2
5.5389	2.6855	6.546	1.6785	5.2032	3.6926	0.8392	-1.8463	0.8392	-1.8463	-6.2103	-0.5035	3.1891	-0.6714	-6.8817	-8.5602	-2.3499	-14.7705	62	257	156	20	1	2
5.7068	2.182	6.3782	1.5106	4.5319	3.3569	0.3357	-2.3499	0.1678	-2.6855	-6.546	-1.1749	2.6855	-0.6714	-7.0496	-8.5602	-2.6855	-14.7705	62	258	157	20	1	2
5.7068	2.0142	6.546	1.1749	4.1962	3.0212	-0.1678	-2.8534	-0.3357	-3.3569	-6.8817	-1.5106	2.0142	-0.8392	-7.7209	-8.3923	-3.3569	-14.7705	62	259	158	20	1	2
6.2103	1.6785	6.3782	1.0071	3.6926	2.8534	-0.5035	-3.3569	-0.8392	-3.8605	-7.2174	-2.0142	1.5106	-0.8392	-8.0566	-8.3923	-3.8605	-14.7705	62	260	159	20	1	2
6.2103	1.3428	6.2103	0.6714	3.3569	2.5177	-1.0071	-3.8605	-1.6785	-4.5319	-7.5531	-2.6855	1.0071	-0.8392	-8.5602	-8.3923	-4.364	-14.6027	62	261	160	20	1	2
6.546	1.0071	6.2103	0.3357	2.8534	2.182	-1.6785	-4.5319	-2.182	-5.3711	-7.7209	-3.0212	0.5035	-1.0071	-9.2316	-8.3923	-5.0354	-14.6027	62	262	161	20	1	2
6.546	0.6714	6.0425	0.1678	2.3499	2.0142	-2.0142	-4.6997	-2.5177	-5.7068	-8.0566	-3.3569	-0.1678	-1.0071	-9.7351	-8.2245	-5.3711	-14.4348	62	263	162	20	1	2
6.2103	0.1678	5.7068	-0.3357	2.0142	1.6785	-2.6855	-5.2032	-3.1891	-6.3782	-8.2245	-4.0283	-0.6714	-1.0071	-10.0708	-8.3923	-6.0425	-14.267	62	264	163	20	1	2
5.8746	-0.1678	5.7068	-0.8392	1.5106	1.3428	-3.1891	-5.7068	-3.8605	-7.2174	-8.728	-4.5319	-1.5106	-1.1749	-10.7422	-8.5602	-6.8817	-14.267	62	265	164	20	1	2
5.5389	-0.6714	5.2032	-1.1749	1.0071	1.0071	-3.8605	-6.0425	-4.1962	-7.7209	-8.728	-5.2032	-2.0142	-1.1749	-11.2457	-8.8959	-7.3853	-14.0991	62	266	165	20	1	2
5.2032	-1.1749	4.8676	-1.6785	0.5035	0.8392	-4.1962	-6.3782	-4.6997	-8.3923	-9.0637	-5.3711	-2.5177	-1.1749	-11.7493	-8.8959	-7.8888	-13.7634	62	267	166	20	1	2
4.8676	-1.5106	4.6997	-2.182	0	0.6714	-4.8676	-6.8817	-5.2032	-8.728	-9.2316	-5.8746	-3.1891	-1.1749	-12.2528	-9.0637	-8.5602	-13.5956	62	268	167	20	1	2
4.5319	-2.0142	4.364	-2.6855	-0.3357	0.3357	-5.3711	-7.0496	-5.5389	-9.3994	-9.3994	-6.3782	-3.5248	-1.1749	-12.7563	-9.2316	-9.2316	-13.5956	62	269	168	20	1	2
4.0283	-2.6855	4.0283	-3.3569	-1.0071	0	-5.8746	-7.3853	-6.2103	-10.0708	-9.7351	-6.8817	-4.364	-1.3428	-13.4277	-9.3994	-9.7351	-13.7634	62	270	169	20	1	2
3.6926	-3.0212	3.5248	-3.5248	-1.3428	-0.1678	-6.3782	-7.7209	-6.3782	-10.5743	-10.0708	-7.2174	-4.8676	-1.3428	-13.9313	-9.5673	-10.4065	-13.5956	62	271	170	20	1	2
3.1891	-3.5248	3.1891	-4.0283	-1.6785	-0.5035	-6.7139	-8.0566	-6.7139	-10.91	-10.0708	-7.3853	-5.3711	-1.3428	-14.4348	-9.903	-10.91	-13.5956	62	272	171	20	1	2
3.0212	-4.0283	2.8534	-4.364	-2.182	-0.5035	-7.2174	-8.0566	-6.7139	-11.4136	-10.2386	-7.7209	-5.8746	-1.3428	-14.9384	-10.0708	-11.4136	-13.5956	62	273	172	20	1	2
2.6855	-4.5319	2.5177	-5.0354	-2.6855	-1.0071	-7.5531	-8.3923	-7.0496	-11.7493	-10.4065	-8.2245	-6.3782	-1.5106	-15.6097	-10.2386	-12.085	-13.7634	62	274	173	20	1	2
2.5177	-5.0354	2.3499	-5.2032	-3.1891	-1.0071	-7.8888	-8.5602	-7.2174	-12.085	-10.2386	-8.3923	-6.7139	-1.5106	-15.9454	-10.2386	-12.5885	-13.5956	62	275	174	20	1	2
2.182	-5.5389	2.0142	-5.5389	-3.5248	-1.0071	-8.0566	-8.5602	-7.0496	-12.4207	-10.0708	-8.3923	-6.8817	-1.5106	-16.2811	-10.4065	-12.9242	-13.4277	62	276	175	20	1	2
2.182	-6.0425	1.8463	-5.7068	-4.0283	-1.1749	-8.0566	-8.5602	-7.0496	-12.5885	-10.0708	-8.5602	-7.0496	-1.5106	-16.6168	-10.4065	-13.2599	-13.2599	62	277	176	20	1	2
2.0142	-6.546	1.5106	-5.8746	-4.364	-1.1749	-8.0566	-8.5602	-6.8817	-12.5885	-9.7351	-8.2245	-7.0496	-1.5106	-16.9525	-10.2386	-13.5956	-12.9242	62	278	177	20	1	2
1.6785	-7.0496	1.3428	-6.0425	-4.8676	-1.1749	-8.2245	-8.5602	-6.7139	-12.7563	-9.3994	-8.3923	-7.2174	-1.5106	-17.1204	-10.0708	-13.9313	-12.4207	62	279	178	20	1	2
1.1749	-7.7209	1.1749	-6.2103	-5.3711	-1.1749	-8.2245	-8.5602	-6.546	-12.5885	-9.0637	-8.2245	-7.0496	-1.5106	-17.2882	-9.903	-14.0991	-11.7493	62	280	179	20	1	2
1.0071	-8.2245	1.0071	-6.2103	-5.7068	-1.0071	-8.0566	-8.2245	-6.2103	-12.4207	-8.3923	-7.8888	-6.8817	-1.3428	-17.2882	-9.3994	-14.0991	-10.91	62	281	180	20	1	2
0.6714	-8.728	0.8392	-6.3782	-6.3782	-1.0071	-8.0566	-8.3923	-6.0425	-12.2528	-7.8888	-7.5531	-6.8817	-1.3428	-17.4561	-8.8959	-14.267	-10.0708	62	282	181	20	1	2
0.1678	-9.3994	0.3357	-6.3782	-6.8817	-0.8392	-8.0566	-8.2245	-5.8746	-12.085	-7.3853	-7.2174	-6.7139	-1.3428	-17.4561	-8.3923	-14.4348	-9.3994	62	283	182	20	1	2
-0.3357	-10.2386	0	-6.7139	-7.5531	-1.1749	-8.0566	-8.2245	-5.7068	-12.4207	-7.0496	-7.2174	-6.546	-1.5106	-17.7917	-7.7209	-14.7705	-8.3923	62	284	183	20	1	2
-0.8392	-10.7422	-0.3357	-6.8817	-8.0566	-1.1749	-8.0566	-8.0566	-5.5389	-12.2528	-6.3782	-6.8817	-6.3782	-1.5106	-17.9596	-7.2174	-14.9384	-7.5531	62	285	184	20	1	2
-1.0071	-11.2457	-0.6714	-6.8817	-8.5602	-1.3428	-8.2245	-7.8888	-5.3711	-12.085	-5.8746	-6.546	-6.2103	-1.5106	-17.9596	-6.7139	-15.1062	-6.7139	62	286	185	20	1	2
-1.5106	-11.7493	-0.8392	-7.0496	-9.2316	-1.3428	-8.0566	-7.7209	-5.0354	-11.7493	-5.2032	-6.2103	-5.8746	-1.5106	-17.7917	-6.3782	-15.274	-6.0425	62	287	186	20	1	2
-1.5106	-12.085	-1.0071	-7.0496	-9.5673	-1.3428	-7.8888	-7.5531	-4.8676	-11.5814	-4.6997	-5.8746	-5.5389	-1.5106	-17.7917	-5.8746	-15.4419	-5.2032	62	288	187	20	1	2
-1.6785	-12.4207	-1.1749	-7.2174	-9.903	-1.3428	-7.8888	-7.3853	-4.6997	-11.4136	-4.0283	-5.5389	-5.3711	-1.6785	-17.9596	-5.3711	-15.7776	-4.5319	62	289	188	20	1	2
-1.3428	-12.4207	-1.0071	-7.0496	-9.903	-1.1749	-7.5531	-6.8817	-4.364	-11.0779	-3.5248	-5.2032	-4.8676	-1.6785	-17.7917	-5.0354	-15.7776	-3.8605	62	290	189	20	1	2
-1.0071	-12.2528	-1.0071	-6.8817	-9.903	-1.0071	-7.3853	-6.546	-4.0283	-10.7422	-2.8534	-4.8676	-4.6997	-1.8463	-17.7917	-4.5319	-15.9454	-3.0212	62	291	190	20	1	2
-14.6027	-18.4631	-17.9596	-19.3024	-22.995	-18.2953	-14.267	-23.4985	-21.1487	-20.4773	-18.2953	-23.1628	-18.9667	3.6926	-4.364	-9.3994	-4.1962	-14.267	62	231	130	21	1	2
-13.7634	-17.7917	-16.9525	-18.1274	-22.3236	-17.6239	-13.4277	-23.1628	-20.813	-19.9738	-18.2953	-23.3307	-18.9667	3.5248	-4.5319	-9.3994	-4.0283	-14.6027	62	232	131	21	1	2
-12.9242	-16.9525	-15.7776	-16.9525	-21.6522	-16.7847	-12.4207	-22.8271	-20.4773	-19.4702	-18.2953	-23.3307	-18.7988	3.3569	-4.6997	-9.3994	-3.6926	-14.9384	62	233	132	21	1	2
-12.085	-16.1133	-14.6027	-15.6097	-20.813	-15.9454	-11.5814	-22.3236	-19.9738	-18.7988	-18.2953	-23.1628	-18.631	3.1891	-5.0354	-9.5673	-3.5248	-15.274	62	234	133	21	1	2
-10.7422	-15.1062	-13.4277	-14.0991	-19.9738	-14.7705	-10.4065	-21.8201	-19.3024	-18.1274	-18.1274	-22.995	-18.2953	3.0212	-5.0354	-9.5673	-3.0212	-15.4419	62	235	134	21	1	2
-9.903	-14.4348	-12.2528	-12.7563	-19.3024	-13.9313	-9.2316	-21.3165	-18.7988	-17.4561	-17.9596	-22.995	-18.1274	3.0212	-5.2032	-9.5673	-2.5177	-15.7776	62	236	135	21	1	2
-8.728	-13.5956	-11.0779	-11.0779	-18.2953	-12.7563	-8.0566	-20.813	-18.1274	-16.6168	-17.7917	-22.6593	-17.6239	2.8534	-5.2032	-9.5673	-2.0142	-15.9454	62	237	136	21	1	2
-7.3853	-12.5885	-9.7351	-9.5673	-17.4561	-11.7493	-6.7139	-20.3094	-17.4561	-15.7776	-17.4561	-22.3236	-16.9525	2.8534	-5.0354	-9.5673	-1.5106	-15.9454	62	238	137	21	1	2
-6.2103	-11.7493	-8.3923	-8.0566	-16.6168	-10.5743	-5.5389	-19.8059	-16.7847	-14.7705	-17.1204	-21.9879	-16.449	2.8534	-4.8676	-9.5673	-1.1749	-16.1133	62	239	138	21	1	2
-4.6997	-10.91	-7.2174	-6.546	-15.6097	-9.5673	-4.1962	-19.4702	-16.2811	-13.7634	-16.9525	-21.8201	-15.7776	3.0212	-4.6997	-9.5673	-0.3357	-16.449	62	240	139	21	1	2
-3.3569	-9.7351	-5.7068	-4.8676	-14.7705	-8.2245	-2.6855	-18.7988	-15.4419	-12.5885	-16.449	-21.3165	-14.9384	3.0212	-4.364	-9.5673	0.3357	-16.449	62	241	140	21	1	2
-1.8463	-8.8959	-4.364	-3.5248	-13.9313	-7.3853	-1.5106	-18.2953	-14.7705	-11.7493	-16.1133	-20.9808	-14.4348	3.1891	-4.1962	-9.5673	1.0071	-16.6168	62	242	141	21	1	2
-0.3357	-7.8888	-3.1891	-2.182	-13.092	-6.3782	-0.1678	-17.6239	-13.9313	-10.5743	-15.9454	-20.3094	-13.5956	3.3569	-3.6926	-9.5673	1.8463	-16.7847	62	243	142	21	1	2
1.3428	-7.0496	-1.8463	-0.8392	-12.2528	-5.3711	1.1749	-17.1204	-13.2599	-9.3994	-15.6097	-19.9738	-12.7563	3.3569	-3.1891	-9.7351	2.3499	-16.9525	62	244	143	21	1	2
2.5177	-6.2103	-0.6714	0.3357	-11.5814	-4.364	2.3499	-16.6168	-12.9242	-8.3923	-15.274	-19.4702	-11.9171	3.5248	-2.8534	-9.7351	3.0212	-16.9525	62	245	144	21	1	2
3.6926	-5.3711	0.3357	1.3428	-10.91	-3.6926	3.3569	-16.449	-12.2528	-7.3853	-15.1062	-18.9667	-11.0779	3.6926	-2.3499	-9.7351	3.5248	-17.1204	62	246	145	21	1	2
4.6997	-4.8676	1.1749	2.182	-10.5743	-3.1891	4.5319	-16.1133	-11.9171	-6.7139	-15.1062	-18.7988	-10.5743	3.8605	-2.0142	-9.903	3.8605	-17.4561	62	247	146	21	1	2
5.2032	-4.5319	1.6785	2.8534	-10.0708	-2.5177	5.2032	-15.7776	-11.5814	-5.8746	-14.9384	-18.631	-9.903	3.8605	-1.6785	-9.7351	4.1962	-17.4561	62	248	147	21	1	2
5.8746	-4.364	2.3499	3.3569	-9.7351	-2.182	6.0425	-15.7776	-11.4136	-5.3711	-14.9384	-18.631	-9.5673	4.0283	-1.5106	-9.903	4.5319	-17.6239	62	249	148	21	1	2
6.2103	-4.1962	2.6855	3.5248	-9.5673	-1.8463	6.3782	-15.6097	-11.4136	-4.8676	-14.9384	-18.631	-9.2316	4.0283	-1.3428	-10.0708	4.6997	-17.7917	62	250	149	21	1	2
6.3782	-4.0283	2.8534	3.8605	-9.5673	-1.6785	6.7139	-15.4419	-11.4136	-4.364	-14.9384	-18.4631	-9.0637	4.0283	-1.1749	-10.0708	4.6997	-17.9596	62	251	150	21	1	2
6.2103	-4.0283	2.8534	3.8605	-9.5673	-1.8463	7.0496	-15.4419	-11.4136	-4.0283	-15.1062	-18.4631	-8.728	3.8605	-1.1749	-10.0708	4.6997	-17.9596	62	252	151	21	1	2
6.0425	-4.1962	2.5177	3.6926	-9.5673	-2.0142	7.0496	-15.4419	-11.5814	-3.8605	-15.4419	-18.631	-8.5602	3.6926	-1.1749	-10.0708	4.5319	-18.1274	62	253	152	21	1	2
5.8746	-4.364	2.5177	3.5248	-9.5673	-2.182	7.2174	-15.4419	-11.5814	-3.6926	-15.6097	-18.7988	-8.5602	3.5248	-1.1749	-10.0708	4.364	-18.2953	62	254	153	21	1	2
5.7068	-4.5319	2.3499	3.3569	-9.5673	-2.182	7.2174	-15.4419	-11.7493	-3.5248	-15.7776	-18.7988	-8.3923	3.3569	-1.3428	-9.903	4.1962	-18.2953	62	255	154	21	1	2
5.5389	-5.0354	2.3499	3.3569	-9.7351	-2.182	7.3853	-15.4419	-11.9171	-3.5248	-15.7776	-18.9667	-8.3923	3.1891	-1.3428	-9.7351	4.0283	-18.1274	62	256	155	21	1	2
