"FZ"	"FC3"	"FCZ"	"FC4"	"C3"	"CZ"	"C4"	"CP3"	"CPZ"	"CP4"	"P3"	"PZ"	"P4"	"OZ"	"P8"	"TP7"	"TP8"	"P7"	"Subject"	"Points"	"Time"	"Trial"	"Rejected"	"Correct"
-37.5977	-24.8413	-31.5552	-30.8838	-18.7988	-20.4773	-19.1345	-11.4136	-13.092	-9.0637	-2.0142	-3.0212	2.3499	7.0496	11.9171	-13.7634	-15.1062	3.0212	20	231	130	1	1	2
-38.269	-26.3519	-32.2266	-31.3873	-19.6381	-20.4773	-19.3024	-11.7493	-13.092	-9.2316	-2.182	-3.1891	1.8463	6.8817	11.2457	-13.5956	-15.6097	2.6855	20	232	131	1	1	2
-38.6047	-27.8625	-32.5623	-31.8909	-20.3094	-20.3094	-19.3024	-12.085	-13.092	-9.3994	-2.3499	-3.3569	1.3428	6.8817	10.7422	-13.5956	-15.9454	2.3499	20	233	132	1	1	2
-39.2761	-29.541	-33.0658	-32.3944	-21.1487	-20.4773	-19.3024	-12.4207	-13.092	-9.7351	-2.5177	-3.5248	0.8392	6.7139	10.0708	-13.9313	-16.2811	1.5106	20	234	133	1	1	2
-40.2832	-31.2195	-33.905	-32.8979	-21.9879	-20.6451	-19.4702	-12.9242	-13.5956	-10.0708	-3.0212	-3.8605	0.1678	6.7139	9.3994	-14.4348	-16.7847	0.8392	20	235	134	1	1	2
-40.7867	-32.8979	-34.5764	-33.4015	-22.995	-20.813	-19.6381	-13.5956	-13.7634	-10.4065	-3.5248	-4.1962	-0.5035	6.546	8.728	-14.9384	-17.2882	-0.1678	20	236	135	1	1	2
-41.626	-34.4086	-34.9121	-33.7372	-24.0021	-20.9808	-19.8059	-14.0991	-14.0991	-10.5743	-4.0283	-4.5319	-1.1749	6.546	8.0566	-15.7776	-17.6239	-1.0071	20	237	136	1	1	2
-42.2974	-35.9192	-35.5835	-34.0729	-24.8413	-21.3165	-19.9738	-14.7705	-14.6027	-11.0779	-4.6997	-5.0354	-1.8463	6.546	7.5531	-16.7847	-18.2953	-2.0142	20	238	137	1	1	2
-42.6331	-36.7584	-36.087	-34.0729	-25.5127	-21.1487	-19.9738	-15.274	-14.6027	-11.2457	-5.2032	-5.2032	-2.3499	6.3782	6.8817	-17.6239	-18.631	-3.1891	20	239	138	1	1	2
-43.1366	-37.0941	-36.2549	-33.905	-25.6805	-20.9808	-19.8059	-15.4419	-14.6027	-11.4136	-5.5389	-5.3711	-2.6855	6.3782	6.3782	-18.4631	-18.9667	-4.0283	20	240	139	1	1	2
-43.3044	-37.4298	-36.2549	-33.7372	-26.0162	-20.813	-19.4702	-15.9454	-14.7705	-11.4136	-5.8746	-5.5389	-3.0212	6.3782	5.8746	-19.4702	-19.4702	-5.0354	20	241	140	1	1	2
-43.3044	-37.0941	-35.9192	-32.8979	-25.8484	-20.4773	-19.1345	-15.7776	-14.4348	-11.2457	-6.0425	-5.3711	-3.1891	6.2103	5.7068	-19.9738	-19.4702	-5.7068	20	242	141	1	1	2
-43.3044	-36.9263	-35.9192	-32.3944	-25.6805	-20.1416	-18.631	-15.7776	-14.6027	-11.0779	-6.0425	-5.3711	-3.3569	6.2103	5.2032	-20.4773	-19.8059	-6.3782	20	243	142	1	1	2
-42.9688	-36.4227	-35.5835	-31.3873	-25.5127	-19.6381	-18.1274	-15.6097	-14.267	-11.0779	-6.2103	-5.0354	-3.5248	6.0425	4.8676	-20.4773	-19.8059	-6.7139	20	244	143	1	1	2
-42.8009	-36.087	-34.9121	-30.3802	-25.177	-19.1345	-17.4561	-15.4419	-13.9313	-10.91	-6.0425	-4.6997	-3.5248	6.0425	4.5319	-20.1416	-19.9738	-6.7139	20	245	144	1	1	2
-42.6331	-35.9192	-34.5764	-29.541	-25.177	-18.7988	-17.1204	-15.274	-13.9313	-10.91	-5.8746	-4.8676	-3.6926	6.0425	4.0283	-19.6381	-20.4773	-7.0496	20	246	145	1	1	2
-42.2974	-35.5835	-34.2407	-28.5339	-24.6735	-18.2953	-16.6168	-15.1062	-13.4277	-10.91	-5.7068	-4.364	-3.8605	6.0425	3.5248	-18.9667	-21.1487	-6.7139	20	247	146	1	1	2
-42.1295	-35.4156	-33.7372	-27.6947	-24.5056	-17.9596	-16.2811	-14.7705	-13.4277	-10.91	-5.5389	-4.1962	-4.1962	6.0425	3.0212	-17.9596	-21.9879	-6.2103	20	248	147	1	1	2
-41.9617	-35.2478	-33.4015	-27.1912	-24.3378	-17.6239	-16.1133	-14.6027	-13.092	-11.2457	-5.2032	-4.0283	-4.364	6.0425	2.5177	-17.1204	-22.995	-5.8746	20	249	148	1	1	2
-42.1295	-35.4156	-33.2336	-27.0233	-24.3378	-17.4561	-16.449	-14.4348	-13.2599	-11.5814	-5.2032	-4.0283	-4.6997	5.8746	1.8463	-16.2811	-24.3378	-5.5389	20	250	149	1	1	2
-42.2974	-35.4156	-33.2336	-27.359	-24.5056	-17.6239	-16.9525	-14.6027	-13.4277	-12.4207	-5.2032	-4.364	-5.5389	6.0425	0.8392	-15.7776	-25.8484	-5.2032	20	251	150	1	1	2
-42.6331	-35.4156	-33.2336	-27.8625	-24.5056	-17.6239	-17.6239	-14.6027	-13.7634	-13.092	-5.3711	-4.364	-5.8746	6.0425	0.1678	-15.4419	-27.1912	-5.0354	20	252	151	1	1	2
-43.3044	-35.7513	-33.5693	-28.8696	-24.6735	-17.9596	-18.7988	-14.7705	-13.9313	-14.0991	-5.5389	-4.8676	-6.8817	6.2103	-0.6714	-15.4419	-28.8696	-5.0354	20	253	152	1	1	2
-43.3044	-35.5835	-33.2336	-29.541	-24.5056	-17.9596	-19.6381	-14.6027	-14.0991	-14.7705	-5.3711	-4.8676	-7.2174	6.3782	-1.1749	-15.4419	-29.7089	-4.8676	20	254	153	1	1	2
-43.3044	-35.2478	-33.0658	-30.5481	-24.5056	-17.9596	-20.4773	-14.6027	-14.4348	-15.4419	-5.5389	-5.0354	-7.8888	6.546	-1.8463	-15.4419	-30.8838	-4.8676	20	255	154	1	1	2
-42.9688	-34.7443	-32.7301	-31.3873	-24.1699	-17.9596	-21.3165	-14.4348	-14.267	-16.1133	-5.5389	-5.2032	-8.3923	6.7139	-2.182	-15.4419	-31.5552	-4.6997	20	256	155	1	1	2
-42.8009	-34.0729	-32.3944	-32.2266	-23.8342	-17.7917	-22.1558	-14.267	-14.4348	-16.6168	-5.7068	-5.3711	-8.728	6.7139	-2.5177	-15.4419	-32.0587	-4.5319	20	257	156	1	1	2
-42.6331	-33.5693	-32.0587	-33.2336	-23.6664	-17.7917	-23.1628	-14.267	-14.6027	-17.2882	-5.8746	-5.5389	-9.2316	6.546	-3.0212	-15.6097	-32.5623	-4.5319	20	258	157	1	1	2
-42.6331	-33.0658	-31.8909	-34.2407	-23.6664	-17.9596	-24.0021	-14.267	-14.9384	-17.9596	-6.2103	-5.8746	-9.7351	6.3782	-3.3569	-15.7776	-33.0658	-4.5319	20	259	158	1	1	2
-42.4652	-32.8979	-31.723	-35.4156	-23.4985	-18.1274	-25.0092	-14.267	-15.1062	-18.7988	-6.546	-6.546	-10.4065	6.0425	-3.8605	-15.6097	-33.4015	-4.5319	20	260	159	1	1	2
-42.4652	-32.5623	-31.5552	-36.2549	-23.4985	-18.1274	-26.0162	-14.0991	-15.274	-19.3024	-6.546	-6.7139	-10.91	5.7068	-4.0283	-15.4419	-33.4015	-4.1962	20	261	160	1	1	2
-42.6331	-32.5623	-31.723	-37.4298	-23.4985	-18.631	-26.8555	-14.267	-15.7776	-19.9738	-6.7139	-7.0496	-11.4136	5.3711	-4.364	-15.4419	-33.7372	-3.8605	20	262	161	1	1	2
-42.8009	-32.8979	-32.0587	-38.6047	-23.8342	-18.9667	-27.8625	-14.4348	-16.2811	-20.6451	-7.0496	-7.5531	-11.9171	5.0354	-4.6997	-15.274	-33.7372	-3.6926	20	263	162	1	1	2
-43.3044	-33.0658	-32.2266	-39.6118	-23.8342	-19.4702	-28.5339	-14.4348	-16.7847	-21.1487	-7.3853	-8.0566	-12.2528	4.6997	-4.8676	-14.9384	-33.7372	-3.5248	20	264	163	1	1	2
-43.4723	-33.0658	-32.3944	-40.2832	-24.0021	-19.9738	-29.3732	-14.7705	-16.9525	-21.6522	-7.5531	-8.5602	-12.7563	4.364	-5.0354	-14.9384	-33.4015	-3.1891	20	265	164	1	1	2
-43.6401	-33.0658	-32.7301	-40.7867	-24.1699	-20.1416	-29.7089	-14.7705	-17.4561	-21.9879	-7.7209	-8.8959	-13.092	4.1962	-5.0354	-14.6027	-33.4015	-2.8534	20	266	165	1	1	2
-43.4723	-32.7301	-32.5623	-40.9546	-23.8342	-20.3094	-29.8767	-14.6027	-17.4561	-21.9879	-7.7209	-9.0637	-13.092	4.0283	-5.0354	-14.0991	-32.7301	-2.6855	20	267	166	1	1	2
-42.8009	-31.8909	-32.2266	-40.451	-23.1628	-20.1416	-29.3732	-14.4348	-17.2882	-21.4844	-7.7209	-8.8959	-12.7563	3.8605	-4.6997	-13.5956	-32.0587	-2.6855	20	268	167	1	1	2
-42.1295	-30.5481	-31.723	-39.444	-22.3236	-19.6381	-28.5339	-13.9313	-16.9525	-20.9808	-7.7209	-8.8959	-12.2528	3.8605	-4.1962	-13.2599	-31.0516	-2.6855	20	269	168	1	1	2
-40.9546	-28.8696	-30.7159	-37.9333	-21.1487	-18.9667	-27.1912	-13.4277	-16.449	-19.9738	-7.3853	-8.5602	-11.5814	4.0283	-3.5248	-12.7563	-29.8767	-2.6855	20	270	169	1	1	2
-39.444	-26.5198	-29.7089	-35.9192	-19.8059	-18.1274	-25.5127	-12.5885	-15.7776	-18.7988	-6.8817	-8.2245	-10.7422	4.364	-3.0212	-12.4207	-28.7018	-2.5177	20	271	170	1	1	2
-37.9333	-24.0021	-28.3661	-33.7372	-18.1274	-17.1204	-23.6664	-11.7493	-14.7705	-17.4561	-6.3782	-7.5531	-9.7351	4.5319	-2.0142	-11.7493	-27.0233	-2.6855	20	272	171	1	1	2
-36.4227	-21.6522	-27.359	-31.3873	-16.6168	-16.1133	-21.8201	-10.91	-13.9313	-15.9454	-6.0425	-7.0496	-8.5602	4.8676	-1.1749	-10.7422	-25.6805	-2.6855	20	273	172	1	1	2
-35.08	-19.6381	-26.3519	-29.0375	-15.274	-15.4419	-19.8059	-10.0708	-13.2599	-14.7705	-5.7068	-6.546	-7.5531	5.3711	-0.5035	-10.0708	-24.5056	-2.5177	20	274	173	1	1	2
-34.4086	-18.2953	-26.0162	-27.1912	-14.4348	-14.9384	-18.4631	-9.7351	-12.7563	-13.5956	-5.5389	-6.0425	-6.7139	5.5389	0.3357	-9.3994	-23.4985	-2.6855	20	275	174	1	1	2
-33.905	-17.7917	-26.0162	-25.8484	-14.0991	-14.6027	-17.2882	-9.3994	-12.4207	-12.9242	-5.2032	-5.8746	-6.0425	5.8746	0.8392	-8.728	-22.8271	-2.6855	20	276	175	1	1	2
-34.0729	-17.7917	-26.3519	-25.177	-14.267	-14.9384	-16.6168	-9.5673	-12.5885	-12.4207	-5.5389	-5.8746	-5.7068	6.0425	1.3428	-8.3923	-22.4915	-2.8534	20	277	176	1	1	2
-35.08	-18.7988	-27.359	-25.177	-14.7705	-15.6097	-16.6168	-10.2386	-13.092	-12.4207	-6.0425	-6.2103	-5.7068	6.2103	1.5106	-8.2245	-22.6593	-3.1891	20	278	177	1	1	2
-36.2549	-20.3094	-28.5339	-25.6805	-15.7776	-16.449	-16.7847	-10.7422	-13.7634	-12.5885	-6.546	-6.7139	-5.7068	6.0425	1.5106	-8.0566	-23.1628	-3.6926	20	279	178	1	1	2
-37.9333	-22.3236	-30.3802	-26.6876	-17.2882	-17.9596	-17.9596	-12.085	-14.7705	-13.2599	-7.2174	-7.5531	-6.2103	5.8746	1.3428	-8.3923	-24.0021	-4.1962	20	280	179	1	1	2
-39.7797	-24.8413	-32.3944	-28.0304	-19.1345	-19.3024	-18.9667	-13.092	-15.9454	-14.267	-8.0566	-8.2245	-6.7139	5.5389	1.0071	-8.728	-25.177	-4.6997	20	281	180	1	1	2
-41.7938	-27.359	-34.4086	-29.7089	-20.6451	-20.813	-20.3094	-14.267	-16.9525	-15.1062	-8.8959	-9.0637	-7.2174	5.2032	0.6714	-8.8959	-26.1841	-5.2032	20	282	181	1	1	2
-43.808	-30.2124	-36.2549	-31.3873	-22.4915	-22.1558	-21.6522	-15.4419	-18.1274	-16.1133	-9.5673	-9.7351	-7.8888	4.6997	0.1678	-9.2316	-27.1912	-5.5389	20	283	182	1	1	2
-45.6543	-33.0658	-38.269	-33.0658	-24.3378	-23.8342	-23.3307	-16.6168	-19.3024	-17.4561	-10.5743	-10.5743	-8.5602	4.1962	-0.5035	-9.7351	-28.7018	-6.0425	20	284	183	1	1	2
-47.5006	-35.7513	-40.2832	-34.7443	-26.0162	-25.177	-24.6735	-17.7917	-20.3094	-18.2953	-11.2457	-11.2457	-9.2316	3.8605	-0.8392	-10.2386	-29.7089	-6.546	20	285	184	1	1	2
-49.1791	-38.4369	-42.1295	-36.5906	-27.6947	-26.5198	-26.1841	-18.7988	-21.4844	-19.6381	-12.085	-12.085	-10.0708	3.5248	-1.5106	-10.91	-30.8838	-7.0496	20	286	185	1	1	2
-50.5219	-40.2832	-43.3044	-38.1012	-28.8696	-27.5269	-27.359	-19.3024	-21.9879	-20.3094	-12.7563	-12.4207	-10.5743	3.1891	-1.6785	-11.4136	-31.5552	-7.2174	20	287	186	1	1	2
-51.3611	-41.7938	-44.3115	-39.1083	-29.541	-28.0304	-28.1982	-19.9738	-22.3236	-20.813	-13.092	-12.9242	-10.91	3.0212	-2.182	-11.7493	-32.2266	-7.3853	20	288	187	1	1	2
-51.8646	-42.4652	-44.9829	-39.9475	-30.0446	-28.5339	-28.7018	-20.1416	-22.8271	-21.3165	-13.092	-12.9242	-11.2457	2.8534	-2.3499	-12.085	-32.8979	-7.5531	20	289	188	1	1	2
-52.0325	-42.4652	-45.1508	-40.6189	-29.8767	-28.7018	-29.2053	-19.9738	-22.8271	-21.4844	-13.092	-12.9242	-11.4136	2.8534	-2.5177	-12.085	-33.0658	-7.5531	20	290	189	1	1	2
-51.6968	-41.4581	-44.9829	-40.7867	-29.2053	-28.5339	-29.2053	-19.4702	-22.3236	-21.4844	-12.7563	-12.7563	-11.4136	2.6855	-2.5177	-11.7493	-33.2336	-7.3853	20	291	190	1	1	2
-8.3923	-13.7634	-14.267	-8.5602	-2.6855	-8.2245	-0.5035	-0.6714	-1.8463	0.3357	8.0566	2.5177	5.2032	2.8534	2.0142	-2.0142	1.3428	-9.7351	20	231	130	2	1	2
-8.2245	-13.9313	-14.267	-8.3923	-3.1891	-8.3923	-1.0071	-1.0071	-2.3499	-0.1678	7.5531	2.0142	4.6997	2.8534	1.8463	-2.182	1.1749	-10.2386	20	232	131	2	1	2
-7.8888	-14.0991	-14.267	-8.2245	-3.5248	-8.5602	-1.5106	-1.5106	-2.6855	-0.6714	7.0496	1.3428	4.0283	2.8534	1.5106	-2.3499	1.1749	-10.7422	20	233	132	2	1	2
-7.8888	-14.267	-14.0991	-8.2245	-4.1962	-8.8959	-2.182	-2.0142	-3.1891	-1.1749	6.3782	0.8392	3.5248	2.8534	1.3428	-2.6855	1.0071	-11.2457	20	234	133	2	1	2
-7.7209	-14.267	-14.0991	-8.0566	-4.6997	-9.0637	-2.6855	-2.5177	-3.5248	-1.6785	5.7068	0.3357	3.0212	2.8534	0.8392	-3.1891	0.8392	-11.9171	20	235	134	2	1	2
-7.3853	-14.4348	-13.9313	-8.0566	-5.0354	-9.2316	-3.1891	-3.1891	-3.8605	-2.3499	5.2032	-0.3357	2.3499	2.8534	0.3357	-3.6926	0.6714	-12.4207	20	236	135	2	1	2
-6.8817	-14.6027	-13.9313	-8.2245	-5.5389	-9.3994	-3.6926	-3.6926	-4.364	-3.0212	4.5319	-0.8392	1.6785	2.8534	-0.1678	-4.364	0.3357	-13.092	20	237	136	2	1	2
-6.7139	-14.6027	-13.7634	-8.2245	-5.8746	-9.5673	-4.364	-4.364	-4.6997	-3.5248	3.8605	-1.3428	1.1749	2.8534	-0.6714	-5.2032	-0.1678	-13.7634	20	238	137	2	1	2
-6.2103	-14.4348	-13.4277	-8.2245	-6.2103	-9.5673	-4.6997	-5.0354	-4.8676	-4.1962	3.1891	-1.8463	0.5035	2.8534	-1.1749	-6.2103	-0.5035	-14.6027	20	239	138	2	1	2
-5.8746	-14.6027	-13.2599	-8.3923	-6.546	-9.5673	-5.3711	-5.3711	-5.3711	-4.8676	2.6855	-2.182	0.1678	3.0212	-1.5106	-7.5531	-0.8392	-15.1062	20	240	139	2	1	2
-5.5389	-14.4348	-13.092	-8.3923	-6.7139	-9.5673	-5.8746	-5.8746	-5.5389	-5.3711	2.0142	-2.6855	-0.3357	3.0212	-2.0142	-8.8959	-1.1749	-15.9454	20	241	140	2	1	2
-5.0354	-14.4348	-12.7563	-8.5602	-6.8817	-9.3994	-6.3782	-6.3782	-5.8746	-6.0425	1.5106	-3.0212	-0.8392	3.0212	-2.5177	-10.2386	-1.5106	-16.449	20	242	141	2	1	2
-4.5319	-14.267	-12.4207	-8.728	-7.0496	-9.2316	-6.8817	-6.8817	-6.0425	-6.3782	0.8392	-3.5248	-1.3428	2.8534	-3.0212	-11.7493	-2.0142	-16.9525	20	243	142	2	1	2
-4.0283	-14.0991	-12.085	-8.8959	-7.2174	-9.2316	-7.3853	-7.3853	-6.3782	-7.0496	0.5035	-3.8605	-1.6785	2.8534	-3.5248	-13.2599	-2.182	-17.6239	20	244	143	2	1	2
-3.5248	-13.7634	-11.5814	-8.8959	-7.3853	-9.0637	-7.7209	-7.7209	-6.546	-7.5531	0	-4.364	-2.182	2.6855	-4.0283	-14.6027	-2.6855	-17.9596	20	245	144	2	1	2
-2.8534	-13.5956	-11.0779	-8.8959	-7.5531	-8.8959	-8.0566	-8.0566	-6.7139	-7.8888	-0.3357	-4.6997	-2.6855	2.5177	-4.5319	-15.9454	-3.1891	-18.4631	20	246	145	2	1	2
-2.5177	-13.2599	-10.5743	-8.8959	-7.5531	-8.728	-8.3923	-8.2245	-6.8817	-8.2245	-0.6714	-5.0354	-3.0212	2.3499	-5.2032	-17.1204	-3.6926	-18.631	20	247	146	2	1	2
-1.6785	-12.9242	-10.0708	-9.0637	-7.3853	-8.3923	-8.5602	-8.3923	-6.8817	-8.5602	-1.0071	-5.3711	-3.3569	2.182	-5.8746	-18.2953	-4.364	-18.7988	20	248	147	2	1	2
-1.1749	-12.5885	-9.3994	-8.8959	-7.2174	-8.0566	-8.5602	-8.5602	-7.0496	-8.8959	-1.1749	-5.5389	-3.6926	2.0142	-6.546	-19.1345	-4.8676	-18.7988	20	249	148	2	1	2
-0.5035	-12.2528	-8.8959	-8.8959	-7.2174	-7.7209	-8.3923	-8.5602	-7.0496	-9.0637	-1.3428	-6.0425	-4.0283	1.8463	-7.2174	-19.8059	-5.2032	-18.7988	20	250	149	2	1	2
0	-12.085	-8.2245	-8.5602	-7.0496	-7.3853	-8.3923	-8.5602	-7.0496	-9.0637	-1.3428	-6.2103	-4.1962	1.5106	-7.7209	-20.3094	-5.5389	-18.631	20	251	150	2	1	2
0.6714	-11.7493	-7.5531	-8.3923	-6.7139	-6.8817	-8.0566	-8.3923	-7.0496	-8.8959	-1.6785	-6.3782	-4.5319	1.5106	-8.2245	-20.4773	-5.7068	-18.2953	20	252	151	2	1	2
1.1749	-11.5814	-6.8817	-8.0566	-6.7139	-6.7139	-7.5531	-8.5602	-6.8817	-8.8959	-1.5106	-6.546	-4.6997	1.3428	-8.728	-20.4773	-5.8746	-18.2953	20	253	152	2	1	2
2.0142	-11.2457	-6.3782	-7.8888	-6.546	-6.3782	-7.3853	-8.3923	-6.8817	-8.8959	-1.3428	-6.7139	-4.6997	1.1749	-8.8959	-20.3094	-5.7068	-17.9596	20	254	153	2	1	2
2.3499	-11.2457	-5.7068	-7.3853	-6.2103	-5.8746	-6.7139	-8.2245	-6.546	-8.3923	-1.3428	-6.7139	-4.6997	1.1749	-9.2316	-19.9738	-5.7068	-17.4561	20	255	154	2	1	2
2.8534	-11.0779	-5.3711	-7.0496	-6.3782	-5.7068	-6.2103	-8.0566	-6.7139	-8.2245	-1.0071	-6.8817	-4.5319	1.0071	-9.3994	-19.4702	-5.2032	-17.2882	20	256	155	2	1	2
3.3569	-10.91	-4.6997	-6.546	-6.0425	-5.3711	-5.7068	-8.0566	-6.546	-7.7209	-0.6714	-7.0496	-4.364	1.0071	-9.3994	-18.7988	-4.8676	-16.7847	20	257	156	2	1	2
3.6926	-10.7422	-4.1962	-6.3782	-5.8746	-5.0354	-5.0354	-7.7209	-6.3782	-7.5531	-0.8392	-7.0496	-4.364	1.0071	-9.903	-17.9596	-4.6997	-16.449	20	258	157	2	1	2
4.0283	-10.7422	-3.8605	-5.8746	-5.8746	-4.8676	-4.364	-7.5531	-6.2103	-7.2174	-0.5035	-7.0496	-4.364	1.0071	-10.0708	-17.1204	-4.5319	-16.2811	20	259	158	2	1	2
4.364	-10.7422	-3.5248	-5.5389	-5.8746	-4.6997	-3.8605	-7.3853	-6.2103	-6.8817	-0.3357	-7.0496	-4.364	1.0071	-10.2386	-16.1133	-4.364	-15.9454	20	260	159	2	1	2
4.364	-10.5743	-3.3569	-5.3711	-5.7068	-4.5319	-3.5248	-7.2174	-6.2103	-6.546	-0.1678	-7.2174	-4.1962	1.0071	-10.4065	-15.4419	-4.364	-15.9454	20	261	160	2	1	2
4.5319	-10.5743	-3.0212	-4.8676	-5.5389	-4.364	-2.8534	-6.8817	-6.0425	-6.0425	0.1678	-7.0496	-4.0283	1.1749	-10.4065	-14.267	-4.364	-15.6097	20	262	161	2	1	2
4.8676	-10.4065	-2.8534	-4.6997	-5.3711	-4.1962	-2.3499	-6.8817	-6.0425	-5.7068	0.6714	-7.0496	-3.6926	1.1749	-10.4065	-13.2599	-4.5319	-15.4419	20	263	162	2	1	2
4.8676	-10.2386	-2.5177	-4.1962	-5.0354	-4.0283	-1.6785	-6.3782	-5.8746	-5.2032	0.8392	-6.8817	-3.6926	1.3428	-10.5743	-12.2528	-4.5319	-15.274	20	264	163	2	1	2
4.6997	-10.0708	-2.6855	-4.0283	-5.0354	-4.1962	-1.1749	-6.2103	-5.8746	-5.2032	1.0071	-7.0496	-3.5248	1.1749	-10.7422	-11.7493	-4.5319	-15.1062	20	265	164	2	1	2
4.6997	-9.903	-2.3499	-3.6926	-4.8676	-4.0283	-0.5035	-5.8746	-5.8746	-4.8676	1.3428	-6.8817	-3.1891	1.1749	-10.7422	-11.0779	-4.5319	-15.1062	20	266	165	2	1	2
4.8676	-9.7351	-2.3499	-3.1891	-4.5319	-3.8605	0	-5.3711	-5.3711	-4.1962	1.6785	-6.7139	-3.0212	1.1749	-10.5743	-10.4065	-4.364	-14.7705	20	267	166	2	1	2
4.6997	-9.3994	-2.182	-2.8534	-3.8605	-3.8605	0.3357	-5.0354	-5.2032	-4.0283	2.0142	-6.3782	-2.6855	1.1749	-10.5743	-10.0708	-4.364	-14.7705	20	268	167	2	1	2
4.6997	-8.8959	-2.182	-2.6855	-3.3569	-3.6926	0.5035	-4.6997	-5.0354	-3.8605	2.3499	-6.2103	-2.5177	1.0071	-10.5743	-10.0708	-4.1962	-14.6027	20	269	168	2	1	2
4.6997	-8.5602	-2.182	-2.3499	-2.8534	-3.5248	0.8392	-4.0283	-4.6997	-3.3569	2.8534	-5.8746	-2.182	0.8392	-10.4065	-10.2386	-4.0283	-14.4348	20	270	169	2	1	2
4.6997	-8.3923	-2.3499	-2.5177	-2.3499	-3.6926	1.1749	-3.5248	-4.6997	-3.1891	3.5248	-5.3711	-2.0142	0.5035	-10.2386	-10.7422	-3.8605	-14.267	20	271	170	2	1	2
4.5319	-7.8888	-2.5177	-2.3499	-1.8463	-3.6926	1.1749	-2.8534	-4.364	-3.1891	3.8605	-5.2032	-1.8463	0.3357	-10.2386	-11.0779	-4.0283	-14.0991	20	272	171	2	1	2
4.5319	-7.5531	-2.6855	-2.3499	-1.3428	-3.8605	1.3428	-2.182	-4.364	-3.0212	4.364	-5.0354	-1.6785	0	-10.2386	-11.5814	-4.1962	-13.9313	20	273	172	2	1	2
4.1962	-7.3853	-2.6855	-2.182	-0.8392	-4.0283	1.1749	-1.8463	-4.1962	-3.1891	4.5319	-4.8676	-1.6785	-0.1678	-10.2386	-11.7493	-4.5319	-13.7634	20	274	173	2	1	2
4.1962	-7.2174	-3.1891	-2.3499	-0.3357	-4.1962	1.1749	-1.3428	-4.1962	-3.1891	4.8676	-4.6997	-1.6785	-0.5035	-10.2386	-11.9171	-4.5319	-13.4277	20	275	174	2	1	2
4.0283	-6.8817	-3.5248	-2.5177	-0.1678	-4.5319	1.0071	-1.0071	-4.364	-3.3569	5.0354	-4.8676	-1.8463	-0.6714	-10.4065	-11.2457	-4.8676	-13.2599	20	276	175	2	1	2
3.6926	-7.0496	-3.8605	-2.5177	0	-5.0354	0.8392	-0.8392	-4.5319	-3.3569	5.2032	-5.0354	-2.0142	-1.0071	-10.4065	-10.5743	-4.8676	-12.9242	20	277	176	2	1	2
3.5248	-7.0496	-4.364	-2.8534	0.3357	-5.3711	0.5035	-0.5035	-4.8676	-3.6926	5.2032	-5.2032	-2.182	-1.3428	-10.5743	-9.7351	-5.2032	-12.4207	20	278	177	2	1	2
3.0212	-7.0496	-4.8676	-3.0212	0.3357	-5.8746	0.1678	-0.5035	-5.0354	-3.8605	5.2032	-5.3711	-2.182	-1.6785	-10.7422	-8.728	-5.7068	-12.085	20	279	178	2	1	2
2.8534	-7.2174	-5.5389	-3.3569	0.3357	-6.7139	-0.1678	-0.5035	-5.7068	-4.1962	5.3711	-5.3711	-2.3499	-2.182	-10.91	-7.8888	-6.2103	-11.7493	20	280	179	2	1	2
2.5177	-7.2174	-6.2103	-3.6926	0.1678	-7.2174	-0.6714	-0.6714	-6.0425	-4.6997	5.0354	-5.8746	-2.6855	-2.5177	-11.2457	-6.7139	-6.8817	-11.7493	20	281	180	2	1	2
2.182	-7.5531	-6.7139	-4.1962	0.3357	-7.8888	-1.1749	-0.8392	-6.7139	-5.2032	4.8676	-6.3782	-3.0212	-3.0212	-11.4136	-5.7068	-7.3853	-11.4136	20	282	181	2	1	2
1.8463	-7.8888	-7.3853	-4.6997	0.1678	-8.3923	-2.0142	-1.0071	-7.2174	-5.5389	4.6997	-6.8817	-3.1891	-3.3569	-11.5814	-4.6997	-7.8888	-11.4136	20	283	182	2	1	2
1.3428	-8.2245	-8.0566	-5.3711	-0.1678	-9.0637	-2.6855	-1.1749	-7.8888	-6.0425	4.364	-7.3853	-3.5248	-3.6926	-11.7493	-3.8605	-8.2245	-11.5814	20	284	183	2	1	2
1.1749	-8.3923	-8.5602	-6.0425	-0.5035	-9.7351	-3.3569	-1.6785	-8.2245	-6.546	3.8605	-7.7209	-3.8605	-3.8605	-11.9171	-3.0212	-8.3923	-11.7493	20	285	184	2	1	2
0.8392	-8.5602	-8.8959	-6.7139	-0.6714	-10.2386	-4.0283	-2.0142	-8.728	-7.0496	3.5248	-8.2245	-4.1962	-4.0283	-11.7493	-2.182	-8.2245	-11.9171	20	286	185	2	1	2
0.5035	-8.8959	-9.3994	-7.3853	-0.8392	-10.7422	-4.8676	-2.182	-9.2316	-7.7209	3.3569	-8.728	-4.364	-4.1962	-11.7493	-1.1749	-7.8888	-11.9171	20	287	186	2	1	2
0.3357	-9.2316	-9.7351	-8.0566	-1.0071	-11.0779	-5.3711	-2.5177	-9.7351	-8.2245	3.0212	-9.2316	-4.5319	-4.1962	-11.5814	-0.5035	-7.3853	-12.085	20	288	187	2	1	2
0.3357	-9.3994	-10.0708	-8.728	-1.1749	-11.0779	-6.0425	-3.0212	-10.0708	-8.5602	2.6855	-9.5673	-4.8676	-4.0283	-11.5814	-0.1678	-6.8817	-12.2528	20	289	188	2	1	2
0.1678	-9.7351	-10.4065	-9.3994	-1.3428	-11.5814	-6.8817	-3.1891	-10.5743	-9.2316	2.3499	-10.0708	-5.0354	-4.0283	-11.4136	0	-6.0425	-12.4207	20	290	189	2	1	2
0.1678	-9.903	-10.4065	-10.0708	-1.6785	-11.7493	-7.5531	-3.8605	-10.91	-9.7351	1.8463	-10.5743	-5.3711	-3.8605	-11.4136	-0.3357	-5.2032	-12.4207	20	291	190	2	1	2
-4.5319	-8.0566	-9.0637	-4.1962	-11.0779	-9.7351	-0.8392	-7.5531	-10.0708	-0.5035	-7.5531	-8.5602	-2.5177	3.1891	2.182	-2.6855	8.3923	1.1749	20	231	130	3	1	2
-4.8676	-8.0566	-9.2316	-4.6997	-10.91	-9.7351	-1.0071	-7.2174	-9.903	-0.5035	-7.2174	-8.2245	-2.3499	3.3569	2.0142	-2.182	8.0566	1.3428	20	232	131	3	1	2
-5.2032	-8.0566	-9.3994	-5.2032	-10.7422	-9.5673	-1.0071	-6.8817	-9.5673	-0.3357	-6.7139	-7.7209	-2.182	3.5248	2.0142	-1.8463	7.3853	1.5106	20	233	132	3	1	2
-5.7068	-8.2245	-9.7351	-5.7068	-10.5743	-9.5673	-1.1749	-6.546	-9.2316	-0.3357	-6.3782	-7.5531	-2.0142	3.5248	1.8463	-2.0142	6.546	1.5106	20	234	133	3	1	2
-6.0425	-8.2245	-9.903	-6.0425	-10.4065	-9.3994	-1.1749	-6.2103	-8.8959	-0.3357	-6.0425	-7.0496	-1.8463	3.5248	1.6785	-2.3499	5.7068	1.5106	20	235	134	3	1	2
-6.2103	-8.2245	-9.903	-6.3782	-10.0708	-9.2316	-1.1749	-5.7068	-8.3923	-0.1678	-5.5389	-6.7139	-1.6785	3.5248	1.5106	-2.8534	4.8676	1.6785	20	236	135	3	1	2
-6.546	-8.2245	-10.0708	-6.7139	-9.7351	-9.2316	-1.3428	-5.3711	-8.0566	0	-5.0354	-6.2103	-1.5106	3.3569	1.3428	-3.6926	3.6926	1.6785	20	237	136	3	1	2
-6.8817	-8.0566	-10.2386	-7.0496	-9.3994	-9.0637	-1.3428	-5.0354	-7.7209	0.1678	-4.6997	-5.8746	-1.3428	3.3569	1.1749	-4.5319	2.5177	1.8463	20	238	137	3	1	2
-7.2174	-7.8888	-10.2386	-7.2174	-9.0637	-8.728	-1.1749	-4.5319	-7.2174	0.5035	-4.0283	-5.3711	-1.0071	3.0212	1.0071	-5.2032	1.1749	2.0142	20	239	138	3	1	2
-7.5531	-7.8888	-10.4065	-7.3853	-8.728	-8.5602	-1.3428	-4.1962	-6.7139	0.6714	-3.5248	-4.8676	-0.6714	2.8534	0.8392	-5.8746	0	2.182	20	240	139	3	1	2
-7.5531	-7.5531	-10.4065	-7.3853	-8.0566	-8.2245	-1.1749	-3.5248	-6.0425	1.1749	-2.8534	-4.364	-0.3357	2.5177	0.8392	-6.2103	-1.0071	2.6855	20	241	140	3	1	2
-7.7209	-7.2174	-10.2386	-7.5531	-7.5531	-7.8888	-1.0071	-2.8534	-5.5389	1.6785	-2.3499	-3.8605	0	2.182	0.8392	-6.3782	-1.6785	3.1891	20	242	141	3	1	2
-7.8888	-6.7139	-10.0708	-7.3853	-6.8817	-7.3853	-0.6714	-2.182	-4.8676	2.182	-1.6785	-3.1891	0.6714	1.8463	0.8392	-6.546	-2.3499	3.8605	20	243	142	3	1	2
-7.8888	-6.2103	-10.0708	-7.2174	-6.3782	-7.0496	-0.5035	-1.6785	-4.364	2.6855	-1.0071	-2.6855	1.0071	1.5106	0.8392	-6.546	-2.8534	4.364	20	244	143	3	1	2
-8.0566	-5.5389	-9.7351	-6.8817	-5.7068	-6.546	-0.1678	-1.0071	-3.6926	3.1891	-0.1678	-2.0142	1.6785	1.1749	0.8392	-6.2103	-2.8534	5.0354	20	245	144	3	1	2
-7.8888	-4.8676	-9.3994	-6.3782	-5.0354	-6.2103	0	-0.1678	-3.1891	3.8605	0.6714	-1.3428	2.3499	0.8392	1.1749	-5.5389	-2.6855	5.7068	20	246	145	3	1	2
-7.8888	-4.364	-9.2316	-6.2103	-4.364	-5.5389	0.3357	0.6714	-2.5177	4.364	1.5106	-0.5035	2.8534	0.5035	1.3428	-4.6997	-2.182	6.3782	20	247	146	3	1	2
-7.7209	-3.6926	-8.728	-5.7068	-3.6926	-5.0354	0.6714	1.3428	-1.8463	4.8676	2.3499	0.1678	3.3569	0.1678	1.5106	-3.6926	-1.6785	7.0496	20	248	147	3	1	2
-7.5531	-3.1891	-8.3923	-5.2032	-3.0212	-4.364	1.0071	2.3499	-1.1749	5.5389	3.1891	0.8392	3.8605	-0.1678	1.8463	-2.182	-0.8392	7.5531	20	249	148	3	1	2
-7.5531	-2.6855	-8.0566	-4.8676	-2.6855	-4.1962	1.0071	2.6855	-0.8392	5.5389	3.8605	1.5106	4.1962	-0.5035	2.0142	-0.6714	0	8.2245	20	250	149	3	1	2
-7.3853	-2.3499	-7.8888	-4.364	-2.0142	-3.6926	1.3428	3.5248	-0.1678	5.8746	4.5319	2.0142	4.364	-0.6714	2.182	0.8392	1.0071	8.8959	20	251	150	3	1	2
-7.2174	-1.6785	-7.2174	-3.8605	-1.5106	-3.1891	1.6785	4.1962	0.3357	6.2103	5.2032	2.5177	4.6997	-0.6714	2.5177	2.6855	2.0142	9.2316	20	252	151	3	1	2
-7.2174	-1.6785	-7.0496	-3.5248	-1.3428	-2.8534	1.5106	4.6997	0.6714	6.2103	5.8746	3.0212	4.8676	-0.8392	2.5177	4.364	3.0212	9.7351	20	253	152	3	1	2
-7.0496	-1.3428	-6.7139	-3.0212	-0.8392	-2.3499	1.6785	5.0354	1.0071	6.3782	6.3782	3.3569	5.0354	-0.8392	2.6855	6.2103	4.1962	10.0708	20	254	153	3	1	2
-6.8817	-1.1749	-6.3782	-2.8534	-0.6714	-2.0142	1.8463	5.5389	1.3428	6.2103	6.8817	3.6926	5.0354	-0.8392	2.6855	7.7209	5.2032	10.4065	20	255	154	3	1	2
-6.8817	-1.1749	-6.2103	-2.5177	-0.5035	-1.8463	1.8463	5.8746	1.5106	6.0425	7.2174	3.8605	5.0354	-0.8392	2.8534	8.8959	6.0425	10.7422	20	256	155	3	1	2
-6.7139	-1.1749	-6.0425	-2.182	-0.5035	-1.5106	1.6785	6.0425	1.6785	5.8746	7.3853	4.0283	4.8676	-0.8392	2.8534	10.0708	6.7139	11.0779	20	257	156	3	1	2
-6.7139	-1.1749	-5.8746	-2.0142	-0.3357	-1.3428	1.5106	6.2103	1.8463	5.7068	7.7209	4.1962	4.6997	-0.8392	3.0212	11.0779	7.3853	11.2457	20	258	157	3	1	2
-6.7139	-1.1749	-5.7068	-2.0142	-0.5035	-1.1749	1.5106	6.3782	1.8463	5.3711	7.8888	4.1962	4.5319	-0.8392	3.0212	11.7493	7.7209	11.4136	20	259	158	3	1	2
-6.546	-1.1749	-5.7068	-2.182	-0.5035	-1.1749	1.3428	6.546	1.8463	4.8676	7.8888	4.1962	4.1962	-0.8392	3.0212	12.5885	8.2245	11.7493	20	260	159	3	1	2
-6.7139	-1.5106	-5.5389	-2.182	-0.6714	-1.1749	1.0071	6.3782	1.6785	4.364	7.7209	4.0283	3.8605	-0.8392	3.0212	12.9242	8.3923	11.7493	20	261	160	3	1	2
-6.7139	-1.6785	-5.7068	-2.5177	-0.8392	-1.0071	0.8392	6.2103	1.5106	4.1962	7.7209	3.6926	3.6926	-0.6714	3.1891	13.092	8.728	11.7493	20	262	161	3	1	2
-6.8817	-2.182	-5.8746	-3.0212	-1.3428	-1.3428	0.3357	6.2103	1.3428	3.5248	7.5531	3.5248	3.1891	-0.6714	3.0212	13.092	8.8959	11.9171	20	263	162	3	1	2
-7.2174	-2.5177	-6.2103	-3.5248	-1.6785	-1.5106	-0.1678	5.8746	1.1749	2.8534	7.3853	3.1891	2.6855	-0.5035	3.1891	13.092	9.0637	11.9171	20	264	163	3	1	2
-7.5531	-2.8534	-6.3782	-4.1962	-2.182	-1.6785	-0.6714	5.3711	0.6714	2.182	7.0496	2.8534	2.182	-0.3357	3.3569	12.9242	9.0637	11.9171	20	265	164	3	1	2
-7.8888	-3.3569	-6.546	-4.6997	-2.6855	-1.8463	-1.1749	5.0354	0.5035	1.5106	6.8817	2.3499	1.8463	0	3.3569	12.7563	9.2316	11.9171	20	266	165	3	1	2
-8.3923	-4.0283	-7.0496	-5.3711	-3.3569	-2.3499	-2.0142	4.364	-0.1678	0.6714	6.3782	1.8463	1.1749	0.3357	3.3569	12.5885	9.2316	11.9171	20	267	166	3	1	2
-8.8959	-4.5319	-7.5531	-6.0425	-4.0283	-2.6855	-2.5177	3.8605	-0.5035	0	5.8746	1.1749	0.6714	0.5035	3.3569	12.085	9.2316	11.5814	20	268	167	3	1	2
-9.2316	-5.2032	-7.8888	-6.8817	-4.8676	-3.0212	-3.1891	3.1891	-1.1749	-0.8392	5.3711	0.5035	0.1678	0.8392	3.3569	11.4136	9.0637	11.4136	20	269	168	3	1	2
-9.5673	-5.7068	-8.3923	-7.5531	-5.5389	-3.5248	-3.8605	2.5177	-1.6785	-1.5106	4.8676	-0.1678	-0.5035	1.1749	3.3569	10.7422	9.0637	11.4136	20	270	169	3	1	2
-10.0708	-6.3782	-8.8959	-8.3923	-6.3782	-3.8605	-4.5319	1.8463	-2.3499	-2.3499	4.364	-0.8392	-1.0071	1.6785	3.1891	10.0708	8.8959	11.4136	20	271	170	3	1	2
-10.4065	-7.2174	-9.3994	-8.8959	-7.3853	-4.364	-5.2032	1.0071	-3.0212	-3.0212	3.6926	-1.5106	-1.5106	2.0142	3.0212	9.0637	8.5602	11.2457	20	272	171	3	1	2
-10.7422	-7.7209	-9.7351	-9.3994	-8.2245	-4.8676	-5.8746	0.1678	-3.6926	-3.6926	3.0212	-2.3499	-2.182	2.3499	2.8534	7.8888	8.3923	11.0779	20	273	172	3	1	2
-10.7422	-8.0566	-9.903	-9.5673	-8.728	-5.2032	-6.3782	-0.5035	-4.364	-4.364	2.5177	-2.8534	-2.5177	2.6855	3.0212	6.3782	8.2245	10.91	20	274	173	3	1	2
-11.2457	-8.5602	-10.2386	-9.903	-9.5673	-5.5389	-6.8817	-1.3428	-5.0354	-5.0354	2.0142	-3.5248	-3.0212	3.0212	2.8534	4.8676	7.8888	10.7422	20	275	174	3	1	2
-11.4136	-8.8959	-10.4065	-10.0708	-10.0708	-5.8746	-7.5531	-2.182	-5.7068	-5.8746	1.5106	-4.1962	-3.5248	3.3569	2.8534	3.1891	7.3853	10.4065	20	276	175	3	1	2
-11.7493	-9.2316	-10.5743	-10.5743	-10.7422	-6.3782	-8.2245	-2.8534	-6.3782	-6.546	0.6714	-5.0354	-4.1962	3.6926	2.5177	1.3428	6.8817	10.2386	20	277	176	3	1	2
-11.7493	-9.3994	-10.5743	-10.91	-11.2457	-6.7139	-8.728	-3.5248	-6.8817	-7.2174	0.3357	-5.5389	-4.6997	4.0283	2.5177	-0.3357	6.3782	10.0708	20	278	177	3	1	2
-11.7493	-9.3994	-10.7422	-11.0779	-11.5814	-7.0496	-9.0637	-4.0283	-7.3853	-7.7209	-0.1678	-6.0425	-5.0354	4.1962	2.3499	-1.8463	5.8746	9.7351	20	279	178	3	1	2
-12.085	-9.5673	-10.7422	-11.2457	-11.9171	-7.2174	-9.903	-4.5319	-7.8888	-8.2245	-0.6714	-6.7139	-5.5389	4.5319	2.182	-3.6926	5.0354	9.5673	20	280	179	3	1	2
-11.9171	-9.3994	-10.7422	-11.4136	-12.2528	-7.3853	-10.4065	-5.0354	-8.2245	-8.8959	-1.0071	-7.2174	-6.0425	4.6997	2.0142	-5.0354	4.1962	9.3994	20	281	180	3	1	2
-12.085	-9.2316	-10.4065	-11.7493	-12.2528	-7.5531	-10.7422	-5.3711	-8.5602	-9.3994	-1.5106	-7.8888	-6.3782	4.8676	1.8463	-6.2103	3.5248	9.2316	20	282	181	3	1	2
-11.7493	-9.0637	-10.4065	-11.7493	-12.2528	-7.5531	-11.2457	-5.7068	-9.0637	-9.7351	-1.8463	-8.2245	-6.8817	5.0354	1.6785	-7.0496	2.6855	9.0637	20	283	182	3	1	2
-11.5814	-8.728	-10.0708	-11.5814	-12.4207	-7.5531	-11.4136	-6.0425	-9.2316	-10.0708	-2.0142	-8.3923	-7.2174	5.2032	1.6785	-7.8888	2.182	8.728	20	284	183	3	1	2
-11.2457	-8.2245	-9.5673	-11.4136	-12.2528	-7.3853	-11.7493	-6.2103	-9.2316	-10.2386	-2.182	-8.5602	-7.2174	5.2032	1.6785	-8.3923	1.6785	8.3923	20	285	184	3	1	2
-10.91	-7.8888	-9.2316	-11.4136	-12.085	-7.3853	-12.085	-6.546	-9.3994	-10.7422	-2.5177	-8.728	-7.5531	5.3711	1.6785	-9.0637	1.0071	8.2245	20	286	185	3	1	2
-10.4065	-7.2174	-8.728	-11.2457	-11.7493	-7.0496	-12.2528	-6.3782	-9.2316	-10.91	-2.5177	-8.728	-7.5531	5.3711	1.8463	-9.3994	0.6714	8.0566	20	287	186	3	1	2
-9.903	-6.8817	-8.2245	-11.0779	-11.5814	-7.0496	-12.2528	-6.546	-9.2316	-10.91	-2.6855	-8.8959	-7.5531	5.5389	1.8463	-9.7351	0.5035	7.8888	20	288	187	3	1	2
-9.2316	-6.3782	-7.7209	-10.7422	-11.2457	-6.546	-12.4207	-6.2103	-9.2316	-10.91	-2.6855	-8.728	-7.5531	5.5389	2.0142	-9.903	0.1678	7.8888	20	289	188	3	1	2
-8.8959	-5.7068	-7.0496	-10.5743	-10.91	-6.3782	-12.4207	-6.2103	-8.8959	-10.91	-2.5177	-8.5602	-7.3853	5.5389	2.0142	-9.7351	0	7.8888	20	290	189	3	1	2
-8.2245	-5.3711	-6.546	-10.0708	-10.5743	-6.2103	-12.5885	-6.0425	-8.728	-11.0779	-2.3499	-8.3923	-7.5531	5.3711	2.0142	-9.7351	-0.1678	7.8888	20	291	190	3	1	2
-14.0991	-15.9454	-16.9525	-15.9454	-15.4419	-18.2953	-11.4136	-12.5885	-19.9738	-9.2316	-9.0637	-13.4277	-5.3711	-1.6785	-1.0071	1.8463	-7.2174	-1.5106	20	231	130	5	1	2
-13.7634	-15.6097	-16.449	-15.4419	-14.7705	-17.6239	-11.0779	-12.085	-19.3024	-8.728	-8.8959	-13.092	-5.0354	-1.6785	-0.6714	2.0142	-6.0425	-1.5106	20	232	131	5	1	2
-13.092	-15.1062	-15.6097	-14.9384	-14.0991	-16.7847	-10.4065	-11.5814	-18.7988	-8.0566	-8.5602	-12.7563	-4.5319	-1.5106	-0.3357	2.5177	-4.5319	-1.6785	20	233	132	5	1	2
-12.7563	-14.267	-14.9384	-14.4348	-13.092	-16.1133	-10.0708	-10.7422	-17.9596	-7.7209	-8.0566	-12.085	-4.0283	-1.5106	0.1678	2.8534	-3.0212	-1.6785	20	234	133	5	1	2
-12.085	-13.4277	-14.0991	-13.9313	-12.085	-15.274	-9.5673	-10.0708	-17.2882	-7.2174	-7.5531	-11.5814	-3.6926	-1.3428	0.3357	3.1891	-1.5106	-1.8463	20	235	134	5	1	2
-11.5814	-12.5885	-13.4277	-13.2599	-11.2457	-14.6027	-9.2316	-9.2316	-16.449	-6.8817	-7.2174	-10.91	-3.3569	-1.3428	0.8392	3.5248	0	-2.0142	20	236	135	5	1	2
-11.0779	-11.9171	-12.7563	-12.7563	-10.4065	-13.7634	-8.8959	-8.5602	-15.7776	-6.546	-6.8817	-10.4065	-3.0212	-1.3428	1.1749	3.5248	1.3428	-2.182	20	237	136	5	1	2
-10.4065	-10.91	-11.9171	-11.9171	-9.3994	-12.9242	-8.5602	-7.8888	-14.9384	-6.2103	-6.3782	-9.7351	-2.6855	-1.1749	1.3428	3.5248	2.6855	-2.5177	20	238	137	5	1	2
-9.903	-10.2386	-11.4136	-11.5814	-8.728	-12.2528	-8.2245	-7.2174	-14.267	-5.8746	-6.0425	-9.2316	-2.5177	-1.1749	1.6785	3.0212	3.6926	-2.8534	20	239	138	5	1	2
-9.5673	-9.5673	-10.7422	-11.0779	-7.8888	-11.5814	-8.0566	-6.7139	-13.7634	-5.7068	-5.8746	-8.8959	-2.3499	-1.1749	1.6785	2.182	4.6997	-3.1891	20	240	139	5	1	2
-9.2316	-9.0637	-10.2386	-10.5743	-7.2174	-10.91	-7.8888	-6.3782	-13.2599	-5.7068	-5.7068	-8.5602	-2.3499	-1.1749	1.8463	1.0071	5.3711	-3.8605	20	241	140	5	1	2
-8.8959	-8.5602	-9.7351	-10.0708	-6.7139	-10.4065	-7.7209	-6.0425	-12.9242	-5.7068	-5.5389	-8.3923	-2.5177	-1.1749	1.6785	-0.5035	6.0425	-4.364	20	242	141	5	1	2
-8.5602	-8.0566	-9.3994	-9.3994	-6.2103	-9.903	-7.5531	-5.8746	-12.5885	-5.7068	-5.5389	-8.2245	-2.5177	-1.1749	1.3428	-2.182	6.3782	-4.8676	20	243	142	5	1	2
-8.3923	-7.7209	-9.0637	-8.8959	-5.8746	-9.3994	-7.3853	-5.7068	-12.2528	-5.8746	-5.5389	-8.0566	-2.8534	-1.1749	1.1749	-3.6926	6.7139	-5.3711	20	244	143	5	1	2
-8.3923	-7.5531	-9.0637	-8.3923	-5.7068	-9.3994	-7.3853	-5.8746	-12.2528	-6.2103	-6.0425	-8.2245	-3.1891	-1.3428	0.8392	-5.0354	6.546	-5.8746	20	245	144	5	1	2
-8.2245	-7.2174	-8.8959	-8.0566	-5.3711	-9.0637	-7.5531	-5.8746	-12.2528	-6.3782	-6.0425	-8.2245	-3.6926	-1.3428	0.3357	-6.3782	6.546	-6.3782	20	246	145	5	1	2
-7.8888	-7.0496	-8.5602	-7.5531	-5.3711	-8.728	-7.3853	-6.0425	-12.4207	-6.7139	-6.2103	-8.3923	-4.0283	-1.3428	-0.1678	-7.2174	6.0425	-6.7139	20	247	146	5	1	2
-7.8888	-6.7139	-8.728	-7.2174	-5.2032	-8.5602	-7.3853	-6.0425	-12.4207	-7.0496	-6.546	-8.5602	-4.5319	-1.3428	-0.8392	-7.7209	5.7068	-7.0496	20	248	147	5	1	2
-7.7209	-6.7139	-8.5602	-7.0496	-5.0354	-8.3923	-7.3853	-6.0425	-12.5885	-7.5531	-6.7139	-8.8959	-5.2032	-1.3428	-1.8463	-8.0566	5.2032	-7.5531	20	249	148	5	1	2
-7.7209	-6.546	-8.3923	-6.7139	-4.8676	-8.3923	-7.3853	-6.2103	-12.5885	-7.8888	-6.8817	-9.2316	-5.8746	-1.3428	-2.5177	-7.8888	4.6997	-7.5531	20	250	149	5	1	2
-7.7209	-6.3782	-8.5602	-6.7139	-5.0354	-8.3923	-7.7209	-6.3782	-12.9242	-8.3923	-7.2174	-9.7351	-6.546	-1.5106	-3.3569	-7.2174	4.0283	-7.7209	20	251	150	5	1	2
-7.7209	-6.2103	-8.728	-6.7139	-5.2032	-8.3923	-7.7209	-6.7139	-13.092	-8.728	-7.5531	-10.2386	-7.2174	-1.6785	-4.0283	-6.2103	3.3569	-7.3853	20	252	151	5	1	2
-7.5531	-6.0425	-8.5602	-6.7139	-4.8676	-8.3923	-7.8888	-6.7139	-13.4277	-9.2316	-7.8888	-10.7422	-7.8888	-1.8463	-4.8676	-5.0354	2.5177	-7.2174	20	253	152	5	1	2
-7.5531	-5.8746	-8.5602	-6.8817	-4.8676	-8.3923	-7.8888	-6.8817	-13.7634	-9.5673	-8.2245	-11.0779	-8.5602	-2.0142	-5.7068	-3.6926	1.8463	-7.0496	20	254	153	5	1	2
-7.3853	-5.7068	-8.728	-7.0496	-4.6997	-8.2245	-8.0566	-6.8817	-13.9313	-10.0708	-8.728	-11.9171	-9.0637	-2.3499	-6.7139	-2.3499	1.1749	-6.8817	20	255	154	5	1	2
-7.2174	-5.2032	-8.728	-7.0496	-4.6997	-8.2245	-8.3923	-7.0496	-14.267	-10.2386	-8.8959	-12.4207	-9.7351	-2.5177	-7.3853	-0.8392	0.5035	-6.7139	20	256	155	5	1	2
-7.2174	-5.0354	-8.728	-7.5531	-4.6997	-8.3923	-8.728	-7.2174	-14.7705	-10.7422	-9.3994	-13.092	-10.4065	-2.8534	-8.3923	0.5035	-0.3357	-6.546	20	257	156	5	1	2
-7.2174	-4.8676	-8.8959	-7.8888	-4.5319	-8.728	-9.0637	-7.3853	-15.1062	-11.0779	-9.5673	-13.5956	-10.91	-3.0212	-9.0637	1.8463	-1.1749	-6.3782	20	258	157	5	1	2
-7.0496	-4.5319	-8.8959	-8.0566	-4.1962	-8.728	-9.0637	-7.3853	-15.4419	-11.5814	-9.903	-14.0991	-11.5814	-3.3569	-9.903	3.5248	-1.8463	-6.2103	20	259	158	5	1	2
-6.8817	-4.0283	-8.8959	-8.3923	-4.1962	-8.728	-9.3994	-7.3853	-15.9454	-11.9171	-10.2386	-14.7705	-12.085	-3.6926	-10.5743	4.8676	-2.6855	-6.2103	20	260	159	5	1	2
-6.8817	-3.8605	-9.0637	-8.8959	-4.1962	-9.0637	-9.7351	-7.3853	-16.449	-12.2528	-10.5743	-15.4419	-12.5885	-4.0283	-11.2457	6.2103	-3.5248	-6.0425	20	261	160	5	1	2
-6.8817	-3.6926	-9.2316	-9.2316	-4.0283	-9.2316	-9.903	-7.5531	-16.9525	-12.5885	-10.7422	-15.9454	-13.092	-4.364	-11.9171	7.5531	-4.1962	-5.8746	20	262	161	5	1	2
-6.8817	-3.3569	-9.3994	-9.5673	-4.0283	-9.5673	-10.2386	-7.5531	-17.2882	-12.9242	-11.0779	-16.449	-13.4277	-4.6997	-12.4207	8.728	-4.6997	-5.7068	20	263	162	5	1	2
-7.0496	-3.3569	-9.7351	-9.903	-3.8605	-9.903	-10.4065	-7.7209	-17.6239	-13.092	-11.4136	-16.9525	-13.7634	-5.0354	-12.7563	9.7351	-5.2032	-5.7068	20	264	163	5	1	2
-7.0496	-3.1891	-9.903	-10.4065	-3.6926	-10.0708	-10.7422	-7.7209	-17.6239	-13.092	-11.4136	-17.1204	-13.7634	-5.2032	-12.7563	10.2386	-5.5389	-5.3711	20	265	164	5	1	2
-7.2174	-3.0212	-10.0708	-10.7422	-3.8605	-10.4065	-11.0779	-7.8888	-18.1274	-13.2599	-11.5814	-17.4561	-13.9313	-5.5389	-13.092	10.2386	-6.0425	-5.3711	20	266	165	5	1	2
-7.2174	-2.8534	-10.2386	-11.0779	-3.6926	-10.4065	-11.0779	-7.7209	-18.2953	-13.4277	-11.7493	-17.6239	-13.9313	-5.7068	-12.9242	10.2386	-6.0425	-5.2032	20	267	166	5	1	2
-7.3853	-2.6855	-10.5743	-11.2457	-3.6926	-10.7422	-11.2457	-7.8888	-18.4631	-13.5956	-11.9171	-17.9596	-14.267	-6.0425	-13.092	9.5673	-6.0425	-5.3711	20	268	167	5	1	2
-7.7209	-2.8534	-10.91	-11.7493	-3.6926	-10.91	-11.4136	-7.8888	-18.7988	-13.5956	-11.9171	-18.1274	-14.267	-6.2103	-12.9242	8.728	-6.2103	-5.2032	20	269	168	5	1	2
-7.8888	-2.6855	-11.0779	-11.7493	-3.6926	-11.2457	-11.5814	-7.8888	-18.7988	-13.5956	-12.085	-18.2953	-14.0991	-6.3782	-12.7563	8.0566	-6.2103	-5.3711	20	270	169	5	1	2
-8.0566	-2.6855	-11.0779	-11.9171	-3.6926	-11.2457	-11.5814	-7.8888	-18.7988	-13.7634	-12.085	-18.2953	-14.0991	-6.546	-12.7563	7.7209	-5.8746	-5.3711	20	271	170	5	1	2
-8.3923	-2.6855	-11.4136	-12.2528	-3.6926	-11.4136	-11.5814	-8.0566	-18.9667	-13.7634	-12.2528	-18.2953	-14.0991	-6.7139	-12.5885	6.8817	-6.0425	-5.2032	20	272	171	5	1	2
-8.5602	-2.6855	-11.4136	-12.085	-3.6926	-11.5814	-11.5814	-8.0566	-18.9667	-13.5956	-12.085	-18.1274	-13.9313	-6.7139	-12.2528	6.7139	-5.8746	-5.0354	20	273	172	5	1	2
-9.0637	-2.8534	-11.9171	-12.2528	-4.0283	-11.7493	-11.7493	-8.2245	-18.9667	-13.5956	-12.085	-17.9596	-13.9313	-6.7139	-12.085	6.3782	-5.8746	-4.8676	20	274	173	5	1	2
-9.2316	-3.0212	-11.9171	-12.2528	-4.1962	-11.9171	-11.7493	-8.2245	-18.9667	-13.5956	-12.085	-18.1274	-13.9313	-6.7139	-11.7493	6.3782	-5.7068	-4.6997	20	275	174	5	1	2
-9.2316	-2.8534	-11.9171	-12.085	-4.1962	-11.7493	-11.7493	-8.2245	-18.9667	-13.5956	-12.085	-18.1274	-13.9313	-6.7139	-11.5814	6.546	-5.3711	-4.5319	20	276	175	5	1	2
-9.5673	-3.1891	-12.085	-12.085	-4.364	-11.9171	-11.7493	-8.3923	-18.9667	-13.4277	-11.9171	-17.7917	-13.7634	-6.546	-11.2457	6.546	-5.3711	-4.1962	20	277	176	5	1	2
-9.5673	-3.1891	-12.085	-11.7493	-4.5319	-11.9171	-11.7493	-8.5602	-18.9667	-13.4277	-11.9171	-17.6239	-13.7634	-6.3782	-11.0779	6.7139	-5.2032	-4.0283	20	278	177	5	1	2
-9.7351	-3.5248	-11.9171	-11.7493	-4.6997	-11.9171	-11.5814	-8.728	-18.9667	-13.4277	-11.9171	-17.4561	-13.5956	-6.2103	-10.91	6.8817	-5.0354	-3.8605	20	279	178	5	1	2
-9.903	-3.8605	-12.085	-11.7493	-5.0354	-12.085	-11.7493	-8.8959	-18.9667	-13.5956	-12.085	-17.4561	-13.7634	-6.0425	-10.7422	7.0496	-5.0354	-3.6926	20	280	179	5	1	2
-9.903	-4.0283	-12.085	-11.4136	-5.2032	-11.9171	-11.7493	-8.8959	-18.9667	-13.7634	-12.085	-17.4561	-13.9313	-5.8746	-10.7422	7.5531	-4.6997	-3.6926	20	281	180	5	1	2
-9.903	-4.364	-12.085	-11.2457	-5.5389	-11.9171	-11.7493	-9.0637	-18.7988	-13.7634	-12.085	-17.2882	-13.7634	-5.5389	-10.4065	7.7209	-4.6997	-3.5248	20	282	181	5	1	2
-10.2386	-4.8676	-12.2528	-11.2457	-5.8746	-12.085	-11.7493	-9.2316	-18.7988	-13.5956	-12.085	-17.1204	-13.7634	-5.2032	-10.2386	7.5531	-5.0354	-3.3569	20	283	182	5	1	2
-10.4065	-5.3711	-12.4207	-11.2457	-6.2103	-12.085	-11.9171	-9.3994	-18.7988	-13.5956	-11.9171	-17.1204	-13.7634	-4.8676	-10.0708	7.3853	-5.2032	-3.1891	20	284	183	5	1	2
-10.5743	-5.7068	-12.5885	-10.91	-6.546	-12.2528	-11.9171	-9.5673	-18.631	-13.5956	-11.7493	-16.7847	-13.7634	-4.5319	-9.903	7.0496	-5.5389	-3.0212	20	285	184	5	1	2
-10.91	-6.3782	-12.5885	-10.91	-6.7139	-12.2528	-11.7493	-9.5673	-18.631	-13.5956	-11.7493	-16.6168	-13.5956	-4.1962	-9.903	6.546	-6.0425	-3.0212	20	286	185	5	1	2
-10.91	-6.7139	-12.5885	-10.5743	-6.8817	-12.085	-11.5814	-9.5673	-18.631	-13.5956	-11.5814	-16.449	-13.4277	-3.8605	-9.5673	6.0425	-6.3782	-2.8534	20	287	186	5	1	2
-11.4136	-7.2174	-12.9242	-10.4065	-7.2174	-12.2528	-11.5814	-9.7351	-18.631	-13.2599	-11.4136	-16.2811	-13.2599	-3.5248	-9.3994	5.3711	-6.7139	-2.6855	20	288	187	5	1	2
-11.7493	-7.7209	-13.092	-10.5743	-7.5531	-12.4207	-11.5814	-9.5673	-18.2953	-12.9242	-10.91	-15.9454	-12.7563	-3.0212	-8.8959	4.364	-7.0496	-2.182	20	289	188	5	1	2
-11.9171	-8.0566	-13.2599	-10.5743	-7.5531	-12.4207	-11.4136	-9.5673	-18.2953	-12.9242	-10.5743	-15.7776	-12.5885	-2.6855	-8.5602	3.6926	-7.2174	-2.0142	20	290	189	5	1	2
-12.5885	-8.728	-13.5956	-10.7422	-7.8888	-12.7563	-11.5814	-9.2316	-18.1274	-12.5885	-10.0708	-15.274	-12.2528	-2.182	-8.0566	2.5177	-7.2174	-1.5106	20	291	190	5	1	2
-6.3782	-7.5531	-7.7209	-8.8959	-4.364	-10.0708	-6.8817	-3.5248	-10.0708	-2.182	0	-6.8817	2.5177	2.3499	4.364	0.6714	-1.1749	2.3499	20	231	130	7	1	2
-5.5389	-6.8817	-6.7139	-7.8888	-3.6926	-9.2316	-6.2103	-2.8534	-9.0637	-2.0142	0.3357	-6.2103	2.6855	2.0142	4.0283	2.182	-0.3357	2.5177	20	232	131	7	1	2
-4.6997	-6.0425	-5.7068	-6.8817	-3.0212	-8.0566	-5.7068	-2.182	-8.0566	-1.6785	1.0071	-5.5389	3.0212	1.6785	3.6926	3.5248	0.5035	2.6855	20	233	132	7	1	2
-4.0283	-5.3711	-4.6997	-5.8746	-2.182	-7.2174	-4.8676	-1.5106	-7.2174	-1.3428	1.5106	-4.8676	3.1891	1.3428	3.5248	4.6997	1.1749	3.0212	20	234	133	7	1	2
-3.1891	-4.5319	-3.6926	-5.0354	-1.5106	-6.0425	-4.364	-0.6714	-6.2103	-0.8392	2.182	-4.364	3.1891	1.0071	3.3569	6.0425	2.0142	3.5248	20	235	134	7	1	2
-2.5177	-3.8605	-2.6855	-3.8605	-0.6714	-5.0354	-3.5248	0.1678	-5.0354	-0.6714	2.8534	-3.6926	3.5248	0.6714	3.0212	7.2174	2.6855	4.0283	20	236	135	7	1	2
-1.8463	-3.0212	-1.6785	-2.6855	0.1678	-3.8605	-2.8534	0.6714	-4.0283	-0.1678	3.3569	-2.8534	3.6926	0.3357	2.6855	8.2245	3.0212	4.364	20	237	136	7	1	2
-1.3428	-2.5177	-0.8392	-1.8463	0.6714	-3.0212	-2.3499	1.3428	-3.3569	0	4.0283	-2.3499	3.8605	0	2.3499	9.0637	3.1891	4.8676	20	238	137	7	1	2
-0.6714	-1.8463	0	-1.0071	1.3428	-1.8463	-1.8463	2.3499	-2.3499	0.3357	4.6997	-1.6785	3.8605	-0.3357	1.8463	10.0708	3.1891	5.5389	20	239	138	7	1	2
-0.1678	-1.1749	0.8392	-0.1678	1.8463	-0.8392	-1.3428	3.0212	-1.5106	0.6714	5.2032	-1.0071	4.0283	-0.6714	1.3428	10.7422	3.0212	6.0425	20	240	139	7	1	2
0.3357	-0.6714	1.6785	0.3357	2.5177	-0.1678	-0.8392	3.5248	-0.6714	1.0071	5.7068	-0.3357	4.0283	-1.1749	0.6714	11.2457	2.6855	6.546	20	241	140	7	1	2
0.6714	-0.5035	2.182	0.8392	2.6855	0.5035	-0.6714	4.0283	0	1.0071	6.2103	-0.1678	3.8605	-1.5106	0.1678	11.7493	2.3499	7.0496	20	242	141	7	1	2
1.1749	0	2.8534	1.3428	3.3569	1.1749	-0.3357	4.6997	0.5035	1.1749	6.7139	0.3357	3.8605	-1.8463	-0.3357	12.085	2.182	7.7209	20	243	142	7	1	2
1.5106	0.3357	3.0212	1.5106	3.5248	1.5106	0	4.8676	0.8392	1.3428	6.8817	0.6714	3.8605	-2.3499	-0.8392	12.085	1.6785	8.0566	20	244	143	7	1	2
1.6785	0.5035	3.3569	1.6785	3.8605	1.8463	0.1678	5.3711	1.1749	1.3428	7.2174	1.0071	3.8605	-2.6855	-1.3428	12.2528	1.1749	8.5602	20	245	144	7	1	2
1.6785	0.8392	3.6926	1.6785	4.0283	2.182	0.3357	5.7068	1.5106	1.5106	7.5531	1.0071	3.6926	-3.0212	-1.8463	12.5885	0.5035	9.0637	20	246	145	7	1	2
2.0142	1.0071	4.0283	1.8463	4.364	2.3499	0.5035	6.2103	2.0142	1.5106	7.7209	1.0071	3.5248	-3.3569	-2.3499	12.9242	-0.1678	9.7351	20	247	146	7	1	2
2.182	1.3428	4.0283	1.5106	4.364	2.5177	0.3357	6.2103	1.8463	1.6785	8.0566	1.1749	3.3569	-3.5248	-2.6855	12.9242	-1.1749	10.0708	20	248	147	7	1	2
2.182	1.3428	4.0283	1.5106	4.6997	2.5177	0.3357	6.3782	1.8463	1.5106	8.0566	1.1749	3.1891	-3.8605	-3.1891	13.2599	-2.182	10.4065	20	249	148	7	1	2
2.182	1.5106	3.8605	1.3428	4.6997	2.6855	0.1678	6.3782	2.0142	1.5106	8.0566	1.0071	3.0212	-4.0283	-3.5248	13.5956	-3.0212	10.7422	20	250	149	7	1	2
1.6785	1.3428	3.6926	0.6714	4.364	2.182	-0.3357	6.2103	1.5106	1.3428	7.7209	0.6714	2.6855	-4.1962	-3.6926	13.9313	-4.1962	10.7422	20	251	150	7	1	2
1.6785	1.3428	3.5248	0.3357	4.364	2.182	-0.6714	6.2103	1.3428	1.1749	7.7209	0.3357	2.3499	-4.364	-4.0283	14.4348	-4.8676	11.0779	20	252	151	7	1	2
1.3428	1.0071	3.0212	-0.3357	4.0283	1.5106	-1.1749	5.8746	0.8392	0.8392	7.2174	0	2.0142	-4.5319	-4.364	14.7705	-5.5389	11.2457	20	253	152	7	1	2
1.0071	0.8392	2.5177	-0.8392	3.5248	0.8392	-1.3428	5.3711	0.1678	0.6714	6.546	-0.5035	1.6785	-4.5319	-4.6997	14.9384	-6.2103	11.0779	20	254	153	7	1	2
0.5035	0.5035	2.0142	-1.3428	2.8534	0.3357	-2.0142	4.8676	-0.6714	0.3357	6.0425	-1.3428	1.1749	-4.6997	-5.0354	15.4419	-6.7139	10.91	20	255	154	7	1	2
0.1678	0	1.5106	-2.0142	2.182	-0.3357	-2.6855	4.1962	-1.5106	-0.1678	5.2032	-2.0142	0.6714	-4.6997	-5.2032	15.7776	-6.8817	10.7422	20	256	155	7	1	2
-0.5035	-0.6714	0.5035	-2.8534	1.6785	-1.5106	-3.0212	3.3569	-2.182	-0.6714	4.1962	-2.6855	0.1678	-4.6997	-5.5389	15.7776	-6.8817	10.0708	20	257	156	7	1	2
-1.0071	-1.1749	-0.1678	-3.5248	0.8392	-2.182	-3.6926	2.5177	-3.1891	-1.1749	3.5248	-3.6926	-0.3357	-4.6997	-5.8746	15.7776	-6.8817	9.5673	20	258	157	7	1	2
-1.6785	-1.8463	-1.0071	-4.364	0	-3.3569	-4.364	1.6785	-4.364	-1.8463	2.3499	-4.5319	-1.0071	-4.6997	-6.0425	15.6097	-6.7139	8.8959	20	259	158	7	1	2
-2.3499	-2.5177	-1.8463	-5.0354	-0.8392	-4.364	-5.0354	0.6714	-5.5389	-2.5177	1.3428	-5.5389	-1.6785	-4.6997	-6.3782	15.4419	-6.7139	8.3923	20	260	159	7	1	2
-2.6855	-3.0212	-2.6855	-5.5389	-1.6785	-5.2032	-5.3711	-0.1678	-6.3782	-2.8534	0.5035	-6.3782	-2.182	-4.5319	-6.546	15.274	-6.2103	7.8888	20	261	160	7	1	2
-3.1891	-3.5248	-3.3569	-6.0425	-2.182	-6.0425	-5.7068	-1.0071	-7.2174	-3.1891	-0.3357	-6.8817	-2.3499	-4.1962	-6.3782	15.1062	-5.5389	7.5531	20	262	161	7	1	2
-3.5248	-3.6926	-3.6926	-6.0425	-2.6855	-6.546	-5.7068	-1.6785	-8.0566	-3.3569	-1.0071	-7.5531	-2.5177	-3.8605	-6.3782	14.9384	-5.0354	7.2174	20	263	162	7	1	2
-3.5248	-3.6926	-4.0283	-6.2103	-2.6855	-7.0496	-5.5389	-1.8463	-8.3923	-3.3569	-1.3428	-7.7209	-2.5177	-3.3569	-5.8746	14.7705	-4.364	7.0496	20	264	163	7	1	2
-3.6926	-3.6926	-4.364	-6.2103	-3.0212	-7.2174	-5.5389	-2.3499	-8.8959	-3.3569	-1.6785	-8.2245	-2.5177	-3.0212	-5.5389	14.4348	-3.5248	6.8817	20	265	164	7	1	2
-3.5248	-3.3569	-4.5319	-6.0425	-3.0212	-7.7209	-5.2032	-2.5177	-9.2316	-3.1891	-2.182	-8.3923	-2.3499	-2.5177	-5.2032	14.4348	-2.5177	6.7139	20	266	165	7	1	2
-3.6926	-3.0212	-4.6997	-5.8746	-3.0212	-7.7209	-4.8676	-2.8534	-9.5673	-3.0212	-2.3499	-8.5602	-2.182	-2.3499	-5.0354	13.7634	-1.8463	6.546	20	267	166	7	1	2
-3.6926	-2.6855	-4.6997	-5.7068	-3.0212	-8.0566	-4.6997	-3.0212	-9.903	-2.8534	-2.5177	-8.8959	-2.182	-2.0142	-4.6997	13.2599	-1.0071	6.7139	20	268	167	7	1	2
-3.6926	-2.5177	-4.8676	-5.5389	-3.0212	-8.2245	-4.364	-3.1891	-10.2386	-2.6855	-2.8534	-8.8959	-2.0142	-1.8463	-4.364	12.2528	-0.1678	6.3782	20	269	168	7	1	2
-3.5248	-2.0142	-4.6997	-5.2032	-2.6855	-8.3923	-4.0283	-3.1891	-10.2386	-2.3499	-3.0212	-9.0637	-1.6785	-1.8463	-4.0283	10.91	0.5035	6.2103	20	270	169	7	1	2
-3.6926	-2.0142	-4.6997	-4.8676	-2.8534	-8.5602	-3.8605	-3.5248	-10.5743	-2.3499	-3.3569	-9.3994	-1.6785	-1.6785	-3.6926	9.903	1.1749	6.0425	20	271	170	7	1	2
-3.6926	-1.6785	-4.5319	-4.5319	-2.8534	-8.3923	-3.6926	-3.6926	-10.5743	-2.182	-3.6926	-9.3994	-1.5106	-1.6785	-3.6926	8.3923	1.8463	5.7068	20	272	171	7	1	2
-3.3569	-1.1749	-4.364	-4.1962	-2.6855	-8.3923	-3.3569	-3.8605	-10.7422	-2.0142	-3.8605	-9.3994	-1.3428	-1.6785	-3.5248	7.0496	2.5177	5.3711	20	273	172	7	1	2
-3.3569	-1.0071	-4.1962	-3.8605	-2.5177	-8.5602	-3.1891	-4.0283	-10.7422	-1.6785	-4.364	-9.7351	-1.3428	-1.8463	-3.3569	5.2032	2.8534	5.0354	20	274	173	7	1	2
-3.0212	-0.5035	-3.8605	-3.3569	-2.5177	-8.2245	-2.6855	-4.1962	-10.7422	-1.5106	-4.5319	-9.7351	-1.0071	-2.0142	-3.1891	3.5248	3.1891	4.364	20	275	174	7	1	2
-2.6855	-0.1678	-3.5248	-2.8534	-2.182	-8.0566	-2.3499	-4.1962	-10.5743	-1.0071	-4.6997	-9.7351	-0.6714	-2.182	-3.0212	1.8463	3.5248	3.8605	20	276	175	7	1	2
-2.182	0.1678	-2.8534	-2.0142	-2.0142	-7.7209	-1.6785	-4.1962	-10.4065	-0.5035	-4.8676	-9.7351	-0.3357	-2.5177	-3.0212	0	3.5248	3.5248	20	277	176	7	1	2
-1.5106	0.6714	-2.182	-1.1749	-1.8463	-7.2174	-1.1749	-4.364	-10.0708	-0.1678	-5.0354	-9.7351	0	-2.6855	-3.0212	-1.5106	3.5248	3.0212	20	278	177	7	1	2
-0.8392	1.0071	-1.5106	-0.3357	-1.5106	-6.7139	-0.5035	-4.364	-9.7351	0.5035	-5.2032	-9.5673	0.3357	-2.8534	-2.8534	-2.8534	3.5248	2.5177	20	279	178	7	1	2
-0.1678	1.1749	-0.8392	0.3357	-1.3428	-6.2103	0	-4.5319	-9.3994	1.0071	-5.5389	-9.5673	0.6714	-3.0212	-2.8534	-4.0283	3.1891	2.0142	20	280	179	7	1	2
0.5035	1.3428	-0.3357	1.5106	-1.3428	-5.8746	0.6714	-4.364	-9.0637	1.3428	-5.7068	-9.5673	0.8392	-3.0212	-3.0212	-5.0354	3.1891	1.5106	20	281	180	7	1	2
1.5106	1.6785	0.5035	2.182	-1.1749	-5.3711	1.1749	-4.364	-8.5602	2.0142	-5.8746	-9.2316	1.3428	-3.0212	-2.6855	-5.5389	3.0212	1.1749	20	282	181	7	1	2
2.182	1.8463	1.5106	2.8534	-0.8392	-4.8676	1.6785	-4.364	-8.0566	2.5177	-6.0425	-9.0637	1.5106	-3.0212	-2.6855	-5.8746	2.8534	0.6714	20	283	182	7	1	2
3.1891	2.3499	2.182	3.8605	-0.6714	-4.1962	2.3499	-4.364	-7.5531	3.1891	-6.0425	-8.728	2.0142	-2.8534	-2.5177	-6.0425	2.8534	0.5035	20	284	183	7	1	2
3.8605	2.182	2.8534	4.364	-0.3357	-3.5248	2.6855	-4.1962	-7.2174	3.6926	-6.0425	-8.3923	2.5177	-2.8534	-2.182	-6.2103	2.6855	0.3357	20	285	184	7	1	2
4.6997	2.5177	3.5248	5.0354	-0.1678	-3.0212	3.3569	-4.0283	-6.546	4.364	-5.8746	-8.0566	3.0212	-2.5177	-2.0142	-6.2103	2.8534	0	20	286	185	7	1	2
5.3711	2.3499	4.0283	5.7068	0	-2.5177	3.6926	-3.8605	-6.0425	4.8676	-5.7068	-7.5531	3.6926	-2.3499	-1.6785	-5.8746	3.0212	-0.1678	20	287	186	7	1	2
6.0425	2.5177	4.6997	6.2103	0	-2.0142	4.0283	-4.0283	-5.8746	5.2032	-5.7068	-7.2174	4.0283	-2.0142	-1.5106	-5.8746	3.0212	-0.6714	20	288	187	7	1	2
6.546	2.5177	5.0354	6.546	0.1678	-1.5106	4.5319	-3.6926	-5.3711	5.8746	-5.5389	-6.8817	4.364	-1.6785	-1.0071	-5.7068	3.0212	-0.8392	20	289	188	7	1	2
6.8817	2.3499	5.5389	7.0496	0.3357	-1.3428	4.5319	-3.5248	-5.0354	6.0425	-5.3711	-6.546	4.6997	-1.3428	-0.8392	-5.7068	3.0212	-0.8392	20	290	189	7	1	2
7.2174	2.182	5.7068	7.0496	0.5035	-1.1749	4.5319	-3.5248	-4.8676	6.2103	-5.0354	-6.2103	5.0354	-1.0071	-0.5035	-5.3711	2.8534	-1.0071	20	291	190	7	1	2
3.3569	1.1749	3.6926	5.7068	2.0142	7.0496	8.0566	2.3499	6.2103	7.7209	4.5319	9.5673	10.0708	6.0425	12.4207	-6.3782	5.7068	-9.0637	20	231	130	8	1	2
3.0212	0.6714	3.3569	5.3711	1.8463	6.8817	7.8888	2.182	5.8746	7.5531	4.364	9.3994	9.903	6.2103	13.092	-6.8817	7.3853	-9.3994	20	232	131	8	1	2
2.8534	0.5035	3.1891	5.2032	1.8463	6.7139	7.5531	2.3499	5.8746	7.5531	4.364	9.0637	9.5673	6.2103	13.092	-7.2174	9.2316	-9.3994	20	233	132	8	1	2
2.6855	0.3357	3.0212	4.8676	1.8463	6.546	7.3853	2.182	5.5389	7.2174	4.364	8.728	9.2316	6.2103	13.4277	-7.5531	10.91	-9.3994	20	234	133	8	1	2
2.6855	0.3357	2.8534	4.5319	1.6785	6.3782	7.2174	2.3499	5.3711	6.8817	4.1962	8.3923	8.8959	6.2103	13.5956	-7.8888	12.2528	-9.3994	20	235	134	8	1	2
2.5177	0	2.6855	4.364	1.6785	6.2103	6.546	2.3499	5.2032	6.546	4.0283	8.0566	8.5602	6.2103	13.7634	-8.3923	13.5956	-9.5673	20	236	135	8	1	2
2.3499	0	2.5177	4.0283	2.0142	6.3782	6.3782	2.5177	5.0354	6.3782	3.8605	7.5531	8.0566	6.0425	13.5956	-8.3923	14.6027	-9.3994	20	237	136	8	1	2
2.3499	0.1678	2.5177	4.0283	2.0142	6.2103	6.2103	2.5177	4.8676	5.8746	3.8605	7.2174	7.3853	5.8746	13.2599	-8.3923	15.274	-9.5673	20	238	137	8	1	2
2.3499	0.3357	2.5177	3.8605	2.3499	6.2103	5.7068	2.6855	4.6997	5.3711	3.6926	6.8817	6.8817	5.7068	12.9242	-8.3923	15.4419	-9.3994	20	239	138	8	1	2
2.5177	0.5035	2.5177	4.0283	2.8534	6.2103	5.5389	3.0212	4.6997	5.0354	3.6926	6.546	6.2103	5.5389	12.4207	-8.0566	15.7776	-9.2316	20	240	139	8	1	2
2.8534	0.8392	2.6855	4.364	3.1891	6.3782	5.5389	3.3569	4.6997	4.8676	3.8605	6.2103	5.7068	5.3711	11.9171	-7.8888	15.6097	-9.0637	20	241	140	8	1	2
3.0212	1.3428	3.0212	4.6997	3.6926	6.3782	5.5389	3.6926	4.8676	4.6997	3.8605	6.0425	5.3711	5.2032	11.4136	-7.3853	15.4419	-8.8959	20	242	141	8	1	2
3.5248	1.6785	3.1891	4.6997	4.0283	6.546	5.5389	3.8605	4.5319	4.364	3.8605	5.8746	4.6997	5.0354	10.91	-6.7139	14.9384	-8.5602	20	243	142	8	1	2
4.0283	2.3499	3.6926	5.2032	4.5319	6.7139	5.7068	4.364	4.6997	4.364	4.0283	5.5389	4.364	4.6997	10.0708	-5.8746	14.267	-8.2245	20	244	143	8	1	2
4.5319	2.6855	4.0283	5.7068	5.2032	6.8817	5.8746	4.6997	4.8676	4.1962	4.0283	5.5389	3.8605	4.5319	9.3994	-4.8676	13.7634	-7.8888	20	245	144	8	1	2
5.3711	3.3569	4.5319	6.3782	5.8746	7.3853	6.2103	5.0354	5.2032	4.1962	4.364	5.2032	3.5248	4.1962	8.5602	-3.8605	13.092	-7.5531	20	246	145	8	1	2
6.2103	4.0283	5.0354	6.8817	6.3782	7.7209	6.546	5.5389	5.3711	4.364	4.5319	5.2032	3.1891	4.0283	7.8888	-2.5177	12.4207	-7.0496	20	247	146	8	1	2
6.7139	4.5319	5.5389	7.3853	6.8817	7.8888	6.8817	5.7068	5.3711	4.364	4.5319	5.2032	2.8534	3.6926	7.3853	-1.6785	12.085	-6.7139	20	248	147	8	1	2
7.5531	5.0354	6.2103	8.0566	7.5531	8.3923	7.2174	6.2103	5.5389	4.5319	4.8676	5.2032	2.8534	3.5248	6.546	-0.6714	11.4136	-6.0425	20	249	148	8	1	2
8.2245	5.5389	6.7139	8.728	7.8888	8.728	7.5531	6.546	5.8746	4.5319	5.3711	5.3711	2.5177	3.1891	5.8746	0.1678	10.91	-5.7068	20	250	149	8	1	2
9.0637	6.0425	7.5531	9.3994	8.3923	9.0637	8.2245	6.8817	6.2103	4.6997	5.5389	5.5389	2.5177	3.0212	5.3711	0.6714	10.5743	-5.2032	20	251	150	8	1	2
9.7351	6.546	8.2245	10.2386	9.0637	9.5673	8.5602	7.2174	6.3782	4.8676	5.8746	5.7068	2.3499	2.6855	4.8676	1.5106	10.2386	-5.0354	20	252	151	8	1	2
10.4065	6.8817	8.8959	10.91	9.3994	9.903	9.0637	7.5531	6.8817	5.2032	6.0425	5.8746	2.3499	2.3499	4.5319	1.8463	9.903	-4.6997	20	253	152	8	1	2
11.2457	7.2174	9.5673	11.5814	9.903	10.4065	9.7351	8.0566	7.2174	5.3711	6.2103	6.2103	2.3499	2.0142	4.364	2.0142	9.7351	-4.5319	20	254	153	8	1	2
11.9171	7.5531	10.2386	12.2528	10.2386	10.7422	10.0708	8.2245	7.3853	5.5389	6.546	6.3782	2.5177	1.6785	4.0283	2.0142	9.7351	-4.1962	20	255	154	8	1	2
12.5885	7.8888	11.0779	12.9242	10.5743	11.2457	10.5743	8.3923	7.7209	5.8746	6.8817	6.8817	2.8534	1.3428	3.8605	1.8463	9.5673	-4.1962	20	256	155	8	1	2
13.2599	8.0566	11.5814	13.4277	10.7422	11.5814	10.91	8.728	8.0566	6.2103	6.8817	7.2174	3.0212	1.0071	3.6926	1.6785	9.3994	-4.1962	20	257	156	8	1	2
13.7634	8.2245	12.2528	13.7634	10.7422	12.085	11.2457	8.5602	8.3923	6.3782	6.8817	7.2174	3.1891	0.6714	3.5248	1.0071	9.3994	-4.364	20	258	157	8	1	2
14.0991	8.2245	12.7563	14.0991	10.91	12.2528	11.5814	8.5602	8.5602	6.3782	6.7139	7.3853	3.3569	0.3357	3.3569	0.1678	9.2316	-4.6997	20	259	158	8	1	2
14.4348	8.3923	13.2599	14.4348	10.7422	12.5885	11.5814	8.3923	8.728	6.3782	6.546	7.3853	3.3569	0	3.1891	-0.8392	9.2316	-5.2032	20	260	159	8	1	2
14.7705	8.3923	13.5956	14.7705	10.5743	12.7563	11.7493	8.3923	8.728	6.546	6.546	7.5531	3.3569	-0.1678	3.0212	-1.6785	9.0637	-5.5389	20	261	160	8	1	2
14.9384	8.0566	13.5956	14.6027	10.4065	12.9242	11.5814	8.2245	8.728	6.3782	6.2103	7.5531	3.3569	-0.3357	2.8534	-2.8534	8.8959	-6.0425	20	262	161	8	1	2
15.1062	7.8888	13.9313	14.6027	10.2386	13.092	11.5814	7.8888	8.8959	6.3782	6.0425	7.5531	3.5248	-0.3357	2.8534	-3.8605	8.728	-6.3782	20	263	162	8	1	2
15.274	7.7209	14.0991	14.6027	10.2386	13.092	11.5814	7.8888	8.8959	6.3782	5.8746	7.5531	3.5248	-0.3357	2.8534	-4.8676	8.2245	-6.8817	20	264	163	8	1	2
15.274	7.5531	14.0991	14.6027	9.7351	13.092	11.4136	7.5531	8.8959	6.3782	5.7068	7.5531	3.5248	-0.1678	2.8534	-5.8746	7.8888	-7.3853	20	265	164	8	1	2
15.274	7.3853	14.267	14.6027	9.7351	13.2599	11.4136	7.3853	8.728	6.3782	5.5389	7.5531	3.6926	0.1678	3.1891	-6.546	7.2174	-7.5531	20	266	165	8	1	2
15.274	7.3853	14.6027	14.6027	9.5673	13.4277	11.5814	7.2174	9.0637	6.546	5.7068	7.7209	4.0283	0.6714	3.3569	-6.8817	6.8817	-7.5531	20	267	166	8	1	2
15.1062	7.3853	14.6027	14.6027	9.5673	13.7634	11.5814	7.2174	9.2316	6.546	5.7068	7.8888	4.364	1.1749	3.6926	-7.3853	6.3782	-7.5531	20	268	167	8	1	2
15.274	7.3853	14.9384	14.6027	9.7351	13.9313	11.7493	7.3853	9.3994	6.8817	5.7068	8.0566	4.6997	1.8463	4.1962	-7.5531	6.0425	-7.3853	20	269	168	8	1	2
15.274	7.2174	14.9384	14.6027	9.7351	14.267	11.9171	7.5531	9.7351	7.0496	5.8746	8.2245	4.8676	2.5177	4.6997	-7.3853	5.8746	-7.0496	20	270	169	8	1	2
14.9384	7.3853	14.9384	14.6027	9.7351	14.4348	11.9171	7.8888	9.903	7.2174	6.0425	8.2245	5.5389	3.1891	5.2032	-7.2174	5.5389	-7.0496	20	271	170	8	1	2
14.9384	7.3853	14.9384	14.4348	9.7351	14.6027	11.9171	7.8888	10.0708	7.2174	6.2103	8.3923	5.7068	3.8605	5.7068	-6.8817	5.3711	-6.7139	20	272	171	8	1	2
14.7705	7.3853	14.9384	14.267	9.2316	14.4348	11.9171	7.7209	10.0708	7.2174	6.2103	8.0566	5.8746	4.5319	6.2103	-6.2103	5.2032	-6.3782	20	273	172	8	1	2
14.4348	7.2174	14.7705	13.9313	9.2316	14.267	11.4136	7.8888	9.7351	7.0496	6.2103	8.0566	6.0425	5.2032	6.546	-5.7068	5.0354	-6.2103	20	274	173	8	1	2
14.0991	7.2174	14.4348	13.4277	8.728	14.0991	11.2457	7.5531	9.5673	6.8817	6.0425	7.5531	5.8746	5.5389	6.7139	-4.8676	5.0354	-5.8746	20	275	174	8	1	2
13.9313	6.8817	13.9313	12.9242	8.3923	13.7634	10.7422	7.2174	9.0637	6.546	5.7068	7.0496	5.7068	5.8746	6.546	-4.0283	4.8676	-5.7068	20	276	175	8	1	2
13.2599	6.546	13.5956	12.4207	7.8888	13.2599	10.2386	6.546	8.3923	6.2103	5.5389	6.546	5.3711	6.2103	6.7139	-3.1891	4.8676	-5.5389	20	277	176	8	1	2
13.092	6.3782	13.092	11.9171	7.3853	12.7563	9.903	6.2103	7.7209	5.5389	5.0354	5.7068	4.8676	6.2103	6.546	-2.0142	4.8676	-5.3711	20	278	177	8	1	2
12.4207	5.5389	12.2528	11.0779	6.546	11.7493	9.0637	5.5389	6.7139	4.8676	4.5319	4.8676	4.364	6.2103	6.2103	-1.3428	4.6997	-5.3711	20	279	178	8	1	2
12.085	5.2032	11.7493	10.5743	5.8746	10.91	8.3923	4.8676	5.8746	4.1962	3.8605	3.6926	3.6926	6.0425	6.0425	-0.5035	4.6997	-5.3711	20	280	179	8	1	2
11.5814	4.5319	10.91	9.903	5.2032	10.2386	7.7209	4.1962	4.8676	3.5248	3.3569	2.5177	3.1891	5.8746	5.8746	0.5035	4.8676	-5.2032	20	281	180	8	1	2
10.91	3.8605	10.2386	9.3994	4.1962	9.2316	7.0496	3.3569	3.8605	2.8534	2.6855	1.5106	2.182	5.5389	5.5389	1.1749	4.8676	-5.3711	20	282	181	8	1	2
10.4065	3.1891	9.5673	8.728	3.3569	8.3923	6.3782	2.6855	2.8534	2.0142	2.182	0.5035	1.6785	5.2032	5.3711	1.6785	4.6997	-5.3711	20	283	182	8	1	2
10.0708	2.6855	8.8959	8.3923	2.6855	7.5531	5.7068	2.0142	1.8463	1.3428	1.6785	-0.3357	1.0071	4.6997	5.0354	1.5106	4.8676	-5.2032	20	284	183	8	1	2
9.5673	2.182	8.2245	7.7209	1.6785	6.546	5.2032	1.3428	0.6714	0.6714	1.3428	-1.3428	0.3357	4.364	4.8676	1.5106	5.0354	-5.2032	20	285	184	8	1	2
8.8959	1.1749	7.3853	7.0496	0.8392	5.5389	4.1962	0.5035	-0.5035	-0.1678	0.6714	-2.3499	-0.3357	3.8605	4.5319	1.0071	4.8676	-5.2032	20	286	185	8	1	2
8.3923	0.6714	6.7139	6.546	0	4.5319	3.5248	-0.3357	-1.5106	-1.0071	0	-3.5248	-1.0071	3.3569	4.1962	0.5035	4.8676	-5.3711	20	287	186	8	1	2
8.0566	0	6.0425	5.7068	-0.8392	3.6926	2.6855	-1.1749	-2.6855	-2.0142	-0.5035	-4.364	-1.6785	2.8534	3.8605	-0.1678	4.6997	-5.3711	20	288	187	8	1	2
7.7209	-0.6714	5.3711	5.0354	-1.6785	2.6855	1.8463	-1.8463	-3.6926	-2.6855	-0.8392	-5.3711	-2.5177	2.3499	3.3569	-1.1749	4.6997	-5.5389	20	289	188	8	1	2
7.3853	-1.1749	4.8676	4.5319	-2.5177	1.8463	1.1749	-2.5177	-4.6997	-3.3569	-1.1749	-6.0425	-3.0212	2.0142	3.1891	-1.8463	4.6997	-5.5389	20	290	189	8	1	2
7.0496	-1.8463	4.1962	3.6926	-3.3569	1.0071	0.1678	-3.3569	-5.7068	-4.364	-1.6785	-6.8817	-3.6926	1.5106	2.8534	-2.6855	4.5319	-5.8746	20	291	190	8	1	2
-5.7068	-11.2457	-8.2245	-1.5106	-10.91	-11.9171	-1.6785	-5.7068	-9.5673	1.6785	3.8605	-0.3357	4.8676	1.5106	5.0354	4.8676	-6.0425	-3.1891	20	231	130	9	1	2
-5.3711	-11.2457	-7.8888	-1.0071	-10.91	-11.5814	-1.3428	-5.8746	-9.2316	2.0142	3.5248	-0.5035	4.8676	1.6785	5.3711	5.7068	-4.8676	-3.6926	20	232	131	9	1	2
-5.2032	-11.2457	-7.3853	-0.8392	-10.91	-11.2457	-0.8392	-6.2103	-9.0637	2.182	3.0212	-0.5035	4.8676	1.8463	5.7068	6.2103	-3.5248	-4.5319	20	233	132	9	1	2
-5.0354	-10.91	-6.8817	-0.5035	-10.91	-10.91	-0.5035	-6.2103	-8.8959	2.182	2.5177	-0.8392	4.6997	1.8463	5.8746	6.3782	-2.182	-5.2032	20	234	133	9	1	2
-4.6997	-10.7422	-6.3782	-0.3357	-10.91	-10.4065	0	-6.3782	-8.8959	2.3499	2.0142	-1.0071	4.5319	2.0142	6.2103	6.3782	-1.0071	-6.0425	20	235	134	9	1	2
-4.5319	-10.4065	-6.0425	0.1678	-10.5743	-9.903	0.3357	-6.546	-8.728	2.5177	1.5106	-1.1749	4.364	2.182	6.546	6.3782	0	-6.7139	20	236	135	9	1	2
-4.1962	-9.903	-5.5389	0.5035	-10.5743	-9.7351	0.6714	-6.7139	-8.728	2.5177	1.0071	-1.3428	4.364	2.3499	6.7139	6.2103	1.1749	-7.7209	20	237	136	9	1	2
-3.8605	-9.3994	-5.0354	0.8392	-10.2386	-9.2316	1.1749	-6.7139	-8.5602	2.8534	0.5035	-1.3428	4.1962	2.5177	6.8817	5.8746	2.0142	-8.3923	20	238	137	9	1	2
-3.5248	-8.8959	-4.364	1.3428	-10.0708	-8.728	1.6785	-6.7139	-8.2245	2.8534	0.1678	-1.5106	4.0283	2.6855	7.0496	5.3711	2.8534	-9.0637	20	239	138	9	1	2
-3.0212	-8.3923	-3.8605	2.0142	-9.5673	-8.2245	2.182	-6.7139	-8.0566	3.0212	-0.1678	-1.6785	3.8605	2.8534	7.2174	4.8676	3.3569	-9.7351	20	240	139	9	1	2
-2.5177	-7.7209	-3.3569	2.5177	-9.2316	-7.7209	2.8534	-6.546	-7.8888	3.1891	-0.6714	-1.8463	3.6926	3.0212	7.2174	4.364	3.8605	-10.2386	20	241	140	9	1	2
-2.0142	-7.0496	-2.6855	3.1891	-8.728	-7.2174	3.5248	-6.3782	-7.5531	3.1891	-1.1749	-2.0142	3.5248	3.1891	7.2174	3.8605	4.1962	-10.7422	20	242	141	9	1	2
-1.5106	-6.2103	-2.0142	3.8605	-8.2245	-6.7139	4.0283	-6.2103	-7.3853	3.3569	-1.5106	-2.182	3.3569	3.3569	7.0496	3.3569	4.364	-11.2457	20	243	142	9	1	2
-1.0071	-5.3711	-1.3428	4.364	-7.5531	-6.2103	4.6997	-5.8746	-7.3853	3.3569	-2.0142	-2.3499	3.0212	3.5248	6.7139	2.8534	4.364	-11.4136	20	244	143	9	1	2
-0.3357	-4.5319	-0.6714	5.0354	-6.8817	-5.5389	4.8676	-5.5389	-7.0496	3.1891	-2.3499	-2.8534	2.6855	3.5248	6.2103	2.3499	4.1962	-11.5814	20	245	144	9	1	2
0	-4.0283	-0.1678	5.5389	-6.3782	-5.2032	5.3711	-5.3711	-6.8817	3.3569	-2.5177	-3.0212	2.3499	3.6926	5.8746	2.182	4.364	-11.7493	20	246	145	9	1	2
0.6714	-3.0212	0.5035	6.2103	-5.8746	-4.8676	5.7068	-5.0354	-6.7139	3.0212	-2.8534	-3.1891	2.0142	3.6926	5.3711	1.8463	4.1962	-11.5814	20	247	146	9	1	2
1.1749	-2.5177	1.0071	6.7139	-5.2032	-4.364	5.8746	-4.8676	-6.3782	3.0212	-2.8534	-3.3569	1.8463	3.8605	5.0354	1.6785	4.0283	-11.5814	20	248	147	9	1	2
1.6785	-1.6785	1.6785	7.2174	-4.6997	-4.0283	6.0425	-4.5319	-6.546	2.8534	-3.1891	-3.5248	1.1749	3.6926	4.1962	1.1749	3.6926	-11.5814	20	249	148	9	1	2
2.182	-1.1749	2.0142	7.7209	-4.1962	-3.8605	6.2103	-4.1962	-6.2103	2.5177	-3.3569	-3.6926	1.0071	3.6926	3.5248	0.8392	3.5248	-11.4136	20	250	149	9	1	2
2.5177	-0.5035	2.5177	8.0566	-3.6926	-3.5248	6.0425	-4.0283	-6.2103	2.3499	-3.3569	-3.8605	0.6714	3.5248	2.8534	0.1678	3.0212	-11.2457	20	251	150	9	1	2
3.0212	0.1678	2.8534	8.3923	-3.1891	-3.3569	6.2103	-3.8605	-6.2103	2.182	-3.3569	-4.0283	0.3357	3.3569	2.182	-1.0071	2.5177	-11.2457	20	252	151	9	1	2
3.3569	0.6714	3.1891	8.728	-2.6855	-2.8534	6.0425	-3.5248	-6.0425	2.182	-3.3569	-4.0283	0.1678	3.1891	1.5106	-1.8463	1.8463	-11.0779	20	253	152	9	1	2
3.8605	1.3428	3.6926	9.0637	-2.3499	-2.5177	5.8746	-3.3569	-5.8746	1.8463	-3.3569	-4.1962	-0.1678	3.0212	0.8392	-2.6855	1.0071	-11.0779	20	254	153	9	1	2
4.364	1.8463	4.1962	9.2316	-1.8463	-2.5177	5.7068	-3.3569	-5.8746	1.8463	-3.3569	-4.364	-0.6714	2.6855	0	-3.5248	-0.1678	-10.91	20	255	154	9	1	2
4.8676	2.182	4.5319	9.5673	-1.3428	-2.182	5.5389	-3.1891	-6.0425	1.6785	-3.3569	-4.5319	-1.0071	2.5177	-0.8392	-4.1962	-1.0071	-10.91	20	256	155	9	1	2
5.3711	2.6855	4.8676	9.7351	-1.0071	-1.8463	5.3711	-3.0212	-5.8746	1.5106	-3.3569	-4.6997	-1.3428	2.3499	-1.6785	-5.0354	-2.0142	-10.91	20	257	156	9	1	2
5.7068	3.1891	5.3711	9.903	-0.6714	-1.6785	5.2032	-2.8534	-5.7068	1.3428	-3.3569	-4.6997	-1.6785	2.182	-2.6855	-5.7068	-3.0212	-10.91	20	258	157	9	1	2
5.8746	3.6926	5.8746	10.0708	-0.3357	-1.1749	5.0354	-2.3499	-5.5389	1.1749	-3.1891	-4.8676	-1.6785	2.182	-3.3569	-6.2103	-3.8605	-11.0779	20	259	158	9	1	2
6.3782	3.8605	6.0425	10.0708	-0.1678	-1.0071	5.0354	-2.3499	-5.7068	1.3428	-3.3569	-5.0354	-2.0142	2.0142	-4.364	-6.546	-4.364	-10.91	20	260	159	9	1	2
6.546	4.1962	6.3782	10.4065	0	-0.6714	4.8676	-2.3499	-5.5389	1.1749	-3.1891	-5.2032	-2.182	2.0142	-5.0354	-7.0496	-5.2032	-11.2457	20	261	160	9	1	2
7.0496	4.364	6.7139	10.7422	0.3357	-0.1678	4.8676	-2.182	-5.2032	1.3428	-3.1891	-5.0354	-2.3499	2.0142	-5.7068	-6.8817	-5.5389	-11.0779	20	262	161	9	1	2
7.3853	4.6997	7.0496	10.7422	0.5035	0.1678	5.2032	-1.8463	-5.2032	1.5106	-3.1891	-5.0354	-2.3499	2.0142	-6.2103	-7.0496	-5.8746	-11.2457	20	263	162	9	1	2
7.7209	5.0354	7.3853	11.2457	0.8392	0.6714	5.3711	-1.5106	-4.6997	2.0142	-2.8534	-4.6997	-2.0142	2.182	-6.3782	-7.0496	-5.7068	-11.2457	20	264	163	9	1	2
8.0566	5.3711	8.0566	11.5814	1.1749	1.5106	5.8746	-1.3428	-4.364	2.5177	-2.5177	-4.364	-1.6785	2.3499	-6.2103	-6.8817	-5.5389	-11.2457	20	265	164	9	1	2
8.5602	5.8746	8.5602	12.085	1.8463	2.182	6.546	-0.6714	-3.6926	3.1891	-2.182	-3.8605	-1.0071	2.6855	-6.0425	-6.546	-5.2032	-11.2457	20	266	165	9	1	2
9.0637	6.2103	9.0637	12.7563	2.182	3.0212	7.2174	-0.3357	-2.8534	3.8605	-1.6785	-3.3569	-0.3357	2.8534	-5.5389	-5.3711	-4.5319	-10.5743	20	267	166	9	1	2
9.5673	6.7139	9.903	13.4277	2.8534	3.8605	8.0566	0.3357	-2.0142	4.6997	-1.1749	-2.6855	0.5035	3.1891	-4.8676	-4.364	-3.6926	-10.2386	20	268	167	9	1	2
9.7351	7.2174	10.4065	13.7634	3.1891	4.5319	8.728	0.8392	-1.5106	5.3711	-0.6714	-2.182	1.1749	3.1891	-4.364	-3.0212	-2.8534	-9.7351	20	269	168	9	1	2
10.0708	7.7209	11.0779	14.4348	3.8605	5.3711	9.5673	1.3428	-0.8392	6.2103	0	-1.5106	2.182	3.3569	-3.5248	-1.3428	-1.8463	-9.0637	20	270	169	9	1	2
10.4065	8.0566	11.5814	14.7705	4.364	6.2103	10.2386	1.8463	-0.1678	7.0496	0.5035	-0.8392	3.0212	3.3569	-2.6855	0.3357	-0.8392	-8.3923	20	271	170	9	1	2
10.91	8.5602	12.2528	15.4419	5.0354	7.0496	11.0779	2.6855	0.6714	7.8888	1.3428	0	4.0283	3.5248	-1.6785	2.3499	0.3357	-7.7209	20	272	171	9	1	2
10.91	8.8959	12.4207	15.7776	5.3711	7.5531	11.7493	3.0212	1.1749	8.5602	1.8463	0.3357	4.8676	3.3569	-1.0071	4.1962	1.1749	-6.8817	20	273	172	9	1	2
11.0779	9.2316	12.7563	16.1133	5.8746	8.0566	12.085	3.5248	1.6785	9.0637	2.3499	0.8392	5.5389	3.1891	-0.1678	6.0425	1.8463	-6.2103	20	274	173	9	1	2
10.91	9.5673	13.092	16.1133	6.2103	8.5602	12.5885	3.8605	1.8463	9.5673	2.8534	1.3428	6.2103	3.0212	0.3357	7.7209	2.182	-5.8746	20	275	174	9	1	2
10.91	9.5673	13.092	16.1133	6.3782	8.5602	12.7563	4.1962	2.0142	9.7351	3.1891	1.5106	6.546	2.6855	0.6714	9.2316	2.182	-5.2032	20	276	175	9	1	2
10.5743	9.7351	13.092	15.7776	6.546	8.728	12.7563	4.364	2.0142	9.903	3.5248	1.6785	6.7139	2.3499	0.8392	10.5743	1.8463	-4.6997	20	277	176	9	1	2
10.4065	9.903	13.092	15.6097	6.7139	8.728	12.9242	4.6997	2.182	10.0708	4.0283	2.0142	6.8817	2.182	1.1749	11.9171	1.5106	-4.0283	20	278	177	9	1	2
10.0708	9.903	12.9242	15.1062	6.7139	8.728	12.7563	4.6997	2.182	9.903	4.364	2.0142	6.8817	1.8463	1.0071	12.7563	1.0071	-3.3569	20	279	178	9	1	2
9.5673	9.7351	12.5885	14.6027	6.7139	8.3923	12.4207	4.6997	2.0142	9.7351	4.5319	2.182	6.8817	1.5106	1.0071	13.4277	0.5035	-2.8534	20	280	179	9	1	2
8.8959	9.3994	11.9171	13.5956	6.546	7.8888	11.9171	4.5319	1.6785	9.0637	4.5319	2.0142	6.546	1.0071	0.5035	13.4277	-0.1678	-2.6855	20	281	180	9	1	2
8.2245	9.3994	11.5814	12.9242	6.3782	7.5531	11.4136	4.364	1.3428	8.728	4.6997	1.6785	6.3782	0.6714	0.3357	13.092	-0.5035	-2.182	20	282	181	9	1	2
7.3853	8.8959	10.91	12.085	6.0425	7.0496	10.7422	4.1962	0.8392	8.2245	4.6997	1.5106	6.0425	0.3357	0.1678	12.4207	-0.8392	-1.8463	20	283	182	9	1	2
6.546	8.3923	10.0708	11.2457	5.5389	6.3782	10.0708	3.8605	0.3357	7.5531	4.6997	1.3428	5.7068	0	-0.1678	11.0779	-1.3428	-1.5106	20	284	183	9	1	2
5.7068	8.0566	9.3994	10.2386	5.0354	5.8746	9.2316	3.6926	-0.1678	6.8817	4.6997	1.1749	5.2032	-0.1678	-0.5035	9.903	-2.0142	-1.5106	20	285	184	9	1	2
4.6997	7.5531	8.3923	9.2316	4.364	5.0354	8.5602	3.0212	-0.8392	6.2103	4.5319	0.8392	4.5319	-0.3357	-0.8392	8.3923	-2.5177	-1.3428	20	286	185	9	1	2
4.0283	7.0496	7.5531	8.3923	3.8605	4.364	7.5531	2.6855	-1.5106	5.5389	4.364	0.3357	4.0283	-0.3357	-1.1749	6.7139	-3.3569	-1.1749	20	287	186	9	1	2
3.0212	6.3782	6.546	7.2174	3.0212	3.6926	6.8817	2.182	-2.0142	4.8676	4.1962	0	3.5248	-0.3357	-1.3428	5.0354	-4.1962	-1.1749	20	288	187	9	1	2
2.0142	5.7068	5.5389	6.546	2.182	2.8534	6.0425	1.5106	-3.0212	4.0283	3.8605	-0.3357	3.0212	-0.1678	-1.5106	3.6926	-4.8676	-1.3428	20	289	188	9	1	2
1.3428	4.6997	4.364	5.7068	1.1749	2.182	5.3711	0.8392	-3.6926	3.3569	3.5248	-0.8392	2.5177	0.1678	-2.0142	2.3499	-5.3711	-1.5106	20	290	189	9	1	2
0.3357	3.8605	3.3569	4.8676	0.1678	1.1749	4.364	0	-4.5319	2.6855	3.0212	-1.3428	2.0142	0.3357	-2.182	1.3428	-5.7068	-1.6785	20	291	190	9	1	2
-9.0637	-6.7139	-3.6926	-3.8605	-3.0212	-0.8392	1.0071	-0.5035	-0.6714	2.3499	-1.3428	-1.1749	0.6714	-0.5035	0.1678	-4.364	-2.0142	2.182	20	231	130	10	1	2
-8.728	-6.3782	-3.5248	-3.6926	-2.5177	-0.6714	1.0071	-0.1678	-0.5035	2.3499	-1.0071	-1.0071	0.5035	-0.6714	0.1678	-5.7068	-2.0142	2.3499	20	232	131	10	1	2
-8.728	-6.2103	-3.6926	-3.8605	-2.182	-0.6714	1.1749	0.3357	-0.1678	2.3499	-0.3357	-0.8392	0.5035	-0.8392	0.3357	-7.0496	-1.6785	2.6855	20	233	132	10	1	2
-8.728	-5.8746	-3.6926	-3.6926	-1.6785	-0.6714	1.0071	0.8392	-0.1678	2.182	0	-0.3357	0.5035	-0.8392	0.3357	-7.8888	-1.3428	2.8534	20	234	133	10	1	2
-8.5602	-5.5389	-3.6926	-3.6926	-1.1749	-0.5035	1.0071	1.1749	0.1678	2.182	0.5035	0	0.3357	-0.8392	0.5035	-8.5602	-0.8392	3.1891	20	235	134	10	1	2
-8.5602	-5.2032	-3.8605	-3.6926	-0.6714	-0.5035	1.0071	1.6785	0.1678	2.182	1.0071	0.1678	0.3357	-0.8392	0.5035	-9.0637	-0.3357	3.5248	20	236	135	10	1	2
-8.5602	-4.6997	-3.8605	-3.5248	-0.3357	-0.5035	1.0071	2.0142	0.3357	2.182	1.5106	0.5035	0.1678	-0.8392	0.6714	-9.0637	0.3357	3.8605	20	237	136	10	1	2
-8.5602	-4.5319	-4.0283	-3.5248	0.1678	-0.5035	1.0071	2.5177	0.3357	2.0142	1.8463	0.6714	0	-0.8392	0.6714	-8.728	0.8392	4.1962	20	238	137	10	1	2
-8.728	-4.364	-4.364	-3.6926	0.8392	-0.3357	1.1749	2.8534	0.5035	2.182	2.3499	1.0071	0.1678	-0.8392	0.8392	-8.0566	1.6785	4.5319	20	239	138	10	1	2
-8.8959	-4.1962	-4.5319	-3.6926	1.1749	-0.3357	1.1749	3.1891	0.8392	2.182	2.6855	1.1749	0	-0.8392	0.8392	-7.2174	2.182	4.8676	20	240	139	10	1	2
-8.5602	-3.8605	-4.5319	-3.5248	1.3428	-0.1678	1.1749	3.6926	0.8392	2.3499	3.0212	1.3428	-0.1678	-0.6714	0.8392	-5.7068	2.8534	5.0354	20	241	140	10	1	2
-8.728	-3.6926	-4.6997	-3.3569	1.6785	-0.1678	1.1749	3.8605	0.8392	2.3499	3.1891	1.3428	-0.1678	-0.6714	0.6714	-4.5319	3.3569	5.2032	20	242	141	10	1	2
-8.728	-3.3569	-4.6997	-3.1891	2.0142	-0.1678	1.1749	4.1962	0.8392	2.5177	3.5248	1.5106	-0.1678	-0.6714	0.6714	-3.0212	3.8605	5.3711	20	243	142	10	1	2
-8.728	-3.1891	-4.6997	-3.0212	2.3499	0	1.1749	4.5319	1.0071	2.6855	3.6926	1.6785	0	-0.6714	0.6714	-1.5106	4.364	5.5389	20	244	143	10	1	2
-8.728	-3.0212	-4.8676	-3.0212	2.8534	0	1.5106	4.8676	1.1749	3.0212	4.0283	1.8463	0	-0.8392	0.6714	0.1678	4.8676	5.7068	20	245	144	10	1	2
-8.8959	-2.8534	-4.8676	-2.6855	3.0212	0.1678	1.6785	5.0354	1.3428	3.1891	4.0283	1.8463	0	-1.0071	0.6714	1.6785	5.2032	5.7068	20	246	145	10	1	2
-8.728	-2.6855	-4.6997	-2.5177	3.3569	0.5035	1.6785	5.0354	1.3428	3.3569	4.0283	1.6785	0	-1.1749	0.3357	2.8534	5.2032	5.5389	20	247	146	10	1	2
-8.8959	-2.5177	-4.5319	-2.182	3.8605	0.8392	2.0142	5.3711	1.5106	3.6926	4.0283	1.8463	0.1678	-1.5106	0.3357	4.364	5.5389	5.5389	20	248	147	10	1	2
-8.8959	-2.3499	-4.364	-1.8463	4.1962	1.0071	2.3499	5.5389	1.6785	4.0283	4.0283	1.6785	0.3357	-1.8463	0.1678	5.5389	5.5389	5.5389	20	249	148	10	1	2
-8.8959	-2.0142	-4.0283	-1.5106	4.1962	1.1749	2.3499	5.3711	1.6785	4.1962	3.8605	1.5106	0.3357	-2.182	0	6.2103	5.2032	5.2032	20	250	149	10	1	2
-8.5602	-1.6785	-3.6926	-1.1749	4.5319	1.5106	2.8534	5.5389	1.8463	4.5319	3.6926	1.3428	0.5035	-2.5177	-0.1678	6.8817	4.8676	5.0354	20	251	150	10	1	2
-8.3923	-1.5106	-3.1891	-0.5035	4.6997	1.8463	3.1891	5.5389	2.0142	4.8676	3.5248	1.3428	0.6714	-2.8534	-0.3357	7.2174	4.1962	4.8676	20	252	151	10	1	2
-8.0566	-1.0071	-2.5177	0	4.8676	2.182	3.5248	5.3711	2.182	5.2032	3.3569	1.1749	0.8392	-3.1891	-0.3357	7.3853	3.5248	4.5319	20	253	152	10	1	2
-7.7209	-0.6714	-2.0142	0.5035	4.8676	2.5177	3.8605	5.2032	2.3499	5.3711	3.0212	1.0071	0.8392	-3.5248	-0.5035	7.2174	2.8534	4.364	20	254	153	10	1	2
-7.3853	-0.3357	-1.3428	1.0071	4.8676	2.8534	4.1962	5.0354	2.5177	5.5389	2.6855	0.6714	1.0071	-3.8605	-0.6714	7.2174	2.0142	4.0283	20	255	154	10	1	2
-6.7139	-0.1678	-0.6714	1.5106	4.6997	3.0212	4.5319	5.0354	2.5177	5.7068	2.3499	0.3357	1.0071	-4.1962	-1.0071	6.8817	1.1749	3.6926	20	256	155	10	1	2
-6.2103	0.1678	-0.1678	2.182	4.6997	3.3569	5.0354	4.6997	2.6855	6.0425	2.0142	0.1678	1.1749	-4.5319	-1.1749	6.7139	0.6714	3.5248	20	257	156	10	1	2
-5.5389	0.3357	0.6714	2.8534	4.5319	3.6926	5.2032	4.1962	2.5177	6.0425	1.3428	-0.3357	1.0071	-4.6997	-1.3428	6.0425	0	3.0212	20	258	157	10	1	2
-4.6997	0.6714	1.3428	3.3569	4.1962	3.8605	5.7068	3.6926	2.3499	6.0425	0.8392	-0.6714	1.0071	-4.8676	-1.5106	5.7068	-0.3357	2.5177	20	259	158	10	1	2
-4.1962	1.0071	1.8463	4.0283	3.8605	4.1962	6.0425	3.3569	2.182	6.0425	0.3357	-1.3428	1.0071	-5.0354	-1.6785	5.2032	-0.5035	2.3499	20	260	159	10	1	2
-3.1891	0.8392	2.5177	4.5319	3.3569	4.1962	6.0425	2.5177	1.6785	5.7068	-0.3357	-1.6785	0.6714	-5.0354	-1.6785	4.364	-0.6714	1.6785	20	261	160	10	1	2
-2.6855	1.0071	3.1891	4.8676	2.6855	4.0283	6.0425	1.8463	1.5106	5.5389	-1.1749	-2.182	0.5035	-5.0354	-1.8463	3.6926	-0.6714	1.3428	20	262	161	10	1	2
-2.182	1.0071	3.5248	5.0354	2.0142	4.0283	6.0425	1.1749	1.0071	5.2032	-2.0142	-3.0212	0.1678	-5.0354	-1.8463	3.0212	-0.6714	0.8392	20	263	162	10	1	2
-1.5106	0.8392	3.8605	5.3711	1.3428	4.0283	5.8746	0.3357	0.5035	4.8676	-2.6855	-3.6926	0	-5.0354	-2.0142	2.3499	-0.5035	0.6714	20	264	163	10	1	2
-1.0071	0.6714	4.0283	5.3711	0.6714	3.6926	5.7068	-0.6714	-0.1678	4.5319	-3.6926	-4.5319	-0.3357	-4.8676	-2.0142	1.8463	-0.5035	0.3357	20	265	164	10	1	2
-0.6714	0.3357	4.0283	5.2032	-0.5035	3.1891	5.2032	-1.5106	-1.0071	3.8605	-4.5319	-5.2032	-0.8392	-4.6997	-2.0142	1.1749	-0.6714	-0.1678	20	266	165	10	1	2
-0.3357	0	4.0283	5.2032	-1.5106	2.6855	4.8676	-2.6855	-1.6785	3.5248	-5.3711	-5.8746	-1.1749	-4.5319	-2.0142	0.6714	-0.8392	-0.6714	20	267	166	10	1	2
-0.1678	-0.3357	4.0283	5.0354	-2.5177	2.182	4.5319	-3.5248	-2.6855	3.1891	-6.2103	-6.7139	-1.6785	-4.364	-2.0142	0.1678	-0.8392	-0.8392	20	268	167	10	1	2
0	-1.0071	3.8605	4.6997	-3.5248	1.6785	4.0283	-4.364	-3.3569	2.6855	-7.0496	-7.5531	-2.182	-4.1962	-2.0142	-0.5035	-1.1749	-1.1749	20	269	168	10	1	2
0.1678	-1.3428	3.5248	4.1962	-4.364	1.1749	3.3569	-5.2032	-4.1962	2.0142	-7.8888	-8.2245	-2.5177	-4.0283	-2.0142	-1.5106	-1.8463	-1.6785	20	270	169	10	1	2
0.1678	-1.8463	3.0212	3.6926	-5.3711	0.5035	2.8534	-6.0425	-4.8676	1.3428	-8.5602	-8.8959	-2.8534	-3.8605	-2.0142	-2.8534	-2.3499	-2.0142	20	271	170	10	1	2
-0.1678	-2.5177	2.5177	3.1891	-6.3782	-0.1678	2.182	-7.0496	-6.0425	0.8392	-9.2316	-9.7351	-3.1891	-3.8605	-2.3499	-4.364	-3.0212	-2.182	20	272	171	10	1	2
-0.3357	-3.0212	1.8463	2.5177	-7.2174	-0.8392	1.5106	-7.7209	-6.7139	0.3357	-10.0708	-10.5743	-3.6926	-3.6926	-2.3499	-6.0425	-3.6926	-2.6855	20	273	172	10	1	2
-0.5035	-3.3569	1.1749	1.8463	-7.8888	-1.6785	0.6714	-8.3923	-7.5531	-0.5035	-10.5743	-11.0779	-4.0283	-3.5248	-2.3499	-7.7209	-4.1962	-3.1891	20	274	173	10	1	2
-0.8392	-3.8605	0.5035	1.1749	-8.728	-2.5177	0	-9.0637	-8.3923	-0.8392	-11.0779	-11.9171	-4.5319	-3.5248	-2.5177	-9.2316	-4.5319	-3.3569	20	275	174	10	1	2
-1.0071	-4.1962	0	0.6714	-9.2316	-3.0212	-0.3357	-9.7351	-9.2316	-1.6785	-11.5814	-12.5885	-4.8676	-3.3569	-2.3499	-10.4065	-4.5319	-3.5248	20	276	175	10	1	2
-1.3428	-4.364	-0.6714	-0.1678	-9.7351	-3.6926	-1.1749	-10.0708	-9.903	-2.182	-11.9171	-13.092	-5.0354	-3.1891	-2.3499	-11.2457	-4.364	-3.8605	20	277	176	10	1	2
-1.6785	-4.5319	-1.1749	-0.8392	-10.0708	-4.364	-1.8463	-10.4065	-10.5743	-2.5177	-12.2528	-13.5956	-5.2032	-3.0212	-2.0142	-11.7493	-4.0283	-3.6926	20	278	177	10	1	2
-2.0142	-4.8676	-2.182	-1.5106	-10.5743	-5.0354	-2.5177	-10.7422	-11.2457	-3.0212	-12.5885	-14.267	-5.7068	-3.0212	-1.8463	-11.9171	-3.6926	-3.8605	20	279	178	10	1	2
-2.3499	-5.0354	-2.8534	-2.182	-10.7422	-5.7068	-2.8534	-10.91	-11.9171	-3.1891	-12.5885	-14.6027	-5.7068	-2.8534	-1.3428	-11.7493	-3.0212	-3.6926	20	280	179	10	1	2
-2.6855	-5.0354	-3.1891	-2.5177	-10.91	-6.0425	-3.1891	-11.0779	-12.2528	-3.3569	-12.7563	-15.1062	-5.8746	-2.6855	-1.0071	-11.2457	-2.182	-3.3569	20	281	180	10	1	2
-3.0212	-5.2032	-3.8605	-2.8534	-10.7422	-6.546	-3.3569	-10.91	-12.5885	-3.5248	-12.7563	-15.274	-5.8746	-2.5177	-0.6714	-10.4065	-1.5106	-3.3569	20	282	181	10	1	2
-3.3569	-5.3711	-4.364	-3.1891	-11.0779	-7.0496	-3.6926	-10.91	-12.9242	-3.6926	-12.7563	-15.6097	-6.0425	-2.5177	-0.1678	-9.3994	-0.5035	-3.0212	20	283	182	10	1	2
-3.6926	-5.5389	-4.8676	-3.5248	-10.91	-7.3853	-3.8605	-10.91	-13.2599	-3.8605	-12.7563	-15.9454	-6.0425	-2.5177	0.3357	-8.3923	0.1678	-2.8534	20	284	183	10	1	2
-3.8605	-5.5389	-5.3711	-3.6926	-10.5743	-7.5531	-3.8605	-10.5743	-13.2599	-3.6926	-12.4207	-15.9454	-5.8746	-2.3499	0.6714	-7.0496	1.0071	-2.5177	20	285	184	10	1	2
-4.1962	-5.8746	-5.7068	-3.8605	-10.5743	-7.8888	-4.0283	-10.5743	-13.5956	-3.6926	-12.4207	-16.2811	-6.0425	-2.5177	1.1749	-6.0425	1.6785	-2.3499	20	286	185	10	1	2
-4.5319	-5.8746	-6.2103	-4.0283	-10.4065	-8.0566	-3.8605	-10.0708	-13.5956	-3.8605	-12.085	-16.1133	-6.0425	-2.5177	1.5106	-5.0354	2.3499	-2.182	20	287	186	10	1	2
-4.6997	-6.0425	-6.546	-4.0283	-10.0708	-8.0566	-4.0283	-9.903	-13.4277	-3.8605	-11.9171	-16.1133	-6.0425	-2.5177	1.8463	-4.0283	3.0212	-2.0142	20	288	187	10	1	2
-4.8676	-6.2103	-6.8817	-3.8605	-9.5673	-8.0566	-3.8605	-9.5673	-13.4277	-3.6926	-11.5814	-16.1133	-5.8746	-2.5177	2.0142	-3.1891	3.6926	-1.8463	20	289	188	10	1	2
-5.0354	-6.2103	-7.0496	-3.8605	-9.3994	-8.0566	-3.8605	-9.0637	-13.092	-3.6926	-11.0779	-15.7776	-5.7068	-2.5177	2.3499	-2.6855	4.1962	-1.6785	20	290	189	10	1	2
-5.3711	-6.3782	-7.3853	-3.8605	-9.0637	-8.0566	-3.6926	-8.728	-13.092	-3.6926	-10.91	-15.7776	-5.7068	-2.6855	2.6855	-2.0142	4.6997	-1.5106	20	291	190	10	1	2
-3.8605	-3.6926	-8.8959	-8.2245	-5.2032	-13.092	-9.2316	-6.546	-15.6097	-11.2457	-4.0283	-11.5814	-11.2457	-0.1678	-5.2032	0.6714	-1.1749	-1.6785	20	231	130	11	1	2
-3.3569	-3.5248	-8.728	-8.2245	-4.6997	-12.5885	-8.8959	-6.2103	-15.274	-11.0779	-3.8605	-11.4136	-11.2457	0.1678	-5.3711	-0.1678	-1.3428	-1.8463	20	232	131	11	1	2
-3.0212	-3.1891	-8.3923	-7.8888	-4.5319	-12.4207	-8.728	-6.0425	-14.9384	-11.0779	-3.8605	-11.4136	-11.2457	0.5035	-5.5389	-1.0071	-1.6785	-2.182	20	233	132	11	1	2
-2.6855	-2.8534	-8.0566	-7.5531	-4.364	-12.085	-8.5602	-5.8746	-14.6027	-10.91	-3.8605	-11.0779	-11.2457	0.8392	-5.7068	-1.6785	-1.6785	-2.5177	20	234	133	11	1	2
-2.5177	-2.8534	-7.8888	-7.3853	-4.0283	-11.7493	-8.2245	-5.8746	-14.4348	-10.91	-3.8605	-11.0779	-11.4136	1.0071	-5.8746	-2.3499	-1.8463	-2.8534	20	235	134	11	1	2
-2.0142	-2.6855	-7.5531	-7.2174	-4.0283	-11.5814	-8.0566	-5.7068	-14.0991	-10.7422	-3.8605	-10.91	-11.4136	1.1749	-6.2103	-2.6855	-1.8463	-3.1891	20	236	135	11	1	2
-1.8463	-2.6855	-7.5531	-7.0496	-4.0283	-11.4136	-7.8888	-5.7068	-13.9313	-10.7422	-4.0283	-10.91	-11.5814	1.1749	-6.546	-2.6855	-1.8463	-3.6926	20	237	136	11	1	2
-1.6785	-2.5177	-7.0496	-6.7139	-4.0283	-11.0779	-7.7209	-5.8746	-13.7634	-10.91	-3.8605	-10.5743	-11.5814	1.1749	-6.8817	-2.6855	-1.6785	-4.0283	20	238	137	11	1	2
-1.3428	-2.5177	-6.8817	-6.546	-4.0283	-10.91	-7.7209	-5.8746	-13.4277	-10.91	-4.0283	-10.4065	-11.5814	1.0071	-7.2174	-2.5177	-1.5106	-4.1962	20	239	138	11	1	2
-1.3428	-2.6855	-6.7139	-6.546	-3.6926	-10.5743	-7.7209	-5.8746	-13.092	-10.5743	-3.8605	-10.2386	-11.5814	0.6714	-7.5531	-1.8463	-1.5106	-4.364	20	240	139	11	1	2
-1.0071	-2.6855	-6.546	-6.2103	-3.6926	-10.2386	-7.3853	-5.8746	-12.5885	-10.5743	-3.8605	-10.0708	-11.5814	0.3357	-7.8888	-1.1749	-1.3428	-4.5319	20	241	140	11	1	2
-0.6714	-2.6855	-6.2103	-6.0425	-3.5248	-9.903	-7.2174	-5.7068	-12.2528	-10.2386	-3.6926	-9.7351	-11.5814	0	-8.2245	-0.5035	-1.0071	-4.6997	20	242	141	11	1	2
-0.5035	-2.5177	-5.7068	-5.7068	-3.3569	-9.3994	-6.8817	-5.5389	-11.7493	-9.903	-3.5248	-9.3994	-11.4136	-0.3357	-8.3923	0.5035	-0.6714	-4.6997	20	243	142	11	1	2
0	-2.3499	-5.3711	-5.2032	-3.0212	-8.8959	-6.546	-5.3711	-11.0779	-9.3994	-3.3569	-9.0637	-11.2457	-0.6714	-8.5602	1.5106	-0.3357	-4.6997	20	244	143	11	1	2
0.3357	-2.182	-4.6997	-4.8676	-2.6855	-8.3923	-6.0425	-5.2032	-10.5743	-8.8959	-3.1891	-8.5602	-10.91	-1.0071	-8.728	2.5177	0.1678	-4.6997	20	245	144	11	1	2
0.5035	-2.0142	-4.1962	-4.364	-2.3499	-7.8888	-5.8746	-4.8676	-9.903	-8.3923	-2.8534	-8.2245	-10.5743	-1.3428	-8.8959	3.5248	0.5035	-4.6997	20	246	145	11	1	2
1.1749	-1.5106	-3.5248	-3.6926	-2.0142	-7.2174	-5.2032	-4.6997	-9.0637	-7.5531	-2.5177	-7.7209	-10.0708	-1.5106	-8.8959	4.1962	1.1749	-4.6997	20	247	146	11	1	2
1.5106	-1.3428	-2.8534	-3.1891	-1.5106	-6.7139	-4.6997	-4.364	-8.5602	-7.0496	-2.3499	-7.3853	-9.903	-1.8463	-8.8959	5.0354	1.6785	-4.5319	20	248	147	11	1	2
2.0142	-0.8392	-2.182	-2.3499	-1.0071	-6.0425	-4.0283	-4.0283	-7.7209	-6.2103	-2.0142	-6.8817	-9.3994	-2.0142	-9.0637	5.8746	2.0142	-4.6997	20	249	148	11	1	2
2.3499	-0.6714	-1.8463	-2.0142	-0.5035	-5.3711	-3.6926	-3.6926	-7.2174	-5.7068	-2.182	-6.8817	-9.2316	-2.3499	-8.8959	6.2103	2.5177	-4.6997	20	250	149	11	1	2
2.8534	-0.1678	-1.0071	-1.3428	0.1678	-4.6997	-3.0212	-3.3569	-6.546	-5.0354	-1.8463	-6.3782	-8.728	-2.5177	-8.8959	6.546	3.0212	-4.6997	20	251	150	11	1	2
3.1891	0.3357	-0.3357	-0.6714	0.8392	-4.0283	-2.5177	-2.8534	-5.8746	-4.5319	-1.6785	-6.0425	-8.3923	-2.8534	-8.728	7.0496	3.3569	-4.6997	20	252	151	11	1	2
3.8605	1.0071	0.3357	-0.1678	1.3428	-3.3569	-2.182	-2.5177	-5.5389	-3.8605	-1.5106	-5.5389	-7.8888	-3.0212	-8.5602	7.3853	3.6926	-4.5319	20	253	152	11	1	2
4.1962	1.3428	0.8392	0.1678	2.0142	-2.8534	-1.6785	-2.0142	-4.8676	-3.3569	-1.3428	-5.2032	-7.3853	-3.1891	-8.3923	7.7209	3.8605	-4.5319	20	254	153	11	1	2
4.5319	1.8463	1.3428	0.6714	2.6855	-2.182	-1.3428	-1.5106	-4.364	-2.8534	-1.1749	-4.8676	-7.0496	-3.1891	-8.0566	7.8888	3.8605	-4.1962	20	255	154	11	1	2
5.0354	2.5177	2.182	1.1749	3.5248	-1.5106	-1.0071	-0.8392	-3.8605	-2.3499	-0.8392	-4.5319	-6.546	-3.1891	-7.8888	8.0566	4.0283	-4.0283	20	256	155	11	1	2
5.5389	3.1891	2.6855	1.6785	4.1962	-0.8392	-0.5035	-0.1678	-3.3569	-1.8463	-0.5035	-4.1962	-6.0425	-3.1891	-7.5531	8.2245	4.1962	-3.8605	20	257	156	11	1	2
5.7068	3.6926	3.3569	2.0142	4.8676	-0.1678	-0.3357	0.3357	-2.8534	-1.5106	-0.1678	-3.8605	-5.7068	-3.1891	-7.3853	8.3923	4.1962	-3.5248	20	258	157	11	1	2
6.0425	4.0283	3.5248	2.0142	5.5389	0.3357	-0.1678	1.0071	-2.5177	-1.1749	0	-3.6926	-5.5389	-3.1891	-7.2174	8.2245	4.0283	-3.3569	20	259	158	11	1	2
6.3782	4.364	3.8605	2.182	6.0425	0.5035	-0.3357	1.5106	-2.3499	-1.1749	0.1678	-3.5248	-5.3711	-3.1891	-7.2174	8.2245	3.8605	-3.0212	20	260	159	11	1	2
6.546	4.6997	4.1962	2.182	6.546	0.8392	-0.3357	2.0142	-2.3499	-1.1749	0.3357	-3.5248	-5.3711	-3.1891	-7.2174	8.0566	3.5248	-2.6855	20	261	160	11	1	2
6.546	5.0354	4.364	2.0142	6.8817	1.0071	-0.6714	2.3499	-2.3499	-1.3428	0.5035	-3.5248	-5.3711	-3.3569	-7.5531	7.8888	3.0212	-2.6855	20	262	161	11	1	2
6.3782	5.2032	4.364	1.6785	7.2174	1.0071	-0.8392	2.5177	-2.5177	-1.8463	0.5035	-3.8605	-5.7068	-3.3569	-7.7209	7.8888	2.182	-2.3499	20	263	162	11	1	2
6.2103	5.2032	4.1962	1.5106	7.3853	1.0071	-1.3428	2.6855	-2.6855	-2.3499	0.5035	-4.0283	-5.8746	-3.3569	-7.8888	8.0566	1.3428	-2.0142	20	264	163	11	1	2
5.8746	5.2032	4.0283	1.0071	7.5531	0.8392	-1.8463	2.8534	-3.0212	-2.8534	0.5035	-4.5319	-6.3782	-3.3569	-8.2245	8.2245	0.1678	-1.6785	20	265	164	11	1	2
5.5389	5.0354	3.6926	0.5035	7.5531	0.6714	-2.3499	2.8534	-3.5248	-3.5248	0.3357	-5.0354	-6.8817	-3.3569	-8.5602	8.5602	-1.0071	-1.5106	20	266	165	11	1	2
5.0354	4.5319	3.0212	-0.1678	7.2174	0	-3.1891	2.6855	-4.1962	-4.5319	-0.1678	-5.7068	-7.7209	-3.3569	-9.0637	8.728	-2.6855	-1.1749	20	267	166	11	1	2
4.5319	4.1962	2.5177	-0.8392	7.0496	-0.5035	-3.8605	2.5177	-4.8676	-5.3711	-0.3357	-6.3782	-8.3923	-3.3569	-9.3994	8.8959	-4.1962	-1.0071	20	268	167	11	1	2
3.8605	3.6926	1.8463	-1.5106	6.546	-1.0071	-4.6997	2.182	-5.5389	-6.2103	-0.8392	-7.2174	-9.0637	-3.5248	-10.0708	9.0637	-5.7068	-1.1749	20	269	168	11	1	2
3.3569	3.1891	1.0071	-2.182	6.2103	-1.8463	-5.3711	1.8463	-6.3782	-7.2174	-1.1749	-7.8888	-9.903	-3.5248	-10.4065	9.2316	-7.0496	-1.1749	20	270	169	11	1	2
2.5177	2.5177	0	-3.1891	5.5389	-2.6855	-6.3782	1.1749	-7.3853	-8.3923	-1.6785	-8.8959	-10.7422	-3.5248	-10.7422	9.3994	-8.0566	-1.3428	20	271	170	11	1	2
2.0142	2.0142	-0.6714	-3.8605	5.0354	-3.5248	-7.2174	0.6714	-8.2245	-9.3994	-2.182	-9.5673	-11.5814	-3.6926	-11.2457	9.3994	-9.0637	-1.6785	20	272	171	11	1	2
1.3428	1.3428	-1.6785	-4.8676	4.364	-4.364	-8.0566	0.3357	-9.2316	-10.2386	-2.6855	-10.4065	-12.4207	-3.8605	-11.5814	9.3994	-9.903	-1.8463	20	273	172	11	1	2
0.8392	0.8392	-2.6855	-5.7068	3.8605	-5.3711	-8.8959	-0.3357	-10.0708	-11.2457	-3.1891	-11.2457	-13.092	-4.0283	-11.9171	9.3994	-10.5743	-2.182	20	274	173	11	1	2
0	0.1678	-3.6926	-6.546	3.1891	-6.2103	-9.5673	-1.0071	-11.0779	-12.085	-3.6926	-12.085	-13.7634	-4.1962	-12.2528	9.0637	-11.2457	-2.182	20	275	174	11	1	2
-0.5035	-0.3357	-4.5319	-7.3853	2.6855	-7.2174	-10.5743	-1.6785	-12.085	-12.9242	-4.1962	-12.7563	-14.4348	-4.5319	-12.5885	9.0637	-11.7493	-2.5177	20	276	175	11	1	2
-1.0071	-0.6714	-5.3711	-8.0566	2.3499	-8.0566	-11.0779	-2.182	-12.7563	-13.7634	-4.5319	-13.2599	-14.9384	-4.6997	-12.7563	8.8959	-12.2528	-2.5177	20	277	176	11	1	2
-1.6785	-1.3428	-6.3782	-9.0637	1.6785	-9.0637	-11.7493	-2.6855	-13.5956	-14.4348	-4.8676	-13.9313	-15.6097	-4.8676	-12.9242	8.5602	-12.4207	-2.6855	20	278	177	11	1	2
-2.182	-1.5106	-7.2174	-9.7351	1.1749	-9.903	-12.4207	-3.1891	-14.267	-14.9384	-5.0354	-14.4348	-16.1133	-5.0354	-13.2599	8.0566	-12.5885	-2.6855	20	279	178	11	1	2
-2.5177	-1.8463	-7.8888	-10.5743	0.8392	-10.7422	-13.092	-3.6926	-15.1062	-15.6097	-5.3711	-14.9384	-16.6168	-5.2032	-13.4277	7.5531	-12.4207	-2.6855	20	280	179	11	1	2
-3.0212	-2.0142	-8.5602	-11.2457	0.5035	-11.4136	-13.5956	-4.1962	-15.7776	-16.1133	-5.7068	-15.274	-16.9525	-5.2032	-13.4277	6.8817	-12.085	-2.6855	20	281	180	11	1	2
-3.5248	-2.3499	-9.2316	-11.9171	0.1678	-12.4207	-14.0991	-4.5319	-16.2811	-16.449	-5.8746	-15.7776	-17.2882	-5.2032	-13.2599	6.2103	-11.5814	-2.6855	20	282	181	11	1	2
-3.8605	-2.5177	-9.903	-12.2528	-0.3357	-12.9242	-14.267	-4.6997	-16.7847	-16.6168	-5.8746	-15.9454	-17.2882	-5.0354	-13.092	5.5389	-10.7422	-2.3499	20	283	182	11	1	2
-4.1962	-2.5177	-10.5743	-12.9242	-0.5035	-13.4277	-14.7705	-5.0354	-17.1204	-16.7847	-6.0425	-16.2811	-17.4561	-5.0354	-12.9242	5.2032	-10.0708	-2.3499	20	284	183	11	1	2
-4.364	-2.5177	-10.7422	-13.092	-0.6714	-13.7634	-14.7705	-5.0354	-17.4561	-16.7847	-6.0425	-16.2811	-17.4561	-4.8676	-12.5885	4.6997	-9.0637	-2.0142	20	285	184	11	1	2
-4.5319	-2.182	-11.0779	-13.4277	-0.5035	-14.0991	-14.9384	-5.2032	-17.6239	-16.7847	-6.0425	-16.449	-17.4561	-4.8676	-12.4207	4.1962	-8.2245	-1.6785	20	286	185	11	1	2
-4.6997	-2.182	-11.0779	-13.5956	-0.6714	-14.267	-15.1062	-5.0354	-17.6239	-16.6168	-5.7068	-16.2811	-17.1204	-4.6997	-11.9171	3.8605	-7.0496	-1.1749	20	287	186	11	1	2
-4.6997	-1.6785	-11.0779	-13.7634	-0.6714	-14.267	-14.9384	-5.2032	-17.7917	-16.6168	-5.7068	-16.1133	-16.7847	-4.6997	-11.5814	3.3569	-6.0425	-0.8392	20	288	187	11	1	2
-4.5319	-1.1749	-11.0779	-13.9313	-0.3357	-14.0991	-14.9384	-5.0354	-17.6239	-16.2811	-5.7068	-16.2811	-16.6168	-4.6997	-11.2457	2.8534	-5.2032	-0.5035	20	289	188	11	1	2
-4.5319	-1.0071	-10.7422	-13.7634	-0.5035	-14.267	-14.9384	-5.0354	-17.6239	-16.1133	-5.5389	-15.9454	-16.449	-4.6997	-10.91	2.0142	-4.364	-0.1678	20	290	189	11	1	2
-4.364	-0.6714	-10.91	-14.0991	-0.3357	-14.267	-15.1062	-5.0354	-17.7917	-15.9454	-5.5389	-15.9454	-16.2811	-4.8676	-10.91	1.0071	-3.6926	0	20	291	190	11	1	2
-13.092	-10.91	-14.6027	-16.2811	-14.6027	-18.631	-16.9525	-10.0708	-17.4561	-16.1133	-5.0354	-12.9242	-11.2457	-1.5106	-7.7209	1.6785	-15.9454	5.2032	20	231	130	12	1	2
-12.9242	-11.0779	-14.7705	-16.6168	-14.4348	-18.4631	-17.1204	-10.0708	-17.4561	-16.2811	-5.3711	-13.2599	-11.5814	-1.6785	-7.8888	1.6785	-15.7776	5.0354	20	232	131	12	1	2
-12.5885	-10.91	-14.6027	-16.6168	-14.4348	-18.4631	-17.2882	-10.2386	-17.4561	-16.449	-5.5389	-13.2599	-11.7493	-1.8463	-7.8888	1.3428	-15.274	4.8676	20	233	132	12	1	2
-12.4207	-10.91	-14.6027	-16.7847	-14.267	-18.2953	-17.2882	-10.2386	-17.2882	-16.449	-5.7068	-13.4277	-11.9171	-2.0142	-7.7209	1.0071	-14.6027	4.5319	20	234	133	12	1	2
-12.2528	-10.91	-14.4348	-16.9525	-13.9313	-17.9596	-17.4561	-10.0708	-17.1204	-16.449	-5.8746	-13.4277	-11.9171	-2.182	-7.7209	0.6714	-13.7634	4.1962	20	235	134	12	1	2
-11.9171	-10.91	-14.267	-16.9525	-13.7634	-17.7917	-17.2882	-10.0708	-16.7847	-16.449	-6.0425	-13.2599	-11.9171	-2.3499	-7.5531	0.1678	-12.9242	3.6926	20	236	135	12	1	2
-11.5814	-10.7422	-13.9313	-16.9525	-13.4277	-17.2882	-16.9525	-9.7351	-16.2811	-16.1133	-6.0425	-13.092	-11.5814	-2.3499	-7.3853	-0.1678	-12.085	3.3569	20	237	136	12	1	2
-11.5814	-10.5743	-13.7634	-16.9525	-13.2599	-17.1204	-17.1204	-9.5673	-15.9454	-15.9454	-6.0425	-12.9242	-11.5814	-2.5177	-7.2174	-0.3357	-11.2457	3.0212	20	238	137	12	1	2
-11.2457	-10.4065	-13.4277	-16.7847	-13.092	-16.7847	-16.7847	-9.3994	-15.4419	-15.6097	-6.0425	-12.5885	-11.2457	-2.5177	-7.0496	-0.6714	-10.4065	2.5177	20	239	138	12	1	2
-11.2457	-10.4065	-13.092	-16.6168	-12.9242	-16.449	-16.7847	-9.2316	-14.9384	-15.274	-6.0425	-12.2528	-11.0779	-2.6855	-7.0496	-0.8392	-10.0708	2.0142	20	240	139	12	1	2
-10.91	-10.4065	-12.9242	-16.449	-12.5885	-15.9454	-16.2811	-8.8959	-14.4348	-14.9384	-6.0425	-11.9171	-10.7422	-2.6855	-6.8817	-0.8392	-9.3994	1.5106	20	241	140	12	1	2
-10.7422	-10.2386	-12.4207	-16.2811	-12.4207	-15.4419	-16.1133	-8.728	-13.9313	-14.4348	-5.8746	-11.4136	-10.2386	-2.6855	-6.7139	-1.1749	-8.5602	1.1749	20	242	141	12	1	2
-10.5743	-10.2386	-12.2528	-16.1133	-12.085	-14.9384	-15.6097	-8.3923	-13.092	-13.9313	-5.5389	-10.7422	-9.7351	-2.6855	-6.546	-1.1749	-7.8888	0.8392	20	243	142	12	1	2
-10.5743	-10.4065	-12.085	-15.9454	-11.7493	-14.267	-15.1062	-7.8888	-12.4207	-13.2599	-5.3711	-10.2386	-9.2316	-2.6855	-6.3782	-1.0071	-7.0496	0.6714	20	244	143	12	1	2
-10.5743	-10.4065	-11.7493	-15.6097	-11.5814	-13.9313	-14.7705	-7.7209	-11.7493	-12.7563	-4.8676	-9.5673	-8.728	-2.6855	-6.3782	-1.0071	-6.3782	0.3357	20	245	144	12	1	2
-10.5743	-10.4065	-11.2457	-15.274	-11.0779	-13.092	-14.0991	-7.0496	-10.7422	-11.9171	-4.5319	-8.728	-8.0566	-2.5177	-6.0425	-0.8392	-5.5389	0.3357	20	246	145	12	1	2
-10.7422	-10.5743	-11.2457	-15.1062	-10.91	-12.5885	-13.5956	-6.7139	-10.0708	-11.2457	-4.0283	-8.0566	-7.3853	-2.5177	-6.0425	-0.5035	-4.8676	0.1678	20	247	146	12	1	2
-10.91	-10.5743	-10.91	-14.9384	-10.7422	-11.9171	-13.092	-6.3782	-9.3994	-10.7422	-3.5248	-7.2174	-6.7139	-2.5177	-5.8746	-0.1678	-4.364	0.1678	20	248	147	12	1	2
-10.91	-10.7422	-10.5743	-14.6027	-10.4065	-11.2457	-12.5885	-5.8746	-8.3923	-9.903	-2.8534	-6.2103	-6.0425	-2.3499	-5.7068	-0.3357	-3.6926	0.5035	20	249	148	12	1	2
-10.91	-10.7422	-10.2386	-14.267	-10.0708	-10.5743	-11.7493	-5.2032	-7.3853	-8.8959	-2.3499	-5.3711	-5.2032	-2.182	-5.3711	-0.3357	-3.0212	0.6714	20	250	149	12	1	2
-10.91	-10.91	-10.0708	-13.7634	-9.7351	-9.903	-11.2457	-4.6997	-6.7139	-8.2245	-1.8463	-4.5319	-4.5319	-2.182	-5.3711	-1.0071	-2.6855	0.8392	20	251	150	12	1	2
-10.7422	-10.7422	-9.5673	-13.2599	-9.2316	-9.0637	-10.4065	-4.1962	-5.7068	-7.3853	-1.0071	-3.5248	-3.8605	-2.0142	-5.0354	-2.0142	-2.182	1.1749	20	252	151	12	1	2
-10.91	-10.7422	-9.2316	-12.7563	-9.0637	-8.3923	-9.7351	-3.6926	-4.8676	-6.546	-0.3357	-2.6855	-3.1891	-2.0142	-4.8676	-3.5248	-2.0142	1.0071	20	253	152	12	1	2
-10.5743	-10.5743	-8.728	-12.085	-8.5602	-7.5531	-8.8959	-3.0212	-3.8605	-5.7068	0.3357	-1.5106	-2.3499	-1.8463	-4.364	-5.3711	-1.8463	1.3428	20	254	153	12	1	2
-10.2386	-10.2386	-8.2245	-11.4136	-7.8888	-6.7139	-8.0566	-2.3499	-2.8534	-4.8676	1.0071	-0.5035	-1.5106	-1.6785	-4.0283	-7.3853	-1.6785	1.6785	20	255	154	12	1	2
-9.903	-10.0708	-7.8888	-10.7422	-7.5531	-5.8746	-7.2174	-1.6785	-2.0142	-4.0283	1.6785	0.3357	-0.5035	-1.5106	-3.6926	-9.3994	-1.8463	1.6785	20	256	155	12	1	2
-9.5673	-9.5673	-7.0496	-9.903	-7.0496	-5.0354	-6.2103	-1.0071	-0.8392	-3.0212	2.3499	1.3428	0.3357	-1.1749	-3.3569	-11.4136	-1.8463	1.8463	20	257	156	12	1	2
-9.0637	-9.3994	-6.7139	-9.2316	-6.7139	-4.364	-5.5389	-0.6714	-0.1678	-2.3499	3.0212	2.182	1.1749	-1.0071	-3.0212	-13.4277	-2.3499	2.0142	20	258	157	12	1	2
-8.728	-9.0637	-6.2103	-8.3923	-6.3782	-3.6926	-4.5319	-0.3357	0.6714	-1.5106	3.5248	2.8534	1.8463	-0.6714	-2.8534	-14.9384	-2.5177	2.0142	20	259	158	12	1	2
-8.2245	-8.728	-5.7068	-7.5531	-5.8746	-2.8534	-3.8605	0	1.1749	-0.8392	3.6926	3.5248	2.3499	-0.3357	-2.6855	-16.1133	-3.0212	2.182	20	260	159	12	1	2
-7.7209	-8.3923	-5.3711	-6.8817	-5.5389	-2.3499	-3.1891	0.3357	1.6785	-0.1678	3.8605	3.8605	2.6855	0	-2.6855	-17.1204	-3.3569	2.182	20	261	160	12	1	2
-7.0496	-8.0566	-4.6997	-6.2103	-5.3711	-1.8463	-2.3499	0.5035	2.3499	0.5035	3.8605	4.0283	3.0212	0.5035	-2.6855	-17.4561	-3.6926	2.0142	20	262	161	12	1	2
-6.3782	-7.5531	-4.0283	-5.2032	-5.0354	-1.3428	-1.5106	0.5035	2.8534	1.0071	4.0283	4.1962	3.3569	1.0071	-2.5177	-17.4561	-3.8605	2.182	20	263	162	12	1	2
-5.8746	-7.0496	-3.5248	-4.5319	-4.6997	-0.6714	-1.0071	0.6714	3.0212	1.5106	4.0283	4.364	3.6926	1.6785	-2.3499	-16.9525	-4.1962	2.5177	20	264	163	12	1	2
-5.0354	-6.2103	-2.6855	-3.5248	-4.1962	0	-0.1678	0.8392	3.5248	2.0142	4.0283	4.364	4.0283	2.182	-2.3499	-15.7776	-3.8605	2.8534	20	265	164	12	1	2
-4.1962	-5.7068	-2.0142	-2.6855	-3.8605	0.6714	0.3357	1.0071	3.8605	2.3499	4.5319	4.5319	4.364	2.8534	-2.182	-14.4348	-4.0283	3.3569	20	266	165	12	1	2
-3.3569	-5.0354	-1.0071	-1.8463	-3.3569	1.3428	1.0071	1.3428	4.1962	3.0212	4.6997	4.6997	4.6997	3.3569	-2.0142	-12.5885	-3.8605	3.8605	20	267	166	12	1	2
-2.182	-4.0283	0	-0.8392	-2.5177	2.182	1.8463	1.8463	4.8676	3.6926	5.0354	4.8676	5.0354	3.8605	-1.8463	-10.4065	-3.5248	4.6997	20	268	167	12	1	2
-1.1749	-3.0212	1.1749	0	-1.6785	3.0212	2.5177	2.5177	5.3711	4.1962	5.0354	4.6997	5.3711	4.0283	-1.6785	-8.0566	-3.1891	5.3711	20	269	168	12	1	2
0	-2.182	2.182	1.0071	-1.0071	3.8605	3.1891	3.0212	6.0425	4.6997	5.3711	4.8676	5.5389	4.1962	-1.5106	-5.8746	-3.0212	6.0425	20	270	169	12	1	2
1.0071	-1.1749	3.1891	1.8463	-0.1678	4.6997	3.6926	3.5248	6.7139	5.3711	5.8746	5.0354	5.8746	4.364	-1.3428	-3.5248	-2.8534	6.8817	20	271	170	12	1	2
1.8463	-0.1678	4.364	2.6855	0.5035	5.3711	4.1962	4.0283	7.2174	6.0425	6.3782	5.2032	6.2103	4.364	-1.1749	-1.3428	-2.6855	7.7209	20	272	171	12	1	2
2.8534	0.6714	5.3711	3.3569	1.3428	6.2103	4.8676	4.5319	7.7209	6.3782	6.7139	5.2032	6.3782	4.1962	-1.1749	0.6714	-2.3499	8.5602	20	273	172	12	1	2
4.0283	1.5106	6.3782	4.1962	2.0142	6.8817	5.5389	5.2032	7.8888	6.8817	7.0496	5.2032	6.546	4.0283	-1.1749	2.5177	-2.182	9.3994	20	274	173	12	1	2
4.6997	2.5177	7.3853	4.8676	2.6855	7.5531	5.8746	5.3711	8.2245	6.8817	7.2174	5.0354	6.546	3.6926	-1.3428	4.1962	-2.0142	9.903	20	275	174	12	1	2
5.5389	3.1891	8.2245	5.3711	3.3569	8.0566	6.3782	5.7068	8.3923	7.2174	7.3853	4.8676	6.546	3.3569	-1.5106	5.8746	-1.8463	10.7422	20	276	175	12	1	2
6.0425	3.6926	8.8959	5.8746	3.6926	8.3923	6.8817	6.0425	8.5602	7.3853	7.7209	4.8676	6.546	3.0212	-1.5106	7.3853	-1.6785	11.4136	20	277	176	12	1	2
6.7139	4.364	9.3994	6.546	4.364	8.728	7.2174	6.3782	8.728	7.7209	7.8888	4.6997	6.546	2.6855	-1.5106	8.8959	-1.8463	12.085	20	278	177	12	1	2
6.8817	4.8676	10.0708	6.7139	4.5319	9.0637	7.3853	6.546	8.728	7.7209	7.8888	4.1962	6.2103	2.182	-1.8463	10.2386	-1.6785	12.7563	20	279	178	12	1	2
7.2174	5.0354	10.2386	7.0496	5.0354	8.8959	7.7209	6.546	8.3923	7.7209	8.0566	3.8605	6.0425	1.8463	-1.8463	11.5814	-1.8463	13.4277	20	280	179	12	1	2
7.0496	5.2032	10.4065	7.2174	4.8676	8.728	7.7209	6.546	8.0566	7.5531	7.8888	3.5248	5.5389	1.1749	-2.182	12.7563	-2.182	13.7634	20	281	180	12	1	2
7.0496	5.2032	10.4065	6.8817	4.8676	8.5602	7.3853	6.3782	7.7209	6.8817	7.8888	2.8534	5.0354	0.8392	-2.5177	13.5956	-2.6855	14.0991	20	282	181	12	1	2
6.546	4.6997	10.2386	6.3782	4.5319	8.0566	6.8817	6.0425	7.0496	6.3782	7.5531	2.182	4.5319	0.3357	-3.0212	14.4348	-3.5248	14.4348	20	283	182	12	1	2
6.2103	4.364	9.903	6.0425	4.364	7.5531	6.3782	5.7068	6.3782	5.8746	7.3853	1.6785	3.8605	0	-3.3569	14.9384	-4.364	14.6027	20	284	183	12	1	2
5.5389	3.8605	9.3994	5.2032	3.8605	6.8817	5.7068	5.3711	5.5389	5.0354	7.0496	0.8392	3.1891	-0.3357	-3.8605	15.4419	-5.2032	14.7705	20	285	184	12	1	2
4.8676	3.1891	8.5602	4.364	3.1891	5.8746	4.6997	4.6997	4.5319	4.1962	6.546	0	2.3499	-0.6714	-4.364	15.7776	-6.3782	14.7705	20	286	185	12	1	2
4.0283	2.3499	7.7209	3.1891	2.3499	4.8676	3.6926	4.0283	3.5248	3.3569	6.0425	-1.0071	1.5106	-1.0071	-5.0354	16.1133	-7.3853	14.9384	20	287	186	12	1	2
3.0212	1.5106	6.7139	2.0142	1.5106	3.6926	2.6855	3.3569	2.5177	2.182	5.3711	-1.8463	0.6714	-1.1749	-5.5389	15.9454	-8.2245	14.7705	20	288	187	12	1	2
1.6785	0.3357	5.5389	0.6714	0.3357	2.5177	1.3428	2.3499	1.1749	1.1749	4.6997	-2.8534	-0.3357	-1.5106	-6.0425	15.7776	-9.2316	14.6027	20	289	188	12	1	2
0.6714	-0.6714	4.364	-0.6714	-0.6714	1.1749	0.3357	1.5106	0.1678	0.1678	4.0283	-3.8605	-1.1749	-1.6785	-6.546	15.6097	-9.903	14.267	20	290	189	12	1	2
-0.5035	-1.6785	3.0212	-2.0142	-1.8463	0	-0.8392	0.6714	-1.0071	-0.8392	3.1891	-4.6997	-2.0142	-1.8463	-6.8817	15.1062	-10.7422	14.0991	20	291	190	12	1	2
-12.9242	-9.3994	-12.9242	-8.728	-9.0637	-10.91	-9.5673	-8.0566	-11.9171	-11.2457	-7.5531	-13.2599	-10.2386	-1.5106	-4.5319	-0.5035	-5.7068	-4.0283	20	231	130	13	1	2
-12.9242	-9.3994	-12.7563	-8.728	-8.8959	-10.91	-9.7351	-7.7209	-11.7493	-11.2457	-7.0496	-13.092	-10.2386	-1.6785	-4.364	0.5035	-5.2032	-3.3569	20	232	131	13	1	2
-12.9242	-9.3994	-12.9242	-8.728	-8.728	-10.91	-9.903	-7.5531	-11.7493	-11.4136	-6.7139	-12.9242	-10.2386	-1.6785	-4.364	1.3428	-5.0354	-2.8534	20	233	132	13	1	2
-12.7563	-9.3994	-12.9242	-8.728	-8.5602	-10.7422	-9.903	-7.0496	-11.4136	-11.4136	-6.2103	-12.4207	-10.0708	-1.6785	-4.1962	2.5177	-4.6997	-2.3499	20	234	133	13	1	2
-12.5885	-9.2316	-12.7563	-8.3923	-8.3923	-10.5743	-9.903	-6.7139	-11.0779	-11.2457	-5.7068	-11.9171	-9.903	-1.6785	-4.1962	3.3569	-4.5319	-1.6785	20	235	134	13	1	2
-12.4207	-9.2316	-12.7563	-8.0566	-8.0566	-10.4065	-9.7351	-6.3782	-10.5743	-11.0779	-5.0354	-11.4136	-9.5673	-1.6785	-4.0283	4.364	-4.1962	-1.1749	20	236	135	13	1	2
-12.2528	-9.2316	-12.5885	-7.5531	-7.7209	-10.0708	-9.3994	-5.8746	-10.0708	-10.91	-4.5319	-10.91	-9.2316	-1.6785	-3.8605	5.3711	-4.1962	-0.8392	20	237	136	13	1	2
-11.7493	-8.8959	-12.2528	-6.8817	-7.2174	-9.7351	-9.0637	-5.3711	-9.2316	-10.4065	-3.8605	-10.0708	-8.728	-1.6785	-3.6926	6.0425	-4.0283	-0.1678	20	238	137	13	1	2
-11.5814	-8.8959	-12.085	-6.3782	-7.0496	-9.2316	-8.5602	-4.8676	-8.728	-10.0708	-3.3569	-9.3994	-8.3923	-1.5106	-3.8605	7.0496	-4.1962	0.1678	20	239	138	13	1	2
-10.91	-8.5602	-11.5814	-5.7068	-6.7139	-8.728	-8.0566	-4.364	-8.0566	-9.3994	-2.6855	-8.5602	-7.7209	-1.5106	-3.6926	7.5531	-4.5319	0.6714	20	240	139	13	1	2
-10.7422	-8.5602	-11.2457	-5.0354	-6.546	-8.3923	-7.3853	-3.8605	-7.5531	-8.8959	-2.0142	-7.8888	-7.3853	-1.3428	-3.8605	8.3923	-5.0354	0.8392	20	241	140	13	1	2
-10.2386	-8.2245	-10.7422	-4.364	-6.0425	-7.7209	-6.7139	-3.1891	-6.7139	-8.2245	-1.3428	-6.8817	-6.7139	-1.3428	-3.8605	8.728	-5.3711	1.3428	20	242	141	13	1	2
-9.7351	-8.0566	-10.2386	-3.5248	-5.5389	-7.0496	-6.0425	-2.6855	-5.8746	-7.5531	-0.6714	-6.0425	-6.2103	-1.1749	-4.0283	9.2316	-5.7068	1.5106	20	243	142	13	1	2
-9.3994	-7.7209	-9.7351	-2.8534	-5.0354	-6.3782	-5.3711	-2.0142	-5.0354	-6.8817	0	-5.0354	-5.5389	-1.1749	-4.1962	9.2316	-6.2103	1.6785	20	244	143	13	1	2
-8.8959	-7.3853	-9.0637	-2.0142	-4.5319	-5.5389	-4.6997	-1.1749	-4.0283	-6.0425	0.8392	-4.0283	-4.8676	-1.1749	-4.364	9.0637	-6.546	1.8463	20	245	144	13	1	2
-8.5602	-7.0496	-8.5602	-1.3428	-3.8605	-4.6997	-3.8605	-0.5035	-3.0212	-5.3711	1.6785	-3.0212	-4.1962	-1.3428	-4.364	8.5602	-6.7139	1.8463	20	246	145	13	1	2
-8.2245	-6.7139	-8.0566	-0.8392	-3.5248	-4.0283	-3.1891	0	-2.3499	-4.6997	2.182	-2.0142	-3.5248	-1.3428	-4.6997	8.0566	-6.8817	1.8463	20	247	146	13	1	2
-7.8888	-6.2103	-7.3853	0	-2.8534	-3.0212	-2.182	0.8392	-1.3428	-3.8605	2.8534	-1.1749	-2.6855	-1.5106	-4.8676	7.3853	-7.0496	2.0142	20	248	147	13	1	2
-7.5531	-6.0425	-6.7139	0.5035	-2.3499	-2.3499	-1.5106	1.3428	-0.3357	-3.0212	3.3569	-0.1678	-2.182	-1.5106	-5.0354	6.546	-7.0496	1.8463	20	249	148	13	1	2
-7.3853	-5.5389	-6.2103	1.1749	-2.0142	-1.5106	-0.6714	2.0142	0.5035	-2.3499	4.0283	0.6714	-1.5106	-1.6785	-5.2032	5.5389	-7.2174	1.8463	20	250	149	13	1	2
-7.0496	-5.2032	-5.5389	1.6785	-1.5106	-0.6714	0.3357	2.5177	1.3428	-1.5106	4.5319	1.6785	-1.0071	-1.8463	-5.3711	4.364	-7.3853	1.8463	20	251	150	13	1	2
-6.7139	-4.6997	-5.0354	2.3499	-1.0071	0.1678	1.1749	3.0212	2.182	-0.6714	5.0354	2.6855	-0.3357	-2.0142	-5.3711	3.3569	-7.5531	2.0142	20	252	151	13	1	2
-6.3782	-4.364	-4.1962	3.1891	-0.3357	1.0071	2.182	3.3569	3.1891	0.3357	5.2032	3.3569	0.3357	-2.3499	-5.3711	2.182	-7.8888	1.8463	20	253	152	13	1	2
-6.0425	-3.8605	-3.5248	3.8605	-0.1678	1.6785	3.1891	3.8605	3.8605	1.0071	5.7068	4.0283	1.0071	-2.5177	-5.7068	0.8392	-8.3923	1.8463	20	254	153	13	1	2
-5.5389	-3.3569	-2.8534	4.1962	0.3357	2.5177	4.0283	4.1962	4.6997	1.8463	6.0425	4.6997	1.6785	-2.8534	-5.5389	-0.1678	-8.5602	1.8463	20	255	154	13	1	2
-4.8676	-2.6855	-2.182	5.0354	0.8392	3.3569	4.8676	4.6997	5.5389	2.6855	6.3782	5.3711	2.182	-3.0212	-5.5389	-1.1749	-8.728	2.0142	20	256	155	13	1	2
-4.6997	-2.3499	-1.6785	5.3711	1.3428	4.0283	5.7068	5.0354	6.0425	3.3569	6.546	5.8746	2.6855	-3.1891	-5.7068	-2.182	-8.728	1.8463	20	257	156	13	1	2
-4.0283	-1.6785	-1.1749	5.8746	1.8463	4.5319	6.3782	5.3711	6.546	3.8605	6.8817	6.3782	3.3569	-3.5248	-5.5389	-2.8534	-8.3923	2.182	20	258	157	13	1	2
-3.6926	-1.1749	-0.5035	6.0425	2.0142	5.0354	7.0496	5.7068	7.0496	4.5319	7.0496	6.546	3.6926	-3.5248	-5.2032	-3.0212	-7.8888	2.5177	20	259	158	13	1	2
-3.1891	-0.6714	-0.1678	6.2103	2.3499	5.3711	7.3853	6.0425	7.5531	5.0354	7.2174	6.8817	4.1962	-3.5248	-4.8676	-3.1891	-7.0496	2.6855	20	260	159	13	1	2
-2.8534	-0.3357	0	6.3782	2.3499	5.5389	7.7209	6.2103	7.7209	5.3711	7.2174	7.0496	4.5319	-3.5248	-4.5319	-3.1891	-6.2103	2.8534	20	261	160	13	1	2
-2.5177	0.1678	0.5035	6.3782	2.6855	5.7068	7.8888	6.2103	8.0566	5.8746	7.3853	7.2174	4.8676	-3.3569	-4.0283	-3.0212	-5.0354	3.0212	20	262	161	13	1	2
-2.3499	0.5035	0.5035	6.0425	2.5177	5.8746	7.8888	6.2103	7.8888	6.0425	7.2174	7.2174	5.2032	-3.1891	-3.6926	-2.8534	-3.8605	3.1891	20	263	162	13	1	2
-2.182	0.6714	0.3357	6.0425	2.5177	5.8746	7.8888	6.3782	7.7209	6.2103	7.3853	7.0496	5.3711	-2.8534	-3.3569	-2.6855	-2.6855	3.0212	20	264	163	13	1	2
-2.182	0.8392	0.3357	5.5389	2.182	5.5389	7.5531	6.0425	7.5531	6.0425	6.8817	6.8817	5.2032	-2.6855	-2.6855	-2.5177	-1.6785	2.8534	20	265	164	13	1	2
-2.0142	1.0071	0.1678	5.3711	2.0142	5.2032	7.2174	5.7068	7.3853	5.8746	6.546	6.546	5.2032	-2.3499	-2.182	-2.5177	-0.3357	2.6855	20	266	165	13	1	2
-1.8463	1.1749	0	4.8676	1.5106	5.0354	6.8817	5.3711	7.0496	5.8746	6.0425	6.2103	5.2032	-2.0142	-1.8463	-2.6855	0.6714	2.3499	20	267	166	13	1	2
-1.8463	1.1749	-0.3357	4.6997	1.0071	4.6997	6.546	5.2032	6.546	5.7068	5.7068	5.8746	5.3711	-1.5106	-1.5106	-2.8534	1.6785	1.8463	20	268	167	13	1	2
-1.5106	1.1749	-0.3357	4.364	0.8392	4.364	5.8746	4.5319	6.3782	5.3711	5.2032	5.3711	5.0354	-1.1749	-1.1749	-3.3569	2.3499	1.3428	20	269	168	13	1	2
-1.5106	1.1749	-0.5035	4.0283	0.1678	4.0283	5.5389	4.0283	5.7068	5.0354	4.6997	5.0354	5.0354	-0.6714	-1.0071	-4.0283	3.0212	0.5035	20	270	169	13	1	2
-1.3428	1.1749	-0.6714	3.6926	-0.1678	3.5248	5.0354	3.3569	5.3711	4.8676	3.8605	4.364	4.6997	-0.3357	-0.6714	-4.6997	3.3569	-0.1678	20	271	170	13	1	2
-1.1749	0.8392	-1.0071	3.1891	-0.8392	3.0212	4.5319	3.0212	4.6997	4.5319	3.0212	4.0283	4.5319	0.1678	-0.5035	-5.5389	4.0283	-1.0071	20	272	171	13	1	2
-1.0071	1.0071	-1.1749	3.0212	-1.3428	2.6855	4.0283	2.182	4.1962	4.0283	2.3499	3.3569	4.0283	0.5035	-0.3357	-5.8746	4.0283	-1.8463	20	273	172	13	1	2
-0.8392	0.6714	-1.3428	2.8534	-2.0142	2.3499	3.8605	1.8463	3.6926	3.8605	1.6785	3.0212	4.0283	1.1749	-0.1678	-5.8746	4.364	-2.5177	20	274	173	13	1	2
-0.8392	0.5035	-1.5106	2.8534	-2.5177	1.8463	3.5248	1.0071	3.3569	3.5248	1.0071	2.5177	3.8605	1.6785	0	-5.7068	4.1962	-3.1891	20	275	174	13	1	2
-0.6714	0.3357	-1.5106	2.8534	-3.0212	1.6785	3.5248	0.5035	3.1891	3.5248	0.6714	2.182	3.8605	2.182	0.3357	-5.0354	4.0283	-3.5248	20	276	175	13	1	2
-0.5035	0.1678	-1.5106	2.8534	-3.3569	1.5106	3.1891	0.1678	2.6855	3.3569	0	1.6785	3.6926	2.6855	0.5035	-4.1962	3.8605	-3.8605	20	277	176	13	1	2
-0.5035	-0.1678	-1.6785	2.8534	-3.8605	1.1749	3.3569	-0.3357	2.3499	3.3569	-0.3357	1.5106	3.5248	3.1891	0.6714	-3.3569	3.5248	-4.1962	20	278	177	13	1	2
-0.5035	-0.6714	-1.8463	2.8534	-4.364	0.6714	3.1891	-0.8392	1.8463	3.0212	-0.8392	1.0071	3.5248	3.6926	0.6714	-2.182	3.3569	-4.5319	20	279	178	13	1	2
-0.8392	-1.1749	-2.182	2.6855	-5.0354	0.5035	2.8534	-1.3428	1.3428	3.0212	-1.3428	0.5035	3.3569	4.0283	0.5035	-1.0071	2.6855	-4.6997	20	280	179	13	1	2
-0.8392	-1.5106	-2.3499	2.6855	-5.5389	0.1678	2.8534	-1.5106	1.0071	2.6855	-1.6785	0.3357	3.0212	4.1962	0.5035	0	2.182	-4.6997	20	281	180	13	1	2
-1.3428	-2.182	-2.8534	2.182	-6.0425	-0.3357	2.5177	-2.0142	0.5035	2.3499	-2.182	-0.1678	2.5177	4.364	0.1678	0.6714	1.6785	-4.8676	20	282	181	13	1	2
-1.5106	-2.6855	-2.8534	2.0142	-6.7139	-0.5035	2.3499	-2.5177	0	2.182	-2.3499	-0.6714	2.3499	4.364	0	1.1749	1.1749	-5.2032	20	283	182	13	1	2
-1.8463	-3.3569	-3.1891	1.8463	-7.2174	-1.0071	2.0142	-2.8534	-0.5035	1.8463	-2.8534	-1.1749	2.0142	4.1962	-0.3357	1.0071	0.5035	-5.2032	20	284	183	13	1	2
-2.3499	-4.0283	-3.5248	1.3428	-7.8888	-1.3428	1.8463	-3.1891	-0.8392	1.5106	-3.1891	-1.5106	1.6785	3.8605	-0.6714	0.6714	0	-5.3711	20	285	184	13	1	2
-2.6855	-4.6997	-3.8605	1.1749	-8.2245	-1.5106	1.6785	-3.6926	-1.1749	1.3428	-3.3569	-1.8463	1.5106	3.5248	-0.8392	0	-0.3357	-5.3711	20	286	185	13	1	2
-3.0212	-5.2032	-4.0283	0.6714	-8.728	-1.6785	1.5106	-4.0283	-1.5106	1.1749	-3.5248	-2.182	1.0071	3.0212	-1.1749	-0.8392	-0.8392	-5.7068	20	287	186	13	1	2
-3.1891	-5.5389	-4.0283	0.6714	-8.8959	-1.8463	1.5106	-4.0283	-1.6785	1.1749	-3.5248	-2.182	1.0071	2.5177	-1.3428	-1.3428	-1.3428	-5.5389	20	288	187	13	1	2
-3.5248	-6.2103	-4.1962	0.1678	-9.3994	-2.0142	1.1749	-4.364	-2.0142	0.8392	-3.6926	-2.5177	1.0071	2.0142	-1.6785	-2.182	-1.6785	-5.7068	20	289	188	13	1	2
-3.6926	-6.546	-4.1962	0.1678	-9.5673	-2.182	1.1749	-4.5319	-2.0142	0.8392	-3.5248	-2.5177	1.0071	1.5106	-1.8463	-2.5177	-2.0142	-5.5389	20	290	189	13	1	2
-3.8605	-6.8817	-4.0283	0.1678	-9.5673	-2.0142	1.1749	-4.364	-2.0142	0.8392	-3.3569	-2.3499	1.1749	0.8392	-1.8463	-2.6855	-2.3499	-5.2032	20	291	190	13	1	2
-11.2457	-11.5814	-15.274	-15.274	-16.2811	-15.7776	-15.1062	-14.6027	-18.9667	-14.0991	-9.0637	-7.0496	-5.7068	5.5389	1.1749	-6.2103	-2.182	-11.9171	20	231	130	15	1	2
-10.5743	-10.5743	-14.6027	-14.267	-15.4419	-14.9384	-14.267	-13.7634	-18.1274	-13.5956	-8.3923	-6.2103	-5.5389	5.7068	1.5106	-5.2032	-2.0142	-11.7493	20	232	131	15	1	2
-10.2386	-9.903	-13.9313	-13.7634	-14.6027	-14.267	-13.5956	-13.092	-17.6239	-13.092	-7.7209	-5.5389	-5.2032	5.8746	1.5106	-4.6997	-2.182	-11.9171	20	233	132	15	1	2
-9.5673	-9.0637	-13.2599	-12.7563	-13.7634	-13.4277	-12.5885	-12.085	-16.7847	-12.4207	-6.8817	-4.6997	-4.6997	6.0425	1.8463	-3.6926	-2.0142	-11.7493	20	234	133	15	1	2
-9.0637	-8.2245	-12.5885	-11.7493	-12.7563	-12.5885	-11.7493	-11.2457	-15.7776	-11.7493	-6.2103	-3.6926	-4.1962	6.2103	2.182	-2.6855	-1.8463	-11.4136	20	235	134	15	1	2
-8.3923	-7.3853	-11.7493	-11.0779	-11.9171	-11.7493	-10.7422	-10.2386	-14.9384	-10.91	-5.3711	-2.8534	-3.6926	6.2103	2.5177	-1.6785	-1.5106	-11.2457	20	236	135	15	1	2
-8.0566	-6.8817	-11.4136	-10.4065	-11.0779	-11.0779	-9.903	-9.5673	-14.0991	-10.5743	-4.6997	-2.182	-3.3569	6.3782	2.8534	-1.0071	-1.1749	-11.2457	20	237	136	15	1	2
-7.5531	-6.3782	-10.7422	-9.5673	-10.0708	-10.4065	-9.0637	-8.5602	-13.092	-9.903	-4.0283	-1.5106	-2.8534	6.3782	3.1891	-0.1678	-0.6714	-11.0779	20	238	137	15	1	2
-7.0496	-5.7068	-10.2386	-8.8959	-9.2316	-9.5673	-8.3923	-7.7209	-12.4207	-9.2316	-3.5248	-0.8392	-2.3499	6.546	3.6926	0.3357	0	-11.0779	20	239	138	15	1	2
-6.8817	-5.3711	-9.7351	-8.3923	-8.5602	-9.0637	-7.7209	-7.0496	-11.7493	-8.728	-3.1891	-0.3357	-2.0142	6.7139	3.8605	0.3357	0.5035	-11.2457	20	240	139	15	1	2
-6.3782	-4.8676	-9.2316	-7.8888	-7.7209	-8.5602	-6.8817	-6.2103	-10.7422	-7.8888	-2.6855	0.3357	-1.5106	6.7139	4.1962	0.1678	1.1749	-11.4136	20	241	140	15	1	2
-6.0425	-4.5319	-8.8959	-7.3853	-7.0496	-8.0566	-6.2103	-5.7068	-10.0708	-7.3853	-2.3499	0.8392	-1.1749	6.7139	4.364	-0.5035	1.8463	-11.5814	20	242	141	15	1	2
-5.7068	-4.364	-8.3923	-6.8817	-6.3782	-7.3853	-5.5389	-5.0354	-9.2316	-6.8817	-2.0142	1.3428	-0.8392	6.7139	4.5319	-1.6785	2.3499	-11.9171	20	243	142	15	1	2
-5.3711	-4.0283	-8.0566	-6.3782	-5.7068	-6.8817	-4.8676	-4.364	-8.5602	-6.2103	-1.6785	1.8463	-0.3357	6.7139	4.6997	-2.8534	3.0212	-12.2528	20	244	143	15	1	2
-4.8676	-3.8605	-7.5531	-5.8746	-5.2032	-6.3782	-4.364	-3.8605	-7.8888	-5.7068	-1.5106	2.182	0	6.7139	4.6997	-4.364	3.3569	-12.7563	20	245	144	15	1	2
-4.6997	-3.5248	-7.0496	-5.5389	-4.5319	-5.8746	-3.6926	-3.3569	-7.0496	-5.2032	-1.3428	2.6855	0.5035	6.546	4.6997	-5.5389	4.0283	-12.9242	20	246	145	15	1	2
-4.364	-3.1891	-6.546	-5.3711	-4.0283	-5.3711	-3.1891	-3.0212	-6.546	-4.6997	-1.1749	3.0212	0.6714	6.3782	4.5319	-6.8817	4.364	-13.2599	20	247	146	15	1	2
-4.0283	-3.1891	-6.2103	-5.0354	-3.8605	-4.8676	-2.8534	-2.8534	-6.0425	-4.364	-1.3428	3.0212	0.8392	6.2103	4.0283	-8.2245	4.364	-13.7634	20	248	147	15	1	2
-3.3569	-3.0212	-5.7068	-4.5319	-3.5248	-4.364	-2.3499	-2.5177	-5.5389	-4.0283	-1.1749	3.3569	1.1749	6.0425	3.8605	-9.0637	4.6997	-13.9313	20	249	148	15	1	2
-3.0212	-2.6855	-5.2032	-4.364	-3.1891	-3.8605	-1.6785	-2.0142	-4.6997	-3.5248	-0.8392	3.6926	1.5106	5.7068	3.5248	-9.7351	4.8676	-13.9313	20	250	149	15	1	2
-2.5177	-2.3499	-4.6997	-4.1962	-3.0212	-3.5248	-1.3428	-1.8463	-4.1962	-3.3569	-0.8392	4.0283	1.6785	5.3711	3.0212	-10.2386	4.8676	-13.9313	20	251	150	15	1	2
-1.8463	-2.182	-4.0283	-3.8605	-2.8534	-3.1891	-1.0071	-1.5106	-3.8605	-2.8534	-0.6714	4.1962	1.8463	5.0354	2.5177	-10.4065	5.0354	-13.7634	20	252	151	15	1	2
-1.0071	-2.0142	-3.3569	-3.3569	-2.5177	-2.8534	-0.8392	-1.1749	-3.3569	-2.6855	-0.3357	4.5319	2.0142	4.8676	2.182	-10.5743	4.8676	-13.4277	20	253	152	15	1	2
-0.5035	-1.6785	-2.6855	-3.0212	-2.182	-2.3499	-0.5035	-0.8392	-2.6855	-2.3499	-0.1678	4.6997	2.182	4.364	1.6785	-10.4065	4.8676	-13.092	20	254	153	15	1	2
0.3357	-1.3428	-2.182	-2.8534	-2.0142	-1.8463	0	-0.5035	-2.182	-2.0142	0.3357	5.0354	2.3499	4.0283	1.1749	-9.903	4.5319	-12.4207	20	255	154	15	1	2
0.8392	-0.8392	-1.5106	-2.5177	-1.5106	-1.1749	0.1678	0	-1.5106	-1.6785	0.8392	5.5389	2.8534	3.8605	1.0071	-9.2316	4.364	-11.4136	20	256	155	15	1	2
1.5106	-0.3357	-0.8392	-2.182	-1.0071	-0.6714	0.5035	0.6714	-0.8392	-1.3428	1.5106	6.0425	3.1891	3.6926	0.8392	-8.2245	4.1962	-10.4065	20	257	156	15	1	2
2.182	0.1678	-0.1678	-1.8463	-0.6714	-0.1678	0.6714	1.1749	0	-0.8392	2.182	6.546	3.6926	3.5248	0.6714	-7.2174	3.6926	-9.3994	20	258	157	15	1	2
2.8534	1.0071	0.6714	-1.5106	-0.3357	0.3357	1.1749	1.8463	0.6714	-0.5035	2.8534	7.0496	4.1962	3.3569	0.5035	-5.8746	3.1891	-8.2245	20	259	158	15	1	2
3.3569	1.5106	1.1749	-1.1749	0.1678	0.8392	1.3428	2.3499	1.3428	-0.1678	3.3569	7.7209	4.6997	3.1891	0.5035	-4.5319	2.6855	-7.2174	20	260	159	15	1	2
3.6926	1.8463	1.5106	-1.0071	0.6714	1.5106	1.5106	3.0212	2.0142	0.1678	4.1962	8.2245	5.2032	3.1891	0.6714	-3.1891	2.182	-6.0425	20	261	160	15	1	2
4.1962	2.5177	2.0142	-0.8392	1.1749	2.0142	1.5106	3.3569	2.5177	0.5035	4.6997	8.5602	5.8746	3.0212	0.6714	-2.0142	1.8463	-5.0354	20	262	161	15	1	2
4.1962	2.8534	2.3499	-1.0071	1.5106	2.3499	1.5106	3.6926	2.8534	0.6714	5.0354	8.8959	6.2103	2.8534	0.8392	-0.8392	1.3428	-4.1962	20	263	162	15	1	2
4.1962	3.0212	2.3499	-1.1749	1.6785	2.3499	1.3428	4.0283	3.1891	0.8392	5.3711	9.2316	6.546	2.6855	1.0071	0	0.8392	-3.3569	20	264	163	15	1	2
4.0283	3.3569	2.3499	-1.5106	2.0142	2.5177	1.1749	4.0283	3.5248	1.0071	6.0425	9.5673	6.7139	2.5177	1.1749	0.8392	0.3357	-2.6855	20	265	164	15	1	2
3.6926	3.5248	2.0142	-1.6785	2.182	2.5177	0.8392	4.1962	3.8605	0.8392	6.3782	10.0708	6.8817	2.3499	1.3428	1.6785	0	-2.182	20	266	165	15	1	2
3.3569	3.6926	1.8463	-2.182	2.3499	2.5177	0.6714	4.5319	4.0283	1.0071	6.7139	10.2386	7.2174	2.182	1.6785	2.3499	-0.5035	-1.5106	20	267	166	15	1	2
3.1891	3.6926	1.5106	-2.5177	2.5177	2.5177	0.5035	4.5319	4.364	1.1749	7.2174	10.4065	7.3853	2.0142	1.6785	3.0212	-0.6714	-0.8392	20	268	167	15	1	2
2.6855	3.8605	1.1749	-3.0212	2.8534	2.182	0.1678	5.0354	4.6997	1.3428	7.3853	10.7422	7.7209	2.0142	2.182	3.3569	-0.5035	0	20	269	168	15	1	2
2.0142	3.6926	0.6714	-3.5248	2.8534	2.182	-0.1678	5.2032	4.8676	1.1749	7.7209	10.91	7.8888	1.8463	2.5177	3.5248	-0.3357	0.5035	20	270	169	15	1	2
1.3428	3.5248	0.1678	-4.1962	3.0212	2.0142	-0.3357	5.3711	5.0354	1.1749	8.0566	11.0779	7.8888	1.6785	2.6855	3.6926	-0.1678	1.0071	20	271	170	15	1	2
0.8392	3.5248	-0.3357	-4.6997	3.3569	2.0142	-0.8392	5.5389	5.0354	1.1749	8.3923	11.2457	8.0566	1.5106	2.8534	3.6926	0.1678	1.5106	20	272	171	15	1	2
0.1678	3.1891	-1.0071	-5.3711	3.3569	1.6785	-1.0071	5.7068	5.2032	1.3428	8.5602	11.2457	8.0566	1.5106	3.1891	3.8605	0.6714	1.8463	20	273	172	15	1	2
-0.6714	2.8534	-1.6785	-5.8746	3.3569	1.5106	-1.3428	5.5389	5.3711	1.1749	8.728	11.4136	8.2245	1.3428	3.1891	3.8605	1.0071	2.0142	20	274	173	15	1	2
-1.5106	2.182	-2.6855	-6.546	3.1891	1.0071	-1.3428	5.5389	5.0354	1.0071	8.5602	11.0779	8.0566	1.3428	3.3569	4.0283	1.6785	1.8463	20	275	174	15	1	2
-2.182	1.8463	-3.1891	-6.8817	3.3569	0.6714	-1.6785	5.5389	5.0354	1.0071	8.728	11.0779	8.0566	1.3428	3.5248	4.0283	2.3499	1.8463	20	276	175	15	1	2
-3.0212	1.5106	-4.1962	-7.3853	3.1891	0.1678	-1.8463	5.3711	4.8676	0.8392	8.5602	10.91	8.0566	1.3428	3.5248	4.0283	2.8534	1.6785	20	277	176	15	1	2
-3.6926	0.8392	-4.8676	-7.8888	3.3569	-0.1678	-2.0142	5.3711	4.6997	1.0071	8.5602	10.7422	8.0566	1.5106	3.6926	4.364	3.5248	1.5106	20	278	177	15	1	2
-4.5319	0.3357	-5.5389	-8.2245	3.1891	-0.5035	-2.182	5.3711	4.364	0.8392	8.5602	10.4065	7.8888	1.6785	3.5248	4.6997	4.0283	1.1749	20	279	178	15	1	2
-5.2032	-0.6714	-6.2103	-8.8959	2.8534	-1.0071	-2.3499	5.2032	4.0283	0.5035	8.2245	10.0708	7.5531	1.8463	3.5248	4.8676	4.6997	0.8392	20	280	179	15	1	2
-6.2103	-1.1749	-7.0496	-9.2316	2.6855	-1.1749	-2.6855	5.0354	3.8605	0.3357	7.8888	9.5673	7.2174	2.182	3.5248	4.6997	5.2032	0.3357	20	281	180	15	1	2
-7.0496	-2.0142	-7.8888	-9.7351	2.3499	-1.8463	-2.8534	4.5319	3.1891	0.1678	7.5531	8.8959	6.8817	2.3499	3.0212	4.364	5.3711	0.1678	20	282	181	15	1	2
-7.7209	-2.6855	-8.5602	-10.2386	2.0142	-2.5177	-3.1891	4.5319	2.6855	0	7.0496	8.3923	6.546	2.6855	2.8534	4.1962	5.5389	-0.5035	20	283	182	15	1	2
-8.728	-3.5248	-9.2316	-10.91	1.6785	-3.0212	-3.6926	4.0283	2.0142	-0.5035	6.546	7.7209	5.8746	2.8534	2.5177	3.5248	5.2032	-0.8392	20	284	183	15	1	2
-9.3994	-4.364	-9.903	-11.4136	1.1749	-3.5248	-4.1962	3.6926	1.5106	-0.8392	6.2103	7.0496	5.3711	3.0212	2.0142	2.6855	5.0354	-1.3428	20	285	184	15	1	2
-10.0708	-5.2032	-10.5743	-11.9171	0.8392	-4.1962	-4.364	3.3569	0.8392	-1.3428	5.7068	6.3782	4.8676	3.1891	1.6785	1.8463	4.5319	-1.6785	20	286	185	15	1	2
-10.91	-6.2103	-11.4136	-12.5885	0.1678	-4.8676	-4.8676	2.8534	0.1678	-1.8463	5.2032	5.8746	4.1962	3.1891	1.1749	0.8392	4.0283	-2.182	20	287	186	15	1	2
-11.4136	-6.8817	-11.7493	-12.9242	-0.1678	-5.2032	-5.3711	2.5177	-0.3357	-2.182	4.8676	5.3711	3.8605	3.3569	1.0071	-0.1678	3.6926	-2.3499	20	288	187	15	1	2
-11.7493	-7.5531	-12.2528	-13.2599	-0.6714	-5.7068	-5.7068	2.182	-0.8392	-2.6855	4.5319	4.8676	3.3569	3.3569	0.6714	-1.1749	3.3569	-2.6855	20	289	188	15	1	2
-12.2528	-8.2245	-12.7563	-13.7634	-1.1749	-6.2103	-6.2103	1.6785	-1.5106	-3.1891	4.0283	4.364	2.8534	3.1891	0.3357	-2.5177	2.8534	-3.0212	20	290	189	15	1	2
-12.4207	-8.5602	-12.7563	-13.9313	-1.3428	-6.546	-6.546	1.5106	-1.6785	-3.3569	3.8605	4.1962	2.5177	3.1891	0.3357	-3.3569	2.6855	-3.0212	20	291	190	15	1	2
-6.546	-7.5531	-5.5389	-5.5389	-6.546	-5.7068	-4.364	-3.1891	-4.5319	-2.8534	-2.5177	-2.6855	0.8392	3.6926	3.3569	-7.3853	2.5177	-7.5531	20	231	130	16	1	2
-6.3782	-7.5531	-5.7068	-5.5389	-6.546	-5.7068	-4.364	-3.5248	-4.5319	-2.8534	-2.8534	-3.0212	0.6714	3.8605	3.3569	-7.0496	2.182	-7.8888	20	232	131	16	1	2
-6.0425	-7.2174	-5.2032	-5.0354	-6.3782	-5.2032	-4.0283	-3.3569	-4.5319	-2.3499	-3.0212	-3.1891	0.8392	3.8605	3.5248	-6.546	2.3499	-7.7209	20	233	132	16	1	2
-5.5389	-7.0496	-5.2032	-4.8676	-6.0425	-5.0354	-3.8605	-3.3569	-4.5319	-2.182	-3.0212	-3.3569	1.0071	3.8605	3.3569	-6.2103	2.6855	-7.8888	20	234	133	16	1	2
-5.3711	-6.7139	-4.8676	-4.364	-5.7068	-4.8676	-3.6926	-3.3569	-4.364	-2.0142	-3.1891	-3.5248	1.0071	3.8605	3.3569	-5.7068	2.8534	-7.8888	20	235	134	16	1	2
-4.6997	-6.2103	-4.5319	-4.0283	-5.3711	-4.364	-3.1891	-3.3569	-4.1962	-1.8463	-3.1891	-3.6926	1.0071	3.8605	3.5248	-5.2032	3.3569	-8.0566	20	236	135	16	1	2
-4.364	-5.8746	-4.364	-3.5248	-5.2032	-4.1962	-3.1891	-3.1891	-4.1962	-1.5106	-3.3569	-4.0283	1.0071	3.8605	3.3569	-4.6997	3.8605	-7.8888	20	237	136	16	1	2
-3.6926	-5.2032	-3.8605	-3.0212	-4.5319	-3.8605	-2.8534	-3.0212	-3.8605	-1.1749	-3.3569	-4.0283	1.0071	3.6926	3.5248	-4.1962	4.5319	-7.8888	20	238	137	16	1	2
-3.3569	-4.6997	-3.5248	-2.6855	-4.1962	-3.5248	-2.5177	-3.0212	-3.8605	-1.0071	-3.5248	-4.364	1.0071	3.5248	3.3569	-3.6926	5.2032	-8.0566	20	239	138	16	1	2
-2.8534	-4.1962	-3.3569	-2.182	-3.8605	-3.1891	-2.3499	-3.0212	-3.8605	-0.8392	-3.6926	-4.5319	0.8392	3.5248	3.3569	-3.3569	5.8746	-8.2245	20	240	139	16	1	2
-2.5177	-3.6926	-3.1891	-1.8463	-3.6926	-3.0212	-2.182	-3.0212	-3.6926	-0.6714	-3.8605	-4.6997	0.8392	3.3569	3.1891	-3.0212	6.546	-8.2245	20	241	140	16	1	2
-2.0142	-3.1891	-2.8534	-1.5106	-3.3569	-2.6855	-1.8463	-3.1891	-3.6926	-0.6714	-4.0283	-4.8676	0.6714	3.1891	3.1891	-2.8534	7.3853	-8.3923	20	242	141	16	1	2
-1.5106	-2.5177	-2.3499	-0.8392	-2.6855	-2.182	-1.5106	-3.0212	-3.5248	-0.3357	-4.0283	-4.8676	0.8392	3.0212	3.1891	-2.3499	8.2245	-8.2245	20	243	142	16	1	2
-1.1749	-2.0142	-2.182	-0.5035	-2.5177	-1.8463	-1.0071	-2.8534	-3.1891	0	-4.0283	-4.8676	0.8392	3.0212	3.1891	-2.0142	8.728	-8.0566	20	244	143	16	1	2
-0.6714	-1.5106	-1.6785	0	-2.0142	-1.3428	-0.5035	-2.6855	-3.0212	0.1678	-4.1962	-4.8676	0.6714	2.8534	3.0212	-1.5106	9.3994	-7.8888	20	245	144	16	1	2
-0.1678	-1.0071	-1.3428	0.5035	-1.6785	-1.0071	-0.1678	-2.6855	-2.6855	0.3357	-4.0283	-4.6997	0.6714	2.6855	3.0212	-1.0071	10.0708	-7.7209	20	246	145	16	1	2
0.3357	-0.3357	-0.6714	1.1749	-1.1749	-0.1678	0.6714	-2.182	-2.182	1.0071	-3.6926	-4.5319	1.0071	2.5177	3.0212	-0.1678	10.7422	-7.2174	20	247	146	16	1	2
1.0071	0.1678	0	1.8463	-0.6714	0.3357	1.1749	-1.8463	-1.6785	1.3428	-3.5248	-4.1962	1.1749	2.3499	3.0212	0.5035	11.2457	-6.8817	20	248	147	16	1	2
1.5106	0.8392	0.5035	2.3499	-0.1678	1.0071	2.0142	-1.6785	-1.3428	1.6785	-3.1891	-3.6926	1.3428	2.182	3.0212	1.3428	11.5814	-6.546	20	249	148	16	1	2
2.182	1.5106	1.1749	2.8534	0.5035	1.6785	2.5177	-1.1749	-0.6714	2.182	-2.8534	-3.1891	1.5106	2.0142	3.0212	1.8463	11.7493	-6.2103	20	250	149	16	1	2
2.6855	2.0142	1.8463	3.3569	0.8392	2.182	3.1891	-0.8392	0	2.5177	-2.5177	-3.0212	1.6785	1.8463	2.8534	2.5177	11.9171	-6.0425	20	251	150	16	1	2
3.5248	3.0212	2.6855	4.1962	1.6785	3.0212	4.1962	-0.1678	0.6714	3.1891	-1.8463	-2.182	2.182	1.6785	3.0212	3.0212	11.7493	-5.3711	20	252	151	16	1	2
4.1962	3.6926	3.3569	4.6997	2.182	3.8605	4.8676	0.5035	1.5106	3.5248	-1.3428	-1.5106	2.3499	1.5106	2.8534	3.1891	11.2457	-5.3711	20	253	152	16	1	2
4.8676	4.364	4.364	5.3711	2.8534	4.5319	5.5389	1.0071	2.182	4.0283	-0.8392	-0.8392	2.6855	1.3428	2.5177	3.1891	10.5743	-5.0354	20	254	153	16	1	2
5.5389	5.2032	5.2032	5.8746	3.6926	5.5389	6.3782	1.6785	2.8534	4.364	-0.1678	-0.1678	3.0212	1.3428	2.5177	3.1891	9.7351	-4.6997	20	255	154	16	1	2
6.0425	5.8746	5.7068	6.0425	4.1962	5.8746	6.7139	2.182	3.3569	4.5319	0.1678	0.1678	3.0212	1.0071	2.0142	3.0212	8.3923	-4.8676	20	256	155	16	1	2
6.546	6.7139	6.3782	6.3782	4.8676	6.546	7.2174	2.8534	3.8605	4.8676	0.6714	0.8392	3.1891	0.8392	1.8463	2.8534	7.3853	-4.8676	20	257	156	16	1	2
7.2174	7.0496	7.0496	6.8817	5.3711	7.0496	7.7209	3.1891	4.5319	5.0354	1.0071	1.5106	3.3569	0.6714	1.5106	2.5177	6.2103	-4.8676	20	258	157	16	1	2
7.7209	7.8888	7.5531	7.0496	6.0425	7.5531	8.0566	3.6926	5.2032	5.2032	1.3428	1.6785	3.3569	0.3357	1.0071	2.3499	5.0354	-4.8676	20	259	158	16	1	2
8.3923	8.3923	8.2245	7.3853	6.3782	8.0566	8.2245	4.364	5.7068	5.2032	1.6785	2.182	3.1891	0	0.5035	1.8463	3.8605	-4.8676	20	260	159	16	1	2
8.8959	8.8959	8.8959	7.5531	7.0496	8.5602	8.3923	4.8676	6.3782	5.3711	2.182	2.6855	3.3569	-0.3357	0	1.1749	3.0212	-5.0354	20	261	160	16	1	2
9.0637	9.2316	9.5673	7.7209	7.5531	8.8959	8.728	5.5389	6.546	5.5389	2.5177	3.1891	3.3569	-0.6714	-0.3357	0.6714	2.3499	-5.0354	20	262	161	16	1	2
9.5673	9.7351	10.2386	8.0566	8.2245	9.3994	8.8959	6.2103	7.0496	5.7068	3.0212	3.5248	3.5248	-1.0071	-0.6714	0.1678	2.0142	-5.0354	20	263	162	16	1	2
10.0708	10.4065	10.91	8.0566	8.8959	9.7351	9.0637	6.8817	7.5531	5.8746	3.3569	3.8605	3.5248	-1.5106	-1.0071	-0.3357	1.8463	-5.2032	20	264	163	16	1	2
10.5743	10.91	11.4136	8.3923	9.3994	10.0708	9.2316	7.3853	8.0566	6.0425	3.6926	4.364	3.6926	-1.8463	-1.1749	-0.6714	1.8463	-5.0354	20	265	164	16	1	2
11.0779	11.2457	11.7493	8.8959	9.903	10.4065	9.2316	8.0566	8.5602	6.2103	4.1962	4.6997	3.8605	-2.182	-1.3428	-0.8392	2.3499	-5.0354	20	266	165	16	1	2
11.2457	11.7493	12.085	9.0637	10.4065	10.91	9.3994	8.3923	8.8959	6.546	4.5319	5.2032	4.0283	-2.3499	-1.3428	-0.8392	2.8534	-4.8676	20	267	166	16	1	2
11.5814	12.085	12.4207	9.2316	10.91	11.2457	9.5673	8.8959	9.2316	6.7139	5.0354	5.5389	4.1962	-2.5177	-1.1749	-0.6714	3.5248	-4.6997	20	268	167	16	1	2
