"FZ"	"FC3"	"FCZ"	"FC4"	"C3"	"CZ"	"C4"	"CP3"	"CPZ"	"CP4"	"P3"	"PZ"	"P4"	"OZ"	"P8"	"TP7"	"TP8"	"P7"	"Subject"	"Points"	"Time"	"Trial"	"Rejected"	"Correct"
1.6785	11.2457	5.0354	-1.5106	16.2811	13.2599	3.3569	18.2953	17.7917	7.7209	20.4773	19.9738	15.1062	1.0071	19.3024	16.449	10.7422	18.7988	48	231	130	2	1	2
1.1749	11.2457	4.6997	-1.6785	16.2811	12.5885	2.8534	17.9596	16.7847	7.0496	20.3094	19.1345	14.267	1.0071	19.1345	16.2811	10.5743	18.631	48	232	131	2	1	2
0.6714	10.91	4.1962	-2.182	15.7776	11.7493	2.5177	17.6239	15.7776	6.3782	19.8059	17.9596	13.2599	1.0071	18.7988	16.1133	10.0708	18.4631	48	233	132	2	1	2
0.5035	10.5743	3.6926	-2.5177	15.4419	10.91	1.8463	17.2882	14.7705	5.3711	19.4702	16.9525	12.2528	0.8392	18.631	15.7776	9.903	18.2953	48	234	133	2	1	2
0.3357	10.4065	3.3569	-2.6855	15.1062	10.0708	1.3428	16.7847	13.5956	4.5319	19.1345	15.7776	11.4136	0.8392	18.2953	15.6097	9.5673	17.9596	48	235	134	2	1	2
-0.1678	9.7351	2.8534	-2.8534	14.4348	9.2316	0.8392	16.1133	12.2528	3.5248	18.4631	14.4348	10.2386	0.8392	17.9596	15.1062	9.2316	17.4561	48	236	135	2	1	2
-0.5035	9.5673	2.3499	-3.1891	13.9313	8.3923	0	15.4419	11.0779	2.5177	17.7917	13.092	8.8959	0.6714	17.6239	14.7705	8.8959	17.1204	48	237	136	2	1	2
-0.8392	9.0637	1.6785	-3.3569	13.2599	7.2174	-0.6714	14.7705	9.5673	1.6785	16.9525	11.5814	7.8888	0.6714	17.4561	14.267	8.5602	16.6168	48	238	137	2	1	2
-0.8392	8.5602	1.1749	-3.5248	12.7563	6.3782	-1.1749	14.0991	8.2245	0.6714	16.2811	10.2386	6.7139	0.6714	17.1204	14.0991	8.3923	16.1133	48	239	138	2	1	2
-1.3428	8.2245	0.6714	-3.8605	12.2528	5.3711	-2.0142	13.4277	6.7139	-0.5035	15.7776	8.728	5.7068	0.5035	16.9525	13.7634	8.2245	15.7776	48	240	139	2	1	2
-1.5106	7.7209	0.3357	-4.1962	11.4136	4.364	-2.6855	12.5885	5.3711	-1.5106	14.9384	7.3853	4.5319	0.5035	16.449	13.4277	8.0566	15.1062	48	241	140	2	1	2
-1.8463	7.3853	-0.3357	-4.364	10.7422	3.5248	-3.1891	11.7493	3.8605	-2.5177	13.9313	5.8746	3.3569	0.3357	16.1133	13.092	7.7209	14.6027	48	242	141	2	1	2
-2.182	7.0496	-0.8392	-4.8676	10.2386	2.5177	-3.8605	11.2457	2.5177	-3.6926	13.2599	4.364	2.182	0.1678	15.9454	12.9242	7.7209	14.267	48	243	142	2	1	2
-2.182	6.3782	-1.1749	-5.2032	9.5673	1.8463	-4.6997	10.5743	1.3428	-4.5319	12.4207	3.1891	1.1749	0.1678	15.6097	12.5885	7.2174	13.7634	48	244	143	2	1	2
-2.6855	6.2103	-1.8463	-5.7068	9.0637	1.0071	-5.2032	9.903	0	-5.5389	11.5814	1.6785	-0.1678	0	15.4419	12.5885	7.2174	13.4277	48	245	144	2	1	2
-2.6855	5.5389	-2.182	-6.2103	8.3923	0.1678	-5.7068	9.2316	-1.0071	-6.3782	10.5743	0.5035	-1.1749	0	15.1062	12.2528	7.0496	12.9242	48	246	145	2	1	2
-3.0212	5.2032	-2.6855	-6.3782	7.8888	-0.5035	-6.3782	8.5602	-2.3499	-7.2174	9.903	-0.6714	-2.0142	0	14.7705	12.085	6.8817	12.4207	48	247	146	2	1	2
-3.3569	4.5319	-3.3569	-7.0496	7.0496	-1.5106	-6.8817	7.8888	-3.5248	-7.8888	9.0637	-2.0142	-2.8534	0	14.6027	11.9171	6.8817	11.9171	48	248	147	2	1	2
-3.6926	3.8605	-3.8605	-7.3853	6.2103	-2.182	-7.7209	7.2174	-4.5319	-8.728	8.0566	-3.1891	-3.8605	0	14.4348	11.5814	6.7139	11.4136	48	249	148	2	1	2
-4.1962	3.1891	-4.5319	-8.2245	5.5389	-3.0212	-8.2245	6.3782	-5.8746	-9.5673	7.2174	-4.364	-4.6997	0	14.267	11.2457	6.546	11.0779	48	250	149	2	1	2
-4.5319	2.6855	-5.0354	-8.8959	4.8676	-3.6926	-8.8959	5.7068	-6.7139	-10.0708	6.546	-5.2032	-5.2032	0.1678	13.9313	10.91	6.2103	10.4065	48	251	150	2	1	2
-5.2032	1.8463	-5.7068	-9.5673	4.0283	-4.5319	-9.5673	5.0354	-7.8888	-10.7422	5.7068	-6.3782	-5.8746	0.1678	13.7634	10.7422	6.2103	9.903	48	252	151	2	1	2
-5.7068	1.1749	-6.3782	-10.2386	3.3569	-5.0354	-9.903	4.1962	-8.728	-11.0779	4.8676	-7.0496	-6.2103	0.3357	13.5956	10.0708	5.8746	9.3994	48	253	152	2	1	2
-6.2103	0.3357	-7.0496	-11.0779	2.3499	-5.7068	-10.4065	3.5248	-9.5673	-11.5814	4.1962	-7.8888	-6.7139	0.3357	13.5956	9.903	5.8746	9.0637	48	254	153	2	1	2
-6.546	-0.1678	-7.5531	-11.5814	1.8463	-6.2103	-10.91	3.0212	-10.0708	-11.7493	3.6926	-8.3923	-6.7139	0.5035	13.4277	9.3994	5.3711	8.5602	48	255	154	2	1	2
-7.0496	-0.8392	-8.2245	-12.4207	1.0071	-6.8817	-11.4136	2.3499	-10.7422	-11.9171	3.1891	-8.8959	-6.8817	0.5035	13.4277	9.0637	5.2032	8.2245	48	256	155	2	1	2
-7.7209	-1.5106	-8.5602	-13.092	0.3357	-7.3853	-11.5814	1.6785	-11.4136	-12.085	2.6855	-9.2316	-6.7139	0.5035	13.2599	8.5602	5.2032	7.8888	48	257	156	2	1	2
-8.2245	-2.182	-9.0637	-13.7634	-0.1678	-7.8888	-11.9171	1.1749	-11.7493	-11.9171	2.182	-9.3994	-6.546	0.5035	13.2599	8.0566	4.8676	7.5531	48	258	157	2	1	2
-8.5602	-2.6855	-9.3994	-14.0991	-0.8392	-8.0566	-12.085	0.8392	-11.9171	-11.9171	2.0142	-9.5673	-6.0425	0.5035	13.2599	7.7209	4.6997	7.0496	48	259	158	2	1	2
-8.8959	-3.1891	-9.5673	-14.4348	-1.3428	-8.3923	-11.9171	0.3357	-12.085	-11.4136	1.6785	-9.2316	-5.7068	0.5035	13.4277	7.0496	4.5319	6.8817	48	260	159	2	1	2
-9.0637	-3.6926	-9.903	-14.7705	-2.0142	-8.5602	-12.085	-0.1678	-12.2528	-11.0779	1.3428	-9.0637	-5.0354	0.5035	13.5956	6.7139	4.364	6.3782	48	261	160	2	1	2
-9.2316	-4.1962	-10.0708	-14.9384	-2.6855	-8.5602	-11.7493	-0.6714	-12.085	-10.5743	1.1749	-8.8959	-4.364	0.5035	13.4277	6.0425	4.364	6.0425	48	262	161	2	1	2
-9.5673	-4.5319	-10.0708	-14.9384	-3.1891	-8.8959	-11.4136	-1.0071	-12.085	-10.0708	1.0071	-8.3923	-3.5248	0.5035	13.4277	5.7068	4.1962	5.8746	48	263	162	2	1	2
-9.903	-5.2032	-10.2386	-15.1062	-4.0283	-8.8959	-11.4136	-1.6785	-11.9171	-9.5673	0.5035	-8.0566	-3.0212	0.3357	13.7634	4.8676	3.8605	5.3711	48	264	163	2	1	2
-10.0708	-5.8746	-10.2386	-15.1062	-4.5319	-9.0637	-11.0779	-2.182	-11.7493	-8.8959	0.5035	-7.5531	-2.0142	0.3357	13.7634	4.1962	3.8605	4.8676	48	265	164	2	1	2
-10.2386	-6.3782	-10.4065	-14.9384	-5.2032	-9.0637	-10.5743	-2.6855	-11.4136	-8.2245	0.1678	-6.8817	-1.1749	0.3357	13.7634	3.5248	3.6926	4.364	48	266	165	2	1	2
-10.5743	-7.0496	-10.4065	-14.9384	-5.8746	-9.0637	-10.2386	-3.1891	-10.91	-7.5531	0	-6.2103	-0.1678	0.3357	13.7634	2.8534	3.5248	4.0283	48	267	166	2	1	2
-10.5743	-7.5531	-10.4065	-14.6027	-6.3782	-9.0637	-9.7351	-3.5248	-10.4065	-6.7139	-0.3357	-5.3711	0.5035	0.3357	13.7634	2.182	3.1891	3.5248	48	268	167	2	1	2
-10.7422	-8.0566	-10.2386	-14.267	-7.0496	-8.8959	-9.0637	-3.8605	-9.903	-6.0425	-0.5035	-4.5319	1.5106	0.3357	13.5956	1.6785	3.0212	3.1891	48	269	168	2	1	2
-10.7422	-8.3923	-10.0708	-13.7634	-7.5531	-8.728	-8.5602	-4.1962	-9.2316	-5.0354	-0.5035	-3.5248	2.6855	0.3357	13.7634	1.0071	2.8534	2.8534	48	270	169	2	1	2
-10.7422	-8.728	-9.903	-13.2599	-7.8888	-8.2245	-7.7209	-4.364	-8.3923	-4.0283	-0.5035	-2.6855	3.8605	0.3357	13.5956	0.6714	2.8534	2.6855	48	271	170	2	1	2
-10.7422	-9.0637	-9.5673	-12.5885	-8.3923	-8.0566	-7.0496	-4.6997	-7.5531	-3.1891	-0.6714	-1.6785	4.6997	0.1678	13.7634	0.1678	2.6855	2.3499	48	272	171	2	1	2
-10.7422	-9.3994	-9.2316	-11.9171	-8.8959	-7.7209	-6.3782	-5.0354	-6.8817	-2.182	-0.6714	-0.6714	5.7068	0	13.9313	-0.5035	2.5177	2.182	48	273	172	2	1	2
-10.5743	-9.7351	-9.0637	-11.0779	-9.2316	-7.3853	-5.3711	-5.2032	-6.0425	-1.1749	-0.5035	0.3357	6.7139	-0.1678	13.9313	-1.0071	2.5177	2.182	48	274	173	2	1	2
-10.2386	-10.0708	-8.5602	-10.2386	-9.5673	-6.8817	-4.6997	-5.3711	-5.0354	-0.3357	-0.3357	1.1749	7.7209	-0.3357	13.7634	-1.3428	2.5177	1.8463	48	275	174	2	1	2
-10.2386	-10.2386	-8.3923	-9.3994	-10.0708	-6.7139	-3.8605	-5.7068	-4.5319	0.5035	-0.5035	2.0142	8.3923	-0.6714	13.9313	-1.8463	2.3499	1.8463	48	276	175	2	1	2
-10.0708	-10.5743	-7.8888	-8.3923	-10.2386	-6.2103	-2.8534	-5.8746	-3.6926	1.3428	-0.3357	2.8534	9.0637	-0.8392	13.9313	-2.182	2.3499	1.8463	48	277	176	2	1	2
-9.7351	-10.91	-7.7209	-7.3853	-10.91	-5.8746	-2.182	-6.0425	-3.0212	2.0142	-0.3357	3.6926	9.7351	-1.1749	13.9313	-2.6855	2.182	1.6785	48	278	177	2	1	2
-9.3994	-11.0779	-7.2174	-6.546	-11.0779	-5.5389	-1.3428	-6.0425	-2.3499	2.8534	-0.1678	4.364	10.2386	-1.3428	13.9313	-2.8534	2.3499	1.8463	48	279	178	2	1	2
-9.0637	-11.4136	-7.0496	-5.7068	-11.2457	-5.2032	-0.8392	-6.3782	-1.8463	3.3569	-0.1678	5.0354	10.7422	-1.6785	13.7634	-2.8534	2.182	2.0142	48	280	179	2	1	2
-8.8959	-11.7493	-6.7139	-5.0354	-11.7493	-5.0354	-0.3357	-6.3782	-1.5106	3.6926	0.1678	5.3711	11.2457	-2.0142	13.7634	-3.1891	2.0142	2.0142	48	281	180	2	1	2
-8.3923	-11.7493	-6.546	-4.5319	-11.9171	-4.5319	0.3357	-6.3782	-0.8392	4.1962	0.3357	6.2103	11.4136	-2.182	13.4277	-3.1891	2.0142	2.3499	48	282	181	2	1	2
-8.2245	-12.085	-6.3782	-4.1962	-12.085	-4.364	0.5035	-6.546	-0.6714	4.364	0.5035	6.3782	11.7493	-2.5177	13.5956	-3.3569	1.6785	2.5177	48	283	182	2	1	2
-7.8888	-12.2528	-6.2103	-3.6926	-12.085	-4.1962	0.8392	-6.546	-0.3357	4.6997	0.8392	6.7139	11.9171	-2.6855	13.092	-3.1891	1.8463	2.8534	48	284	183	2	1	2
-7.8888	-12.5885	-6.2103	-3.6926	-12.2528	-4.1962	1.0071	-6.546	-0.3357	4.6997	0.8392	7.0496	11.9171	-3.0212	12.9242	-3.0212	1.5106	3.1891	48	285	184	2	1	2
-7.5531	-12.7563	-6.0425	-3.6926	-12.2528	-3.8605	1.0071	-6.546	0	4.8676	1.3428	7.2174	11.9171	-3.1891	12.7563	-2.8534	1.3428	3.5248	48	286	185	2	1	2
-7.3853	-12.7563	-6.0425	-3.8605	-12.2528	-3.8605	1.0071	-6.3782	0.1678	4.8676	1.5106	7.3853	11.7493	-3.3569	12.2528	-2.5177	1.1749	3.8605	48	287	186	2	1	2
-7.5531	-13.092	-6.2103	-4.0283	-12.5885	-3.8605	0.8392	-6.3782	0.1678	4.6997	1.6785	7.2174	11.7493	-3.6926	11.9171	-2.5177	0.8392	4.1962	48	288	187	2	1	2
-7.7209	-13.4277	-6.2103	-4.364	-12.5885	-3.8605	0.8392	-6.3782	0.1678	4.5319	1.8463	7.3853	11.2457	-3.8605	11.5814	-2.182	0.6714	4.5319	48	289	188	2	1	2
-7.8888	-13.5956	-6.546	-4.8676	-12.5885	-3.8605	0.6714	-6.3782	0.1678	4.364	2.182	7.5531	11.2457	-4.0283	11.2457	-1.8463	0.5035	5.0354	48	290	189	2	1	2
-8.3923	-14.0991	-6.8817	-5.3711	-13.092	-4.1962	0.3357	-6.3782	0	4.0283	2.0142	7.2174	10.91	-4.364	10.91	-1.6785	0.3357	5.2032	48	291	190	2	1	2
0.8392	-6.3782	-1.0071	-0.6714	-8.3923	-0.6714	-6.7139	-9.3994	-4.5319	-8.2245	-10.2386	-4.364	-2.182	2.182	4.6997	-11.0779	1.5106	-9.7351	48	231	130	3	1	2
1.1749	-6.3782	-0.6714	-0.3357	-8.0566	-0.5035	-6.8817	-9.2316	-4.6997	-8.3923	-10.0708	-4.5319	-2.3499	2.182	4.6997	-10.91	1.5106	-9.5673	48	232	131	3	1	2
1.3428	-6.0425	-0.3357	0	-7.7209	-0.1678	-6.8817	-8.728	-4.6997	-8.5602	-9.7351	-4.6997	-2.3499	2.182	4.8676	-10.91	1.5106	-9.3994	48	233	132	3	1	2
1.6785	-5.8746	-0.1678	0.1678	-7.3853	0	-6.8817	-8.3923	-4.5319	-8.728	-9.2316	-4.8676	-2.3499	2.0142	4.8676	-10.91	1.3428	-9.0637	48	234	133	3	1	2
1.6785	-5.5389	-0.1678	0.3357	-7.2174	0	-7.2174	-8.2245	-4.8676	-9.0637	-8.8959	-5.0354	-2.5177	1.8463	4.8676	-10.7422	1.3428	-8.8959	48	235	134	3	1	2
1.6785	-5.3711	0	0.3357	-7.0496	-0.1678	-7.3853	-7.8888	-5.0354	-9.0637	-8.728	-5.3711	-2.6855	1.8463	5.0354	-10.7422	1.3428	-8.5602	48	236	135	3	1	2
1.6785	-5.3711	0	0.5035	-6.7139	-0.1678	-7.5531	-7.5531	-5.2032	-9.2316	-8.3923	-5.7068	-2.8534	1.6785	5.0354	-10.7422	1.3428	-8.2245	48	237	136	3	1	2
1.6785	-5.2032	-0.1678	0.5035	-6.7139	-0.3357	-7.5531	-7.3853	-5.7068	-9.3994	-8.0566	-5.8746	-2.8534	1.3428	5.0354	-10.5743	1.1749	-7.8888	48	238	137	3	1	2
1.5106	-5.0354	-0.1678	0.5035	-6.546	-0.5035	-7.7209	-7.0496	-5.8746	-9.3994	-7.8888	-6.2103	-3.0212	1.1749	5.3711	-10.4065	1.3428	-7.5531	48	239	138	3	1	2
1.3428	-5.0354	-0.5035	0.5035	-6.546	-0.8392	-7.7209	-6.8817	-6.0425	-9.3994	-7.5531	-6.546	-3.0212	1.0071	5.5389	-10.2386	1.5106	-7.0496	48	240	139	3	1	2
1.3428	-5.0354	-0.5035	0.5035	-6.546	-1.0071	-7.5531	-6.7139	-6.3782	-9.3994	-7.0496	-6.7139	-3.0212	0.8392	5.7068	-10.2386	1.6785	-6.7139	48	241	140	3	1	2
1.0071	-4.8676	-0.6714	0.1678	-6.546	-1.3428	-7.3853	-6.7139	-6.7139	-9.2316	-6.7139	-7.0496	-3.0212	0.6714	6.0425	-10.0708	1.8463	-6.2103	48	242	141	3	1	2
0.8392	-4.8676	-1.1749	0	-6.546	-1.5106	-7.3853	-6.546	-7.0496	-9.0637	-6.546	-7.2174	-2.8534	0.5035	6.3782	-9.903	2.0142	-5.8746	48	243	142	3	1	2
0.6714	-4.8676	-1.3428	-0.1678	-6.546	-1.8463	-7.3853	-6.3782	-7.2174	-8.728	-6.2103	-7.3853	-2.8534	0.3357	6.546	-9.903	2.3499	-5.5389	48	244	143	3	1	2
0.6714	-4.6997	-1.5106	-0.3357	-6.3782	-2.0142	-6.8817	-6.2103	-7.2174	-8.3923	-5.7068	-7.3853	-2.5177	0.3357	7.0496	-9.5673	2.6855	-5.0354	48	245	144	3	1	2
0.5035	-4.6997	-1.8463	-0.6714	-6.546	-2.3499	-6.7139	-6.0425	-7.3853	-8.0566	-5.3711	-7.3853	-2.3499	0.1678	7.3853	-9.5673	2.8534	-4.6997	48	246	145	3	1	2
0.5035	-4.364	-2.0142	-0.8392	-6.546	-2.6855	-6.3782	-5.8746	-7.3853	-7.5531	-5.0354	-7.2174	-2.0142	0.1678	7.7209	-9.2316	3.1891	-4.364	48	247	146	3	1	2
0.3357	-4.364	-2.182	-0.8392	-6.546	-2.8534	-6.0425	-5.5389	-7.0496	-6.7139	-4.6997	-7.0496	-1.6785	0.1678	8.0566	-9.0637	3.5248	-3.8605	48	248	147	3	1	2
0.3357	-4.1962	-2.5177	-0.8392	-6.3782	-2.8534	-5.5389	-5.3711	-7.0496	-6.2103	-4.364	-6.8817	-1.1749	0.1678	8.3923	-8.728	3.6926	-3.5248	48	249	148	3	1	2
0	-4.1962	-2.6855	-0.8392	-6.3782	-3.0212	-5.0354	-5.3711	-6.8817	-5.5389	-3.8605	-6.3782	-0.5035	0.1678	8.5602	-8.5602	4.0283	-3.1891	48	250	149	3	1	2
0	-4.0283	-2.8534	-0.8392	-6.3782	-3.1891	-4.5319	-5.2032	-6.546	-4.8676	-3.5248	-6.0425	0	0.1678	8.8959	-8.3923	4.364	-3.0212	48	251	150	3	1	2
0	-4.1962	-3.0212	-0.5035	-6.3782	-3.1891	-4.0283	-5.0354	-6.2103	-4.0283	-3.3569	-5.5389	0.6714	0.1678	9.0637	-8.2245	4.5319	-2.6855	48	252	151	3	1	2
0	-3.8605	-3.0212	-0.5035	-6.3782	-3.0212	-3.1891	-4.8676	-5.7068	-3.0212	-3.0212	-4.8676	1.3428	0.3357	9.5673	-7.8888	4.8676	-2.3499	48	253	152	3	1	2
-0.1678	-4.0283	-3.3569	-0.5035	-6.3782	-3.0212	-2.8534	-4.8676	-5.3711	-2.3499	-2.5177	-4.1962	2.182	0.3357	9.5673	-7.7209	5.0354	-2.182	48	254	153	3	1	2
-0.3357	-4.0283	-3.3569	-0.6714	-6.3782	-2.8534	-2.3499	-4.6997	-4.6997	-1.6785	-2.182	-3.5248	2.8534	0.5035	9.903	-7.5531	5.3711	-1.8463	48	255	154	3	1	2
-0.6714	-4.1962	-3.6926	-0.8392	-6.3782	-3.0212	-2.0142	-4.6997	-4.364	-0.8392	-2.182	-3.0212	3.5248	0.5035	9.903	-7.3853	5.5389	-1.6785	48	256	155	3	1	2
-0.8392	-4.1962	-3.6926	-1.0071	-6.3782	-2.6855	-1.6785	-4.6997	-3.8605	-0.1678	-1.8463	-2.3499	4.1962	0.6714	10.2386	-7.2174	5.8746	-1.5106	48	257	156	3	1	2
-0.8392	-4.364	-3.8605	-1.3428	-6.3782	-2.5177	-1.3428	-4.5319	-3.1891	0.5035	-1.5106	-1.5106	5.0354	0.8392	10.4065	-6.8817	6.2103	-1.1749	48	258	157	3	1	2
-1.1749	-4.5319	-4.0283	-1.8463	-6.3782	-2.5177	-1.1749	-4.6997	-2.8534	1.0071	-1.3428	-0.8392	5.5389	1.0071	10.4065	-6.8817	6.2103	-0.8392	48	259	158	3	1	2
-1.3428	-4.364	-4.0283	-2.0142	-6.2103	-2.182	-0.8392	-4.364	-2.0142	1.6785	-1.0071	0	6.2103	1.0071	10.5743	-6.7139	6.3782	-0.6714	48	260	159	3	1	2
-1.3428	-4.5319	-3.8605	-2.3499	-6.2103	-1.8463	-0.6714	-4.1962	-1.3428	2.182	-0.8392	1.0071	6.8817	1.1749	10.5743	-6.546	6.546	-0.5035	48	261	160	3	1	2
-1.3428	-4.364	-3.5248	-2.3499	-5.7068	-1.1749	-0.3357	-3.8605	-0.5035	2.8534	-0.1678	1.8463	7.7209	1.1749	10.7422	-6.0425	6.8817	0	48	262	161	3	1	2
-1.0071	-4.0283	-3.3569	-2.5177	-5.3711	-0.8392	-0.1678	-3.6926	0.3357	3.3569	0.1678	2.8534	8.3923	1.3428	10.91	-5.8746	6.8817	0.1678	48	263	162	3	1	2
-0.6714	-3.6926	-2.5177	-2.182	-4.6997	0	0.3357	-3.0212	1.3428	4.1962	0.6714	4.0283	9.0637	1.3428	11.0779	-5.0354	7.2174	0.6714	48	264	163	3	1	2
-0.5035	-3.1891	-2.0142	-2.0142	-4.0283	0.6714	0.6714	-2.5177	2.182	4.6997	1.3428	5.0354	9.7351	1.3428	11.2457	-4.5319	7.3853	1.1749	48	265	164	3	1	2
0.1678	-2.6855	-1.3428	-1.6785	-3.0212	1.5106	1.1749	-1.8463	3.3569	5.3711	1.8463	6.0425	10.5743	1.5106	11.2457	-4.0283	7.5531	1.5106	48	266	165	3	1	2
0.8392	-2.0142	-0.3357	-1.1749	-2.0142	2.6855	1.8463	-0.8392	4.6997	6.0425	2.6855	7.3853	11.2457	1.5106	11.5814	-3.1891	7.8888	2.182	48	267	166	3	1	2
1.3428	-1.1749	0.5035	-0.5035	-1.0071	3.6926	2.3499	0	5.8746	6.7139	3.5248	8.5602	11.9171	1.5106	11.7493	-2.5177	8.2245	2.5177	48	268	167	3	1	2
2.0142	-0.5035	1.6785	0.1678	0.1678	4.6997	3.1891	1.0071	7.0496	7.5531	4.5319	9.903	12.7563	1.6785	11.9171	-1.8463	8.5602	3.0212	48	269	168	3	1	2
2.8534	0.6714	2.8534	1.1749	1.3428	6.0425	3.5248	2.182	8.3923	8.2245	5.2032	10.91	13.4277	1.6785	12.085	-1.0071	8.8959	3.6926	48	270	169	3	1	2
3.5248	1.6785	3.8605	1.8463	2.6855	7.2174	4.5319	3.5248	9.7351	8.8959	6.3782	12.2528	14.0991	1.8463	12.2528	-0.3357	9.2316	4.364	48	271	170	3	1	2
4.364	2.8534	5.2032	3.1891	4.1962	8.5602	5.2032	4.5319	11.0779	9.5673	7.2174	13.2599	14.7705	1.8463	12.2528	0.5035	9.5673	4.8676	48	272	171	3	1	2
5.0354	3.8605	6.546	4.1962	5.7068	9.7351	6.0425	5.8746	12.2528	10.2386	8.0566	14.267	15.274	2.0142	12.4207	1.5106	9.903	5.5389	48	273	172	3	1	2
5.8746	5.2032	7.8888	5.7068	7.0496	10.91	6.8817	7.0496	13.5956	10.91	8.8959	15.274	15.7776	2.0142	12.5885	2.3499	10.2386	5.8746	48	274	173	3	1	2
6.7139	6.2103	8.8959	6.8817	8.3923	12.085	7.5531	8.2245	14.7705	11.2457	9.7351	16.1133	16.2811	2.0142	12.5885	3.0212	10.2386	6.3782	48	275	174	3	1	2
7.3853	7.2174	10.0708	8.0566	9.7351	13.092	8.5602	9.3994	15.7776	11.9171	10.4065	16.7847	16.449	2.0142	12.7563	3.8605	10.5743	6.7139	48	276	175	3	1	2
8.0566	8.2245	11.2457	9.5673	10.91	14.267	9.2316	10.4065	16.7847	12.4207	11.2457	17.6239	16.9525	2.0142	12.5885	4.5319	10.7422	7.2174	48	277	176	3	1	2
8.5602	9.0637	12.085	10.4065	11.9171	15.1062	9.7351	11.2457	17.4561	12.7563	11.7493	17.9596	17.1204	1.8463	12.4207	5.0354	10.7422	7.2174	48	278	177	3	1	2
9.0637	10.0708	12.9242	11.4136	13.092	15.9454	10.4065	12.2528	18.2953	13.092	12.2528	18.2953	17.1204	1.8463	12.5885	5.7068	10.91	7.5531	48	279	178	3	1	2
9.3994	10.5743	13.5956	12.085	13.9313	16.6168	10.7422	12.9242	18.631	13.2599	12.5885	18.631	17.2882	1.6785	12.4207	6.0425	10.91	7.7209	48	280	179	3	1	2
9.5673	11.2457	14.0991	12.5885	14.6027	17.2882	11.0779	13.5956	19.1345	13.4277	12.7563	18.7988	17.2882	1.5106	12.085	6.546	10.7422	7.7209	48	281	180	3	1	2
9.7351	11.7493	14.6027	13.092	15.274	17.7917	11.2457	13.9313	19.4702	13.4277	12.9242	18.631	16.9525	1.3428	11.9171	6.7139	10.7422	7.8888	48	282	181	3	1	2
9.903	12.085	14.7705	13.2599	15.6097	18.1274	11.5814	14.4348	19.6381	13.4277	12.9242	18.631	16.9525	1.1749	11.7493	6.8817	10.7422	7.8888	48	283	182	3	1	2
9.903	12.4207	15.1062	13.5956	15.9454	18.4631	11.7493	14.6027	19.8059	13.4277	12.9242	18.631	16.7847	1.0071	11.5814	7.0496	10.7422	7.8888	48	284	183	3	1	2
9.903	12.4207	15.1062	13.7634	16.2811	18.631	11.7493	14.7705	19.8059	13.4277	12.7563	18.4631	16.6168	0.8392	11.2457	7.2174	10.7422	7.7209	48	285	184	3	1	2
9.7351	12.4207	14.9384	13.5956	16.1133	18.631	11.7493	14.7705	19.6381	13.2599	12.5885	18.1274	16.2811	0.5035	10.91	7.2174	10.5743	7.5531	48	286	185	3	1	2
9.5673	12.4207	14.9384	13.5956	16.1133	18.631	11.7493	14.7705	19.6381	13.2599	12.2528	17.7917	15.9454	0.3357	10.7422	7.0496	10.4065	7.2174	48	287	186	3	1	2
9.5673	12.2528	14.6027	13.5956	15.7776	18.2953	11.4136	14.4348	19.3024	12.9242	11.9171	17.6239	15.7776	0.1678	10.5743	6.8817	10.2386	7.0496	48	288	187	3	1	2
9.0637	11.9171	14.267	13.2599	15.274	18.1274	11.4136	14.267	18.9667	12.5885	11.4136	17.1204	15.4419	0	10.2386	6.546	9.903	6.7139	48	289	188	3	1	2
8.728	11.4136	13.7634	13.092	14.7705	17.6239	11.0779	13.5956	18.4631	12.2528	10.91	16.6168	15.274	0	10.0708	6.2103	9.5673	6.2103	48	290	189	3	1	2
8.3923	10.91	13.4277	12.9242	14.267	17.2882	10.91	13.2599	18.1274	12.2528	10.2386	16.2811	15.1062	-0.1678	9.7351	5.7068	9.5673	6.0425	48	291	190	3	1	2
-21.1487	-22.3236	-25.0092	-20.6451	-21.1487	-28.3661	-20.3094	-22.3236	-32.0587	-25.177	-25.3448	-29.3732	-25.6805	-0.6714	-6.7139	-7.2174	-14.7705	-10.2386	48	231	130	4	1	2
-20.4773	-21.9879	-24.1699	-20.1416	-21.1487	-27.8625	-19.9738	-22.4915	-32.2266	-25.3448	-26.0162	-29.8767	-25.6805	-0.6714	-6.7139	-7.3853	-14.7705	-10.7422	48	232	131	4	1	2
-19.9738	-21.6522	-23.3307	-19.6381	-21.1487	-27.6947	-19.9738	-22.8271	-32.8979	-25.3448	-26.8555	-30.5481	-26.0162	-0.8392	-6.8817	-7.7209	-14.7705	-11.5814	48	233	132	4	1	2
-19.3024	-21.3165	-22.6593	-19.3024	-21.1487	-27.5269	-19.9738	-23.1628	-33.2336	-25.5127	-27.6947	-31.5552	-26.1841	-1.0071	-7.0496	-8.0566	-14.9384	-12.2528	48	234	133	4	1	2
-18.2953	-20.6451	-21.8201	-18.631	-20.9808	-27.0233	-19.6381	-23.1628	-33.4015	-25.3448	-28.1982	-32.0587	-26.1841	-1.0071	-6.8817	-8.2245	-14.6027	-12.7563	48	235	134	4	1	2
-17.6239	-20.3094	-20.9808	-18.1274	-20.9808	-26.6876	-19.4702	-23.6664	-33.905	-25.5127	-29.0375	-32.7301	-26.3519	-1.1749	-6.8817	-8.5602	-14.6027	-13.4277	48	236	135	4	1	2
-16.9525	-19.8059	-20.3094	-17.6239	-20.9808	-26.5198	-19.3024	-23.8342	-34.2407	-25.5127	-29.8767	-33.4015	-26.3519	-1.3428	-6.8817	-9.0637	-14.4348	-14.267	48	237	136	4	1	2
-15.9454	-19.1345	-19.3024	-16.9525	-20.813	-26.1841	-18.9667	-24.0021	-34.5764	-25.3448	-30.5481	-33.905	-26.3519	-1.3428	-6.546	-9.3994	-14.0991	-14.9384	48	238	137	4	1	2
-15.1062	-18.4631	-18.4631	-16.1133	-20.813	-25.6805	-18.4631	-24.1699	-34.7443	-25.0092	-31.2195	-34.4086	-26.1841	-1.3428	-6.3782	-9.903	-13.5956	-15.6097	48	239	138	4	1	2
-14.4348	-18.1274	-17.7917	-15.274	-20.813	-25.5127	-18.2953	-24.5056	-35.08	-25.0092	-32.2266	-35.08	-26.3519	-1.5106	-6.2103	-10.5743	-13.4277	-16.6168	48	240	139	4	1	2
-13.4277	-17.4561	-16.9525	-14.267	-20.813	-25.0092	-17.6239	-24.5056	-34.9121	-24.6735	-32.8979	-35.4156	-26.0162	-1.5106	-5.8746	-11.0779	-13.092	-17.4561	48	241	140	4	1	2
-12.5885	-16.9525	-15.9454	-13.092	-20.4773	-24.5056	-16.9525	-24.6735	-34.9121	-24.1699	-33.5693	-35.7513	-25.8484	-1.5106	-5.7068	-11.7493	-12.5885	-18.1274	48	242	141	4	1	2
-11.5814	-16.2811	-15.1062	-11.7493	-20.4773	-23.8342	-16.1133	-24.8413	-34.9121	-23.4985	-34.2407	-36.087	-25.5127	-1.5106	-5.2032	-12.2528	-12.085	-18.9667	48	243	142	4	1	2
-10.5743	-15.7776	-13.9313	-10.2386	-19.9738	-23.1628	-15.1062	-24.6735	-34.4086	-22.8271	-34.4086	-35.9192	-25.0092	-1.3428	-4.6997	-12.7563	-11.2457	-19.6381	48	244	143	4	1	2
-9.5673	-15.274	-13.092	-9.2316	-19.9738	-22.4915	-14.267	-24.8413	-34.2407	-22.3236	-34.9121	-36.087	-24.5056	-1.3428	-4.364	-13.4277	-10.7422	-20.3094	48	245	144	4	1	2
-8.5602	-14.7705	-12.085	-8.2245	-19.6381	-21.8201	-13.5956	-24.6735	-33.905	-21.4844	-35.2478	-35.9192	-24.0021	-1.1749	-4.0283	-13.9313	-9.903	-20.813	48	246	145	4	1	2
-7.8888	-14.4348	-11.4136	-7.5531	-19.4702	-21.1487	-12.9242	-24.5056	-33.4015	-20.813	-35.7513	-35.7513	-23.6664	-1.1749	-3.8605	-14.6027	-9.3994	-21.4844	48	247	146	4	1	2
-7.0496	-14.0991	-10.5743	-7.0496	-19.1345	-20.4773	-12.2528	-24.3378	-32.8979	-19.9738	-35.5835	-35.5835	-22.995	-1.0071	-3.3569	-15.1062	-8.5602	-21.9879	48	248	147	4	1	2
-6.2103	-13.7634	-9.7351	-6.3782	-18.9667	-19.6381	-11.7493	-24.1699	-32.2266	-19.3024	-35.7513	-35.08	-22.3236	-0.8392	-3.0212	-15.6097	-7.8888	-22.4915	48	249	148	4	1	2
-5.5389	-13.5956	-9.0637	-6.2103	-18.631	-18.9667	-11.2457	-23.6664	-31.2195	-18.4631	-35.5835	-34.5764	-21.6522	-0.6714	-2.6855	-15.9454	-7.2174	-22.6593	48	250	149	4	1	2
-5.0354	-13.4277	-8.5602	-6.0425	-18.2953	-18.2953	-10.91	-23.3307	-30.5481	-17.6239	-35.4156	-34.0729	-20.9808	-0.5035	-2.5177	-16.449	-6.546	-22.8271	48	251	150	4	1	2
-4.5319	-13.2599	-7.8888	-6.0425	-17.9596	-17.6239	-10.5743	-22.8271	-29.541	-16.7847	-34.9121	-33.2336	-20.1416	-0.3357	-2.3499	-16.6168	-6.0425	-22.8271	48	252	151	4	1	2
-4.1962	-13.2599	-7.3853	-5.8746	-17.4561	-16.7847	-10.2386	-22.1558	-28.5339	-15.9454	-34.4086	-32.2266	-19.3024	-0.1678	-2.0142	-16.9525	-5.3711	-22.6593	48	253	152	4	1	2
-3.8605	-13.2599	-6.8817	-5.8746	-17.1204	-15.9454	-9.903	-21.3165	-27.359	-15.1062	-33.5693	-31.2195	-18.2953	0	-1.8463	-16.9525	-4.8676	-22.4915	48	254	153	4	1	2
-3.6926	-13.4277	-6.546	-6.0425	-16.7847	-15.274	-9.7351	-20.6451	-26.3519	-14.4348	-32.8979	-30.2124	-17.6239	0.1678	-1.8463	-17.1204	-4.5319	-22.3236	48	255	154	4	1	2
-3.3569	-13.4277	-6.2103	-6.2103	-16.2811	-14.4348	-9.3994	-19.8059	-25.0092	-13.5956	-31.8909	-28.8696	-16.6168	0.1678	-1.6785	-17.1204	-4.0283	-21.8201	48	256	155	4	1	2
-3.1891	-13.4277	-5.8746	-6.3782	-15.7776	-13.5956	-9.5673	-19.1345	-23.8342	-12.7563	-30.8838	-27.6947	-15.7776	0.3357	-1.5106	-17.1204	-3.6926	-21.6522	48	257	156	4	1	2
-2.8534	-13.2599	-5.5389	-6.546	-15.1062	-12.7563	-9.2316	-17.9596	-22.4915	-12.085	-29.7089	-26.3519	-14.7705	0.3357	-1.3428	-16.7847	-3.3569	-20.813	48	258	157	4	1	2
-2.8534	-13.4277	-5.3711	-6.8817	-14.6027	-12.085	-9.2316	-16.9525	-21.3165	-11.4136	-28.5339	-25.0092	-14.0991	0.5035	-1.3428	-16.449	-3.0212	-20.3094	48	259	158	4	1	2
-2.5177	-13.092	-5.0354	-7.0496	-13.7634	-11.0779	-9.0637	-15.9454	-19.9738	-10.7422	-27.1912	-23.6664	-13.2599	0.5035	-1.1749	-16.1133	-2.6855	-19.6381	48	260	159	4	1	2
-2.5177	-13.092	-4.6997	-7.2174	-13.2599	-10.2386	-9.2316	-14.9384	-18.7988	-10.4065	-25.8484	-22.1558	-12.5885	0.5035	-1.0071	-15.6097	-2.6855	-18.7988	48	261	160	4	1	2
-2.6855	-13.092	-4.6997	-7.8888	-12.5885	-9.7351	-9.3994	-14.0991	-17.7917	-10.0708	-24.6735	-20.9808	-11.9171	0.5035	-1.1749	-15.274	-2.6855	-18.2953	48	262	161	4	1	2
-2.5177	-12.7563	-4.364	-8.0566	-12.085	-8.8959	-9.5673	-12.9242	-16.449	-9.7351	-23.1628	-19.6381	-11.4136	0.5035	-1.1749	-14.6027	-2.5177	-17.4561	48	263	162	4	1	2
-2.5177	-12.7563	-4.1962	-8.728	-11.5814	-8.2245	-9.903	-12.085	-15.274	-9.5673	-21.9879	-18.4631	-10.91	0.3357	-1.0071	-14.0991	-2.6855	-16.6168	48	264	163	4	1	2
-2.5177	-12.4207	-4.0283	-8.8959	-10.7422	-7.5531	-9.903	-10.91	-14.0991	-9.2316	-20.4773	-17.1204	-10.5743	0.1678	-0.8392	-13.2599	-2.6855	-15.4419	48	265	164	4	1	2
-2.8534	-12.4207	-3.8605	-9.3994	-10.2386	-6.8817	-10.4065	-9.903	-13.092	-9.3994	-18.9667	-15.9454	-10.0708	0	-1.0071	-12.5885	-2.8534	-14.6027	48	266	165	4	1	2
-3.1891	-12.2528	-3.8605	-10.2386	-9.5673	-6.7139	-10.91	-9.2316	-12.2528	-9.7351	-17.7917	-14.9384	-10.0708	-0.3357	-1.3428	-11.9171	-3.1891	-13.7634	48	267	166	4	1	2
-3.5248	-12.085	-4.0283	-10.91	-9.2316	-6.2103	-11.5814	-8.3923	-11.4136	-9.903	-16.449	-14.0991	-10.0708	-0.6714	-1.6785	-11.2457	-3.6926	-12.9242	48	268	167	4	1	2
-3.8605	-12.085	-4.0283	-11.7493	-8.728	-6.0425	-12.4207	-7.5531	-10.5743	-10.4065	-15.274	-12.9242	-10.0708	-1.0071	-2.0142	-10.5743	-4.1962	-11.9171	48	269	168	4	1	2
-4.364	-12.085	-4.364	-12.7563	-8.3923	-5.8746	-12.9242	-6.8817	-9.903	-11.0779	-14.0991	-12.2528	-10.2386	-1.3428	-2.3499	-9.7351	-4.8676	-11.0779	48	270	169	4	1	2
-4.8676	-11.9171	-4.5319	-13.5956	-8.0566	-5.7068	-13.9313	-6.3782	-9.3994	-11.5814	-12.7563	-11.4136	-10.4065	-1.6785	-2.8534	-8.8959	-5.5389	-10.0708	48	271	170	4	1	2
-5.5389	-11.9171	-4.8676	-14.6027	-7.8888	-5.8746	-14.7705	-5.8746	-9.0637	-12.4207	-11.7493	-10.7422	-10.7422	-2.0142	-3.3569	-8.2245	-6.2103	-9.0637	48	272	171	4	1	2
-6.3782	-11.9171	-5.3711	-15.6097	-7.5531	-6.2103	-15.7776	-5.3711	-8.5602	-13.2599	-10.91	-10.2386	-11.0779	-2.3499	-4.0283	-7.5531	-7.0496	-8.3923	48	273	172	4	1	2
-7.0496	-12.085	-5.7068	-16.9525	-7.5531	-6.3782	-17.1204	-5.0354	-8.3923	-14.0991	-9.903	-9.7351	-11.4136	-2.6855	-4.5319	-7.2174	-7.8888	-7.5531	48	274	173	4	1	2
-7.8888	-12.085	-6.3782	-17.9596	-7.5531	-6.546	-18.1274	-4.8676	-8.3923	-15.1062	-8.8959	-9.3994	-11.9171	-3.0212	-5.2032	-6.546	-8.5602	-6.7139	48	275	174	4	1	2
-8.728	-12.4207	-6.8817	-19.1345	-7.5531	-7.0496	-19.3024	-4.5319	-8.2245	-16.1133	-8.0566	-9.0637	-12.4207	-3.3569	-5.7068	-6.0425	-9.3994	-5.8746	48	276	175	4	1	2
-9.2316	-12.4207	-7.3853	-19.9738	-7.7209	-7.3853	-20.4773	-4.364	-8.2245	-17.1204	-7.3853	-8.728	-12.9242	-3.6926	-6.2103	-5.5389	-10.4065	-5.2032	48	277	176	4	1	2
-10.0708	-12.5885	-8.0566	-21.1487	-7.7209	-7.8888	-21.4844	-4.364	-8.0566	-18.1274	-6.7139	-8.3923	-13.5956	-4.0283	-6.7139	-5.3711	-11.0779	-4.364	48	278	177	4	1	2
-10.7422	-12.7563	-8.5602	-21.8201	-7.7209	-8.3923	-22.4915	-4.1962	-8.2245	-19.1345	-6.0425	-8.3923	-14.0991	-4.364	-7.2174	-4.8676	-11.9171	-3.6926	48	279	178	4	1	2
-11.0779	-12.5885	-8.728	-22.3236	-7.5531	-8.5602	-23.4985	-3.8605	-8.2245	-20.1416	-5.2032	-8.0566	-14.4348	-4.5319	-7.5531	-4.364	-12.4207	-3.0212	48	280	179	4	1	2
-11.4136	-12.5885	-9.2316	-23.1628	-7.8888	-9.0637	-24.5056	-3.8605	-8.2245	-21.1487	-4.6997	-7.8888	-15.1062	-4.8676	-8.0566	-4.1962	-13.2599	-2.182	48	281	180	4	1	2
-11.7493	-12.4207	-9.5673	-23.4985	-7.8888	-9.3994	-25.3448	-3.6926	-8.2245	-21.9879	-4.0283	-7.5531	-15.4419	-5.0354	-8.3923	-3.8605	-13.7634	-1.5106	48	282	181	4	1	2
-11.9171	-12.2528	-9.7351	-24.0021	-7.7209	-9.5673	-26.1841	-3.6926	-8.2245	-22.8271	-3.5248	-7.3853	-15.7776	-5.2032	-8.728	-3.6926	-14.267	-1.1749	48	283	182	4	1	2
-12.2528	-12.085	-10.0708	-24.1699	-7.7209	-9.903	-27.0233	-3.5248	-8.3923	-23.6664	-3.0212	-7.2174	-16.1133	-5.3711	-8.8959	-3.5248	-14.7705	-0.6714	48	284	183	4	1	2
-12.5885	-11.7493	-10.4065	-24.5056	-7.7209	-10.2386	-27.6947	-3.5248	-8.3923	-24.5056	-2.6855	-6.8817	-16.449	-5.5389	-9.2316	-3.3569	-15.274	-0.1678	48	285	184	4	1	2
-12.5885	-11.7493	-10.5743	-25.0092	-7.7209	-10.4065	-28.5339	-3.5248	-8.3923	-25.3448	-2.182	-6.7139	-16.7847	-5.7068	-9.5673	-3.3569	-15.6097	0.1678	48	286	185	4	1	2
-12.9242	-11.5814	-11.0779	-25.5127	-8.0566	-11.0779	-29.541	-3.6926	-8.728	-26.3519	-2.0142	-6.7139	-17.1204	-6.0425	-10.0708	-3.5248	-16.2811	0.5035	48	287	186	4	1	2
-13.2599	-11.5814	-11.4136	-26.0162	-7.8888	-11.4136	-30.2124	-3.8605	-8.8959	-27.1912	-1.8463	-6.7139	-17.4561	-6.2103	-10.2386	-3.5248	-16.449	0.5035	48	288	187	4	1	2
-13.4277	-11.4136	-11.7493	-26.3519	-8.0566	-11.5814	-31.0516	-3.8605	-8.8959	-27.8625	-1.6785	-6.546	-17.7917	-6.3782	-10.5743	-3.6926	-16.9525	0.5035	48	289	188	4	1	2
-13.5956	-11.5814	-12.085	-27.0233	-8.0566	-12.085	-31.8909	-4.0283	-9.2316	-28.8696	-1.8463	-6.546	-18.1274	-6.7139	-10.91	-4.1962	-17.4561	0.3357	48	290	189	4	1	2
-14.0991	-11.4136	-12.5885	-27.359	-8.2245	-12.4207	-32.5623	-4.364	-9.3994	-29.7089	-1.8463	-6.546	-18.4631	-7.0496	-11.2457	-4.364	-17.9596	0.1678	48	291	190	4	1	2
1.3428	3.6926	-0.6714	-2.5177	4.364	-0.1678	-6.0425	7.3853	1.3428	-7.8888	10.5743	2.5177	-1.3428	-0.3357	2.6855	8.2245	1.0071	7.5531	48	231	130	5	1	2
0.3357	2.6855	-1.8463	-3.3569	3.3569	-1.1749	-7.2174	6.3782	-0.1678	-8.8959	9.3994	1.3428	-2.0142	-0.3357	2.8534	7.3853	0.6714	7.0496	48	232	131	5	1	2
-0.6714	1.6785	-2.8534	-4.5319	2.182	-2.3499	-8.3923	5.3711	-1.3428	-9.7351	8.3923	0.3357	-2.6855	-0.3357	2.6855	6.7139	0.5035	6.3782	48	233	132	5	1	2
-1.6785	0.5035	-3.8605	-5.5389	1.3428	-3.3569	-9.5673	4.364	-2.5177	-10.7422	7.2174	-0.8392	-3.5248	-0.3357	2.6855	6.0425	0.3357	5.8746	48	234	133	5	1	2
-2.3499	-0.1678	-4.6997	-6.7139	0.3357	-4.364	-10.91	3.3569	-3.6926	-11.7493	6.0425	-2.0142	-4.1962	-0.3357	2.5177	5.3711	0.1678	5.2032	48	235	134	5	1	2
-3.1891	-1.1749	-5.5389	-7.7209	-0.6714	-5.5389	-12.085	2.182	-5.0354	-12.7563	4.8676	-3.1891	-5.0354	-0.3357	2.182	4.5319	-0.1678	4.5319	48	236	135	5	1	2
-4.0283	-2.0142	-6.3782	-8.728	-1.5106	-6.3782	-13.2599	1.1749	-6.2103	-13.9313	3.8605	-4.5319	-5.8746	-0.1678	2.182	3.8605	-0.1678	3.8605	48	237	136	5	1	2
-4.5319	-2.6855	-7.0496	-9.7351	-2.5177	-7.2174	-14.4348	0	-7.5531	-14.9384	2.5177	-5.7068	-6.8817	-0.1678	1.8463	2.8534	-0.6714	3.0212	48	238	137	5	1	2
-5.0354	-3.1891	-7.5531	-10.4065	-3.3569	-7.8888	-15.274	-1.0071	-8.5602	-15.9454	1.1749	-6.8817	-7.7209	-0.1678	1.5106	2.182	-1.0071	2.3499	48	239	138	5	1	2
-5.3711	-3.8605	-8.2245	-11.2457	-4.364	-8.8959	-16.449	-2.0142	-9.7351	-16.7847	0.1678	-7.8888	-8.5602	0	1.3428	1.3428	-1.1749	1.6785	48	240	139	5	1	2
-5.8746	-4.364	-8.5602	-11.5814	-5.0354	-9.3994	-17.2882	-2.8534	-10.4065	-17.6239	-1.0071	-9.0637	-9.3994	0.1678	1.1749	0.6714	-1.3428	1.0071	48	241	140	5	1	2
-6.0425	-4.8676	-8.8959	-11.9171	-5.7068	-9.7351	-17.7917	-3.8605	-11.4136	-18.2953	-2.0142	-9.903	-9.903	0.1678	0.6714	0	-1.6785	0	48	242	141	5	1	2
-6.3782	-5.3711	-9.3994	-12.2528	-6.546	-10.2386	-18.4631	-4.6997	-12.085	-19.1345	-3.3569	-10.91	-10.91	0.3357	0.3357	-1.0071	-1.8463	-0.8392	48	243	142	5	1	2
-6.546	-5.8746	-9.7351	-12.2528	-7.2174	-10.7422	-18.7988	-5.7068	-12.7563	-19.4702	-4.364	-11.9171	-11.5814	0.5035	0	-1.5106	-2.182	-1.6785	48	244	143	5	1	2
-6.7139	-6.2103	-9.7351	-12.085	-7.8888	-11.0779	-18.7988	-6.3782	-13.4277	-19.8059	-5.3711	-12.5885	-12.085	0.5035	-0.3357	-2.3499	-2.3499	-2.5177	48	245	144	5	1	2
-6.8817	-6.546	-9.903	-11.9171	-8.3923	-11.2457	-18.9667	-7.2174	-13.7634	-19.9738	-6.3782	-13.2599	-12.5885	0.6714	-0.6714	-3.1891	-2.5177	-3.1891	48	246	145	5	1	2
-7.0496	-7.0496	-10.2386	-11.7493	-9.0637	-11.5814	-18.9667	-8.0566	-14.4348	-20.3094	-7.5531	-14.0991	-13.2599	0.8392	-1.0071	-4.0283	-2.8534	-4.1962	48	247	146	5	1	2
-7.3853	-7.3853	-10.4065	-11.4136	-9.5673	-11.7493	-18.7988	-8.728	-14.7705	-20.3094	-8.3923	-14.4348	-13.5956	1.0071	-1.5106	-4.8676	-3.0212	-5.0354	48	248	147	5	1	2
-7.3853	-7.8888	-10.5743	-11.2457	-10.0708	-11.7493	-18.7988	-9.2316	-14.9384	-20.3094	-9.2316	-14.9384	-13.9313	1.0071	-2.0142	-5.7068	-3.1891	-5.8746	48	249	148	5	1	2
-7.5531	-8.2245	-10.7422	-11.2457	-10.5743	-11.9171	-18.631	-9.903	-15.274	-20.4773	-10.0708	-15.4419	-14.4348	1.1749	-2.5177	-6.3782	-3.3569	-6.7139	48	250	149	5	1	2
-7.7209	-8.3923	-10.7422	-10.91	-10.7422	-12.085	-18.2953	-10.2386	-15.4419	-20.1416	-10.5743	-15.6097	-14.6027	1.1749	-3.0212	-6.8817	-3.5248	-7.3853	48	251	150	5	1	2
-7.8888	-8.728	-10.91	-10.5743	-11.0779	-12.2528	-17.9596	-10.7422	-15.4419	-19.9738	-11.2457	-15.9454	-14.7705	1.1749	-3.5248	-7.5531	-3.8605	-8.0566	48	252	151	5	1	2
-7.8888	-8.8959	-10.91	-10.4065	-11.5814	-12.2528	-17.4561	-11.0779	-15.7776	-19.8059	-11.7493	-16.1133	-14.9384	1.1749	-4.0283	-8.0566	-4.0283	-8.5602	48	253	152	5	1	2
-8.0566	-9.2316	-11.0779	-10.2386	-11.9171	-12.4207	-17.1204	-11.4136	-15.7776	-19.6381	-12.085	-16.2811	-15.274	1.1749	-4.6997	-8.5602	-4.5319	-9.2316	48	254	153	5	1	2
-8.2245	-9.2316	-11.0779	-10.0708	-11.9171	-12.4207	-16.6168	-11.5814	-15.6097	-19.1345	-12.2528	-16.2811	-15.274	1.0071	-5.2032	-8.8959	-4.6997	-9.3994	48	255	154	5	1	2
-8.3923	-9.5673	-11.4136	-10.0708	-11.9171	-12.4207	-16.2811	-11.5814	-15.6097	-18.7988	-12.4207	-16.2811	-15.274	0.8392	-5.7068	-9.0637	-5.2032	-9.7351	48	256	155	5	1	2
-8.3923	-9.7351	-11.4136	-9.903	-12.085	-12.4207	-15.9454	-11.5814	-15.4419	-18.4631	-12.4207	-16.1133	-15.274	0.6714	-6.3782	-9.2316	-5.5389	-9.903	48	257	156	5	1	2
-8.728	-9.903	-11.4136	-9.903	-11.9171	-12.4207	-15.4419	-11.5814	-15.274	-17.9596	-12.4207	-16.1133	-15.274	0.5035	-6.8817	-9.2316	-5.8746	-9.903	48	258	157	5	1	2
-9.0637	-10.0708	-11.7493	-10.2386	-11.9171	-12.5885	-15.4419	-11.5814	-15.274	-17.6239	-12.4207	-16.1133	-15.4419	0.3357	-7.5531	-9.2316	-6.2103	-9.903	48	259	158	5	1	2
-9.2316	-10.2386	-11.9171	-10.2386	-11.9171	-12.7563	-14.9384	-11.2457	-15.1062	-17.1204	-12.085	-15.9454	-15.4419	0.1678	-7.8888	-9.0637	-6.546	-9.5673	48	260	159	5	1	2
-9.2316	-10.2386	-11.9171	-10.2386	-11.7493	-12.7563	-14.6027	-11.0779	-14.7705	-16.7847	-11.7493	-15.6097	-15.274	-0.1678	-8.3923	-8.8959	-6.7139	-9.3994	48	261	160	5	1	2
-9.5673	-10.4065	-12.085	-10.5743	-11.5814	-12.9242	-14.267	-11.0779	-14.9384	-16.449	-11.4136	-15.6097	-15.1062	-0.3357	-8.8959	-8.5602	-7.2174	-9.0637	48	262	161	5	1	2
-9.5673	-10.4065	-12.085	-10.5743	-11.4136	-12.9242	-13.9313	-10.7422	-14.6027	-15.9454	-10.91	-15.274	-14.9384	-0.6714	-9.2316	-8.2245	-7.3853	-8.728	48	263	162	5	1	2
-9.3994	-10.4065	-12.085	-10.5743	-11.0779	-12.9242	-13.5956	-10.4065	-14.4348	-15.4419	-10.5743	-14.9384	-14.7705	-0.8392	-9.5673	-7.7209	-7.7209	-8.2245	48	264	163	5	1	2
-9.5673	-10.5743	-12.2528	-10.5743	-11.0779	-13.092	-13.2599	-10.2386	-14.267	-14.9384	-10.2386	-14.7705	-14.6027	-1.0071	-10.0708	-7.3853	-8.0566	-7.8888	48	265	164	5	1	2
-9.3994	-10.5743	-12.085	-10.5743	-10.7422	-13.092	-12.9242	-9.903	-14.0991	-14.4348	-9.7351	-14.6027	-14.4348	-1.1749	-10.4065	-6.7139	-8.2245	-7.3853	48	266	165	5	1	2
-9.2316	-10.5743	-12.085	-10.4065	-10.5743	-13.092	-12.4207	-9.5673	-13.9313	-13.9313	-9.0637	-14.0991	-13.9313	-1.3428	-10.7422	-6.3782	-8.5602	-7.0496	48	267	166	5	1	2
-8.8959	-10.4065	-11.9171	-10.4065	-10.0708	-12.9242	-12.085	-9.0637	-13.4277	-13.2599	-8.5602	-13.7634	-13.7634	-1.5106	-11.0779	-5.7068	-8.5602	-6.3782	48	268	167	5	1	2
-8.728	-10.0708	-11.5814	-10.4065	-9.903	-12.9242	-11.5814	-8.728	-13.2599	-12.7563	-8.2245	-13.4277	-13.4277	-1.6785	-11.2457	-5.0354	-8.728	-5.8746	48	269	168	5	1	2
-8.3923	-9.903	-11.2457	-10.2386	-9.5673	-12.7563	-11.2457	-8.3923	-12.7563	-12.2528	-7.5531	-12.7563	-12.9242	-1.8463	-11.4136	-4.5319	-8.8959	-5.3711	48	270	169	5	1	2
-8.2245	-9.7351	-11.0779	-10.0708	-9.2316	-12.5885	-10.91	-8.0566	-12.5885	-11.9171	-7.0496	-12.4207	-12.4207	-2.0142	-11.7493	-4.0283	-9.0637	-4.8676	48	271	170	5	1	2
-7.7209	-9.3994	-10.5743	-9.5673	-8.8959	-12.2528	-10.2386	-7.5531	-12.085	-11.0779	-6.546	-11.9171	-11.9171	-2.182	-11.9171	-3.3569	-9.2316	-4.364	48	272	171	5	1	2
-7.3853	-9.2316	-10.4065	-9.5673	-8.728	-12.085	-9.903	-7.2174	-11.7493	-10.5743	-6.0425	-11.4136	-11.5814	-2.182	-12.085	-2.8534	-9.3994	-4.0283	48	273	172	5	1	2
-7.2174	-9.0637	-9.903	-9.3994	-8.3923	-11.7493	-9.5673	-6.8817	-11.2457	-10.2386	-5.7068	-10.91	-11.0779	-2.182	-12.2528	-2.182	-9.3994	-3.5248	48	274	173	5	1	2
-7.0496	-8.8959	-9.7351	-9.0637	-8.0566	-11.5814	-9.2316	-6.546	-10.91	-9.903	-5.3711	-10.2386	-10.91	-2.182	-12.4207	-1.6785	-9.5673	-3.1891	48	275	174	5	1	2
-6.8817	-8.728	-9.5673	-9.0637	-7.8888	-11.4136	-9.0637	-6.2103	-10.5743	-9.3994	-5.0354	-9.903	-10.4065	-2.182	-12.7563	-1.1749	-9.5673	-2.8534	48	276	175	5	1	2
-6.546	-8.5602	-9.2316	-8.728	-7.7209	-11.0779	-8.5602	-5.8746	-10.0708	-9.2316	-4.5319	-9.3994	-10.0708	-2.182	-12.7563	-0.8392	-9.7351	-2.5177	48	277	176	5	1	2
-6.546	-8.5602	-9.0637	-8.728	-7.7209	-10.91	-8.3923	-5.7068	-9.7351	-8.8959	-4.5319	-9.0637	-9.903	-2.0142	-12.9242	-0.5035	-9.903	-2.3499	48	278	177	5	1	2
-6.3782	-8.3923	-8.8959	-8.728	-7.5531	-10.7422	-8.2245	-5.5389	-9.3994	-8.8959	-4.1962	-8.5602	-9.5673	-2.0142	-12.9242	-0.1678	-9.903	-2.0142	48	279	178	5	1	2
-6.3782	-8.2245	-8.728	-8.5602	-7.3853	-10.4065	-8.0566	-5.3711	-9.0637	-8.728	-4.1962	-8.2245	-9.3994	-1.8463	-13.092	0	-9.903	-2.0142	48	280	179	5	1	2
-6.3782	-8.3923	-8.728	-8.5602	-7.3853	-10.2386	-7.7209	-5.0354	-8.5602	-8.3923	-3.8605	-7.7209	-9.2316	-1.6785	-13.092	0.5035	-9.903	-1.6785	48	281	180	5	1	2
-6.3782	-8.3923	-8.728	-8.728	-7.3853	-9.903	-7.7209	-5.0354	-8.2245	-8.3923	-3.8605	-7.5531	-9.0637	-1.5106	-13.092	0.5035	-10.0708	-1.8463	48	282	181	5	1	2
-6.3782	-8.2245	-8.5602	-8.2245	-7.0496	-9.5673	-7.3853	-4.5319	-7.5531	-8.0566	-3.5248	-6.8817	-8.728	-1.5106	-12.9242	0.8392	-9.7351	-1.5106	48	283	182	5	1	2
-6.546	-8.2245	-8.3923	-8.0566	-7.0496	-9.2316	-7.0496	-4.364	-7.0496	-7.8888	-3.1891	-6.3782	-8.2245	-1.3428	-12.5885	1.0071	-9.5673	-1.1749	48	284	183	5	1	2
-6.546	-8.2245	-8.2245	-7.8888	-6.7139	-8.728	-6.7139	-3.8605	-6.3782	-7.3853	-3.0212	-5.7068	-8.0566	-1.5106	-12.2528	1.3428	-9.3994	-1.0071	48	285	184	5	1	2
-6.7139	-8.0566	-8.0566	-7.5531	-6.7139	-8.3923	-6.2103	-3.6926	-5.8746	-7.0496	-2.6855	-5.0354	-7.5531	-1.5106	-11.9171	1.5106	-9.2316	-0.8392	48	286	185	5	1	2
-6.546	-7.7209	-7.7209	-7.3853	-6.2103	-7.7209	-5.7068	-3.1891	-4.8676	-6.7139	-2.182	-4.1962	-6.8817	-1.6785	-11.2457	1.8463	-8.728	-0.5035	48	287	186	5	1	2
-6.546	-7.3853	-7.3853	-7.0496	-5.8746	-7.0496	-5.2032	-2.6855	-4.0283	-6.2103	-1.6785	-3.5248	-6.3782	-1.8463	-10.7422	2.0142	-8.2245	-0.1678	48	288	187	5	1	2
-6.546	-7.2174	-7.2174	-6.7139	-5.5389	-6.2103	-4.5319	-2.0142	-3.1891	-5.7068	-1.1749	-2.6855	-5.8746	-2.0142	-10.2386	2.3499	-7.8888	0.1678	48	289	188	5	1	2
-6.546	-6.8817	-6.8817	-6.546	-5.2032	-5.5389	-4.0283	-1.5106	-2.3499	-5.2032	-0.6714	-2.0142	-5.3711	-2.182	-9.7351	2.6855	-7.3853	0.5035	48	290	189	5	1	2
-6.3782	-6.546	-6.546	-6.2103	-4.6997	-4.6997	-3.5248	-0.8392	-1.3428	-4.5319	-0.1678	-1.3428	-4.8676	-2.3499	-9.0637	2.8534	-7.0496	0.8392	48	291	190	5	1	2
3.3569	2.3499	3.1891	-3.1891	-1.0071	0	0.6714	-1.6785	-0.6714	4.5319	1.6785	4.0283	7.7209	0.6714	6.0425	-1.8463	4.5319	1.6785	48	231	130	6	1	2
3.3569	2.3499	2.8534	-3.5248	-1.1749	-0.5035	0.5035	-2.3499	-1.3428	4.5319	1.3428	3.6926	8.2245	1.0071	6.8817	-1.6785	4.8676	1.5106	48	232	131	6	1	2
3.3569	2.5177	2.8534	-3.3569	-1.5106	-1.0071	0.8392	-2.6855	-1.6785	4.6997	1.0071	3.6926	8.728	1.5106	7.8888	-1.5106	5.3711	1.3428	48	233	132	6	1	2
3.3569	2.3499	2.3499	-3.3569	-1.8463	-1.5106	0.6714	-3.0212	-2.0142	4.6997	0.6714	3.3569	9.2316	1.8463	8.728	-1.3428	5.7068	1.1749	48	234	133	6	1	2
3.1891	2.3499	2.182	-3.3569	-1.8463	-1.6785	0.6714	-3.3569	-2.3499	4.8676	0.5035	3.3569	9.903	2.3499	9.7351	-1.0071	6.0425	1.0071	48	235	134	6	1	2
3.1891	2.182	1.6785	-3.5248	-2.182	-2.5177	0.6714	-3.6926	-3.0212	4.6997	0	3.0212	10.2386	2.5177	10.4065	-0.8392	6.2103	0.8392	48	236	135	6	1	2
3.0212	2.0142	1.3428	-3.3569	-2.3499	-2.8534	0.5035	-4.0283	-3.3569	4.6997	-0.1678	2.6855	10.5743	2.8534	11.4136	-0.8392	6.7139	0.8392	48	237	136	6	1	2
2.8534	1.8463	0.8392	-3.6926	-2.5177	-3.5248	0	-4.364	-4.0283	4.364	-0.6714	2.182	10.7422	3.0212	12.085	-0.3357	6.8817	0.8392	48	238	137	6	1	2
2.6855	1.8463	0.5035	-4.0283	-2.8534	-4.0283	-0.1678	-4.8676	-4.5319	4.0283	-1.1749	1.6785	10.91	3.1891	12.9242	-0.1678	7.0496	0.6714	48	239	138	6	1	2
2.182	1.3428	-0.1678	-4.1962	-3.1891	-4.6997	-0.6714	-5.3711	-5.0354	3.6926	-1.5106	1.3428	10.91	3.3569	13.7634	-0.1678	7.2174	0.5035	48	240	139	6	1	2
1.8463	1.1749	-0.8392	-4.6997	-3.5248	-5.2032	-1.3428	-5.5389	-5.8746	3.1891	-2.0142	0.6714	10.91	3.3569	14.267	0.1678	7.0496	0.5035	48	241	140	6	1	2
1.3428	0.8392	-1.3428	-5.2032	-3.8605	-5.8746	-1.8463	-6.0425	-6.3782	2.6855	-2.5177	0.1678	10.7422	3.3569	14.6027	0.1678	7.0496	0.1678	48	242	141	6	1	2
0.8392	0.5035	-2.0142	-5.7068	-4.1962	-6.7139	-2.5177	-6.2103	-7.0496	2.0142	-3.0212	-0.6714	10.5743	3.3569	15.1062	0.3357	7.0496	0.1678	48	243	142	6	1	2
0.1678	0	-2.8534	-6.2103	-4.6997	-7.3853	-3.1891	-6.7139	-7.5531	1.5106	-3.5248	-1.1749	10.2386	3.3569	15.274	0.3357	6.8817	-0.1678	48	244	143	6	1	2
-0.1678	-0.1678	-3.3569	-6.546	-5.0354	-7.8888	-3.6926	-7.0496	-8.3923	0.6714	-3.8605	-1.8463	9.903	3.1891	15.4419	0.1678	6.7139	-0.5035	48	245	144	6	1	2
-1.0071	-0.6714	-4.1962	-7.0496	-5.3711	-8.5602	-4.5319	-7.2174	-8.8959	0.1678	-4.364	-2.6855	9.3994	3.0212	15.6097	0.1678	6.2103	-0.6714	48	246	145	6	1	2
-1.5106	-1.1749	-4.8676	-7.5531	-5.8746	-9.0637	-5.2032	-7.5531	-9.5673	-0.5035	-4.6997	-3.0212	9.2316	3.0212	15.7776	0	6.0425	-1.0071	48	247	146	6	1	2
-2.182	-1.5106	-5.3711	-8.2245	-6.2103	-9.5673	-5.8746	-7.8888	-10.0708	-1.3428	-5.2032	-3.6926	8.5602	2.8534	15.6097	-0.1678	5.7068	-1.3428	48	248	147	6	1	2
-2.6855	-1.8463	-6.0425	-8.8959	-6.3782	-10.0708	-6.546	-8.0566	-10.5743	-1.8463	-5.5389	-4.1962	8.2245	2.6855	15.6097	-0.3357	5.3711	-1.6785	48	249	148	6	1	2
-3.3569	-2.182	-6.546	-9.3994	-6.7139	-10.5743	-7.0496	-8.2245	-11.0779	-2.5177	-6.0425	-4.8676	7.7209	2.5177	15.274	-0.5035	4.8676	-2.0142	48	250	149	6	1	2
-3.6926	-2.3499	-6.8817	-10.0708	-6.7139	-10.7422	-7.7209	-8.3923	-11.5814	-3.1891	-6.3782	-5.2032	7.2174	2.3499	15.1062	-0.6714	4.6997	-2.3499	48	251	150	6	1	2
-3.8605	-2.3499	-7.2174	-10.4065	-6.7139	-10.91	-7.8888	-8.3923	-11.5814	-3.8605	-6.3782	-5.8746	6.7139	2.182	14.9384	-0.8392	4.364	-2.5177	48	252	151	6	1	2
-4.1962	-2.3499	-7.3853	-10.91	-6.7139	-10.91	-8.3923	-8.3923	-11.9171	-4.364	-6.7139	-6.2103	6.2103	2.0142	14.6027	-1.0071	4.0283	-2.8534	48	253	152	6	1	2
-4.1962	-2.182	-7.3853	-11.2457	-6.7139	-11.0779	-8.728	-8.3923	-12.085	-4.5319	-7.0496	-6.3782	5.8746	2.0142	14.4348	-1.3428	3.8605	-3.3569	48	254	153	6	1	2
-3.8605	-1.8463	-7.2174	-11.2457	-6.546	-10.91	-8.728	-8.2245	-12.085	-5.0354	-7.0496	-6.546	5.3711	1.8463	13.9313	-1.5106	3.5248	-3.5248	48	255	154	6	1	2
-3.8605	-1.6785	-7.0496	-11.0779	-6.3782	-10.91	-8.728	-8.2245	-12.2528	-5.3711	-7.2174	-6.546	5.3711	1.8463	13.5956	-1.8463	3.3569	-4.0283	48	256	155	6	1	2
-3.5248	-1.1749	-6.8817	-10.7422	-6.0425	-10.5743	-8.728	-7.8888	-12.085	-5.3711	-7.2174	-6.8817	4.8676	1.6785	13.092	-2.0142	3.0212	-4.364	48	257	156	6	1	2
-3.0212	-0.6714	-6.546	-10.7422	-5.7068	-10.4065	-8.5602	-7.8888	-12.2528	-5.5389	-7.3853	-7.0496	4.5319	1.6785	12.5885	-2.3499	2.8534	-4.8676	48	258	157	6	1	2
-2.6855	-0.3357	-6.2103	-10.5743	-5.7068	-10.2386	-8.5602	-7.8888	-12.2528	-5.7068	-7.5531	-7.0496	4.1962	1.6785	12.085	-2.8534	2.8534	-5.2032	48	259	158	6	1	2
-2.182	0	-6.0425	-10.5743	-5.5389	-10.2386	-8.3923	-7.7209	-12.085	-5.7068	-7.7209	-7.3853	3.6926	1.6785	11.4136	-3.1891	2.5177	-5.7068	48	260	159	6	1	2
-1.8463	0.3357	-5.7068	-10.5743	-5.3711	-10.0708	-8.3923	-7.7209	-12.2528	-6.0425	-8.0566	-7.5531	3.1891	1.6785	10.5743	-3.6926	2.182	-6.3782	48	261	160	6	1	2
-1.6785	0.5035	-5.5389	-10.5743	-5.3711	-10.0708	-8.5602	-7.8888	-12.4207	-6.3782	-8.3923	-7.8888	2.6855	1.6785	9.903	-4.1962	1.8463	-7.0496	48	262	161	6	1	2
-1.3428	0.6714	-5.3711	-10.5743	-5.2032	-9.903	-8.728	-8.0566	-12.5885	-6.546	-8.728	-8.2245	2.0142	1.6785	8.8959	-4.8676	1.5106	-7.7209	48	263	162	6	1	2
-1.0071	0.8392	-5.2032	-10.7422	-5.3711	-10.0708	-8.728	-8.0566	-12.5885	-6.7139	-9.0637	-8.5602	1.3428	1.6785	8.0566	-5.5389	1.1749	-8.3923	48	264	163	6	1	2
-0.6714	0.8392	-5.2032	-10.91	-5.3711	-10.0708	-8.728	-8.2245	-12.7563	-7.0496	-9.5673	-8.8959	0.6714	1.6785	7.0496	-6.0425	0.8392	-9.2316	48	265	164	6	1	2
-0.5035	1.0071	-5.0354	-11.0779	-5.5389	-10.2386	-8.8959	-8.5602	-12.9242	-7.2174	-9.903	-9.2316	0	1.6785	6.0425	-6.7139	0.5035	-9.903	48	266	165	6	1	2
-0.5035	0.8392	-5.0354	-11.2457	-5.8746	-10.4065	-9.0637	-8.8959	-13.092	-7.7209	-10.2386	-9.5673	-0.5035	1.6785	5.2032	-7.3853	0.1678	-10.5743	48	267	166	6	1	2
-0.3357	1.0071	-4.6997	-11.0779	-6.0425	-10.4065	-9.0637	-9.0637	-13.2599	-7.8888	-10.5743	-9.903	-1.1749	1.5106	4.0283	-7.8888	-0.1678	-11.0779	48	268	167	6	1	2
0	1.1749	-4.5319	-10.91	-6.0425	-10.4065	-8.8959	-9.2316	-13.2599	-8.0566	-10.91	-10.0708	-1.8463	1.5106	3.1891	-8.5602	-0.5035	-11.5814	48	269	168	6	1	2
0	1.0071	-4.5319	-10.7422	-6.2103	-10.4065	-8.8959	-9.5673	-13.4277	-8.2245	-11.2457	-10.4065	-2.3499	1.5106	2.3499	-9.2316	-0.8392	-12.085	48	270	169	6	1	2
0.3357	1.1749	-4.1962	-10.5743	-6.3782	-10.4065	-8.5602	-9.7351	-13.4277	-8.3923	-11.4136	-10.4065	-3.0212	1.3428	1.3428	-9.5673	-1.3428	-12.4207	48	271	170	6	1	2
0.6714	1.1749	-4.0283	-10.2386	-6.3782	-10.4065	-8.3923	-9.903	-13.2599	-8.3923	-11.5814	-10.5743	-3.5248	1.3428	0.6714	-10.0708	-1.5106	-12.7563	48	272	171	6	1	2
0.6714	1.0071	-3.8605	-10.0708	-6.7139	-10.4065	-8.2245	-10.0708	-13.4277	-8.5602	-11.9171	-10.7422	-4.0283	1.3428	-0.1678	-10.5743	-1.8463	-13.092	48	273	172	6	1	2
1.0071	1.0071	-3.6926	-9.903	-6.8817	-10.4065	-8.0566	-10.2386	-13.2599	-8.5602	-12.085	-10.7422	-4.5319	1.1749	-1.0071	-10.91	-2.182	-13.2599	48	274	173	6	1	2
1.0071	0.8392	-3.6926	-9.5673	-7.0496	-10.2386	-7.8888	-10.2386	-13.092	-8.5602	-12.085	-10.7422	-4.8676	1.1749	-1.6785	-11.0779	-2.3499	-13.2599	48	275	174	6	1	2
1.1749	0.6714	-3.5248	-9.5673	-7.3853	-10.2386	-8.0566	-10.5743	-13.2599	-8.8959	-12.4207	-10.91	-5.3711	1.1749	-2.3499	-11.5814	-2.6855	-13.4277	48	276	175	6	1	2
1.3428	0.6714	-3.5248	-9.5673	-7.8888	-10.4065	-8.0566	-10.7422	-13.2599	-9.0637	-12.5885	-11.2457	-5.8746	1.0071	-3.0212	-11.7493	-3.0212	-13.4277	48	277	176	6	1	2
1.3428	0.5035	-3.3569	-9.3994	-8.0566	-10.5743	-8.0566	-11.0779	-13.4277	-9.2316	-12.9242	-11.4136	-6.546	0.8392	-4.0283	-12.085	-3.5248	-13.4277	48	278	177	6	1	2
1.6785	0.5035	-3.1891	-9.3994	-8.2245	-10.4065	-7.8888	-11.0779	-13.2599	-9.3994	-12.9242	-11.4136	-6.8817	0.6714	-4.6997	-12.085	-3.8605	-13.4277	48	279	178	6	1	2
1.6785	0.1678	-3.1891	-9.0637	-8.5602	-10.4065	-8.0566	-11.4136	-13.4277	-9.5673	-13.2599	-11.7493	-7.3853	0.5035	-5.5389	-12.4207	-4.364	-13.2599	48	280	179	6	1	2
1.8463	-0.1678	-3.3569	-9.0637	-8.8959	-10.4065	-8.2245	-11.7493	-13.7634	-10.0708	-13.7634	-12.085	-8.0566	0.3357	-6.2103	-12.7563	-4.8676	-13.4277	48	281	180	6	1	2
2.0142	-0.3357	-3.1891	-8.8959	-9.2316	-10.5743	-8.0566	-12.085	-14.0991	-10.2386	-14.0991	-12.2528	-8.728	0.1678	-6.8817	-12.7563	-5.3711	-13.2599	48	282	181	6	1	2
2.182	-0.3357	-3.1891	-8.3923	-9.5673	-10.4065	-8.0566	-12.085	-14.0991	-10.2386	-14.4348	-12.5885	-9.2316	0	-7.3853	-12.7563	-5.7068	-13.2599	48	283	182	6	1	2
2.182	-0.6714	-3.0212	-7.8888	-9.903	-10.5743	-8.0566	-12.4207	-14.4348	-10.5743	-14.4348	-12.7563	-9.5673	-0.1678	-8.0566	-12.9242	-6.0425	-13.092	48	284	183	6	1	2
2.5177	-0.6714	-2.8534	-7.3853	-10.0708	-10.4065	-7.8888	-12.4207	-14.4348	-10.5743	-14.6027	-12.7563	-9.903	-0.3357	-8.2245	-12.7563	-6.546	-12.5885	48	285	184	6	1	2
2.3499	-1.0071	-3.0212	-7.0496	-10.4065	-10.5743	-8.0566	-12.7563	-14.6027	-10.91	-14.7705	-13.092	-10.2386	-0.5035	-8.728	-12.9242	-7.0496	-12.5885	48	286	185	6	1	2
2.182	-1.5106	-3.3569	-7.0496	-10.7422	-10.7422	-8.2245	-13.092	-15.1062	-11.0779	-15.274	-13.4277	-10.91	-0.6714	-9.2316	-12.9242	-7.3853	-12.4207	48	287	186	6	1	2
2.0142	-1.8463	-3.6926	-7.0496	-11.0779	-11.0779	-8.3923	-13.4277	-15.274	-11.4136	-15.4419	-13.5956	-11.2457	-0.8392	-9.5673	-13.092	-7.8888	-12.2528	48	288	187	6	1	2
1.5106	-2.3499	-4.0283	-7.0496	-11.4136	-11.2457	-8.5602	-13.7634	-15.6097	-11.7493	-15.7776	-14.0991	-11.7493	-1.0071	-10.0708	-12.9242	-8.3923	-12.2528	48	289	188	6	1	2
1.0071	-2.8534	-4.5319	-7.2174	-12.085	-11.7493	-9.0637	-14.267	-16.1133	-11.9171	-16.1133	-14.267	-12.2528	-1.1749	-10.4065	-13.092	-8.5602	-12.085	48	290	189	6	1	2
0.3357	-3.5248	-5.0354	-7.5531	-12.4207	-12.085	-9.2316	-14.7705	-16.449	-12.2528	-16.2811	-14.7705	-12.4207	-1.1749	-10.7422	-13.092	-8.8959	-11.9171	48	291	190	6	1	2
0.5035	3.5248	-4.0283	-12.7563	-5.3711	-6.8817	-9.903	-10.7422	-11.0779	-13.2599	-10.7422	-13.092	-16.6168	1.6785	-15.274	-0.6714	-10.0708	-5.2032	48	231	130	7	1	2
1.5106	4.1962	-3.1891	-12.7563	-4.6997	-6.546	-9.7351	-10.5743	-11.0779	-13.2599	-10.91	-13.4277	-17.1204	1.6785	-15.9454	-1.1749	-10.5743	-5.7068	48	232	131	7	1	2
2.5177	5.2032	-2.0142	-12.4207	-3.8605	-5.7068	-9.3994	-10.0708	-10.5743	-12.9242	-10.7422	-13.2599	-17.1204	1.6785	-16.1133	-1.1749	-10.7422	-5.7068	48	233	132	7	1	2
3.3569	5.8746	-1.3428	-12.5885	-3.3569	-5.3711	-9.2316	-9.7351	-10.4065	-12.9242	-10.7422	-13.5956	-17.4561	1.6785	-16.7847	-1.5106	-11.2457	-6.2103	48	234	133	7	1	2
4.0283	6.8817	-0.8392	-12.7563	-2.3499	-4.8676	-9.2316	-9.0637	-10.0708	-12.7563	-10.4065	-13.5956	-17.6239	1.6785	-17.1204	-1.6785	-11.5814	-6.3782	48	235	134	7	1	2
4.6997	7.7209	0	-12.9242	-1.5106	-4.5319	-9.0637	-8.5602	-9.903	-12.7563	-10.4065	-13.5956	-17.9596	1.6785	-17.6239	-1.6785	-11.7493	-6.546	48	236	135	7	1	2
5.2032	8.3923	0.5035	-13.2599	-0.6714	-4.1962	-9.0637	-7.8888	-9.5673	-12.5885	-10.0708	-13.5956	-18.1274	1.6785	-17.9596	-1.8463	-12.085	-6.7139	48	237	136	7	1	2
5.7068	9.0637	1.0071	-13.7634	0.1678	-3.8605	-9.2316	-7.2174	-9.2316	-12.5885	-9.5673	-13.4277	-18.1274	1.6785	-18.4631	-1.8463	-12.4207	-6.7139	48	238	137	7	1	2
6.2103	9.5673	1.6785	-14.267	1.0071	-3.6926	-9.3994	-6.546	-8.8959	-12.5885	-9.0637	-13.2599	-18.1274	1.6785	-18.7988	-1.8463	-12.5885	-6.8817	48	239	138	7	1	2
6.3782	10.2386	2.182	-14.4348	2.0142	-3.3569	-9.3994	-5.5389	-8.3923	-12.4207	-8.5602	-12.7563	-18.1274	1.6785	-19.1345	-1.3428	-12.7563	-6.7139	48	240	139	7	1	2
6.546	10.7422	2.5177	-15.1062	2.8534	-3.0212	-9.5673	-4.8676	-8.2245	-12.4207	-8.0566	-12.5885	-18.2953	1.6785	-19.6381	-1.3428	-13.092	-6.7139	48	241	140	7	1	2
6.8817	11.2457	2.6855	-15.6097	3.6926	-3.0212	-9.903	-4.0283	-7.7209	-12.4207	-7.5531	-12.4207	-18.4631	1.8463	-20.1416	-1.3428	-13.4277	-6.546	48	242	141	7	1	2
6.8817	11.7493	3.0212	-15.9454	4.364	-2.6855	-10.0708	-3.0212	-7.3853	-12.2528	-6.7139	-12.085	-18.2953	1.8463	-20.3094	-1.0071	-13.5956	-6.2103	48	243	142	7	1	2
7.0496	11.9171	3.1891	-16.6168	5.2032	-2.6855	-10.4065	-2.182	-7.0496	-12.4207	-6.2103	-11.5814	-18.2953	2.0142	-20.813	-1.0071	-14.0991	-6.2103	48	244	143	7	1	2
7.2174	12.2528	3.3569	-16.9525	5.8746	-2.3499	-10.5743	-1.3428	-6.3782	-12.2528	-5.3711	-11.0779	-18.1274	2.182	-21.1487	-0.6714	-14.4348	-5.8746	48	245	144	7	1	2
7.0496	12.2528	3.5248	-17.2882	6.7139	-2.182	-10.4065	-0.3357	-5.8746	-12.085	-4.5319	-10.5743	-17.9596	2.182	-21.3165	-0.3357	-14.4348	-5.3711	48	246	145	7	1	2
7.0496	12.4207	3.6926	-17.4561	7.0496	-2.182	-10.7422	0.5035	-5.3711	-12.085	-3.6926	-10.0708	-17.6239	2.182	-21.6522	0	-14.7705	-5.2032	48	247	146	7	1	2
7.2174	12.5885	3.5248	-17.7917	7.7209	-1.8463	-10.7422	1.3428	-4.8676	-11.9171	-2.8534	-9.5673	-17.4561	2.3499	-21.9879	0.3357	-15.1062	-4.6997	48	248	147	7	1	2
6.8817	12.5885	3.5248	-18.1274	8.0566	-1.8463	-10.7422	2.0142	-4.364	-11.7493	-2.0142	-8.728	-17.2882	2.3499	-22.1558	0.6714	-15.274	-4.1962	48	249	148	7	1	2
6.3782	12.2528	3.5248	-18.2953	8.3923	-1.8463	-10.91	2.6855	-4.0283	-11.5814	-1.3428	-8.2245	-16.9525	2.182	-22.1558	1.0071	-15.4419	-3.6926	48	250	149	7	1	2
6.2103	11.9171	3.0212	-18.7988	8.5602	-2.0142	-11.0779	3.1891	-3.6926	-11.5814	-0.6714	-7.8888	-16.7847	2.182	-22.4915	1.1749	-15.7776	-3.5248	48	251	150	7	1	2
5.8746	11.7493	2.8534	-19.1345	8.5602	-1.8463	-11.2457	3.6926	-3.3569	-11.5814	0	-7.3853	-16.449	2.182	-22.4915	1.5106	-15.7776	-3.0212	48	252	151	7	1	2
5.3711	11.0779	2.5177	-19.3024	8.5602	-2.0142	-11.2457	4.1962	-3.0212	-11.4136	0.6714	-6.8817	-16.1133	2.0142	-22.4915	1.8463	-15.7776	-2.5177	48	253	152	7	1	2
4.8676	10.7422	2.0142	-19.8059	8.3923	-2.3499	-11.5814	4.364	-2.8534	-11.4136	1.3428	-6.546	-15.7776	2.0142	-22.6593	2.0142	-15.9454	-2.182	48	254	153	7	1	2
4.364	10.0708	1.6785	-20.1416	8.2245	-2.3499	-11.9171	4.6997	-2.6855	-11.2457	1.8463	-5.8746	-15.4419	1.8463	-22.4915	2.3499	-15.7776	-1.8463	48	255	154	7	1	2
3.8605	9.3994	1.1749	-20.6451	7.8888	-2.6855	-12.085	4.8676	-2.5177	-11.2457	2.182	-5.7068	-15.1062	1.8463	-22.4915	2.6855	-15.7776	-1.3428	48	256	155	7	1	2
3.0212	8.728	0.8392	-20.813	7.3853	-2.6855	-12.2528	4.8676	-2.3499	-10.91	2.8534	-5.2032	-14.6027	1.6785	-22.1558	2.8534	-15.6097	-1.0071	48	257	156	7	1	2
2.5177	8.0566	0	-21.1487	6.8817	-2.8534	-12.2528	5.0354	-2.182	-10.91	3.1891	-4.8676	-14.267	1.6785	-21.9879	3.1891	-15.4419	-0.6714	48	258	157	7	1	2
1.8463	7.3853	-0.3357	-21.1487	6.546	-3.0212	-12.2528	5.0354	-1.8463	-10.4065	3.5248	-4.364	-13.7634	1.5106	-21.4844	3.5248	-15.1062	-0.3357	48	259	158	7	1	2
1.5106	6.7139	-0.6714	-21.1487	6.0425	-3.1891	-12.2528	5.0354	-1.5106	-10.2386	3.8605	-4.0283	-13.2599	1.5106	-21.3165	3.5248	-14.9384	0.1678	48	260	159	7	1	2
0.8392	5.8746	-1.0071	-20.9808	5.5389	-3.0212	-11.7493	5.0354	-1.3428	-9.5673	4.1962	-3.3569	-12.5885	1.3428	-20.4773	4.0283	-14.267	0.6714	48	261	160	7	1	2
0.1678	5.2032	-1.3428	-20.813	5.0354	-3.1891	-11.5814	5.0354	-0.8392	-9.0637	4.364	-3.0212	-12.085	1.3428	-20.1416	4.1962	-13.9313	1.0071	48	262	161	7	1	2
-0.1678	4.6997	-1.3428	-20.3094	4.6997	-2.8534	-10.91	4.8676	-0.5035	-8.2245	4.8676	-2.182	-11.0779	1.1749	-19.4702	4.8676	-13.4277	1.5106	48	263	162	7	1	2
-0.6714	4.0283	-1.5106	-19.8059	4.0283	-2.6855	-10.5743	4.8676	0	-7.7209	5.0354	-1.8463	-10.4065	1.1749	-18.7988	5.0354	-12.7563	1.8463	48	264	163	7	1	2
-0.6714	3.6926	-1.5106	-18.9667	3.8605	-2.3499	-9.7351	4.8676	0.5035	-6.7139	5.3711	-1.1749	-9.3994	1.1749	-17.7917	5.5389	-12.085	2.3499	48	265	164	7	1	2
-1.1749	3.1891	-1.5106	-18.2953	3.5248	-1.8463	-9.0637	4.8676	1.0071	-5.7068	5.8746	-0.5035	-8.2245	1.0071	-16.9525	5.8746	-11.4136	2.8534	48	266	165	7	1	2
-1.5106	2.6855	-1.3428	-17.4561	3.0212	-1.6785	-8.2245	4.6997	1.5106	-4.8676	5.8746	0.1678	-7.3853	1.0071	-16.2811	6.0425	-10.7422	3.0212	48	267	166	7	1	2
-1.6785	2.3499	-1.1749	-16.6168	2.8534	-1.1749	-7.3853	4.6997	2.0142	-4.0283	6.2103	0.8392	-6.3782	1.0071	-15.274	6.3782	-10.0708	3.5248	48	268	167	7	1	2
-1.8463	2.182	-0.8392	-15.7776	2.6855	-0.5035	-6.546	4.6997	2.6855	-2.8534	6.7139	1.6785	-5.0354	1.1749	-14.267	7.0496	-9.0637	4.1962	48	269	168	7	1	2
-2.182	2.182	-0.8392	-14.9384	2.3499	-0.1678	-5.7068	4.5319	3.1891	-2.0142	6.7139	2.182	-4.0283	1.1749	-13.2599	7.3853	-8.2245	4.8676	48	270	169	7	1	2
-2.3499	2.0142	-0.5035	-14.0991	2.3499	0.5035	-4.6997	4.6997	3.8605	-0.8392	7.2174	3.0212	-2.8534	1.1749	-12.4207	7.5531	-7.3853	5.2032	48	271	170	7	1	2
-2.6855	2.0142	-0.3357	-13.4277	2.182	0.8392	-4.0283	4.5319	4.364	0.1678	7.3853	3.6926	-1.6785	1.1749	-11.4136	7.8888	-6.7139	5.7068	48	272	171	7	1	2
-3.0212	1.8463	-0.1678	-12.7563	2.0142	1.1749	-3.5248	4.5319	4.8676	0.8392	7.7209	4.1962	-0.8392	1.3428	-10.5743	8.2245	-5.8746	6.2103	48	273	172	7	1	2
-3.5248	1.8463	0	-12.4207	1.8463	1.3428	-3.0212	4.364	5.2032	1.5106	7.8888	4.6997	0.1678	1.3428	-9.903	8.5602	-5.2032	6.7139	48	274	173	7	1	2
-3.6926	1.8463	0	-11.9171	2.0142	1.8463	-2.3499	4.364	5.5389	2.5177	7.8888	5.2032	1.0071	1.3428	-8.8959	8.5602	-4.5319	6.8817	48	275	174	7	1	2
-4.0283	1.6785	0.1678	-11.5814	1.8463	2.0142	-2.0142	4.364	5.8746	3.0212	8.0566	5.7068	1.8463	1.3428	-8.2245	8.728	-4.0283	7.2174	48	276	175	7	1	2
-4.364	1.6785	0	-11.5814	1.8463	2.182	-1.8463	4.1962	5.8746	3.5248	8.0566	5.8746	2.3499	1.3428	-7.5531	8.728	-3.6926	7.5531	48	277	176	7	1	2
-4.8676	1.5106	0	-11.5814	1.6785	2.0142	-1.6785	4.1962	6.0425	3.6926	8.2245	6.3782	3.0212	1.5106	-7.0496	9.0637	-3.1891	8.0566	48	278	177	7	1	2
-5.3711	1.5106	-0.3357	-11.5814	1.6785	2.0142	-1.6785	4.0283	5.8746	3.8605	8.0566	6.3782	3.3569	1.5106	-6.546	9.0637	-2.8534	8.2245	48	279	178	7	1	2
-5.7068	1.3428	-0.5035	-11.7493	1.6785	1.6785	-1.6785	3.8605	5.8746	3.8605	7.8888	6.3782	3.8605	1.5106	-6.0425	9.0637	-2.5177	8.2245	48	280	179	7	1	2
-6.0425	1.3428	-0.6714	-11.9171	1.5106	1.6785	-2.0142	3.5248	5.5389	3.8605	7.7209	6.2103	4.0283	1.5106	-5.7068	9.0637	-2.182	8.3923	48	281	180	7	1	2
-6.3782	1.0071	-1.0071	-12.2528	1.5106	1.1749	-2.3499	3.3569	5.0354	3.6926	7.5531	6.0425	4.1962	1.5106	-5.2032	8.8959	-2.0142	8.3923	48	282	181	7	1	2
-6.546	1.0071	-1.3428	-12.4207	1.5106	0.6714	-2.5177	3.0212	4.5319	3.3569	7.2174	5.7068	4.0283	1.5106	-5.0354	8.8959	-1.8463	8.2245	48	283	182	7	1	2
-7.0496	0.8392	-1.8463	-12.5885	1.3428	0.1678	-2.8534	2.8534	4.0283	3.0212	6.7139	5.2032	3.8605	1.3428	-4.8676	8.5602	-1.8463	8.2245	48	284	183	7	1	2
-7.5531	0.5035	-2.182	-12.7563	1.1749	-0.3357	-3.1891	2.3499	3.3569	2.6855	6.2103	4.8676	3.5248	1.3428	-4.5319	8.3923	-1.6785	8.0566	48	285	184	7	1	2
-7.8888	0.1678	-3.0212	-13.2599	0.8392	-1.1749	-3.6926	2.0142	2.5177	2.0142	5.8746	4.1962	3.3569	1.1749	-4.5319	8.2245	-1.8463	7.8888	48	286	185	7	1	2
-8.5602	-0.3357	-3.5248	-13.4277	0.3357	-2.0142	-4.1962	1.5106	1.6785	1.3428	5.2032	3.5248	2.8534	1.1749	-4.364	8.2245	-2.0142	7.8888	48	287	186	7	1	2
-9.2316	-0.8392	-4.1962	-13.7634	0	-2.6855	-4.6997	1.1749	0.8392	0.8392	4.8676	2.8534	2.5177	0.8392	-4.364	7.7209	-2.0142	7.7209	48	288	187	7	1	2
-9.7351	-1.3428	-5.0354	-13.9313	-0.1678	-3.3569	-5.2032	0.8392	0	0.3357	4.5319	2.3499	2.182	0.6714	-4.364	7.7209	-2.182	7.5531	48	289	188	7	1	2
-10.2386	-1.6785	-5.7068	-14.0991	-0.6714	-4.1962	-5.5389	0.5035	-0.6714	-0.1678	4.0283	1.6785	1.6785	0.6714	-4.1962	7.7209	-2.182	7.8888	48	290	189	7	1	2
-10.7422	-2.182	-6.3782	-14.0991	-1.0071	-5.0354	-5.8746	0.1678	-1.5106	-0.6714	3.8605	1.1749	1.3428	0.5035	-4.1962	7.7209	-2.3499	7.8888	48	291	190	7	1	2
6.0425	3.8605	6.7139	7.3853	-1.3428	2.0142	3.0212	-4.364	-5.0354	-0.1678	-3.3569	-8.2245	-3.6926	2.3499	1.6785	2.3499	-1.5106	2.8534	48	231	130	8	1	2
5.2032	3.0212	5.7068	6.3782	-1.6785	1.1749	2.3499	-4.364	-5.5389	-0.6714	-3.5248	-8.5602	-3.8605	2.182	1.5106	2.3499	-1.6785	3.0212	48	232	131	8	1	2
4.1962	2.3499	4.6997	5.2032	-2.0142	0.3357	1.6785	-4.364	-6.0425	-0.8392	-3.3569	-8.8959	-3.6926	2.182	1.6785	2.5177	-1.6785	3.3569	48	233	132	8	1	2
3.1891	1.5106	3.6926	4.1962	-2.182	-0.5035	1.0071	-4.364	-6.3782	-1.0071	-3.5248	-9.0637	-3.8605	2.0142	1.6785	2.5177	-1.8463	3.6926	48	234	133	8	1	2
2.3499	0.6714	2.6855	3.3569	-2.3499	-1.5106	0.3357	-4.364	-7.0496	-1.3428	-3.3569	-9.5673	-3.8605	1.8463	1.6785	2.8534	-2.0142	4.0283	48	235	134	8	1	2
1.1749	-0.1678	1.3428	2.3499	-2.8534	-2.3499	-0.3357	-4.6997	-7.3853	-1.6785	-3.5248	-9.7351	-3.8605	1.6785	1.6785	2.8534	-2.182	4.364	48	236	135	8	1	2
0	-1.1749	0.3357	1.5106	-3.1891	-3.3569	-1.0071	-4.6997	-7.8888	-1.8463	-3.6926	-9.903	-3.6926	1.5106	2.0142	2.8534	-2.3499	4.6997	48	237	136	8	1	2
-1.0071	-2.182	-0.8392	0.6714	-3.5248	-4.364	-1.6785	-4.8676	-8.3923	-2.182	-3.6926	-10.2386	-3.6926	1.3428	2.182	3.0212	-2.3499	4.8676	48	238	137	8	1	2
-2.0142	-3.0212	-2.0142	0	-4.0283	-5.2032	-2.182	-5.0354	-8.8959	-2.3499	-3.8605	-10.4065	-3.5248	1.1749	2.3499	3.0212	-2.3499	5.2032	48	239	138	8	1	2
-3.0212	-4.1962	-3.1891	-0.8392	-4.5319	-5.8746	-2.6855	-5.0354	-9.2316	-2.3499	-3.8605	-10.4065	-3.1891	1.0071	2.6855	3.0212	-2.3499	5.3711	48	240	139	8	1	2
-3.8605	-5.0354	-4.0283	-1.3428	-5.0354	-6.546	-3.0212	-5.2032	-9.5673	-2.5177	-3.6926	-10.4065	-3.0212	0.8392	3.0212	3.1891	-2.3499	5.7068	48	241	140	8	1	2
-4.5319	-5.7068	-4.8676	-1.6785	-5.5389	-7.3853	-3.5248	-5.3711	-9.903	-2.6855	-3.8605	-10.5743	-2.8534	0.5035	3.1891	3.3569	-2.3499	6.0425	48	242	141	8	1	2
-5.0354	-6.3782	-5.5389	-2.0142	-5.8746	-7.8888	-3.6926	-5.3711	-10.2386	-2.5177	-3.6926	-10.4065	-2.3499	0.3357	3.5248	3.5248	-2.182	6.3782	48	243	142	8	1	2
-5.7068	-7.2174	-6.3782	-2.3499	-6.2103	-8.3923	-3.6926	-5.3711	-10.2386	-2.5177	-3.5248	-10.2386	-1.8463	0.1678	3.8605	3.5248	-2.0142	6.546	48	244	143	8	1	2
-6.0425	-7.8888	-6.8817	-2.5177	-6.546	-8.728	-3.8605	-5.3711	-10.4065	-2.3499	-3.5248	-10.0708	-1.5106	0	4.364	3.6926	-1.6785	6.8817	48	245	144	8	1	2
-6.3782	-8.3923	-7.3853	-2.5177	-6.8817	-9.0637	-3.6926	-5.3711	-10.4065	-2.0142	-3.1891	-9.7351	-0.8392	-0.1678	4.8676	3.8605	-1.3428	7.2174	48	246	145	8	1	2
-6.546	-8.8959	-7.8888	-2.5177	-7.2174	-9.2316	-3.6926	-5.3711	-10.4065	-1.8463	-3.0212	-9.3994	-0.3357	-0.3357	5.2032	4.0283	-1.1749	7.3853	48	247	146	8	1	2
-6.7139	-9.5673	-8.2245	-2.3499	-7.5531	-9.3994	-3.6926	-5.5389	-10.2386	-1.8463	-2.8534	-9.0637	0.1678	-0.5035	5.5389	4.1962	-0.8392	7.3853	48	248	147	8	1	2
-6.8817	-10.0708	-8.5602	-2.3499	-7.8888	-9.7351	-3.6926	-5.7068	-10.2386	-1.5106	-2.8534	-8.728	0.6714	-0.6714	6.0425	4.0283	-0.5035	7.5531	48	249	148	8	1	2
-6.8817	-10.2386	-8.5602	-2.0142	-8.2245	-9.903	-3.6926	-5.7068	-10.0708	-1.3428	-2.6855	-8.2245	1.3428	-0.8392	6.7139	4.364	-0.3357	7.8888	48	250	149	8	1	2
-6.8817	-10.5743	-8.728	-1.8463	-8.5602	-9.903	-3.5248	-5.8746	-10.0708	-1.3428	-2.3499	-7.8888	1.8463	-1.0071	7.0496	4.364	0	8.0566	48	251	150	8	1	2
-6.8817	-10.91	-8.8959	-1.8463	-8.728	-10.0708	-3.5248	-5.8746	-9.7351	-1.0071	-2.3499	-7.3853	2.3499	-1.1749	7.3853	4.1962	0.3357	8.0566	48	252	151	8	1	2
-6.546	-10.91	-8.5602	-1.5106	-8.8959	-9.903	-3.3569	-5.8746	-9.5673	-0.8392	-2.0142	-6.7139	3.0212	-1.1749	7.8888	4.1962	0.6714	8.2245	48	253	152	8	1	2
-6.546	-11.2457	-8.5602	-1.0071	-9.2316	-9.903	-3.1891	-5.8746	-9.2316	-0.6714	-1.6785	-6.3782	3.5248	-1.3428	8.2245	4.0283	1.0071	8.3923	48	254	153	8	1	2
-6.3782	-11.0779	-8.3923	-0.8392	-9.2316	-9.5673	-2.8534	-5.7068	-8.728	-0.3357	-1.3428	-5.7068	4.0283	-1.3428	8.5602	3.8605	1.1749	8.3923	48	255	154	8	1	2
-6.0425	-10.91	-7.8888	-0.1678	-9.2316	-9.2316	-2.6855	-5.7068	-8.3923	-0.1678	-1.1749	-5.2032	4.6997	-1.5106	9.0637	3.8605	1.6785	8.5602	48	256	155	8	1	2
-5.7068	-10.91	-7.7209	0.1678	-9.0637	-8.8959	-2.3499	-5.5389	-7.8888	0.1678	-0.8392	-4.5319	5.0354	-1.5106	9.3994	3.6926	1.8463	8.3923	48	257	156	8	1	2
-5.2032	-10.5743	-7.0496	1.0071	-8.8959	-8.5602	-2.182	-5.5389	-7.5531	0.1678	-0.6714	-4.0283	5.5389	-1.6785	9.903	3.8605	2.182	8.3923	48	258	157	8	1	2
-4.6997	-10.2386	-6.3782	1.5106	-8.728	-8.0566	-1.8463	-5.3711	-6.8817	0.3357	-0.5035	-3.1891	6.0425	-1.6785	10.2386	3.6926	2.5177	8.3923	48	259	158	8	1	2
-4.5319	-9.903	-6.0425	1.8463	-8.5602	-7.7209	-1.6785	-5.0354	-6.3782	0.6714	-0.1678	-2.6855	6.2103	-1.6785	10.4065	3.1891	2.6855	8.0566	48	260	159	8	1	2
-3.8605	-9.3994	-5.3711	2.3499	-8.2245	-7.0496	-1.5106	-4.6997	-5.8746	0.8392	0	-2.0142	6.7139	-1.6785	10.91	3.3569	3.0212	8.2245	48	261	160	8	1	2
-3.5248	-9.0637	-4.8676	2.6855	-8.0566	-6.546	-1.5106	-4.6997	-5.3711	1.0071	0.1678	-1.5106	6.8817	-1.6785	11.2457	3.0212	3.1891	7.8888	48	262	161	8	1	2
-3.0212	-8.3923	-4.364	3.1891	-7.5531	-6.0425	-1.3428	-4.364	-4.6997	1.1749	0.5035	-0.8392	7.3853	-1.5106	11.4136	2.8534	3.5248	7.8888	48	263	162	8	1	2
-2.6855	-8.0566	-3.8605	3.1891	-7.3853	-5.3711	-1.3428	-4.0283	-4.0283	1.0071	0.5035	-0.3357	7.2174	-1.3428	11.7493	2.5177	3.5248	7.5531	48	264	163	8	1	2
-2.3499	-7.3853	-3.3569	3.3569	-6.8817	-4.6997	-1.3428	-3.8605	-3.5248	1.0071	0.6714	0.1678	7.5531	-1.1749	11.9171	2.182	3.6926	7.2174	48	265	164	8	1	2
-2.182	-6.8817	-2.8534	3.3569	-6.7139	-4.1962	-1.5106	-3.6926	-3.0212	0.8392	0.6714	0.5035	7.3853	-1.0071	11.9171	2.0142	3.6926	6.8817	48	266	165	8	1	2
-1.8463	-6.3782	-2.5177	3.3569	-6.3782	-3.8605	-1.5106	-3.5248	-2.6855	0.6714	0.8392	1.0071	7.3853	-0.8392	12.085	1.6785	3.6926	6.3782	48	267	166	8	1	2
-2.0142	-6.2103	-2.3499	3.1891	-6.0425	-3.3569	-1.8463	-3.3569	-2.3499	0.5035	0.6714	1.1749	7.0496	-0.6714	12.085	1.3428	3.6926	5.8746	48	268	167	8	1	2
-1.8463	-5.7068	-2.182	3.1891	-6.0425	-3.1891	-2.0142	-3.3569	-2.0142	0.1678	0.5035	1.3428	6.8817	-0.5035	12.085	1.0071	3.5248	5.5389	48	269	168	8	1	2
-1.8463	-5.5389	-2.0142	2.8534	-5.8746	-2.8534	-2.5177	-3.3569	-1.8463	-0.1678	0.1678	1.5106	6.3782	-0.3357	11.7493	0.6714	3.3569	5.2032	48	270	169	8	1	2
-2.182	-5.3711	-2.182	2.3499	-5.8746	-2.6855	-3.0212	-3.3569	-1.8463	-0.6714	0	1.5106	6.0425	-0.1678	11.4136	0.1678	3.0212	4.5319	48	271	170	8	1	2
-2.5177	-5.2032	-2.5177	1.8463	-5.8746	-2.6855	-3.5248	-3.3569	-1.6785	-1.1749	-0.3357	1.3428	5.5389	0	11.0779	-0.3357	2.6855	4.0283	48	272	171	8	1	2
-2.8534	-5.5389	-2.6855	1.3428	-5.7068	-2.5177	-3.8605	-3.3569	-1.5106	-1.5106	-0.3357	1.1749	4.6997	0.3357	10.7422	-0.6714	2.3499	3.5248	48	273	172	8	1	2
-3.6926	-5.7068	-3.1891	0.5035	-5.7068	-2.6855	-4.6997	-3.3569	-1.5106	-2.182	-0.6714	1.0071	4.1962	0.5035	10.2386	-1.1749	2.0142	2.8534	48	274	173	8	1	2
-4.1962	-6.0425	-3.8605	-0.3357	-6.0425	-3.0212	-5.5389	-3.6926	-1.6785	-2.6855	-0.8392	0.6714	3.5248	0.6714	9.7351	-1.6785	1.5106	2.3499	48	275	174	8	1	2
-4.8676	-6.2103	-4.5319	-1.1749	-6.2103	-3.1891	-6.0425	-3.6926	-1.8463	-3.3569	-1.3428	0.5035	2.8534	0.8392	9.0637	-2.0142	1.1749	1.8463	48	276	175	8	1	2
-5.5389	-6.7139	-5.0354	-2.0142	-6.2103	-3.5248	-6.7139	-3.8605	-2.0142	-4.0283	-1.5106	0.1678	2.3499	1.0071	8.5602	-2.3499	0.8392	1.5106	48	277	176	8	1	2
-6.2103	-6.8817	-5.7068	-2.6855	-6.3782	-3.6926	-7.3853	-4.0283	-2.182	-4.5319	-1.6785	0	1.6785	1.1749	8.0566	-2.6855	0.5035	1.1749	48	278	177	8	1	2
-6.8817	-7.3853	-6.2103	-3.6926	-6.7139	-4.0283	-8.0566	-4.1962	-2.3499	-5.0354	-2.0142	-0.3357	1.0071	1.3428	7.5531	-3.0212	0.1678	0.8392	48	279	178	8	1	2
-7.2174	-7.5531	-6.7139	-4.364	-6.7139	-4.364	-8.5602	-4.364	-2.6855	-5.5389	-2.0142	-0.5035	0.5035	1.5106	7.2174	-3.1891	0	0.6714	48	280	179	8	1	2
-7.7209	-7.8888	-7.2174	-5.0354	-6.7139	-4.6997	-9.2316	-4.364	-2.8534	-6.0425	-2.5177	-1.0071	0	1.5106	6.7139	-3.5248	-0.3357	0.1678	48	281	180	8	1	2
-8.0566	-8.0566	-7.8888	-5.5389	-7.0496	-5.0354	-9.7351	-4.5319	-3.1891	-6.546	-2.8534	-1.5106	-1.0071	1.5106	6.0425	-3.8605	-0.6714	0	48	282	181	8	1	2
-8.5602	-8.5602	-8.3923	-5.8746	-7.0496	-5.2032	-9.903	-4.5319	-3.3569	-6.8817	-2.8534	-1.8463	-1.5106	1.6785	5.5389	-3.8605	-0.6714	-0.1678	48	283	182	8	1	2
-8.8959	-8.8959	-8.728	-6.2103	-7.2174	-5.5389	-10.2386	-4.8676	-3.6926	-7.3853	-3.1891	-2.182	-2.0142	1.6785	5.0354	-4.0283	-1.0071	-0.3357	48	284	183	8	1	2
-9.0637	-9.0637	-9.0637	-6.3782	-7.2174	-5.8746	-10.4065	-5.0354	-4.1962	-7.5531	-3.5248	-2.6855	-2.6855	1.6785	4.5319	-4.364	-1.1749	-0.5035	48	285	184	8	1	2
-9.2316	-9.2316	-9.3994	-6.3782	-7.5531	-6.2103	-10.5743	-5.5389	-4.6997	-8.0566	-3.8605	-3.3569	-3.3569	1.5106	4.1962	-4.5319	-1.5106	-0.8392	48	286	185	8	1	2
-9.3994	-9.5673	-9.7351	-6.0425	-7.5531	-6.546	-10.5743	-5.5389	-5.0354	-8.2245	-4.1962	-3.6926	-3.8605	1.5106	3.5248	-4.6997	-1.8463	-0.8392	48	287	186	8	1	2
-9.3994	-10.0708	-9.903	-5.8746	-7.7209	-6.8817	-10.4065	-6.0425	-5.5389	-8.728	-4.6997	-4.364	-4.5319	1.3428	3.0212	-5.0354	-2.0142	-1.1749	48	288	187	8	1	2
-9.3994	-10.4065	-10.2386	-5.3711	-8.0566	-7.0496	-10.2386	-6.2103	-5.7068	-8.8959	-4.8676	-4.8676	-4.8676	1.3428	2.6855	-4.8676	-2.182	-1.3428	48	289	188	8	1	2
-9.2316	-10.5743	-10.4065	-4.8676	-8.0566	-7.2174	-9.903	-6.546	-6.2103	-8.8959	-5.3711	-5.2032	-5.3711	1.3428	2.5177	-5.0354	-2.3499	-1.3428	48	290	189	8	1	2
-9.2316	-10.7422	-10.7422	-4.5319	-8.5602	-7.5531	-9.903	-6.8817	-6.8817	-9.3994	-5.8746	-5.8746	-6.0425	1.1749	2.0142	-5.2032	-2.6855	-1.6785	48	291	190	8	1	2
-21.4844	-20.1416	-27.1912	-21.6522	-23.6664	-26.3519	-20.9808	-23.6664	-27.1912	-17.7917	-26.8555	-26.0162	-11.9171	0.1678	2.8534	-16.9525	-0.5035	-12.5885	48	231	130	9	1	2
-21.6522	-19.9738	-27.359	-21.9879	-23.3307	-26.3519	-21.3165	-23.3307	-27.0233	-17.7917	-26.6876	-26.0162	-12.085	-0.1678	2.3499	-16.449	-1.0071	-12.4207	48	232	131	9	1	2
-21.6522	-19.6381	-27.0233	-22.1558	-23.1628	-26.0162	-21.3165	-22.995	-26.8555	-17.6239	-26.5198	-25.8484	-12.085	-0.6714	1.8463	-15.4419	-1.5106	-12.085	48	233	132	9	1	2
-21.8201	-19.4702	-27.0233	-22.3236	-22.8271	-26.0162	-21.3165	-22.8271	-26.6876	-17.7917	-26.1841	-26.0162	-12.2528	-1.0071	1.1749	-14.9384	-2.0142	-11.7493	48	234	133	9	1	2
-21.6522	-19.1345	-26.5198	-22.1558	-22.4915	-25.6805	-21.3165	-22.4915	-26.5198	-17.7917	-26.1841	-25.8484	-12.4207	-1.5106	0.3357	-14.267	-2.5177	-11.5814	48	235	134	9	1	2
-21.4844	-18.7988	-26.1841	-22.1558	-22.1558	-25.5127	-21.3165	-22.3236	-26.3519	-17.7917	-25.8484	-25.6805	-12.4207	-1.8463	-0.3357	-13.5956	-3.1891	-11.2457	48	236	135	9	1	2
-21.4844	-18.4631	-26.0162	-22.1558	-21.9879	-25.177	-21.4844	-22.1558	-26.0162	-17.7917	-25.6805	-25.8484	-12.7563	-2.182	-1.1749	-13.092	-3.6926	-11.0779	48	237	136	9	1	2
-21.3165	-18.2953	-25.8484	-22.1558	-21.8201	-25.0092	-21.4844	-21.9879	-25.8484	-17.9596	-25.6805	-25.8484	-13.092	-2.3499	-1.6785	-12.5885	-4.0283	-10.91	48	238	137	9	1	2
-21.1487	-17.9596	-25.6805	-22.1558	-21.3165	-24.8413	-21.3165	-21.6522	-25.5127	-17.9596	-25.3448	-25.6805	-13.2599	-2.6855	-2.5177	-12.085	-4.6997	-10.7422	48	239	138	9	1	2
-20.813	-17.6239	-25.3448	-21.9879	-21.1487	-24.3378	-21.3165	-21.3165	-25.177	-17.9596	-25.0092	-25.3448	-13.4277	-2.8534	-3.0212	-11.4136	-5.0354	-10.5743	48	240	139	9	1	2
-20.6451	-17.4561	-25.0092	-21.8201	-20.813	-24.1699	-21.3165	-21.1487	-25.0092	-18.1274	-24.6735	-25.5127	-13.5956	-2.8534	-3.5248	-11.2457	-5.5389	-10.4065	48	241	140	9	1	2
-20.4773	-17.2882	-24.6735	-21.6522	-20.3094	-23.8342	-20.9808	-20.813	-24.8413	-17.9596	-24.3378	-25.177	-13.7634	-3.0212	-4.1962	-10.5743	-5.7068	-10.0708	48	242	141	9	1	2
-20.3094	-17.1204	-24.6735	-21.4844	-20.1416	-23.6664	-20.9808	-20.4773	-24.6735	-18.2953	-23.8342	-25.177	-13.9313	-3.0212	-4.6997	-10.0708	-6.3782	-9.903	48	243	142	9	1	2
-20.3094	-17.1204	-24.3378	-21.1487	-19.9738	-23.4985	-20.9808	-20.3094	-24.3378	-18.1274	-23.4985	-24.8413	-14.267	-3.0212	-5.3711	-9.7351	-6.546	-9.7351	48	244	143	9	1	2
-20.1416	-16.9525	-24.3378	-20.9808	-19.6381	-23.1628	-20.6451	-19.8059	-24.0021	-18.2953	-23.1628	-24.6735	-14.4348	-3.0212	-6.0425	-9.0637	-6.8817	-9.3994	48	245	144	9	1	2
-20.3094	-16.9525	-24.3378	-20.813	-19.4702	-23.1628	-20.6451	-19.4702	-24.0021	-18.4631	-22.6593	-24.5056	-14.7705	-3.0212	-6.8817	-8.728	-7.3853	-9.2316	48	246	145	9	1	2
-20.3094	-16.7847	-24.3378	-20.4773	-19.1345	-22.995	-20.4773	-19.1345	-23.6664	-18.4631	-21.9879	-24.1699	-14.7705	-3.0212	-7.3853	-8.3923	-7.5531	-8.728	48	247	146	9	1	2
-20.6451	-16.9525	-24.3378	-20.3094	-19.1345	-22.995	-20.6451	-18.7988	-23.4985	-18.4631	-21.6522	-24.0021	-15.1062	-3.0212	-8.0566	-7.8888	-7.8888	-8.5602	48	248	147	9	1	2
-20.9808	-17.1204	-24.6735	-20.3094	-18.9667	-23.1628	-20.6451	-18.631	-23.6664	-18.631	-21.1487	-23.8342	-15.274	-2.8534	-8.728	-7.3853	-8.5602	-8.0566	48	249	148	9	1	2
-21.4844	-17.1204	-24.8413	-20.1416	-18.631	-23.1628	-20.6451	-18.2953	-23.3307	-18.7988	-20.813	-23.4985	-15.4419	-2.8534	-9.2316	-7.2174	-8.728	-7.8888	48	250	149	9	1	2
-21.9879	-17.4561	-25.3448	-20.4773	-18.631	-23.4985	-20.6451	-18.1274	-23.4985	-18.9667	-20.3094	-23.3307	-15.6097	-2.8534	-9.7351	-6.7139	-9.0637	-7.5531	48	251	150	9	1	2
-22.6593	-17.9596	-25.6805	-20.9808	-18.631	-23.8342	-20.9808	-17.9596	-23.6664	-19.3024	-19.9738	-23.1628	-15.9454	-2.6855	-10.4065	-6.3782	-9.3994	-7.0496	48	252	151	9	1	2
-23.3307	-18.1274	-26.3519	-21.3165	-18.631	-24.1699	-21.1487	-17.9596	-23.6664	-19.4702	-19.4702	-22.995	-15.9454	-2.6855	-10.7422	-6.2103	-9.5673	-6.7139	48	253	152	9	1	2
-24.1699	-18.631	-26.8555	-21.8201	-18.631	-24.5056	-21.6522	-17.7917	-23.6664	-19.6381	-18.9667	-22.8271	-16.1133	-2.8534	-11.0779	-6.0425	-9.903	-6.546	48	254	153	9	1	2
-24.8413	-18.9667	-27.5269	-22.3236	-18.631	-24.8413	-21.8201	-17.4561	-23.6664	-19.6381	-18.631	-22.4915	-16.1133	-2.8534	-11.2457	-5.7068	-10.2386	-6.0425	48	255	154	9	1	2
-25.8484	-19.4702	-28.0304	-22.8271	-18.7988	-25.3448	-22.1558	-17.4561	-23.8342	-19.9738	-18.1274	-22.4915	-16.1133	-2.8534	-11.5814	-5.3711	-10.4065	-5.7068	48	256	155	9	1	2
-26.3519	-19.9738	-28.3661	-23.3307	-18.7988	-25.5127	-22.3236	-17.2882	-23.8342	-19.9738	-17.6239	-21.9879	-15.9454	-3.0212	-11.4136	-5.2032	-10.5743	-5.2032	48	257	156	9	1	2
-27.0233	-20.1416	-28.8696	-23.6664	-18.7988	-25.6805	-22.4915	-17.1204	-23.4985	-19.8059	-17.1204	-21.6522	-15.9454	-3.0212	-11.4136	-5.0354	-10.4065	-4.8676	48	258	157	9	1	2
-27.5269	-20.3094	-29.2053	-23.8342	-18.631	-25.6805	-22.4915	-17.1204	-23.4985	-19.6381	-16.6168	-21.3165	-15.6097	-3.0212	-11.2457	-4.5319	-10.5743	-4.1962	48	259	158	9	1	2
-28.0304	-20.813	-29.7089	-24.3378	-18.7988	-25.8484	-22.6593	-16.9525	-23.4985	-19.8059	-16.1133	-21.1487	-15.6097	-3.0212	-11.0779	-4.364	-10.7422	-3.3569	48	260	159	9	1	2
-28.3661	-20.813	-30.0446	-24.6735	-18.7988	-25.8484	-22.8271	-16.7847	-23.3307	-19.6381	-15.7776	-20.813	-15.4419	-3.0212	-10.91	-4.0283	-10.5743	-2.8534	48	261	160	9	1	2
-28.5339	-20.9808	-30.2124	-24.8413	-18.7988	-26.0162	-22.995	-16.6168	-23.3307	-19.6381	-15.274	-20.6451	-15.1062	-3.0212	-10.5743	-3.6926	-10.7422	-2.182	48	262	161	9	1	2
-28.7018	-21.3165	-30.3802	-25.0092	-18.631	-26.0162	-23.1628	-16.6168	-23.3307	-19.6381	-14.9384	-20.4773	-14.9384	-3.0212	-10.4065	-3.3569	-10.7422	-1.6785	48	263	162	9	1	2
-29.0375	-21.3165	-30.5481	-25.177	-18.7988	-26.0162	-23.1628	-16.449	-23.3307	-19.8059	-14.6027	-20.1416	-14.9384	-3.1891	-10.2386	-3.3569	-10.5743	-1.5106	48	264	163	9	1	2
-29.0375	-21.3165	-30.8838	-25.3448	-18.7988	-26.0162	-23.1628	-16.449	-23.3307	-19.6381	-14.267	-20.1416	-14.6027	-3.0212	-9.903	-3.0212	-10.7422	-0.8392	48	265	164	9	1	2
-29.2053	-21.3165	-30.8838	-25.5127	-18.7988	-26.0162	-23.3307	-16.449	-23.3307	-19.6381	-14.0991	-19.9738	-14.6027	-3.0212	-9.5673	-3.0212	-10.5743	-0.5035	48	266	165	9	1	2
-29.0375	-21.1487	-31.0516	-25.5127	-18.7988	-26.0162	-23.1628	-16.2811	-23.3307	-19.6381	-13.5956	-19.6381	-14.267	-3.0212	-9.2316	-3.0212	-10.5743	-0.1678	48	267	166	9	1	2
-29.2053	-21.3165	-31.0516	-25.5127	-18.7988	-26.0162	-23.3307	-16.2811	-23.3307	-19.8059	-13.4277	-19.8059	-14.267	-2.8534	-8.8959	-3.0212	-10.4065	0	48	268	167	9	1	2
-29.0375	-21.1487	-31.2195	-25.5127	-18.7988	-26.0162	-23.4985	-16.449	-23.4985	-19.6381	-13.092	-19.4702	-13.9313	-2.6855	-8.5602	-3.1891	-10.4065	0.1678	48	269	168	9	1	2
-29.0375	-21.1487	-31.0516	-25.5127	-18.9667	-26.0162	-23.4985	-16.449	-23.4985	-19.6381	-12.9242	-19.4702	-13.7634	-2.5177	-8.0566	-3.1891	-10.4065	0.5035	48	270	169	9	1	2
-28.8696	-21.1487	-31.2195	-25.5127	-19.1345	-26.0162	-23.4985	-16.6168	-23.4985	-19.8059	-12.9242	-19.4702	-13.5956	-2.3499	-7.7209	-3.3569	-10.0708	0.3357	48	271	170	9	1	2
-28.7018	-21.1487	-31.0516	-25.3448	-19.3024	-26.1841	-23.6664	-16.7847	-23.6664	-19.8059	-13.092	-19.4702	-13.5956	-2.182	-7.5531	-3.8605	-10.0708	0.3357	48	272	171	9	1	2
-28.7018	-21.1487	-31.0516	-25.5127	-19.6381	-26.3519	-23.6664	-17.2882	-24.0021	-19.8059	-13.4277	-19.6381	-13.4277	-2.0142	-7.2174	-4.364	-9.903	0	48	273	172	9	1	2
-28.3661	-21.1487	-30.8838	-25.5127	-19.8059	-26.1841	-23.6664	-17.4561	-24.0021	-19.9738	-13.7634	-19.6381	-13.4277	-1.8463	-6.8817	-4.8676	-9.7351	-0.3357	48	274	173	9	1	2
-28.1982	-21.1487	-30.8838	-25.6805	-20.1416	-26.3519	-24.0021	-17.9596	-24.3378	-20.1416	-14.0991	-19.9738	-13.4277	-1.5106	-6.7139	-5.3711	-9.7351	-0.6714	48	275	174	9	1	2
-27.8625	-21.1487	-30.5481	-25.6805	-20.4773	-26.3519	-24.0021	-18.2953	-24.5056	-20.3094	-14.4348	-19.9738	-13.4277	-1.3428	-6.3782	-6.0425	-9.5673	-1.1749	48	276	175	9	1	2
-27.6947	-21.1487	-30.5481	-25.8484	-20.813	-26.5198	-24.1699	-18.9667	-25.0092	-20.4773	-15.1062	-20.4773	-13.4277	-1.0071	-6.0425	-6.8817	-9.3994	-1.6785	48	277	176	9	1	2
-27.359	-21.1487	-30.3802	-26.0162	-21.1487	-26.5198	-24.3378	-19.3024	-25.0092	-20.813	-15.7776	-20.6451	-13.5956	-0.8392	-6.0425	-7.5531	-9.2316	-2.3499	48	278	177	9	1	2
-27.1912	-21.1487	-30.3802	-26.1841	-21.4844	-26.6876	-24.5056	-19.9738	-25.5127	-20.9808	-16.449	-21.1487	-13.7634	-0.5035	-5.7068	-8.3923	-9.2316	-3.0212	48	279	178	9	1	2
-26.8555	-21.1487	-29.8767	-26.1841	-21.8201	-26.6876	-24.6735	-20.4773	-25.6805	-21.1487	-17.1204	-21.3165	-13.9313	-0.3357	-5.3711	-9.3994	-9.0637	-3.6926	48	280	179	9	1	2
-26.6876	-21.1487	-29.8767	-26.3519	-22.3236	-26.6876	-24.8413	-21.1487	-26.1841	-21.4844	-17.9596	-21.8201	-14.267	0	-5.2032	-10.4065	-8.8959	-4.364	48	281	180	9	1	2
-26.3519	-21.1487	-29.541	-26.5198	-22.4915	-26.6876	-25.0092	-21.6522	-26.3519	-21.4844	-18.4631	-22.1558	-14.0991	0.1678	-5.0354	-11.2457	-8.728	-5.2032	48	282	181	9	1	2
-26.1841	-21.1487	-29.3732	-26.5198	-22.8271	-26.8555	-25.0092	-22.1558	-26.6876	-21.8201	-19.3024	-22.6593	-14.4348	0.5035	-4.8676	-12.085	-8.5602	-5.8746	48	283	182	9	1	2
-26.1841	-21.1487	-29.0375	-26.6876	-23.1628	-26.6876	-25.0092	-22.8271	-26.8555	-21.9879	-20.1416	-22.995	-14.7705	0.5035	-4.8676	-12.9242	-8.3923	-6.8817	48	284	183	9	1	2
-25.8484	-21.1487	-28.8696	-26.6876	-23.4985	-26.8555	-25.0092	-23.3307	-27.1912	-22.1558	-20.9808	-23.3307	-14.9384	0.6714	-4.8676	-13.9313	-8.3923	-7.5531	48	285	184	9	1	2
-25.8484	-21.3165	-28.7018	-26.8555	-24.0021	-26.8555	-25.177	-23.8342	-27.5269	-22.4915	-21.6522	-23.8342	-15.274	0.8392	-4.6997	-14.9384	-8.3923	-8.5602	48	286	185	9	1	2
-25.6805	-21.4844	-28.1982	-26.6876	-24.1699	-26.6876	-25.0092	-24.3378	-27.6947	-22.6593	-22.4915	-24.0021	-15.4419	1.0071	-4.6997	-15.7776	-8.2245	-9.2316	48	287	186	9	1	2
-25.5127	-21.3165	-28.0304	-26.5198	-24.3378	-26.5198	-24.8413	-24.6735	-27.6947	-22.4915	-23.1628	-24.1699	-15.6097	1.0071	-4.6997	-16.6168	-8.2245	-10.0708	48	288	187	9	1	2
-25.177	-21.4844	-27.5269	-26.0162	-24.3378	-26.1841	-24.6735	-24.8413	-27.6947	-22.4915	-23.4985	-24.3378	-15.6097	1.1749	-4.6997	-17.2882	-8.2245	-10.5743	48	289	188	9	1	2
-24.8413	-21.4844	-27.0233	-25.5127	-24.5056	-25.8484	-24.1699	-25.0092	-27.5269	-22.3236	-24.0021	-24.5056	-15.6097	1.3428	-4.5319	-18.1274	-8.0566	-11.0779	48	290	189	9	1	2
-24.6735	-21.4844	-26.5198	-25.0092	-24.5056	-25.5127	-23.8342	-25.3448	-27.5269	-22.3236	-24.6735	-24.5056	-15.7776	1.5106	-4.364	-18.7988	-8.2245	-11.9171	48	291	190	9	1	2
14.9384	11.7493	12.7563	17.6239	3.8605	8.2245	15.4419	2.3499	7.7209	17.1204	3.0212	12.2528	23.3307	2.3499	22.8271	0.8392	17.1204	-1.6785	48	231	130	10	1	2
13.7634	10.7422	11.5814	16.7847	2.6855	6.8817	14.6027	1.1749	6.3782	16.2811	1.8463	10.7422	22.4915	2.182	23.1628	-0.1678	17.2882	-2.5177	48	232	131	10	1	2
12.4207	9.5673	10.5743	15.9454	1.5106	5.8746	13.7634	0	4.8676	15.4419	0.8392	9.3994	21.8201	2.182	23.3307	-0.8392	17.2882	-3.0212	48	233	132	10	1	2
11.2457	8.5602	9.3994	15.1062	0.3357	4.6997	12.5885	-1.0071	3.5248	14.4348	-0.1678	8.0566	20.813	2.182	23.3307	-1.6785	17.1204	-3.6926	48	234	133	10	1	2
10.0708	7.3853	8.3923	13.9313	-0.8392	3.5248	11.5814	-2.182	2.0142	13.4277	-1.1749	6.546	19.9738	2.182	23.4985	-2.5177	16.9525	-4.364	48	235	134	10	1	2
9.0637	6.2103	7.2174	12.9242	-2.0142	2.3499	10.4065	-3.3569	0.3357	12.4207	-2.182	5.0354	18.9667	2.182	23.6664	-3.1891	16.7847	-4.8676	48	236	135	10	1	2
7.8888	5.2032	6.2103	11.9171	-3.0212	1.1749	9.3994	-4.364	-1.0071	11.2457	-3.0212	3.6926	17.9596	2.182	23.8342	-4.0283	16.6168	-5.5389	48	237	136	10	1	2
7.0496	4.364	5.3711	10.5743	-4.0283	0.1678	8.0566	-5.2032	-2.3499	10.2386	-4.0283	2.0142	16.7847	2.182	23.8342	-4.6997	16.6168	-6.0425	48	238	137	10	1	2
6.0425	3.5248	4.5319	9.5673	-5.0354	-1.0071	6.8817	-6.0425	-3.6926	9.2316	-4.8676	0.6714	15.6097	2.182	23.8342	-5.5389	16.449	-6.546	48	239	138	10	1	2
5.3711	2.8534	3.8605	8.3923	-5.8746	-1.8463	5.8746	-6.8817	-5.0354	8.0566	-5.7068	-0.8392	14.6027	2.182	23.8342	-6.2103	16.6168	-7.0496	48	240	139	10	1	2
5.0354	2.3499	3.3569	7.7209	-6.2103	-2.5177	4.8676	-7.3853	-6.0425	7.2174	-6.2103	-2.0142	13.7634	2.3499	23.8342	-6.546	16.449	-7.3853	48	241	140	10	1	2
4.8676	2.0142	3.0212	6.8817	-6.8817	-3.5248	3.8605	-7.8888	-7.2174	6.2103	-6.8817	-3.1891	12.5885	2.3499	23.6664	-7.0496	16.449	-7.7209	48	242	141	10	1	2
4.6997	1.8463	3.0212	6.3782	-7.0496	-3.8605	3.0212	-8.0566	-8.0566	5.3711	-7.2174	-4.1962	11.7493	2.5177	23.3307	-7.2174	16.449	-7.8888	48	243	142	10	1	2
4.6997	1.8463	3.0212	6.0425	-7.3853	-4.364	2.3499	-8.3923	-8.8959	4.5319	-7.5531	-5.3711	10.7422	2.5177	23.3307	-7.5531	16.449	-8.2245	48	244	143	10	1	2
5.0354	1.8463	3.0212	5.7068	-7.3853	-4.6997	1.6785	-8.3923	-9.7351	3.8605	-7.8888	-6.3782	9.7351	2.5177	22.995	-7.7209	16.449	-8.3923	48	245	144	10	1	2
5.3711	2.182	3.3569	5.5389	-7.2174	-5.0354	1.1749	-8.3923	-10.2386	3.1891	-8.0566	-7.3853	8.8959	2.5177	22.6593	-7.7209	16.449	-8.5602	48	246	145	10	1	2
5.8746	2.5177	3.6926	5.7068	-7.0496	-5.0354	0.8392	-8.3923	-10.7422	2.6855	-8.0566	-8.2245	8.0566	2.5177	22.1558	-7.5531	16.2811	-8.5602	48	247	146	10	1	2
6.3782	3.0212	4.0283	5.7068	-6.7139	-5.2032	0.3357	-8.2245	-11.4136	2.0142	-8.2245	-9.0637	7.0496	2.3499	21.8201	-7.5531	16.1133	-8.5602	48	248	147	10	1	2
6.8817	3.3569	4.364	5.7068	-6.3782	-5.2032	-0.1678	-8.0566	-11.7493	1.3428	-8.2245	-9.7351	6.2103	2.182	21.3165	-7.3853	15.9454	-8.5602	48	249	148	10	1	2
7.5531	3.8605	4.8676	5.8746	-6.0425	-5.2032	-0.5035	-7.7209	-12.085	0.8392	-8.0566	-10.4065	5.3711	2.0142	20.6451	-7.2174	15.7776	-8.3923	48	250	149	10	1	2
8.2245	4.5319	5.3711	6.0425	-5.5389	-5.2032	-0.6714	-7.3853	-12.4207	0.3357	-7.8888	-11.0779	4.5319	1.8463	19.8059	-6.8817	15.274	-8.0566	48	251	150	10	1	2
8.728	5.0354	5.8746	6.2103	-5.0354	-5.0354	-1.0071	-7.2174	-12.7563	-0.1678	-7.7209	-11.5814	3.6926	1.5106	19.1345	-6.7139	15.1062	-7.7209	48	252	151	10	1	2
9.5673	5.7068	6.3782	6.3782	-4.364	-4.8676	-1.1749	-6.7139	-12.7563	-0.5035	-7.3853	-11.9171	3.0212	1.3428	18.4631	-6.2103	14.6027	-7.3853	48	253	152	10	1	2
10.0708	6.2103	6.8817	6.546	-3.8605	-4.6997	-1.5106	-6.3782	-12.9242	-1.0071	-7.2174	-12.4207	2.182	1.0071	17.7917	-5.8746	14.267	-7.0496	48	254	153	10	1	2
10.7422	6.546	7.3853	6.546	-3.3569	-4.364	-1.6785	-5.8746	-13.092	-1.3428	-6.8817	-12.7563	1.3428	0.6714	16.7847	-5.5389	13.4277	-6.7139	48	255	154	10	1	2
11.4136	7.2174	7.8888	6.7139	-2.6855	-4.0283	-1.8463	-5.3711	-12.9242	-1.5106	-6.546	-12.9242	0.8392	0.5035	15.9454	-5.0354	13.092	-6.2103	48	256	155	10	1	2
11.9171	7.5531	8.3923	6.8817	-2.182	-3.8605	-2.0142	-5.0354	-12.9242	-1.8463	-6.2103	-13.092	0.1678	0.1678	14.9384	-4.6997	12.4207	-5.8746	48	257	156	10	1	2
12.4207	8.2245	8.8959	7.0496	-1.6785	-3.6926	-2.0142	-4.5319	-12.7563	-2.0142	-5.8746	-13.092	-0.1678	0	13.9313	-4.1962	11.9171	-5.5389	48	258	157	10	1	2
12.9242	8.5602	9.3994	7.0496	-1.1749	-3.3569	-2.0142	-4.0283	-12.4207	-2.182	-5.3711	-13.092	-0.6714	-0.1678	12.9242	-3.8605	11.4136	-5.2032	48	259	158	10	1	2
13.2599	8.8959	9.7351	7.2174	-0.6714	-3.0212	-2.0142	-3.6926	-12.2528	-2.3499	-5.2032	-13.092	-1.1749	-0.3357	12.085	-3.5248	10.7422	-4.8676	48	260	159	10	1	2
13.7634	9.0637	10.0708	7.2174	-0.3357	-2.8534	-2.0142	-3.1891	-11.9171	-2.3499	-4.8676	-12.9242	-1.3428	-0.5035	11.2457	-3.1891	10.0708	-4.5319	48	261	160	10	1	2
14.267	9.3994	10.5743	7.3853	0.1678	-2.5177	-2.0142	-2.5177	-11.2457	-2.182	-4.364	-12.4207	-1.5106	-0.5035	10.4065	-2.6855	9.7351	-4.0283	48	262	161	10	1	2
14.4348	9.5673	10.7422	7.3853	0.3357	-2.3499	-1.8463	-2.3499	-10.91	-2.3499	-4.1962	-12.2528	-1.8463	-0.6714	9.3994	-2.3499	8.8959	-3.8605	48	263	162	10	1	2
14.6027	9.7351	11.0779	7.3853	0.8392	-2.0142	-2.0142	-2.0142	-10.5743	-2.182	-3.8605	-11.9171	-1.8463	-0.8392	8.5602	-2.0142	8.3923	-3.5248	48	264	163	10	1	2
15.1062	10.0708	11.5814	7.5531	1.1749	-1.6785	-1.6785	-1.5106	-9.903	-2.0142	-3.6926	-11.4136	-1.8463	-0.8392	7.7209	-1.8463	7.8888	-3.1891	48	265	164	10	1	2
15.4419	10.2386	11.7493	7.8888	1.3428	-1.3428	-1.5106	-1.3428	-9.3994	-1.8463	-3.3569	-10.7422	-1.8463	-1.0071	6.8817	-1.5106	7.2174	-2.8534	48	266	165	10	1	2
15.6097	10.4065	12.085	7.8888	1.6785	-1.1749	-1.1749	-1.0071	-8.728	-1.8463	-3.1891	-10.2386	-1.8463	-1.1749	6.0425	-1.5106	6.7139	-2.8534	48	267	166	10	1	2
16.1133	10.7422	12.5885	8.2245	2.182	-0.6714	-0.8392	-0.5035	-7.7209	-1.5106	-2.6855	-9.3994	-1.5106	-1.1749	5.3711	-1.0071	6.3782	-2.6855	48	268	167	10	1	2
16.449	11.0779	13.092	8.5602	2.6855	0	-0.5035	0	-6.8817	-1.0071	-2.3499	-8.5602	-1.1749	-1.1749	4.6997	-0.8392	6.0425	-2.3499	48	269	168	10	1	2
16.9525	11.4136	13.5956	8.8959	3.0212	0.5035	0	0.5035	-5.8746	-0.5035	-2.0142	-7.7209	-0.8392	-1.1749	4.0283	-0.5035	5.7068	-2.182	48	270	169	10	1	2
17.6239	11.9171	14.0991	9.2316	3.5248	1.1749	0.6714	1.1749	-4.8676	-0.1678	-1.6785	-6.8817	-0.3357	-1.1749	3.6926	-0.1678	5.3711	-2.0142	48	271	170	10	1	2
17.9596	12.4207	14.7705	9.7351	4.0283	1.8463	1.3428	1.6785	-3.8605	0.5035	-1.3428	-5.8746	0	-1.1749	3.3569	0.3357	5.2032	-1.8463	48	272	171	10	1	2
18.4631	12.7563	15.274	10.2386	4.5319	2.3499	1.8463	2.182	-2.8534	1.1749	-1.0071	-5.0354	0.5035	-1.1749	2.8534	0.6714	5.0354	-1.6785	48	273	172	10	1	2
19.1345	13.2599	16.1133	10.91	5.3711	3.5248	2.6855	3.0212	-1.5106	1.8463	-0.5035	-3.8605	1.1749	-1.0071	2.8534	1.1749	5.0354	-1.1749	48	274	173	10	1	2
19.6381	13.7634	16.7847	11.4136	5.8746	4.1962	3.3569	3.6926	-0.5035	2.5177	-0.1678	-2.8534	1.6785	-1.0071	2.5177	1.5106	5.0354	-1.0071	48	275	174	10	1	2
20.3094	14.267	17.4561	12.4207	6.546	5.0354	4.364	4.364	0.6714	3.1891	0.5035	-1.5106	2.5177	-0.8392	2.5177	2.182	5.0354	-0.6714	48	276	175	10	1	2
20.9808	14.7705	18.1274	13.092	7.2174	5.8746	5.2032	4.8676	1.6785	3.8605	0.8392	-0.6714	3.0212	-0.8392	2.3499	2.6855	5.0354	-0.5035	48	277	176	10	1	2
21.4844	15.274	18.7988	14.0991	7.7209	6.7139	6.0425	5.7068	3.0212	4.6997	1.3428	0.3357	3.5248	-0.6714	2.5177	3.0212	5.0354	-0.1678	48	278	177	10	1	2
21.9879	15.7776	19.3024	14.9384	8.2245	7.3853	6.8817	6.0425	3.8605	5.3711	1.5106	1.1749	4.0283	-0.6714	2.3499	3.3569	5.0354	-0.1678	48	279	178	10	1	2
22.3236	16.2811	19.8059	15.9454	8.8959	8.2245	7.7209	6.546	4.6997	6.0425	1.6785	2.0142	4.5319	-0.5035	2.6855	3.8605	5.2032	0.1678	48	280	179	10	1	2
22.8271	16.6168	20.3094	16.6168	9.2316	8.728	8.3923	6.8817	5.3711	6.546	2.0142	2.6855	5.0354	-0.5035	2.6855	4.1962	5.5389	0.1678	48	281	180	10	1	2
22.995	16.9525	20.6451	17.7917	9.7351	9.5673	9.3994	7.3853	6.3782	7.2174	2.182	3.5248	5.3711	-0.3357	3.0212	4.5319	5.7068	0.1678	48	282	181	10	1	2
23.1628	17.2882	20.9808	18.4631	10.0708	10.0708	9.903	7.5531	6.8817	7.7209	2.182	3.8605	5.7068	-0.3357	3.0212	4.6997	5.8746	0.1678	48	283	182	10	1	2
23.1628	17.2882	20.9808	19.1345	10.0708	10.2386	10.4065	7.5531	7.2174	8.0566	2.0142	4.1962	5.8746	-0.5035	3.0212	4.6997	5.8746	0	48	284	183	10	1	2
23.3307	17.4561	21.3165	19.9738	10.4065	10.7422	11.0779	7.7209	7.7209	8.3923	2.182	4.5319	6.0425	-0.5035	3.3569	5.0354	6.0425	0	48	285	184	10	1	2
22.995	17.6239	21.3165	20.3094	10.5743	11.0779	11.5814	7.8888	8.2245	8.8959	2.182	5.0354	6.3782	-0.5035	3.5248	5.2032	6.2103	0	48	286	185	10	1	2
23.1628	17.6239	21.3165	20.6451	10.7422	11.2457	12.085	7.8888	8.5602	9.0637	2.0142	5.2032	6.546	-0.6714	3.6926	5.5389	6.3782	-0.1678	48	287	186	10	1	2
22.6593	17.4561	21.3165	20.6451	10.7422	11.4136	12.085	7.7209	8.728	9.2316	1.8463	5.3711	6.7139	-0.8392	3.8605	5.5389	6.546	-0.1678	48	288	187	10	1	2
22.4915	17.2882	21.1487	20.4773	10.7422	11.5814	12.2528	7.5531	8.728	9.2316	1.8463	5.5389	6.7139	-1.0071	4.0283	5.5389	6.546	-0.3357	48	289	188	10	1	2
21.9879	17.1204	20.813	19.9738	10.5743	11.5814	12.085	7.5531	8.8959	9.3994	1.8463	5.7068	7.0496	-1.1749	4.1962	5.7068	6.7139	-0.1678	48	290	189	10	1	2
21.8201	17.1204	20.813	19.4702	10.7422	11.7493	12.085	7.7209	9.3994	9.5673	2.0142	6.0425	7.3853	-1.1749	4.5319	6.0425	7.0496	0	48	291	190	10	1	2
9.5673	6.7139	13.7634	18.631	9.903	18.7988	18.9667	9.903	21.3165	19.8059	7.0496	21.3165	19.8059	3.0212	15.4419	3.8605	15.9454	1.3428	48	231	130	11	1	2
9.5673	6.7139	13.9313	18.2953	9.7351	18.9667	18.9667	9.903	21.4844	20.3094	7.2174	21.3165	20.6451	3.0212	16.1133	3.8605	16.449	1.3428	48	232	131	11	1	2
9.5673	6.546	13.9313	17.9596	9.7351	19.1345	18.7988	9.903	21.6522	20.6451	7.0496	21.6522	21.3165	3.0212	16.6168	3.5248	16.9525	1.1749	48	233	132	11	1	2
9.3994	6.3782	13.9313	17.4561	9.7351	19.1345	18.631	9.7351	21.6522	20.813	7.0496	21.8201	22.1558	3.0212	17.2882	3.3569	17.2882	0.8392	48	234	133	11	1	2
9.0637	6.2103	13.7634	16.7847	9.5673	19.1345	18.2953	9.5673	21.6522	20.9808	6.7139	21.8201	22.6593	3.0212	17.7917	3.0212	17.6239	0.6714	48	235	134	11	1	2
8.8959	6.0425	13.7634	15.9454	9.3994	18.9667	17.9596	9.3994	21.6522	21.1487	6.546	21.8201	23.3307	3.0212	18.2953	2.8534	17.9596	0.3357	48	236	135	11	1	2
8.728	5.8746	13.5956	15.4419	9.3994	19.1345	17.6239	9.2316	21.6522	21.3165	6.2103	21.8201	23.8342	3.1891	18.9667	2.3499	18.2953	0.1678	48	237	136	11	1	2
8.5602	5.5389	13.2599	14.6027	9.2316	18.9667	17.1204	9.0637	21.4844	21.3165	5.8746	21.6522	24.1699	3.1891	19.4702	2.0142	18.2953	-0.1678	48	238	137	11	1	2
8.0566	5.2032	13.2599	13.9313	8.8959	18.631	16.6168	8.728	21.3165	21.1487	5.7068	21.6522	24.5056	3.1891	19.6381	1.5106	18.4631	-0.5035	48	239	138	11	1	2
7.8888	5.0354	12.9242	13.092	8.728	18.631	16.1133	8.3923	20.9808	20.813	5.5389	21.3165	24.6735	3.1891	20.1416	1.5106	18.4631	-0.6714	48	240	139	11	1	2
7.7209	4.8676	12.5885	12.4207	8.5602	18.4631	15.6097	8.2245	20.813	20.6451	5.2032	20.9808	24.6735	3.1891	20.3094	1.0071	18.4631	-0.8392	48	241	140	11	1	2
7.7209	4.6997	12.4207	11.9171	8.3923	18.2953	15.1062	8.0566	20.6451	20.3094	5.0354	20.6451	24.6735	3.1891	20.4773	0.6714	18.2953	-1.1749	48	242	141	11	1	2
7.7209	4.6997	12.4207	11.4136	8.3923	18.1274	14.6027	7.8888	20.4773	19.9738	4.8676	20.4773	24.6735	3.3569	20.6451	0.6714	18.2953	-1.1749	48	243	142	11	1	2
7.7209	4.8676	12.2528	10.91	8.2245	18.1274	13.9313	7.7209	20.3094	19.4702	4.6997	19.9738	24.5056	3.3569	20.6451	0.1678	18.1274	-1.3428	48	244	143	11	1	2
8.0566	5.2032	12.4207	10.7422	8.3923	18.1274	13.5956	7.5531	19.9738	19.1345	4.5319	19.8059	24.5056	3.5248	20.6451	0	18.1274	-1.5106	48	245	144	11	1	2
8.2245	5.2032	12.2528	10.4065	8.5602	17.9596	12.9242	7.3853	19.6381	18.4631	4.364	19.1345	24.0021	3.5248	20.4773	-0.1678	17.6239	-1.6785	48	246	145	11	1	2
8.3923	5.3711	12.085	10.0708	8.5602	17.6239	12.4207	7.2174	19.1345	17.7917	4.1962	18.631	23.4985	3.5248	20.1416	-0.3357	17.2882	-1.6785	48	247	146	11	1	2
8.5602	5.5389	12.085	9.903	8.728	17.4561	11.7493	7.2174	18.631	16.9525	4.364	17.7917	22.995	3.5248	19.9738	-0.3357	16.7847	-1.6785	48	248	147	11	1	2
8.8959	5.8746	11.9171	9.7351	8.728	17.1204	11.0779	7.0496	18.1274	16.1133	4.0283	17.2882	22.1558	3.5248	19.4702	-0.6714	16.1133	-1.8463	48	249	148	11	1	2
8.728	5.8746	11.9171	9.3994	8.5602	16.6168	10.2386	7.0496	17.4561	14.9384	3.8605	16.2811	21.1487	3.3569	18.631	-0.6714	15.4419	-2.0142	48	250	149	11	1	2
8.8959	6.2103	11.5814	9.2316	8.5602	16.2811	9.5673	6.7139	16.7847	13.9313	3.8605	15.6097	20.3094	3.3569	18.1274	-0.6714	14.7705	-2.0142	48	251	150	11	1	2
9.0637	6.546	11.4136	9.0637	8.728	15.7776	8.8959	6.546	16.1133	12.9242	3.6926	14.7705	19.3024	3.3569	17.2882	-1.0071	14.0991	-2.182	48	252	151	11	1	2
9.0637	6.7139	11.2457	8.728	8.5602	15.274	8.0566	6.546	15.4419	11.7493	3.5248	13.7634	18.1274	3.1891	16.2811	-1.0071	13.2599	-2.182	48	253	152	11	1	2
9.2316	6.8817	11.0779	8.3923	8.5602	14.9384	7.3853	6.3782	14.7705	10.5743	3.5248	13.092	17.1204	3.1891	15.6097	-1.0071	12.5885	-2.182	48	254	153	11	1	2
9.2316	7.0496	10.91	8.2245	8.728	14.6027	6.3782	6.2103	13.9313	9.2316	3.3569	12.2528	15.9454	3.0212	14.6027	-1.1749	11.5814	-2.0142	48	255	154	11	1	2
9.3994	7.2174	10.91	8.0566	8.728	14.4348	5.7068	6.2103	13.5956	8.3923	3.3569	11.5814	15.1062	3.0212	13.7634	-1.1749	11.0779	-1.8463	48	256	155	11	1	2
9.2316	7.0496	10.7422	7.7209	8.5602	13.9313	5.0354	6.3782	12.9242	7.2174	3.5248	10.7422	13.7634	2.8534	12.7563	-0.8392	10.0708	-1.6785	48	257	156	11	1	2
9.5673	7.2174	10.7422	7.7209	8.728	13.7634	4.5319	6.2103	12.5885	6.3782	3.6926	10.4065	12.9242	2.8534	11.9171	-1.0071	9.2316	-1.5106	48	258	157	11	1	2
9.5673	7.2174	10.7422	7.5531	8.728	13.7634	3.6926	6.2103	12.2528	5.3711	3.6926	9.7351	11.9171	2.6855	10.7422	-1.0071	8.3923	-1.1749	48	259	158	11	1	2
9.5673	7.2174	10.5743	7.3853	8.728	13.4277	3.1891	6.3782	11.9171	4.5319	4.0283	9.2316	10.91	2.5177	9.7351	-0.5035	7.5531	-0.6714	48	260	159	11	1	2
9.7351	7.2174	10.7422	7.7209	8.8959	13.5956	2.6855	6.546	11.7493	3.6926	4.1962	8.8959	10.0708	2.5177	8.8959	-0.5035	6.7139	-0.3357	48	261	160	11	1	2
9.7351	7.0496	10.91	7.8888	8.8959	13.4277	2.5177	6.7139	11.5814	3.1891	4.5319	8.728	9.2316	2.3499	7.8888	-0.3357	5.8746	0.1678	48	262	161	11	1	2
9.5673	6.8817	10.91	8.0566	8.728	13.2599	2.182	6.7139	11.2457	2.3499	4.6997	8.3923	8.5602	2.182	6.8817	-0.1678	5.0354	0.3357	48	263	162	11	1	2
9.5673	6.7139	11.0779	8.3923	8.8959	13.5956	1.6785	6.8817	11.4136	1.8463	4.8676	8.0566	7.7209	2.182	6.2103	0	4.1962	0.6714	48	264	163	11	1	2
9.2316	6.3782	11.0779	8.3923	8.728	13.4277	1.5106	6.7139	11.2457	1.1749	5.0354	8.0566	7.2174	2.0142	5.3711	0	3.5248	1.0071	48	265	164	11	1	2
8.8959	5.8746	10.7422	8.3923	8.5602	13.4277	1.1749	6.8817	11.2457	0.8392	5.2032	7.7209	6.3782	1.8463	4.364	0.1678	2.5177	1.1749	48	266	165	11	1	2
8.3923	5.3711	10.7422	8.0566	8.5602	13.2599	0.6714	6.8817	11.2457	0.3357	5.3711	7.7209	5.8746	1.6785	3.5248	0.1678	1.8463	1.5106	48	267	166	11	1	2
7.5531	4.6997	10.2386	7.3853	8.2245	12.9242	0.1678	6.7139	10.91	-0.3357	5.3711	7.5531	4.8676	1.3428	2.5177	0.1678	1.0071	1.6785	48	268	167	11	1	2
6.8817	4.1962	9.903	6.7139	7.8888	12.5885	-0.3357	6.7139	10.7422	-0.8392	5.7068	7.5531	4.5319	1.1749	1.8463	0.1678	0.5035	1.8463	48	269	168	11	1	2
6.3782	3.6926	9.7351	5.7068	7.7209	12.4207	-1.0071	6.546	10.7422	-1.3428	5.7068	7.3853	3.8605	1.0071	1.1749	0	-0.1678	2.0142	48	270	169	11	1	2
5.5389	3.1891	9.2316	4.6997	7.5531	12.2528	-1.8463	6.546	10.5743	-1.8463	5.7068	7.2174	3.1891	0.8392	0.5035	0.1678	-0.6714	2.182	48	271	170	11	1	2
5.0354	2.8534	8.8959	3.5248	7.5531	12.2528	-2.5177	6.546	10.5743	-2.0142	5.8746	7.2174	2.8534	0.8392	0	0.1678	-1.1749	2.182	48	272	171	11	1	2
4.5319	2.5177	8.5602	2.3499	7.3853	11.9171	-3.1891	6.546	10.4065	-2.6855	5.8746	7.2174	2.182	0.6714	-0.6714	0	-1.6785	2.3499	48	273	172	11	1	2
4.0283	2.0142	8.2245	0.8392	7.3853	11.7493	-4.0283	6.3782	10.2386	-3.1891	5.8746	7.2174	1.6785	0.6714	-1.1749	0	-2.182	2.3499	48	274	173	11	1	2
3.5248	1.8463	7.8888	-0.1678	7.2174	11.4136	-4.6997	6.546	10.0708	-3.6926	6.0425	7.0496	1.3428	0.5035	-1.6785	0.1678	-2.5177	2.3499	48	275	174	11	1	2
3.0212	1.6785	7.5531	-1.5106	7.3853	11.2457	-5.7068	6.3782	10.0708	-4.1962	5.7068	6.8817	0.6714	0.5035	-2.182	0	-3.0212	2.3499	48	276	175	11	1	2
2.8534	1.5106	7.2174	-2.8534	7.2174	10.91	-6.2103	6.3782	9.7351	-4.6997	6.0425	6.8817	0.3357	0.3357	-2.6855	0.3357	-3.3569	2.5177	48	277	176	11	1	2
2.6855	1.5106	6.7139	-4.0283	7.3853	10.5743	-6.8817	6.3782	9.3994	-5.0354	5.8746	6.8817	-0.3357	0.3357	-3.0212	0.3357	-3.6926	2.6855	48	278	177	11	1	2
2.3499	1.3428	6.546	-5.2032	7.3853	10.4065	-7.7209	6.2103	9.0637	-5.7068	5.5389	6.546	-1.0071	0.3357	-3.6926	0.3357	-4.1962	2.5177	48	279	178	11	1	2
2.3499	1.3428	6.2103	-6.2103	7.2174	9.903	-8.5602	6.0425	8.728	-6.2103	5.5389	6.3782	-1.5106	0.1678	-4.0283	0.5035	-4.5319	2.5177	48	280	179	11	1	2
1.8463	1.3428	5.5389	-7.2174	7.0496	9.2316	-9.2316	5.8746	8.0566	-7.0496	5.2032	5.8746	-2.3499	0	-4.6997	0.5035	-5.0354	2.5177	48	281	180	11	1	2
1.8463	1.0071	5.2032	-8.2245	6.7139	8.728	-10.0708	5.5389	7.5531	-7.7209	4.8676	5.3711	-3.1891	0	-5.0354	0.1678	-5.7068	2.182	48	282	181	11	1	2
1.5106	1.0071	4.6997	-9.2316	6.3782	8.0566	-10.7422	5.2032	6.8817	-8.3923	4.364	4.8676	-4.0283	-0.1678	-5.7068	0.1678	-6.2103	2.182	48	283	182	11	1	2
1.1749	0.8392	4.1962	-9.903	5.8746	7.3853	-11.4136	4.8676	6.2103	-8.8959	3.8605	4.364	-4.8676	-0.3357	-6.3782	0.1678	-6.8817	1.8463	48	284	183	11	1	2
0.8392	0.5035	3.3569	-10.4065	5.5389	6.546	-11.9171	4.5319	5.5389	-9.5673	3.5248	3.8605	-5.7068	-0.6714	-6.8817	0	-7.3853	1.6785	48	285	184	11	1	2
0.6714	0.3357	2.6855	-11.0779	5.0354	5.8746	-12.5885	4.0283	4.8676	-10.0708	2.8534	3.1891	-6.546	-0.8392	-7.3853	0	-8.0566	1.5106	48	286	185	11	1	2
0.1678	0	2.0142	-11.5814	4.364	4.8676	-13.2599	3.5248	4.0283	-11.0779	2.3499	2.3499	-7.5531	-1.0071	-8.0566	-0.5035	-8.728	1.1749	48	287	186	11	1	2
-0.1678	-0.1678	1.5106	-11.9171	3.6926	4.0283	-13.5956	2.8534	3.1891	-11.5814	1.8463	1.8463	-8.2245	-1.3428	-8.728	-0.6714	-9.3994	0.8392	48	288	187	11	1	2
-0.5035	-0.6714	0.8392	-12.085	3.0212	3.1891	-13.9313	2.182	2.3499	-12.085	1.1749	1.0071	-9.2316	-1.5106	-9.2316	-0.8392	-10.2386	0.6714	48	289	188	11	1	2
-1.0071	-1.1749	0	-12.2528	2.182	2.3499	-14.4348	1.6785	1.6785	-12.5885	0.5035	0.3357	-9.903	-1.6785	-9.903	-1.3428	-10.91	0.1678	48	290	189	11	1	2
-1.5106	-1.8463	-0.8392	-12.4207	1.3428	1.5106	-14.6027	0.8392	0.6714	-13.092	-0.3357	-0.6714	-10.91	-1.8463	-10.7422	-1.6785	-11.5814	-0.3357	48	291	190	11	1	2
-5.0354	-2.5177	-5.7068	-8.0566	-3.5248	-6.0425	-12.4207	-4.5319	-8.728	-11.0779	-12.4207	-10.5743	-6.3782	3.0212	-2.6855	-13.7634	-8.5602	-14.0991	48	231	130	12	1	2
-5.7068	-3.1891	-6.0425	-8.3923	-3.6926	-5.8746	-12.5885	-4.364	-8.3923	-11.2457	-11.9171	-9.903	-6.0425	3.0212	-2.182	-14.0991	-8.3923	-13.9313	48	232	131	12	1	2
-6.0425	-3.8605	-6.3782	-8.8959	-4.0283	-6.0425	-12.9242	-4.0283	-7.8888	-11.2457	-11.4136	-9.3994	-5.5389	3.0212	-1.5106	-14.0991	-8.3923	-13.5956	48	233	132	12	1	2
-6.546	-4.1962	-6.3782	-9.2316	-4.1962	-5.8746	-13.2599	-3.8605	-7.5531	-11.2457	-10.91	-8.5602	-5.0354	3.1891	-0.8392	-14.267	-7.8888	-13.2599	48	234	133	12	1	2
-7.0496	-4.6997	-6.546	-9.7351	-4.5319	-5.7068	-13.4277	-3.5248	-7.0496	-11.2457	-10.4065	-7.8888	-4.6997	3.1891	-0.3357	-14.4348	-7.7209	-12.9242	48	235	134	12	1	2
-7.5531	-5.3711	-6.7139	-10.0708	-4.6997	-5.5389	-13.5956	-3.3569	-6.546	-11.2457	-9.903	-7.2174	-4.364	3.1891	0.3357	-14.6027	-7.8888	-12.5885	48	236	135	12	1	2
-7.8888	-5.7068	-6.3782	-10.2386	-4.6997	-4.8676	-13.4277	-2.8534	-5.8746	-10.91	-9.3994	-6.546	-4.0283	3.1891	0.8392	-14.6027	-7.7209	-12.085	48	237	136	12	1	2
-8.0566	-6.0425	-6.2103	-10.5743	-5.0354	-4.6997	-13.5956	-2.8534	-5.3711	-10.91	-9.0637	-5.8746	-3.6926	3.3569	1.3428	-14.6027	-7.3853	-11.7493	48	238	137	12	1	2
-8.5602	-6.546	-6.2103	-10.7422	-5.0354	-4.1962	-13.5956	-2.5177	-4.8676	-10.7422	-8.5602	-5.2032	-3.3569	3.3569	1.8463	-14.4348	-7.0496	-11.4136	48	239	138	12	1	2
-8.5602	-6.8817	-5.8746	-10.7422	-5.2032	-3.5248	-13.2599	-2.182	-3.8605	-10.2386	-7.8888	-4.364	-2.8534	3.3569	2.182	-14.0991	-6.8817	-10.91	48	240	139	12	1	2
-8.728	-7.2174	-5.7068	-10.91	-5.2032	-2.8534	-12.9242	-2.0142	-3.3569	-10.0708	-7.7209	-3.8605	-2.6855	3.5248	2.8534	-14.0991	-6.7139	-10.5743	48	241	140	12	1	2
-8.728	-7.3853	-5.2032	-10.5743	-5.2032	-2.0142	-12.5885	-1.5106	-2.3499	-9.3994	-7.0496	-3.0212	-2.182	3.5248	3.0212	-13.7634	-6.3782	-10.0708	48	242	141	12	1	2
-8.728	-7.7209	-4.6997	-10.4065	-5.2032	-1.3428	-11.9171	-1.3428	-1.6785	-9.0637	-6.7139	-2.182	-1.6785	3.5248	3.3569	-13.5956	-6.0425	-9.5673	48	243	142	12	1	2
-8.728	-7.8888	-4.1962	-10.0708	-5.3711	-0.5035	-11.4136	-1.3428	-1.1749	-8.5602	-6.3782	-1.6785	-1.5106	3.5248	3.6926	-13.4277	-5.8746	-9.2316	48	244	143	12	1	2
-8.5602	-8.0566	-3.6926	-9.7351	-5.2032	0.1678	-10.5743	-1.0071	-0.3357	-8.0566	-6.0425	-1.0071	-1.1749	3.5248	4.0283	-13.2599	-5.5389	-8.8959	48	245	144	12	1	2
-8.5602	-8.2245	-3.1891	-9.0637	-5.2032	1.1749	-9.903	-0.8392	0.5035	-7.3853	-5.7068	-0.5035	-0.6714	3.5248	4.1962	-13.092	-5.2032	-8.5602	48	246	145	12	1	2
-8.5602	-8.3923	-2.6855	-8.5602	-5.2032	1.8463	-9.0637	-0.6714	1.3428	-6.7139	-5.7068	0	-0.5035	3.5248	4.364	-12.7563	-4.8676	-8.2245	48	247	146	12	1	2
-8.3923	-8.5602	-2.182	-7.8888	-5.0354	2.5177	-8.2245	-0.6714	1.8463	-6.0425	-5.3711	0.5035	-0.1678	3.5248	4.6997	-12.5885	-4.5319	-7.8888	48	248	147	12	1	2
-8.3923	-8.728	-2.0142	-7.5531	-5.0354	3.0212	-7.5531	-0.6714	2.3499	-5.5389	-5.3711	0.8392	0	3.5248	5.0354	-12.5885	-4.1962	-7.7209	48	249	148	12	1	2
-8.3923	-8.8959	-1.5106	-7.0496	-5.0354	3.6926	-6.8817	-0.5035	3.0212	-5.0354	-5.2032	1.1749	0.1678	3.3569	5.0354	-12.4207	-3.8605	-7.5531	48	250	149	12	1	2
-8.3923	-8.8959	-1.3428	-6.8817	-4.8676	4.364	-6.0425	-0.5035	3.5248	-4.364	-5.0354	1.6785	0.5035	3.3569	5.3711	-12.085	-3.5248	-7.2174	48	251	150	12	1	2
-8.3923	-9.2316	-1.1749	-6.546	-4.8676	4.6997	-5.3711	-0.5035	4.0283	-3.8605	-5.0354	2.0142	0.8392	3.3569	5.7068	-12.2528	-3.0212	-7.2174	48	252	151	12	1	2
-8.3923	-9.2316	-1.0071	-6.546	-4.6997	5.2032	-4.6997	-0.1678	4.6997	-3.3569	-4.8676	2.3499	1.0071	3.1891	5.7068	-11.9171	-2.8534	-6.8817	48	253	152	12	1	2
-8.3923	-9.0637	-0.8392	-6.546	-4.364	5.7068	-3.8605	0	5.2032	-2.6855	-4.6997	2.8534	1.3428	3.1891	6.0425	-11.5814	-2.3499	-6.546	48	254	153	12	1	2
-8.3923	-9.0637	-0.8392	-6.546	-4.1962	6.0425	-3.3569	0.1678	5.5389	-2.0142	-4.5319	3.3569	1.6785	3.1891	6.3782	-11.4136	-1.8463	-6.546	48	255	154	12	1	2
-8.3923	-8.8959	-0.8392	-6.546	-3.6926	6.2103	-2.5177	0.5035	6.3782	-1.3428	-4.1962	3.8605	2.0142	3.1891	6.7139	-10.91	-1.6785	-6.2103	48	256	155	12	1	2
-8.3923	-8.5602	-0.8392	-6.7139	-3.3569	6.546	-2.0142	1.0071	6.7139	-0.8392	-3.8605	4.1962	2.182	3.0212	6.8817	-10.4065	-1.3428	-5.8746	48	257	156	12	1	2
-8.2245	-8.2245	-0.6714	-6.7139	-2.6855	6.8817	-1.3428	1.5106	7.2174	-0.1678	-3.5248	4.6997	2.5177	3.0212	7.2174	-9.903	-0.8392	-5.5389	48	258	157	12	1	2
-8.2245	-8.0566	-0.8392	-6.7139	-2.3499	7.0496	-0.8392	1.8463	7.7209	0.3357	-3.3569	5.2032	2.8534	3.0212	7.5531	-9.3994	-0.5035	-5.3711	48	259	158	12	1	2
-8.3923	-7.5531	-0.8392	-7.0496	-1.6785	7.3853	-0.3357	2.3499	8.0566	0.8392	-3.0212	5.3711	3.0212	2.8534	7.5531	-8.728	-0.3357	-5.0354	48	260	159	12	1	2
-8.3923	-7.3853	-1.0071	-7.0496	-1.1749	7.5531	0.1678	2.6855	8.5602	1.3428	-2.6855	5.8746	3.1891	2.8534	7.8888	-8.3923	0	-5.0354	48	261	160	12	1	2
-8.3923	-6.8817	-1.1749	-7.3853	-0.6714	7.5531	0.6714	3.1891	8.728	1.6785	-2.3499	6.0425	3.1891	2.6855	7.7209	-7.7209	0	-4.6997	48	262	161	12	1	2
-8.5602	-6.546	-1.3428	-7.5531	-0.1678	7.5531	0.8392	3.6926	8.8959	1.8463	-2.182	6.2103	3.1891	2.5177	7.7209	-7.2174	0	-4.6997	48	263	162	12	1	2
-8.5602	-6.2103	-1.6785	-7.8888	0.3357	7.3853	1.1749	3.8605	9.0637	2.0142	-2.182	6.2103	3.0212	2.3499	7.3853	-6.8817	0	-4.6997	48	264	163	12	1	2
-8.8959	-5.8746	-2.0142	-8.2245	0.6714	7.2174	1.3428	4.1962	8.8959	2.182	-2.182	6.2103	2.8534	2.182	7.2174	-6.546	-0.1678	-4.8676	48	265	164	12	1	2
-9.3994	-5.8746	-2.6855	-8.5602	0.6714	6.7139	1.3428	4.364	8.8959	2.182	-2.3499	6.0425	2.6855	2.0142	6.7139	-6.546	-0.3357	-5.2032	48	266	165	12	1	2
-9.7351	-5.5389	-2.8534	-8.8959	1.0071	6.546	1.3428	4.364	8.728	2.0142	-2.5177	5.8746	2.3499	1.8463	6.3782	-6.3782	-0.5035	-5.5389	48	267	166	12	1	2
-9.903	-5.3711	-3.3569	-9.2316	1.1749	6.2103	1.1749	4.364	8.3923	1.8463	-2.6855	5.5389	1.8463	1.5106	5.7068	-6.2103	-1.0071	-5.7068	48	268	167	12	1	2
-10.0708	-5.2032	-3.6926	-9.3994	1.3428	5.8746	1.1749	4.364	8.0566	1.6785	-2.6855	5.3711	1.5106	1.3428	5.2032	-6.0425	-1.1749	-6.0425	48	269	168	12	1	2
-10.2386	-4.8676	-3.8605	-9.3994	1.6785	5.5389	1.1749	4.5319	7.8888	1.5106	-2.8534	5.2032	1.1749	1.1749	4.6997	-5.8746	-1.6785	-6.2103	48	270	169	12	1	2
-10.4065	-4.8676	-4.364	-9.5673	1.6785	5.0354	1.0071	4.5319	7.7209	1.3428	-3.1891	5.0354	0.8392	1.0071	4.1962	-5.8746	-2.182	-6.7139	48	271	170	12	1	2
-10.5743	-4.5319	-4.364	-9.5673	1.8463	4.8676	1.0071	4.6997	7.5531	1.1749	-3.3569	4.8676	0.5035	0.8392	3.6926	-5.7068	-2.5177	-6.8817	48	272	171	12	1	2
-10.4065	-4.364	-4.364	-9.2316	2.0142	4.6997	1.0071	4.8676	7.5531	1.0071	-3.3569	4.6997	0.1678	0.6714	3.1891	-5.5389	-3.0212	-7.2174	48	273	172	12	1	2
-10.0708	-3.6926	-4.0283	-8.8959	2.3499	4.8676	0.8392	4.6997	7.3853	0.8392	-3.1891	4.5319	0	0.5035	2.8534	-5.2032	-3.5248	-7.2174	48	274	173	12	1	2
-9.903	-3.5248	-3.8605	-8.5602	2.6855	4.8676	1.0071	4.8676	7.3853	0.8392	-3.3569	4.6997	0	0.3357	2.3499	-5.0354	-3.8605	-7.3853	48	275	174	12	1	2
-9.2316	-3.0212	-3.3569	-7.8888	2.8534	4.8676	1.1749	5.0354	7.5531	0.8392	-3.3569	4.8676	-0.1678	0.1678	2.0142	-4.8676	-4.364	-7.3853	48	276	175	12	1	2
-8.728	-2.3499	-2.8534	-6.8817	3.0212	5.2032	1.3428	5.2032	7.7209	0.6714	-3.1891	4.8676	-0.3357	-0.1678	1.5106	-4.5319	-4.8676	-7.2174	48	277	176	12	1	2
-8.0566	-1.8463	-2.0142	-6.0425	3.3569	5.7068	1.6785	5.3711	8.0566	0.6714	-3.1891	5.2032	-0.3357	-0.3357	1.1749	-4.0283	-5.0354	-7.0496	48	278	177	12	1	2
-7.2174	-1.3428	-1.3428	-4.8676	3.6926	5.8746	2.0142	5.8746	8.5602	0.8392	-3.0212	5.5389	0	-0.5035	0.8392	-3.6926	-5.3711	-7.0496	48	279	178	12	1	2
-6.3782	-0.8392	-0.5035	-3.8605	4.0283	6.546	2.5177	6.0425	8.8959	1.0071	-2.6855	6.0425	0.1678	-0.6714	0.8392	-3.0212	-5.7068	-6.8817	48	280	179	12	1	2
-5.3711	-0.3357	0.3357	-2.8534	4.1962	7.2174	2.6855	6.2103	9.2316	1.0071	-2.3499	6.3782	0.3357	-1.0071	0.5035	-2.6855	-5.8746	-6.3782	48	281	180	12	1	2
-4.5319	0.1678	1.1749	-2.182	4.5319	7.8888	2.8534	6.546	9.903	1.3428	-2.0142	6.8817	0.5035	-1.1749	0.3357	-2.182	-6.2103	-6.0425	48	282	181	12	1	2
-4.0283	0.6714	2.0142	-1.6785	4.6997	8.3923	2.8534	6.546	10.2386	1.1749	-1.8463	7.3853	0.6714	-1.5106	0	-1.8463	-6.3782	-5.7068	48	283	182	12	1	2
-3.1891	0.8392	2.5177	-1.3428	4.8676	9.0637	3.0212	6.8817	10.91	1.3428	-1.6785	7.8888	0.8392	-1.8463	-0.1678	-1.3428	-6.7139	-5.3711	48	284	183	12	1	2
-2.6855	1.1749	3.3569	-1.3428	4.8676	9.3994	3.0212	7.0496	11.4136	1.1749	-1.3428	8.3923	1.0071	-2.0142	-0.6714	-1.0071	-6.8817	-5.0354	48	285	184	12	1	2
-2.182	1.1749	3.8605	-1.3428	4.6997	9.903	2.6855	6.8817	11.7493	1.0071	-1.1749	8.728	0.8392	-2.3499	-1.0071	-0.8392	-7.3853	-4.5319	48	286	185	12	1	2
-1.6785	1.1749	4.1962	-1.3428	4.8676	10.5743	2.6855	7.0496	12.2528	1.0071	-1.0071	9.2316	1.1749	-2.6855	-1.3428	-0.5035	-7.7209	-4.364	48	287	186	12	1	2
-1.3428	1.0071	4.5319	-1.6785	4.6997	10.91	2.182	7.0496	12.7563	0.8392	-0.6714	9.5673	1.0071	-2.8534	-1.8463	-0.3357	-8.0566	-3.8605	48	288	187	12	1	2
-1.0071	1.0071	4.6997	-2.182	4.5319	11.4136	1.8463	7.0496	13.092	0.6714	-0.6714	9.903	1.0071	-3.1891	-2.182	0	-8.3923	-3.5248	48	289	188	12	1	2
-1.1749	0.5035	4.8676	-3.0212	4.1962	11.4136	1.1749	6.7139	13.2599	0.1678	-0.5035	10.0708	0.6714	-3.3569	-2.8534	-0.1678	-9.0637	-3.1891	48	290	189	12	1	2
-1.1749	0.1678	4.8676	-3.6926	3.8605	11.7493	0.6714	6.7139	13.4277	-0.1678	-0.3357	10.2386	0.5035	-3.5248	-3.5248	-0.1678	-9.5673	-3.0212	48	291	190	12	1	2
-3.5248	-7.0496	-2.6855	-6.546	-8.8959	-5.5389	-7.7209	-8.0566	-3.8605	-4.5319	-1.3428	1.0071	1.1749	-1.5106	-0.6714	-4.5319	-2.8534	-0.3357	48	231	130	13	1	2
-3.5248	-7.0496	-2.6855	-6.546	-8.728	-5.3711	-7.8888	-7.8888	-3.8605	-4.6997	-1.3428	1.0071	0.8392	-1.5106	-0.5035	-4.5319	-2.5177	-0.1678	48	232	131	13	1	2
-3.8605	-7.0496	-2.8534	-6.8817	-8.8959	-5.3711	-8.2245	-7.7209	-4.0283	-5.0354	-1.3428	0.8392	0.5035	-1.5106	-0.5035	-4.5319	-2.5177	-0.3357	48	233	132	13	1	2
-4.1962	-7.2174	-3.1891	-7.3853	-9.0637	-5.5389	-8.5602	-7.8888	-4.1962	-5.5389	-1.5106	0.6714	0	-1.3428	-0.5035	-4.5319	-2.5177	-0.5035	48	234	133	13	1	2
-4.6997	-7.5531	-3.3569	-7.8888	-9.2316	-5.8746	-9.0637	-7.8888	-4.364	-5.8746	-1.6785	0.5035	-0.5035	-1.3428	-0.5035	-4.5319	-2.3499	-0.6714	48	235	134	13	1	2
-5.2032	-7.7209	-3.6926	-8.0566	-9.3994	-6.0425	-9.3994	-7.8888	-4.5319	-6.2103	-1.6785	0.3357	-0.8392	-1.3428	-0.3357	-4.364	-2.0142	-0.6714	48	236	135	13	1	2
-5.7068	-8.2245	-4.1962	-8.728	-9.5673	-6.3782	-10.0708	-8.0566	-4.8676	-6.7139	-1.8463	0.1678	-1.3428	-1.1749	-0.5035	-4.364	-2.0142	-0.8392	48	237	136	13	1	2
-6.3782	-8.728	-4.6997	-9.2316	-9.903	-6.8817	-10.5743	-8.0566	-5.2032	-7.2174	-2.0142	-0.1678	-1.8463	-1.1749	-0.3357	-4.364	-2.0142	-1.0071	48	238	137	13	1	2
-6.8817	-9.0637	-5.2032	-9.7351	-10.0708	-7.0496	-10.91	-8.0566	-5.3711	-7.5531	-2.0142	-0.1678	-2.0142	-1.1749	-0.1678	-4.0283	-1.8463	-1.0071	48	239	138	13	1	2
-7.5531	-9.5673	-5.7068	-10.2386	-10.2386	-7.3853	-11.4136	-8.0566	-5.7068	-7.7209	-2.182	-0.3357	-2.3499	-1.1749	-0.1678	-4.0283	-1.6785	-1.0071	48	240	139	13	1	2
-8.2245	-9.903	-6.2103	-10.91	-10.4065	-7.7209	-11.9171	-8.0566	-5.8746	-8.0566	-2.182	-0.3357	-2.5177	-1.0071	0	-3.8605	-1.6785	-1.1749	48	241	140	13	1	2
-8.728	-10.4065	-6.546	-11.0779	-10.5743	-7.8888	-12.2528	-8.0566	-6.0425	-8.3923	-2.182	-0.3357	-2.5177	-1.0071	0.1678	-3.5248	-1.5106	-1.0071	48	242	141	13	1	2
-9.3994	-11.0779	-7.0496	-11.5814	-10.7422	-8.0566	-12.5885	-8.0566	-6.0425	-8.5602	-2.3499	-0.5035	-2.5177	-1.0071	0.3357	-3.3569	-1.3428	-1.0071	48	243	142	13	1	2
-9.903	-11.4136	-7.3853	-11.7493	-10.7422	-8.3923	-12.7563	-7.8888	-6.2103	-8.728	-2.3499	-0.5035	-2.5177	-1.0071	0.5035	-3.0212	-1.3428	-1.0071	48	244	143	13	1	2
-10.2386	-11.7493	-7.5531	-11.7493	-11.0779	-8.5602	-12.9242	-7.8888	-6.3782	-8.728	-2.5177	-0.5035	-2.5177	-1.0071	0.8392	-2.8534	-1.0071	-1.0071	48	245	144	13	1	2
-10.7422	-12.2528	-7.8888	-11.5814	-11.0779	-8.728	-12.9242	-7.7209	-6.2103	-8.728	-2.5177	-0.5035	-2.5177	-1.1749	1.0071	-2.5177	-0.8392	-1.0071	48	246	145	13	1	2
-11.0779	-12.7563	-8.0566	-11.4136	-11.4136	-8.728	-12.7563	-7.8888	-6.2103	-8.8959	-2.6855	-0.3357	-2.0142	-1.1749	1.1749	-2.3499	-0.8392	-1.0071	48	247	146	13	1	2
-11.5814	-13.2599	-8.3923	-11.0779	-11.5814	-8.8959	-12.7563	-8.0566	-6.3782	-8.728	-3.0212	-0.5035	-2.0142	-1.3428	1.1749	-2.3499	-0.8392	-1.1749	48	248	147	13	1	2
-12.2528	-13.9313	-8.5602	-10.7422	-12.085	-9.0637	-12.9242	-8.2245	-6.3782	-8.8959	-3.3569	-0.6714	-1.8463	-1.3428	1.1749	-2.182	-0.8392	-1.3428	48	249	148	13	1	2
-12.5885	-14.267	-8.8959	-10.4065	-12.4207	-9.2316	-12.7563	-8.3923	-6.546	-8.8959	-3.6926	-0.5035	-1.6785	-1.5106	1.1749	-2.3499	-1.0071	-1.5106	48	250	149	13	1	2
-12.7563	-14.6027	-8.728	-10.2386	-12.7563	-9.2316	-12.5885	-8.5602	-6.3782	-8.728	-3.6926	-0.3357	-1.1749	-1.6785	1.3428	-2.182	-0.6714	-1.5106	48	251	150	13	1	2
-12.9242	-15.1062	-8.8959	-10.2386	-12.9242	-9.3994	-12.5885	-8.8959	-6.546	-8.728	-4.0283	-0.5035	-0.8392	-1.8463	1.6785	-2.182	-0.6714	-1.5106	48	252	151	13	1	2
-13.092	-15.4419	-8.8959	-10.0708	-13.2599	-9.2316	-12.7563	-9.2316	-6.546	-8.728	-4.364	-0.5035	-0.6714	-2.0142	1.6785	-2.3499	-0.6714	-1.6785	48	253	152	13	1	2
-13.092	-15.7776	-8.728	-10.2386	-13.5956	-9.2316	-12.7563	-9.5673	-6.546	-8.5602	-4.5319	-0.3357	-0.3357	-2.182	1.6785	-2.3499	-0.6714	-1.6785	48	254	153	13	1	2
-13.092	-15.9454	-8.728	-10.5743	-13.9313	-9.2316	-12.9242	-9.7351	-6.546	-8.5602	-4.8676	-0.3357	0	-2.182	1.8463	-2.3499	-0.6714	-1.8463	48	255	154	13	1	2
-12.7563	-15.7776	-8.3923	-10.5743	-13.9313	-8.8959	-12.7563	-9.903	-6.2103	-8.3923	-4.8676	0	0.5035	-2.3499	2.182	-2.182	-0.3357	-1.6785	48	256	155	13	1	2
-12.5885	-15.7776	-8.2245	-11.0779	-14.0991	-8.8959	-12.7563	-10.0708	-6.2103	-8.2245	-5.2032	0.1678	1.0071	-2.5177	2.182	-2.182	-0.3357	-1.5106	48	257	156	13	1	2
-12.2528	-15.6097	-7.7209	-11.0779	-14.0991	-8.5602	-12.5885	-10.2386	-5.8746	-8.0566	-5.2032	0.3357	1.5106	-2.5177	2.3499	-2.0142	-0.1678	-1.3428	48	258	157	13	1	2
-11.9171	-15.6097	-7.5531	-11.4136	-14.0991	-8.2245	-12.7563	-10.4065	-5.7068	-7.8888	-5.5389	0.3357	1.6785	-2.6855	2.3499	-2.182	-0.1678	-1.3428	48	259	158	13	1	2
-11.4136	-15.274	-7.0496	-11.4136	-14.0991	-7.8888	-12.4207	-10.5743	-5.5389	-7.7209	-5.5389	0.6714	2.182	-2.6855	2.6855	-2.182	0	-1.1749	48	260	159	13	1	2
-10.7422	-14.7705	-6.546	-11.4136	-13.7634	-7.5531	-12.2528	-10.5743	-5.2032	-7.5531	-5.5389	0.8392	2.3499	-2.6855	2.8534	-2.0142	0.3357	-1.0071	48	261	160	13	1	2
-10.2386	-14.4348	-6.2103	-11.5814	-13.7634	-7.2174	-12.085	-10.91	-5.2032	-7.3853	-5.8746	0.8392	2.6855	-2.8534	2.8534	-2.182	0.1678	-1.0071	48	262	161	13	1	2
-9.5673	-13.9313	-5.5389	-11.5814	-13.5956	-6.8817	-11.9171	-11.0779	-4.8676	-7.3853	-6.0425	1.0071	3.0212	-2.8534	2.6855	-2.182	0.3357	-0.8392	48	263	162	13	1	2
-8.728	-13.092	-4.8676	-11.4136	-13.2599	-6.546	-11.5814	-11.0779	-4.6997	-7.0496	-6.2103	1.1749	3.1891	-2.8534	2.8534	-2.182	0.6714	-0.8392	48	264	163	13	1	2
-8.2245	-12.5885	-4.364	-11.4136	-12.9242	-6.2103	-11.4136	-11.2457	-4.5319	-7.2174	-6.3782	1.0071	3.1891	-3.0212	2.6855	-2.182	0.5035	-0.6714	48	265	164	13	1	2
-7.3853	-11.9171	-3.6926	-11.0779	-12.5885	-5.7068	-11.0779	-11.2457	-4.364	-6.8817	-6.3782	1.1749	3.3569	-3.0212	2.6855	-2.3499	0.6714	-0.5035	48	266	165	13	1	2
-6.546	-10.91	-3.0212	-10.7422	-12.085	-5.2032	-10.7422	-11.2457	-4.1962	-6.8817	-6.546	1.1749	3.3569	-3.0212	2.6855	-2.182	0.8392	-0.1678	48	267	166	13	1	2
-5.7068	-10.0708	-2.3499	-10.0708	-11.5814	-4.6997	-10.0708	-10.91	-3.8605	-6.546	-6.546	1.3428	3.5248	-3.0212	2.6855	-2.182	0.8392	-0.1678	48	268	167	13	1	2
-5.2032	-9.3994	-1.8463	-9.7351	-11.0779	-4.364	-9.7351	-11.0779	-3.8605	-6.7139	-6.8817	1.3428	3.1891	-3.1891	2.5177	-2.182	0.8392	0	48	269	168	13	1	2
-4.1962	-8.5602	-1.1749	-9.0637	-10.7422	-3.8605	-9.2316	-10.91	-3.6926	-6.546	-6.7139	1.1749	3.1891	-3.1891	2.182	-2.182	0.8392	0.1678	48	270	169	13	1	2
-3.3569	-7.5531	-0.3357	-8.2245	-10.2386	-3.5248	-8.5602	-10.7422	-3.5248	-6.3782	-6.7139	1.3428	3.1891	-3.1891	2.182	-2.182	1.0071	0.3357	48	271	170	13	1	2
-2.6855	-7.0496	0	-7.7209	-9.903	-3.1891	-8.2245	-10.7422	-3.5248	-6.3782	-7.0496	1.0071	2.8534	-3.3569	1.8463	-2.3499	0.6714	0.3357	48	272	171	13	1	2
-2.0142	-6.2103	0.5035	-6.8817	-9.3994	-2.8534	-7.5531	-10.5743	-3.5248	-6.2103	-7.0496	1.0071	2.8534	-3.3569	1.6785	-2.5177	0.6714	0.5035	48	273	172	13	1	2
-1.3428	-5.7068	1.0071	-6.0425	-9.0637	-2.6855	-7.0496	-10.4065	-3.3569	-6.0425	-7.0496	0.8392	2.6855	-3.3569	1.5106	-2.3499	0.6714	0.8392	48	274	173	13	1	2
-0.6714	-4.8676	1.5106	-5.2032	-8.5602	-2.182	-6.2103	-10.0708	-3.1891	-5.8746	-7.0496	0.8392	2.5177	-3.1891	1.3428	-2.3499	0.6714	1.0071	48	275	174	13	1	2
-0.1678	-4.5319	1.6785	-4.6997	-8.3923	-2.182	-5.8746	-9.903	-3.1891	-5.7068	-7.2174	0.6714	2.182	-3.1891	1.1749	-2.3499	0.5035	1.1749	48	276	175	13	1	2
0.1678	-4.1962	1.8463	-4.1962	-8.2245	-2.182	-5.7068	-9.903	-3.3569	-5.8746	-7.3853	0.1678	1.6785	-3.1891	1.0071	-2.6855	0.5035	1.1749	48	277	176	13	1	2
0.6714	-3.8605	1.8463	-3.8605	-7.8888	-2.0142	-5.3711	-9.7351	-3.3569	-5.7068	-7.3853	0	1.5106	-3.0212	0.6714	-2.5177	0.1678	1.3428	48	278	177	13	1	2
0.6714	-3.6926	1.8463	-3.6926	-7.8888	-2.182	-5.0354	-9.7351	-3.6926	-5.8746	-7.5531	-0.5035	1.1749	-3.0212	0.5035	-2.6855	0	1.5106	48	279	178	13	1	2
0.5035	-3.6926	1.8463	-3.6926	-7.8888	-2.3499	-5.0354	-9.903	-4.0283	-6.0425	-7.7209	-0.8392	0.5035	-3.0212	0.1678	-2.8534	-0.3357	1.3428	48	280	179	13	1	2
0.5035	-3.5248	1.6785	-3.5248	-7.7209	-2.3499	-5.0354	-9.5673	-4.0283	-6.0425	-7.7209	-1.1749	0.1678	-2.8534	-0.1678	-2.8534	-0.5035	1.6785	48	281	180	13	1	2
0.3357	-3.5248	1.5106	-3.6926	-7.7209	-2.5177	-4.8676	-9.7351	-4.364	-6.0425	-7.8888	-1.6785	-0.5035	-2.8534	-0.5035	-2.8534	-0.6714	1.8463	48	282	181	13	1	2
0.3357	-3.3569	1.5106	-3.5248	-7.3853	-2.5177	-4.8676	-9.5673	-4.364	-6.2103	-7.8888	-1.8463	-0.6714	-2.6855	-0.6714	-2.6855	-0.8392	2.182	48	283	182	13	1	2
0	-3.3569	1.3428	-3.5248	-7.2174	-2.6855	-4.8676	-9.3994	-4.5319	-6.2103	-7.7209	-2.182	-1.1749	-2.6855	-0.8392	-2.5177	-1.0071	2.5177	48	284	183	13	1	2
0	-3.5248	1.1749	-3.5248	-7.2174	-2.8534	-4.6997	-9.2316	-4.6997	-6.0425	-7.7209	-2.5177	-1.5106	-2.6855	-1.1749	-2.3499	-1.3428	2.8534	48	285	184	13	1	2
-0.1678	-3.3569	1.1749	-3.5248	-6.8817	-2.6855	-4.5319	-8.8959	-4.6997	-6.0425	-7.3853	-2.6855	-1.6785	-2.5177	-1.1749	-2.0142	-1.3428	3.3569	48	286	185	13	1	2
-0.3357	-3.1891	1.1749	-3.3569	-6.546	-2.6855	-4.5319	-8.5602	-4.6997	-6.0425	-7.0496	-2.6855	-1.8463	-2.5177	-1.5106	-1.6785	-1.5106	3.8605	48	287	186	13	1	2
-0.3357	-3.1891	1.1749	-3.1891	-6.3782	-2.8534	-4.364	-8.3923	-4.8676	-5.8746	-6.8817	-2.8534	-2.0142	-2.5177	-1.5106	-1.1749	-1.6785	4.1962	48	288	187	13	1	2
-0.5035	-3.0212	1.1749	-3.0212	-6.0425	-2.6855	-4.364	-8.0566	-4.8676	-5.7068	-6.7139	-3.0212	-2.3499	-2.5177	-1.6785	-0.8392	-1.6785	4.8676	48	289	188	13	1	2
-0.3357	-2.8534	1.1749	-2.5177	-5.7068	-2.6855	-3.8605	-7.7209	-4.8676	-5.5389	-6.2103	-3.0212	-2.3499	-2.3499	-1.8463	-0.3357	-1.5106	5.3711	48	290	189	13	1	2
-0.1678	-2.5177	1.1749	-2.182	-5.5389	-2.6855	-3.8605	-7.5531	-5.2032	-5.5389	-6.0425	-3.3569	-2.6855	-2.3499	-2.182	0.1678	-1.8463	5.8746	48	291	190	13	1	2
-6.2103	-4.364	-11.5814	-3.1891	-7.3853	-11.5814	-8.8959	-7.7209	-11.4136	-11.0779	-9.5673	-10.7422	-11.4136	-2.8534	-0.6714	-0.5035	-0.1678	-5.8746	48	231	130	14	1	2
-6.3782	-4.6997	-11.5814	-3.3569	-7.5531	-11.5814	-9.0637	-7.7209	-11.2457	-10.91	-9.0637	-10.2386	-10.91	-2.5177	-0.3357	-0.5035	0	-5.5389	48	232	131	14	1	2
-6.7139	-4.8676	-11.7493	-3.5248	-7.3853	-11.2457	-9.0637	-7.2174	-10.7422	-10.5743	-8.3923	-9.5673	-10.5743	-2.3499	0.1678	-0.3357	0.1678	-5.0354	48	233	132	14	1	2
-6.8817	-4.8676	-11.5814	-3.6926	-7.3853	-11.2457	-8.8959	-6.8817	-10.5743	-10.2386	-7.5531	-9.0637	-9.903	-2.0142	0.5035	-0.3357	0.3357	-4.6997	48	234	133	14	1	2
-7.0496	-5.0354	-11.7493	-4.0283	-7.2174	-10.91	-8.728	-6.8817	-10.0708	-9.903	-6.8817	-8.5602	-9.3994	-1.6785	0.8392	-0.5035	0.5035	-4.1962	48	235	134	14	1	2
-7.0496	-5.0354	-11.4136	-4.0283	-7.2174	-10.7422	-8.728	-6.546	-9.7351	-9.7351	-6.2103	-7.8888	-8.8959	-1.3428	1.1749	-0.3357	0.6714	-3.8605	48	236	135	14	1	2
-7.0496	-5.0354	-11.2457	-4.364	-7.0496	-10.4065	-8.728	-6.0425	-9.3994	-9.3994	-5.7068	-7.2174	-8.3923	-0.8392	1.5106	-0.3357	0.6714	-3.5248	48	237	136	14	1	2
-7.0496	-4.8676	-11.2457	-4.6997	-6.8817	-10.0708	-8.5602	-5.8746	-8.8959	-9.2316	-5.0354	-6.7139	-7.7209	-0.5035	1.6785	-0.5035	0.6714	-3.3569	48	238	137	14	1	2
-6.8817	-5.0354	-10.91	-4.8676	-6.7139	-9.7351	-8.5602	-5.7068	-8.5602	-9.0637	-4.5319	-6.2103	-7.0496	-0.1678	1.8463	-0.6714	0.6714	-3.0212	48	239	138	14	1	2
-6.7139	-4.8676	-10.5743	-5.0354	-6.3782	-9.3994	-8.728	-5.3711	-8.3923	-8.5602	-4.0283	-5.7068	-6.546	0.1678	2.182	-0.6714	0.6714	-2.6855	48	240	139	14	1	2
-6.3782	-4.8676	-10.4065	-5.0354	-6.3782	-9.0637	-8.5602	-5.2032	-7.8888	-8.3923	-3.5248	-5.0354	-5.8746	0.5035	2.3499	-1.0071	0.5035	-2.5177	48	241	140	14	1	2
-6.0425	-4.5319	-10.0708	-5.2032	-6.0425	-8.8959	-8.5602	-5.0354	-7.5531	-8.2245	-3.1891	-4.6997	-5.3711	0.8392	2.6855	-1.1749	0.3357	-2.5177	48	242	141	14	1	2
-5.8746	-4.5319	-9.903	-5.3711	-6.2103	-8.5602	-8.3923	-5.0354	-7.3853	-7.8888	-3.0212	-4.364	-4.8676	1.0071	2.6855	-1.5106	-0.1678	-2.5177	48	243	142	14	1	2
-5.7068	-4.5319	-9.7351	-5.2032	-6.0425	-8.3923	-8.3923	-4.8676	-6.8817	-7.7209	-2.5177	-3.8605	-4.1962	1.3428	2.6855	-1.6785	-0.1678	-2.3499	48	244	143	14	1	2
-5.5389	-4.6997	-9.7351	-5.0354	-6.0425	-8.2245	-8.3923	-4.8676	-6.7139	-7.5531	-2.3499	-3.6926	-3.6926	1.5106	2.6855	-2.0142	-0.6714	-2.3499	48	245	144	14	1	2
-5.3711	-4.6997	-9.2316	-5.0354	-6.2103	-8.0566	-8.3923	-5.0354	-6.546	-7.3853	-2.3499	-3.3569	-3.3569	1.6785	2.5177	-2.5177	-1.1749	-2.5177	48	246	145	14	1	2
-5.3711	-4.8676	-9.3994	-5.0354	-6.3782	-7.8888	-8.2245	-5.2032	-6.546	-7.3853	-2.3499	-3.0212	-3.0212	1.8463	2.3499	-3.0212	-1.6785	-2.6855	48	247	146	14	1	2
-5.3711	-5.0354	-9.3994	-4.6997	-6.546	-7.8888	-8.2245	-5.3711	-6.3782	-7.0496	-2.3499	-2.8534	-2.5177	2.0142	2.182	-3.3569	-2.182	-3.0212	48	248	147	14	1	2
-5.3711	-5.2032	-9.3994	-4.6997	-6.546	-7.8888	-8.2245	-5.5389	-6.2103	-6.8817	-2.5177	-2.6855	-2.182	2.182	2.0142	-3.8605	-2.8534	-3.1891	48	249	148	14	1	2
-5.5389	-5.5389	-9.3994	-4.8676	-6.8817	-8.0566	-8.3923	-5.8746	-6.3782	-7.0496	-2.8534	-2.6855	-2.0142	2.182	1.6785	-4.5319	-3.5248	-3.5248	48	250	149	14	1	2
-5.5389	-5.5389	-9.5673	-4.8676	-7.0496	-8.0566	-8.5602	-6.2103	-6.2103	-6.8817	-2.8534	-2.6855	-1.6785	2.3499	1.5106	-4.8676	-3.8605	-3.6926	48	251	150	14	1	2
-5.5389	-6.0425	-9.7351	-5.0354	-7.3853	-8.3923	-8.728	-6.546	-6.2103	-6.8817	-3.1891	-2.6855	-1.5106	2.3499	1.0071	-5.3711	-4.5319	-4.0283	48	252	151	14	1	2
-5.7068	-6.2103	-9.903	-5.5389	-7.8888	-8.5602	-8.8959	-6.8817	-6.2103	-6.7139	-3.5248	-2.6855	-1.3428	2.3499	0.6714	-5.8746	-5.2032	-4.5319	48	253	152	14	1	2
-6.2103	-6.7139	-10.4065	-5.7068	-8.0566	-8.728	-9.0637	-7.3853	-6.3782	-6.546	-4.0283	-2.6855	-1.1749	2.3499	0.3357	-6.546	-5.8746	-4.6997	48	254	153	14	1	2
-6.3782	-7.0496	-10.5743	-6.3782	-8.5602	-9.2316	-9.2316	-7.8888	-6.7139	-6.7139	-4.5319	-2.6855	-1.1749	2.182	0	-7.0496	-6.3782	-5.0354	48	255	154	14	1	2
-6.546	-7.3853	-11.0779	-6.7139	-8.8959	-9.3994	-9.3994	-8.2245	-6.7139	-6.7139	-4.8676	-2.6855	-1.0071	2.182	-0.5035	-7.3853	-6.8817	-5.3711	48	256	155	14	1	2
-6.8817	-8.0566	-11.5814	-7.2174	-9.3994	-9.7351	-9.5673	-8.728	-6.8817	-6.7139	-5.3711	-2.8534	-1.0071	2.0142	-0.8392	-7.8888	-7.3853	-5.7068	48	257	156	14	1	2
