"FZ"	"FC3"	"FCZ"	"FC4"	"C3"	"CZ"	"C4"	"CP3"	"CPZ"	"CP4"	"P3"	"PZ"	"P4"	"OZ"	"P8"	"TP7"	"TP8"	"P7"	"Subject"	"Points"	"Time"	"Trial"	"Rejected"	"Correct"
-1.6785	-8.728	-2.0142	-1.8463	-9.2316	-3.1891	-6.7139	-8.2245	-7.3853	-8.5602	-6.0425	-8.0566	-10.7422	1.8463	-9.2316	-9.3994	-4.364	-6.0425	47	231	130	1	1	2
-1.6785	-9.0637	-2.3499	-1.6785	-9.5673	-3.6926	-6.546	-8.3923	-7.7209	-8.3923	-6.2103	-8.3923	-10.7422	2.0142	-9.2316	-9.5673	-4.364	-6.2103	47	232	131	1	1	2
-1.6785	-9.2316	-2.5177	-1.8463	-9.903	-3.8605	-6.7139	-8.728	-7.8888	-8.2245	-6.7139	-8.8959	-10.91	2.0142	-9.5673	-9.3994	-4.5319	-6.2103	47	233	132	1	1	2
-1.6785	-9.5673	-2.8534	-1.8463	-10.2386	-4.0283	-6.7139	-9.2316	-8.0566	-8.2245	-7.0496	-9.2316	-11.0779	2.0142	-9.7351	-9.5673	-4.6997	-6.3782	47	234	133	1	1	2
-1.6785	-10.0708	-3.1891	-1.8463	-10.5743	-4.364	-6.7139	-9.3994	-8.0566	-7.8888	-7.3853	-9.3994	-11.0779	2.0142	-9.7351	-9.3994	-5.0354	-6.546	47	235	134	1	1	2
-2.0142	-10.5743	-3.3569	-1.8463	-10.7422	-4.5319	-6.7139	-9.5673	-8.0566	-7.7209	-7.5531	-9.7351	-11.2457	2.0142	-9.903	-9.5673	-5.0354	-6.7139	47	236	135	1	1	2
-2.182	-11.0779	-3.5248	-2.0142	-11.2457	-4.6997	-6.546	-9.903	-8.2245	-7.7209	-7.8888	-10.0708	-11.2457	1.8463	-10.0708	-9.3994	-5.5389	-6.8817	47	237	136	1	1	2
-2.3499	-11.5814	-3.8605	-1.8463	-11.5814	-4.8676	-6.546	-9.903	-8.2245	-7.3853	-7.8888	-10.0708	-11.2457	1.6785	-10.4065	-9.3994	-5.8746	-6.8817	47	238	137	1	1	2
-2.6855	-11.9171	-4.1962	-2.0142	-12.085	-4.8676	-6.546	-10.2386	-8.3923	-7.3853	-8.2245	-10.4065	-11.2457	1.3428	-10.5743	-9.2316	-6.3782	-7.0496	47	239	138	1	1	2
-2.6855	-12.2528	-4.1962	-1.8463	-12.2528	-4.8676	-6.2103	-10.4065	-8.2245	-7.0496	-8.3923	-10.4065	-11.2457	1.1749	-10.91	-9.5673	-6.7139	-7.2174	47	240	139	1	1	2
-2.8534	-12.7563	-4.364	-1.8463	-12.5885	-5.0354	-6.2103	-10.4065	-8.3923	-6.8817	-8.5602	-10.7422	-11.2457	0.8392	-11.4136	-9.3994	-7.0496	-7.5531	47	241	140	1	1	2
-2.8534	-12.9242	-4.364	-1.5106	-12.7563	-4.8676	-5.8746	-10.5743	-8.2245	-6.8817	-8.5602	-10.7422	-11.4136	0.6714	-11.7493	-9.7351	-7.3853	-7.5531	47	242	141	1	1	2
-2.8534	-13.2599	-4.5319	-1.5106	-13.092	-5.2032	-5.8746	-10.7422	-8.3923	-6.8817	-9.0637	-10.91	-11.5814	0.3357	-12.4207	-9.903	-8.0566	-7.8888	47	243	142	1	1	2
-3.0212	-13.4277	-4.364	-1.0071	-13.2599	-5.2032	-5.7068	-10.7422	-8.3923	-6.7139	-9.2316	-11.0779	-11.5814	0.1678	-12.9242	-10.0708	-8.3923	-8.0566	47	244	143	1	1	2
-2.8534	-13.5956	-4.5319	-0.6714	-13.7634	-5.2032	-5.3711	-10.91	-8.3923	-6.7139	-9.3994	-11.0779	-11.7493	0	-13.5956	-10.4065	-8.728	-8.3923	47	245	144	1	1	2
-2.6855	-13.5956	-4.1962	-0.1678	-13.5956	-5.2032	-5.0354	-10.91	-8.3923	-6.7139	-9.5673	-11.2457	-11.7493	0	-14.0991	-10.91	-9.0637	-8.5602	47	246	145	1	1	2
-2.3499	-13.4277	-4.1962	0.1678	-13.9313	-5.2032	-4.8676	-11.2457	-8.3923	-6.7139	-9.903	-11.4136	-12.085	-0.1678	-14.7705	-11.4136	-9.3994	-9.0637	47	247	146	1	1	2
-2.182	-13.4277	-4.1962	0.8392	-14.0991	-5.2032	-4.364	-11.4136	-8.5602	-6.8817	-10.2386	-11.5814	-12.2528	-0.3357	-15.274	-11.9171	-9.7351	-9.5673	47	248	147	1	1	2
-1.6785	-13.092	-3.6926	1.6785	-14.0991	-5.2032	-4.0283	-11.4136	-8.5602	-6.7139	-10.4065	-11.5814	-12.2528	-0.3357	-15.7776	-12.2528	-9.903	-9.903	47	249	148	1	1	2
-1.3428	-12.5885	-3.3569	2.5177	-14.0991	-5.2032	-3.5248	-11.5814	-8.3923	-6.7139	-10.7422	-11.4136	-12.2528	-0.3357	-16.2811	-12.9242	-10.0708	-10.2386	47	250	149	1	1	2
-0.6714	-12.085	-3.0212	3.5248	-14.0991	-5.0354	-2.8534	-11.5814	-8.2245	-6.3782	-10.7422	-11.4136	-12.085	-0.3357	-16.449	-13.2599	-10.0708	-10.5743	47	251	150	1	1	2
-0.1678	-11.4136	-2.3499	4.5319	-13.7634	-4.8676	-2.182	-11.4136	-8.0566	-6.0425	-10.7422	-11.0779	-11.7493	-0.1678	-16.6168	-13.9313	-9.903	-11.0779	47	252	151	1	1	2
0.5035	-10.5743	-2.182	5.8746	-13.7634	-4.6997	-1.5106	-11.7493	-7.7209	-5.7068	-11.0779	-10.7422	-11.5814	-0.1678	-16.6168	-14.267	-9.5673	-11.4136	47	253	152	1	1	2
1.1749	-9.903	-1.5106	7.0496	-13.4277	-4.1962	-0.8392	-11.5814	-7.3853	-5.5389	-11.0779	-10.5743	-11.0779	0	-16.6168	-14.7705	-9.2316	-11.7493	47	254	153	1	1	2
2.0142	-9.0637	-1.0071	8.2245	-13.092	-3.8605	-0.1678	-11.5814	-6.8817	-5.0354	-11.0779	-10.0708	-10.4065	0.1678	-16.2811	-15.4419	-8.728	-12.2528	47	255	154	1	1	2
2.3499	-8.3923	-0.3357	9.2316	-12.7563	-3.5248	0.5035	-11.5814	-6.546	-4.5319	-11.0779	-9.5673	-10.0708	0.3357	-16.1133	-15.7776	-8.3923	-12.4207	47	256	155	1	1	2
3.1891	-7.5531	0.1678	10.2386	-12.4207	-3.1891	1.3428	-11.4136	-6.0425	-4.0283	-11.0779	-9.2316	-9.5673	0.5035	-15.9454	-16.2811	-7.8888	-12.7563	47	257	156	1	1	2
3.8605	-6.7139	0.6714	11.0779	-12.2528	-3.0212	1.6785	-11.5814	-5.8746	-3.6926	-11.2457	-8.8959	-9.0637	0.5035	-15.7776	-16.7847	-7.7209	-13.092	47	258	157	1	1	2
4.5319	-6.0425	1.3428	11.9171	-11.9171	-2.6855	2.182	-11.4136	-5.3711	-3.1891	-11.2457	-8.3923	-8.5602	0.6714	-15.4419	-17.1204	-7.3853	-13.5956	47	259	158	1	1	2
5.0354	-5.5389	1.5106	12.085	-11.5814	-2.3499	2.5177	-11.4136	-4.8676	-2.6855	-11.2457	-7.8888	-8.2245	0.8392	-15.274	-17.4561	-6.8817	-13.7634	47	260	159	1	1	2
5.7068	-4.8676	2.182	12.2528	-11.2457	-2.0142	2.6855	-11.4136	-4.5319	-2.5177	-11.4136	-7.7209	-7.7209	0.8392	-15.1062	-17.7917	-6.546	-13.9313	47	261	160	1	1	2
5.8746	-4.5319	2.3499	12.2528	-11.0779	-1.8463	2.6855	-11.4136	-4.1962	-2.3499	-11.4136	-7.3853	-7.3853	0.8392	-15.1062	-18.1274	-6.546	-14.267	47	262	161	1	1	2
6.0425	-4.1962	2.3499	11.7493	-10.7422	-1.3428	2.8534	-11.2457	-3.5248	-1.8463	-11.4136	-6.8817	-6.8817	1.0071	-14.9384	-18.1274	-6.3782	-14.267	47	263	162	1	1	2
6.0425	-4.0283	2.3499	10.91	-10.7422	-1.1749	2.6855	-11.2457	-3.1891	-1.6785	-11.4136	-6.7139	-6.7139	1.0071	-14.9384	-18.4631	-6.3782	-14.6027	47	264	163	1	1	2
6.0425	-4.0283	2.5177	10.2386	-10.5743	-1.0071	2.5177	-11.2457	-2.8534	-1.8463	-11.5814	-6.546	-6.3782	1.0071	-14.9384	-18.631	-6.546	-14.9384	47	265	164	1	1	2
5.7068	-4.364	2.3499	9.0637	-10.5743	-0.8392	2.182	-11.0779	-2.5177	-1.6785	-11.4136	-6.3782	-6.3782	1.1749	-14.7705	-18.9667	-6.7139	-14.9384	47	266	165	1	1	2
5.3711	-4.364	2.182	8.0566	-10.5743	-0.8392	1.6785	-11.2457	-2.182	-1.8463	-11.5814	-6.2103	-6.2103	1.1749	-14.9384	-19.1345	-7.2174	-15.1062	47	267	166	1	1	2
4.8676	-4.8676	2.0142	6.7139	-10.5743	-0.6714	1.1749	-11.0779	-1.8463	-1.6785	-11.4136	-6.0425	-6.2103	1.3428	-14.7705	-19.1345	-7.3853	-15.1062	47	268	167	1	1	2
4.0283	-5.3711	1.5106	5.3711	-10.7422	-0.6714	0.6714	-11.0779	-1.6785	-1.8463	-11.5814	-5.8746	-6.2103	1.3428	-15.1062	-19.3024	-7.8888	-15.274	47	269	168	1	1	2
3.3569	-6.0425	1.0071	4.0283	-10.7422	-0.8392	0.1678	-11.0779	-1.6785	-2.182	-11.5814	-5.8746	-6.3782	1.3428	-15.274	-19.4702	-8.5602	-15.274	47	270	169	1	1	2
2.5177	-6.7139	0.3357	2.6855	-11.0779	-0.8392	-0.5035	-11.0779	-1.6785	-2.5177	-11.5814	-5.8746	-6.546	1.3428	-15.274	-19.4702	-9.0637	-15.274	47	271	170	1	1	2
1.6785	-7.3853	-0.1678	1.3428	-11.2457	-1.1749	-1.0071	-11.0779	-1.6785	-2.8534	-11.5814	-6.0425	-6.8817	1.3428	-15.4419	-19.3024	-9.7351	-15.274	47	272	171	1	1	2
0.8392	-8.0566	-1.0071	-0.1678	-11.7493	-1.6785	-1.8463	-11.2457	-1.8463	-3.1891	-11.7493	-6.2103	-7.2174	1.1749	-15.9454	-19.3024	-10.2386	-15.274	47	273	172	1	1	2
0.1678	-8.8959	-1.5106	-1.1749	-11.9171	-2.0142	-2.3499	-11.2457	-2.0142	-3.5248	-11.7493	-6.3782	-7.3853	1.1749	-16.1133	-18.9667	-10.7422	-15.1062	47	274	173	1	1	2
-0.6714	-9.7351	-2.182	-2.3499	-12.4207	-2.5177	-3.0212	-11.4136	-2.3499	-4.0283	-11.7493	-6.546	-7.7209	1.0071	-16.2811	-18.9667	-11.4136	-14.7705	47	275	174	1	1	2
-1.5106	-10.91	-2.6855	-3.1891	-12.7563	-2.8534	-3.3569	-11.2457	-2.5177	-4.1962	-11.4136	-6.7139	-8.0566	1.0071	-16.449	-18.631	-11.5814	-14.6027	47	276	175	1	1	2
-2.3499	-11.7493	-3.5248	-3.8605	-13.2599	-3.3569	-3.6926	-11.5814	-3.0212	-4.8676	-11.5814	-6.8817	-8.3923	0.8392	-16.449	-18.2953	-11.9171	-14.267	47	277	176	1	1	2
-3.0212	-12.7563	-4.364	-4.5319	-13.7634	-4.1962	-4.364	-11.5814	-3.5248	-5.2032	-11.4136	-7.3853	-8.728	0.6714	-16.6168	-17.9596	-12.085	-14.0991	47	278	177	1	1	2
-3.6926	-13.7634	-5.2032	-4.8676	-14.4348	-4.8676	-4.6997	-11.9171	-4.1962	-5.8746	-11.4136	-7.7209	-9.2316	0.5035	-16.7847	-17.7917	-12.085	-13.7634	47	279	178	1	1	2
-4.364	-14.7705	-6.0425	-5.5389	-15.1062	-5.8746	-5.3711	-12.2528	-4.6997	-6.3782	-11.4136	-8.0566	-9.5673	0.3357	-16.9525	-17.4561	-12.2528	-13.4277	47	280	179	1	1	2
-5.0354	-15.7776	-6.8817	-5.5389	-15.6097	-6.7139	-5.5389	-12.4207	-5.3711	-6.7139	-11.2457	-8.2245	-9.903	0.3357	-16.9525	-16.9525	-12.085	-12.9242	47	281	180	1	1	2
-5.7068	-16.7847	-7.8888	-5.8746	-16.2811	-7.7209	-6.0425	-12.7563	-6.2103	-7.2174	-11.4136	-8.728	-10.2386	0.1678	-16.9525	-16.7847	-11.9171	-12.7563	47	282	181	1	1	2
-6.546	-17.6239	-8.5602	-6.0425	-16.9525	-8.5602	-6.3782	-12.9242	-6.8817	-7.7209	-11.2457	-9.2316	-10.4065	0.1678	-16.7847	-16.2811	-11.7493	-12.2528	47	283	182	1	1	2
-7.2174	-18.4631	-9.7351	-6.3782	-17.6239	-9.5673	-6.8817	-13.4277	-7.7209	-8.2245	-11.4136	-9.5673	-10.91	0	-16.7847	-16.1133	-11.7493	-12.085	47	284	183	1	1	2
-7.8888	-19.3024	-10.5743	-6.546	-18.1274	-10.5743	-7.3853	-13.7634	-8.3923	-8.728	-11.4136	-9.903	-11.0779	0	-16.6168	-15.7776	-11.5814	-11.7493	47	285	184	1	1	2
-8.728	-19.9738	-11.4136	-6.8817	-18.631	-11.5814	-7.8888	-14.267	-9.0637	-9.2316	-11.4136	-10.2386	-11.4136	0	-16.449	-15.6097	-11.4136	-11.4136	47	286	185	1	1	2
-9.3994	-20.6451	-12.4207	-7.0496	-19.1345	-12.4207	-8.2245	-14.7705	-9.903	-9.7351	-11.4136	-10.7422	-11.5814	0	-15.9454	-15.274	-11.2457	-11.2457	47	287	186	1	1	2
-10.4065	-21.3165	-13.4277	-7.5531	-19.6381	-13.5956	-8.8959	-15.1062	-10.7422	-10.0708	-11.7493	-11.2457	-11.7493	-0.1678	-15.9454	-14.9384	-11.2457	-11.0779	47	288	187	1	1	2
-10.91	-21.6522	-14.267	-7.5531	-20.1416	-14.267	-9.2316	-15.6097	-11.2457	-10.4065	-11.7493	-11.4136	-11.9171	-0.1678	-15.6097	-14.6027	-11.2457	-10.5743	47	289	188	1	1	2
-11.4136	-22.1558	-15.1062	-7.8888	-20.4773	-15.1062	-9.7351	-15.9454	-11.9171	-10.7422	-11.9171	-11.9171	-12.085	-0.3357	-15.274	-14.267	-11.0779	-10.0708	47	290	189	1	1	2
-12.085	-22.1558	-15.6097	-8.0566	-20.813	-15.7776	-10.0708	-16.1133	-12.5885	-11.0779	-11.9171	-12.2528	-12.2528	-0.5035	-14.9384	-13.7634	-10.91	-9.903	47	291	190	1	1	2
-1.1749	-6.7139	-6.2103	-4.8676	-10.4065	-12.5885	-12.4207	-13.7634	-15.4419	-15.1062	-16.7847	-17.4561	-15.4419	0.6714	-5.8746	-9.2316	-3.5248	-12.4207	47	231	130	2	1	2
-0.1678	-6.0425	-5.3711	-3.8605	-9.903	-11.9171	-11.7493	-13.4277	-14.9384	-14.4348	-16.449	-17.1204	-15.274	0.3357	-5.8746	-8.5602	-3.5248	-11.9171	47	232	131	2	1	2
1.0071	-5.5389	-4.5319	-3.1891	-9.3994	-11.4136	-11.0779	-12.9242	-14.267	-14.0991	-15.7776	-16.6168	-14.7705	0.1678	-5.7068	-7.7209	-3.3569	-11.2457	47	233	132	2	1	2
2.0142	-4.6997	-3.5248	-2.0142	-8.728	-10.5743	-10.2386	-12.2528	-13.4277	-13.2599	-15.1062	-15.7776	-14.0991	-0.1678	-5.5389	-6.8817	-3.1891	-10.4065	47	234	133	2	1	2
2.8534	-4.0283	-2.6855	-1.3428	-8.3923	-9.903	-9.2316	-11.7493	-12.7563	-12.7563	-14.7705	-15.274	-13.7634	-0.3357	-5.3711	-6.3782	-3.0212	-9.7351	47	235	134	2	1	2
3.5248	-3.5248	-1.8463	-0.3357	-7.7209	-9.0637	-8.3923	-11.0779	-11.7493	-11.7493	-14.0991	-14.4348	-13.092	-0.6714	-5.2032	-5.7068	-2.5177	-8.8959	47	236	135	2	1	2
4.0283	-3.0212	-1.0071	0.5035	-7.2174	-8.3923	-7.7209	-10.7422	-11.2457	-11.0779	-13.4277	-13.7634	-12.4207	-1.0071	-5.0354	-5.0354	-2.5177	-8.2245	47	237	136	2	1	2
4.5319	-2.5177	-0.5035	1.3428	-6.546	-7.7209	-6.7139	-10.0708	-10.2386	-10.2386	-12.7563	-12.9242	-11.7493	-1.1749	-4.8676	-4.6997	-2.182	-7.7209	47	238	137	2	1	2
4.6997	-2.0142	0	1.8463	-6.0425	-7.0496	-5.8746	-9.3994	-9.3994	-9.3994	-12.2528	-12.2528	-11.0779	-1.3428	-4.6997	-4.364	-1.8463	-7.2174	47	239	138	2	1	2
4.6997	-1.5106	0.1678	2.3499	-5.3711	-6.2103	-5.0354	-8.728	-8.5602	-8.3923	-11.4136	-11.2457	-10.4065	-1.3428	-4.364	-4.0283	-1.5106	-6.7139	47	240	139	2	1	2
4.6997	-1.3428	0.5035	2.6855	-5.0354	-5.5389	-4.5319	-8.5602	-7.8888	-7.7209	-11.0779	-10.91	-9.7351	-1.5106	-4.364	-3.8605	-1.1749	-6.546	47	241	140	2	1	2
4.1962	-0.8392	0.5035	2.8534	-4.5319	-4.8676	-3.6926	-7.7209	-7.0496	-6.7139	-10.4065	-9.903	-9.0637	-1.3428	-4.0283	-3.8605	-0.8392	-6.2103	47	242	141	2	1	2
3.8605	-0.6714	0.5035	3.0212	-4.0283	-4.364	-3.0212	-7.2174	-6.2103	-6.0425	-10.0708	-9.2316	-8.3923	-1.3428	-4.0283	-4.0283	-0.5035	-6.2103	47	243	142	2	1	2
3.5248	-0.5035	0.6714	2.8534	-3.5248	-4.0283	-2.6855	-7.0496	-5.7068	-5.5389	-9.7351	-8.728	-7.8888	-1.3428	-4.0283	-4.1962	-0.1678	-6.2103	47	244	143	2	1	2
3.0212	0	0.6714	2.6855	-2.8534	-3.5248	-2.182	-6.3782	-4.8676	-4.6997	-9.2316	-8.0566	-7.2174	-1.1749	-3.8605	-4.1962	0.1678	-6.2103	47	245	144	2	1	2
2.5177	0.1678	0.6714	2.5177	-2.3499	-3.0212	-1.8463	-5.7068	-4.1962	-4.1962	-9.0637	-7.7209	-6.8817	-1.1749	-3.8605	-4.5319	0.1678	-6.3782	47	246	145	2	1	2
2.0142	0.3357	0.5035	2.0142	-1.8463	-2.6855	-1.6785	-5.3711	-3.6926	-3.8605	-8.728	-7.2174	-6.3782	-1.1749	-3.8605	-4.6997	0.3357	-6.3782	47	247	146	2	1	2
1.5106	0.6714	0.3357	1.5106	-1.3428	-2.3499	-1.6785	-4.8676	-3.1891	-3.3569	-8.3923	-6.7139	-6.0425	-1.1749	-3.8605	-4.8676	0.5035	-6.546	47	248	147	2	1	2
1.1749	1.1749	0.5035	1.0071	-0.5035	-2.0142	-1.5106	-4.364	-2.5177	-3.0212	-8.0566	-6.2103	-5.7068	-1.1749	-3.6926	-5.0354	0.5035	-6.546	47	249	148	2	1	2
0.6714	1.8463	0.3357	0.3357	0.1678	-1.6785	-1.3428	-3.8605	-2.0142	-2.6855	-7.7209	-5.7068	-5.3711	-1.1749	-3.6926	-5.0354	0.6714	-6.7139	47	250	149	2	1	2
0.8392	2.3499	0.5035	0	0.6714	-1.3428	-1.5106	-3.3569	-1.6785	-2.5177	-7.3853	-5.5389	-5.2032	-1.3428	-3.8605	-5.0354	0.5035	-6.7139	47	251	150	2	1	2
0.6714	2.8534	0.6714	-0.6714	1.3428	-1.1749	-1.5106	-2.6855	-1.0071	-2.3499	-7.2174	-5.0354	-5.0354	-1.5106	-4.0283	-5.2032	0.3357	-6.8817	47	252	151	2	1	2
0.5035	3.5248	0.6714	-1.0071	2.182	-0.6714	-1.6785	-2.182	-0.6714	-2.182	-6.7139	-4.8676	-4.6997	-1.6785	-4.0283	-5.0354	0.1678	-6.7139	47	253	152	2	1	2
0.8392	4.1962	1.1749	-1.3428	2.6855	-0.1678	-1.6785	-1.6785	-0.1678	-2.0142	-6.546	-4.5319	-4.5319	-2.0142	-4.1962	-5.0354	-0.1678	-6.7139	47	254	153	2	1	2
0.8392	5.0354	1.5106	-1.5106	3.3569	0.1678	-1.6785	-1.0071	0.6714	-1.8463	-6.0425	-4.1962	-4.364	-2.3499	-4.1962	-4.8676	-0.3357	-6.7139	47	255	154	2	1	2
1.3428	6.0425	1.8463	-1.5106	4.364	0.6714	-1.5106	-0.3357	1.1749	-1.6785	-5.7068	-3.6926	-4.1962	-2.6855	-4.364	-4.5319	-0.5035	-6.546	47	256	155	2	1	2
1.6785	6.7139	2.5177	-1.3428	5.2032	1.3428	-1.1749	0.5035	1.6785	-1.3428	-5.2032	-3.1891	-3.8605	-3.0212	-4.364	-4.1962	-0.6714	-6.3782	47	257	156	2	1	2
2.182	7.5531	2.8534	-1.0071	5.7068	2.0142	-1.1749	1.1749	2.3499	-1.1749	-4.8676	-2.6855	-3.8605	-3.5248	-4.364	-4.0283	-0.6714	-6.2103	47	258	157	2	1	2
3.0212	8.2245	3.5248	-0.5035	6.546	2.5177	-0.8392	1.6785	2.8534	-1.0071	-4.364	-2.3499	-3.3569	-4.0283	-4.5319	-3.5248	-0.6714	-5.8746	47	259	158	2	1	2
3.5248	8.8959	4.1962	0	7.0496	3.1891	-0.6714	2.3499	3.3569	-0.8392	-4.1962	-2.0142	-3.1891	-4.5319	-4.364	-3.3569	-0.8392	-5.5389	47	260	159	2	1	2
4.1962	9.5673	4.8676	0.5035	7.5531	3.5248	-0.3357	2.6855	3.6926	-0.5035	-4.0283	-1.6785	-3.0212	-5.0354	-4.5319	-3.0212	-0.6714	-5.2032	47	261	160	2	1	2
5.0354	10.2386	5.7068	1.1749	8.0566	4.1962	-0.1678	3.0212	4.0283	-0.3357	-3.6926	-1.3428	-3.0212	-5.5389	-4.6997	-2.8534	-0.8392	-5.2032	47	262	161	2	1	2
5.5389	10.5743	6.0425	1.6785	8.3923	4.5319	0.3357	3.3569	4.364	0	-3.6926	-1.1749	-2.8534	-5.8746	-4.5319	-2.5177	-0.6714	-4.8676	47	263	162	2	1	2
6.3782	11.0779	6.7139	2.3499	8.728	5.0354	0.5035	3.5248	4.5319	0	-3.6926	-0.8392	-2.8534	-6.3782	-4.8676	-2.3499	-0.6714	-4.6997	47	264	163	2	1	2
7.0496	11.4136	7.2174	3.0212	8.8959	5.3711	0.6714	3.5248	4.5319	0	-3.6926	-0.8392	-2.6855	-6.7139	-4.8676	-2.0142	-0.6714	-4.364	47	265	164	2	1	2
7.5531	11.5814	7.5531	3.5248	8.8959	5.7068	1.1749	3.3569	4.364	0.1678	-3.8605	-0.8392	-2.6855	-7.0496	-5.0354	-1.8463	-0.6714	-4.1962	47	266	165	2	1	2
7.8888	11.7493	7.8888	4.0283	8.728	5.7068	1.3428	3.1891	4.364	0.1678	-4.0283	-1.0071	-2.6855	-7.2174	-5.0354	-1.5106	-0.6714	-4.0283	47	267	166	2	1	2
8.3923	11.9171	8.3923	4.5319	8.728	6.0425	1.5106	2.8534	4.1962	0.3357	-4.364	-1.1749	-2.8534	-7.5531	-5.2032	-1.5106	-0.6714	-4.0283	47	268	167	2	1	2
9.0637	11.9171	8.728	5.2032	8.3923	6.0425	1.6785	2.182	3.8605	0.1678	-4.6997	-1.3428	-2.8534	-7.7209	-5.2032	-1.3428	-0.6714	-3.8605	47	269	168	2	1	2
9.3994	11.9171	8.8959	5.5389	8.0566	6.2103	1.6785	1.5106	3.3569	0.1678	-5.2032	-1.8463	-3.0212	-7.8888	-5.2032	-1.3428	-0.8392	-3.8605	47	270	169	2	1	2
9.7351	11.7493	9.0637	6.0425	7.7209	6.0425	1.8463	1.0071	3.0212	0	-5.7068	-1.8463	-3.0212	-7.8888	-5.2032	-1.0071	-0.6714	-3.5248	47	271	170	2	1	2
10.2386	11.9171	9.3994	6.546	7.2174	5.8746	1.8463	0.3357	2.6855	0	-6.2103	-2.3499	-3.1891	-8.0566	-5.3711	-1.0071	-0.8392	-3.6926	47	272	171	2	1	2
10.5743	11.9171	9.3994	7.0496	6.7139	5.7068	2.0142	-0.5035	2.182	-0.3357	-6.7139	-2.6855	-3.5248	-8.0566	-5.5389	-1.0071	-1.0071	-3.8605	47	273	172	2	1	2
10.91	11.7493	9.3994	7.5531	6.2103	5.5389	2.0142	-1.0071	1.6785	-0.1678	-7.0496	-2.8534	-3.5248	-7.8888	-5.3711	-0.8392	-0.8392	-3.6926	47	274	173	2	1	2
11.2457	11.5814	9.5673	8.0566	5.5389	5.2032	2.0142	-1.8463	1.1749	-0.5035	-7.7209	-3.3569	-3.6926	-7.7209	-5.3711	-0.8392	-1.0071	-3.8605	47	275	174	2	1	2
11.5814	11.4136	9.3994	8.5602	5.2032	5.0354	2.182	-2.6855	0.8392	-0.6714	-8.2245	-3.6926	-3.8605	-7.5531	-5.3711	-0.8392	-0.8392	-3.8605	47	276	175	2	1	2
11.4136	11.0779	9.2316	9.0637	4.5319	4.5319	2.0142	-3.3569	0.1678	-0.8392	-8.728	-4.0283	-4.1962	-7.2174	-5.3711	-1.0071	-0.8392	-3.8605	47	277	176	2	1	2
11.4136	10.5743	8.8959	9.2316	3.8605	4.0283	1.8463	-4.1962	-0.3357	-1.1749	-9.2316	-4.5319	-4.5319	-6.8817	-5.5389	-1.0071	-0.8392	-4.0283	47	278	177	2	1	2
11.0779	10.0708	8.5602	9.7351	3.0212	3.5248	1.5106	-5.0354	-1.0071	-1.6785	-9.903	-5.0354	-4.8676	-6.3782	-5.7068	-1.3428	-0.8392	-4.364	47	279	178	2	1	2
10.5743	9.3994	8.0566	9.7351	2.182	2.8534	1.3428	-6.0425	-1.8463	-2.182	-10.5743	-5.7068	-5.5389	-6.0425	-5.8746	-1.6785	-1.0071	-4.6997	47	280	179	2	1	2
9.7351	8.3923	7.0496	9.5673	1.3428	2.182	0.8392	-6.7139	-2.5177	-2.8534	-11.2457	-6.2103	-5.8746	-5.3711	-6.0425	-1.8463	-1.0071	-4.8676	47	281	180	2	1	2
8.8959	7.5531	6.3782	9.3994	0.3357	1.1749	0.1678	-7.7209	-3.3569	-3.6926	-11.9171	-7.0496	-6.7139	-4.8676	-6.2103	-2.3499	-1.1749	-5.3711	47	282	181	2	1	2
7.7209	6.2103	5.3711	8.728	-0.6714	0.3357	-0.6714	-8.5602	-4.1962	-4.364	-12.4207	-7.5531	-7.2174	-4.1962	-6.2103	-2.5177	-1.5106	-5.5389	47	283	182	2	1	2
6.7139	5.2032	4.1962	8.0566	-1.6785	-0.8392	-1.6785	-9.3994	-5.2032	-5.3711	-12.9242	-8.3923	-8.0566	-3.6926	-6.546	-2.8534	-1.8463	-6.0425	47	284	183	2	1	2
5.2032	4.0283	3.0212	7.2174	-2.5177	-1.8463	-2.3499	-10.0708	-6.0425	-6.3782	-13.4277	-9.0637	-8.728	-3.0212	-6.546	-3.1891	-2.182	-6.2103	47	285	184	2	1	2
3.8605	2.8534	2.0142	6.2103	-3.3569	-3.0212	-3.5248	-10.91	-7.0496	-7.5531	-14.0991	-9.903	-9.5673	-2.5177	-6.8817	-3.5248	-2.5177	-6.7139	47	286	185	2	1	2
2.3499	1.6785	0.6714	5.2032	-4.1962	-4.0283	-4.364	-11.2457	-7.7209	-8.5602	-14.4348	-10.4065	-10.4065	-1.8463	-7.0496	-3.6926	-2.6855	-6.8817	47	287	186	2	1	2
1.1749	0.5035	-0.5035	4.0283	-4.8676	-4.8676	-5.5389	-11.7493	-8.728	-9.5673	-14.7705	-11.2457	-11.0779	-1.3428	-7.0496	-3.6926	-3.1891	-6.8817	47	288	187	2	1	2
-0.1678	-0.5035	-1.5106	2.8534	-5.3711	-5.8746	-6.546	-11.9171	-9.3994	-10.5743	-14.9384	-11.7493	-11.7493	-0.8392	-7.0496	-3.6926	-3.3569	-6.8817	47	289	188	2	1	2
-1.1749	-1.3428	-2.5177	1.5106	-6.0425	-6.8817	-7.7209	-12.4207	-10.4065	-11.7493	-15.1062	-12.4207	-12.5885	-0.3357	-7.2174	-3.6926	-3.6926	-7.0496	47	290	189	2	1	2
-2.3499	-2.0142	-3.5248	0.3357	-6.3782	-7.8888	-8.728	-12.4207	-10.91	-12.5885	-14.9384	-13.092	-13.2599	0	-7.2174	-3.5248	-4.0283	-6.8817	47	291	190	2	1	2
8.5602	6.2103	10.91	12.4207	5.2032	11.4136	10.5743	1.5106	6.0425	11.2457	0.6714	11.0779	12.9242	4.8676	12.5885	-0.8392	11.7493	-1.6785	47	231	130	3	1	2
8.2245	5.8746	10.7422	11.9171	5.3711	11.5814	10.4065	1.8463	6.3782	11.4136	0.8392	11.5814	13.092	4.6997	12.2528	-1.0071	11.2457	-1.8463	47	232	131	3	1	2
7.8888	5.7068	10.4065	11.4136	5.7068	11.7493	10.2386	2.3499	6.8817	11.5814	1.5106	11.9171	13.2599	4.5319	12.085	-1.0071	10.5743	-1.6785	47	233	132	3	1	2
7.5531	5.5389	10.0708	10.91	5.7068	11.9171	10.0708	3.0212	7.5531	11.5814	2.182	12.4207	13.2599	4.1962	11.7493	-0.8392	9.903	-1.5106	47	234	133	3	1	2
7.5531	5.3711	10.2386	10.7422	6.3782	12.2528	10.4065	3.8605	8.5602	12.085	2.8534	13.092	13.5956	4.0283	11.7493	-0.6714	9.3994	-1.3428	47	235	134	3	1	2
7.8888	5.5389	10.4065	10.91	6.8817	12.7563	10.5743	4.5319	9.2316	12.4207	3.6926	13.9313	14.267	3.8605	11.7493	-0.3357	9.2316	-1.0071	47	236	135	3	1	2
8.2245	6.0425	10.91	11.4136	7.7209	13.2599	11.0779	5.7068	10.4065	12.9242	4.6997	14.9384	14.7705	3.6926	11.7493	0.3357	9.0637	-0.5035	47	237	136	3	1	2
8.8959	6.3782	11.2457	11.7493	8.3923	13.7634	11.4136	6.8817	11.2457	13.4277	5.7068	15.6097	14.9384	3.3569	11.7493	0.6714	8.8959	0	47	238	137	3	1	2
9.7351	7.0496	11.9171	12.5885	9.3994	14.6027	12.085	8.3923	12.5885	14.0991	6.8817	16.6168	15.6097	3.1891	11.5814	1.3428	8.8959	0.6714	47	239	138	3	1	2
10.7422	7.8888	12.5885	13.4277	10.4065	15.4419	12.5885	9.5673	13.7634	14.7705	8.2245	17.6239	16.1133	3.0212	11.7493	2.0142	9.2316	1.1749	47	240	139	3	1	2
11.7493	8.5602	13.2599	14.267	11.5814	16.2811	13.2599	10.7422	14.7705	15.1062	9.2316	18.4631	16.6168	2.6855	11.7493	2.8534	9.3994	2.0142	47	241	140	3	1	2
12.7563	9.3994	14.0991	15.1062	12.4207	16.9525	13.7634	11.9171	15.7776	15.6097	10.2386	19.3024	16.9525	2.3499	11.5814	3.6926	9.5673	2.5177	47	242	141	3	1	2
13.9313	10.5743	15.1062	15.9454	13.5956	17.9596	14.6027	13.2599	16.7847	16.1133	11.0779	20.3094	17.2882	2.182	11.5814	4.364	10.0708	3.1891	47	243	142	3	1	2
14.9384	11.2457	15.9454	16.7847	14.6027	18.631	14.9384	14.267	17.7917	16.2811	11.9171	20.9808	17.4561	1.8463	11.2457	5.0354	10.2386	3.8605	47	244	143	3	1	2
16.1133	12.2528	16.9525	17.6239	15.6097	19.4702	15.274	15.1062	18.4631	16.6168	12.9242	21.4844	17.7917	1.6785	11.2457	5.8746	10.4065	4.364	47	245	144	3	1	2
17.1204	13.092	17.6239	18.2953	16.449	19.9738	15.6097	15.9454	19.3024	16.6168	13.4277	21.9879	17.6239	1.3428	10.7422	6.546	10.4065	4.8676	47	246	145	3	1	2
17.9596	13.9313	18.2953	18.9667	17.2882	20.6451	15.9454	16.7847	19.9738	16.7847	13.9313	22.4915	17.6239	1.1749	10.4065	7.2174	10.5743	5.2032	47	247	146	3	1	2
18.7988	14.7705	19.1345	19.6381	17.9596	21.3165	16.1133	17.4561	20.6451	16.7847	14.6027	22.8271	17.4561	1.0071	9.903	7.7209	10.5743	5.7068	47	248	147	3	1	2
19.4702	15.274	19.8059	20.1416	18.4631	21.8201	16.1133	17.7917	20.9808	16.449	14.9384	23.1628	17.2882	0.8392	9.3994	8.2245	10.5743	6.0425	47	249	148	3	1	2
20.1416	15.9454	20.4773	20.4773	18.9667	22.1558	16.1133	18.4631	21.3165	16.449	15.4419	23.4985	17.2882	0.6714	8.8959	8.8959	10.5743	6.546	47	250	149	3	1	2
20.4773	16.2811	20.813	20.6451	19.1345	22.3236	15.9454	18.631	21.6522	16.1133	15.6097	23.6664	16.7847	0.6714	8.3923	9.2316	10.4065	6.8817	47	251	150	3	1	2
20.813	16.6168	21.1487	20.813	19.4702	22.6593	15.7776	18.7988	21.9879	15.9454	15.9454	23.8342	16.6168	0.5035	7.8888	9.5673	10.2386	7.2174	47	252	151	3	1	2
20.9808	16.6168	21.3165	20.813	19.4702	22.4915	15.4419	18.7988	21.9879	15.4419	16.1133	23.8342	16.2811	0.5035	7.3853	9.903	9.7351	7.7209	47	253	152	3	1	2
20.813	16.7847	21.3165	20.6451	19.6381	22.4915	15.274	18.7988	21.9879	15.1062	16.1133	23.8342	15.9454	0.5035	7.0496	10.2386	9.5673	8.0566	47	254	153	3	1	2
20.813	16.7847	21.1487	20.3094	19.6381	22.4915	14.9384	18.7988	21.9879	14.7705	16.2811	23.8342	15.6097	0.3357	6.3782	10.4065	9.2316	8.2245	47	255	154	3	1	2
20.3094	16.7847	20.9808	19.9738	19.4702	21.9879	14.267	18.4631	21.8201	14.0991	16.1133	23.6664	15.1062	0.3357	6.0425	10.4065	8.728	8.3923	47	256	155	3	1	2
19.9738	16.6168	20.6451	19.6381	19.1345	21.6522	13.7634	18.2953	21.6522	13.7634	15.9454	23.4985	14.7705	0.1678	5.5389	10.4065	8.5602	8.5602	47	257	156	3	1	2
19.6381	16.2811	20.1416	19.1345	18.9667	21.3165	13.2599	17.9596	21.4844	13.2599	15.7776	23.3307	14.4348	0	5.0354	10.4065	8.2245	8.728	47	258	157	3	1	2
19.3024	15.9454	19.6381	18.4631	18.4631	20.6451	12.5885	17.6239	21.1487	12.7563	15.4419	23.1628	14.0991	-0.1678	4.6997	10.2386	7.8888	8.728	47	259	158	3	1	2
18.7988	15.7776	19.3024	17.9596	18.1274	20.1416	12.085	17.1204	20.6451	12.2528	15.1062	22.6593	13.5956	-0.3357	4.364	9.903	7.7209	8.5602	47	260	159	3	1	2
18.1274	15.274	18.631	17.2882	17.6239	19.4702	11.4136	16.7847	20.3094	11.9171	14.6027	22.3236	13.2599	-0.5035	3.8605	9.5673	7.0496	8.3923	47	261	160	3	1	2
17.6239	14.9384	18.1274	16.6168	17.1204	18.7988	10.91	16.2811	19.8059	11.4136	14.267	21.9879	12.7563	-0.6714	3.5248	9.2316	6.8817	8.2245	47	262	161	3	1	2
17.1204	14.6027	17.4561	15.7776	16.6168	18.1274	10.2386	15.7776	19.3024	10.91	13.7634	21.4844	12.4207	-0.8392	3.1891	8.8959	6.7139	8.0566	47	263	162	3	1	2
16.449	13.9313	16.7847	14.9384	16.1133	17.4561	9.7351	15.274	18.7988	10.4065	13.2599	20.9808	12.085	-1.0071	3.0212	8.3923	6.3782	7.8888	47	264	163	3	1	2
15.7776	13.4277	16.1133	14.0991	15.4419	16.6168	9.0637	14.7705	18.1274	9.903	12.7563	20.3094	11.5814	-1.1749	2.8534	7.8888	6.2103	7.7209	47	265	164	3	1	2
14.9384	12.5885	15.274	13.092	14.7705	15.9454	8.3923	14.267	17.4561	9.3994	12.2528	19.6381	11.4136	-1.1749	3.0212	7.2174	6.2103	7.3853	47	266	165	3	1	2
14.4348	12.2528	14.6027	12.4207	14.267	15.274	8.0566	13.9313	16.7847	8.728	11.9171	19.3024	10.91	-1.3428	2.6855	6.7139	6.2103	7.2174	47	267	166	3	1	2
13.7634	11.4136	13.9313	11.4136	13.5956	14.4348	7.3853	13.4277	16.1133	8.2245	11.5814	18.631	10.7422	-1.3428	2.6855	6.3782	6.0425	7.2174	47	268	167	3	1	2
13.092	10.7422	13.092	10.5743	12.7563	13.5956	6.546	13.092	15.4419	7.8888	11.0779	17.9596	10.2386	-1.3428	2.6855	5.8746	5.8746	6.8817	47	269	168	3	1	2
12.4207	10.0708	12.5885	9.903	12.2528	12.9242	6.2103	12.5885	14.7705	7.3853	10.7422	17.2882	10.0708	-1.1749	2.8534	5.3711	5.7068	6.7139	47	270	169	3	1	2
11.7493	9.5673	11.9171	9.2316	11.7493	12.4207	5.8746	12.2528	14.267	7.2174	10.5743	16.7847	9.903	-1.0071	3.1891	5.2032	5.7068	6.8817	47	271	170	3	1	2
11.2457	8.728	11.2457	8.5602	10.91	11.5814	5.3711	11.9171	13.5956	6.8817	10.2386	16.2811	9.7351	-0.8392	3.3569	4.6997	5.5389	6.7139	47	272	171	3	1	2
10.5743	8.0566	10.4065	7.8888	10.4065	10.91	4.8676	11.5814	12.9242	6.7139	10.0708	15.7776	9.7351	-0.5035	4.0283	4.364	5.7068	6.8817	47	273	172	3	1	2
10.0708	7.3853	9.903	7.5531	9.903	10.4065	4.5319	11.4136	12.4207	6.7139	10.2386	15.4419	9.7351	-0.1678	4.5319	4.0283	5.5389	6.8817	47	274	173	3	1	2
9.2316	6.8817	9.2316	7.0496	9.3994	9.903	4.364	11.0779	11.9171	6.2103	10.0708	15.274	9.5673	0	4.8676	4.0283	5.5389	7.2174	47	275	174	3	1	2
8.728	6.2103	8.5602	6.7139	9.0637	9.2316	4.1962	10.91	11.4136	6.2103	9.903	14.7705	9.5673	0.3357	5.3711	3.6926	5.3711	7.3853	47	276	175	3	1	2
8.0566	5.7068	8.0566	6.3782	8.3923	8.5602	3.6926	10.5743	10.7422	6.0425	10.0708	14.6027	9.5673	0.6714	5.7068	3.6926	5.5389	7.7209	47	277	176	3	1	2
7.2174	4.6997	7.0496	6.0425	7.8888	7.7209	3.3569	10.2386	10.2386	5.8746	9.903	14.0991	9.5673	1.0071	6.2103	3.3569	5.3711	7.7209	47	278	177	3	1	2
6.546	4.364	6.546	5.5389	7.3853	7.3853	2.8534	9.903	9.5673	5.5389	10.0708	13.9313	9.2316	1.1749	6.2103	3.3569	5.2032	8.0566	47	279	178	3	1	2
5.8746	3.6926	5.8746	5.2032	6.8817	6.546	2.5177	9.3994	8.8959	5.2032	10.0708	13.7634	9.2316	1.3428	6.3782	3.3569	4.8676	8.3923	47	280	179	3	1	2
5.3711	3.1891	5.3711	4.8676	6.3782	6.0425	2.0142	9.2316	8.3923	4.8676	10.0708	13.4277	9.0637	1.6785	6.3782	3.3569	4.8676	8.5602	47	281	180	3	1	2
4.8676	2.6855	4.6997	4.6997	6.0425	5.3711	1.6785	8.8959	7.8888	4.5319	10.2386	13.2599	9.0637	1.8463	6.546	3.6926	4.6997	8.8959	47	282	181	3	1	2
4.5319	2.3499	4.0283	4.364	5.5389	4.6997	0.8392	8.728	7.5531	4.364	10.2386	13.092	8.728	1.8463	6.546	3.6926	4.5319	9.0637	47	283	182	3	1	2
4.1962	2.0142	3.6926	3.8605	5.3711	4.0283	0.5035	8.3923	7.0496	3.8605	10.4065	12.9242	8.5602	1.8463	6.546	3.6926	4.1962	9.2316	47	284	183	3	1	2
3.8605	1.5106	3.1891	3.6926	4.8676	3.6926	0	8.2245	6.546	3.6926	10.5743	12.9242	8.728	1.8463	6.546	4.0283	3.8605	9.7351	47	285	184	3	1	2
3.5248	1.3428	2.8534	3.5248	4.8676	3.1891	-0.3357	8.0566	6.3782	3.3569	10.7422	12.9242	8.5602	1.8463	6.546	4.0283	3.5248	9.903	47	286	185	3	1	2
3.3569	1.0071	2.3499	3.3569	4.5319	2.6855	-0.6714	7.8888	6.0425	3.1891	10.91	13.092	8.5602	1.8463	6.7139	4.1962	3.1891	10.2386	47	287	186	3	1	2
3.0212	0.6714	1.8463	3.1891	4.1962	2.182	-1.0071	7.5531	5.8746	2.8534	11.0779	13.092	8.5602	1.6785	6.7139	4.1962	3.0212	10.4065	47	288	187	3	1	2
2.6855	0.5035	1.6785	3.0212	3.8605	1.8463	-1.5106	7.3853	5.5389	2.6855	11.2457	13.092	8.728	1.6785	6.7139	4.364	2.6855	10.5743	47	289	188	3	1	2
2.5177	0.1678	1.3428	3.0212	3.6926	1.3428	-1.6785	7.2174	5.3711	2.3499	11.4136	13.2599	8.728	1.6785	6.7139	4.364	2.5177	10.7422	47	290	189	3	1	2
2.3499	-0.1678	1.0071	2.8534	3.3569	1.1749	-1.8463	7.0496	5.2032	2.182	11.5814	13.4277	8.8959	1.6785	6.8817	4.5319	2.3499	10.91	47	291	190	3	1	2
1.5106	4.8676	3.3569	-4.1962	4.5319	6.7139	4.6997	8.728	13.2599	12.085	17.7917	21.6522	22.3236	0.6714	19.4702	8.3923	8.3923	16.1133	47	231	130	4	1	2
1.0071	4.5319	3.0212	-4.6997	4.364	6.3782	4.0283	8.3923	12.5885	11.0779	17.4561	20.813	21.3165	0.5035	18.631	8.5602	7.5531	16.2811	47	232	131	4	1	2
0.1678	4.0283	2.3499	-5.3711	3.8605	5.7068	3.0212	7.8888	11.7493	10.0708	17.1204	20.3094	20.3094	0.5035	17.9596	8.728	7.0496	16.2811	47	233	132	4	1	2
-0.5035	3.5248	1.8463	-5.7068	3.6926	5.0354	2.3499	7.7209	11.0779	9.2316	16.449	19.4702	19.3024	0.3357	16.9525	8.5602	6.2103	16.1133	47	234	133	4	1	2
-1.0071	3.1891	1.5106	-6.0425	3.3569	4.5319	1.8463	7.5531	10.2386	8.3923	16.2811	18.7988	18.4631	0.3357	16.449	8.8959	5.7068	16.2811	47	235	134	4	1	2
-1.5106	2.6855	1.1749	-6.2103	3.1891	4.1962	1.5106	7.3853	9.5673	7.5531	15.9454	18.1274	17.4561	0.3357	15.6097	8.8959	5.0354	16.1133	47	236	135	4	1	2
-2.0142	2.3499	0.8392	-6.2103	3.0212	3.8605	1.0071	7.3853	9.3994	7.2174	15.9454	17.6239	16.9525	0.5035	15.274	9.3994	4.8676	16.449	47	237	136	4	1	2
-2.182	2.0142	0.6714	-6.2103	2.8534	3.5248	0.6714	7.2174	8.8959	6.7139	15.7776	17.2882	16.449	0.5035	14.6027	9.5673	4.5319	16.449	47	238	137	4	1	2
-2.5177	2.0142	0.6714	-5.8746	3.1891	3.5248	0.8392	7.5531	8.5602	6.3782	15.6097	16.7847	15.7776	0.5035	13.9313	9.5673	3.8605	16.2811	47	239	138	4	1	2
-2.5177	1.6785	0.6714	-5.5389	3.0212	3.3569	0.6714	7.7209	8.5602	6.0425	15.7776	16.6168	15.4419	0.6714	13.4277	9.7351	3.6926	16.449	47	240	139	4	1	2
-2.5177	1.8463	0.8392	-5.0354	3.3569	3.5248	0.8392	7.8888	8.3923	6.0425	15.6097	16.1133	14.7705	0.6714	12.9242	9.7351	3.1891	16.1133	47	241	140	4	1	2
-2.5177	1.8463	1.0071	-4.6997	3.5248	3.3569	1.0071	8.3923	8.5602	6.0425	15.7776	16.1133	14.6027	0.8392	12.2528	9.903	3.1891	16.2811	47	242	141	4	1	2
-2.182	2.0142	1.5106	-4.1962	4.0283	3.6926	1.3428	8.728	8.5602	6.2103	15.9454	15.9454	14.267	0.8392	11.5814	10.0708	2.8534	16.1133	47	243	142	4	1	2
-1.8463	2.182	1.8463	-3.6926	4.364	3.8605	1.6785	9.2316	8.8959	6.2103	16.1133	15.9454	13.9313	0.8392	11.0779	10.0708	2.6855	16.1133	47	244	143	4	1	2
-1.3428	2.5177	2.182	-3.0212	4.6997	4.1962	2.0142	9.7351	9.2316	6.546	16.449	16.1133	13.7634	0.8392	10.4065	10.2386	2.5177	16.1133	47	245	144	4	1	2
-1.0071	2.8534	2.6855	-2.5177	5.2032	4.5319	2.3499	10.2386	9.7351	6.8817	16.7847	16.2811	13.7634	0.8392	9.903	10.4065	2.3499	16.2811	47	246	145	4	1	2
-0.5035	3.1891	3.0212	-2.0142	5.8746	4.8676	2.8534	10.7422	10.0708	7.0496	17.1204	16.6168	13.7634	0.6714	9.5673	10.5743	2.3499	16.2811	47	247	146	4	1	2
0	3.5248	3.3569	-1.6785	6.3782	5.2032	3.1891	11.5814	10.91	7.5531	17.9596	16.9525	14.0991	0.6714	9.2316	10.91	2.5177	16.6168	47	248	147	4	1	2
0.6714	4.0283	4.0283	-1.1749	7.0496	5.7068	3.8605	11.9171	11.2457	8.0566	18.1274	17.2882	14.0991	0.3357	8.728	11.0779	2.3499	16.6168	47	249	148	4	1	2
1.3428	4.8676	4.6997	-0.5035	7.8888	6.3782	4.5319	12.7563	12.085	8.728	18.7988	17.7917	14.4348	0.1678	8.5602	11.4136	2.6855	16.9525	47	250	149	4	1	2
2.0142	5.5389	5.2032	-0.1678	8.728	6.7139	5.0354	13.5956	13.092	9.5673	19.4702	18.631	14.9384	0	8.5602	11.9171	2.8534	17.4561	47	251	150	4	1	2
2.8534	6.3782	5.8746	0.6714	9.3994	7.3853	5.8746	14.0991	13.7634	10.2386	19.8059	18.9667	15.274	-0.3357	8.3923	12.085	3.1891	17.4561	47	252	151	4	1	2
3.5248	7.0496	6.546	1.3428	10.0708	7.8888	6.546	14.4348	14.4348	10.91	20.3094	19.6381	15.7776	-0.6714	8.5602	12.2528	3.5248	17.7917	47	253	152	4	1	2
4.1962	7.7209	7.0496	1.8463	10.7422	8.3923	7.0496	15.1062	15.274	11.7493	20.813	20.3094	16.449	-0.8392	8.728	12.7563	4.1962	18.1274	47	254	153	4	1	2
5.0354	8.5602	7.7209	2.8534	11.4136	9.0637	8.0566	15.7776	16.1133	12.4207	21.3165	20.9808	17.1204	-1.0071	8.8959	13.092	4.8676	18.2953	47	255	154	4	1	2
5.7068	9.2316	8.2245	3.5248	11.7493	9.5673	8.5602	15.9454	16.6168	12.9242	21.3165	21.4844	17.4561	-1.3428	9.0637	13.092	5.3711	18.2953	47	256	155	4	1	2
6.2103	9.903	8.728	4.1962	12.4207	10.0708	9.2316	16.2811	17.2882	13.5956	21.8201	21.9879	18.1274	-1.3428	9.2316	13.4277	6.0425	18.631	47	257	156	4	1	2
6.546	10.2386	8.728	4.6997	12.4207	10.2386	9.5673	16.6168	17.7917	13.9313	21.6522	22.3236	18.4631	-1.5106	9.2316	13.4277	6.546	18.4631	47	258	157	4	1	2
6.8817	10.4065	9.2316	5.2032	12.4207	10.4065	10.0708	16.449	17.9596	14.0991	21.4844	22.4915	18.631	-1.6785	9.0637	13.092	6.7139	18.1274	47	259	158	4	1	2
7.0496	10.5743	9.0637	5.3711	12.4207	10.5743	10.0708	16.449	18.2953	14.267	21.4844	22.6593	18.7988	-1.6785	9.0637	12.9242	6.8817	17.9596	47	260	159	4	1	2
6.8817	10.7422	9.0637	5.2032	12.4207	10.5743	10.0708	16.1133	18.2953	14.0991	21.1487	22.4915	18.7988	-1.6785	8.8959	12.5885	6.7139	17.7917	47	261	160	4	1	2
6.546	10.5743	8.728	4.8676	12.085	10.2386	9.7351	15.7776	18.2953	13.9313	20.6451	22.4915	18.631	-1.6785	8.728	12.085	6.7139	17.2882	47	262	161	4	1	2
6.2103	10.4065	8.2245	4.364	11.9171	9.903	9.3994	15.6097	18.1274	13.5956	20.4773	22.3236	18.631	-1.5106	8.728	11.7493	6.3782	16.9525	47	263	162	4	1	2
5.8746	9.903	7.7209	4.0283	11.4136	9.5673	9.0637	14.9384	17.7917	13.2599	19.8059	21.9879	18.2953	-1.5106	8.5602	10.91	6.0425	16.2811	47	264	163	4	1	2
5.0354	9.3994	7.2174	3.0212	10.91	9.0637	8.2245	14.7705	17.7917	12.7563	19.1345	21.6522	17.9596	-1.3428	8.3923	10.2386	5.7068	15.7776	47	265	164	4	1	2
4.5319	8.8959	6.3782	2.0142	10.4065	8.728	7.7209	14.267	17.2882	12.2528	18.631	21.1487	17.6239	-1.1749	8.2245	9.7351	5.2032	15.274	47	266	165	4	1	2
3.8605	8.3923	5.8746	1.3428	9.903	8.2245	7.0496	13.5956	16.9525	11.5814	18.1274	20.813	17.1204	-1.0071	8.3923	8.8959	5.0354	14.7705	47	267	166	4	1	2
3.1891	7.7209	5.2032	0.3357	9.2316	7.7209	6.3782	12.9242	16.2811	10.7422	17.2882	19.9738	16.449	-1.0071	8.0566	8.0566	4.5319	14.0991	47	268	167	4	1	2
2.5177	7.0496	4.5319	-0.6714	8.8959	7.3853	5.5389	12.5885	15.9454	10.4065	16.7847	19.6381	16.2811	-0.8392	8.2245	7.5531	4.364	13.7634	47	269	168	4	1	2
2.0142	6.7139	4.1962	-1.3428	8.3923	6.8817	5.2032	11.9171	15.274	9.7351	16.1133	18.9667	15.6097	-0.8392	8.2245	6.8817	3.8605	13.092	47	270	169	4	1	2
1.6785	6.2103	3.6926	-2.182	7.7209	6.3782	4.5319	11.5814	14.9384	9.3994	15.6097	18.631	15.274	-0.6714	8.5602	6.3782	3.6926	12.9242	47	271	170	4	1	2
1.3428	5.5389	3.5248	-2.8534	7.2174	6.2103	4.0283	10.91	14.4348	8.728	14.9384	17.9596	14.7705	-0.6714	8.728	5.7068	3.5248	12.4207	47	272	171	4	1	2
1.1749	5.0354	3.1891	-3.5248	6.7139	5.7068	3.5248	10.5743	13.9313	8.3923	14.6027	17.2882	14.4348	-0.6714	8.8959	5.3711	3.1891	12.085	47	273	172	4	1	2
0.8392	4.364	2.8534	-4.1962	6.3782	5.3711	3.1891	9.903	13.2599	7.8888	14.0991	16.9525	14.0991	-0.6714	9.0637	5.0354	3.0212	11.7493	47	274	173	4	1	2
0.8392	4.0283	2.6855	-4.5319	5.7068	5.2032	2.6855	9.5673	12.9242	7.5531	13.7634	16.449	13.7634	-0.6714	9.3994	4.8676	2.8534	11.5814	47	275	174	4	1	2
0.8392	3.6926	2.6855	-5.2032	5.3711	4.8676	2.3499	9.2316	12.4207	7.2174	13.2599	15.9454	13.4277	-0.6714	9.7351	4.5319	2.6855	11.2457	47	276	175	4	1	2
0.8392	3.3569	2.5177	-5.5389	5.0354	4.5319	2.182	8.8959	11.9171	7.0496	12.9242	15.4419	13.092	-0.6714	10.0708	4.364	2.5177	11.0779	47	277	176	4	1	2
1.0071	3.0212	2.5177	-5.7068	4.8676	4.5319	2.0142	8.3923	11.4136	6.7139	12.5885	14.9384	12.9242	-0.8392	10.0708	4.364	2.3499	10.7422	47	278	177	4	1	2
1.3428	2.6855	2.6855	-6.0425	4.5319	4.1962	1.6785	8.2245	11.0779	6.7139	12.5885	14.7705	12.7563	-0.8392	10.4065	4.364	2.182	10.7422	47	279	178	4	1	2
1.6785	2.6855	2.8534	-6.0425	4.6997	4.364	1.6785	8.0566	10.5743	6.546	12.5885	14.4348	12.7563	-1.0071	10.5743	4.6997	2.0142	10.7422	47	280	179	4	1	2
2.0142	2.6855	3.0212	-6.0425	4.6997	4.1962	1.8463	8.2245	10.5743	6.8817	12.7563	14.4348	12.9242	-1.0071	10.91	4.8676	1.8463	10.91	47	281	180	4	1	2
2.5177	2.8534	3.3569	-5.7068	4.8676	4.5319	2.0142	8.0566	10.2386	6.7139	12.7563	14.267	12.7563	-1.1749	11.2457	5.2032	1.8463	11.0779	47	282	181	4	1	2
3.0212	3.0212	3.6926	-5.7068	4.8676	4.364	2.0142	8.3923	10.2386	7.0496	13.092	14.6027	13.092	-1.1749	11.4136	5.7068	1.6785	11.4136	47	283	182	4	1	2
3.5248	3.3569	4.0283	-5.2032	5.3711	4.5319	2.3499	8.3923	9.903	7.2174	13.2599	14.6027	13.2599	-1.3428	11.5814	6.2103	1.5106	11.7493	47	284	183	4	1	2
3.6926	3.6926	4.364	-5.0354	5.7068	4.6997	2.5177	8.728	9.903	7.3853	13.5956	14.7705	13.5956	-1.5106	11.7493	6.7139	1.5106	12.085	47	285	184	4	1	2
4.1962	3.6926	4.364	-4.8676	5.8746	4.5319	2.5177	9.0637	9.903	7.7209	13.9313	15.1062	13.9313	-1.5106	11.9171	7.0496	1.5106	12.4207	47	286	185	4	1	2
4.364	4.364	4.8676	-4.1962	6.3782	4.8676	3.0212	9.3994	10.0708	8.0566	14.267	15.274	14.0991	-1.6785	11.9171	7.5531	1.3428	12.7563	47	287	186	4	1	2
4.6997	4.5319	5.0354	-3.8605	6.7139	4.8676	3.1891	9.7351	10.0708	8.3923	14.7705	15.9454	14.6027	-1.6785	12.2528	8.3923	1.5106	13.2599	47	288	187	4	1	2
5.2032	5.2032	5.5389	-2.8534	7.2174	5.0354	3.6926	10.2386	10.4065	8.8959	15.274	16.449	15.1062	-1.6785	12.2528	9.0637	1.6785	13.7634	47	289	188	4	1	2
5.5389	5.7068	5.8746	-2.0142	7.7209	5.3711	4.1962	10.7422	10.7422	9.3994	15.7776	16.9525	15.7776	-1.6785	12.4207	9.5673	1.8463	14.267	47	290	189	4	1	2
6.0425	6.3782	6.3782	-1.0071	8.3923	5.7068	5.0354	11.4136	11.2457	10.0708	16.449	17.6239	16.449	-1.6785	12.5885	10.2386	2.0142	14.9384	47	291	190	4	1	2
18.1274	2.182	12.4207	22.995	-2.8534	5.3711	15.7776	-4.0283	3.6926	16.449	-2.5177	9.0637	24.0021	-0.6714	20.4773	-1.8463	23.3307	-1.1749	47	231	130	5	1	2
16.6168	1.3428	11.2457	21.4844	-3.5248	4.364	14.4348	-4.6997	2.8534	15.6097	-2.8534	8.728	23.6664	-0.1678	20.813	-2.182	23.4985	-1.5106	47	232	131	5	1	2
15.1062	0.3357	9.903	20.1416	-4.1962	3.1891	13.2599	-5.2032	2.0142	14.6027	-3.1891	8.2245	23.3307	0.1678	21.1487	-2.6855	23.4985	-1.6785	47	233	132	5	1	2
13.9313	-0.6714	8.5602	18.9667	-4.8676	2.0142	12.085	-5.7068	1.3428	13.7634	-3.3569	7.8888	22.995	0.5035	21.4844	-2.8534	23.6664	-1.8463	47	234	133	5	1	2
12.085	-1.8463	7.0496	17.4561	-5.5389	0.5035	10.7422	-6.3782	0.1678	12.9242	-3.6926	7.3853	22.4915	0.8392	21.8201	-3.1891	23.4985	-2.0142	47	235	134	5	1	2
10.5743	-2.8534	5.3711	15.7776	-6.3782	-0.8392	9.3994	-6.8817	-0.8392	11.7493	-4.0283	6.546	21.9879	1.1749	21.9879	-3.3569	23.6664	-2.3499	47	236	135	5	1	2
8.728	-4.0283	3.3569	14.4348	-7.2174	-2.6855	7.7209	-7.7209	-2.0142	10.5743	-4.5319	5.7068	21.3165	1.5106	21.8201	-3.6926	23.4985	-2.6855	47	237	136	5	1	2
7.0496	-5.3711	1.8463	12.9242	-8.2245	-4.364	6.2103	-8.0566	-3.0212	9.3994	-4.8676	4.8676	20.6451	1.6785	21.9879	-3.8605	23.4985	-2.8534	47	238	137	5	1	2
5.3711	-6.546	-0.1678	11.5814	-9.0637	-5.8746	5.0354	-8.8959	-4.364	8.2245	-5.3711	3.8605	19.9738	2.0142	21.8201	-4.1962	23.3307	-3.1891	47	239	138	5	1	2
3.5248	-7.8888	-2.182	10.0708	-10.2386	-7.5531	3.5248	-9.3994	-5.5389	7.2174	-5.7068	3.0212	19.4702	2.182	21.8201	-4.364	23.3307	-3.5248	47	240	139	5	1	2
1.8463	-9.0637	-4.0283	8.728	-11.0779	-9.2316	2.182	-10.0708	-6.7139	5.8746	-6.3782	2.0142	18.4631	2.5177	21.4844	-4.8676	22.995	-3.8605	47	241	140	5	1	2
0.1678	-10.4065	-6.2103	7.2174	-12.085	-11.2457	0.6714	-10.7422	-8.0566	4.6997	-6.7139	1.1749	17.7917	2.6855	21.3165	-4.8676	22.995	-3.8605	47	242	141	5	1	2
-1.3428	-11.4136	-8.0566	5.8746	-12.9242	-12.7563	-0.5035	-11.2457	-9.0637	3.5248	-7.2174	0.1678	16.9525	3.0212	20.813	-5.3711	22.8271	-4.364	47	243	142	5	1	2
-3.0212	-12.5885	-9.7351	4.5319	-13.9313	-14.267	-1.8463	-11.5814	-10.2386	2.5177	-7.3853	-0.6714	16.2811	3.1891	20.4773	-5.3711	22.8271	-4.364	47	244	143	5	1	2
-4.5319	-13.7634	-11.7493	3.3569	-14.9384	-15.9454	-2.8534	-12.2528	-11.4136	1.6785	-7.8888	-1.5106	15.4419	3.3569	20.1416	-5.7068	22.4915	-4.5319	47	245	144	5	1	2
-6.0425	-14.7705	-13.4277	2.182	-15.6097	-17.4561	-4.0283	-12.5885	-12.4207	0.5035	-8.2245	-2.3499	14.7705	3.5248	19.6381	-5.7068	22.3236	-4.5319	47	246	145	5	1	2
-7.3853	-15.7776	-15.1062	1.1749	-16.449	-18.631	-4.8676	-12.9242	-13.2599	-0.1678	-8.728	-3.1891	13.7634	3.6926	19.1345	-6.0425	21.8201	-4.8676	47	247	146	5	1	2
-8.728	-16.7847	-16.7847	0.1678	-17.2882	-20.1416	-6.0425	-13.5956	-14.4348	-1.1749	-9.0637	-4.1962	12.9242	3.6926	18.631	-6.2103	21.4844	-5.2032	47	248	147	5	1	2
-9.903	-17.4561	-18.1274	-0.6714	-17.9596	-21.4844	-6.7139	-13.9313	-15.274	-2.0142	-9.3994	-4.8676	12.2528	3.6926	17.9596	-6.2103	21.3165	-5.2032	47	249	148	5	1	2
-11.0779	-18.4631	-19.6381	-1.8463	-18.7988	-22.6593	-7.5531	-14.6027	-16.2811	-2.8534	-9.903	-5.7068	11.4136	3.5248	17.2882	-6.3782	20.9808	-5.3711	47	250	149	5	1	2
-11.9171	-18.9667	-20.4773	-2.3499	-19.3024	-23.6664	-8.0566	-14.9384	-17.1204	-3.5248	-10.4065	-6.7139	10.4065	3.5248	16.6168	-6.7139	20.4773	-5.7068	47	251	150	5	1	2
-12.5885	-19.4702	-21.4844	-2.8534	-19.8059	-24.5056	-8.728	-15.4419	-17.9596	-4.0283	-10.91	-7.3853	9.5673	3.3569	15.6097	-6.7139	20.1416	-5.8746	47	252	151	5	1	2
-13.2599	-19.8059	-22.1558	-3.3569	-20.3094	-25.177	-9.0637	-15.7776	-18.7988	-4.6997	-11.5814	-8.3923	8.5602	3.1891	14.6027	-6.7139	19.9738	-6.0425	47	253	152	5	1	2
-13.5956	-20.1416	-22.8271	-3.6926	-20.9808	-25.8484	-9.3994	-16.6168	-19.6381	-5.2032	-12.085	-9.2316	7.8888	2.8534	13.9313	-6.7139	19.4702	-6.2103	47	254	153	5	1	2
-13.7634	-20.1416	-23.1628	-3.6926	-21.3165	-26.3519	-9.7351	-16.9525	-20.3094	-5.7068	-12.7563	-10.0708	6.8817	2.6855	12.5885	-7.0496	18.9667	-6.7139	47	255	154	5	1	2
-13.9313	-20.4773	-23.6664	-4.0283	-21.8201	-26.8555	-9.7351	-17.6239	-21.1487	-6.2103	-13.2599	-11.0779	5.7068	2.3499	11.5814	-7.0496	18.4631	-7.0496	47	256	155	5	1	2
-13.9313	-20.4773	-23.8342	-3.8605	-22.1558	-27.1912	-9.7351	-18.1274	-21.4844	-6.3782	-13.7634	-11.9171	4.8676	2.182	10.4065	-7.2174	17.7917	-7.3853	47	257	156	5	1	2
-13.7634	-20.6451	-23.8342	-3.8605	-22.4915	-27.359	-9.903	-18.7988	-22.1558	-6.7139	-14.4348	-12.7563	4.0283	1.8463	9.3994	-7.2174	17.1204	-7.5531	47	258	157	5	1	2
-13.5956	-20.6451	-24.0021	-3.5248	-22.6593	-27.5269	-9.903	-19.4702	-22.6593	-7.2174	-15.1062	-13.5956	3.1891	1.5106	8.0566	-7.2174	16.449	-7.8888	47	259	158	5	1	2
-13.4277	-20.3094	-23.6664	-3.1891	-22.995	-27.6947	-9.5673	-19.8059	-22.995	-7.2174	-15.4419	-14.267	2.5177	1.1749	7.0496	-7.2174	15.6097	-8.2245	47	260	159	5	1	2
-12.9242	-20.1416	-23.6664	-2.6855	-23.1628	-27.6947	-9.3994	-20.3094	-23.3307	-7.3853	-15.9454	-15.1062	1.6785	0.8392	5.8746	-7.3853	14.7705	-8.2245	47	261	160	5	1	2
-12.085	-19.8059	-23.1628	-2.0142	-22.8271	-27.1912	-8.8959	-20.3094	-23.4985	-7.2174	-16.1133	-15.4419	1.3428	0.6714	5.2032	-7.3853	13.9313	-8.2245	47	262	161	5	1	2
-11.4136	-19.3024	-22.6593	-1.3428	-22.6593	-27.0233	-8.3923	-20.4773	-23.4985	-6.8817	-16.449	-15.9454	0.8392	0.3357	4.364	-7.2174	13.092	-8.0566	47	263	162	5	1	2
-10.5743	-18.7988	-21.9879	-0.5035	-22.6593	-26.8555	-7.8888	-20.6451	-23.4985	-6.7139	-16.6168	-16.6168	0.3357	0	3.6926	-7.0496	12.2528	-7.8888	47	264	163	5	1	2
-9.7351	-18.4631	-21.4844	0	-22.4915	-26.5198	-7.3853	-20.6451	-23.4985	-6.546	-16.9525	-16.9525	0.1678	-0.3357	2.8534	-6.7139	11.5814	-7.7209	47	265	164	5	1	2
-9.2316	-18.1274	-21.3165	0.6714	-22.4915	-26.3519	-6.8817	-20.9808	-23.4985	-6.2103	-17.4561	-17.6239	-0.3357	-0.8392	2.182	-6.546	10.5743	-7.5531	47	266	165	5	1	2
-8.3923	-17.7917	-20.6451	1.5106	-22.3236	-26.0162	-6.2103	-20.9808	-23.4985	-6.0425	-17.4561	-17.9596	-0.6714	-1.1749	1.6785	-6.2103	9.7351	-7.3853	47	267	166	5	1	2
-7.3853	-17.4561	-19.9738	2.3499	-21.9879	-25.5127	-5.7068	-20.813	-23.3307	-5.5389	-17.6239	-18.4631	-0.8392	-1.5106	1.3428	-5.8746	9.2316	-6.8817	47	268	167	5	1	2
-6.7139	-16.9525	-19.3024	3.0212	-21.6522	-25.177	-5.0354	-20.813	-23.1628	-5.0354	-17.6239	-18.631	-0.8392	-1.8463	1.0071	-5.5389	8.728	-6.546	47	269	168	5	1	2
-6.0425	-16.449	-18.631	3.6926	-21.3165	-24.6735	-4.5319	-20.813	-22.995	-4.5319	-17.7917	-19.1345	-0.8392	-2.182	0.8392	-5.0354	8.2245	-6.2103	47	270	169	5	1	2
-4.8676	-15.7776	-17.7917	4.5319	-20.813	-24.0021	-3.6926	-20.3094	-22.3236	-3.8605	-17.6239	-19.1345	-0.6714	-2.3499	0.8392	-4.8676	8.0566	-5.8746	47	271	170	5	1	2
-4.1962	-15.274	-17.2882	5.2032	-20.3094	-23.4985	-3.0212	-20.1416	-22.1558	-3.0212	-17.7917	-19.4702	-0.6714	-2.6855	0.6714	-4.1962	7.7209	-5.3711	47	272	171	5	1	2
-3.1891	-14.7705	-16.449	6.0425	-19.8059	-22.8271	-2.182	-19.6381	-21.6522	-2.3499	-17.9596	-19.6381	-0.5035	-2.8534	0.8392	-3.8605	7.7209	-5.0354	47	273	172	5	1	2
-2.5177	-14.267	-15.6097	6.7139	-19.3024	-22.1558	-1.5106	-19.4702	-21.3165	-1.6785	-17.9596	-19.9738	-0.1678	-3.0212	0.6714	-3.5248	7.5531	-4.5319	47	274	173	5	1	2
-1.5106	-13.5956	-14.4348	7.7209	-18.631	-21.1487	-0.5035	-18.7988	-20.9808	-0.8392	-17.7917	-20.1416	0	-3.0212	1.0071	-3.3569	7.7209	-4.364	47	275	174	5	1	2
-0.6714	-13.092	-13.5956	8.3923	-17.9596	-20.4773	0.1678	-18.631	-20.4773	-0.1678	-17.9596	-20.3094	0.1678	-3.1891	1.1749	-2.8534	7.5531	-4.0283	47	276	175	5	1	2
0.5035	-12.085	-12.2528	9.3994	-17.1204	-19.4702	1.0071	-18.1274	-19.9738	0.5035	-17.9596	-20.6451	0.5035	-3.1891	1.3428	-2.5177	7.8888	-3.6926	47	277	176	5	1	2
1.8463	-11.2457	-11.0779	10.5743	-16.6168	-18.4631	2.0142	-17.6239	-19.4702	1.3428	-17.7917	-20.813	0.6714	-3.1891	1.3428	-2.3499	8.0566	-3.3569	47	278	177	5	1	2
3.1891	-10.2386	-9.7351	11.5814	-15.6097	-17.2882	2.8534	-17.1204	-18.7988	2.182	-17.7917	-20.9808	0.8392	-3.1891	1.5106	-2.182	8.2245	-3.1891	47	279	178	5	1	2
4.5319	-9.0637	-8.0566	12.5885	-14.4348	-15.9454	3.8605	-16.449	-18.1274	3.0212	-17.6239	-20.9808	1.1749	-3.0212	2.0142	-2.0142	8.728	-3.0212	47	280	179	5	1	2
6.2103	-7.7209	-6.3782	13.7634	-13.4277	-14.6027	4.6997	-15.7776	-17.4561	3.8605	-17.2882	-20.9808	1.5106	-2.8534	2.182	-1.8463	9.0637	-2.6855	47	281	180	5	1	2
7.5531	-6.546	-5.0354	14.7705	-12.4207	-13.2599	5.3711	-14.9384	-16.7847	4.364	-17.2882	-21.1487	1.5106	-2.8534	2.182	-1.5106	9.2316	-2.3499	47	282	181	5	1	2
9.0637	-5.2032	-3.1891	15.6097	-11.4136	-11.9171	6.3782	-14.0991	-16.1133	5.0354	-16.7847	-20.9808	1.6785	-2.6855	2.3499	-1.3428	9.5673	-2.182	47	283	182	5	1	2
10.4065	-3.6926	-1.6785	16.6168	-10.2386	-10.4065	7.3853	-13.2599	-15.1062	5.5389	-16.2811	-20.813	1.8463	-2.5177	2.3499	-1.1749	9.7351	-1.8463	47	284	183	5	1	2
11.5814	-2.3499	0	17.4561	-9.0637	-8.8959	8.0566	-12.4207	-14.267	6.2103	-15.7776	-20.6451	2.0142	-2.3499	2.3499	-0.8392	9.903	-1.5106	47	285	184	5	1	2
12.9242	-1.0071	1.8463	18.2953	-7.7209	-7.5531	8.728	-11.4136	-13.5956	6.7139	-15.1062	-20.1416	2.182	-2.182	2.3499	-0.5035	10.0708	-1.0071	47	286	185	5	1	2
14.0991	0.3357	3.1891	18.9667	-6.3782	-6.0425	9.2316	-10.4065	-12.5885	7.2174	-14.4348	-19.6381	2.182	-2.0142	2.182	-0.1678	10.2386	-0.5035	47	287	186	5	1	2
14.9384	1.5106	4.6997	19.3024	-5.2032	-4.5319	9.5673	-9.2316	-11.4136	7.5531	-13.4277	-18.7988	2.5177	-1.8463	2.182	0.1678	10.0708	0.1678	47	288	187	5	1	2
16.1133	2.8534	6.0425	19.9738	-3.8605	-3.1891	10.2386	-7.8888	-10.4065	7.7209	-12.4207	-18.2953	2.5177	-1.8463	1.6785	0.8392	10.0708	0.8392	47	289	188	5	1	2
16.7847	3.8605	7.3853	20.3094	-2.6855	-1.6785	10.4065	-6.546	-9.2316	8.0566	-11.0779	-17.2882	2.6855	-1.8463	1.5106	1.3428	9.903	1.6785	47	290	189	5	1	2
17.6239	5.0354	8.5602	20.6451	-1.3428	-0.3357	10.91	-5.3711	-7.8888	8.3923	-9.903	-15.9454	2.8534	-1.6785	1.3428	1.6785	9.903	2.3499	47	291	190	5	1	2
21.4844	20.1416	22.995	9.0637	15.6097	15.9454	11.4136	11.4136	12.5885	12.085	9.2316	9.5673	11.5814	3.3569	12.085	6.2103	6.0425	4.6997	47	231	130	6	1	2
22.995	21.6522	24.5056	9.903	16.7847	17.1204	12.2528	12.4207	13.4277	12.5885	9.7351	9.903	11.7493	3.6926	12.085	6.8817	6.7139	5.0354	47	232	131	6	1	2
24.3378	23.1628	25.6805	10.7422	17.9596	18.2953	12.9242	13.2599	14.0991	13.092	10.0708	10.2386	11.9171	3.8605	12.085	7.3853	7.0496	5.2032	47	233	132	6	1	2
25.6805	24.5056	27.0233	11.9171	19.1345	19.3024	13.5956	14.0991	14.9384	13.5956	10.5743	10.7422	12.085	4.0283	11.9171	7.8888	7.5531	5.5389	47	234	133	6	1	2
26.6876	25.8484	28.1982	12.7563	20.3094	20.1416	14.4348	14.9384	15.7776	14.0991	10.91	10.91	12.2528	4.0283	11.7493	8.3923	8.0566	5.8746	47	235	134	6	1	2
28.0304	27.359	29.541	13.7634	21.3165	21.1487	15.1062	15.6097	16.6168	14.7705	11.2457	11.5814	12.5885	4.0283	11.5814	9.2316	8.3923	6.3782	47	236	135	6	1	2
29.2053	28.5339	30.7159	14.9384	22.4915	22.3236	15.9454	16.6168	17.4561	15.274	11.9171	11.9171	12.9242	4.0283	11.5814	10.0708	8.728	6.8817	47	237	136	6	1	2
30.2124	29.8767	31.8909	15.9454	23.3307	23.1628	16.7847	17.2882	18.1274	15.6097	12.2528	12.2528	13.092	3.8605	11.4136	10.5743	8.8959	7.0496	47	238	137	6	1	2
31.2195	31.0516	33.0658	17.1204	24.3378	24.0021	17.2882	17.9596	18.7988	16.2811	12.5885	12.4207	13.4277	3.6926	11.0779	11.4136	9.2316	7.5531	47	239	138	6	1	2
32.2266	31.8909	34.0729	18.2953	25.0092	24.6735	18.1274	18.4631	19.4702	16.6168	13.092	12.9242	13.5956	3.5248	10.7422	12.085	9.3994	7.8888	47	240	139	6	1	2
33.4015	32.8979	34.9121	19.4702	25.8484	25.5127	18.9667	18.7988	20.1416	17.2882	13.2599	13.2599	13.7634	3.3569	10.4065	12.7563	9.3994	8.0566	47	241	140	6	1	2
34.0729	33.5693	35.7513	20.3094	26.3519	26.0162	19.4702	19.3024	20.4773	17.4561	13.2599	13.4277	14.0991	3.0212	9.903	13.2599	9.5673	8.3923	47	242	141	6	1	2
34.9121	34.2407	36.5906	21.4844	26.8555	26.8555	20.3094	19.6381	20.813	17.9596	13.5956	13.7634	14.267	2.8534	9.3994	13.9313	9.5673	8.5602	47	243	142	6	1	2
35.9192	34.9121	37.4298	22.8271	27.359	27.5269	20.813	19.9738	21.3165	18.2953	13.7634	14.0991	14.4348	2.6855	8.8959	14.6027	9.903	8.8959	47	244	143	6	1	2
36.9263	35.4156	38.269	24.1699	27.8625	27.8625	21.4844	20.1416	21.8201	18.7988	13.9313	14.4348	14.6027	2.5177	8.2245	14.9384	9.7351	9.0637	47	245	144	6	1	2
37.7655	35.7513	39.1083	25.0092	28.1982	28.1982	21.9879	20.1416	21.8201	18.9667	14.0991	14.4348	14.6027	2.182	7.5531	15.274	9.7351	9.2316	47	246	145	6	1	2
38.6047	36.4227	39.7797	26.3519	28.3661	28.7018	22.6593	20.4773	21.9879	19.1345	14.0991	14.6027	14.7705	2.0142	6.8817	15.7776	9.5673	9.5673	47	247	146	6	1	2
39.444	36.7584	40.6189	27.359	28.7018	29.2053	23.3307	20.4773	22.1558	19.3024	14.0991	14.7705	14.6027	1.8463	6.3782	16.1133	9.5673	9.5673	47	248	147	6	1	2
40.2832	37.4298	41.1224	28.1982	29.0375	29.3732	23.4985	20.6451	22.3236	19.4702	14.267	14.7705	14.7705	1.6785	5.7068	16.449	9.3994	9.903	47	249	148	6	1	2
41.1224	37.7655	41.7938	29.2053	29.2053	29.541	24.0021	20.6451	22.3236	19.6381	14.267	14.9384	14.6027	1.5106	5.0354	16.7847	9.2316	10.0708	47	250	149	6	1	2
41.626	37.7655	42.1295	29.541	29.2053	29.541	24.1699	20.6451	22.1558	19.4702	14.267	14.7705	14.4348	1.1749	4.1962	17.1204	8.8959	10.0708	47	251	150	6	1	2
41.7938	37.9333	42.2974	30.2124	29.0375	29.541	24.1699	20.4773	21.9879	19.1345	14.0991	14.4348	14.0991	0.8392	3.3569	17.1204	8.8959	10.0708	47	252	151	6	1	2
42.2974	38.1012	42.6331	30.5481	29.2053	29.7089	24.3378	20.4773	21.8201	19.1345	14.0991	14.4348	13.9313	0.6714	2.6855	17.6239	8.5602	10.4065	47	253	152	6	1	2
42.4652	38.269	42.8009	30.8838	29.2053	29.541	24.1699	20.1416	21.6522	18.9667	13.9313	14.267	13.7634	0.3357	1.8463	17.7917	8.3923	10.5743	47	254	153	6	1	2
42.4652	37.9333	42.8009	30.8838	28.8696	29.3732	24.0021	19.9738	20.9808	18.631	13.5956	13.9313	13.092	-0.1678	1.0071	17.7917	8.0566	10.2386	47	255	154	6	1	2
42.4652	38.1012	42.9688	30.8838	29.0375	29.2053	23.8342	19.9738	20.813	18.2953	13.5956	13.5956	12.7563	-0.5035	0.1678	18.1274	7.7209	10.4065	47	256	155	6	1	2
42.4652	38.1012	42.9688	30.8838	28.8696	29.0375	23.8342	19.6381	20.3094	17.9596	13.2599	13.2599	12.2528	-0.8392	-0.8392	18.2953	7.2174	10.5743	47	257	156	6	1	2
42.2974	37.9333	42.9688	30.8838	28.7018	28.8696	23.4985	19.4702	19.9738	17.6239	13.092	12.7563	11.7493	-1.3428	-1.5106	18.631	6.7139	10.5743	47	258	157	6	1	2
42.1295	37.7655	42.8009	30.7159	28.5339	28.5339	23.1628	19.3024	19.4702	16.9525	12.7563	12.4207	11.0779	-1.6785	-2.5177	18.631	6.0425	10.5743	47	259	158	6	1	2
41.626	37.4298	42.6331	30.3802	28.3661	28.1982	22.4915	18.9667	18.7988	16.449	12.2528	11.7493	10.4065	-2.0142	-3.6926	18.7988	5.0354	10.5743	47	260	159	6	1	2
41.1224	36.9263	42.2974	29.8767	27.8625	27.6947	21.9879	18.2953	18.1274	15.7776	11.7493	10.91	9.5673	-2.3499	-4.364	18.9667	4.1962	10.4065	47	261	160	6	1	2
40.451	36.4227	41.7938	29.0375	27.5269	27.1912	21.1487	17.7917	17.1204	15.1062	11.0779	10.0708	8.728	-2.5177	-5.2032	18.7988	3.0212	10.2386	47	262	161	6	1	2
39.6118	35.9192	41.4581	28.3661	26.8555	26.5198	20.6451	17.2882	16.2811	14.267	10.5743	9.2316	7.8888	-2.8534	-6.0425	18.9667	2.182	10.2386	47	263	162	6	1	2
38.7726	35.08	40.9546	27.5269	26.3519	26.0162	19.8059	16.6168	15.274	13.4277	9.7351	8.2245	7.0496	-3.0212	-6.8817	18.7988	1.0071	9.903	47	264	163	6	1	2
38.269	34.7443	40.7867	27.0233	25.8484	25.6805	19.4702	16.1133	14.6027	12.9242	9.2316	7.5531	6.3782	-3.1891	-7.5531	18.9667	0.3357	9.903	47	265	164	6	1	2
37.4298	34.0729	40.2832	26.3519	25.3448	25.0092	18.9667	15.4419	13.7634	12.2528	8.5602	6.7139	5.5389	-3.3569	-8.0566	18.9667	-0.6714	9.7351	47	266	165	6	1	2
36.9263	33.5693	39.9475	25.5127	24.8413	24.5056	18.2953	14.9384	12.9242	11.5814	7.8888	5.8746	5.0354	-3.3569	-8.3923	19.1345	-1.6785	9.7351	47	267	166	6	1	2
36.4227	33.0658	39.6118	25.177	24.3378	24.0021	17.9596	14.267	12.4207	11.0779	7.3853	5.2032	4.364	-3.3569	-8.728	19.1345	-2.5177	9.7351	47	268	167	6	1	2
35.9192	32.7301	39.444	24.6735	24.0021	23.8342	17.4561	13.9313	11.5814	10.7422	6.7139	4.5319	3.8605	-3.3569	-9.0637	19.1345	-3.1891	9.7351	47	269	168	6	1	2
35.5835	32.3944	39.1083	24.3378	23.4985	23.4985	17.1204	13.4277	11.0779	10.4065	6.2103	3.6926	3.1891	-3.3569	-9.3994	18.9667	-3.8605	9.7351	47	270	169	6	1	2
35.2478	32.0587	38.9404	24.0021	23.1628	23.1628	16.9525	12.9242	10.4065	9.903	5.7068	3.0212	2.8534	-3.3569	-9.7351	19.1345	-4.5319	9.5673	47	271	170	6	1	2
35.4156	31.8909	38.9404	24.1699	22.995	22.8271	16.7847	12.4207	10.0708	9.5673	5.2032	2.3499	2.182	-3.3569	-10.0708	19.1345	-5.2032	9.7351	47	272	171	6	1	2
35.4156	31.723	38.7726	24.0021	22.4915	22.6593	16.6168	11.9171	9.5673	9.2316	4.6997	1.6785	1.8463	-3.1891	-10.2386	18.9667	-5.5389	9.3994	47	273	172	6	1	2
35.4156	31.5552	38.7726	24.1699	22.1558	22.4915	16.6168	11.5814	9.0637	9.0637	4.1962	1.1749	1.3428	-3.1891	-10.91	18.9667	-6.2103	9.3994	47	274	173	6	1	2
35.7513	31.3873	38.7726	24.3378	21.9879	22.3236	16.6168	11.0779	8.728	8.728	3.6926	0.5035	1.0071	-3.0212	-11.0779	18.9667	-6.3782	9.3994	47	275	174	6	1	2
36.087	31.2195	38.7726	24.6735	21.6522	22.1558	16.6168	10.7422	8.3923	8.5602	3.1891	0	0.8392	-2.6855	-11.4136	18.631	-6.3782	9.2316	47	276	175	6	1	2
36.2549	31.0516	38.7726	25.0092	21.4844	22.1558	16.7847	10.2386	8.2245	8.5602	2.6855	-0.5035	0.3357	-2.5177	-11.7493	18.4631	-6.546	8.8959	47	277	176	6	1	2
36.7584	30.8838	38.6047	25.3448	20.9808	21.8201	16.7847	9.903	7.8888	8.3923	2.3499	-1.1749	0	-2.3499	-12.085	18.1274	-6.7139	8.728	47	278	177	6	1	2
37.262	30.8838	38.7726	26.0162	20.9808	21.9879	17.1204	9.7351	7.5531	8.3923	2.0142	-1.5106	-0.3357	-2.182	-12.2528	17.9596	-6.7139	8.5602	47	279	178	6	1	2
37.7655	30.7159	38.4369	26.3519	20.6451	21.8201	17.1204	9.3994	7.3853	8.2245	1.5106	-2.182	-0.6714	-2.0142	-12.5885	17.6239	-6.7139	8.3923	47	280	179	6	1	2
37.9333	30.5481	38.4369	26.5198	20.3094	21.4844	17.1204	8.8959	7.0496	8.2245	1.0071	-2.5177	-0.5035	-1.6785	-12.5885	17.2882	-6.3782	8.2245	47	281	180	6	1	2
38.269	30.0446	38.269	26.6876	19.8059	21.3165	17.2882	8.3923	6.8817	8.0566	0.6714	-3.0212	-0.8392	-1.5106	-12.5885	16.9525	-6.2103	7.8888	47	282	181	6	1	2
38.269	30.0446	37.9333	27.0233	19.4702	21.1487	17.4561	8.2245	6.546	8.0566	0.3357	-3.3569	-1.1749	-1.3428	-12.5885	16.6168	-5.8746	7.7209	47	283	182	6	1	2
38.4369	29.541	37.4298	27.0233	19.1345	20.6451	17.2882	7.7209	6.0425	8.0566	0	-3.6926	-1.3428	-1.1749	-12.5885	16.1133	-5.7068	7.3853	47	284	183	6	1	2
38.1012	29.0375	36.9263	26.6876	18.4631	20.1416	16.9525	7.0496	5.5389	7.5531	-0.6714	-4.0283	-1.5106	-1.0071	-12.4207	15.6097	-5.5389	6.8817	47	285	184	6	1	2
37.9333	28.3661	36.4227	26.3519	17.7917	19.6381	16.7847	6.7139	5.0354	7.3853	-0.8392	-4.364	-1.6785	-0.8392	-12.2528	15.1062	-5.3711	6.7139	47	286	185	6	1	2
37.5977	28.0304	35.7513	26.0162	17.2882	19.1345	16.6168	6.2103	4.6997	7.2174	-1.3428	-4.6997	-2.182	-0.8392	-12.4207	14.6027	-5.2032	6.3782	47	287	186	6	1	2
37.0941	27.1912	35.08	25.5127	16.7847	18.4631	16.2811	5.5389	4.1962	6.8817	-1.5106	-4.8676	-2.182	-0.6714	-12.085	14.267	-5.2032	6.0425	47	288	187	6	1	2
36.4227	26.6876	34.5764	24.8413	16.1133	17.7917	15.7776	5.0354	3.5248	6.3782	-1.8463	-5.3711	-2.5177	-0.8392	-12.2528	13.7634	-5.3711	5.8746	47	289	188	6	1	2
35.5835	25.8484	33.5693	24.1699	15.4419	16.9525	15.274	4.5319	3.0212	6.2103	-2.182	-5.3711	-2.6855	-0.8392	-12.085	13.2599	-5.2032	5.5389	47	290	189	6	1	2
34.9121	25.3448	33.0658	23.8342	15.1062	16.449	14.9384	4.1962	2.6855	5.8746	-2.182	-5.5389	-2.8534	-1.0071	-12.085	13.092	-5.3711	5.5389	47	291	190	6	1	2
15.1062	15.7776	19.6381	16.7847	16.2811	18.9667	20.1416	14.6027	16.6168	21.9879	13.5956	13.4277	19.4702	3.1891	20.9808	7.8888	17.1204	12.7563	47	231	130	7	1	2
15.4419	15.7776	19.6381	17.1204	16.2811	19.3024	20.4773	14.4348	16.9525	22.4915	13.7634	13.7634	19.9738	3.1891	21.1487	7.8888	17.2882	12.7563	47	232	131	7	1	2
15.7776	15.9454	20.1416	17.7917	16.2811	19.6381	20.9808	14.7705	17.6239	23.3307	13.9313	14.267	20.6451	3.3569	21.4844	7.8888	17.6239	12.9242	47	233	132	7	1	2
15.9454	15.7776	20.3094	18.2953	16.1133	19.8059	21.3165	14.7705	17.9596	23.8342	13.9313	14.6027	20.9808	3.3569	21.6522	7.8888	17.7917	12.7563	47	234	133	7	1	2
16.1133	15.4419	20.3094	18.631	15.9454	19.9738	21.6522	14.6027	18.1274	24.1699	13.9313	14.7705	21.4844	3.3569	21.6522	7.8888	17.9596	12.7563	47	235	134	7	1	2
16.1133	15.1062	20.3094	18.9667	15.6097	19.9738	21.8201	14.4348	18.4631	24.6735	13.9313	15.1062	21.8201	3.3569	21.6522	7.8888	18.1274	12.5885	47	236	135	7	1	2
15.7776	14.7705	20.1416	19.1345	15.1062	19.8059	22.1558	14.267	18.4631	24.8413	13.7634	15.1062	21.9879	3.3569	21.4844	7.7209	18.1274	12.4207	47	237	136	7	1	2
15.4419	13.9313	19.6381	18.7988	14.7705	19.8059	21.9879	13.9313	18.4631	24.8413	13.4277	14.9384	22.1558	3.1891	21.3165	7.7209	17.9596	12.085	47	238	137	7	1	2
15.1062	13.4277	19.4702	18.9667	14.267	19.6381	21.9879	13.7634	18.4631	25.0092	13.2599	14.9384	22.1558	3.1891	20.9808	7.5531	17.9596	11.9171	47	239	138	7	1	2
14.9384	13.092	19.1345	19.1345	13.7634	19.6381	21.9879	13.4277	18.4631	25.0092	12.9242	14.7705	21.9879	3.1891	20.6451	7.3853	17.9596	11.5814	47	240	139	7	1	2
14.4348	12.2528	18.631	18.7988	13.092	19.3024	21.8201	12.9242	18.1274	24.6735	12.7563	14.6027	21.8201	3.0212	19.9738	7.2174	17.7917	11.2457	47	241	140	7	1	2
14.267	11.7493	18.4631	18.9667	12.7563	19.1345	21.8201	12.7563	18.1274	24.6735	12.4207	14.4348	21.6522	3.0212	19.6381	6.8817	17.6239	11.0779	47	242	141	7	1	2
13.9313	11.4136	18.2953	18.9667	12.2528	18.9667	21.6522	12.2528	17.7917	24.3378	11.9171	14.267	21.4844	3.0212	18.9667	6.8817	17.6239	10.91	47	243	142	7	1	2
13.7634	10.7422	18.1274	18.9667	11.5814	18.7988	21.3165	11.7493	17.4561	23.6664	11.5814	13.5956	20.813	2.8534	18.2953	6.3782	17.4561	10.2386	47	244	143	7	1	2
13.7634	10.5743	17.9596	18.9667	11.2457	18.4631	21.3165	11.2457	16.9525	23.3307	11.2457	13.2599	20.4773	2.8534	17.6239	6.2103	17.2882	10.0708	47	245	144	7	1	2
13.9313	10.2386	17.9596	19.1345	11.0779	18.2953	21.1487	10.91	16.6168	22.995	10.7422	12.9242	19.9738	2.8534	16.7847	5.8746	17.2882	9.7351	47	246	145	7	1	2
14.0991	10.0708	17.9596	19.4702	10.5743	18.1274	20.9808	10.4065	16.1133	22.4915	10.4065	12.4207	19.4702	2.8534	16.1133	5.7068	17.1204	9.3994	47	247	146	7	1	2
14.267	10.0708	17.9596	19.6381	10.2386	17.9596	20.813	9.903	15.6097	21.8201	9.7351	11.7493	18.7988	2.8534	15.4419	5.3711	17.1204	9.0637	47	248	147	7	1	2
14.4348	9.903	18.1274	19.9738	9.903	17.7917	20.4773	9.3994	15.1062	21.3165	9.2316	11.2457	18.1274	2.8534	14.7705	4.8676	17.1204	8.5602	47	249	148	7	1	2
14.7705	9.7351	18.1274	20.3094	9.3994	17.2882	20.3094	8.728	14.4348	20.4773	8.5602	10.5743	17.6239	2.8534	13.9313	4.6997	16.7847	8.3923	47	250	149	7	1	2
14.9384	9.903	18.1274	20.6451	8.8959	16.9525	20.1416	8.0566	13.7634	19.8059	7.8888	9.7351	16.7847	2.8534	13.2599	4.1962	16.7847	7.7209	47	251	150	7	1	2
15.4419	9.7351	18.2953	20.9808	8.728	16.9525	20.1416	7.5531	13.2599	19.1345	7.3853	9.2316	16.2811	3.0212	12.7563	4.0283	16.6168	7.5531	47	252	151	7	1	2
15.6097	9.7351	18.2953	21.3165	8.0566	16.449	19.8059	6.8817	12.5885	18.4631	6.7139	8.3923	15.4419	3.0212	12.085	3.5248	16.1133	7.0496	47	253	152	7	1	2
15.7776	9.5673	18.2953	21.6522	7.7209	16.1133	19.6381	6.0425	11.7493	17.6239	5.8746	7.8888	14.7705	3.0212	11.7493	3.3569	15.9454	6.7139	47	254	153	7	1	2
15.9454	9.3994	18.1274	21.8201	7.0496	15.4419	19.3024	5.3711	10.91	16.7847	5.3711	7.0496	13.9313	3.0212	11.2457	2.8534	15.6097	6.2103	47	255	154	7	1	2
15.7776	9.0637	17.7917	21.8201	6.3782	14.9384	18.9667	4.5319	10.2386	16.1133	4.6997	6.3782	13.2599	3.0212	10.91	2.5177	15.274	5.8746	47	256	155	7	1	2
15.4419	8.728	17.4561	21.8201	5.7068	14.267	18.4631	3.6926	9.3994	15.274	3.6926	5.5389	12.2528	2.8534	10.4065	1.8463	14.9384	5.0354	47	257	156	7	1	2
14.9384	8.0566	16.7847	21.4844	4.6997	13.4277	17.7917	2.8534	8.5602	14.4348	3.0212	4.5319	11.4136	2.6855	9.7351	1.3428	14.267	4.5319	47	258	157	7	1	2
14.4348	7.7209	16.1133	21.1487	4.1962	12.7563	17.4561	2.0142	7.7209	13.5956	2.3499	3.8605	10.7422	2.6855	9.3994	1.0071	14.0991	4.364	47	259	158	7	1	2
13.5956	7.0496	15.4419	20.6451	3.3569	11.9171	16.9525	1.0071	6.8817	12.7563	1.3428	2.8534	9.903	2.5177	9.0637	0.3357	13.4277	3.5248	47	260	159	7	1	2
12.7563	6.3782	14.6027	20.1416	2.5177	10.91	16.2811	0.1678	5.8746	11.9171	0.8392	2.182	9.2316	2.3499	8.728	0	13.092	3.1891	47	261	160	7	1	2
11.7493	6.0425	13.5956	19.4702	1.8463	10.0708	15.7776	-0.6714	5.2032	11.4136	0	1.5106	8.3923	2.182	8.5602	-0.5035	12.5885	2.6855	47	262	161	7	1	2
10.91	5.5389	12.7563	18.631	1.0071	9.0637	15.1062	-1.5106	4.364	10.5743	-0.5035	0.5035	7.8888	2.0142	8.5602	-0.6714	11.9171	2.3499	47	263	162	7	1	2
10.0708	4.8676	11.7493	17.9596	0.5035	8.2245	14.6027	-2.0142	3.5248	10.0708	-0.8392	0	7.2174	1.8463	8.3923	-0.8392	11.4136	2.3499	47	264	163	7	1	2
9.0637	4.5319	10.91	17.1204	-0.1678	7.3853	13.9313	-2.5177	2.8534	9.3994	-1.3428	-0.6714	6.7139	1.6785	8.3923	-1.0071	10.91	2.182	47	265	164	7	1	2
8.3923	4.364	10.0708	16.2811	-0.5035	6.7139	13.5956	-3.1891	2.0142	9.0637	-1.6785	-1.3428	6.3782	1.6785	8.3923	-1.3428	10.4065	1.8463	47	266	165	7	1	2
7.3853	4.0283	9.2316	15.274	-1.1749	5.7068	12.9242	-3.6926	1.3428	8.5602	-2.182	-2.0142	5.7068	1.5106	8.5602	-1.5106	9.903	1.6785	47	267	166	7	1	2
6.3782	3.5248	8.0566	14.267	-1.5106	4.8676	12.2528	-3.8605	0.8392	8.0566	-2.3499	-2.5177	5.2032	1.3428	8.5602	-1.5106	9.2316	1.6785	47	268	167	7	1	2
5.7068	3.3569	7.2174	13.2599	-1.8463	4.0283	11.7493	-4.5319	0	7.8888	-2.8534	-3.0212	4.8676	1.3428	8.5602	-1.6785	8.728	1.6785	47	269	168	7	1	2
4.6997	2.8534	6.0425	12.085	-2.3499	3.0212	11.0779	-4.8676	-0.8392	7.3853	-2.8534	-3.5248	4.1962	1.1749	8.5602	-1.8463	8.0566	1.6785	47	270	169	7	1	2
3.8605	2.3499	5.2032	11.0779	-2.6855	2.182	10.5743	-5.2032	-1.5106	7.2174	-3.3569	-4.1962	3.6926	1.1749	8.5602	-2.0142	7.3853	1.3428	47	271	170	7	1	2
3.0212	1.8463	4.1962	10.0708	-3.1891	1.1749	9.903	-5.7068	-2.3499	6.8817	-3.5248	-4.6997	3.1891	1.1749	8.3923	-2.182	7.0496	1.3428	47	272	171	7	1	2
2.0142	1.1749	3.3569	9.0637	-3.5248	0.3357	9.2316	-6.0425	-3.0212	6.3782	-3.6926	-5.2032	3.0212	1.1749	8.3923	-2.182	6.3782	1.3428	47	273	172	7	1	2
1.3428	0.5035	2.3499	7.8888	-3.6926	-0.5035	8.8959	-6.0425	-3.6926	6.0425	-3.6926	-5.7068	2.8534	1.1749	8.5602	-2.182	5.8746	1.5106	47	274	173	7	1	2
0.6714	0.1678	1.5106	7.0496	-4.0283	-1.1749	8.3923	-6.2103	-4.1962	6.0425	-3.8605	-6.2103	2.5177	1.3428	8.3923	-2.3499	5.5389	1.5106	47	275	174	7	1	2
-0.1678	-0.5035	0.6714	6.0425	-4.364	-2.0142	7.7209	-6.2103	-4.6997	5.7068	-3.8605	-6.546	2.3499	1.3428	8.5602	-2.3499	5.2032	1.5106	47	276	175	7	1	2
-0.8392	-1.0071	0	5.0354	-4.6997	-2.6855	7.2174	-6.546	-5.3711	5.3711	-4.0283	-7.0496	2.182	1.5106	8.3923	-2.5177	4.8676	1.5106	47	277	176	7	1	2
-1.5106	-1.5106	-0.8392	4.1962	-4.6997	-3.1891	6.546	-6.3782	-5.8746	5.3711	-4.0283	-7.3853	2.0142	1.5106	8.3923	-2.5177	4.6997	1.5106	47	278	177	7	1	2
-2.0142	-2.0142	-1.3428	3.3569	-5.0354	-3.6926	6.0425	-6.7139	-6.546	5.0354	-4.0283	-7.7209	1.8463	1.6785	8.2245	-2.6855	4.5319	1.5106	47	279	178	7	1	2
-2.5177	-2.3499	-1.8463	2.5177	-5.0354	-4.0283	5.5389	-6.3782	-6.546	4.8676	-4.0283	-7.8888	1.8463	1.6785	8.2245	-2.5177	4.1962	1.8463	47	280	179	7	1	2
-2.6855	-2.3499	-2.182	2.0142	-5.0354	-4.364	5.0354	-6.2103	-6.8817	4.8676	-4.0283	-8.0566	1.6785	1.8463	8.0566	-2.5177	4.0283	1.8463	47	281	180	7	1	2
-3.0212	-2.8534	-2.5177	1.3428	-5.0354	-4.5319	4.5319	-6.0425	-7.0496	4.6997	-3.8605	-8.3923	1.6785	1.8463	7.8888	-2.5177	3.6926	2.0142	47	282	181	7	1	2
-3.0212	-2.6855	-2.5177	1.0071	-4.6997	-4.5319	4.364	-5.8746	-7.2174	4.364	-3.6926	-8.3923	1.5106	1.8463	7.7209	-2.3499	3.6926	2.182	47	283	182	7	1	2
-3.1891	-2.6855	-2.5177	0.5035	-4.5319	-4.5319	3.6926	-5.3711	-7.0496	4.1962	-3.3569	-8.2245	1.6785	1.6785	7.5531	-2.0142	3.3569	2.6855	47	284	183	7	1	2
-3.0212	-2.3499	-2.3499	0.3357	-4.0283	-4.364	3.6926	-5.0354	-7.0496	4.1962	-3.0212	-8.2245	1.6785	1.6785	7.2174	-2.0142	3.1891	3.0212	47	285	184	7	1	2
-2.5177	-2.0142	-2.0142	0.3357	-3.5248	-4.0283	3.3569	-4.5319	-6.7139	4.1962	-2.6855	-7.8888	1.8463	1.6785	7.2174	-1.6785	3.0212	3.5248	47	286	185	7	1	2
-1.8463	-1.3428	-1.3428	0.6714	-3.3569	-3.8605	3.3569	-4.1962	-6.546	4.0283	-2.3499	-7.8888	1.8463	1.6785	6.7139	-1.6785	2.6855	3.8605	47	287	186	7	1	2
-1.5106	-0.8392	-0.8392	0.6714	-2.6855	-3.5248	3.1891	-3.6926	-6.0425	4.0283	-1.8463	-7.5531	2.0142	1.5106	6.546	-1.3428	2.5177	4.1962	47	288	187	7	1	2
-0.8392	-0.5035	-0.5035	0.5035	-2.3499	-3.1891	3.3569	-3.3569	-6.0425	3.6926	-1.6785	-7.3853	1.8463	1.5106	5.8746	-1.5106	2.0142	4.5319	47	289	188	7	1	2
-0.6714	0	-0.1678	0.5035	-2.0142	-3.0212	3.0212	-2.8534	-5.5389	3.8605	-1.1749	-7.2174	1.8463	1.3428	5.5389	-1.3428	1.6785	4.6997	47	290	189	7	1	2
-0.1678	0.3357	0.1678	0.5035	-1.8463	-2.8534	3.0212	-2.5177	-5.3711	3.5248	-0.8392	-7.0496	1.8463	1.3428	5.0354	-1.5106	1.0071	5.0354	47	291	190	7	1	2
-2.8534	-1.6785	2.6855	5.0354	0.3357	1.8463	5.0354	0.6714	-0.5035	3.3569	1.6785	-1.3428	4.0283	2.0142	10.7422	-2.6855	0.3357	-1.5106	47	231	130	8	1	2
-2.8534	-1.1749	3.0212	5.2032	0.6714	2.6855	5.2032	0.8392	-0.1678	3.5248	1.5106	-1.1749	3.8605	2.182	10.4065	-2.8534	0.3357	-1.8463	47	232	131	8	1	2
-3.0212	-1.0071	3.1891	4.8676	0.6714	3.0212	5.0354	0.8392	0	3.3569	1.3428	-1.3428	3.6926	2.182	9.7351	-2.8534	-0.1678	-2.0142	47	233	132	8	1	2
-3.1891	-0.8392	3.1891	4.6997	0.6714	3.1891	5.0354	0.5035	0	3.0212	1.0071	-1.3428	3.1891	2.182	9.0637	-3.0212	-0.5035	-2.5177	47	234	133	8	1	2
-4.0283	-1.0071	2.8534	4.0283	0.3357	3.1891	4.6997	0.3357	0	2.6855	0.6714	-1.8463	2.8534	2.182	8.2245	-3.1891	-0.8392	-2.8534	47	235	134	8	1	2
-4.6997	-1.1749	2.5177	3.3569	0.3357	3.3569	4.364	0.3357	0	2.6855	0.3357	-1.8463	2.3499	2.3499	7.5531	-3.3569	-1.0071	-3.1891	47	236	135	8	1	2
-5.7068	-1.3428	2.182	2.5177	0	3.1891	3.8605	-0.1678	-0.1678	2.3499	0	-2.182	2.0142	2.5177	6.7139	-3.5248	-1.3428	-3.5248	47	237	136	8	1	2
-6.7139	-2.0142	1.5106	1.6785	-0.1678	3.1891	3.6926	-0.3357	-0.1678	2.182	-0.3357	-2.3499	1.6785	2.5177	5.8746	-3.6926	-1.5106	-3.8605	47	238	137	8	1	2
-7.7209	-2.3499	0.8392	0.6714	-0.5035	3.0212	3.0212	-0.6714	-0.5035	1.8463	-0.5035	-2.5177	1.3428	2.5177	5.2032	-3.8605	-1.6785	-4.0283	47	239	138	8	1	2
-8.728	-2.8534	0.3357	-0.5035	-1.0071	2.5177	2.5177	-0.8392	-0.6714	1.3428	-1.0071	-3.0212	0.6714	2.5177	4.1962	-4.1962	-2.182	-4.364	47	240	139	8	1	2
-10.0708	-3.3569	-0.5035	-1.5106	-1.3428	2.182	2.0142	-1.1749	-0.8392	1.1749	-1.3428	-3.1891	0.3357	2.3499	3.5248	-4.0283	-2.182	-4.364	47	241	140	8	1	2
-10.91	-3.8605	-1.1749	-2.5177	-1.5106	2.0142	1.6785	-1.3428	-1.0071	1.0071	-1.1749	-3.1891	0	2.3499	2.5177	-4.0283	-2.3499	-4.364	47	242	141	8	1	2
-11.9171	-4.1962	-2.0142	-3.3569	-1.8463	1.6785	1.1749	-1.3428	-1.1749	0.8392	-1.3428	-3.5248	-0.5035	2.182	1.6785	-4.0283	-2.6855	-4.364	47	243	142	8	1	2
-12.7563	-4.5319	-2.3499	-4.1962	-1.8463	1.3428	0.8392	-1.3428	-1.3428	0.5035	-1.3428	-3.6926	-0.8392	2.0142	1.1749	-4.0283	-3.0212	-4.1962	47	244	143	8	1	2
-13.2599	-4.6997	-2.8534	-4.6997	-1.8463	1.1749	0.6714	-1.3428	-1.5106	0.5035	-1.1749	-3.8605	-0.8392	1.8463	0.3357	-3.6926	-3.1891	-3.8605	47	245	144	8	1	2
-13.7634	-4.8676	-3.1891	-5.2032	-1.6785	1.0071	0.3357	-1.0071	-1.5106	0.5035	-1.0071	-3.6926	-1.1749	1.6785	-0.1678	-3.3569	-3.3569	-3.5248	47	246	145	8	1	2
-14.0991	-4.6997	-3.5248	-5.7068	-1.6785	0.8392	0.1678	-0.8392	-1.5106	0.3357	-0.8392	-3.8605	-1.3428	1.3428	-0.8392	-3.1891	-3.6926	-3.1891	47	247	146	8	1	2
-14.0991	-4.6997	-3.3569	-5.7068	-1.3428	1.0071	0.3357	-0.5035	-1.5106	0.5035	-0.3357	-3.6926	-1.5106	1.1749	-1.3428	-2.6855	-3.6926	-2.6855	47	248	147	8	1	2
-13.9313	-4.364	-3.1891	-5.7068	-1.0071	1.1749	0.3357	-0.1678	-1.5106	0.5035	0	-3.8605	-1.5106	0.8392	-1.8463	-2.182	-4.0283	-2.0142	47	249	148	8	1	2
-13.4277	-4.1962	-3.0212	-5.7068	-0.6714	1.3428	0.5035	0.3357	-1.3428	0.6714	0.3357	-3.6926	-1.6785	0.5035	-2.0142	-1.6785	-4.0283	-1.5106	47	250	149	8	1	2
-12.9242	-3.5248	-2.6855	-5.3711	0	1.5106	0.6714	0.8392	-1.0071	0.8392	1.0071	-3.3569	-1.6785	0.1678	-2.3499	-1.0071	-4.0283	-0.8392	47	251	150	8	1	2
-12.4207	-3.0212	-2.182	-4.6997	0.6714	2.0142	1.1749	1.6785	-0.5035	1.0071	1.5106	-3.1891	-1.5106	-0.1678	-2.3499	-0.1678	-4.0283	0.1678	47	252	151	8	1	2
-11.2457	-2.182	-1.5106	-3.8605	1.3428	2.5177	1.6785	2.182	-0.1678	1.5106	2.3499	-2.8534	-1.3428	-0.5035	-2.3499	0.6714	-4.0283	1.0071	47	253	152	8	1	2
-10.2386	-1.3428	-0.6714	-3.1891	2.182	2.8534	2.182	2.8534	0.1678	1.6785	2.8534	-2.3499	-1.3428	-1.0071	-2.5177	1.5106	-4.0283	1.6785	47	254	153	8	1	2
-9.0637	-0.5035	0.1678	-2.3499	2.8534	3.3569	2.6855	3.8605	0.8392	2.182	3.6926	-2.0142	-0.8392	-1.3428	-2.3499	2.3499	-3.8605	2.6855	47	255	154	8	1	2
-7.7209	0.3357	1.0071	-1.1749	3.6926	4.0283	3.1891	4.5319	1.3428	2.5177	4.364	-1.5106	-0.6714	-1.6785	-2.182	3.1891	-3.8605	3.5248	47	256	155	8	1	2
-6.7139	1.0071	1.6785	-0.3357	4.5319	4.6997	3.6926	5.3711	2.0142	3.0212	5.2032	-0.8392	-0.1678	-2.0142	-1.6785	4.0283	-3.5248	4.5319	47	257	156	8	1	2
-5.7068	1.6785	2.3499	0.6714	5.2032	5.2032	4.364	6.2103	2.8534	3.3569	6.0425	0	0.3357	-2.182	-1.3428	4.6997	-3.1891	5.5389	47	258	157	8	1	2
-4.8676	2.3499	2.6855	1.1749	6.0425	5.7068	4.5319	6.8817	3.5248	3.6926	6.546	0.3357	0.6714	-2.5177	-1.0071	5.3711	-3.0212	6.2103	47	259	158	8	1	2
-4.5319	2.6855	2.8534	1.6785	6.3782	6.2103	4.6997	7.3853	4.0283	4.0283	7.3853	1.1749	1.1749	-2.6855	-0.6714	5.8746	-2.6855	6.8817	47	260	159	8	1	2
-4.1962	2.8534	3.0212	2.0142	6.7139	6.3782	4.6997	7.8888	4.5319	4.0283	7.5531	1.5106	1.3428	-3.0212	-0.3357	6.3782	-2.5177	7.3853	47	261	160	8	1	2
-4.364	2.8534	3.0212	2.0142	6.8817	6.546	4.6997	8.2245	5.0354	4.1962	8.0566	2.0142	1.6785	-3.1891	0	6.7139	-2.3499	7.7209	47	262	161	8	1	2
-4.5319	2.6855	2.6855	2.182	7.0496	6.8817	4.6997	8.5602	5.7068	4.364	8.5602	2.6855	2.0142	-3.1891	0.5035	6.8817	-2.0142	8.0566	47	263	162	8	1	2
-4.8676	2.3499	2.3499	2.182	7.0496	6.546	4.5319	8.728	5.8746	4.364	8.728	3.0212	2.182	-3.3569	0.8392	7.0496	-2.0142	8.2245	47	264	163	8	1	2
-5.5389	2.182	2.0142	1.8463	6.8817	6.7139	4.1962	8.5602	6.2103	4.1962	9.0637	3.5248	2.5177	-3.3569	1.0071	7.2174	-1.6785	8.5602	47	265	164	8	1	2
-6.2103	1.6785	1.5106	1.8463	6.8817	6.7139	4.0283	8.728	6.546	4.364	9.3994	3.8605	2.8534	-3.1891	1.5106	7.3853	-1.6785	8.728	47	266	165	8	1	2
-6.8817	1.1749	0.8392	1.6785	6.546	6.546	3.8605	8.5602	6.7139	4.364	9.3994	4.364	3.0212	-3.0212	1.8463	7.0496	-1.3428	8.5602	47	267	166	8	1	2
-7.8888	0.5035	0.1678	1.3428	6.0425	6.546	3.5248	8.728	7.2174	4.5319	9.7351	4.8676	3.5248	-2.6855	2.3499	6.8817	-1.1749	8.5602	47	268	167	8	1	2
-8.728	0	-0.3357	1.1749	5.7068	6.3782	3.5248	8.5602	7.3853	4.6997	9.903	5.3711	3.8605	-2.3499	2.8534	6.7139	-1.0071	8.5602	47	269	168	8	1	2
-9.3994	-0.6714	-1.0071	0.8392	5.3711	6.2103	3.3569	8.3923	7.5531	4.6997	9.903	5.7068	4.0283	-2.0142	3.1891	6.2103	-0.8392	8.3923	47	270	169	8	1	2
-10.0708	-1.3428	-1.6785	0.5035	5.2032	6.0425	3.0212	8.3923	7.7209	5.0354	10.0708	6.0425	4.5319	-1.6785	3.5248	6.2103	-0.6714	8.5602	47	271	170	8	1	2
-10.7422	-1.8463	-2.0142	0.3357	4.5319	5.8746	2.8534	8.2245	8.0566	5.2032	10.2386	6.546	5.0354	-1.1749	4.0283	5.7068	-0.5035	8.2245	47	272	171	8	1	2
-11.4136	-2.5177	-2.6855	-0.1678	4.0283	5.5389	2.6855	7.8888	8.0566	5.3711	10.2386	6.7139	5.2032	-0.8392	4.1962	5.2032	-0.5035	8.0566	47	273	172	8	1	2
-11.9171	-3.1891	-3.0212	-0.5035	3.6926	5.5389	2.5177	7.7209	8.0566	5.5389	10.2386	7.2174	5.7068	-0.3357	4.6997	4.5319	-0.1678	7.7209	47	274	173	8	1	2
-12.085	-3.6926	-3.5248	-0.6714	3.1891	5.2032	2.3499	7.3853	8.0566	5.7068	10.4065	7.5531	6.0425	0	4.8676	4.1962	-0.1678	7.7209	47	275	174	8	1	2
-12.5885	-4.1962	-3.8605	-1.0071	2.6855	5.2032	2.3499	7.3853	8.2245	5.8746	10.2386	7.7209	6.3782	0.3357	5.2032	3.6926	-0.1678	7.2174	47	276	175	8	1	2
-12.7563	-4.5319	-4.1962	-1.1749	2.5177	4.8676	2.182	7.0496	8.0566	6.3782	10.4065	8.0566	6.8817	0.6714	5.5389	3.1891	0.1678	7.0496	47	277	176	8	1	2
-12.9242	-5.0354	-4.1962	-1.3428	2.0142	4.6997	2.3499	6.8817	8.2245	6.546	10.4065	8.2245	7.3853	1.0071	5.8746	2.5177	0.5035	6.546	47	278	177	8	1	2
-12.7563	-5.0354	-4.364	-1.6785	1.6785	4.6997	2.3499	6.7139	8.0566	6.8817	10.4065	8.5602	7.7209	1.1749	6.2103	2.3499	0.5035	6.3782	47	279	178	8	1	2
-12.7563	-5.2032	-4.364	-1.8463	1.5106	4.6997	2.5177	6.7139	8.2245	7.3853	10.4065	8.8959	8.2245	1.3428	6.546	1.8463	0.6714	6.2103	47	280	179	8	1	2
-12.7563	-5.2032	-4.0283	-1.8463	1.5106	4.5319	2.6855	6.8817	8.3923	7.7209	10.4065	9.2316	8.728	1.5106	6.8817	1.5106	1.0071	5.8746	47	281	180	8	1	2
-12.4207	-5.0354	-3.8605	-1.8463	1.3428	4.6997	2.6855	6.7139	8.2245	8.0566	10.5743	9.5673	9.2316	1.5106	7.0496	1.1749	1.1749	5.7068	47	282	181	8	1	2
-12.085	-4.6997	-3.5248	-2.0142	1.5106	4.6997	3.0212	6.7139	8.3923	8.3923	10.7422	9.903	9.5673	1.5106	7.2174	0.8392	1.3428	5.3711	47	283	182	8	1	2
-11.5814	-4.364	-3.1891	-1.8463	1.5106	5.0354	3.1891	7.0496	8.5602	8.8959	10.7422	10.4065	10.0708	1.5106	7.3853	0.3357	1.6785	5.2032	47	284	183	8	1	2
-11.0779	-4.0283	-2.5177	-1.8463	1.6785	5.2032	3.5248	7.2174	8.728	9.2316	11.0779	10.7422	10.7422	1.5106	7.8888	0.1678	1.6785	5.2032	47	285	184	8	1	2
-10.4065	-3.5248	-1.8463	-1.5106	2.0142	5.7068	4.0283	7.5531	9.0637	9.903	11.5814	11.4136	11.4136	1.5106	8.2245	0.1678	2.0142	5.3711	47	286	185	8	1	2
-9.7351	-3.0212	-1.1749	-1.3428	2.5177	6.2103	4.364	8.0566	9.5673	10.5743	11.9171	11.9171	11.9171	1.5106	8.5602	0	2.182	5.2032	47	287	186	8	1	2
-8.8959	-2.3499	-0.3357	-1.0071	3.0212	6.8817	4.8676	8.5602	10.0708	11.2457	12.4207	12.5885	12.7563	1.5106	8.8959	0.1678	2.5177	5.3711	47	288	187	8	1	2
-8.2245	-1.6785	0.3357	-0.6714	3.5248	7.3853	5.3711	8.8959	10.4065	11.5814	12.9242	13.2599	13.4277	1.3428	9.3994	0.1678	2.5177	5.5389	47	289	188	8	1	2
-7.2174	-0.8392	1.3428	-0.3357	4.0283	8.2245	5.8746	9.5673	11.0779	12.2528	13.7634	13.9313	13.9313	1.1749	9.5673	0.1678	2.5177	5.8746	47	290	189	8	1	2
-6.2103	0	2.3499	0.3357	5.0354	9.0637	6.3782	10.4065	11.9171	13.092	14.4348	14.7705	14.7705	1.0071	10.0708	0.3357	2.8534	6.3782	47	291	190	8	1	2
15.274	14.267	19.1345	12.9242	16.7847	19.3024	13.9313	19.3024	22.6593	13.5956	21.1487	23.8342	11.9171	-3.0212	1.5106	12.4207	-1.6785	8.8959	47	231	130	9	1	2
16.1133	14.6027	19.8059	13.5956	17.4561	20.1416	14.6027	20.3094	23.4985	13.7634	21.8201	24.6735	12.2528	-3.0212	1.3428	12.9242	-1.5106	9.2316	47	232	131	9	1	2
16.6168	15.274	20.4773	14.4348	18.1274	20.813	15.1062	20.9808	24.1699	13.9313	22.1558	25.177	12.5885	-3.0212	1.1749	13.5956	-1.3428	9.5673	47	233	132	9	1	2
17.1204	15.6097	20.9808	15.1062	18.631	21.4844	15.6097	21.4844	24.8413	14.0991	22.4915	25.6805	12.5885	-3.0212	0.8392	14.0991	-1.1749	10.0708	47	234	133	9	1	2
17.6239	15.7776	21.6522	16.1133	19.1345	21.9879	16.1133	21.9879	25.5127	14.267	22.8271	26.0162	12.5885	-2.8534	0.6714	14.6027	-0.8392	10.2386	47	235	134	9	1	2
18.1274	16.1133	22.1558	16.7847	19.4702	22.3236	16.449	22.3236	25.8484	14.267	22.995	26.1841	12.5885	-2.8534	0.3357	14.9384	-0.6714	10.4065	47	236	135	9	1	2
18.631	16.449	22.6593	17.6239	19.8059	22.8271	16.9525	22.6593	26.3519	14.4348	23.1628	26.5198	12.7563	-2.8534	0.1678	15.274	-0.5035	10.7422	47	237	136	9	1	2
19.1345	16.7847	23.1628	18.2953	20.1416	23.1628	17.2882	22.995	26.6876	14.6027	23.3307	26.6876	12.7563	-2.6855	0	15.7776	-0.3357	10.91	47	238	137	9	1	2
19.8059	16.9525	23.6664	19.1345	20.6451	23.6664	17.7917	23.1628	26.8555	14.7705	23.3307	26.6876	12.9242	-2.5177	-0.3357	15.9454	0	10.91	47	239	138	9	1	2
20.4773	17.1204	24.0021	19.8059	20.6451	23.8342	18.1274	23.1628	27.0233	14.9384	23.3307	26.6876	12.9242	-2.3499	-0.5035	16.1133	0.1678	10.91	47	240	139	9	1	2
21.1487	17.4561	24.5056	20.6451	20.813	24.0021	18.4631	23.1628	27.1912	14.9384	23.1628	26.6876	12.7563	-2.0142	-0.8392	16.2811	0.6714	10.91	47	241	140	9	1	2
21.6522	17.7917	24.8413	21.3165	20.9808	24.3378	18.7988	23.1628	27.359	15.1062	22.995	26.6876	12.9242	-1.8463	-0.8392	16.2811	1.0071	10.7422	47	242	141	9	1	2
22.6593	18.1274	25.6805	22.3236	21.1487	24.5056	19.3024	23.1628	27.5269	15.4419	22.995	26.8555	13.092	-1.6785	-1.0071	16.449	1.5106	10.91	47	243	142	9	1	2
23.4985	18.4631	26.0162	22.995	21.1487	24.6735	19.6381	22.995	27.5269	15.6097	22.8271	26.8555	13.2599	-1.5106	-1.0071	16.6168	2.0142	10.91	47	244	143	9	1	2
24.3378	18.7988	26.6876	23.8342	21.3165	24.8413	19.9738	22.8271	27.6947	15.9454	22.6593	26.6876	13.5956	-1.3428	-1.1749	16.6168	2.5177	10.7422	47	245	144	9	1	2
25.177	19.1345	27.0233	24.5056	21.3165	25.0092	20.3094	22.8271	27.8625	16.2811	22.6593	26.8555	13.7634	-1.1749	-1.1749	16.6168	3.0212	10.7422	47	246	145	9	1	2
25.6805	19.4702	27.5269	25.0092	21.1487	25.0092	20.6451	22.4915	27.5269	16.6168	22.1558	26.8555	13.9313	-1.0071	-1.1749	16.449	3.5248	10.5743	47	247	146	9	1	2
26.3519	19.8059	27.8625	25.5127	21.1487	25.0092	20.9808	22.1558	27.6947	16.9525	21.9879	26.8555	14.267	-1.0071	-1.1749	16.6168	3.8605	10.4065	47	248	147	9	1	2
26.5198	19.9738	27.8625	25.5127	20.813	24.8413	20.9808	21.6522	27.5269	17.1204	21.4844	26.6876	14.267	-1.0071	-1.3428	16.2811	4.0283	10.0708	47	249	148	9	1	2
26.8555	19.9738	27.8625	25.5127	20.4773	24.6735	21.1487	21.3165	27.359	17.2882	21.3165	26.6876	14.4348	-1.0071	-1.3428	16.1133	4.5319	9.903	47	250	149	9	1	2
26.8555	19.9738	27.8625	25.5127	20.3094	24.5056	21.1487	20.9808	27.1912	17.6239	20.813	26.5198	14.7705	-1.1749	-1.3428	15.9454	4.6997	9.7351	47	251	150	9	1	2
26.6876	19.8059	27.6947	25.177	19.9738	24.3378	21.1487	20.3094	26.6876	17.6239	20.3094	26.5198	14.7705	-1.1749	-1.5106	15.6097	4.6997	9.3994	47	252	151	9	1	2
26.5198	19.9738	27.5269	24.8413	19.6381	24.0021	20.9808	19.9738	26.5198	17.7917	19.9738	26.3519	14.9384	-1.1749	-1.5106	15.4419	5.0354	9.0637	47	253	152	9	1	2
26.0162	19.4702	27.0233	24.1699	19.3024	23.6664	20.6451	19.4702	26.1841	18.1274	19.3024	26.3519	15.274	-1.3428	-1.5106	15.1062	5.0354	8.728	47	254	153	9	1	2
25.5127	19.3024	26.5198	23.4985	18.7988	23.1628	20.4773	18.9667	26.0162	18.1274	18.9667	26.1841	15.4419	-1.5106	-1.6785	14.6027	5.3711	8.2245	47	255	154	9	1	2
24.8413	18.9667	26.0162	22.8271	18.2953	22.995	20.3094	18.2953	25.8484	18.2953	18.4631	26.3519	15.7776	-1.8463	-2.0142	14.4348	5.7068	7.8888	47	256	155	9	1	2
24.0021	18.2953	25.3448	21.8201	17.6239	22.4915	19.9738	17.6239	25.3448	18.4631	17.7917	26.0162	15.7776	-2.0142	-1.8463	13.9313	6.0425	7.3853	47	257	156	9	1	2
23.3307	17.9596	24.8413	21.3165	17.2882	22.3236	19.6381	17.2882	25.177	18.631	17.4561	26.0162	16.1133	-2.182	-1.8463	13.4277	6.3782	6.8817	47	258	157	9	1	2
22.6593	17.6239	24.1699	20.813	16.6168	21.9879	19.4702	16.7847	25.0092	19.1345	16.9525	26.1841	16.6168	-2.5177	-1.8463	13.092	6.8817	6.546	47	259	158	9	1	2
21.8201	16.9525	23.4985	20.1416	16.1133	21.4844	19.4702	16.1133	24.6735	19.3024	16.449	26.1841	16.9525	-2.6855	-1.5106	12.4207	7.3853	5.8746	47	260	159	9	1	2
20.9808	16.2811	22.8271	19.6381	15.4419	21.3165	19.1345	15.6097	24.5056	19.8059	15.9454	26.3519	17.4561	-2.6855	-1.3428	11.9171	7.8888	5.5389	47	261	160	9	1	2
20.3094	15.7776	22.1558	19.1345	14.9384	20.813	19.1345	15.1062	24.3378	20.1416	15.7776	26.5198	17.7917	-2.8534	-1.0071	11.4136	8.2245	5.0354	47	262	161	9	1	2
19.1345	14.9384	21.3165	18.4631	14.0991	20.4773	18.7988	14.4348	24.1699	20.3094	15.1062	26.3519	18.2953	-2.8534	-0.6714	10.7422	8.5602	4.364	47	263	162	9	1	2
18.1274	14.267	20.6451	17.9596	13.4277	19.9738	18.631	14.0991	23.8342	20.6451	14.7705	26.5198	18.7988	-2.8534	-0.3357	10.2386	8.8959	4.0283	47	264	163	9	1	2
17.2882	13.4277	20.1416	17.6239	12.7563	19.6381	18.631	13.5956	23.6664	21.1487	14.4348	26.5198	19.3024	-2.8534	0.3357	9.5673	9.0637	3.6926	47	265	164	9	1	2
16.2811	12.4207	19.3024	17.1204	12.085	19.3024	18.2953	13.092	23.4985	21.3165	14.0991	26.5198	19.6381	-2.6855	0.8392	8.8959	9.2316	3.1891	47	266	165	9	1	2
15.274	11.5814	18.631	16.7847	11.2457	18.7988	18.2953	12.5885	23.1628	21.6522	13.9313	26.6876	20.3094	-2.5177	1.3428	8.3923	9.2316	2.6855	47	267	166	9	1	2
14.267	10.91	17.7917	16.1133	10.7422	18.4631	18.1274	12.2528	22.995	21.8201	13.5956	26.6876	20.6451	-2.3499	2.182	7.7209	9.2316	2.5177	47	268	167	9	1	2
13.5956	10.2386	17.4561	15.9454	10.4065	18.4631	18.1274	12.085	23.1628	22.4915	13.5956	27.0233	21.3165	-2.182	3.1891	7.3853	9.3994	2.5177	47	269	168	9	1	2
12.9242	9.5673	16.9525	15.4419	9.7351	18.1274	18.1274	11.9171	22.8271	22.8271	13.5956	27.1912	21.8201	-1.8463	3.8605	6.8817	9.3994	2.3499	47	270	169	9	1	2
12.2528	9.0637	16.7847	15.1062	9.5673	18.1274	18.1274	11.7493	23.1628	23.3307	13.7634	27.5269	22.4915	-1.6785	4.8676	6.546	9.5673	2.3499	47	271	170	9	1	2
11.9171	8.8959	16.6168	14.7705	9.3994	18.1274	18.1274	11.9171	23.1628	24.0021	14.0991	28.0304	23.1628	-1.3428	5.8746	6.2103	9.5673	2.5177	47	272	171	9	1	2
11.9171	8.728	16.449	14.6027	9.3994	18.1274	18.2953	12.085	23.4985	24.3378	14.4348	28.1982	23.8342	-1.0071	6.8817	6.0425	9.7351	2.6855	47	273	172	9	1	2
11.9171	8.3923	16.2811	13.9313	9.3994	18.1274	18.2953	11.9171	23.4985	24.6735	14.6027	28.5339	24.3378	-0.6714	7.5531	5.7068	9.5673	2.6855	47	274	173	9	1	2
12.085	8.5602	16.449	13.7634	9.3994	18.1274	18.631	12.2528	23.6664	25.177	15.1062	28.8696	24.8413	-0.3357	8.5602	5.5389	9.7351	3.0212	47	275	174	9	1	2
12.2528	8.728	16.449	13.4277	9.5673	18.2953	18.631	12.5885	23.8342	25.5127	15.4419	29.2053	25.3448	-0.1678	9.2316	5.3711	9.7351	3.3569	47	276	175	9	1	2
12.9242	9.2316	16.7847	13.5956	9.903	18.2953	18.7988	12.9242	24.1699	26.0162	15.9454	29.541	26.0162	0.1678	10.2386	5.7068	9.903	3.8605	47	277	176	9	1	2
13.5956	9.5673	16.9525	13.4277	10.0708	18.4631	19.1345	13.2599	24.3378	26.3519	16.2811	29.7089	26.3519	0.3357	10.7422	5.5389	10.0708	4.1962	47	278	177	9	1	2
14.0991	9.7351	17.1204	13.2599	10.2386	18.2953	19.1345	13.2599	24.3378	26.5198	16.449	29.7089	26.5198	0.3357	11.2457	5.3711	9.903	4.364	47	279	178	9	1	2
14.4348	9.903	17.1204	13.2599	10.4065	18.1274	18.9667	13.4277	24.3378	26.5198	16.7847	29.541	26.6876	0.3357	11.7493	5.2032	9.7351	4.6997	47	280	179	9	1	2
15.1062	10.4065	17.4561	13.2599	10.5743	18.2953	19.3024	13.5956	24.3378	26.5198	17.1204	29.7089	27.0233	0.5035	12.085	5.3711	9.7351	5.2032	47	281	180	9	1	2
15.4419	10.5743	17.4561	13.092	10.5743	17.9596	19.3024	13.7634	24.1699	26.5198	17.2882	29.7089	27.0233	0.5035	12.4207	5.3711	9.5673	5.5389	47	282	181	9	1	2
15.6097	10.5743	17.4561	12.9242	10.5743	17.6239	19.1345	13.7634	23.8342	26.3519	17.6239	29.3732	27.1912	0.5035	12.9242	5.3711	9.5673	5.8746	47	283	182	9	1	2
15.6097	10.2386	17.2882	12.7563	10.2386	17.1204	18.7988	13.5956	23.4985	26.0162	17.6239	29.0375	26.8555	0.3357	12.9242	5.0354	9.2316	6.2103	47	284	183	9	1	2
15.7776	10.2386	17.1204	12.7563	10.0708	16.7847	18.4631	13.4277	23.1628	25.6805	17.6239	28.8696	26.6876	0.3357	13.092	5.0354	9.0637	6.546	47	285	184	9	1	2
15.6097	9.903	16.7847	12.2528	9.7351	16.1133	18.1274	13.092	22.6593	25.177	17.6239	28.5339	26.3519	0.1678	13.2599	4.6997	8.728	6.7139	47	286	185	9	1	2
15.4419	9.3994	16.449	12.085	9.3994	15.6097	17.7917	13.092	22.1558	24.6735	17.7917	28.0304	26.1841	0.1678	13.4277	4.5319	8.728	7.0496	47	287	186	9	1	2
15.1062	8.8959	15.7776	11.7493	8.8959	14.9384	17.1204	12.5885	21.4844	24.0021	17.6239	27.5269	25.5127	0	13.2599	4.1962	8.5602	7.0496	47	288	187	9	1	2
14.6027	8.3923	15.4419	11.4136	8.2245	14.267	16.7847	12.4207	20.813	23.4985	17.6239	27.0233	25.3448	0	13.4277	4.0283	8.3923	7.3853	47	289	188	9	1	2
14.0991	7.5531	14.7705	10.91	7.7209	13.4277	16.1133	11.9171	20.1416	22.6593	17.2882	26.5198	24.6735	-0.1678	13.4277	3.6926	8.0566	7.3853	47	290	189	9	1	2
13.5956	6.546	14.0991	10.5743	6.8817	12.7563	15.4419	11.4136	19.3024	21.9879	17.2882	26.0162	24.1699	-0.1678	13.5956	3.1891	8.0566	7.3853	47	291	190	9	1	2
-8.2245	-2.6855	-5.2032	-10.4065	-0.3357	-1.3428	-7.8888	3.8605	7.2174	-2.8534	3.6926	9.903	3.1891	-1.6785	7.2174	3.6926	-2.8534	2.182	47	231	130	11	1	2
-8.728	-3.1891	-5.5389	-10.7422	-0.6714	-1.6785	-7.8888	3.0212	6.8817	-3.1891	3.0212	9.3994	3.0212	-1.5106	7.3853	3.0212	-2.6855	1.5106	47	232	131	11	1	2
-8.8959	-3.5248	-5.8746	-10.91	-1.0071	-1.6785	-7.7209	2.5177	6.7139	-2.8534	2.5177	9.2316	3.1891	-1.1749	7.7209	2.5177	-2.0142	0.8392	47	233	132	11	1	2
-9.0637	-3.5248	-6.0425	-10.7422	-1.3428	-2.0142	-7.5531	1.6785	6.2103	-2.6855	1.6785	8.728	3.0212	-0.8392	7.7209	1.6785	-1.5106	0	47	234	133	11	1	2
-8.8959	-3.5248	-6.0425	-10.7422	-1.5106	-2.0142	-7.5531	1.1749	6.0425	-2.6855	1.3428	8.728	3.3569	-0.6714	8.2245	1.3428	-0.8392	-0.5035	47	235	134	11	1	2
-8.8959	-3.5248	-6.0425	-10.5743	-2.0142	-2.3499	-7.3853	0.6714	5.8746	-2.3499	0.6714	8.3923	3.3569	-0.5035	8.2245	0.6714	-0.5035	-1.1749	47	236	135	11	1	2
-8.5602	-3.0212	-5.8746	-10.0708	-1.8463	-2.182	-6.7139	0	5.7068	-2.0142	0.3357	8.2245	3.5248	-0.1678	8.3923	0.1678	0.3357	-1.8463	47	237	136	11	1	2
-8.0566	-2.6855	-5.3711	-9.5673	-1.6785	-1.8463	-6.3782	-0.1678	5.8746	-1.5106	0.1678	8.3923	3.8605	0	8.728	-0.1678	1.1749	-2.182	47	238	137	11	1	2
-7.3853	-1.8463	-4.8676	-9.2316	-1.5106	-1.6785	-5.8746	-0.5035	5.8746	-1.0071	-0.1678	8.3923	3.8605	0.1678	8.8959	-0.5035	1.8463	-2.6855	47	239	138	11	1	2
-6.546	-1.1749	-4.364	-8.3923	-1.1749	-1.3428	-5.2032	-0.5035	6.2103	-0.3357	-0.3357	8.5602	4.1962	0.3357	9.0637	-0.6714	2.6855	-3.0212	47	240	139	11	1	2
-5.7068	-0.5035	-3.8605	-7.3853	-0.8392	-1.0071	-4.364	-0.6714	6.2103	0.3357	-0.3357	8.5602	4.5319	0.5035	8.8959	-0.5035	3.5248	-3.1891	47	241	140	11	1	2
-4.5319	0.3357	-3.0212	-6.7139	0	-0.5035	-3.6926	-0.5035	6.546	1.0071	-0.1678	8.8959	5.0354	0.5035	8.8959	-0.5035	4.364	-3.1891	47	242	141	11	1	2
-3.6926	1.1749	-2.3499	-5.7068	0.5035	0	-2.5177	-0.3357	6.8817	1.8463	0	9.0637	5.2032	0.5035	8.728	-0.3357	5.0354	-3.1891	47	243	142	11	1	2
-2.5177	2.0142	-1.5106	-4.5319	1.0071	0.3357	-1.8463	0	7.3853	2.8534	0.1678	9.3994	5.5389	0.5035	8.5602	-0.1678	5.7068	-3.1891	47	244	143	11	1	2
-1.8463	2.6855	-0.8392	-3.8605	1.3428	0.6714	-1.1749	0	7.5531	3.3569	0.3357	9.5673	5.7068	0.5035	8.0566	0.1678	6.2103	-3.1891	47	245	144	11	1	2
-0.8392	3.5248	-0.3357	-3.0212	2.0142	1.1749	-0.5035	0.1678	7.7209	4.0283	0.5035	9.7351	5.7068	0.3357	7.8888	0.3357	6.546	-3.0212	47	246	145	11	1	2
-0.1678	4.0283	0.3357	-2.0142	2.3499	1.5106	0.3357	0.5035	8.0566	4.5319	0.6714	10.0708	6.0425	0.1678	7.5531	0.8392	7.2174	-2.8534	47	247	146	11	1	2
0.6714	4.6997	0.8392	-1.3428	2.8534	1.6785	0.8392	0.8392	8.3923	5.2032	1.0071	10.4065	6.0425	-0.1678	7.0496	1.1749	7.5531	-2.5177	47	248	147	11	1	2
1.1749	5.0354	1.1749	-0.5035	3.3569	2.0142	1.5106	1.0071	8.5602	5.5389	1.0071	10.4065	6.0425	-0.3357	6.546	1.3428	7.7209	-2.5177	47	249	148	11	1	2
2.0142	5.7068	1.8463	0.3357	3.8605	2.3499	2.0142	1.3428	8.728	6.2103	1.3428	10.7422	6.2103	-0.5035	6.2103	1.8463	8.2245	-2.182	47	250	149	11	1	2
2.8534	6.2103	2.182	1.0071	4.1962	2.5177	2.5177	1.8463	9.0637	6.546	1.6785	10.91	6.2103	-0.6714	5.8746	2.3499	8.3923	-1.8463	47	251	150	11	1	2
3.3569	6.546	2.5177	1.6785	4.5319	2.5177	2.8534	2.0142	9.0637	6.8817	1.6785	10.7422	5.8746	-0.8392	5.3711	2.6855	8.5602	-1.6785	47	252	151	11	1	2
4.1962	7.0496	2.6855	2.3499	5.0354	2.6855	3.3569	2.5177	9.2316	7.0496	2.0142	10.91	5.8746	-1.0071	5.2032	3.1891	8.8959	-1.3428	47	253	152	11	1	2
4.5319	7.2174	2.8534	2.6855	5.2032	2.8534	3.5248	2.8534	9.0637	7.2174	2.182	10.91	5.8746	-1.0071	4.6997	3.6926	9.0637	-1.0071	47	254	153	11	1	2
4.6997	7.2174	2.6855	2.8534	5.2032	2.5177	3.5248	2.8534	8.8959	7.0496	2.0142	10.7422	5.5389	-1.0071	4.364	4.0283	9.0637	-0.6714	47	255	154	11	1	2
4.5319	6.8817	2.3499	3.0212	5.2032	2.0142	3.1891	2.8534	8.3923	6.7139	2.0142	10.2386	5.0354	-0.8392	3.5248	4.364	8.8959	-0.5035	47	256	155	11	1	2
4.364	6.3782	1.8463	2.8534	4.8676	1.6785	2.8534	3.0212	7.7209	6.3782	1.8463	9.7351	4.6997	-0.6714	3.1891	4.6997	8.728	-0.1678	47	257	156	11	1	2
3.8605	5.7068	1.0071	2.5177	4.5319	0.8392	2.3499	2.6855	7.2174	5.8746	1.5106	9.2316	4.1962	-0.6714	2.6855	4.8676	8.3923	-0.1678	47	258	157	11	1	2
3.0212	4.5319	0	1.8463	3.8605	0	1.3428	2.3499	6.2103	5.0354	1.0071	8.3923	3.3569	-0.5035	2.0142	4.6997	7.8888	-0.1678	47	259	158	11	1	2
2.182	3.5248	-1.3428	1.1749	3.1891	-1.0071	0.6714	1.8463	5.3711	4.1962	0.5035	7.5531	2.8534	-0.3357	1.5106	4.8676	7.2174	-0.1678	47	260	159	11	1	2
0.8392	2.182	-2.6855	0.1678	2.3499	-2.0142	-0.5035	1.3428	4.1962	3.5248	0.1678	6.546	2.0142	-0.3357	0.8392	4.6997	6.7139	-0.1678	47	261	160	11	1	2
-0.6714	0.8392	-4.1962	-1.0071	1.1749	-3.5248	-1.6785	0.6714	3.0212	2.3499	-0.6714	5.5389	1.1749	-0.3357	0.1678	4.5319	5.8746	-0.1678	47	262	161	11	1	2
-2.182	-0.8392	-5.7068	-2.182	0	-4.6997	-2.8534	-0.1678	1.6785	1.3428	-1.6785	4.1962	0.3357	-0.1678	-0.3357	4.0283	5.2032	-0.5035	47	263	162	11	1	2
-3.8605	-2.182	-7.3853	-3.1891	-1.0071	-6.0425	-4.0283	-0.8392	0.5035	0.1678	-2.3499	3.1891	-0.3357	-0.1678	-0.6714	3.8605	4.5319	-0.5035	47	264	163	11	1	2
-5.5389	-3.8605	-8.8959	-4.5319	-2.182	-7.5531	-5.2032	-1.6785	-1.0071	-0.8392	-3.1891	2.0142	-1.3428	-0.1678	-1.0071	3.5248	3.6926	-0.5035	47	265	164	11	1	2
-7.2174	-5.3711	-10.5743	-5.7068	-3.3569	-8.728	-6.546	-2.6855	-2.182	-1.8463	-3.8605	1.0071	-1.8463	-0.1678	-1.5106	3.3569	3.0212	-0.5035	47	266	165	11	1	2
-8.728	-6.546	-11.7493	-6.8817	-4.364	-10.0708	-7.7209	-3.5248	-3.5248	-2.6855	-4.6997	-0.3357	-2.6855	-0.1678	-1.6785	3.1891	2.3499	-0.5035	47	267	166	11	1	2
-10.0708	-7.7209	-13.2599	-8.0566	-5.3711	-11.2457	-8.728	-4.364	-4.6997	-3.6926	-5.7068	-1.5106	-3.3569	-0.1678	-2.0142	2.8534	1.5106	-0.6714	47	268	167	11	1	2
-11.4136	-8.8959	-14.4348	-9.2316	-6.2103	-12.2528	-9.7351	-5.0354	-5.8746	-4.5319	-6.546	-2.6855	-4.0283	-0.1678	-2.3499	2.6855	0.8392	-0.6714	47	269	168	11	1	2
-12.7563	-9.903	-15.6097	-10.4065	-7.2174	-13.4277	-10.7422	-6.0425	-7.0496	-5.5389	-7.3853	-3.8605	-4.8676	-0.3357	-2.6855	2.5177	0.1678	-0.5035	47	270	169	11	1	2
-13.7634	-10.91	-16.7847	-11.5814	-7.8888	-14.4348	-11.9171	-6.8817	-8.2245	-6.3782	-8.0566	-4.8676	-5.3711	-0.5035	-3.1891	2.5177	-0.5035	-0.3357	47	271	170	11	1	2
-14.9384	-11.4136	-17.6239	-12.5885	-8.5602	-15.274	-12.9242	-7.3853	-9.0637	-7.0496	-8.728	-5.8746	-6.0425	-0.6714	-3.5248	2.3499	-1.1749	-0.1678	47	272	171	11	1	2
-15.7776	-12.085	-18.2953	-13.4277	-9.0637	-15.9454	-13.5956	-7.8888	-9.903	-7.5531	-9.2316	-6.7139	-6.7139	-0.8392	-3.8605	2.5177	-1.5106	0	47	273	172	11	1	2
-16.2811	-12.4207	-18.7988	-14.0991	-9.3994	-16.6168	-14.267	-8.2245	-10.5743	-8.0566	-9.5673	-7.3853	-7.0496	-1.0071	-4.1962	2.6855	-2.0142	0.3357	47	274	173	11	1	2
-16.9525	-12.7563	-19.3024	-15.1062	-9.7351	-17.1204	-14.7705	-8.728	-11.4136	-8.728	-10.0708	-8.2245	-7.7209	-1.3428	-4.5319	2.6855	-2.6855	0.6714	47	275	174	11	1	2
-17.4561	-13.092	-19.6381	-15.7776	-10.0708	-17.6239	-15.4419	-9.0637	-11.9171	-9.0637	-10.5743	-8.8959	-8.0566	-1.6785	-4.8676	3.1891	-3.1891	1.1749	47	276	175	11	1	2
-17.9596	-13.2599	-19.9738	-16.449	-10.2386	-17.9596	-16.1133	-9.3994	-12.4207	-9.5673	-10.7422	-9.3994	-8.5602	-2.0142	-5.2032	3.3569	-3.5248	1.5106	47	277	176	11	1	2
-18.2953	-13.4277	-20.3094	-17.1204	-10.4065	-18.2953	-16.6168	-9.5673	-12.9242	-9.903	-10.91	-10.0708	-8.8959	-2.3499	-5.5389	3.6926	-4.0283	2.0142	47	278	177	11	1	2
-18.4631	-13.4277	-20.4773	-17.6239	-10.4065	-18.4631	-16.9525	-9.7351	-13.2599	-10.2386	-11.0779	-10.5743	-9.2316	-2.6855	-5.8746	4.0283	-4.364	2.5177	47	279	178	11	1	2
-18.631	-13.5956	-20.6451	-17.7917	-10.4065	-18.631	-17.1204	-9.7351	-13.2599	-10.4065	-11.0779	-10.7422	-9.3994	-3.0212	-6.0425	4.5319	-4.8676	3.0212	47	280	179	11	1	2
-18.4631	-13.2599	-20.6451	-18.1274	-10.4065	-18.7988	-17.4561	-9.5673	-13.5956	-10.5743	-10.91	-10.91	-9.3994	-3.3569	-6.0425	5.0354	-5.3711	3.5248	47	281	180	11	1	2
-18.4631	-13.2599	-20.4773	-18.2953	-10.2386	-18.7988	-17.4561	-9.5673	-13.5956	-10.7422	-10.5743	-11.0779	-9.5673	-3.6926	-6.2103	5.2032	-5.7068	4.0283	47	282	181	11	1	2
-18.1274	-13.092	-20.4773	-18.2953	-10.2386	-18.9667	-17.6239	-9.3994	-13.5956	-10.7422	-10.4065	-11.0779	-9.5673	-4.0283	-6.2103	5.8746	-6.0425	4.6997	47	283	182	11	1	2
-17.9596	-12.7563	-20.3094	-18.4631	-10.0708	-18.7988	-17.6239	-9.0637	-13.4277	-10.7422	-10.0708	-11.0779	-9.5673	-4.364	-6.3782	6.2103	-6.3782	5.0354	47	284	183	11	1	2
-17.6239	-12.5885	-20.3094	-18.4631	-9.903	-18.7988	-17.6239	-8.728	-13.4277	-10.91	-9.7351	-11.0779	-9.7351	-4.6997	-6.3782	6.546	-6.7139	5.5389	47	285	184	11	1	2
-16.9525	-12.085	-19.9738	-18.2953	-9.5673	-18.631	-17.4561	-8.2245	-13.092	-10.7422	-8.8959	-10.5743	-9.3994	-4.8676	-6.0425	6.8817	-6.7139	6.0425	47	286	185	11	1	2
-16.6168	-11.7493	-19.8059	-18.2953	-9.3994	-18.631	-17.6239	-7.8888	-13.092	-10.91	-8.5602	-10.4065	-9.2316	-5.2032	-6.0425	7.0496	-7.0496	6.3782	47	287	186	11	1	2
-15.9454	-11.2457	-19.6381	-18.2953	-9.0637	-18.4631	-17.4561	-7.3853	-12.5885	-10.7422	-7.8888	-10.0708	-9.0637	-5.3711	-5.8746	7.3853	-7.2174	6.8817	47	288	187	11	1	2
-15.4419	-11.0779	-19.3024	-18.1274	-8.8959	-18.4631	-17.4561	-6.8817	-12.4207	-10.91	-7.0496	-9.7351	-8.728	-5.5389	-5.7068	7.7209	-7.3853	7.3853	47	289	188	11	1	2
-15.274	-10.91	-19.3024	-18.4631	-8.8959	-18.4631	-17.6239	-6.546	-12.2528	-10.91	-6.546	-9.3994	-8.728	-5.7068	-5.5389	7.8888	-7.5531	7.7209	47	290	189	11	1	2
-15.1062	-10.7422	-19.4702	-18.631	-8.728	-18.4631	-17.6239	-6.2103	-12.085	-11.0779	-6.0425	-8.8959	-8.5602	-5.7068	-5.5389	7.7209	-7.7209	7.8888	47	291	190	11	1	2
24.8413	22.6593	22.995	16.7847	16.1133	18.7988	17.7917	11.5814	17.4561	17.4561	8.2245	14.6027	13.9313	3.3569	13.4277	2.182	11.4136	-0.3357	47	231	130	12	1	2
25.5127	22.995	23.8342	17.4561	16.6168	19.8059	18.4631	12.085	18.4631	18.1274	9.0637	15.9454	14.9384	3.5248	14.0991	2.0142	11.9171	-0.1678	47	232	131	12	1	2
25.8484	23.6664	24.3378	17.7917	17.1204	20.6451	18.7988	12.5885	19.8059	18.9667	9.903	17.1204	15.9454	3.6926	14.7705	1.8463	12.5885	0	47	233	132	12	1	2
26.1841	24.0021	25.0092	18.2953	17.4561	21.3165	19.1345	13.092	20.813	19.4702	10.5743	18.2953	16.7847	3.6926	15.1062	1.6785	12.7563	0	47	234	133	12	1	2
26.5198	24.1699	25.3448	18.631	17.7917	22.1558	19.4702	13.5956	21.8201	19.9738	11.4136	19.1345	17.4561	3.6926	15.274	1.6785	12.9242	0.1678	47	235	134	12	1	2
26.6876	24.5056	26.0162	18.9667	18.1274	22.8271	19.6381	13.9313	22.4915	20.3094	11.9171	19.8059	17.7917	3.6926	15.274	1.3428	12.9242	0.3357	47	236	135	12	1	2
26.8555	24.5056	26.5198	18.7988	18.4631	23.3307	19.6381	14.267	23.3307	20.3094	12.4207	20.4773	18.1274	3.5248	15.1062	1.1749	12.5885	0.3357	47	237	136	12	1	2
26.8555	24.5056	26.6876	18.9667	18.631	23.8342	19.4702	14.7705	23.8342	20.4773	13.092	20.9808	18.1274	3.3569	14.7705	1.3428	12.2528	0.6714	47	238	137	12	1	2
26.8555	24.6735	26.8555	18.631	18.9667	24.3378	19.3024	14.9384	24.3378	20.1416	13.4277	21.3165	18.1274	3.1891	14.0991	1.1749	11.7493	0.8392	47	239	138	12	1	2
26.6876	24.8413	27.1912	18.4631	18.9667	24.5056	18.7988	15.1062	24.8413	20.1416	13.7634	21.6522	17.9596	3.0212	13.5956	1.1749	11.2457	0.8392	47	240	139	12	1	2
26.3519	24.8413	27.1912	18.1274	19.1345	24.6735	18.631	15.274	25.0092	19.6381	13.7634	21.6522	17.4561	2.6855	12.7563	1.1749	10.5743	1.0071	47	241	140	12	1	2
26.0162	24.6735	27.0233	17.4561	19.1345	24.6735	18.1274	15.4419	25.177	18.9667	13.9313	21.8201	17.1204	2.3499	11.5814	1.1749	9.7351	1.3428	47	242	141	12	1	2
25.8484	24.5056	27.0233	16.9525	18.9667	24.6735	17.4561	15.4419	25.177	18.631	13.9313	21.8201	16.449	2.0142	10.5743	1.1749	9.2316	1.3428	47	243	142	12	1	2
25.3448	24.3378	27.0233	16.2811	19.1345	24.6735	16.9525	15.4419	25.177	17.9596	13.9313	21.6522	16.1133	1.6785	9.3994	1.5106	8.3923	1.6785	47	244	143	12	1	2
25.0092	24.1699	26.8555	15.7776	18.631	24.5056	16.2811	15.274	25.177	17.4561	13.7634	21.6522	15.4419	1.3428	8.3923	1.5106	7.7209	1.6785	47	245	144	12	1	2
24.6735	23.8342	26.6876	15.274	18.631	24.5056	15.7776	15.1062	24.8413	16.7847	13.5956	21.3165	14.6027	0.8392	7.0496	1.6785	7.0496	1.8463	47	246	145	12	1	2
24.3378	23.8342	26.6876	14.7705	18.2953	24.5056	15.1062	14.9384	24.8413	15.9454	13.4277	20.9808	14.0991	0.5035	5.8746	2.0142	6.3782	2.0142	47	247	146	12	1	2
24.3378	23.4985	26.5198	14.4348	18.2953	24.3378	14.7705	14.7705	24.5056	15.4419	13.092	20.6451	13.2599	0	4.8676	2.3499	5.5389	2.3499	47	248	147	12	1	2
24.5056	23.6664	26.8555	14.267	18.1274	24.1699	14.6027	14.6027	24.3378	14.9384	12.9242	20.3094	12.7563	-0.3357	3.8605	2.8534	4.8676	2.6855	47	249	148	12	1	2
24.6735	24.0021	27.1912	14.0991	18.1274	24.5056	14.4348	14.4348	24.3378	14.6027	12.4207	20.1416	12.4207	-0.5035	3.0212	3.1891	4.364	2.8534	47	250	149	12	1	2
25.3448	24.3378	27.5269	14.0991	18.1274	24.8413	14.4348	14.267	24.3378	14.0991	12.085	19.9738	12.085	-0.6714	2.182	3.6926	4.0283	3.1891	47	251	150	12	1	2
26.0162	24.3378	28.0304	14.6027	18.1274	25.0092	14.4348	14.0991	24.1699	14.0991	11.9171	19.8059	11.5814	-0.8392	1.6785	4.1962	3.5248	3.5248	47	252	151	12	1	2
26.5198	24.8413	28.7018	14.7705	17.9596	25.3448	14.4348	13.5956	24.0021	13.7634	11.2457	19.4702	11.2457	-0.8392	1.0071	4.364	3.0212	3.5248	47	253	152	12	1	2
26.8555	24.8413	28.8696	14.9384	17.9596	25.3448	14.6027	13.2599	23.6664	13.5956	10.7422	18.9667	10.91	-1.0071	0.6714	4.6997	2.6855	3.6926	47	254	153	12	1	2
27.1912	24.8413	29.2053	15.274	17.7917	25.5127	14.6027	12.7563	23.3307	13.2599	10.0708	18.4631	10.4065	-1.0071	0.1678	4.6997	2.3499	3.5248	47	255	154	12	1	2
27.5269	24.6735	29.2053	15.274	17.2882	25.5127	14.4348	12.085	22.995	13.092	9.3994	17.9596	10.0708	-1.0071	-0.1678	4.8676	2.0142	3.5248	47	256	155	12	1	2
27.5269	24.3378	29.2053	15.1062	16.7847	25.3448	14.0991	11.4136	22.3236	12.5885	8.5602	17.2882	9.3994	-1.0071	-0.6714	4.6997	1.6785	3.1891	47	257	156	12	1	2
27.359	23.8342	29.0375	15.1062	16.1133	25.0092	13.7634	10.4065	21.4844	12.085	7.5531	16.449	8.8959	-1.0071	-1.1749	4.364	1.1749	2.6855	47	258	157	12	1	2
27.0233	23.4985	28.8696	14.9384	15.274	24.6735	13.2599	9.2316	20.6451	11.2457	6.3782	15.6097	8.0566	-0.8392	-1.6785	3.8605	0.6714	2.182	47	259	158	12	1	2
26.5198	22.6593	28.1982	14.4348	14.4348	24.0021	12.7563	8.2245	19.8059	10.7422	5.3711	14.7705	7.3853	-0.8392	-2.0142	3.5248	0.5035	1.6785	47	260	159	12	1	2
25.6805	21.9879	27.5269	14.0991	13.5956	23.3307	12.2528	7.2174	18.631	10.0708	4.1962	13.5956	6.7139	-0.8392	-2.182	3.0212	0.1678	1.1749	47	261	160	12	1	2
24.8413	21.3165	26.8555	13.5956	12.7563	22.6593	11.4136	6.2103	17.7917	9.2316	3.1891	12.5885	6.0425	-0.8392	-2.5177	2.5177	0	0.6714	47	262	161	12	1	2
24.0021	20.3094	25.8484	12.9242	11.7493	21.6522	10.7422	5.0354	16.449	8.3923	2.182	11.7493	5.3711	-0.6714	-2.6855	1.8463	-0.3357	0.1678	47	263	162	12	1	2
22.995	19.8059	25.3448	12.4207	11.0779	20.9808	10.2386	4.1962	15.6097	7.7209	1.1749	10.5743	4.6997	-0.6714	-2.6855	1.3428	-0.3357	-0.1678	47	264	163	12	1	2
21.9879	18.7988	24.1699	11.4136	10.0708	19.9738	9.2316	3.0212	14.4348	6.8817	0.1678	9.2316	3.8605	-0.5035	-2.8534	0.6714	-0.8392	-0.6714	47	265	164	12	1	2
21.1487	18.1274	23.3307	10.7422	9.2316	18.9667	8.3923	2.182	13.4277	6.0425	-0.6714	8.2245	3.1891	-0.5035	-2.8534	0.1678	-1.0071	-1.0071	47	266	165	12	1	2
19.6381	16.9525	22.1558	9.7351	8.0566	17.7917	7.3853	1.0071	12.2528	5.0354	-1.6785	7.0496	2.182	-0.3357	-3.0212	-0.6714	-1.3428	-1.3428	47	267	166	12	1	2
18.631	16.1133	21.1487	8.728	7.0496	16.449	6.3782	0.1678	11.2457	4.1962	-2.3499	6.0425	1.5106	-0.3357	-3.1891	-1.1749	-1.5106	-1.5106	47	268	167	12	1	2
17.2882	15.1062	19.9738	7.7209	6.0425	15.274	5.3711	-0.8392	10.0708	3.1891	-3.1891	5.0354	0.5035	-0.1678	-3.3569	-1.8463	-1.8463	-1.8463	47	269	168	12	1	2
16.2811	14.267	18.7988	6.7139	5.2032	14.0991	4.364	-1.5106	9.0637	2.3499	-3.6926	4.0283	-0.1678	-0.1678	-3.3569	-2.3499	-2.182	-1.8463	47	270	169	12	1	2
15.1062	13.2599	17.6239	5.7068	4.1962	12.9242	3.1891	-2.3499	7.8888	1.3428	-4.364	3.0212	-1.0071	0	-3.5248	-3.0212	-2.5177	-2.0142	47	271	170	12	1	2
13.7634	12.4207	16.449	4.364	3.3569	11.5814	2.0142	-3.1891	6.8817	0.3357	-4.8676	2.182	-2.0142	0	-3.8605	-3.5248	-2.8534	-2.0142	47	272	171	12	1	2
12.7563	11.5814	15.274	3.5248	2.6855	10.5743	1.0071	-3.6926	6.0425	-0.6714	-5.0354	1.3428	-2.6855	0	-4.0283	-4.0283	-3.1891	-2.0142	47	273	172	12	1	2
11.9171	10.91	14.267	2.5177	2.0142	9.3994	0	-4.1962	5.2032	-1.5106	-5.2032	0.6714	-3.5248	0	-4.0283	-4.5319	-3.3569	-1.8463	47	274	173	12	1	2
11.4136	10.4065	13.4277	2.0142	1.5106	8.5602	-0.8392	-4.5319	4.5319	-2.3499	-5.2032	0.1678	-4.0283	-0.1678	-4.0283	-4.6997	-3.5248	-1.3428	47	275	174	12	1	2
10.7422	9.903	12.5885	1.3428	1.0071	7.5531	-1.6785	-4.8676	3.8605	-3.1891	-5.0354	-0.3357	-4.6997	-0.3357	-4.1962	-5.0354	-3.6926	-1.0071	47	276	175	12	1	2
10.0708	9.5673	11.7493	0.8392	0.5035	6.8817	-2.5177	-4.8676	3.3569	-3.8605	-4.6997	-0.6714	-5.2032	-0.5035	-3.8605	-5.2032	-3.8605	-0.6714	47	277	176	12	1	2
9.7351	9.2316	11.2457	0.5035	0.3357	6.0425	-3.0212	-5.0354	2.8534	-4.5319	-4.364	-1.0071	-5.7068	-0.6714	-4.0283	-5.3711	-3.8605	-0.1678	47	278	177	12	1	2
9.7351	9.2316	10.7422	0.3357	0.3357	5.5389	-3.5248	-4.6997	2.6855	-4.8676	-3.5248	-0.8392	-5.7068	-1.0071	-3.6926	-5.0354	-3.6926	0.6714	47	279	178	12	1	2
9.3994	9.0637	10.2386	0.3357	0.1678	4.8676	-4.0283	-4.364	2.5177	-5.3711	-3.0212	-1.0071	-6.0425	-1.1749	-3.5248	-5.0354	-3.6926	1.3428	47	280	179	12	1	2
9.2316	9.0637	9.903	0.3357	0.1678	4.364	-4.5319	-4.1962	2.3499	-5.7068	-2.3499	-1.0071	-6.3782	-1.6785	-3.3569	-4.8676	-3.8605	2.0142	47	281	180	12	1	2
9.2316	9.2316	9.7351	0.5035	0.5035	4.364	-4.5319	-3.6926	2.3499	-5.8746	-1.5106	-0.8392	-6.3782	-1.8463	-3.0212	-4.6997	-3.6926	2.8534	47	282	181	12	1	2
9.3994	9.5673	9.903	1.0071	0.6714	4.0283	-4.6997	-3.1891	2.5177	-5.8746	-0.6714	-0.6714	-6.2103	-2.0142	-2.5177	-4.364	-3.6926	3.5248	47	283	182	12	1	2
9.5673	9.903	9.903	1.3428	1.0071	4.0283	-4.6997	-2.5177	2.6855	-5.8746	0.3357	-0.1678	-6.0425	-2.182	-1.8463	-3.8605	-3.5248	4.364	47	284	183	12	1	2
9.903	10.0708	9.7351	1.5106	1.3428	3.8605	-4.6997	-2.0142	2.8534	-5.8746	1.1749	0	-5.8746	-2.3499	-1.5106	-3.5248	-3.5248	5.0354	47	285	184	12	1	2
10.2386	10.4065	10.0708	2.182	1.6785	4.0283	-4.364	-1.1749	3.3569	-5.5389	2.3499	0.5035	-5.3711	-2.3499	-0.6714	-2.8534	-3.1891	5.8746	47	286	185	12	1	2
10.5743	10.7422	10.2386	2.5177	2.182	4.1962	-4.0283	-0.6714	3.5248	-5.3711	3.1891	0.8392	-5.0354	-2.3499	-0.1678	-2.3499	-3.0212	6.546	47	287	186	12	1	2
11.0779	11.0779	10.5743	3.0212	2.3499	4.1962	-3.8605	0	4.0283	-4.8676	4.0283	1.1749	-4.5319	-2.3499	0.5035	-1.6785	-2.8534	7.3853	47	288	187	12	1	2
11.2457	11.4136	10.7422	3.3569	2.6855	4.364	-3.5248	0.5035	4.1962	-4.5319	4.6997	1.6785	-4.1962	-2.3499	1.1749	-1.1749	-2.3499	7.8888	47	289	188	12	1	2
11.5814	11.5814	11.0779	3.8605	2.8534	4.5319	-3.0212	1.1749	4.6997	-4.1962	5.3711	1.8463	-3.8605	-2.3499	1.6785	-0.6714	-2.182	8.3923	47	290	189	12	1	2
11.7493	11.5814	11.4136	4.0283	3.1891	4.6997	-2.8534	1.5106	4.8676	-3.8605	6.0425	2.182	-3.1891	-2.3499	2.182	0	-2.0142	9.0637	47	291	190	12	1	2
-5.5389	-13.9313	-14.0991	-8.8959	-17.7917	-21.3165	-15.274	-20.3094	-25.6805	-20.4773	-23.3307	-25.8484	-20.813	-0.5035	-10.7422	-12.085	-6.8817	-16.6168	47	231	130	13	1	2
-5.7068	-14.0991	-14.4348	-9.0637	-18.2953	-21.6522	-15.4419	-20.9808	-26.1841	-20.9808	-24.1699	-26.6876	-21.3165	-0.5035	-10.91	-12.5885	-7.0496	-17.2882	47	232	131	13	1	2
-5.8746	-14.0991	-14.4348	-9.2316	-18.4631	-21.8201	-15.6097	-21.4844	-26.5198	-21.1487	-24.8413	-27.1912	-21.4844	-0.5035	-10.91	-12.7563	-7.0496	-17.6239	47	233	132	13	1	2
-6.0425	-14.0991	-14.7705	-9.3994	-18.7988	-22.1558	-15.9454	-22.1558	-27.0233	-21.4844	-25.5127	-27.6947	-21.8201	-0.5035	-11.0779	-13.092	-6.7139	-18.2953	47	234	133	13	1	2
-5.8746	-14.0991	-14.7705	-9.7351	-18.9667	-22.3236	-16.1133	-22.6593	-27.359	-21.4844	-26.1841	-28.0304	-22.3236	-0.5035	-11.4136	-13.2599	-6.7139	-18.631	47	235	134	13	1	2
-5.8746	-13.7634	-14.7705	-9.7351	-19.1345	-22.4915	-16.6168	-23.3307	-27.6947	-21.8201	-26.6876	-28.5339	-22.4915	-0.5035	-11.7493	-13.4277	-6.7139	-19.1345	47	236	135	13	1	2
-5.3711	-13.7634	-14.9384	-9.7351	-19.3024	-22.8271	-16.9525	-23.8342	-28.0304	-22.1558	-27.359	-28.8696	-22.995	-0.5035	-12.085	-13.7634	-6.3782	-19.8059	47	237	136	13	1	2
-5.0354	-13.4277	-14.9384	-9.7351	-19.3024	-22.995	-17.2882	-24.1699	-28.1982	-22.3236	-27.8625	-29.3732	-23.3307	-0.5035	-12.4207	-13.9313	-6.3782	-20.1416	47	238	137	13	1	2
-4.5319	-13.092	-14.9384	-9.903	-19.3024	-22.995	-17.6239	-24.5056	-28.1982	-22.6593	-28.0304	-29.541	-23.6664	-0.5035	-12.7563	-13.9313	-6.2103	-20.3094	47	239	138	13	1	2
-4.0283	-12.5885	-14.6027	-9.7351	-19.3024	-22.995	-17.7917	-24.8413	-28.3661	-22.8271	-28.5339	-29.7089	-24.0021	-0.5035	-13.4277	-14.267	-6.3782	-20.6451	47	240	139	13	1	2
-3.5248	-12.2528	-14.4348	-9.7351	-19.1345	-22.995	-18.1274	-25.0092	-28.3661	-22.995	-28.7018	-29.7089	-24.3378	-0.5035	-13.9313	-14.267	-6.2103	-20.813	47	241	140	13	1	2
-3.0212	-11.7493	-14.267	-10.0708	-18.9667	-22.995	-18.4631	-25.177	-28.1982	-23.1628	-28.7018	-29.7089	-24.5056	-0.6714	-14.4348	-14.267	-6.546	-20.9808	47	242	141	13	1	2
-2.3499	-11.2457	-13.7634	-9.903	-18.7988	-22.8271	-18.631	-25.3448	-28.1982	-23.4985	-28.7018	-29.7089	-24.8413	-0.6714	-15.1062	-14.4348	-6.7139	-21.1487	47	243	142	13	1	2
-1.6785	-10.7422	-13.5956	-9.903	-18.631	-23.1628	-19.1345	-25.5127	-28.1982	-23.8342	-28.8696	-29.7089	-25.3448	-0.6714	-16.1133	-14.4348	-6.8817	-21.1487	47	244	143	13	1	2
-1.3428	-10.2386	-13.4277	-10.0708	-18.631	-22.995	-19.4702	-25.3448	-28.0304	-23.8342	-28.7018	-29.541	-25.6805	-0.8392	-16.6168	-14.6027	-7.5531	-21.1487	47	245	144	13	1	2
-0.8392	-10.0708	-13.2599	-10.2386	-18.4631	-22.995	-19.9738	-25.5127	-28.0304	-24.5056	-28.5339	-29.541	-26.0162	-0.8392	-17.6239	-14.6027	-7.8888	-21.1487	47	246	145	13	1	2
-0.6714	-9.5673	-13.092	-10.5743	-18.4631	-22.995	-20.4773	-25.5127	-27.8625	-24.8413	-28.3661	-29.0375	-26.3519	-1.0071	-18.2953	-14.4348	-8.3923	-20.9808	47	247	146	13	1	2
-0.3357	-9.2316	-13.092	-10.91	-18.2953	-23.1628	-20.813	-25.5127	-27.8625	-25.0092	-28.0304	-28.8696	-26.8555	-1.1749	-18.9667	-14.4348	-9.0637	-20.9808	47	248	147	13	1	2
-0.1678	-9.0637	-13.092	-11.4136	-18.2953	-23.3307	-21.6522	-25.3448	-27.6947	-25.6805	-27.8625	-28.7018	-27.359	-1.3428	-19.8059	-14.4348	-9.7351	-20.813	47	249	148	13	1	2
-0.1678	-8.728	-13.092	-12.085	-18.1274	-23.1628	-21.9879	-25.0092	-27.359	-26.0162	-27.1912	-28.1982	-27.6947	-1.6785	-20.4773	-14.267	-10.5743	-20.3094	47	250	149	13	1	2
0	-8.3923	-13.2599	-12.9242	-18.1274	-23.3307	-22.6593	-24.6735	-27.1912	-26.5198	-26.8555	-27.8625	-28.0304	-2.0142	-21.3165	-14.0991	-11.2457	-20.1416	47	251	150	13	1	2
-0.1678	-8.3923	-13.2599	-13.7634	-17.9596	-23.3307	-23.1628	-24.3378	-27.0233	-26.8555	-26.1841	-27.5269	-28.3661	-2.6855	-21.8201	-13.9313	-12.085	-19.6381	47	252	151	13	1	2
-0.3357	-8.2245	-13.4277	-14.6027	-17.7917	-23.3307	-23.6664	-24.0021	-26.6876	-27.0233	-25.5127	-26.8555	-28.3661	-3.1891	-22.3236	-13.4277	-12.5885	-18.9667	47	253	152	13	1	2
-0.8392	-8.2245	-13.5956	-15.4419	-17.6239	-23.3307	-24.1699	-23.4985	-26.1841	-27.1912	-24.6735	-26.1841	-28.3661	-3.6926	-22.6593	-13.092	-13.092	-18.1274	47	254	153	13	1	2
-1.3428	-8.5602	-13.9313	-16.449	-17.7917	-23.4985	-24.6735	-23.3307	-26.1841	-27.5269	-24.0021	-25.6805	-28.5339	-4.364	-22.995	-12.7563	-13.7634	-17.6239	47	255	154	13	1	2
-1.8463	-8.3923	-14.4348	-17.6239	-17.7917	-23.6664	-25.3448	-22.8271	-25.8484	-27.8625	-23.3307	-25.177	-28.5339	-5.0354	-23.4985	-12.4207	-14.267	-16.9525	47	256	155	13	1	2
-2.6855	-8.728	-14.9384	-18.631	-17.7917	-23.8342	-25.8484	-22.4915	-25.5127	-28.0304	-22.6593	-24.8413	-28.3661	-5.7068	-23.6664	-12.085	-14.9384	-16.2811	47	257	156	13	1	2
-3.5248	-8.8959	-15.4419	-19.8059	-17.9596	-24.0021	-26.3519	-22.1558	-25.177	-28.0304	-21.9879	-24.1699	-28.3661	-6.2103	-23.6664	-11.7493	-15.274	-15.6097	47	258	157	13	1	2
-4.6997	-9.5673	-16.1133	-20.813	-18.1274	-24.1699	-26.6876	-21.9879	-25.177	-28.1982	-21.4844	-23.6664	-28.1982	-6.7139	-23.6664	-11.4136	-15.6097	-14.9384	47	259	158	13	1	2
-5.8746	-10.0708	-16.9525	-21.9879	-18.4631	-24.5056	-27.1912	-21.6522	-25.0092	-28.1982	-20.9808	-23.3307	-28.0304	-7.2174	-23.8342	-11.4136	-16.1133	-14.6027	47	260	159	13	1	2
-7.0496	-10.7422	-17.9596	-23.3307	-18.7988	-25.0092	-27.6947	-21.8201	-25.177	-28.3661	-20.813	-22.995	-27.8625	-7.7209	-23.8342	-11.2457	-16.449	-14.0991	47	261	160	13	1	2
-8.3923	-11.2457	-18.7988	-24.3378	-18.9667	-25.3448	-28.1982	-21.6522	-25.0092	-28.3661	-20.3094	-22.6593	-27.6947	-8.0566	-23.6664	-11.0779	-16.449	-13.5956	47	262	161	13	1	2
-9.903	-12.085	-19.8059	-25.5127	-19.6381	-25.8484	-28.7018	-21.8201	-25.177	-28.5339	-20.3094	-22.4915	-27.6947	-8.3923	-23.8342	-11.0779	-16.7847	-13.4277	47	263	162	13	1	2
-11.5814	-12.5885	-20.6451	-26.3519	-19.8059	-26.1841	-29.0375	-21.8201	-25.3448	-28.5339	-20.3094	-22.3236	-27.5269	-8.5602	-23.6664	-11.0779	-16.7847	-13.092	47	264	163	13	1	2
-12.7563	-13.2599	-21.6522	-27.1912	-20.3094	-26.6876	-29.3732	-22.1558	-25.5127	-28.7018	-20.1416	-21.9879	-27.359	-8.5602	-23.4985	-11.0779	-16.7847	-12.7563	47	265	164	13	1	2
-14.0991	-13.9313	-22.4915	-28.0304	-20.813	-27.0233	-29.7089	-22.3236	-25.6805	-28.7018	-20.3094	-22.1558	-27.359	-8.5602	-23.4985	-11.2457	-16.9525	-12.7563	47	266	165	13	1	2
-15.274	-14.4348	-23.3307	-28.5339	-21.1487	-27.359	-30.0446	-22.6593	-25.8484	-28.7018	-20.4773	-22.1558	-27.359	-8.3923	-23.1628	-11.4136	-16.6168	-12.7563	47	267	166	13	1	2
-16.2811	-14.9384	-24.1699	-29.0375	-21.4844	-27.6947	-30.2124	-22.6593	-25.8484	-28.5339	-20.3094	-21.8201	-27.0233	-8.0566	-22.995	-11.4136	-16.6168	-12.5885	47	268	167	13	1	2
-17.1204	-15.4419	-24.6735	-29.2053	-21.6522	-28.0304	-30.2124	-22.995	-26.1841	-28.7018	-20.4773	-21.9879	-27.0233	-7.7209	-22.995	-11.5814	-16.449	-12.7563	47	269	168	13	1	2
-18.1274	-16.1133	-25.5127	-29.541	-22.1558	-28.5339	-30.3802	-23.4985	-26.5198	-28.8696	-20.813	-22.1558	-27.1912	-7.3853	-22.995	-11.9171	-16.6168	-12.9242	47	270	169	13	1	2
-18.631	-16.2811	-25.8484	-29.3732	-22.1558	-28.5339	-30.2124	-23.6664	-26.8555	-28.8696	-20.9808	-22.1558	-27.1912	-6.8817	-22.8271	-12.085	-16.449	-12.9242	47	271	170	13	1	2
-19.1345	-16.7847	-26.3519	-29.3732	-22.4915	-29.0375	-30.3802	-23.8342	-27.0233	-28.7018	-20.9808	-22.1558	-27.0233	-6.546	-22.8271	-12.2528	-16.2811	-13.092	47	272	171	13	1	2
-19.6381	-16.9525	-26.6876	-29.0375	-22.8271	-29.2053	-30.2124	-24.1699	-27.359	-28.8696	-21.1487	-22.3236	-27.0233	-6.2103	-22.6593	-12.4207	-16.449	-13.2599	47	273	172	13	1	2
-19.6381	-17.1204	-26.8555	-28.5339	-22.8271	-29.3732	-30.0446	-24.1699	-27.5269	-28.7018	-21.1487	-22.3236	-27.0233	-5.8746	-22.6593	-12.5885	-16.2811	-13.2599	47	274	173	13	1	2
-19.6381	-17.1204	-26.8555	-28.0304	-22.8271	-29.541	-29.8767	-24.1699	-27.5269	-28.5339	-21.1487	-22.3236	-26.8555	-5.5389	-22.3236	-12.5885	-16.2811	-13.2599	47	275	174	13	1	2
-19.6381	-17.1204	-26.8555	-27.359	-22.6593	-29.541	-29.541	-24.1699	-27.5269	-28.5339	-20.9808	-22.3236	-26.6876	-5.3711	-22.1558	-12.5885	-16.2811	-13.2599	47	276	175	13	1	2
-19.3024	-16.7847	-26.5198	-26.5198	-22.3236	-29.3732	-28.8696	-23.8342	-27.359	-28.1982	-20.6451	-21.9879	-26.3519	-5.0354	-21.8201	-12.4207	-16.2811	-13.092	47	277	176	13	1	2
-18.9667	-16.449	-26.3519	-25.6805	-21.9879	-29.3732	-28.5339	-23.4985	-27.1912	-27.8625	-20.3094	-21.6522	-26.0162	-4.8676	-21.4844	-12.2528	-16.2811	-12.9242	47	278	177	13	1	2
-18.4631	-16.1133	-26.1841	-24.8413	-21.3165	-29.0375	-28.0304	-22.995	-27.0233	-27.5269	-19.8059	-21.3165	-25.6805	-4.6997	-20.9808	-12.085	-16.1133	-12.5885	47	279	178	13	1	2
-18.2953	-15.7776	-26.0162	-24.1699	-21.1487	-29.0375	-27.8625	-22.8271	-27.0233	-27.359	-19.4702	-21.1487	-25.5127	-4.6997	-20.813	-11.9171	-16.2811	-12.4207	47	280	179	13	1	2
-17.9596	-15.4419	-25.8484	-23.4985	-20.813	-29.0375	-27.5269	-22.3236	-26.8555	-27.0233	-18.9667	-20.813	-25.177	-4.5319	-20.3094	-11.7493	-16.2811	-11.9171	47	281	180	13	1	2
-17.6239	-15.1062	-25.6805	-22.8271	-20.3094	-29.0375	-27.1912	-21.8201	-26.6876	-26.8555	-18.4631	-20.4773	-24.8413	-4.364	-19.8059	-11.5814	-16.2811	-11.5814	47	282	181	13	1	2
-17.2882	-14.7705	-25.5127	-22.3236	-19.9738	-29.0375	-26.8555	-21.3165	-26.3519	-26.5198	-17.9596	-20.1416	-24.5056	-4.1962	-19.3024	-11.4136	-16.2811	-11.2457	47	283	182	13	1	2
-16.9525	-14.267	-25.3448	-21.8201	-19.3024	-28.7018	-26.6876	-20.9808	-26.1841	-26.3519	-17.4561	-19.8059	-24.1699	-4.0283	-18.7988	-11.2457	-16.1133	-10.91	47	284	183	13	1	2
-16.449	-13.9313	-25.177	-21.4844	-18.9667	-28.7018	-26.5198	-20.4773	-26.0162	-26.0162	-16.9525	-19.4702	-23.8342	-3.8605	-18.2953	-11.0779	-16.1133	-10.5743	47	285	184	13	1	2
-16.1133	-13.4277	-24.6735	-20.9808	-18.4631	-28.5339	-26.1841	-19.9738	-25.6805	-25.6805	-16.2811	-18.9667	-23.1628	-3.5248	-17.4561	-10.7422	-15.7776	-10.0708	47	286	185	13	1	2
-15.7776	-12.9242	-24.6735	-20.813	-18.1274	-28.5339	-26.0162	-19.4702	-25.5127	-25.3448	-15.7776	-18.631	-22.8271	-3.3569	-16.9525	-10.5743	-15.7776	-9.7351	47	287	186	13	1	2
-15.274	-12.4207	-24.3378	-20.6451	-17.7917	-28.5339	-25.8484	-18.9667	-25.177	-25.0092	-15.274	-18.2953	-22.3236	-3.1891	-16.2811	-10.2386	-15.6097	-9.3994	47	288	187	13	1	2
-14.9384	-12.2528	-24.3378	-20.813	-17.6239	-28.5339	-25.8484	-18.7988	-25.0092	-24.8413	-14.9384	-18.1274	-21.9879	-3.1891	-15.7776	-10.2386	-15.4419	-9.3994	47	289	188	13	1	2
-14.4348	-11.9171	-24.0021	-20.813	-17.2882	-28.3661	-25.6805	-18.4631	-24.8413	-24.6735	-14.4348	-17.7917	-21.4844	-3.0212	-15.1062	-10.0708	-15.274	-9.0637	47	290	189	13	1	2
-13.9313	-11.5814	-23.6664	-20.9808	-17.1204	-28.1982	-25.5127	-18.1274	-24.6735	-24.3378	-14.0991	-17.6239	-20.9808	-2.8534	-14.4348	-9.903	-14.9384	-8.8959	47	291	190	13	1	2
-2.5177	-4.1962	0	-3.0212	-1.3428	5.0354	1.8463	4.8676	9.2316	7.3853	8.728	14.4348	14.267	4.8676	17.4561	-6.3782	8.2245	-2.182	47	231	130	14	1	2
-2.6855	-4.364	-0.1678	-3.0212	-1.3428	4.8676	1.6785	4.6997	9.2316	7.0496	8.5602	14.0991	14.0991	4.8676	16.9525	-6.3782	7.7209	-2.5177	47	232	131	14	1	2
-2.8534	-4.1962	-0.1678	-3.1891	-1.5106	4.8676	1.5106	4.6997	9.0637	6.7139	8.3923	13.9313	13.7634	4.6997	16.2811	-6.3782	7.0496	-2.6855	47	233	132	14	1	2
-3.1891	-4.364	-0.3357	-3.3569	-1.3428	4.8676	1.1749	4.6997	9.2316	6.3782	8.0566	13.9313	13.5956	4.6997	15.9454	-6.3782	6.7139	-2.8534	47	234	133	14	1	2
-3.1891	-4.364	-0.3357	-3.5248	-1.3428	4.8676	1.0071	4.6997	9.0637	6.2103	7.8888	13.7634	13.2599	4.5319	15.274	-6.3782	6.2103	-3.1891	47	235	134	14	1	2
-3.1891	-4.1962	-0.1678	-3.5248	-1.5106	5.0354	0.8392	4.5319	9.0637	6.0425	7.7209	13.5956	12.9242	4.1962	14.4348	-6.2103	5.3711	-3.3569	47	236	135	14	1	2
-3.0212	-4.1962	-0.1678	-3.5248	-1.3428	5.0354	0.8392	4.5319	9.2316	5.8746	7.7209	13.5956	12.5885	4.0283	13.7634	-6.0425	4.8676	-3.3569	47	237	136	14	1	2
-3.0212	-4.0283	0	-3.6926	-1.3428	5.2032	0.6714	4.5319	9.2316	5.7068	7.3853	13.5956	12.2528	3.8605	12.9242	-6.2103	4.1962	-3.6926	47	238	137	14	1	2
-2.8534	-3.8605	0.1678	-3.6926	-1.1749	5.3711	0.3357	4.364	9.3994	5.5389	7.2174	13.5956	11.9171	3.5248	12.085	-6.2103	3.3569	-4.0283	47	239	138	14	1	2
-2.5177	-3.3569	0.8392	-3.5248	-0.8392	5.7068	0.5035	4.5319	9.5673	5.5389	7.2174	13.2599	11.5814	3.1891	11.0779	-5.8746	2.6855	-4.0283	47	240	139	14	1	2
-1.8463	-3.0212	1.1749	-3.1891	-0.6714	6.0425	0.5035	4.5319	9.903	5.5389	7.2174	13.2599	11.0779	2.8534	9.903	-5.7068	2.0142	-4.1962	47	241	140	14	1	2
-1.3428	-2.5177	1.8463	-3.0212	-0.3357	6.546	0.5035	4.6997	10.2386	5.3711	6.8817	13.2599	10.7422	2.5177	8.728	-5.5389	1.3428	-4.364	47	242	141	14	1	2
-0.6714	-1.6785	2.5177	-2.5177	0	7.2174	0.6714	4.6997	10.5743	5.5389	6.8817	13.092	10.0708	2.182	7.7209	-5.5389	0.6714	-4.5319	47	243	142	14	1	2
0.3357	-1.0071	3.3569	-1.8463	0.5035	7.8888	1.0071	4.8676	10.91	5.5389	6.7139	13.092	9.7351	1.8463	6.546	-5.3711	0	-4.6997	47	244	143	14	1	2
1.5106	-0.1678	4.5319	-1.3428	1.0071	8.5602	1.3428	5.0354	11.4136	5.5389	6.7139	13.092	9.2316	1.5106	5.3711	-5.0354	-0.6714	-4.6997	47	245	144	14	1	2
2.6855	0.8392	5.7068	-0.3357	1.8463	9.3994	1.6785	5.2032	11.7493	5.5389	6.7139	12.9242	8.8959	1.1749	4.1962	-4.5319	-1.3428	-4.5319	47	246	145	14	1	2
4.0283	1.6785	6.7139	0.3357	2.3499	10.2386	2.182	5.5389	12.2528	5.5389	6.7139	12.9242	8.3923	0.8392	3.1891	-4.364	-2.0142	-4.5319	47	247	146	14	1	2
5.3711	2.8534	8.0566	1.1749	3.0212	11.0779	2.5177	5.8746	12.7563	5.5389	6.546	12.7563	7.8888	0.5035	2.0142	-4.0283	-2.8534	-4.5319	47	248	147	14	1	2
6.546	3.8605	9.0637	1.8463	3.6926	11.9171	3.0212	5.8746	13.092	5.7068	6.3782	12.7563	7.3853	0.1678	0.8392	-3.6926	-3.3569	-4.5319	47	249	148	14	1	2
7.8888	4.6997	10.5743	2.6855	4.1962	12.7563	3.1891	6.0425	13.5956	5.5389	6.2103	12.7563	6.8817	0	-0.3357	-3.1891	-4.0283	-4.364	47	250	149	14	1	2
9.2316	5.5389	11.7493	3.5248	4.6997	13.5956	3.6926	6.3782	14.0991	5.7068	6.0425	12.5885	6.2103	-0.3357	-1.3428	-3.0212	-4.6997	-4.1962	47	251	150	14	1	2
10.7422	6.3782	12.7563	4.364	5.3711	14.4348	4.1962	6.3782	14.4348	5.5389	5.8746	12.4207	5.8746	-0.8392	-2.3499	-2.5177	-5.2032	-4.0283	47	252	151	14	1	2
11.7493	7.2174	13.7634	5.0354	5.7068	14.9384	4.364	6.546	14.7705	5.5389	5.5389	12.2528	5.2032	-1.1749	-3.5248	-2.182	-5.7068	-4.0283	47	253	152	14	1	2
12.9242	8.0566	14.6027	5.7068	6.0425	15.6097	4.6997	6.546	14.9384	5.3711	5.3711	12.085	4.8676	-1.5106	-4.1962	-1.8463	-6.0425	-3.8605	47	254	153	14	1	2
13.7634	8.5602	15.4419	6.3782	6.2103	15.9454	5.0354	6.8817	15.1062	5.5389	5.2032	11.7493	4.5319	-1.6785	-5.0354	-1.3428	-6.2103	-3.6926	47	255	154	14	1	2
14.4348	8.8959	15.9454	6.7139	6.3782	16.449	5.3711	6.546	15.274	5.3711	4.6997	11.4136	3.8605	-2.0142	-5.8746	-1.1749	-6.546	-3.8605	47	256	155	14	1	2
14.9384	9.0637	16.2811	7.0496	6.546	16.6168	5.5389	6.546	15.1062	5.3711	4.364	10.91	3.5248	-2.182	-6.3782	-0.8392	-6.7139	-3.8605	47	257	156	14	1	2
15.1062	9.2316	16.6168	7.2174	6.3782	16.7847	5.7068	6.3782	14.9384	5.2032	3.8605	10.5743	3.1891	-2.3499	-7.0496	-0.6714	-6.8817	-3.6926	47	258	157	14	1	2
15.274	9.0637	16.6168	7.2174	6.2103	16.7847	5.7068	6.0425	14.7705	5.0354	3.3569	10.2386	2.6855	-2.5177	-7.2174	-0.3357	-6.8817	-3.8605	47	259	158	14	1	2
15.274	8.8959	16.6168	7.2174	5.8746	16.6168	5.7068	5.7068	14.4348	4.8676	2.6855	9.7351	2.3499	-2.6855	-7.7209	-0.3357	-7.0496	-3.8605	47	260	159	14	1	2
15.274	8.8959	16.449	7.2174	5.5389	16.6168	5.7068	5.2032	14.267	4.6997	2.0142	9.0637	2.0142	-2.8534	-8.0566	-0.1678	-7.0496	-4.0283	47	261	160	14	1	2
14.7705	8.3923	16.1133	6.8817	5.0354	16.2811	5.5389	4.6997	13.5956	4.5319	1.3428	8.5602	1.5106	-3.0212	-8.2245	-0.1678	-7.0496	-4.0283	47	262	161	14	1	2
14.267	8.0566	15.6097	6.546	4.6997	15.7776	5.5389	4.364	13.092	4.364	0.8392	8.0566	1.3428	-3.0212	-8.3923	0.1678	-7.0496	-4.0283	47	263	162	14	1	2
13.9313	7.3853	15.1062	6.2103	4.1962	15.4419	5.3711	3.8605	12.5885	4.1962	0.3357	7.3853	1.0071	-3.1891	-8.3923	0.1678	-7.0496	-4.0283	47	264	163	14	1	2
13.092	7.0496	14.4348	5.7068	3.8605	14.9384	5.3711	3.5248	11.9171	4.0283	-0.1678	7.0496	0.8392	-3.1891	-8.2245	0.3357	-6.8817	-3.8605	47	265	164	14	1	2
