"FZ"	"FC3"	"FCZ"	"FC4"	"C3"	"CZ"	"C4"	"CP3"	"CPZ"	"CP4"	"P3"	"PZ"	"P4"	"OZ"	"P8"	"TP7"	"TP8"	"P7"	"Subject"	"Points"	"Time"	"Trial"	"Rejected"	"Correct"
-7.2174	-5.8746	-6.3782	3.1891	1.5106	-0.6714	3.1891	6.7139	-0.1678	3.3569	5.7068	1.6785	6.546	5.8746	9.5673	-0.5035	8.728	5.3711	61	231	130	1	1	2
-7.2174	-5.5389	-6.3782	3.3569	1.6785	-0.5035	3.3569	6.8817	0	3.5248	5.8746	1.8463	6.7139	5.8746	9.7351	0.1678	8.728	5.8746	61	232	131	1	1	2
-7.2174	-5.5389	-6.546	3.3569	1.6785	-0.5035	3.3569	6.8817	0.1678	3.6926	5.8746	2.0142	6.7139	5.7068	9.7351	0.8392	8.728	6.2103	61	233	132	1	1	2
-7.2174	-5.2032	-6.3782	3.1891	1.6785	-0.5035	3.1891	6.8817	0	3.6926	5.8746	1.8463	6.546	5.3711	9.5673	1.3428	8.3923	6.3782	61	234	133	1	1	2
-7.2174	-5.0354	-6.3782	3.3569	1.8463	-0.5035	3.3569	7.0496	0.1678	3.6926	6.0425	2.182	6.546	5.2032	9.3994	1.8463	8.3923	6.7139	61	235	134	1	1	2
-7.2174	-4.8676	-6.3782	3.3569	2.0142	-0.6714	3.3569	7.0496	0	3.6926	5.8746	2.182	6.3782	4.8676	9.2316	2.3499	8.2245	6.8817	61	236	135	1	1	2
-6.8817	-4.5319	-6.3782	3.5248	2.182	-0.5035	3.6926	7.2174	0.1678	3.8605	6.2103	2.3499	6.3782	4.6997	9.2316	2.8534	8.2245	7.2174	61	237	136	1	1	2
-6.8817	-4.364	-6.2103	3.6926	2.182	-0.6714	3.6926	7.0496	0	3.8605	6.0425	2.182	6.0425	4.1962	8.728	3.0212	7.8888	7.3853	61	238	137	1	1	2
-6.7139	-3.8605	-6.2103	3.8605	2.3499	-0.6714	3.8605	7.2174	0	3.8605	6.0425	2.3499	6.2103	3.8605	8.5602	3.3569	7.7209	7.5531	61	239	138	1	1	2
-6.546	-3.5248	-6.0425	4.0283	2.5177	-0.5035	4.0283	7.3853	0.1678	4.0283	6.2103	2.3499	6.2103	3.5248	8.3923	3.8605	7.5531	7.7209	61	240	139	1	1	2
-6.2103	-3.1891	-6.0425	4.0283	2.8534	-0.6714	4.0283	7.3853	0	4.1962	6.2103	2.3499	6.0425	3.0212	8.2245	4.1962	7.3853	7.7209	61	241	140	1	1	2
-6.0425	-2.6855	-5.7068	4.1962	3.0212	-0.8392	4.364	7.5531	-0.1678	4.1962	6.3782	2.3499	5.8746	2.5177	7.8888	4.364	7.2174	7.8888	61	242	141	1	1	2
-5.7068	-2.0142	-5.3711	4.364	3.1891	-0.6714	4.364	7.7209	-0.3357	4.1962	6.3782	2.5177	5.8746	2.0142	7.5531	4.6997	6.8817	7.8888	61	243	142	1	1	2
-5.5389	-1.6785	-5.3711	4.364	3.5248	-0.8392	4.5319	7.7209	-0.3357	4.1962	6.3782	2.5177	5.7068	1.5106	7.2174	5.0354	6.8817	8.2245	61	244	143	1	1	2
-5.2032	-1.0071	-5.2032	4.1962	3.6926	-0.8392	4.5319	7.7209	-0.5035	4.1962	6.546	2.5177	5.5389	1.0071	6.8817	5.5389	6.546	8.3923	61	245	144	1	1	2
-5.0354	-0.5035	-5.0354	4.1962	4.0283	-1.0071	4.5319	7.8888	-0.6714	4.364	6.3782	2.5177	5.5389	0.5035	6.546	5.8746	6.2103	8.3923	61	246	145	1	1	2
-4.8676	0.1678	-4.8676	4.1962	4.1962	-1.0071	4.6997	7.8888	-0.6714	4.1962	6.3782	2.5177	5.3711	0	6.0425	6.2103	5.8746	8.5602	61	247	146	1	1	2
-4.5319	0.5035	-4.8676	4.0283	4.364	-1.1749	4.5319	7.8888	-1.0071	3.8605	6.3782	2.182	5.0354	-0.5035	5.7068	6.3782	5.5389	8.728	61	248	147	1	1	2
-4.5319	1.1749	-4.5319	4.0283	4.6997	-1.3428	4.5319	8.0566	-1.0071	4.0283	6.3782	2.182	5.0354	-1.0071	5.2032	6.8817	5.0354	8.8959	61	249	148	1	1	2
-4.0283	1.8463	-4.364	4.0283	5.0354	-1.3428	4.364	8.0566	-1.0071	3.8605	6.2103	2.182	4.6997	-1.3428	4.6997	7.0496	4.6997	8.8959	61	250	149	1	1	2
-3.8605	2.0142	-4.364	3.5248	5.0354	-1.6785	4.1962	7.8888	-1.3428	3.5248	6.0425	1.8463	4.364	-1.6785	3.8605	7.0496	4.1962	8.728	61	251	150	1	1	2
-3.5248	2.6855	-4.1962	3.6926	5.3711	-1.6785	4.1962	8.0566	-1.3428	3.5248	6.0425	1.8463	4.1962	-2.0142	3.5248	7.2174	3.8605	8.8959	61	252	151	1	1	2
-3.5248	3.1891	-3.8605	3.3569	5.3711	-1.6785	4.0283	8.0566	-1.5106	3.3569	5.8746	1.5106	3.8605	-2.3499	2.8534	7.0496	3.1891	8.8959	61	253	152	1	1	2
-3.1891	3.5248	-3.6926	3.1891	5.5389	-1.8463	3.6926	8.0566	-1.6785	3.0212	5.8746	1.3428	3.5248	-2.6855	2.182	7.0496	2.6855	8.728	61	254	153	1	1	2
-3.0212	4.0283	-3.3569	3.0212	5.8746	-1.8463	3.5248	8.0566	-1.8463	2.8534	5.7068	1.1749	3.3569	-3.0212	1.3428	7.0496	2.0142	8.728	61	255	154	1	1	2
-2.5177	4.364	-3.3569	2.8534	6.0425	-1.8463	3.5248	8.0566	-1.8463	2.6855	5.7068	1.0071	3.0212	-3.1891	0.6714	7.0496	1.5106	8.728	61	256	155	1	1	2
-2.5177	4.8676	-2.8534	2.5177	6.3782	-1.6785	3.3569	8.2245	-1.6785	2.5177	5.5389	1.0071	2.8534	-3.6926	-0.1678	7.0496	1.0071	8.5602	61	257	156	1	1	2
-2.0142	5.5389	-2.5177	2.3499	6.546	-1.5106	3.0212	8.3923	-1.6785	2.3499	5.5389	0.8392	2.6855	-3.8605	-0.8392	7.2174	0.3357	8.5602	61	258	157	1	1	2
-1.8463	5.8746	-2.182	2.182	6.7139	-1.1749	3.0212	8.3923	-1.6785	2.3499	5.5389	0.6714	2.6855	-4.1962	-1.5106	7.3853	0	8.5602	61	259	158	1	1	2
-1.6785	6.546	-1.5106	2.3499	7.2174	-1.0071	3.0212	8.5602	-1.5106	2.5177	5.7068	0.6714	2.5177	-4.5319	-1.8463	7.3853	-0.3357	8.728	61	260	159	1	1	2
-1.1749	6.8817	-1.0071	2.3499	7.3853	-0.5035	3.1891	8.728	-1.1749	2.3499	5.7068	0.8392	2.6855	-4.6997	-2.5177	7.7209	-0.5035	8.728	61	261	160	1	1	2
-1.1749	7.2174	-0.6714	2.182	7.7209	-0.3357	2.8534	8.728	-1.0071	2.3499	5.5389	0.6714	2.5177	-4.8676	-3.0212	7.7209	-1.0071	8.5602	61	262	161	1	1	2
-0.8392	7.5531	-0.1678	2.182	7.8888	0.1678	3.0212	8.728	-1.0071	2.3499	5.5389	0.5035	2.3499	-5.0354	-3.3569	7.8888	-1.1749	8.5602	61	263	162	1	1	2
-0.3357	7.8888	0.5035	2.5177	8.2245	0.6714	3.1891	8.8959	-0.6714	2.6855	5.5389	0.6714	2.6855	-5.2032	-3.8605	8.0566	-1.0071	8.728	61	264	163	1	1	2
-0.1678	8.2245	1.0071	2.5177	8.3923	1.1749	3.1891	8.728	-0.6714	2.5177	5.3711	0.5035	2.5177	-5.2032	-4.1962	8.2245	-1.3428	8.5602	61	265	164	1	1	2
0.5035	8.5602	1.8463	2.8534	8.728	1.5106	3.3569	8.8959	-0.3357	2.8534	5.2032	0.6714	2.6855	-5.3711	-4.364	8.5602	-1.1749	8.728	61	266	165	1	1	2
0.8392	9.0637	2.5177	3.1891	9.0637	2.0142	3.6926	9.0637	-0.1678	2.8534	5.2032	0.6714	2.6855	-5.3711	-4.5319	8.728	-1.1749	8.8959	61	267	166	1	1	2
1.3428	9.2316	3.3569	3.6926	9.2316	2.5177	3.8605	8.8959	0.1678	3.0212	5.2032	0.6714	2.6855	-5.3711	-4.6997	9.0637	-1.1749	8.728	61	268	167	1	1	2
2.0142	9.5673	4.0283	4.0283	9.5673	3.1891	4.1962	9.0637	0.3357	3.0212	5.0354	0.5035	2.6855	-5.3711	-4.8676	9.3994	-1.0071	8.8959	61	269	168	1	1	2
2.6855	10.0708	4.8676	4.6997	9.903	3.5248	4.364	9.0637	0.5035	3.1891	5.0354	0.5035	2.6855	-5.2032	-5.0354	9.7351	-1.1749	9.0637	61	270	169	1	1	2
3.5248	10.4065	5.7068	5.2032	10.0708	4.0283	4.6997	8.8959	0.6714	3.3569	4.8676	0.5035	2.3499	-5.3711	-5.2032	10.0708	-1.1749	9.2316	61	271	170	1	1	2
4.364	10.7422	6.546	5.8746	10.2386	4.5319	5.0354	8.8959	0.8392	3.5248	4.8676	0.3357	2.3499	-5.3711	-5.3711	10.2386	-1.1749	9.2316	61	272	171	1	1	2
5.0354	11.0779	7.3853	6.7139	10.4065	5.0354	5.3711	8.728	1.0071	3.5248	4.6997	0.3357	2.182	-5.2032	-5.3711	10.5743	-1.1749	9.3994	61	273	172	1	1	2
5.8746	11.4136	8.0566	7.3853	10.5743	5.5389	5.7068	8.728	1.1749	3.6926	4.5319	0.1678	2.0142	-5.2032	-5.3711	10.7422	-1.1749	9.3994	61	274	173	1	1	2
6.7139	11.7493	8.8959	8.0566	10.7422	5.8746	6.0425	8.728	1.3428	3.6926	4.5319	0.1678	1.8463	-5.2032	-5.3711	10.7422	-1.1749	9.5673	61	275	174	1	1	2
7.7209	12.2528	9.7351	8.8959	11.0779	6.546	6.546	8.728	1.6785	4.0283	4.5319	0.1678	1.8463	-5.2032	-5.2032	11.0779	-1.0071	9.5673	61	276	175	1	1	2
8.3923	12.5885	10.4065	9.7351	11.2457	6.8817	6.8817	8.8959	1.8463	4.1962	4.364	0	1.8463	-5.2032	-5.2032	10.91	-1.0071	9.5673	61	277	176	1	1	2
8.8959	12.7563	11.0779	10.0708	11.2457	6.8817	6.8817	8.5602	1.8463	4.0283	4.0283	-0.1678	1.5106	-5.2032	-5.2032	10.5743	-1.0071	9.2316	61	278	177	1	1	2
9.3994	12.9242	11.4136	10.5743	11.2457	7.3853	7.2174	8.3923	1.8463	4.0283	3.8605	-0.3357	1.3428	-5.2032	-5.0354	10.2386	-1.0071	9.0637	61	279	178	1	1	2
10.0708	12.9242	11.7493	11.0779	11.0779	7.5531	7.3853	8.2245	1.8463	4.1962	3.8605	-0.5035	1.1749	-5.3711	-4.8676	9.903	-1.0071	8.728	61	280	179	1	1	2
10.2386	13.2599	12.2528	11.2457	11.0779	7.5531	7.5531	8.0566	1.6785	4.1962	3.5248	-0.5035	1.0071	-5.3711	-4.6997	9.3994	-1.1749	8.5602	61	281	180	1	1	2
10.4065	12.9242	12.2528	11.4136	10.91	7.3853	7.3853	7.5531	1.5106	4.0283	3.0212	-0.8392	0.6714	-5.3711	-4.6997	8.5602	-1.3428	7.8888	61	282	181	1	1	2
10.5743	12.9242	12.2528	11.5814	10.5743	7.3853	7.5531	7.3853	1.3428	4.0283	2.8534	-1.1749	0.6714	-5.5389	-4.5319	7.8888	-1.3428	7.7209	61	283	182	1	1	2
10.7422	12.7563	12.4207	11.7493	10.2386	7.5531	7.5531	7.0496	1.3428	4.0283	2.5177	-1.3428	0.5035	-5.5389	-4.364	7.3853	-1.3428	7.2174	61	284	183	1	1	2
10.7422	12.2528	12.2528	11.5814	9.7351	7.2174	7.3853	6.546	1.0071	4.0283	2.0142	-1.6785	0.3357	-5.5389	-4.0283	6.3782	-1.3428	6.546	61	285	184	1	1	2
10.5743	12.085	12.4207	11.7493	9.5673	7.0496	7.5531	6.0425	0.8392	4.0283	1.8463	-1.8463	0.3357	-5.5389	-3.6926	5.5389	-1.3428	6.0425	61	286	185	1	1	2
10.5743	11.7493	12.2528	11.5814	9.0637	6.8817	7.5531	5.7068	0.6714	4.1962	1.5106	-2.0142	0.5035	-5.5389	-3.3569	4.6997	-1.1749	5.3711	61	287	186	1	1	2
10.5743	11.2457	12.085	11.5814	8.728	6.8817	7.5531	5.2032	0.6714	4.364	1.1749	-2.182	0.6714	-5.5389	-3.0212	3.6926	-1.0071	4.6997	61	288	187	1	1	2
10.5743	10.91	12.085	11.5814	8.3923	6.7139	7.7209	5.0354	0.6714	4.5319	1.0071	-2.182	1.0071	-5.5389	-2.3499	2.8534	-0.6714	4.364	61	289	188	1	1	2
10.4065	10.4065	12.085	11.4136	7.7209	6.3782	7.7209	4.5319	0.5035	4.6997	0.8392	-2.3499	1.3428	-5.3711	-1.8463	1.8463	-0.3357	3.6926	61	290	189	1	1	2
10.2386	9.903	12.085	11.4136	7.3853	6.2103	7.8888	4.1962	0.5035	5.0354	0.6714	-2.182	1.6785	-5.2032	-1.3428	1.0071	0.1678	3.1891	61	291	190	1	1	2
4.1962	4.6997	2.182	10.91	-6.0425	2.8534	2.3499	-5.7068	-1.0071	-6.0425	-8.728	-6.546	-9.5673	1.1749	-2.8534	-16.2811	-4.6997	1.5106	61	231	130	3	1	2
5.2032	6.546	3.1891	11.5814	-4.6997	3.8605	3.0212	-5.0354	-0.1678	-5.2032	-8.3923	-5.8746	-9.0637	1.3428	-3.1891	-17.1204	-4.5319	1.3428	61	232	131	3	1	2
6.0425	8.2245	4.364	12.085	-3.5248	4.6997	3.6926	-4.364	0.5035	-4.6997	-8.2245	-5.5389	-8.728	1.3428	-3.8605	-17.7917	-4.5319	0.6714	61	233	132	3	1	2
6.8817	10.0708	5.3711	12.7563	-2.3499	5.7068	4.1962	-3.8605	1.1749	-4.0283	-8.0566	-5.2032	-8.2245	1.5106	-4.1962	-17.7917	-4.0283	-0.1678	61	234	133	3	1	2
7.5531	11.4136	6.0425	13.2599	-1.3428	6.2103	4.5319	-3.5248	1.5106	-3.5248	-8.0566	-4.8676	-7.8888	1.6785	-4.6997	-17.4561	-3.1891	-1.0071	61	235	134	3	1	2
8.5602	12.7563	6.7139	13.9313	-0.5035	6.8817	4.6997	-3.1891	1.8463	-3.1891	-8.2245	-4.6997	-7.7209	1.8463	-5.0354	-16.6168	-2.3499	-2.0142	61	236	135	3	1	2
9.0637	13.4277	7.3853	14.267	0.1678	7.5531	4.6997	-3.0212	2.182	-3.0212	-8.3923	-4.6997	-7.5531	2.0142	-5.3711	-15.6097	-1.3428	-3.0212	61	237	136	3	1	2
9.5673	13.9313	7.8888	14.7705	0.6714	8.0566	4.6997	-2.8534	2.3499	-2.8534	-8.728	-4.6997	-7.7209	2.182	-5.7068	-14.267	-0.3357	-4.0283	61	238	137	3	1	2
10.0708	14.0991	8.3923	14.9384	0.8392	8.3923	4.5319	-3.0212	2.3499	-3.1891	-9.0637	-5.0354	-7.8888	2.3499	-6.0425	-12.9242	0.3357	-5.2032	61	239	138	3	1	2
10.4065	14.0991	8.728	15.274	1.1749	8.5602	4.5319	-3.0212	2.5177	-3.0212	-9.3994	-5.0354	-8.0566	2.5177	-6.0425	-11.2457	1.1749	-6.2103	61	240	139	3	1	2
10.5743	13.7634	8.8959	15.6097	1.3428	8.5602	4.5319	-3.0212	2.3499	-3.1891	-9.7351	-5.2032	-8.2245	2.5177	-5.8746	-9.5673	1.6785	-6.8817	61	241	140	3	1	2
10.5743	13.2599	9.2316	15.7776	1.3428	8.5602	4.1962	-3.1891	2.182	-3.3569	-10.0708	-5.5389	-8.5602	2.5177	-5.7068	-7.8888	2.182	-7.7209	61	242	141	3	1	2
10.7422	13.092	9.3994	16.1133	1.1749	8.728	3.8605	-3.3569	2.182	-3.6926	-10.4065	-5.7068	-9.0637	2.6855	-5.5389	-6.2103	2.3499	-8.2245	61	243	142	3	1	2
10.7422	12.4207	9.5673	16.2811	1.0071	8.728	3.5248	-3.3569	2.0142	-4.0283	-10.5743	-6.0425	-9.2316	2.6855	-5.3711	-4.8676	2.3499	-8.728	61	244	143	3	1	2
10.5743	11.5814	9.5673	16.2811	1.0071	8.728	3.1891	-3.3569	1.8463	-4.1962	-10.4065	-6.2103	-9.5673	2.6855	-5.2032	-3.5248	2.182	-8.8959	61	245	144	3	1	2
10.4065	10.91	9.3994	16.2811	0.8392	8.5602	3.0212	-3.1891	1.5106	-4.364	-10.4065	-6.2103	-9.7351	2.5177	-5.0354	-2.5177	1.6785	-8.728	61	246	145	3	1	2
10.2386	10.2386	9.5673	16.449	0.8392	8.5602	2.8534	-2.8534	1.5106	-4.5319	-10.2386	-6.2103	-9.903	2.5177	-4.5319	-1.6785	0.8392	-8.2245	61	247	146	3	1	2
10.2386	9.7351	9.7351	16.7847	0.8392	8.728	2.6855	-2.5177	1.6785	-4.6997	-9.903	-6.3782	-10.0708	2.5177	-4.0283	-1.0071	-0.6714	-7.7209	61	248	147	3	1	2
10.2386	9.2316	9.7351	16.9525	0.8392	8.728	2.6855	-2.0142	1.6785	-4.5319	-9.3994	-6.2103	-9.903	2.3499	-2.8534	-0.1678	-2.6855	-7.0496	61	249	148	3	1	2
10.4065	8.8959	9.903	17.1204	1.1749	8.8959	3.0212	-1.3428	1.6785	-4.364	-8.8959	-6.0425	-9.5673	2.0142	-0.8392	0.6714	-4.8676	-6.2103	61	250	149	3	1	2
10.4065	9.0637	10.0708	17.6239	1.6785	9.0637	3.5248	-0.6714	1.8463	-3.8605	-8.2245	-5.5389	-9.0637	1.8463	1.5106	1.5106	-7.0496	-5.3711	61	251	150	3	1	2
10.5743	9.0637	10.4065	17.9596	1.8463	9.3994	4.0283	0.1678	2.0142	-3.6926	-7.5531	-5.3711	-8.5602	1.5106	3.8605	2.0142	-9.0637	-4.5319	61	252	151	3	1	2
11.0779	9.3994	10.91	18.631	2.3499	9.7351	4.8676	1.0071	2.5177	-3.1891	-6.7139	-5.0354	-8.2245	1.1749	5.7068	2.182	-10.5743	-3.5248	61	253	152	3	1	2
11.4136	9.903	11.2457	19.3024	3.1891	9.903	6.2103	2.0142	2.8534	-2.5177	-5.7068	-4.364	-7.5531	1.0071	7.2174	2.5177	-11.4136	-2.182	61	254	153	3	1	2
11.7493	10.0708	11.9171	19.8059	3.6926	10.4065	7.5531	3.1891	3.1891	-1.8463	-4.8676	-4.1962	-7.2174	0.6714	7.8888	2.5177	-12.085	-1.1749	61	255	154	3	1	2
12.085	10.7422	12.2528	20.4773	4.364	10.5743	8.5602	4.0283	3.5248	-1.1749	-4.0283	-3.6926	-6.8817	0.5035	7.8888	2.6855	-12.085	0.1678	61	256	155	3	1	2
12.5885	11.4136	12.4207	21.1487	5.0354	10.91	9.7351	4.8676	3.6926	-0.6714	-3.1891	-3.3569	-6.3782	0.3357	7.3853	3.0212	-11.5814	1.3428	61	257	156	3	1	2
12.9242	11.7493	12.7563	21.4844	5.5389	11.0779	10.5743	5.5389	3.8605	-0.3357	-2.8534	-3.5248	-6.3782	0	6.546	3.1891	-10.91	2.3499	61	258	157	3	1	2
13.092	12.4207	12.9242	21.8201	5.8746	11.0779	11.0779	5.8746	4.0283	0.1678	-2.5177	-3.5248	-6.2103	-0.1678	5.7068	3.5248	-10.0708	3.1891	61	259	158	3	1	2
13.2599	13.092	13.092	21.8201	6.2103	11.0779	11.5814	6.2103	3.8605	0.3357	-2.182	-3.5248	-6.2103	-0.3357	4.8676	3.6926	-9.2316	3.8605	61	260	159	3	1	2
13.2599	13.4277	12.9242	21.6522	6.3782	10.7422	11.7493	6.0425	3.5248	0.3357	-2.182	-3.6926	-6.2103	-0.5035	4.5319	4.0283	-8.5602	4.0283	61	261	160	3	1	2
13.2599	13.9313	12.7563	21.1487	6.3782	10.5743	11.7493	5.7068	3.3569	0.1678	-2.5177	-4.0283	-6.2103	-0.6714	4.364	4.1962	-7.8888	4.0283	61	262	161	3	1	2
13.2599	14.4348	12.5885	20.9808	6.546	10.2386	11.4136	5.5389	3.0212	-0.3357	-2.8534	-4.5319	-6.546	-0.8392	3.8605	4.5319	-7.3853	4.0283	61	263	162	3	1	2
12.9242	14.6027	12.085	20.6451	6.3782	9.7351	10.7422	5.2032	2.3499	-0.8392	-3.1891	-5.0354	-6.7139	-0.8392	3.5248	5.0354	-6.546	3.6926	61	264	163	3	1	2
12.5885	14.9384	11.5814	19.9738	6.2103	9.2316	9.903	4.6997	1.8463	-1.6785	-3.6926	-5.7068	-7.0496	-0.8392	2.8534	5.2032	-5.8746	3.5248	61	265	164	3	1	2
12.5885	15.274	11.2457	19.3024	6.0425	8.728	8.728	4.1962	1.1749	-2.6855	-4.364	-6.3782	-7.5531	-0.8392	1.8463	5.0354	-5.2032	3.3569	61	266	165	3	1	2
12.085	15.4419	10.5743	18.1274	5.7068	7.8888	7.2174	3.3569	0.3357	-3.6926	-5.0354	-6.8817	-8.2245	-0.6714	0.8392	5.0354	-4.364	2.6855	61	267	166	3	1	2
11.9171	15.7776	9.903	17.2882	5.3711	7.2174	5.7068	2.6855	-0.3357	-4.8676	-5.7068	-7.7209	-8.8959	-0.5035	-0.5035	4.8676	-3.3569	2.182	61	268	167	3	1	2
11.5814	16.2811	9.3994	16.1133	5.5389	6.8817	4.364	1.8463	-1.1749	-5.8746	-6.546	-8.5602	-9.5673	-0.3357	-1.8463	4.6997	-2.5177	1.3428	61	269	168	3	1	2
11.2457	16.449	8.728	14.9384	5.2032	6.0425	2.8534	1.1749	-1.8463	-7.0496	-7.2174	-9.2316	-10.2386	0	-3.1891	4.5319	-1.5106	0.8392	61	270	169	3	1	2
10.91	16.7847	8.2245	13.7634	5.2032	5.5389	1.1749	0.1678	-2.5177	-8.2245	-8.0566	-10.0708	-11.0779	0.1678	-4.8676	4.364	-0.8392	-0.1678	61	271	170	3	1	2
10.5743	17.2882	7.5531	12.7563	5.0354	4.8676	-0.1678	-0.5035	-3.1891	-9.0637	-8.728	-10.7422	-11.7493	0.5035	-6.2103	4.1962	0.1678	-1.0071	61	272	171	3	1	2
10.0708	17.1204	6.7139	11.7493	4.5319	4.0283	-1.3428	-1.1749	-3.6926	-9.903	-9.3994	-11.4136	-12.2528	0.8392	-7.3853	4.0283	0.8392	-1.8463	61	273	172	3	1	2
9.7351	17.1204	6.2103	10.5743	4.0283	3.5248	-2.6855	-2.0142	-4.364	-10.7422	-9.903	-12.085	-12.7563	1.0071	-8.728	3.6926	1.1749	-2.6855	61	274	173	3	1	2
9.0637	16.7847	5.3711	9.7351	3.5248	2.8534	-3.6926	-2.6855	-5.0354	-11.4136	-10.5743	-12.5885	-13.2599	1.1749	-9.903	3.3569	1.1749	-3.6926	61	275	174	3	1	2
8.5602	16.2811	4.6997	8.728	3.0212	2.182	-4.5319	-3.5248	-5.7068	-11.9171	-11.2457	-13.092	-13.7634	1.3428	-11.0779	3.0212	1.1749	-4.5319	61	276	175	3	1	2
8.2245	15.7776	4.0283	8.0566	2.3499	1.6785	-5.3711	-4.0283	-6.2103	-12.4207	-11.7493	-13.5956	-13.9313	1.5106	-11.9171	2.5177	1.0071	-5.3711	61	277	176	3	1	2
7.5531	15.1062	3.3569	7.3853	1.6785	0.8392	-5.8746	-4.6997	-6.7139	-12.7563	-12.2528	-14.267	-14.267	1.6785	-12.9242	2.0142	1.0071	-6.2103	61	278	177	3	1	2
7.0496	14.267	2.5177	6.8817	0.8392	0.1678	-6.2103	-5.3711	-7.3853	-13.2599	-12.9242	-14.7705	-14.7705	1.8463	-13.4277	1.3428	0.8392	-7.0496	61	279	178	3	1	2
6.3782	13.4277	1.8463	6.3782	0	-0.3357	-6.7139	-6.2103	-8.0566	-13.5956	-13.5956	-15.274	-15.274	2.0142	-14.267	0.6714	0.6714	-7.8888	61	280	179	3	1	2
5.8746	12.5885	1.0071	5.7068	-0.6714	-1.0071	-7.2174	-6.8817	-8.8959	-14.267	-14.267	-15.7776	-15.9454	2.3499	-14.9384	-0.3357	0.8392	-8.8959	61	281	180	3	1	2
5.2032	11.4136	0.1678	5.2032	-1.6785	-1.6785	-7.5531	-7.7209	-9.5673	-14.6027	-15.1062	-16.449	-16.7847	2.5177	-15.4419	-1.1749	0.6714	-9.903	61	282	181	3	1	2
4.6997	10.5743	-0.3357	5.0354	-2.5177	-2.182	-7.7209	-8.3923	-10.2386	-15.1062	-15.7776	-16.9525	-17.2882	2.6855	-15.9454	-2.3499	0.6714	-10.7422	61	283	182	3	1	2
4.1962	9.5673	-0.8392	4.6997	-3.5248	-2.8534	-8.0566	-9.2316	-11.0779	-15.7776	-16.449	-17.6239	-18.1274	2.8534	-16.449	-3.6926	0.3357	-11.5814	61	284	183	3	1	2
3.6926	8.728	-1.5106	4.364	-4.364	-3.5248	-8.2245	-9.903	-11.7493	-16.2811	-17.2882	-18.2953	-18.9667	3.0212	-16.7847	-5.3711	0	-12.5885	61	285	184	3	1	2
3.3569	8.0566	-1.8463	4.1962	-5.2032	-4.0283	-8.3923	-10.5743	-12.5885	-16.7847	-17.9596	-18.9667	-19.6381	3.1891	-16.9525	-7.0496	-0.6714	-13.4277	61	286	185	3	1	2
3.0212	7.2174	-2.3499	3.8605	-5.8746	-4.5319	-8.5602	-11.2457	-13.2599	-17.4561	-18.7988	-19.4702	-20.4773	3.3569	-17.1204	-8.8959	-1.8463	-14.4348	61	287	186	3	1	2
2.8534	6.7139	-2.5177	3.6926	-6.3782	-4.8676	-8.5602	-11.5814	-13.7634	-17.9596	-19.3024	-19.9738	-20.9808	3.3569	-16.7847	-10.7422	-3.0212	-15.1062	61	288	187	3	1	2
2.8534	6.3782	-2.6855	3.6926	-6.7139	-5.2032	-8.5602	-11.7493	-14.267	-18.2953	-19.6381	-20.3094	-21.4844	3.3569	-16.6168	-12.9242	-4.5319	-15.6097	61	289	188	3	1	2
2.8534	6.2103	-2.6855	3.6926	-7.0496	-5.3711	-8.5602	-11.7493	-14.6027	-18.9667	-19.8059	-20.4773	-21.9879	3.3569	-16.2811	-15.4419	-5.7068	-15.7776	61	290	189	3	1	2
2.8534	6.2103	-2.6855	3.6926	-7.0496	-5.7068	-8.5602	-11.5814	-14.9384	-19.4702	-19.9738	-20.813	-22.4915	3.3569	-16.1133	-17.7917	-6.8817	-15.7776	61	291	190	3	1	2
-10.7422	-3.6926	-15.4419	-8.8959	-9.0637	-14.9384	-13.9313	-9.7351	-14.267	-15.1062	-5.2032	-8.0566	-10.0708	0.3357	-7.2174	-5.3711	4.5319	1.3428	61	231	130	4	1	2
-10.2386	-3.6926	-14.9384	-7.8888	-8.728	-14.4348	-13.7634	-9.5673	-13.7634	-14.9384	-5.2032	-8.0566	-9.903	0.1678	-7.0496	-4.6997	2.6855	1.1749	61	232	131	4	1	2
-9.903	-3.6926	-14.4348	-6.7139	-8.2245	-13.9313	-13.2599	-9.2316	-13.2599	-14.4348	-5.2032	-7.7209	-9.5673	0	-6.7139	-3.8605	0.3357	0.8392	61	233	132	4	1	2
-9.5673	-4.1962	-13.9313	-6.2103	-8.2245	-13.4277	-12.9242	-9.3994	-12.9242	-14.0991	-5.3711	-7.5531	-9.5673	-0.3357	-6.2103	-3.1891	-1.8463	0.1678	61	234	133	4	1	2
-9.3994	-4.5319	-13.4277	-5.3711	-8.0566	-12.9242	-12.7563	-9.2316	-12.5885	-13.7634	-5.7068	-7.3853	-9.0637	-0.6714	-5.7068	-2.3499	-3.6926	-0.5035	61	235	134	4	1	2
-9.0637	-5.0354	-13.092	-5.0354	-7.8888	-12.7563	-12.5885	-9.2316	-12.085	-13.5956	-5.8746	-7.3853	-8.8959	-0.8392	-5.3711	-1.5106	-5.3711	-1.1749	61	236	135	4	1	2
-9.0637	-5.7068	-12.9242	-4.8676	-7.8888	-12.4207	-12.5885	-9.2316	-11.9171	-13.2599	-6.0425	-7.0496	-8.728	-1.0071	-5.5389	-0.6714	-6.7139	-1.6785	61	237	136	4	1	2
-9.2316	-6.546	-12.9242	-5.0354	-7.8888	-12.2528	-12.5885	-9.2316	-11.4136	-13.2599	-6.2103	-6.8817	-8.5602	-1.1749	-5.5389	0	-7.7209	-2.0142	61	238	137	4	1	2
-9.3994	-7.3853	-12.9242	-5.3711	-8.2245	-12.2528	-12.7563	-9.3994	-11.2457	-13.092	-6.3782	-6.8817	-8.3923	-1.3428	-5.7068	0.5035	-8.5602	-2.5177	61	239	138	4	1	2
-9.3994	-8.0566	-12.7563	-5.7068	-8.3923	-12.2528	-12.9242	-9.3994	-11.0779	-13.092	-6.546	-6.8817	-8.3923	-1.5106	-6.0425	1.0071	-9.2316	-3.0212	61	240	139	4	1	2
-9.5673	-8.728	-12.7563	-6.2103	-8.3923	-12.085	-12.9242	-9.2316	-10.7422	-12.7563	-6.3782	-6.546	-8.2245	-1.6785	-6.3782	1.3428	-9.5673	-3.0212	61	241	140	4	1	2
-9.7351	-9.3994	-12.7563	-6.546	-8.5602	-11.9171	-12.9242	-8.8959	-10.2386	-12.5885	-6.3782	-6.2103	-8.0566	-2.0142	-6.8817	1.3428	-9.5673	-3.0212	61	242	141	4	1	2
-10.0708	-10.0708	-13.092	-7.2174	-8.5602	-11.9171	-13.092	-8.728	-10.2386	-12.5885	-6.2103	-6.0425	-8.0566	-2.182	-7.7209	1.1749	-9.7351	-3.0212	61	243	142	4	1	2
-10.2386	-10.4065	-12.9242	-7.7209	-8.5602	-11.5814	-13.092	-8.2245	-9.7351	-12.2528	-5.8746	-5.5389	-7.8888	-2.5177	-8.2245	0.6714	-9.5673	-2.6855	61	244	143	4	1	2
-10.5743	-10.91	-13.092	-8.0566	-8.5602	-11.5814	-12.9242	-7.5531	-9.2316	-11.9171	-5.2032	-5.0354	-7.7209	-2.6855	-8.728	0.1678	-9.2316	-2.3499	61	245	144	4	1	2
-10.91	-11.2457	-13.092	-8.728	-8.5602	-11.4136	-12.9242	-7.0496	-8.8959	-11.9171	-4.5319	-4.6997	-7.7209	-2.8534	-9.3994	-0.1678	-9.0637	-2.0142	61	246	145	4	1	2
-11.0779	-11.4136	-13.092	-9.0637	-8.3923	-11.2457	-13.092	-6.7139	-8.728	-11.5814	-4.1962	-4.364	-7.7209	-3.1891	-9.903	-0.3357	-8.8959	-1.8463	61	247	146	4	1	2
-11.2457	-11.7493	-13.092	-9.5673	-8.5602	-11.2457	-13.092	-6.3782	-8.5602	-11.2457	-3.8605	-3.8605	-7.7209	-3.3569	-10.5743	-0.3357	-9.0637	-1.8463	61	248	147	4	1	2
-11.4136	-11.7493	-13.092	-9.7351	-8.3923	-11.0779	-12.9242	-6.0425	-8.0566	-10.91	-3.5248	-3.5248	-7.3853	-3.5248	-11.0779	0	-9.2316	-1.8463	61	249	148	4	1	2
-11.4136	-11.5814	-13.092	-9.903	-8.3923	-10.7422	-12.5885	-6.0425	-7.7209	-10.2386	-3.3569	-3.1891	-7.0496	-3.8605	-11.5814	0.5035	-9.7351	-2.0142	61	250	149	4	1	2
-11.4136	-11.5814	-12.9242	-9.903	-8.2245	-10.5743	-12.085	-5.8746	-7.2174	-9.7351	-3.3569	-2.8534	-6.7139	-4.0283	-11.7493	1.1749	-10.4065	-2.182	61	251	150	4	1	2
-11.0779	-11.2457	-12.9242	-9.7351	-8.0566	-10.4065	-11.7493	-5.7068	-7.0496	-9.0637	-3.1891	-2.5177	-6.2103	-4.1962	-11.7493	2.0142	-11.5814	-2.3499	61	252	151	4	1	2
-11.0779	-11.0779	-12.7563	-9.7351	-7.8888	-10.0708	-11.2457	-5.7068	-6.8817	-8.3923	-3.1891	-2.182	-5.8746	-4.364	-11.7493	2.8534	-12.9242	-2.5177	61	253	152	4	1	2
-10.7422	-10.4065	-12.4207	-9.3994	-7.5531	-9.7351	-10.4065	-5.8746	-6.546	-7.7209	-3.3569	-2.0142	-5.3711	-4.6997	-11.5814	3.6926	-14.0991	-2.8534	61	254	153	4	1	2
-10.4065	-10.2386	-12.4207	-9.0637	-7.3853	-9.3994	-9.5673	-5.8746	-6.0425	-6.8817	-3.1891	-1.5106	-5.0354	-4.8676	-11.4136	4.364	-15.1062	-3.1891	61	255	154	4	1	2
-10.0708	-9.5673	-12.085	-8.5602	-7.0496	-9.2316	-8.2245	-6.0425	-6.0425	-6.2103	-3.5248	-1.5106	-4.6997	-5.2032	-11.4136	4.8676	-15.7776	-3.3569	61	256	155	4	1	2
-9.903	-9.0637	-11.9171	-8.2245	-6.8817	-8.8959	-7.0496	-6.2103	-5.8746	-5.5389	-3.6926	-1.3428	-4.5319	-5.3711	-11.4136	5.3711	-16.449	-3.8605	61	257	156	4	1	2
-9.5673	-8.5602	-11.7493	-7.7209	-6.546	-8.728	-6.0425	-6.546	-5.7068	-5.0354	-4.0283	-1.1749	-4.364	-5.7068	-10.7422	5.7068	-16.6168	-4.0283	61	258	157	4	1	2
-9.3994	-8.0566	-11.7493	-7.5531	-6.3782	-8.728	-5.3711	-6.8817	-5.7068	-5.0354	-4.364	-1.3428	-4.364	-5.8746	-9.903	5.8746	-16.9525	-4.364	61	259	158	4	1	2
-9.2316	-7.7209	-11.7493	-7.2174	-6.2103	-8.5602	-4.6997	-7.0496	-5.8746	-4.6997	-4.8676	-1.5106	-4.364	-6.2103	-8.5602	6.0425	-17.2882	-4.6997	61	260	159	4	1	2
-9.0637	-7.0496	-11.5814	-7.0496	-5.8746	-8.5602	-4.5319	-7.2174	-6.0425	-4.8676	-5.0354	-1.6785	-4.364	-6.3782	-6.8817	6.2103	-17.2882	-4.8676	61	261	160	4	1	2
-9.0637	-6.8817	-11.7493	-7.0496	-6.0425	-8.728	-4.6997	-7.8888	-6.546	-5.2032	-5.3711	-1.8463	-4.8676	-6.546	-5.7068	6.2103	-17.4561	-5.0354	61	262	161	4	1	2
-8.8959	-6.546	-11.9171	-7.0496	-6.0425	-8.8959	-4.5319	-8.0566	-6.7139	-5.5389	-5.7068	-2.182	-5.0354	-6.546	-4.364	6.3782	-17.2882	-5.2032	61	263	162	4	1	2
-9.0637	-6.3782	-12.085	-6.8817	-6.0425	-9.2316	-4.6997	-8.5602	-7.0496	-6.2103	-6.3782	-2.6855	-5.3711	-6.7139	-3.8605	6.2103	-16.9525	-5.5389	61	264	163	4	1	2
-9.0637	-6.2103	-12.4207	-6.8817	-6.2103	-9.2316	-4.6997	-8.8959	-7.5531	-6.7139	-6.8817	-3.3569	-5.8746	-6.7139	-3.3569	5.8746	-16.2811	-5.7068	61	265	164	4	1	2
-9.2316	-6.2103	-12.7563	-6.8817	-6.3782	-9.5673	-4.8676	-9.3994	-8.0566	-7.2174	-7.2174	-3.8605	-6.546	-6.7139	-3.3569	5.5389	-15.4419	-5.8746	61	266	165	4	1	2
-9.2316	-6.0425	-12.7563	-6.7139	-6.546	-9.7351	-5.2032	-9.7351	-8.5602	-8.0566	-7.5531	-4.364	-7.2174	-6.7139	-3.5248	4.8676	-14.4348	-5.7068	61	267	166	4	1	2
-9.7351	-6.2103	-13.2599	-7.0496	-6.7139	-10.2386	-5.8746	-10.0708	-9.2316	-9.0637	-8.0566	-5.0354	-8.0566	-6.546	-4.1962	4.364	-13.5956	-5.5389	61	268	167	4	1	2
-9.903	-6.2103	-13.5956	-7.0496	-6.8817	-10.5743	-6.7139	-10.4065	-9.7351	-9.903	-8.2245	-5.8746	-8.728	-6.3782	-4.8676	3.5248	-12.4207	-5.2032	61	269	168	4	1	2
-9.903	-6.2103	-13.7634	-7.0496	-6.8817	-10.91	-7.5531	-10.4065	-10.0708	-10.7422	-8.2245	-6.2103	-9.3994	-6.2103	-5.5389	2.5177	-11.0779	-4.6997	61	270	169	4	1	2
-10.0708	-6.3782	-13.9313	-7.2174	-7.3853	-11.2457	-8.5602	-10.5743	-10.7422	-11.7493	-8.5602	-7.0496	-10.2386	-6.0425	-6.546	1.6785	-9.903	-4.364	61	271	170	4	1	2
-10.4065	-6.546	-14.4348	-7.3853	-7.5531	-11.5814	-9.7351	-10.91	-11.2457	-12.9242	-8.728	-7.7209	-11.0779	-5.8746	-7.5531	0.8392	-8.8959	-4.1962	61	272	171	4	1	2
-10.7422	-6.7139	-14.7705	-7.7209	-7.7209	-12.085	-10.91	-11.0779	-11.9171	-14.0991	-8.8959	-8.3923	-11.7493	-5.5389	-8.5602	0.3357	-8.2245	-4.0283	61	273	172	4	1	2
-10.91	-6.7139	-15.1062	-7.8888	-7.7209	-12.5885	-12.2528	-11.2457	-12.4207	-14.9384	-9.2316	-8.8959	-12.4207	-5.3711	-9.5673	-0.1678	-7.7209	-3.8605	61	274	173	4	1	2
-11.0779	-6.546	-15.274	-7.7209	-7.7209	-12.7563	-13.092	-11.2457	-12.7563	-15.6097	-9.3994	-9.2316	-12.9242	-5.2032	-10.0708	-0.6714	-7.5531	-3.8605	61	275	174	4	1	2
-11.0779	-6.546	-15.4419	-7.7209	-7.7209	-13.092	-14.0991	-11.5814	-13.4277	-16.449	-9.5673	-9.7351	-13.4277	-5.0354	-10.5743	-1.0071	-7.3853	-3.8605	61	276	175	4	1	2
-11.4136	-6.3782	-15.6097	-7.3853	-7.7209	-13.4277	-14.9384	-11.7493	-13.7634	-17.1204	-9.7351	-10.2386	-13.9313	-4.6997	-11.0779	-1.0071	-7.5531	-4.0283	61	277	176	4	1	2
-11.4136	-6.2103	-15.6097	-6.8817	-7.5531	-13.7634	-15.4419	-11.9171	-13.9313	-17.6239	-9.7351	-10.4065	-14.0991	-4.5319	-11.4136	-1.5106	-7.5531	-4.1962	61	278	177	4	1	2
-11.4136	-6.2103	-15.6097	-6.546	-7.8888	-13.9313	-15.9454	-11.9171	-14.267	-17.9596	-10.0708	-10.91	-14.267	-4.1962	-11.7493	-1.6785	-7.7209	-4.1962	61	279	178	4	1	2
-11.4136	-6.2103	-15.6097	-6.0425	-7.7209	-13.9313	-16.1133	-12.085	-14.6027	-18.1274	-9.903	-11.0779	-14.4348	-4.0283	-11.9171	-2.0142	-8.0566	-3.8605	61	280	179	4	1	2
-11.4136	-6.546	-15.7776	-5.8746	-7.8888	-14.0991	-16.2811	-12.085	-14.7705	-18.2953	-9.7351	-11.2457	-14.4348	-3.6926	-11.9171	-2.3499	-8.2245	-3.5248	61	281	180	4	1	2
-11.2457	-6.546	-15.4419	-5.7068	-8.2245	-13.9313	-16.449	-11.7493	-14.7705	-18.2953	-9.3994	-11.0779	-14.267	-3.5248	-11.7493	-2.5177	-8.2245	-3.0212	61	282	181	4	1	2
-11.2457	-6.8817	-15.4419	-5.7068	-8.3923	-13.9313	-16.2811	-11.7493	-14.7705	-18.1274	-9.3994	-11.2457	-14.0991	-3.1891	-11.5814	-2.6855	-8.3923	-2.5177	61	283	182	4	1	2
-11.0779	-6.8817	-15.1062	-5.7068	-8.728	-13.9313	-16.449	-11.7493	-14.7705	-18.2953	-9.0637	-11.0779	-14.0991	-3.0212	-11.5814	-2.6855	-8.5602	-2.0142	61	284	183	4	1	2
-10.7422	-6.546	-14.7705	-5.8746	-8.5602	-13.5956	-15.9454	-11.5814	-14.4348	-17.7917	-8.728	-10.7422	-13.5956	-2.8534	-11.0779	-2.3499	-8.2245	-1.6785	61	285	184	4	1	2
-10.4065	-5.8746	-14.6027	-6.0425	-8.728	-13.4277	-15.7776	-11.4136	-14.267	-17.6239	-8.5602	-10.5743	-13.4277	-2.6855	-10.91	-2.182	-8.2245	-1.3428	61	286	185	4	1	2
-10.0708	-5.0354	-14.0991	-6.2103	-8.3923	-13.092	-15.6097	-11.2457	-13.9313	-17.1204	-8.2245	-10.2386	-12.9242	-2.5177	-10.4065	-1.6785	-8.0566	-0.6714	61	287	186	4	1	2
-9.3994	-4.0283	-13.5956	-6.2103	-8.2245	-12.7563	-15.1062	-10.91	-13.4277	-16.7847	-7.7209	-9.7351	-12.2528	-2.5177	-9.903	-1.5106	-7.8888	-0.3357	61	288	187	4	1	2
-9.0637	-3.1891	-13.092	-6.3782	-8.0566	-12.2528	-14.6027	-10.5743	-12.9242	-16.2811	-7.3853	-9.2316	-11.7493	-2.3499	-9.3994	-1.3428	-8.3923	0.3357	61	289	188	4	1	2
-8.3923	-2.3499	-12.5885	-6.3782	-7.7209	-11.5814	-14.0991	-10.2386	-12.4207	-15.274	-6.8817	-8.5602	-10.7422	-2.3499	-8.3923	-1.1749	-8.8959	0.5035	61	290	189	4	1	2
-8.0566	-1.8463	-12.085	-6.546	-7.3853	-11.0779	-13.5956	-9.903	-11.9171	-14.4348	-6.3782	-8.0566	-9.903	-2.182	-7.5531	-0.8392	-9.903	0.8392	61	291	190	4	1	2
-27.359	-25.6805	-29.0375	-25.177	-23.8342	-21.9879	-20.3094	-21.3165	-17.4561	-15.9454	-17.9596	-16.1133	-11.7493	-1.0071	-10.7422	-2.8534	-12.5885	-10.7422	61	231	130	6	1	2
-27.359	-25.6805	-29.0375	-25.0092	-24.0021	-22.1558	-20.3094	-21.4844	-17.6239	-15.9454	-18.1274	-16.2811	-11.5814	-1.0071	-10.2386	-3.1891	-13.2599	-10.7422	61	232	131	6	1	2
-27.359	-25.6805	-29.0375	-25.0092	-24.5056	-22.4915	-20.4773	-21.8201	-18.1274	-16.2811	-18.4631	-16.6168	-11.7493	-1.1749	-10.0708	-3.3569	-13.7634	-10.7422	61	233	132	6	1	2
-27.359	-25.5127	-29.0375	-24.8413	-24.6735	-22.6593	-20.4773	-21.8201	-18.4631	-16.449	-18.4631	-16.9525	-11.9171	-1.1749	-9.903	-3.6926	-14.0991	-10.5743	61	234	133	6	1	2
-27.1912	-25.5127	-28.8696	-24.6735	-25.0092	-22.995	-20.4773	-21.8201	-18.631	-16.6168	-18.4631	-17.1204	-12.085	-1.1749	-9.7351	-3.8605	-13.9313	-10.4065	61	235	134	6	1	2
-27.0233	-25.3448	-28.8696	-24.6735	-25.0092	-22.995	-20.1416	-21.8201	-18.9667	-16.7847	-18.4631	-17.2882	-12.2528	-1.1749	-9.903	-4.1962	-13.5956	-10.0708	61	236	135	6	1	2
-26.8555	-25.177	-28.7018	-24.6735	-25.177	-22.995	-19.9738	-21.8201	-19.3024	-16.9525	-18.4631	-17.4561	-12.4207	-1.1749	-10.0708	-4.5319	-13.092	-9.7351	61	237	136	6	1	2
-26.5198	-24.8413	-28.3661	-24.3378	-25.0092	-22.995	-19.3024	-21.6522	-19.3024	-16.9525	-18.2953	-17.2882	-12.5885	-1.0071	-10.0708	-5.0354	-12.2528	-9.2316	61	238	137	6	1	2
-26.1841	-24.6735	-28.1982	-24.3378	-25.0092	-22.995	-18.7988	-21.6522	-19.4702	-17.1204	-18.2953	-17.4561	-12.7563	-1.0071	-10.4065	-5.3711	-11.5814	-9.0637	61	239	138	6	1	2
-26.0162	-24.5056	-27.8625	-24.1699	-25.0092	-22.995	-18.2953	-21.4844	-19.6381	-17.2882	-18.2953	-17.4561	-13.092	-1.0071	-10.7422	-5.8746	-10.91	-8.728	61	240	139	6	1	2
-25.6805	-24.1699	-27.6947	-23.8342	-24.8413	-22.8271	-18.1274	-21.3165	-19.6381	-17.6239	-18.1274	-17.4561	-13.2599	-1.0071	-11.0779	-6.3782	-10.0708	-8.5602	61	241	140	6	1	2
-25.0092	-23.6664	-27.0233	-23.1628	-24.3378	-22.4915	-17.6239	-20.813	-19.4702	-17.6239	-17.7917	-17.2882	-13.2599	-0.8392	-11.2457	-6.7139	-9.0637	-8.0566	61	242	141	6	1	2
-24.5056	-23.1628	-26.6876	-22.4915	-23.8342	-22.1558	-17.4561	-20.4773	-19.3024	-17.6239	-17.4561	-17.1204	-13.4277	-0.8392	-11.5814	-7.0496	-8.0566	-7.7209	61	243	142	6	1	2
-24.0021	-22.4915	-26.0162	-21.8201	-23.3307	-21.8201	-17.2882	-19.9738	-19.1345	-17.6239	-16.7847	-16.9525	-13.4277	-0.8392	-11.9171	-7.2174	-7.2174	-7.3853	61	244	143	6	1	2
-23.1628	-21.8201	-25.5127	-21.1487	-22.8271	-21.4844	-17.2882	-19.3024	-18.9667	-17.7917	-16.449	-16.6168	-13.4277	-1.0071	-12.4207	-7.5531	-6.546	-7.2174	61	245	144	6	1	2
-22.4915	-20.813	-24.6735	-20.1416	-21.8201	-20.813	-16.9525	-18.4631	-18.4631	-17.6239	-15.9454	-16.2811	-13.2599	-1.0071	-12.5885	-7.3853	-5.7068	-6.7139	61	246	145	6	1	2
-21.4844	-19.3024	-23.6664	-19.3024	-20.813	-19.8059	-16.7847	-17.6239	-17.7917	-17.4561	-15.1062	-15.6097	-13.092	-1.0071	-12.5885	-7.2174	-5.0354	-6.0425	61	247	146	6	1	2
-20.3094	-17.4561	-22.6593	-18.631	-19.3024	-18.9667	-16.6168	-16.7847	-16.9525	-16.7847	-14.267	-14.7705	-12.7563	-1.0071	-12.7563	-6.8817	-4.0283	-5.2032	61	248	147	6	1	2
-18.9667	-15.274	-21.3165	-17.6239	-17.7917	-17.7917	-16.2811	-15.6097	-16.1133	-16.449	-13.2599	-13.9313	-12.2528	-1.0071	-12.7563	-6.546	-3.3569	-4.1962	61	249	148	6	1	2
-17.7917	-12.9242	-19.9738	-16.7847	-16.2811	-16.7847	-15.7776	-14.4348	-14.9384	-15.9454	-12.2528	-13.092	-11.9171	-1.1749	-12.9242	-6.2103	-3.0212	-3.1891	61	250	149	6	1	2
-16.449	-10.7422	-18.7988	-15.9454	-14.7705	-15.4419	-15.4419	-13.2599	-14.0991	-15.4419	-11.2457	-12.2528	-11.2457	-1.3428	-12.9242	-5.8746	-2.6855	-2.0142	61	251	150	6	1	2
-15.1062	-8.5602	-17.2882	-15.1062	-13.2599	-14.267	-14.9384	-12.085	-12.9242	-14.7705	-10.0708	-11.4136	-10.7422	-1.5106	-12.4207	-5.3711	-2.6855	-0.8392	61	252	151	6	1	2
-13.5956	-6.7139	-15.7776	-13.7634	-11.5814	-12.7563	-14.0991	-10.91	-11.7493	-13.5956	-8.8959	-10.2386	-9.903	-1.5106	-11.2457	-4.6997	-2.6855	-0.1678	61	253	152	6	1	2
-12.4207	-5.3711	-14.7705	-13.092	-10.4065	-11.7493	-13.4277	-9.903	-10.7422	-12.9242	-8.0566	-9.5673	-9.3994	-1.8463	-10.0708	-4.1962	-3.3569	0.5035	61	254	153	6	1	2
-11.2457	-4.1962	-13.4277	-12.4207	-9.2316	-10.4065	-12.5885	-9.0637	-9.7351	-12.085	-7.2174	-8.5602	-8.5602	-2.0142	-8.2245	-3.8605	-4.364	0.8392	61	255	154	6	1	2
-10.4065	-3.1891	-12.4207	-11.7493	-8.2245	-9.3994	-12.085	-8.2245	-8.8959	-11.4136	-6.546	-7.8888	-7.8888	-2.3499	-6.3782	-3.5248	-5.8746	1.3428	61	256	155	6	1	2
-9.3994	-2.3499	-11.4136	-11.0779	-7.0496	-8.3923	-11.4136	-7.3853	-7.8888	-10.5743	-5.7068	-7.0496	-7.0496	-2.5177	-4.1962	-3.6926	-7.5531	1.3428	61	257	156	6	1	2
-9.0637	-1.8463	-10.7422	-10.91	-6.2103	-7.5531	-11.0779	-6.8817	-7.3853	-10.0708	-5.3711	-6.7139	-6.3782	-2.8534	-2.6855	-3.8605	-9.3994	1.6785	61	258	157	6	1	2
-8.2245	-1.5106	-10.0708	-10.4065	-5.3711	-6.7139	-10.4065	-6.0425	-6.546	-9.2316	-4.6997	-6.0425	-5.7068	-2.8534	-1.1749	-4.6997	-10.91	2.0142	61	259	158	6	1	2
-7.8888	-1.5106	-9.3994	-10.0708	-4.6997	-6.0425	-10.0708	-5.5389	-6.0425	-8.728	-4.1962	-5.5389	-5.2032	-2.8534	-0.1678	-5.7068	-11.9171	2.182	61	260	159	6	1	2
-7.7209	-1.6785	-9.2316	-9.903	-4.364	-5.5389	-9.5673	-5.0354	-5.5389	-8.3923	-3.6926	-5.2032	-4.8676	-2.8534	0.3357	-7.3853	-12.5885	2.5177	61	261	160	6	1	2
-7.7209	-2.182	-9.0637	-9.903	-4.1962	-5.3711	-9.3994	-4.6997	-5.3711	-8.0566	-3.3569	-5.2032	-4.6997	-2.8534	0.3357	-8.8959	-13.092	2.6855	61	262	161	6	1	2
-7.8888	-2.8534	-9.0637	-9.903	-4.0283	-5.0354	-8.8959	-4.5319	-5.3711	-7.7209	-3.3569	-5.2032	-4.6997	-2.6855	0	-10.2386	-13.092	2.3499	61	263	162	6	1	2
-7.8888	-3.3569	-8.8959	-9.7351	-4.0283	-4.8676	-8.5602	-4.1962	-5.2032	-7.5531	-3.3569	-5.0354	-4.6997	-2.3499	-0.8392	-11.5814	-12.7563	1.8463	61	264	163	6	1	2
-8.0566	-4.0283	-9.2316	-9.7351	-4.1962	-4.8676	-8.5602	-4.1962	-5.2032	-7.7209	-3.3569	-5.5389	-5.2032	-2.182	-2.0142	-13.092	-12.085	1.3428	61	265	164	6	1	2
-8.2245	-4.8676	-9.3994	-9.7351	-4.364	-4.8676	-8.3923	-4.0283	-5.5389	-7.7209	-3.6926	-5.7068	-5.3711	-1.8463	-3.0212	-14.267	-11.2457	0.8392	61	266	165	6	1	2
-8.3923	-5.7068	-9.7351	-9.7351	-4.364	-5.0354	-8.3923	-3.8605	-5.7068	-7.8888	-3.6926	-5.8746	-5.7068	-1.5106	-4.1962	-15.1062	-10.4065	0	61	267	166	6	1	2
-8.728	-6.546	-9.903	-9.7351	-4.8676	-5.0354	-8.3923	-4.0283	-5.8746	-7.8888	-4.0283	-6.2103	-6.2103	-1.1749	-5.5389	-15.6097	-9.2316	-0.6714	61	268	167	6	1	2
-8.8959	-7.3853	-10.2386	-9.5673	-5.0354	-5.2032	-8.0566	-3.8605	-6.0425	-8.0566	-4.364	-6.7139	-6.3782	-0.6714	-6.546	-15.4419	-7.7209	-1.3428	61	269	168	6	1	2
-9.0637	-8.2245	-10.4065	-9.3994	-5.7068	-5.5389	-8.2245	-4.1962	-6.546	-8.2245	-4.6997	-7.0496	-6.8817	-0.3357	-7.8888	-15.274	-6.3782	-2.0142	61	270	169	6	1	2
-9.3994	-9.3994	-10.91	-9.0637	-6.2103	-5.7068	-8.0566	-4.5319	-6.8817	-8.5602	-5.3711	-7.5531	-7.3853	0	-8.8959	-14.9384	-5.2032	-2.6855	61	271	170	6	1	2
-9.5673	-10.0708	-11.0779	-8.8959	-7.0496	-5.8746	-7.8888	-4.8676	-7.2174	-8.5602	-5.8746	-7.8888	-7.5531	0.5035	-9.7351	-14.0991	-3.6926	-3.1891	61	272	171	6	1	2
-9.7351	-11.0779	-11.4136	-8.3923	-7.7209	-6.2103	-7.8888	-5.3711	-7.5531	-8.728	-6.3782	-8.3923	-7.8888	0.8392	-10.5743	-13.2599	-2.6855	-3.8605	61	273	172	6	1	2
-10.0708	-11.7493	-11.9171	-7.8888	-8.3923	-6.3782	-7.8888	-6.0425	-8.0566	-8.8959	-7.0496	-8.728	-8.2245	1.1749	-11.4136	-11.9171	-1.8463	-4.5319	61	274	173	6	1	2
-10.2386	-12.4207	-12.2528	-7.5531	-9.2316	-6.7139	-7.7209	-6.7139	-8.3923	-8.8959	-7.7209	-9.2316	-8.3923	1.5106	-11.9171	-10.7422	-1.1749	-5.2032	61	275	174	6	1	2
-10.5743	-13.2599	-12.7563	-7.2174	-10.0708	-7.0496	-7.5531	-7.3853	-8.5602	-8.8959	-8.2245	-9.7351	-8.5602	1.8463	-12.4207	-9.5673	-0.8392	-5.8746	61	276	175	6	1	2
-10.91	-13.9313	-13.092	-7.0496	-11.0779	-7.3853	-7.5531	-8.3923	-9.0637	-8.8959	-9.2316	-10.2386	-8.728	2.182	-12.9242	-8.3923	-0.6714	-6.7139	61	277	176	6	1	2
-11.4136	-14.4348	-13.5956	-7.0496	-11.9171	-7.8888	-7.5531	-9.2316	-9.7351	-8.8959	-10.0708	-10.5743	-8.728	2.3499	-13.092	-7.2174	-0.5035	-7.5531	61	278	177	6	1	2
-11.7493	-14.9384	-14.0991	-6.8817	-12.7563	-8.2245	-7.3853	-10.2386	-10.0708	-8.8959	-11.0779	-11.0779	-8.8959	2.5177	-13.2599	-6.0425	-0.3357	-8.2245	61	279	178	6	1	2
-12.085	-15.274	-14.4348	-6.8817	-13.5956	-8.5602	-6.8817	-11.2457	-10.5743	-8.8959	-11.9171	-11.5814	-9.0637	2.6855	-13.4277	-4.8676	-0.5035	-8.728	61	280	179	6	1	2
-12.4207	-15.7776	-14.7705	-6.8817	-14.267	-8.8959	-6.3782	-12.085	-10.91	-8.5602	-12.7563	-11.9171	-9.0637	2.6855	-13.092	-4.0283	-0.6714	-9.3994	61	281	180	6	1	2
-12.9242	-16.1133	-15.1062	-6.8817	-15.1062	-9.0637	-5.8746	-12.9242	-11.0779	-8.3923	-13.5956	-12.4207	-9.2316	2.6855	-12.9242	-3.1891	-1.1749	-10.0708	61	282	181	6	1	2
-13.092	-16.449	-15.274	-7.0496	-15.6097	-9.2316	-5.2032	-13.7634	-11.4136	-8.2245	-14.0991	-12.7563	-9.2316	2.6855	-12.4207	-2.5177	-1.5106	-10.5743	61	283	182	6	1	2
-13.4277	-16.6168	-15.4419	-7.2174	-16.2811	-9.5673	-4.5319	-14.6027	-11.7493	-8.0566	-14.7705	-13.092	-9.2316	2.6855	-11.9171	-2.0142	-1.8463	-10.91	61	284	183	6	1	2
-13.7634	-16.9525	-15.6097	-7.2174	-16.6168	-9.7351	-4.0283	-14.9384	-11.9171	-8.0566	-15.274	-13.2599	-9.2316	2.6855	-11.4136	-1.3428	-2.0142	-11.2457	61	285	184	6	1	2
-14.0991	-16.9525	-15.7776	-7.3853	-16.9525	-9.7351	-3.3569	-15.4419	-11.9171	-7.8888	-15.6097	-13.4277	-9.0637	2.6855	-10.7422	-1.0071	-2.0142	-11.4136	61	286	185	6	1	2
-14.267	-17.2882	-16.1133	-7.7209	-17.2882	-10.0708	-3.0212	-15.9454	-12.2528	-8.0566	-16.1133	-13.7634	-9.2316	2.6855	-10.2386	-0.8392	-2.0142	-11.7493	61	287	186	6	1	2
-14.6027	-17.4561	-16.2811	-7.8888	-17.4561	-10.0708	-2.6855	-16.2811	-12.4207	-8.0566	-16.449	-13.7634	-9.2316	2.6855	-9.7351	-0.8392	-1.6785	-11.7493	61	288	187	6	1	2
-14.7705	-17.4561	-16.2811	-8.2245	-17.6239	-10.2386	-2.5177	-16.449	-12.4207	-8.2245	-16.6168	-13.7634	-9.3994	2.5177	-9.0637	-1.1749	-1.3428	-11.7493	61	289	188	6	1	2
-15.1062	-17.4561	-16.6168	-8.5602	-17.9596	-10.4065	-2.8534	-16.7847	-12.7563	-8.5602	-16.7847	-14.0991	-9.5673	2.5177	-8.728	-1.3428	-0.6714	-11.9171	61	290	189	6	1	2
-15.4419	-17.6239	-16.7847	-8.8959	-17.9596	-10.4065	-3.3569	-16.7847	-12.7563	-8.728	-16.9525	-14.0991	-9.5673	2.5177	-8.2245	-1.8463	-0.1678	-11.9171	61	291	190	6	1	2
-15.4419	-11.7493	-20.3094	-10.2386	-15.6097	-25.177	-14.267	-15.274	-21.8201	-15.4419	-13.092	-17.4561	-13.5956	1.5106	-4.1962	-10.7422	2.5177	-9.7351	61	231	130	8	1	2
-15.274	-12.085	-19.9738	-10.0708	-15.6097	-24.8413	-13.7634	-15.4419	-21.8201	-15.1062	-13.5956	-17.6239	-13.7634	1.5106	-4.1962	-9.7351	2.182	-10.2386	61	232	131	8	1	2
-15.1062	-12.7563	-19.9738	-9.5673	-15.7776	-24.6735	-13.5956	-15.7776	-21.8201	-14.9384	-14.0991	-17.9596	-13.7634	1.5106	-4.1962	-8.8959	1.6785	-11.0779	61	233	132	8	1	2
-15.274	-13.2599	-19.8059	-9.2316	-15.9454	-24.5056	-13.2599	-16.1133	-21.8201	-14.9384	-14.7705	-18.1274	-13.9313	1.5106	-4.0283	-7.8888	0.6714	-11.7493	61	234	133	8	1	2
-15.274	-13.7634	-19.6381	-9.0637	-16.2811	-24.5056	-13.2599	-16.6168	-21.9879	-14.7705	-15.4419	-18.4631	-14.0991	1.5106	-3.6926	-6.8817	-0.8392	-12.5885	61	235	134	8	1	2
-15.4419	-14.6027	-19.4702	-8.728	-16.6168	-24.5056	-13.092	-17.2882	-22.1558	-14.6027	-16.1133	-18.7988	-14.267	1.5106	-3.3569	-5.8746	-2.6855	-13.2599	61	236	135	8	1	2
-15.274	-14.7705	-19.1345	-8.2245	-16.6168	-24.1699	-12.5885	-17.6239	-21.9879	-14.267	-16.7847	-18.9667	-13.9313	1.6785	-2.8534	-4.8676	-4.6997	-13.9313	61	237	136	8	1	2
-15.274	-15.1062	-18.7988	-7.8888	-16.7847	-24.0021	-12.2528	-18.2953	-22.1558	-13.9313	-17.4561	-19.3024	-14.0991	1.6785	-2.3499	-4.0283	-6.7139	-14.6027	61	238	137	8	1	2
-15.1062	-15.274	-18.4631	-7.2174	-16.6168	-23.8342	-12.085	-18.631	-22.1558	-13.5956	-17.9596	-19.4702	-13.9313	1.6785	-1.8463	-3.1891	-8.728	-15.274	61	239	138	8	1	2
-14.9384	-15.4419	-18.1274	-6.546	-16.449	-23.4985	-11.7493	-18.9667	-22.1558	-13.2599	-18.631	-19.6381	-13.7634	1.6785	-1.6785	-2.5177	-10.2386	-15.9454	61	240	139	8	1	2
-14.7705	-15.4419	-17.7917	-5.8746	-16.2811	-23.1628	-11.2457	-19.3024	-21.9879	-12.9242	-19.3024	-19.8059	-13.5956	1.6785	-1.1749	-2.0142	-11.5814	-16.449	61	241	140	8	1	2
-14.6027	-15.7776	-17.4561	-5.3711	-16.6168	-22.995	-11.0779	-19.6381	-21.9879	-12.9242	-19.8059	-19.9738	-13.7634	1.5106	-0.6714	-1.8463	-12.5885	-17.1204	61	242	141	8	1	2
-14.267	-15.7776	-16.9525	-4.5319	-16.2811	-22.6593	-10.5743	-19.9738	-21.8201	-12.5885	-20.1416	-20.1416	-13.7634	1.5106	-0.5035	-1.6785	-12.9242	-17.6239	61	243	142	8	1	2
-13.9313	-15.9454	-16.449	-3.6926	-16.2811	-22.1558	-10.2386	-20.1416	-21.6522	-12.4207	-20.3094	-20.1416	-13.7634	1.5106	-0.3357	-1.6785	-12.9242	-17.9596	61	244	143	8	1	2
-13.4277	-15.7776	-15.9454	-3.1891	-16.1133	-21.8201	-9.7351	-20.1416	-21.4844	-12.4207	-20.4773	-20.1416	-13.9313	1.5106	-0.3357	-1.8463	-12.5885	-18.2953	61	245	144	8	1	2
-13.092	-15.9454	-15.4419	-2.6855	-16.1133	-21.4844	-9.2316	-20.1416	-21.1487	-12.2528	-20.6451	-20.1416	-14.0991	1.5106	-0.6714	-2.182	-11.5814	-18.4631	61	246	145	8	1	2
-12.7563	-15.9454	-14.9384	-2.182	-16.1133	-21.1487	-8.8959	-19.8059	-20.9808	-12.2528	-20.6451	-20.1416	-14.0991	1.5106	-1.3428	-2.5177	-10.5743	-18.631	61	247	146	8	1	2
-12.2528	-16.1133	-14.6027	-1.5106	-15.9454	-20.813	-8.5602	-19.6381	-20.813	-12.085	-20.4773	-20.1416	-14.4348	1.5106	-1.8463	-2.8534	-9.2316	-18.631	61	248	147	8	1	2
-11.5814	-15.7776	-13.7634	-1.0071	-15.7776	-20.1416	-8.0566	-19.3024	-20.4773	-11.9171	-20.3094	-19.9738	-14.6027	1.6785	-2.5177	-3.0212	-7.7209	-18.4631	61	249	148	8	1	2
-11.0779	-15.7776	-13.4277	-0.6714	-15.6097	-19.8059	-7.7209	-18.9667	-20.4773	-11.9171	-19.9738	-19.8059	-14.9384	1.6785	-3.1891	-3.5248	-6.2103	-18.2953	61	250	149	8	1	2
-10.5743	-15.6097	-13.092	-0.3357	-15.274	-19.4702	-7.5531	-18.7988	-20.3094	-12.085	-19.8059	-19.8059	-15.4419	1.6785	-4.1962	-4.0283	-4.5319	-18.1274	61	251	150	8	1	2
-9.903	-15.274	-12.4207	0.1678	-14.9384	-19.1345	-7.0496	-18.2953	-19.9738	-12.085	-19.1345	-19.4702	-15.6097	1.8463	-4.8676	-4.364	-2.8534	-17.6239	61	252	151	8	1	2
-9.5673	-14.9384	-12.085	0.3357	-14.7705	-18.7988	-6.546	-17.7917	-19.8059	-12.085	-18.631	-19.3024	-15.9454	1.8463	-5.8746	-4.8676	-1.5106	-17.1204	61	253	152	8	1	2
-9.0637	-14.4348	-11.7493	0.5035	-14.4348	-18.4631	-6.3782	-17.2882	-19.4702	-12.085	-17.9596	-18.9667	-16.1133	2.0142	-6.546	-5.2032	0	-16.1133	61	254	153	8	1	2
-8.3923	-13.9313	-11.2457	0.5035	-14.0991	-18.2953	-6.2103	-16.7847	-19.4702	-12.085	-17.2882	-18.631	-16.449	2.0142	-7.5531	-5.7068	1.1749	-15.274	61	255	154	8	1	2
-8.2245	-13.7634	-11.0779	0.6714	-13.9313	-18.1274	-5.8746	-16.2811	-19.3024	-12.2528	-16.6168	-18.2953	-16.7847	1.8463	-8.5602	-6.3782	2.0142	-14.4348	61	256	155	8	1	2
-7.8888	-13.2599	-10.7422	1.0071	-13.5956	-17.9596	-5.3711	-15.7776	-18.9667	-12.085	-15.9454	-17.7917	-16.7847	1.8463	-9.2316	-6.7139	3.1891	-13.5956	61	257	156	8	1	2
-7.3853	-12.9242	-10.4065	1.0071	-13.2599	-17.6239	-4.8676	-15.1062	-18.7988	-11.9171	-15.4419	-17.4561	-16.7847	1.6785	-10.0708	-7.2174	3.8605	-13.092	61	258	157	8	1	2
-6.8817	-12.4207	-10.0708	1.1749	-12.9242	-17.4561	-4.0283	-14.7705	-18.4631	-11.5814	-14.9384	-17.1204	-16.6168	1.5106	-10.7422	-7.5531	4.1962	-12.5885	61	259	158	8	1	2
-6.7139	-11.9171	-9.7351	1.3428	-12.5885	-17.2882	-3.0212	-14.6027	-18.1274	-11.2457	-14.4348	-16.7847	-16.7847	1.3428	-11.4136	-7.7209	4.364	-12.085	61	260	159	8	1	2
-6.2103	-11.2457	-9.2316	1.5106	-12.085	-16.7847	-2.182	-14.0991	-17.9596	-10.7422	-13.9313	-16.2811	-16.449	1.3428	-11.9171	-7.7209	4.5319	-11.5814	61	261	160	8	1	2
-5.7068	-10.91	-9.0637	1.5106	-11.9171	-16.6168	-1.6785	-13.7634	-17.6239	-10.4065	-13.5956	-16.1133	-16.2811	1.1749	-12.2528	-7.8888	4.5319	-11.4136	61	262	161	8	1	2
-5.5389	-10.4065	-8.728	1.8463	-11.5814	-16.449	-1.1749	-13.4277	-17.4561	-10.2386	-13.4277	-15.9454	-16.2811	1.0071	-12.5885	-7.8888	4.6997	-10.91	61	263	162	8	1	2
-5.2032	-9.903	-8.3923	2.0142	-11.4136	-16.1133	-0.8392	-13.092	-17.1204	-10.0708	-12.9242	-15.6097	-15.9454	1.0071	-12.5885	-7.7209	4.8676	-10.2386	61	264	163	8	1	2
-4.8676	-9.5673	-8.2245	2.182	-11.2457	-15.9454	-0.6714	-12.9242	-16.9525	-10.0708	-12.5885	-15.4419	-15.7776	1.0071	-12.5885	-7.7209	4.8676	-9.5673	61	265	164	8	1	2
-4.364	-9.2316	-7.8888	2.3499	-10.91	-15.6097	-0.6714	-12.7563	-16.6168	-9.903	-12.4207	-15.1062	-15.6097	1.1749	-12.5885	-7.5531	4.5319	-8.8959	61	266	165	8	1	2
-4.0283	-8.728	-7.3853	2.8534	-10.7422	-15.4419	-0.5035	-12.4207	-16.449	-9.7351	-12.085	-15.1062	-15.4419	1.3428	-12.4207	-7.3853	4.5319	-8.5602	61	267	166	8	1	2
-3.6926	-8.5602	-7.2174	3.1891	-10.7422	-15.274	-0.5035	-12.4207	-16.2811	-9.903	-12.085	-15.1062	-15.274	1.3428	-12.2528	-7.5531	4.364	-8.3923	61	268	167	8	1	2
-3.5248	-8.3923	-7.0496	3.3569	-10.7422	-14.9384	-0.3357	-12.5885	-16.2811	-9.7351	-12.085	-15.1062	-15.274	1.5106	-11.9171	-7.3853	3.8605	-8.2245	61	269	168	8	1	2
-3.1891	-7.8888	-6.7139	3.6926	-10.4065	-14.9384	-0.1678	-12.5885	-16.1133	-9.7351	-12.4207	-15.1062	-14.9384	1.6785	-11.7493	-7.0496	3.5248	-8.3923	61	270	169	8	1	2
-2.8534	-7.3853	-6.546	4.1962	-10.4065	-14.6027	0.5035	-12.7563	-15.9454	-9.7351	-12.5885	-15.274	-14.7705	1.8463	-11.0779	-6.8817	3.0212	-8.5602	61	271	170	8	1	2
-2.6855	-6.3782	-6.2103	4.5319	-10.0708	-14.4348	0.5035	-12.7563	-15.9454	-9.5673	-12.7563	-15.274	-14.4348	2.0142	-9.903	-6.546	2.3499	-9.0637	61	272	171	8	1	2
-2.182	-5.0354	-5.8746	4.8676	-9.7351	-14.0991	0.6714	-12.7563	-15.7776	-9.3994	-12.9242	-15.4419	-14.267	2.182	-8.2245	-6.3782	1.3428	-9.3994	61	273	172	8	1	2
-1.8463	-3.8605	-5.5389	5.2032	-9.2316	-13.9313	0.5035	-13.092	-15.7776	-9.3994	-13.092	-15.4419	-14.0991	2.3499	-6.0425	-6.2103	0.3357	-9.903	61	274	173	8	1	2
-1.6785	-2.8534	-5.3711	5.5389	-9.0637	-13.9313	0.3357	-13.2599	-15.9454	-9.3994	-13.5956	-15.6097	-13.7634	2.3499	-3.8605	-6.2103	-1.1749	-10.5743	61	275	174	8	1	2
-1.5106	-1.8463	-5.2032	5.7068	-8.728	-13.7634	-0.1678	-13.2599	-15.9454	-9.3994	-13.7634	-15.7776	-13.2599	2.5177	-1.5106	-6.0425	-2.3499	-11.0779	61	276	175	8	1	2
-1.3428	-1.3428	-5.2032	6.0425	-8.728	-13.7634	-0.5035	-13.5956	-16.2811	-9.7351	-14.267	-16.1133	-13.2599	2.5177	0.3357	-6.0425	-3.6926	-11.5814	61	277	176	8	1	2
-1.1749	-1.3428	-5.2032	6.2103	-9.0637	-13.9313	-1.1749	-13.9313	-16.6168	-10.0708	-14.9384	-16.6168	-13.4277	2.5177	1.6785	-6.2103	-4.6997	-12.2528	61	278	177	8	1	2
-1.1749	-1.6785	-5.2032	6.2103	-9.0637	-13.9313	-1.8463	-14.267	-16.9525	-10.2386	-15.274	-16.9525	-13.4277	2.6855	2.5177	-6.2103	-5.2032	-12.9242	61	279	178	8	1	2
-1.1749	-2.182	-5.2032	6.2103	-9.3994	-14.267	-2.6855	-14.7705	-17.4561	-10.7422	-15.9454	-17.4561	-13.5956	2.6855	3.0212	-6.546	-5.7068	-13.5956	61	280	179	8	1	2
-1.1749	-2.8534	-5.3711	6.2103	-9.903	-14.6027	-3.5248	-15.1062	-17.9596	-10.91	-16.449	-17.9596	-14.0991	2.6855	3.0212	-7.0496	-5.8746	-14.0991	61	281	180	8	1	2
-1.3428	-3.8605	-5.7068	6.3782	-10.4065	-14.7705	-4.1962	-15.4419	-18.4631	-11.4136	-16.6168	-18.631	-14.4348	2.6855	3.0212	-7.7209	-5.8746	-14.4348	61	282	181	8	1	2
-1.5106	-4.6997	-5.8746	6.2103	-10.91	-15.1062	-4.6997	-15.7776	-18.9667	-11.9171	-16.9525	-19.1345	-14.7705	2.6855	2.5177	-8.728	-5.7068	-14.4348	61	283	182	8	1	2
-1.6785	-5.7068	-6.0425	6.0425	-11.2457	-15.1062	-5.5389	-15.9454	-19.4702	-12.2528	-17.1204	-19.6381	-15.1062	2.6855	2.0142	-9.903	-5.3711	-14.0991	61	284	183	8	1	2
-1.8463	-6.7139	-6.2103	5.8746	-11.7493	-15.274	-6.0425	-15.9454	-19.9738	-12.5885	-17.2882	-20.3094	-15.6097	2.6855	1.1749	-11.2457	-4.6997	-13.9313	61	285	184	8	1	2
-1.6785	-7.3853	-6.2103	5.5389	-12.085	-15.4419	-6.8817	-16.1133	-20.3094	-13.092	-17.4561	-20.813	-16.1133	2.6855	0	-12.5885	-4.1962	-13.5956	61	286	185	8	1	2
-2.0142	-8.3923	-6.546	5.7068	-12.2528	-15.7776	-7.5531	-16.1133	-20.9808	-13.5956	-17.6239	-21.4844	-16.449	2.5177	-1.3428	-14.267	-3.6926	-13.5956	61	287	186	8	1	2
-2.182	-8.8959	-6.7139	5.5389	-12.4207	-15.9454	-7.8888	-16.1133	-21.4844	-13.9313	-17.6239	-21.9879	-16.9525	2.5177	-2.3499	-15.7776	-3.1891	-13.4277	61	288	187	8	1	2
-2.182	-9.2316	-6.7139	5.3711	-12.4207	-16.1133	-8.2245	-16.1133	-21.8201	-14.267	-17.6239	-22.3236	-17.4561	2.5177	-3.3569	-17.1204	-2.6855	-13.092	61	289	188	8	1	2
-2.5177	-9.7351	-7.0496	4.8676	-12.5885	-16.2811	-8.728	-16.2811	-22.4915	-14.7705	-17.7917	-22.995	-17.9596	2.3499	-4.5319	-18.2953	-2.3499	-13.092	61	290	189	8	1	2
-3.0212	-10.2386	-7.5531	4.6997	-12.7563	-16.6168	-9.2316	-16.449	-23.1628	-15.4419	-17.9596	-23.6664	-18.4631	2.182	-5.7068	-19.1345	-2.0142	-13.2599	61	291	190	8	1	2
9.903	-4.5319	11.7493	15.4419	2.5177	8.5602	17.4561	5.2032	5.5389	27.1912	4.364	4.5319	11.9171	0.3357	15.4419	7.5531	7.5531	4.8676	61	231	130	9	1	2
10.91	-4.1962	12.5885	16.2811	3.0212	9.3994	18.2953	5.8746	6.546	28.3661	5.2032	5.3711	12.5885	0	15.4419	7.8888	8.0566	5.8746	61	232	131	9	1	2
11.5814	-3.5248	13.4277	17.1204	3.5248	10.2386	18.631	6.3782	7.3853	29.0375	5.7068	6.0425	13.092	-0.3357	15.1062	8.0566	8.5602	6.546	61	233	132	9	1	2
12.4207	-2.3499	14.0991	17.6239	4.1962	11.0779	18.9667	7.0496	8.2245	29.7089	6.3782	6.7139	13.4277	-0.5035	14.7705	8.3923	9.0637	7.2174	61	234	133	9	1	2
13.4277	-1.5106	14.7705	18.1274	4.8676	11.7493	19.1345	7.7209	8.8959	30.2124	7.2174	7.2174	13.9313	-0.8392	14.4348	8.728	9.903	8.0566	61	235	134	9	1	2
14.267	-0.6714	15.4419	18.9667	5.5389	12.5885	19.1345	8.3923	9.5673	30.7159	7.7209	7.8888	14.267	-1.1749	14.0991	9.2316	10.5743	8.728	61	236	135	9	1	2
15.1062	0.5035	16.2811	19.3024	6.3782	13.5956	19.1345	8.8959	10.2386	31.2195	8.3923	8.3923	14.6027	-1.5106	13.7634	9.7351	11.2457	9.3994	61	237	136	9	1	2
15.9454	1.5106	16.9525	19.9738	7.0496	14.267	18.9667	9.5673	10.91	31.723	8.8959	9.0637	14.9384	-1.8463	13.5956	10.2386	12.085	9.903	61	238	137	9	1	2
16.9525	2.8534	17.9596	20.6451	8.0566	15.274	19.1345	10.2386	11.7493	32.2266	9.5673	9.903	15.274	-2.182	13.7634	10.91	12.5885	10.7422	61	239	138	9	1	2
17.7917	4.0283	18.631	21.3165	8.8959	16.1133	18.9667	10.91	12.5885	32.7301	10.2386	10.4065	15.7776	-2.5177	14.267	10.91	12.5885	11.5814	61	240	139	9	1	2
18.631	5.2032	19.4702	21.8201	9.903	17.1204	18.9667	11.9171	13.2599	33.2336	11.0779	11.0779	16.449	-2.6855	15.274	10.91	12.2528	12.5885	61	241	140	9	1	2
19.4702	6.546	20.4773	22.4915	11.0779	18.2953	19.3024	13.092	14.267	34.0729	12.2528	12.085	17.2882	-2.8534	16.9525	10.91	11.4136	13.5956	61	242	141	9	1	2
20.6451	8.2245	21.6522	23.3307	12.4207	19.4702	19.8059	14.4348	15.4419	35.4156	13.4277	13.2599	18.4631	-3.0212	18.9667	10.91	10.5743	14.9384	61	243	142	9	1	2
21.4844	9.5673	22.4915	24.0021	13.5956	20.6451	20.1416	15.7776	16.449	36.4227	14.6027	14.0991	19.4702	-3.0212	20.6451	10.5743	9.3994	16.1133	61	244	143	9	1	2
22.4915	10.91	23.4985	24.6735	14.9384	21.8201	20.6451	17.1204	17.6239	37.5977	15.9454	15.274	20.6451	-3.0212	21.9879	10.2386	8.3923	17.4561	61	245	144	9	1	2
23.3307	12.5885	24.6735	25.3448	16.6168	23.1628	21.3165	18.631	18.9667	38.7726	17.4561	16.449	21.9879	-2.8534	23.1628	9.903	7.8888	19.3024	61	246	145	9	1	2
24.1699	14.267	25.6805	25.6805	18.1274	24.3378	21.9879	19.9738	20.1416	39.9475	18.7988	17.4561	22.995	-2.6855	24.0021	9.5673	7.7209	20.9808	61	247	146	9	1	2
24.6735	15.6097	26.5198	26.1841	19.4702	25.3448	22.6593	21.3165	21.1487	40.6189	19.8059	18.4631	23.8342	-2.6855	24.3378	9.2316	7.7209	22.3236	61	248	147	9	1	2
25.177	17.2882	27.0233	26.3519	20.813	26.1841	23.1628	22.1558	21.8201	41.2903	20.4773	19.1345	24.5056	-2.3499	24.3378	8.8959	8.0566	23.1628	61	249	148	9	1	2
25.6805	19.3024	27.8625	26.5198	22.1558	26.8555	23.6664	22.995	22.6593	41.9617	21.3165	19.8059	24.8413	-2.0142	24.1699	9.0637	8.8959	23.4985	61	250	149	9	1	2
25.8484	20.9808	28.3661	26.3519	23.3307	27.5269	23.8342	23.4985	23.1628	42.2974	21.6522	20.3094	25.0092	-1.8463	23.8342	9.5673	9.903	23.6664	61	251	150	9	1	2
25.8484	22.4915	28.3661	26.0162	24.0021	27.6947	23.6664	23.8342	23.3307	42.1295	21.6522	20.3094	24.8413	-1.5106	22.995	9.7351	10.7422	23.3307	61	252	151	9	1	2
25.6805	23.4985	28.3661	25.6805	24.6735	27.8625	23.8342	23.8342	23.4985	42.1295	21.4844	20.4773	24.6735	-1.3428	22.1558	10.5743	11.9171	22.995	61	253	152	9	1	2
25.0092	24.0021	28.1982	24.8413	24.6735	27.6947	23.3307	23.6664	23.3307	41.4581	21.1487	20.3094	24.1699	-1.1749	20.9808	11.4136	12.9242	22.1558	61	254	153	9	1	2
24.3378	24.1699	27.6947	24.0021	24.5056	27.359	22.8271	23.1628	22.995	40.9546	20.6451	19.9738	23.3307	-1.0071	19.8059	12.085	13.9313	21.4844	61	255	154	9	1	2
23.3307	23.6664	26.8555	22.995	24.1699	26.5198	22.1558	22.4915	22.3236	39.9475	19.8059	19.3024	22.4915	-0.8392	18.4631	12.7563	14.6027	20.6451	61	256	155	9	1	2
22.3236	22.995	25.8484	21.8201	23.4985	25.8484	21.3165	21.6522	21.6522	38.9404	18.9667	18.7988	21.3165	-0.8392	17.1204	13.4277	14.7705	19.6381	61	257	156	9	1	2
21.1487	21.9879	25.0092	20.813	22.8271	25.0092	20.4773	20.9808	20.813	37.9333	18.1274	17.9596	20.4773	-1.0071	16.2811	14.4348	14.7705	18.7988	61	258	157	9	1	2
20.1416	20.813	23.8342	19.6381	21.8201	24.0021	19.8059	20.1416	19.9738	36.9263	17.2882	17.2882	19.4702	-1.1749	15.4419	15.1062	14.0991	17.6239	61	259	158	9	1	2
18.9667	19.1345	22.6593	18.631	20.813	22.8271	18.631	18.9667	19.1345	35.7513	16.1133	16.2811	18.2953	-1.3428	14.6027	15.7776	13.4277	16.2811	61	260	159	9	1	2
17.7917	17.4561	21.6522	17.6239	19.6381	21.8201	17.9596	17.9596	17.9596	34.7443	14.9384	15.274	17.2882	-1.6785	13.9313	16.449	12.5885	14.9384	61	261	160	9	1	2
16.6168	15.9454	20.4773	16.9525	18.631	20.813	16.9525	17.1204	17.1204	33.7372	13.9313	14.4348	16.449	-2.182	13.2599	17.1204	11.9171	13.5956	61	262	161	9	1	2
15.7776	14.267	19.4702	16.2811	17.6239	19.8059	16.2811	16.1133	16.2811	32.7301	12.9242	13.4277	15.4419	-2.5177	12.5885	17.6239	11.4136	12.2528	61	263	162	9	1	2
15.1062	12.5885	18.631	15.9454	16.6168	18.9667	15.7776	15.1062	15.4419	31.8909	11.9171	12.5885	14.6027	-2.8534	12.085	18.1274	10.7422	11.0779	61	264	163	9	1	2
14.267	11.0779	17.7917	15.6097	15.6097	18.2953	15.274	14.267	14.6027	31.2195	11.0779	11.7493	13.7634	-3.1891	11.4136	18.4631	10.4065	9.903	61	265	164	9	1	2
13.7634	9.903	17.1204	15.4419	14.9384	17.6239	15.1062	13.5956	14.0991	30.7159	10.2386	11.0779	13.2599	-3.3569	10.91	18.7988	10.5743	8.8959	61	266	165	9	1	2
13.092	8.5602	16.449	15.1062	13.9313	16.9525	14.7705	12.7563	13.2599	30.3802	9.3994	10.2386	12.4207	-3.5248	10.2386	18.7988	10.4065	7.8888	61	267	166	9	1	2
13.092	7.5531	16.2811	15.274	13.4277	16.7847	15.1062	12.4207	12.9242	30.2124	8.728	9.7351	12.085	-3.5248	10.0708	18.9667	10.7422	7.0496	61	268	167	9	1	2
12.9242	6.7139	15.9454	15.274	12.9242	16.449	15.6097	11.9171	12.5885	30.2124	8.3923	9.2316	11.7493	-3.6926	9.7351	18.9667	10.91	6.3782	61	269	168	9	1	2
12.4207	5.7068	15.6097	15.1062	12.4207	16.1133	15.9454	11.4136	12.2528	30.0446	7.5531	8.728	11.2457	-3.6926	9.3994	18.631	11.0779	5.5389	61	270	169	9	1	2
12.2528	5.0354	15.4419	14.9384	11.9171	15.9454	16.449	11.2457	11.9171	30.2124	7.0496	8.2245	11.0779	-3.6926	9.2316	18.2953	11.4136	5.0354	61	271	170	9	1	2
12.2528	4.364	15.4419	14.9384	11.5814	15.9454	16.9525	10.91	11.7493	30.3802	6.546	7.7209	10.91	-3.6926	9.0637	17.7917	12.085	4.5319	61	272	171	9	1	2
11.9171	3.8605	15.1062	14.4348	11.0779	15.6097	17.1204	10.4065	11.5814	30.2124	6.0425	7.2174	10.4065	-3.5248	8.8959	17.2882	12.4207	3.8605	61	273	172	9	1	2
11.9171	3.5248	15.274	14.267	10.7422	15.6097	17.1204	10.0708	11.2457	30.3802	5.5389	6.8817	10.2386	-3.3569	8.8959	16.449	12.9242	3.1891	61	274	173	9	1	2
11.9171	3.0212	15.1062	14.0991	10.4065	15.6097	17.1204	9.903	11.0779	30.3802	5.0354	6.3782	10.0708	-3.1891	9.0637	15.4419	13.5956	2.6855	61	275	174	9	1	2
12.085	2.8534	15.4419	13.9313	10.4065	15.7776	17.2882	9.903	11.0779	30.7159	4.8676	6.2103	10.0708	-2.8534	9.3994	14.4348	14.0991	2.5177	61	276	175	9	1	2
12.4207	3.0212	15.7776	13.9313	10.5743	16.1133	17.1204	9.903	11.4136	31.0516	4.8676	6.0425	10.0708	-2.6855	9.7351	13.4277	14.4348	2.3499	61	277	176	9	1	2
12.5885	2.8534	15.9454	13.9313	10.4065	16.2811	17.1204	10.0708	11.2457	31.2195	4.5319	5.8746	10.2386	-2.3499	10.2386	12.2528	14.4348	1.8463	61	278	177	9	1	2
12.9242	3.0212	16.449	14.0991	10.7422	16.7847	17.1204	10.0708	11.5814	31.723	4.364	5.7068	10.4065	-2.0142	10.91	10.91	14.7705	1.6785	61	279	178	9	1	2
13.7634	3.5248	17.1204	14.267	10.91	17.2882	17.1204	10.4065	11.9171	32.0587	4.5319	5.7068	10.91	-1.8463	11.7493	9.5673	14.7705	1.6785	61	280	179	9	1	2
14.267	4.0283	17.7917	14.6027	11.4136	18.1274	17.1204	10.7422	12.2528	32.5623	4.5319	5.8746	11.2457	-1.5106	12.7563	8.3923	15.1062	1.6785	61	281	180	9	1	2
14.9384	4.6997	18.4631	15.1062	11.7493	18.631	17.2882	10.91	12.9242	33.0658	4.5319	6.0425	11.5814	-1.1749	13.5956	7.2174	15.274	1.5106	61	282	181	9	1	2
15.9454	5.5389	19.3024	15.6097	12.4207	19.4702	17.1204	11.2457	13.2599	33.5693	4.8676	6.2103	12.085	-0.6714	14.4348	6.0425	15.4419	1.6785	61	283	182	9	1	2
16.6168	6.0425	20.1416	16.2811	12.7563	20.3094	17.2882	11.5814	13.7634	34.0729	5.0354	6.546	12.4207	-0.3357	15.1062	5.0354	15.9454	1.8463	61	284	183	9	1	2
17.4561	6.8817	20.813	16.9525	13.4277	21.1487	17.4561	11.9171	14.4348	34.4086	5.2032	6.8817	12.9242	-0.1678	15.7776	4.1962	16.449	1.8463	61	285	184	9	1	2
18.1274	7.7209	21.4844	17.4561	13.7634	21.6522	17.4561	12.2528	14.7705	34.9121	5.5389	7.0496	13.2599	0.1678	16.2811	3.1891	16.6168	1.8463	61	286	185	9	1	2
18.9667	8.3923	22.1558	18.2953	14.4348	22.4915	17.6239	12.5885	15.4419	35.2478	5.8746	7.5531	13.5956	0.3357	16.9525	2.5177	17.1204	2.182	61	287	186	9	1	2
19.3024	9.0637	22.8271	18.631	14.7705	23.1628	17.7917	12.7563	15.7776	35.5835	6.0425	7.7209	13.9313	0.5035	17.2882	1.6785	17.6239	2.182	61	288	187	9	1	2
19.8059	9.7351	23.1628	19.3024	15.1062	23.6664	17.7917	12.9242	16.449	35.7513	6.2103	8.2245	14.0991	0.8392	17.4561	1.0071	17.7917	2.3499	61	289	188	9	1	2
20.1416	10.2386	23.4985	19.6381	15.4419	24.1699	17.7917	13.092	16.7847	35.9192	6.546	8.728	14.267	1.0071	17.6239	0.5035	18.1274	2.5177	61	290	189	9	1	2
20.3094	10.5743	23.6664	19.9738	15.7776	24.6735	17.7917	13.4277	17.2882	36.2549	6.8817	9.2316	14.4348	1.1749	17.6239	0.1678	18.4631	2.5177	61	291	190	9	1	2
-5.8746	-7.7209	-6.8817	-4.0283	-2.3499	-3.8605	-1.5106	-3.5248	-0.3357	2.3499	1.0071	2.6855	8.0566	-3.0212	7.0496	0.8392	7.3853	4.364	61	231	130	12	1	2
-6.3782	-8.5602	-7.3853	-4.1962	-3.0212	-4.364	-1.5106	-4.1962	-0.6714	2.3499	0.3357	2.3499	7.7209	-3.0212	7.0496	1.5106	7.3853	3.3569	61	232	131	12	1	2
-6.7139	-9.5673	-7.5531	-4.364	-3.6926	-4.6997	-1.5106	-4.8676	-0.8392	2.3499	-0.1678	2.0142	7.3853	-3.0212	6.8817	2.182	7.2174	2.5177	61	233	132	12	1	2
-6.8817	-10.0708	-7.7209	-4.364	-4.1962	-4.8676	-1.3428	-5.2032	-1.0071	2.3499	-0.6714	1.8463	7.2174	-3.0212	6.8817	2.6855	7.2174	2.0142	61	234	133	12	1	2
-6.8817	-10.5743	-7.8888	-4.5319	-4.5319	-5.0354	-1.1749	-5.5389	-1.1749	2.5177	-1.0071	1.6785	7.0496	-3.0212	6.7139	3.1891	7.2174	1.5106	61	235	134	12	1	2
-6.8817	-10.91	-7.8888	-4.5319	-4.8676	-5.0354	-1.1749	-5.7068	-1.1749	2.6855	-1.3428	1.6785	7.0496	-3.0212	6.8817	3.6926	7.3853	0.8392	61	236	135	12	1	2
-6.7139	-11.0779	-7.8888	-4.5319	-5.0354	-5.0354	-0.6714	-5.8746	-1.0071	3.0212	-1.5106	1.6785	7.0496	-3.0212	6.8817	4.364	7.3853	0.8392	61	237	136	12	1	2
-6.3782	-10.7422	-7.5531	-4.364	-4.8676	-4.6997	-0.1678	-5.5389	-0.6714	3.5248	-1.3428	1.8463	7.0496	-3.0212	7.0496	4.5319	7.7209	0.8392	61	238	137	12	1	2
-6.0425	-10.4065	-7.2174	-4.1962	-4.6997	-4.364	0.1678	-5.2032	-0.3357	3.8605	-1.1749	2.0142	7.2174	-3.0212	7.0496	4.8676	7.7209	0.6714	61	239	138	12	1	2
-5.3711	-10.0708	-6.7139	-4.0283	-4.5319	-3.8605	0.6714	-4.8676	0.1678	4.1962	-1.0071	2.182	7.5531	-2.8534	7.2174	5.2032	7.8888	0.6714	61	240	139	12	1	2
-5.0354	-9.3994	-6.2103	-3.3569	-3.8605	-3.3569	1.5106	-4.364	0.8392	5.0354	-0.6714	2.5177	7.7209	-2.8534	7.3853	5.3711	8.3923	1.0071	61	241	140	12	1	2
-4.1962	-8.5602	-5.5389	-3.0212	-3.3569	-2.8534	2.182	-3.8605	1.3428	5.5389	-0.1678	2.8534	8.2245	-2.6855	7.7209	5.5389	8.5602	1.0071	61	242	141	12	1	2
-3.5248	-7.7209	-4.8676	-2.3499	-2.5177	-2.0142	3.0212	-3.0212	2.182	6.2103	0.3357	3.3569	8.3923	-2.6855	7.8888	5.3711	8.8959	1.3428	61	243	142	12	1	2
-2.6855	-6.8817	-4.364	-1.8463	-1.8463	-1.1749	3.6926	-2.3499	2.6855	6.7139	0.8392	3.8605	8.8959	-2.5177	7.8888	5.3711	9.0637	1.5106	61	244	143	12	1	2
-2.182	-5.8746	-3.5248	-1.1749	-1.0071	-0.3357	4.6997	-1.5106	3.6926	7.5531	1.5106	4.6997	9.2316	-2.5177	8.0566	5.2032	9.3994	1.8463	61	245	144	12	1	2
-1.1749	-4.6997	-2.6855	-0.1678	0	0.6714	5.5389	-0.3357	4.5319	8.2245	2.182	5.5389	9.7351	-2.3499	8.2245	5.2032	9.903	2.3499	61	246	145	12	1	2
-0.3357	-3.8605	-2.182	0.3357	0.8392	1.5106	6.3782	0.5035	5.5389	8.8959	3.0212	6.0425	10.4065	-2.182	8.3923	5.0354	10.0708	2.6855	61	247	146	12	1	2
0	-2.8534	-1.1749	1.0071	2.0142	2.5177	7.2174	1.6785	6.546	9.7351	3.8605	7.0496	10.91	-2.182	8.5602	5.0354	10.4065	3.1891	61	248	147	12	1	2
0.6714	-1.8463	-0.5035	1.8463	3.0212	3.5248	8.0566	2.8534	7.5531	10.4065	4.8676	7.7209	11.4136	-2.182	8.5602	4.8676	10.7422	3.5248	61	249	148	12	1	2
1.5106	-0.8392	0.3357	2.5177	4.1962	4.364	8.8959	4.1962	8.728	11.2457	5.8746	8.5602	12.2528	-2.0142	8.728	4.8676	11.2457	4.0283	61	250	149	12	1	2
2.182	0.1678	1.1749	3.1891	5.3711	5.5389	9.7351	5.5389	10.0708	11.9171	7.0496	9.7351	12.9242	-2.0142	8.728	4.5319	11.4136	4.6997	61	251	150	12	1	2
2.6855	1.3428	1.8463	3.8605	6.546	6.7139	10.5743	6.8817	11.2457	12.7563	8.2245	10.7422	13.5956	-2.0142	8.8959	4.1962	11.7493	5.3711	61	252	151	12	1	2
3.0212	2.182	2.3499	4.5319	7.3853	7.5531	11.0779	8.2245	12.2528	13.4277	9.0637	11.5814	14.0991	-2.182	8.728	3.5248	11.7493	6.2103	61	253	152	12	1	2
3.6926	3.1891	3.0212	5.2032	8.5602	8.728	11.7493	9.5673	13.4277	13.9313	10.4065	12.5885	14.7705	-2.182	8.728	2.8534	11.7493	7.2174	61	254	153	12	1	2
4.1962	4.0283	3.6926	5.3711	9.7351	9.7351	12.2528	11.0779	14.4348	14.4348	11.7493	13.7634	15.4419	-2.182	8.5602	2.0142	11.9171	8.0566	61	255	154	12	1	2
4.6997	4.6997	4.364	5.8746	10.7422	10.7422	12.5885	12.2528	15.6097	15.274	12.9242	14.7705	15.7776	-2.182	8.5602	1.5106	12.085	8.728	61	256	155	12	1	2
4.8676	5.7068	4.6997	6.2103	11.4136	11.5814	13.092	13.4277	16.449	15.6097	13.9313	15.6097	16.2811	-2.3499	8.5602	1.1749	12.085	9.2316	61	257	156	12	1	2
5.3711	6.2103	5.2032	6.546	12.4207	12.5885	13.4277	14.6027	17.6239	15.9454	14.9384	16.449	16.9525	-2.3499	8.3923	1.0071	12.085	9.7351	61	258	157	12	1	2
5.7068	6.8817	5.8746	6.546	13.092	13.4277	13.4277	15.4419	18.4631	16.1133	15.6097	17.2882	17.2882	-2.5177	8.2245	1.0071	12.085	10.0708	61	259	158	12	1	2
5.8746	7.7209	6.2103	6.8817	13.9313	14.0991	13.5956	16.2811	19.3024	16.449	16.2811	18.1274	17.7917	-2.6855	8.0566	1.1749	11.9171	10.2386	61	260	159	12	1	2
6.2103	8.2245	6.546	7.0496	14.267	14.7705	13.7634	16.7847	19.8059	16.6168	16.7847	18.9667	17.9596	-3.0212	7.8888	1.5106	11.7493	10.2386	61	261	160	12	1	2
6.546	9.0637	7.2174	7.2174	15.1062	15.6097	13.9313	17.4561	20.6451	16.9525	17.4561	19.8059	18.4631	-3.1891	7.8888	1.6785	11.7493	10.4065	61	262	161	12	1	2
6.8817	9.7351	7.7209	7.3853	15.7776	16.449	13.9313	18.1274	21.4844	17.1204	18.1274	20.6451	18.9667	-3.3569	8.0566	1.6785	11.7493	10.4065	61	263	162	12	1	2
7.3853	10.2386	8.0566	7.3853	16.449	17.1204	14.0991	18.9667	22.3236	17.1204	18.7988	21.4844	19.4702	-3.5248	8.0566	1.6785	11.9171	10.7422	61	264	163	12	1	2
7.8888	11.0779	8.728	7.5531	17.2882	18.1274	14.267	19.9738	23.1628	17.4561	19.6381	22.4915	20.1416	-3.5248	8.2245	1.5106	12.085	10.91	61	265	164	12	1	2
8.0566	11.5814	9.2316	7.7209	17.9596	18.7988	14.4348	20.813	23.8342	17.6239	20.3094	23.1628	20.6451	-3.6926	8.3923	1.5106	12.2528	11.2457	61	266	165	12	1	2
8.3923	12.2528	9.7351	7.7209	18.631	19.4702	14.4348	21.4844	24.6735	17.9596	20.9808	24.0021	21.1487	-3.6926	8.5602	1.3428	12.4207	11.5814	61	267	166	12	1	2
8.728	12.9242	10.4065	7.8888	19.3024	20.1416	14.6027	22.1558	25.3448	18.2953	21.6522	24.8413	21.6522	-3.6926	8.728	1.5106	12.5885	11.7493	61	268	167	12	1	2
8.8959	13.4277	10.91	8.2245	19.8059	20.6451	14.9384	22.4915	25.8484	18.631	21.9879	25.5127	22.1558	-3.6926	9.2316	2.0142	12.9242	11.7493	61	269	168	12	1	2
9.3994	14.0991	11.4136	8.0566	20.4773	21.3165	14.9384	22.8271	26.5198	18.7988	22.1558	26.1841	22.6593	-3.5248	9.3994	2.3499	13.2599	11.9171	61	270	169	12	1	2
9.7351	14.7705	11.9171	8.5602	21.1487	21.9879	15.274	23.1628	27.0233	19.1345	22.3236	26.6876	23.3307	-3.3569	9.903	3.0212	13.5956	11.9171	61	271	170	12	1	2
10.0708	15.6097	12.4207	8.728	21.8201	22.4915	15.4419	23.1628	27.6947	19.3024	22.4915	27.1912	23.6664	-3.1891	10.4065	3.5248	13.9313	12.085	61	272	171	12	1	2
10.4065	16.2811	12.9242	8.728	22.3236	22.8271	15.6097	23.1628	28.0304	19.4702	22.4915	27.5269	24.0021	-3.0212	10.7422	4.0283	14.4348	12.4207	61	273	172	12	1	2
10.7422	17.1204	13.5956	8.728	22.8271	23.4985	15.6097	23.1628	28.5339	19.8059	22.4915	28.0304	24.5056	-2.6855	11.0779	4.5319	14.7705	12.7563	61	274	173	12	1	2
11.0779	18.1274	13.9313	9.0637	23.1628	24.0021	15.9454	22.8271	28.8696	19.9738	22.3236	28.1982	24.6735	-2.5177	11.7493	5.0354	15.1062	12.9242	61	275	174	12	1	2
11.4136	19.1345	14.4348	9.0637	23.4985	24.3378	16.2811	22.4915	29.0375	20.1416	21.9879	28.3661	25.0092	-2.3499	12.085	5.5389	15.4419	13.092	61	276	175	12	1	2
11.9171	20.4773	14.9384	9.2316	23.8342	24.8413	16.449	22.3236	29.3732	20.4773	21.9879	28.5339	25.3448	-2.0142	12.4207	6.2103	15.9454	13.092	61	277	176	12	1	2
12.085	21.1487	15.1062	9.7351	23.8342	24.8413	16.6168	21.6522	29.2053	20.4773	21.4844	28.3661	25.5127	-2.0142	12.9242	6.7139	16.1133	12.9242	61	278	177	12	1	2
12.4207	21.8201	15.4419	9.7351	23.6664	25.0092	16.6168	20.9808	29.3732	20.813	21.1487	28.3661	25.6805	-1.8463	13.092	7.5531	16.2811	12.7563	61	279	178	12	1	2
12.4207	21.9879	15.7776	10.0708	23.3307	25.0092	16.6168	20.3094	29.0375	20.813	20.4773	28.0304	25.6805	-1.8463	13.2599	8.2245	16.449	12.2528	61	280	179	12	1	2
12.085	21.3165	15.4419	10.0708	22.4915	24.6735	16.6168	19.3024	28.7018	20.6451	19.6381	27.6947	25.3448	-2.0142	13.2599	8.5602	16.2811	11.7493	61	281	180	12	1	2
11.7493	20.4773	15.1062	10.0708	21.8201	24.1699	16.2811	18.4631	28.1982	20.3094	18.9667	27.1912	25.177	-2.182	13.2599	9.0637	16.2811	11.2457	61	282	181	12	1	2
11.4136	19.3024	14.7705	9.7351	20.813	23.6664	16.1133	17.4561	27.5269	19.9738	18.1274	26.5198	24.6735	-2.3499	13.092	9.5673	15.9454	10.7422	61	283	182	12	1	2
10.7422	17.9596	14.0991	9.2316	19.6381	23.1628	15.4419	16.449	26.8555	19.4702	17.2882	25.8484	24.3378	-2.5177	12.7563	9.903	15.7776	10.0708	61	284	183	12	1	2
9.903	16.2811	13.2599	8.728	18.2953	22.3236	15.274	15.4419	26.0162	18.9667	16.449	24.8413	23.6664	-2.8534	12.5885	9.903	15.274	9.5673	61	285	184	12	1	2
9.2316	14.7705	12.5885	7.8888	17.2882	21.4844	14.6027	14.7705	25.3448	18.4631	15.6097	24.1699	23.3307	-3.0212	12.2528	9.903	14.9384	9.0637	61	286	185	12	1	2
8.3923	12.9242	11.9171	6.8817	15.9454	20.813	13.9313	13.7634	24.5056	17.7917	14.9384	23.1628	22.6593	-3.3569	11.7493	9.3994	14.4348	8.3923	61	287	186	12	1	2
7.3853	11.0779	10.91	6.0425	14.7705	19.9738	13.2599	12.9242	23.4985	17.1204	14.0991	22.1558	21.8201	-3.6926	11.4136	8.8959	13.9313	7.7209	61	288	187	12	1	2
6.546	9.0637	10.0708	5.0354	13.5956	18.9667	12.5885	12.085	22.6593	16.6168	13.4277	21.1487	21.1487	-4.0283	10.91	8.0566	13.5956	7.0496	61	289	188	12	1	2
5.7068	7.3853	9.0637	3.8605	12.5885	18.1274	11.9171	11.4136	21.6522	16.1133	12.7563	20.3094	20.4773	-4.364	10.5743	6.8817	13.092	6.2103	61	290	189	12	1	2
4.6997	5.8746	8.0566	2.8534	11.4136	17.1204	11.2457	10.5743	20.6451	15.274	11.9171	19.3024	19.6381	-4.8676	10.2386	5.2032	12.4207	5.5389	61	291	190	12	1	2
-13.2599	-20.4773	-14.7705	-11.7493	-18.631	-15.9454	-12.7563	-16.1133	-13.5956	-10.91	-13.9313	-11.0779	-9.3994	3.5248	-10.2386	-12.2528	-14.267	-14.4348	61	231	130	14	1	2
-13.092	-20.1416	-14.6027	-11.5814	-18.4631	-15.4419	-12.7563	-15.7776	-13.4277	-10.7422	-13.7634	-10.7422	-9.3994	3.5248	-10.4065	-12.4207	-14.267	-13.9313	61	232	131	14	1	2
-13.2599	-19.9738	-14.4348	-11.4136	-18.2953	-15.1062	-12.7563	-15.4419	-13.2599	-10.91	-13.5956	-10.7422	-9.3994	3.5248	-10.7422	-12.7563	-14.4348	-13.4277	61	233	132	14	1	2
-13.092	-19.6381	-14.267	-11.2457	-17.9596	-14.7705	-12.5885	-15.1062	-12.9242	-10.7422	-13.4277	-10.5743	-9.5673	3.5248	-11.0779	-13.092	-14.7705	-12.7563	61	234	133	14	1	2
-12.7563	-19.3024	-14.0991	-10.7422	-17.6239	-14.267	-12.4207	-14.7705	-12.5885	-10.7422	-13.092	-10.4065	-9.5673	3.5248	-11.5814	-13.4277	-14.9384	-12.085	61	235	134	14	1	2
-12.7563	-18.9667	-13.7634	-10.4065	-17.2882	-14.0991	-12.2528	-14.4348	-12.2528	-10.7422	-13.2599	-10.2386	-9.7351	3.5248	-12.2528	-14.0991	-15.274	-11.5814	61	236	135	14	1	2
-12.4207	-18.2953	-13.2599	-9.903	-16.9525	-13.4277	-12.085	-14.0991	-11.9171	-10.5743	-12.9242	-10.0708	-9.7351	3.3569	-12.5885	-14.267	-15.4419	-11.0779	61	237	136	14	1	2
-12.2528	-17.7917	-12.9242	-9.3994	-16.6168	-12.9242	-11.9171	-13.9313	-11.5814	-10.5743	-12.9242	-10.0708	-10.0708	3.1891	-13.2599	-14.6027	-15.7776	-10.7422	61	238	137	14	1	2
-11.7493	-16.7847	-12.4207	-9.2316	-15.9454	-12.2528	-11.7493	-13.7634	-11.4136	-10.91	-12.9242	-10.0708	-10.4065	3.0212	-13.7634	-14.7705	-15.9454	-10.7422	61	239	138	14	1	2
-11.4136	-15.274	-11.9171	-8.728	-15.274	-11.7493	-11.5814	-13.5956	-11.0779	-10.91	-12.7563	-10.0708	-10.5743	2.8534	-14.267	-14.7705	-16.2811	-10.5743	61	240	139	14	1	2
-10.91	-13.7634	-11.5814	-8.728	-14.6027	-11.4136	-11.7493	-13.4277	-10.91	-11.0779	-12.7563	-10.0708	-10.91	2.6855	-14.9384	-14.7705	-16.9525	-10.91	61	241	140	14	1	2
-10.5743	-11.9171	-10.91	-8.5602	-13.9313	-10.7422	-11.5814	-13.092	-10.4065	-11.0779	-12.5885	-9.903	-11.0779	2.5177	-15.6097	-14.6027	-17.1204	-11.0779	61	242	141	14	1	2
-10.2386	-10.4065	-10.2386	-8.3923	-13.092	-10.0708	-11.4136	-12.7563	-10.0708	-11.2457	-12.7563	-9.7351	-11.2457	2.182	-16.1133	-14.267	-17.2882	-11.2457	61	243	142	14	1	2
-9.7351	-8.8959	-9.903	-8.5602	-12.2528	-9.3994	-11.4136	-12.5885	-9.7351	-11.4136	-12.5885	-9.5673	-11.5814	2.0142	-16.6168	-13.9313	-17.4561	-11.4136	61	244	143	14	1	2
-9.7351	-8.0566	-9.5673	-8.8959	-11.7493	-9.2316	-11.4136	-12.4207	-9.7351	-11.5814	-12.5885	-9.7351	-11.9171	1.8463	-17.1204	-13.7634	-17.7917	-11.9171	61	245	144	14	1	2
-9.7351	-7.3853	-9.3994	-9.2316	-11.4136	-8.728	-11.2457	-12.085	-9.3994	-11.5814	-12.4207	-9.7351	-12.2528	1.6785	-17.6239	-13.2599	-17.9596	-12.085	61	246	145	14	1	2
-9.5673	-7.0496	-9.0637	-9.5673	-10.91	-8.3923	-11.4136	-11.9171	-9.2316	-11.7493	-12.4207	-9.7351	-12.4207	1.5106	-17.9596	-12.9242	-18.4631	-12.4207	61	247	146	14	1	2
-9.7351	-7.0496	-9.0637	-9.903	-10.5743	-8.0566	-11.2457	-11.7493	-8.8959	-12.085	-12.4207	-9.7351	-12.7563	1.1749	-18.631	-12.4207	-18.631	-12.7563	61	248	147	14	1	2
-9.7351	-7.0496	-8.8959	-10.2386	-10.4065	-7.8888	-11.2457	-11.7493	-8.728	-12.085	-12.4207	-9.7351	-13.092	1.0071	-18.9667	-12.085	-18.7988	-13.092	61	249	148	14	1	2
-10.0708	-7.3853	-8.8959	-10.7422	-10.2386	-7.7209	-11.2457	-11.5814	-8.5602	-12.2528	-12.2528	-9.7351	-13.4277	0.8392	-19.3024	-11.9171	-18.9667	-13.092	61	250	149	14	1	2
-10.2386	-8.0566	-8.8959	-11.2457	-10.2386	-7.5531	-11.4136	-11.2457	-8.728	-12.2528	-11.9171	-9.7351	-13.5956	0.8392	-19.8059	-12.085	-19.1345	-12.9242	61	251	150	14	1	2
-10.2386	-8.3923	-8.8959	-11.4136	-9.903	-7.3853	-11.0779	-10.7422	-8.3923	-12.2528	-11.4136	-9.5673	-13.7634	0.6714	-19.8059	-12.5885	-19.1345	-12.2528	61	252	151	14	1	2
-10.5743	-9.2316	-8.8959	-11.7493	-9.903	-7.2174	-11.0779	-10.2386	-8.2245	-12.2528	-10.91	-9.3994	-13.9313	0.6714	-20.1416	-13.4277	-19.4702	-11.7493	61	253	152	14	1	2
-10.5743	-9.7351	-8.8959	-11.9171	-9.7351	-7.0496	-10.91	-9.7351	-7.8888	-12.085	-10.2386	-9.2316	-13.9313	0.6714	-20.3094	-14.0991	-19.4702	-11.0779	61	254	153	14	1	2
-10.5743	-10.2386	-8.5602	-11.7493	-9.5673	-6.7139	-10.4065	-9.0637	-7.5531	-11.7493	-9.5673	-8.728	-13.7634	0.6714	-20.1416	-14.6027	-19.3024	-10.4065	61	255	154	14	1	2
-10.7422	-10.7422	-8.5602	-11.7493	-9.3994	-6.7139	-9.903	-8.5602	-7.0496	-11.5814	-9.0637	-8.5602	-13.5956	0.8392	-20.1416	-14.9384	-19.3024	-10.2386	61	256	155	14	1	2
-10.4065	-11.0779	-8.3923	-11.4136	-9.2316	-6.3782	-9.3994	-8.0566	-6.7139	-11.0779	-8.5602	-8.2245	-13.4277	0.8392	-19.9738	-14.7705	-18.9667	-9.903	61	257	156	14	1	2
-10.5743	-11.7493	-8.3923	-11.2457	-9.0637	-6.0425	-9.0637	-7.7209	-6.3782	-10.7422	-8.0566	-8.0566	-13.092	1.0071	-19.8059	-14.6027	-18.9667	-9.903	61	258	157	14	1	2
-10.0708	-11.7493	-8.0566	-10.91	-8.728	-5.7068	-8.2245	-7.2174	-5.8746	-9.903	-7.5531	-7.5531	-12.4207	1.1749	-19.1345	-13.9313	-18.4631	-9.7351	61	259	158	14	1	2
-10.2386	-12.2528	-8.0566	-10.5743	-8.728	-5.5389	-7.5531	-7.0496	-5.7068	-9.5673	-7.3853	-7.3853	-12.2528	1.3428	-18.7988	-13.5956	-18.1274	-10.0708	61	260	159	14	1	2
-10.0708	-12.4207	-7.8888	-10.0708	-8.5602	-5.3711	-6.8817	-6.8817	-5.2032	-8.8959	-7.2174	-6.8817	-11.7493	1.3428	-18.2953	-12.9242	-17.7917	-10.2386	61	261	160	14	1	2
-10.0708	-12.4207	-7.7209	-9.7351	-8.3923	-5.2032	-6.3782	-6.8817	-4.8676	-8.3923	-7.2174	-6.546	-11.4136	1.5106	-17.9596	-12.2528	-17.4561	-10.7422	61	262	161	14	1	2
-9.903	-12.5885	-7.5531	-9.2316	-8.2245	-4.6997	-5.7068	-6.7139	-4.5319	-7.7209	-7.0496	-6.2103	-10.91	1.5106	-17.2882	-11.7493	-17.1204	-11.0779	61	263	162	14	1	2
-9.903	-12.7563	-7.5531	-8.8959	-8.2245	-4.5319	-5.2032	-6.7139	-4.1962	-7.2174	-7.2174	-6.0425	-10.4065	1.5106	-16.9525	-11.2457	-16.9525	-11.5814	61	264	163	14	1	2
-10.0708	-12.7563	-7.5531	-8.3923	-8.2245	-4.364	-4.364	-6.546	-4.0283	-6.7139	-7.2174	-5.8746	-9.903	1.6785	-16.449	-11.2457	-16.6168	-12.085	61	265	164	14	1	2
-10.0708	-12.7563	-7.5531	-8.0566	-8.2245	-4.1962	-3.8605	-6.546	-3.8605	-6.0425	-7.2174	-5.7068	-9.3994	1.6785	-15.9454	-11.4136	-16.449	-12.2528	61	266	165	14	1	2
-9.903	-12.5885	-7.5531	-7.3853	-8.0566	-3.8605	-3.1891	-6.2103	-3.3569	-5.3711	-7.0496	-5.3711	-8.8959	1.6785	-15.274	-11.4136	-15.9454	-12.2528	61	267	166	14	1	2
-10.0708	-12.5885	-7.5531	-7.0496	-8.0566	-3.6926	-2.6855	-6.2103	-3.1891	-4.8676	-7.0496	-5.2032	-8.3923	1.8463	-14.9384	-11.7493	-15.7776	-12.4207	61	268	167	14	1	2
-10.0708	-12.4207	-7.5531	-6.3782	-7.8888	-3.5248	-2.3499	-6.3782	-3.0212	-4.5319	-7.0496	-5.0354	-8.2245	1.8463	-14.4348	-11.7493	-15.6097	-12.4207	61	269	168	14	1	2
-10.0708	-12.085	-7.3853	-6.0425	-7.7209	-3.1891	-1.8463	-6.2103	-2.6855	-3.8605	-6.8817	-4.6997	-7.7209	1.8463	-13.9313	-11.5814	-15.1062	-12.4207	61	270	169	14	1	2
-10.0708	-11.7493	-7.5531	-5.7068	-7.5531	-3.0212	-1.5106	-6.3782	-2.5177	-3.5248	-7.0496	-4.6997	-7.3853	2.0142	-13.5956	-11.5814	-14.9384	-12.5885	61	271	170	14	1	2
-10.4065	-11.5814	-7.7209	-5.5389	-7.3853	-3.0212	-1.3428	-6.3782	-2.5177	-3.3569	-7.2174	-4.5319	-7.0496	2.0142	-13.2599	-11.2457	-14.7705	-12.9242	61	272	171	14	1	2
-10.2386	-11.0779	-7.5531	-5.3711	-7.0496	-2.8534	-1.0071	-6.3782	-2.5177	-3.0212	-7.3853	-4.364	-6.546	2.0142	-12.7563	-10.7422	-14.4348	-12.9242	61	273	172	14	1	2
-10.4065	-11.2457	-7.8888	-5.3711	-7.3853	-2.6855	-1.0071	-6.7139	-2.5177	-2.8534	-7.5531	-4.5319	-6.3782	2.182	-12.4207	-10.2386	-14.267	-13.092	61	274	173	14	1	2
-10.7422	-11.0779	-8.0566	-5.3711	-7.3853	-2.5177	-0.8392	-6.8817	-2.3499	-2.5177	-7.7209	-4.364	-6.0425	2.182	-12.085	-9.7351	-14.0991	-13.2599	61	275	174	14	1	2
-10.91	-11.4136	-8.2245	-5.3711	-7.5531	-2.6855	-1.0071	-7.2174	-2.5177	-2.5177	-8.0566	-4.5319	-5.8746	2.3499	-11.9171	-9.3994	-14.267	-13.4277	61	276	175	14	1	2
-11.0779	-11.5814	-8.3923	-5.5389	-7.8888	-2.6855	-1.1749	-7.3853	-2.5177	-2.5177	-8.2245	-4.5319	-5.7068	2.5177	-11.5814	-8.8959	-14.0991	-13.5956	61	277	176	14	1	2
-11.4136	-12.085	-8.728	-5.8746	-8.2245	-2.6855	-1.3428	-7.5531	-2.6855	-2.5177	-8.3923	-4.5319	-5.5389	2.6855	-11.2457	-8.3923	-13.9313	-13.7634	61	278	177	14	1	2
-11.9171	-12.5885	-9.0637	-6.2103	-8.728	-2.8534	-1.5106	-7.7209	-2.8534	-2.8534	-8.5602	-4.6997	-5.5389	2.6855	-11.2457	-8.2245	-13.7634	-13.9313	61	279	178	14	1	2
-12.2528	-13.2599	-9.5673	-6.7139	-9.2316	-3.0212	-1.8463	-8.0566	-3.1891	-3.1891	-8.8959	-4.8676	-5.5389	2.8534	-10.91	-7.8888	-13.7634	-14.0991	61	280	179	14	1	2
-12.7563	-13.9313	-9.903	-7.0496	-10.0708	-3.5248	-2.182	-8.5602	-3.5248	-3.5248	-9.3994	-5.0354	-5.7068	3.0212	-10.7422	-7.8888	-13.7634	-14.6027	61	281	180	14	1	2
-13.4277	-14.6027	-10.2386	-7.7209	-10.7422	-3.6926	-2.6855	-8.8959	-3.8605	-3.8605	-9.7351	-5.3711	-5.8746	3.1891	-10.7422	-7.8888	-13.9313	-14.9384	61	282	181	14	1	2
-13.7634	-15.4419	-10.7422	-8.0566	-11.4136	-4.0283	-3.0212	-9.2316	-4.364	-4.364	-10.2386	-5.8746	-6.2103	3.5248	-10.5743	-7.8888	-13.9313	-15.274	61	283	182	14	1	2
-14.267	-16.2811	-11.0779	-8.5602	-12.2528	-4.364	-3.6926	-9.7351	-4.8676	-4.8676	-10.5743	-6.2103	-6.3782	3.6926	-10.5743	-8.2245	-14.0991	-15.6097	61	284	183	14	1	2
-14.6027	-16.9525	-11.5814	-9.0637	-13.092	-4.6997	-4.1962	-10.2386	-5.3711	-5.3711	-11.0779	-6.7139	-6.7139	3.8605	-10.7422	-8.3923	-14.267	-15.9454	61	285	184	14	1	2
-14.9384	-17.6239	-11.9171	-9.5673	-13.7634	-5.2032	-4.6997	-10.91	-5.8746	-6.0425	-11.5814	-7.3853	-7.2174	4.0283	-10.7422	-8.728	-14.4348	-16.449	61	286	185	14	1	2
-15.1062	-17.9596	-12.085	-9.7351	-14.4348	-5.3711	-5.2032	-11.2457	-6.3782	-6.546	-12.085	-7.7209	-7.5531	4.1962	-10.7422	-9.0637	-14.6027	-16.7847	61	287	186	14	1	2
-15.274	-18.4631	-12.4207	-10.2386	-15.1062	-5.8746	-5.7068	-11.9171	-6.8817	-7.2174	-12.5885	-8.3923	-7.8888	4.364	-10.91	-9.5673	-14.7705	-17.2882	61	288	187	14	1	2
-15.6097	-18.7988	-12.5885	-10.4065	-15.7776	-6.2103	-6.2103	-12.5885	-7.5531	-7.8888	-13.092	-9.0637	-8.5602	4.5319	-11.2457	-10.2386	-15.1062	-17.7917	61	289	188	14	1	2
-15.6097	-18.9667	-12.7563	-10.5743	-16.2811	-6.7139	-6.546	-13.2599	-7.8888	-8.5602	-13.5956	-9.5673	-9.0637	4.6997	-11.4136	-10.91	-15.4419	-18.2953	61	290	189	14	1	2
-15.7776	-19.1345	-12.9242	-10.5743	-16.7847	-7.0496	-7.0496	-13.7634	-8.3923	-9.2316	-14.0991	-10.2386	-9.5673	4.8676	-11.7493	-11.5814	-15.7776	-18.7988	61	291	190	14	1	2
-22.4915	-15.7776	-21.9879	-20.6451	-8.2245	-13.7634	-16.6168	-4.6997	-5.7068	-8.8959	-0.1678	-1.5106	-2.6855	-2.8534	-3.6926	-1.1749	-5.7068	2.182	61	231	130	16	1	2
-22.8271	-16.7847	-22.1558	-20.813	-8.8959	-13.5956	-16.6168	-5.2032	-5.8746	-8.8959	-0.6714	-1.5106	-2.6855	-3.0212	-3.8605	-0.1678	-5.7068	1.6785	61	232	131	16	1	2
-22.995	-17.7917	-22.3236	-21.3165	-9.3994	-13.5956	-16.6168	-5.5389	-5.7068	-8.8959	-1.1749	-1.6785	-2.6855	-3.1891	-4.0283	0.8392	-5.8746	1.5106	61	233	132	16	1	2
-22.995	-18.4631	-22.3236	-21.3165	-9.7351	-13.4277	-16.2811	-5.8746	-5.5389	-8.5602	-1.5106	-1.6785	-2.6855	-3.3569	-4.0283	1.8463	-5.7068	1.3428	61	234	133	16	1	2
-22.995	-19.3024	-22.4915	-21.3165	-10.2386	-13.4277	-16.2811	-6.3782	-5.5389	-8.5602	-2.0142	-1.8463	-2.8534	-3.3569	-4.1962	2.5177	-5.7068	0.8392	61	235	134	16	1	2
-22.4915	-19.8059	-22.3236	-21.3165	-10.4065	-13.2599	-16.1133	-6.7139	-5.3711	-8.2245	-2.5177	-2.0142	-2.8534	-3.5248	-4.364	3.1891	-5.5389	0.6714	61	236	135	16	1	2
-22.3236	-20.1416	-22.1558	-21.1487	-10.5743	-12.9242	-15.6097	-6.8817	-5.2032	-8.0566	-2.8534	-2.182	-2.8534	-3.5248	-4.5319	3.6926	-5.5389	0.3357	61	237	136	16	1	2
-21.8201	-20.1416	-21.9879	-20.9808	-10.7422	-12.5885	-15.4419	-7.2174	-5.0354	-8.0566	-3.3569	-2.182	-2.8534	-3.5248	-4.6997	4.1962	-5.3711	0	61	238	137	16	1	2
-21.3165	-20.1416	-21.8201	-20.813	-10.7422	-12.4207	-15.4419	-7.5531	-5.0354	-8.0566	-3.8605	-2.3499	-3.1891	-3.3569	-4.8676	4.364	-5.3711	-0.5035	61	239	138	16	1	2
-20.813	-19.9738	-21.4844	-20.9808	-10.7422	-12.2528	-15.1062	-8.0566	-5.0354	-7.8888	-4.1962	-2.5177	-3.3569	-3.3569	-5.0354	4.364	-5.5389	-1.1749	61	240	139	16	1	2
-20.3094	-19.8059	-20.9808	-20.6451	-10.7422	-11.7493	-14.9384	-8.2245	-4.8676	-7.8888	-4.5319	-2.6855	-3.5248	-3.1891	-5.3711	4.364	-5.3711	-1.5106	61	241	140	16	1	2
-19.9738	-19.3024	-20.6451	-20.4773	-10.5743	-11.4136	-14.6027	-8.2245	-4.8676	-7.8888	-4.8676	-2.8534	-3.6926	-3.1891	-5.5389	4.0283	-5.3711	-1.8463	61	242	141	16	1	2
-19.4702	-18.7988	-20.3094	-20.4773	-10.4065	-11.2457	-14.6027	-8.5602	-4.8676	-7.8888	-5.3711	-3.0212	-4.0283	-3.0212	-6.0425	3.3569	-5.5389	-2.3499	61	243	142	16	1	2
-18.9667	-18.4631	-20.1416	-20.3094	-10.4065	-11.0779	-14.4348	-8.728	-5.0354	-8.0566	-5.5389	-3.1891	-4.364	-2.6855	-6.3782	2.3499	-5.7068	-2.8534	61	244	143	16	1	2
-18.4631	-17.7917	-19.6381	-20.3094	-10.0708	-10.5743	-14.4348	-8.728	-5.0354	-8.0566	-5.5389	-3.3569	-4.6997	-2.5177	-6.546	1.1749	-5.7068	-3.0212	61	245	144	16	1	2
-18.1274	-17.1204	-19.3024	-20.1416	-9.7351	-10.2386	-14.4348	-8.3923	-4.8676	-8.2245	-5.5389	-3.3569	-5.0354	-2.182	-7.0496	-0.3357	-5.8746	-3.1891	61	246	145	16	1	2
-17.6239	-16.6168	-18.9667	-20.1416	-9.3994	-10.0708	-14.6027	-8.2245	-4.8676	-8.3923	-5.3711	-3.5248	-5.3711	-1.8463	-7.3853	-1.6785	-6.2103	-3.1891	61	247	146	16	1	2
-17.6239	-16.1133	-18.9667	-20.4773	-9.3994	-10.0708	-14.7705	-8.2245	-5.2032	-8.728	-5.5389	-3.8605	-6.0425	-1.5106	-7.8888	-3.1891	-6.546	-3.3569	61	248	147	16	1	2
-17.2882	-15.4419	-18.7988	-20.4773	-9.2316	-10.0708	-14.9384	-8.0566	-5.3711	-8.8959	-5.3711	-4.0283	-6.546	-1.3428	-8.3923	-4.364	-6.8817	-3.5248	61	249	148	16	1	2
-17.2882	-14.9384	-18.7988	-20.813	-9.0637	-10.2386	-15.274	-8.0566	-5.7068	-9.3994	-5.5389	-4.364	-7.2174	-1.0071	-8.8959	-5.5389	-7.3853	-3.5248	61	250	149	16	1	2
-16.9525	-14.4348	-18.7988	-21.1487	-8.8959	-10.2386	-15.6097	-8.0566	-6.0425	-9.7351	-5.5389	-4.5319	-7.7209	-0.8392	-9.2316	-6.3782	-7.7209	-3.6926	61	251	150	16	1	2
-16.9525	-13.9313	-18.9667	-21.4844	-8.8959	-10.5743	-16.1133	-8.2245	-6.3782	-10.2386	-5.8746	-4.8676	-8.3923	-0.6714	-9.7351	-7.2174	-8.2245	-4.0283	61	252	151	16	1	2
-16.9525	-13.5956	-19.1345	-21.9879	-8.728	-10.7422	-16.6168	-8.3923	-6.8817	-10.7422	-6.0425	-5.0354	-8.8959	-0.5035	-10.2386	-7.7209	-8.728	-4.1962	61	253	152	16	1	2
-17.2882	-13.2599	-19.6381	-22.4915	-8.8959	-11.2457	-17.1204	-8.728	-7.3853	-11.4136	-6.2103	-5.5389	-9.7351	-0.3357	-10.7422	-8.3923	-9.3994	-4.1962	61	254	153	16	1	2
-17.4561	-12.7563	-19.8059	-22.8271	-8.728	-11.9171	-17.6239	-8.728	-7.7209	-11.9171	-6.2103	-5.7068	-10.0708	-0.1678	-11.2457	-8.8959	-9.903	-3.8605	61	255	154	16	1	2
-17.6239	-12.2528	-20.1416	-23.3307	-8.5602	-12.2528	-18.1274	-8.728	-8.0566	-12.2528	-6.2103	-5.8746	-10.5743	-0.1678	-11.4136	-9.3994	-10.2386	-3.5248	61	256	155	16	1	2
-17.9596	-11.9171	-20.4773	-23.6664	-8.3923	-12.5885	-18.4631	-8.8959	-8.3923	-12.7563	-6.3782	-6.0425	-10.91	0	-11.7493	-9.7351	-10.5743	-3.3569	61	257	156	16	1	2
-18.2953	-11.9171	-21.1487	-24.5056	-8.5602	-13.092	-19.1345	-9.0637	-8.8959	-13.4277	-6.546	-6.3782	-11.4136	0	-12.085	-10.2386	-11.0779	-3.3569	61	258	157	16	1	2
-18.7988	-11.9171	-21.8201	-25.0092	-8.5602	-13.5956	-19.6381	-9.3994	-9.3994	-13.9313	-6.7139	-6.546	-11.7493	0.1678	-12.2528	-10.5743	-11.4136	-3.3569	61	259	158	16	1	2
-19.4702	-11.7493	-22.3236	-25.6805	-8.728	-14.0991	-20.1416	-9.7351	-9.903	-14.267	-6.8817	-6.8817	-12.085	0.1678	-12.5885	-10.5743	-11.7493	-3.5248	61	260	159	16	1	2
-20.1416	-11.9171	-22.995	-26.1841	-8.8959	-14.6027	-20.6451	-10.0708	-10.2386	-14.7705	-7.2174	-7.0496	-12.4207	0.1678	-12.5885	-10.2386	-12.085	-3.8605	61	261	160	16	1	2
-20.6451	-12.2528	-23.4985	-27.0233	-9.2316	-15.1062	-21.1487	-10.5743	-10.91	-15.1062	-7.3853	-7.3853	-12.9242	0.1678	-12.7563	-9.903	-12.4207	-4.0283	61	262	161	16	1	2
-21.3165	-12.2528	-24.1699	-27.359	-9.3994	-15.4419	-21.3165	-10.7422	-11.0779	-15.274	-7.5531	-7.3853	-12.9242	0.1678	-12.5885	-9.2316	-12.5885	-4.364	61	263	162	16	1	2
-21.9879	-12.4207	-24.6735	-27.8625	-9.5673	-15.9454	-21.6522	-11.0779	-11.4136	-15.6097	-7.7209	-7.5531	-13.092	0.3357	-12.7563	-8.728	-12.7563	-4.6997	61	264	163	16	1	2
-22.6593	-12.5885	-25.177	-28.1982	-9.7351	-16.2811	-22.1558	-11.5814	-11.7493	-15.7776	-8.2245	-7.7209	-13.2599	0.3357	-12.7563	-8.0566	-12.9242	-5.0354	61	265	164	16	1	2
-23.1628	-12.4207	-25.3448	-28.7018	-9.7351	-16.449	-22.1558	-11.5814	-11.7493	-15.7776	-8.2245	-7.7209	-13.092	0.3357	-12.5885	-7.2174	-12.9242	-5.3711	61	266	165	16	1	2
-23.8342	-12.4207	-25.8484	-29.0375	-9.7351	-16.6168	-22.3236	-11.9171	-12.085	-16.1133	-8.3923	-7.8888	-13.092	0.3357	-12.5885	-6.546	-12.9242	-5.7068	61	267	166	16	1	2
-24.3378	-12.2528	-26.1841	-29.2053	-9.7351	-16.7847	-22.4915	-12.2528	-12.2528	-16.2811	-8.5602	-8.0566	-13.2599	0.3357	-12.5885	-5.8746	-12.9242	-6.0425	61	268	167	16	1	2
-24.6735	-11.7493	-26.5198	-29.3732	-9.7351	-16.9525	-22.6593	-12.4207	-12.4207	-16.449	-8.728	-8.2245	-13.2599	0.5035	-12.5885	-5.3711	-12.9242	-6.546	61	269	168	16	1	2
-25.0092	-10.91	-26.6876	-29.541	-9.5673	-16.9525	-22.6593	-12.5885	-12.5885	-16.449	-9.0637	-8.3923	-13.2599	0.5035	-12.5885	-4.8676	-12.9242	-6.8817	61	270	169	16	1	2
-25.177	-10.0708	-26.5198	-29.2053	-9.3994	-16.9525	-22.4915	-12.7563	-12.5885	-16.449	-9.0637	-8.3923	-13.2599	0.5035	-12.4207	-4.364	-12.7563	-7.2174	61	271	170	16	1	2
-25.5127	-9.5673	-26.6876	-29.2053	-9.5673	-16.9525	-22.4915	-12.9242	-12.7563	-16.449	-9.3994	-8.5602	-13.2599	0.6714	-12.5885	-4.1962	-12.7563	-7.7209	61	272	171	16	1	2
-25.6805	-9.2316	-26.5198	-28.7018	-9.7351	-16.9525	-22.1558	-13.092	-12.7563	-16.2811	-9.5673	-8.728	-13.2599	0.6714	-12.4207	-3.8605	-12.5885	-8.0566	61	273	172	16	1	2
-26.0162	-9.3994	-26.6876	-28.5339	-10.2386	-17.1204	-22.1558	-13.4277	-12.9242	-16.449	-9.903	-9.0637	-13.4277	0.8392	-12.5885	-4.0283	-12.7563	-8.5602	61	274	173	16	1	2
-26.3519	-9.7351	-26.5198	-28.3661	-10.7422	-17.1204	-22.1558	-13.5956	-13.092	-16.449	-10.2386	-9.2316	-13.4277	0.8392	-12.5885	-4.0283	-12.5885	-8.8959	61	275	174	16	1	2
-26.5198	-10.5743	-26.6876	-28.1982	-11.2457	-17.1204	-21.9879	-13.9313	-13.2599	-16.2811	-10.4065	-9.3994	-13.5956	1.0071	-12.5885	-4.5319	-12.4207	-9.0637	61	276	175	16	1	2
-26.6876	-11.7493	-26.8555	-28.0304	-11.9171	-17.2882	-21.9879	-14.0991	-13.4277	-16.449	-10.5743	-9.7351	-13.5956	1.1749	-12.5885	-5.0354	-12.4207	-9.2316	61	277	176	16	1	2
-27.0233	-13.092	-27.0233	-28.0304	-12.7563	-17.2882	-21.8201	-14.0991	-13.5956	-16.449	-10.7422	-9.903	-13.7634	1.3428	-12.4207	-6.0425	-12.2528	-9.2316	61	278	177	16	1	2
-27.1912	-14.267	-27.0233	-28.1982	-13.5956	-17.2882	-21.8201	-14.267	-13.5956	-16.6168	-10.7422	-10.2386	-13.7634	1.6785	-12.2528	-7.0496	-11.9171	-9.0637	61	279	178	16	1	2
-27.0233	-15.7776	-26.8555	-28.0304	-14.0991	-17.2882	-21.6522	-14.0991	-13.5956	-16.6168	-10.7422	-10.2386	-13.5956	1.8463	-12.085	-8.2245	-11.5814	-8.8959	61	280	179	16	1	2
-27.359	-17.2882	-26.8555	-28.0304	-14.9384	-17.4561	-21.4844	-14.267	-13.7634	-16.449	-10.91	-10.5743	-13.7634	2.182	-12.085	-9.2316	-11.5814	-8.728	61	281	180	16	1	2
-27.1912	-18.7988	-26.8555	-28.1982	-15.7776	-17.2882	-21.4844	-14.4348	-13.7634	-16.449	-11.0779	-10.5743	-13.5956	2.3499	-11.9171	-10.0708	-11.2457	-8.5602	61	282	181	16	1	2
-27.1912	-20.3094	-26.8555	-28.3661	-16.6168	-17.4561	-21.6522	-14.7705	-14.0991	-16.7847	-11.4136	-11.0779	-13.7634	2.6855	-11.7493	-11.0779	-11.0779	-8.8959	61	283	182	16	1	2
-27.1912	-21.8201	-26.8555	-28.5339	-17.2882	-17.4561	-21.4844	-14.9384	-14.0991	-16.7847	-11.5814	-11.2457	-13.5956	2.8534	-11.5814	-11.9171	-10.7422	-9.2316	61	284	183	16	1	2
-27.1912	-23.1628	-27.0233	-28.7018	-18.2953	-17.6239	-21.6522	-15.4419	-14.4348	-16.9525	-12.2528	-11.5814	-13.7634	3.1891	-11.5814	-12.7563	-10.5743	-9.7351	61	285	184	16	1	2
-27.0233	-24.1699	-26.8555	-28.7018	-18.7988	-17.4561	-21.6522	-15.7776	-14.4348	-16.7847	-12.4207	-11.7493	-13.5956	3.3569	-11.2457	-13.2599	-10.2386	-10.0708	61	286	185	16	1	2
-26.6876	-25.177	-26.8555	-28.8696	-19.3024	-17.4561	-21.8201	-16.2811	-14.6027	-16.7847	-12.9242	-11.9171	-13.4277	3.6926	-11.0779	-13.9313	-10.0708	-10.5743	61	287	186	16	1	2
-26.5198	-26.1841	-26.6876	-28.7018	-19.6381	-17.4561	-21.6522	-16.6168	-14.6027	-16.7847	-13.2599	-12.085	-13.2599	3.8605	-10.91	-14.6027	-9.7351	-10.91	61	288	187	16	1	2
-25.8484	-26.5198	-26.1841	-28.5339	-19.8059	-17.2882	-21.3165	-16.6168	-14.4348	-16.449	-13.2599	-11.9171	-12.7563	4.0283	-10.4065	-14.9384	-9.2316	-11.0779	61	289	188	16	1	2
-25.5127	-27.0233	-26.0162	-28.1982	-20.1416	-17.1204	-21.3165	-16.7847	-14.4348	-16.2811	-13.092	-11.5814	-12.4207	4.1962	-9.903	-15.6097	-8.728	-10.91	61	290	189	16	1	2
-25.177	-27.359	-26.0162	-28.1982	-20.3094	-17.1204	-21.1487	-16.7847	-14.0991	-16.1133	-13.2599	-11.4136	-11.9171	4.364	-9.3994	-16.449	-8.2245	-11.0779	61	291	190	16	1	2
-6.2103	-7.3853	-6.546	-1.5106	-4.364	-2.6855	-2.0142	-0.3357	-0.1678	5.5389	7.7209	5.2032	9.2316	-2.8534	7.3853	1.0071	-0.5035	6.3782	61	231	130	17	1	2
-6.546	-7.3853	-6.8817	-1.5106	-4.5319	-3.0212	-2.0142	-0.6714	-0.1678	5.3711	7.0496	4.8676	9.3994	-2.5177	7.5531	0.1678	-0.5035	5.8746	61	232	131	17	1	2
-6.7139	-7.5531	-7.2174	-1.6785	-4.8676	-3.3569	-2.182	-1.1749	-0.6714	5.3711	6.3782	4.5319	9.2316	-2.3499	7.7209	-0.5035	-0.5035	5.5389	61	233	132	17	1	2
-6.7139	-7.5531	-7.5531	-1.6785	-5.0354	-3.5248	-2.3499	-1.6785	-1.0071	5.3711	5.8746	4.1962	8.8959	-2.182	7.8888	-1.3428	-0.5035	5.0354	61	234	133	17	1	2
-6.8817	-7.7209	-7.7209	-1.6785	-5.3711	-3.8605	-2.3499	-2.0142	-1.1749	5.2032	5.2032	3.8605	8.8959	-2.0142	7.8888	-2.182	-0.1678	4.6997	61	235	134	17	1	2
-6.546	-7.5531	-7.7209	-1.3428	-5.5389	-3.8605	-2.3499	-2.3499	-1.5106	5.3711	4.5319	3.3569	8.728	-2.0142	7.8888	-2.6855	-0.1678	4.1962	61	236	135	17	1	2
-6.546	-7.5531	-8.0566	-1.1749	-5.5389	-4.1962	-2.3499	-2.6855	-1.8463	5.0354	3.8605	2.8534	8.3923	-2.0142	7.8888	-3.3569	-0.1678	3.6926	61	237	136	17	1	2
-6.546	-7.2174	-8.0566	-1.1749	-5.7068	-4.5319	-2.5177	-3.1891	-2.182	4.8676	3.1891	2.3499	7.8888	-2.0142	7.5531	-3.8605	-0.1678	3.0212	61	238	137	17	1	2
-6.3782	-6.8817	-8.0566	-0.8392	-5.3711	-4.5319	-2.5177	-3.3569	-2.5177	4.6997	2.6855	2.0142	7.5531	-2.182	7.5531	-4.1962	-0.1678	2.8534	61	239	138	17	1	2
-6.3782	-6.3782	-8.0566	-0.6714	-5.2032	-4.6997	-2.5177	-3.6926	-2.8534	4.5319	2.182	1.5106	7.0496	-2.182	7.2174	-4.6997	-0.1678	2.3499	61	240	139	17	1	2
-6.3782	-5.8746	-8.0566	-0.5035	-4.8676	-4.6997	-2.5177	-3.8605	-3.0212	4.364	1.3428	0.8392	6.546	-2.3499	7.0496	-5.2032	-0.1678	2.0142	61	241	140	17	1	2
-6.2103	-5.3711	-7.8888	-0.1678	-4.5319	-4.8676	-2.5177	-3.8605	-3.1891	4.1962	1.0071	0.3357	6.2103	-2.5177	6.7139	-5.7068	-0.1678	1.5106	61	242	141	17	1	2
-6.2103	-5.0354	-7.7209	0.3357	-4.1962	-4.6997	-2.3499	-3.8605	-3.3569	4.1962	0.6714	-0.1678	5.7068	-2.8534	6.546	-6.546	-0.1678	1.3428	61	243	142	17	1	2
-6.2103	-4.6997	-7.7209	0.6714	-3.8605	-4.8676	-2.5177	-3.6926	-3.5248	4.0283	0.5035	-0.5035	5.2032	-3.0212	6.2103	-7.5531	-0.3357	1.3428	61	244	143	17	1	2
-6.0425	-4.364	-7.5531	1.0071	-3.6926	-4.8676	-2.5177	-3.5248	-3.6926	3.8605	0.5035	-1.0071	4.6997	-3.3569	5.7068	-8.728	-0.3357	1.6785	61	245	144	17	1	2
-5.8746	-4.1962	-7.2174	1.6785	-3.3569	-4.6997	-2.182	-2.8534	-3.5248	3.8605	0.8392	-1.0071	4.364	-3.6926	5.5389	-9.7351	-0.3357	2.3499	61	246	145	17	1	2
-5.8746	-4.0283	-7.0496	2.0142	-3.0212	-4.5319	-2.0142	-2.182	-3.5248	3.6926	1.1749	-1.3428	4.0283	-4.0283	5.2032	-10.7422	-0.3357	3.0212	61	247	146	17	1	2
-5.7068	-3.8605	-6.7139	2.5177	-2.6855	-4.364	-1.6785	-1.8463	-3.5248	3.6926	1.5106	-1.5106	3.5248	-4.364	4.6997	-11.5814	-0.5035	3.8605	61	248	147	17	1	2
-5.5389	-3.8605	-6.3782	2.8534	-2.5177	-4.1962	-1.6785	-1.1749	-3.5248	3.6926	1.8463	-1.5106	3.0212	-4.5319	4.1962	-12.085	-0.6714	4.6997	61	249	148	17	1	2
-5.0354	-3.6926	-6.0425	3.1891	-2.3499	-3.8605	-1.5106	-0.6714	-3.5248	3.6926	2.0142	-1.8463	2.6855	-4.8676	3.6926	-12.2528	-0.6714	5.2032	61	250	149	17	1	2
-4.6997	-3.3569	-5.3711	3.6926	-1.8463	-3.6926	-1.0071	0	-3.1891	3.8605	2.3499	-1.6785	2.6855	-5.2032	3.3569	-11.7493	-0.6714	5.8746	61	251	150	17	1	2
-4.1962	-3.3569	-5.0354	3.8605	-1.6785	-3.3569	-1.0071	0.3357	-3.0212	3.6926	2.5177	-1.6785	2.3499	-5.3711	3.0212	-11.4136	-0.6714	5.8746	61	252	151	17	1	2
-3.5248	-3.0212	-4.364	4.364	-1.3428	-2.8534	-0.5035	0.8392	-2.6855	3.8605	2.6855	-1.5106	2.3499	-5.7068	2.6855	-10.4065	-0.6714	6.0425	61	253	152	17	1	2
-3.0212	-2.6855	-3.6926	4.8676	-1.0071	-2.3499	-0.1678	1.1749	-2.3499	4.0283	2.8534	-1.3428	2.182	-5.8746	2.3499	-9.2316	-0.5035	6.0425	61	254	153	17	1	2
-2.3499	-2.182	-3.0212	5.3711	-0.6714	-1.8463	0.1678	1.3428	-2.0142	4.1962	2.8534	-1.1749	2.182	-6.0425	2.182	-7.8888	-0.5035	5.8746	61	255	154	17	1	2
-1.6785	-1.8463	-2.5177	5.7068	-0.5035	-1.5106	0.5035	1.5106	-1.8463	4.364	2.8534	-1.1749	2.0142	-6.0425	1.8463	-6.546	-0.3357	5.5389	61	256	155	17	1	2
-1.1749	-1.6785	-1.8463	6.0425	-0.3357	-1.1749	0.6714	1.5106	-1.6785	4.364	2.6855	-1.1749	2.0142	-6.2103	1.5106	-5.2032	-0.3357	5.0354	61	257	156	17	1	2
-0.5035	-1.1749	-1.3428	6.3782	-0.1678	-0.8392	1.0071	1.3428	-1.3428	4.6997	2.5177	-1.0071	2.0142	-6.2103	1.3428	-3.6926	-0.1678	4.5319	61	258	157	17	1	2
0.1678	-0.6714	-0.6714	6.8817	-0.1678	-0.3357	1.5106	1.1749	-1.1749	4.8676	2.3499	-0.8392	2.0142	-6.2103	1.3428	-2.182	0	4.0283	61	259	158	17	1	2
0.5035	-0.6714	-0.3357	7.0496	-0.1678	-0.1678	1.6785	0.8392	-1.3428	5.0354	1.8463	-0.8392	1.8463	-6.0425	1.1749	-0.8392	0.1678	3.1891	61	260	159	17	1	2
0.8392	-0.3357	0	7.5531	0	0	2.0142	0.6714	-1.1749	5.2032	1.5106	-1.0071	1.8463	-5.8746	1.0071	0.3357	0.3357	2.3499	61	261	160	17	1	2
1.3428	0.1678	0.3357	7.7209	0	0.1678	2.182	0.3357	-1.1749	5.2032	1.1749	-1.0071	1.8463	-5.7068	1.0071	1.3428	0.3357	1.6785	61	262	161	17	1	2
1.8463	0.6714	0.6714	8.2245	0	0.1678	2.3499	0	-1.1749	5.3711	0.6714	-1.1749	1.8463	-5.5389	0.8392	2.182	0.6714	1.0071	61	263	162	17	1	2
2.0142	1.1749	0.8392	8.3923	0	0	2.5177	-0.5035	-1.5106	5.3711	0.1678	-1.5106	1.6785	-5.2032	0.6714	2.5177	0.8392	0.1678	61	264	163	17	1	2
2.5177	2.182	1.1749	8.728	0.1678	0.3357	2.6855	-0.8392	-1.6785	5.5389	-0.3357	-1.6785	1.6785	-4.8676	0.8392	2.3499	1.1749	-0.5035	61	265	164	17	1	2
2.6855	3.3569	1.3428	8.8959	0.3357	0.1678	2.6855	-1.1749	-1.8463	5.5389	-0.6714	-2.0142	1.5106	-4.5319	0.8392	2.0142	1.5106	-0.8392	61	266	165	17	1	2
3.1891	4.8676	1.6785	9.2316	0.5035	0.1678	2.6855	-1.3428	-1.8463	5.3711	-1.0071	-2.182	1.3428	-4.364	0.8392	1.1749	1.8463	-1.1749	61	267	166	17	1	2
3.3569	6.0425	1.6785	9.5673	0.8392	0	2.6855	-1.5106	-2.182	5.3711	-1.5106	-2.6855	1.3428	-3.8605	0.8392	0.3357	1.8463	-1.5106	61	268	167	17	1	2
3.6926	7.0496	1.6785	9.7351	0.8392	-0.3357	2.6855	-2.0142	-2.6855	5.2032	-1.8463	-3.0212	1.1749	-3.6926	0.6714	-0.5035	2.0142	-1.8463	61	269	168	17	1	2
3.5248	7.3853	1.3428	9.5673	0.5035	-0.8392	2.6855	-2.5177	-3.3569	4.8676	-2.5177	-3.6926	0.8392	-3.5248	0.5035	-1.3428	1.8463	-2.182	61	270	169	17	1	2
3.3569	7.5531	1.1749	9.5673	0.1678	-1.5106	2.3499	-3.1891	-4.0283	4.6997	-3.1891	-4.5319	0.3357	-3.3569	0.3357	-2.182	1.6785	-2.182	61	271	170	17	1	2
3.1891	7.2174	0.6714	9.3994	-0.3357	-2.0142	1.8463	-3.8605	-4.8676	4.1962	-3.8605	-5.2032	0	-3.1891	0	-3.1891	1.5106	-2.3499	61	272	171	17	1	2
2.6855	6.546	-0.1678	9.0637	-1.0071	-3.0212	1.3428	-4.6997	-5.8746	3.5248	-4.6997	-6.0425	-0.6714	-3.0212	-0.3357	-4.1962	1.0071	-2.5177	61	273	172	17	1	2
2.0142	5.7068	-1.0071	8.5602	-1.8463	-4.0283	0.6714	-5.7068	-6.8817	2.8534	-5.5389	-6.8817	-1.1749	-3.0212	-0.6714	-4.8676	0.6714	-3.0212	61	274	173	17	1	2
1.3428	4.6997	-1.8463	8.0566	-2.3499	-5.0354	0	-6.546	-7.7209	2.182	-6.546	-7.7209	-1.8463	-3.0212	-1.0071	-5.3711	0.1678	-3.5248	61	275	174	17	1	2
0.6714	3.6926	-2.6855	7.5531	-3.1891	-6.0425	-0.6714	-7.3853	-8.728	1.5106	-7.3853	-8.728	-2.3499	-3.0212	-1.3428	-5.5389	-0.3357	-4.0283	61	276	175	17	1	2
-0.1678	2.3499	-3.6926	6.8817	-4.0283	-7.2174	-1.6785	-8.3923	-9.903	0.6714	-8.3923	-9.7351	-3.1891	-3.1891	-1.6785	-5.7068	-0.8392	-4.6997	61	277	176	17	1	2
-0.8392	1.1749	-4.5319	6.3782	-4.6997	-8.0566	-2.3499	-9.2316	-10.7422	0	-9.0637	-10.4065	-3.5248	-3.3569	-1.8463	-5.5389	-1.1749	-5.3711	61	278	177	17	1	2
-1.6785	-0.3357	-5.7068	5.5389	-6.0425	-9.3994	-3.3569	-10.4065	-11.9171	-1.0071	-10.0708	-11.5814	-4.364	-3.5248	-2.3499	-5.5389	-1.8463	-6.2103	61	279	178	17	1	2
-2.5177	-1.6785	-6.7139	4.8676	-6.8817	-10.4065	-4.1962	-11.2457	-12.9242	-1.8463	-10.91	-12.5885	-5.0354	-3.6926	-2.5177	-5.0354	-2.3499	-6.7139	61	280	179	17	1	2
-3.5248	-3.0212	-7.5531	4.0283	-7.7209	-11.7493	-5.0354	-12.085	-13.9313	-2.5177	-11.5814	-13.2599	-5.5389	-4.0283	-2.8534	-4.5319	-2.8534	-7.5531	61	281	180	17	1	2
-4.1962	-4.364	-8.728	3.3569	-8.3923	-12.5885	-6.0425	-12.9242	-14.7705	-3.5248	-12.2528	-13.9313	-6.0425	-4.1962	-3.0212	-4.1962	-3.1891	-7.8888	61	282	181	17	1	2
-5.2032	-5.7068	-9.7351	2.5177	-9.3994	-13.7634	-6.8817	-13.7634	-15.7776	-4.364	-12.9242	-14.7705	-6.546	-4.5319	-3.1891	-3.6926	-3.8605	-8.5602	61	283	182	17	1	2
-6.2103	-7.2174	-10.91	1.6785	-10.4065	-14.7705	-7.7209	-14.7705	-16.7847	-5.2032	-13.5956	-15.4419	-7.3853	-4.6997	-3.5248	-3.1891	-4.5319	-8.8959	61	284	183	17	1	2
-6.8817	-8.2245	-11.7493	1.3428	-11.0779	-15.7776	-8.5602	-15.274	-17.4561	-5.7068	-14.0991	-15.7776	-7.7209	-4.8676	-3.6926	-2.5177	-4.8676	-9.0637	61	285	184	17	1	2
-7.5531	-9.2316	-12.5885	0.6714	-11.7493	-16.6168	-9.0637	-15.7776	-18.1274	-6.3782	-14.267	-16.2811	-7.8888	-5.2032	-3.6926	-2.0142	-5.0354	-9.2316	61	286	185	17	1	2
-8.3923	-10.0708	-13.2599	0	-12.4207	-17.2882	-9.5673	-16.2811	-18.631	-6.8817	-14.6027	-16.6168	-8.0566	-5.3711	-3.6926	-1.5106	-5.3711	-9.2316	61	287	186	17	1	2
-8.8959	-10.91	-13.9313	-0.5035	-12.7563	-17.7917	-10.2386	-16.7847	-18.9667	-7.2174	-14.6027	-16.7847	-8.3923	-5.3711	-3.5248	-1.0071	-5.5389	-9.3994	61	288	187	17	1	2
-9.5673	-11.2457	-14.6027	-1.0071	-12.9242	-18.4631	-10.5743	-16.7847	-19.3024	-7.3853	-14.4348	-16.6168	-8.3923	-5.5389	-3.3569	-0.6714	-5.5389	-9.0637	61	289	188	17	1	2
-10.0708	-11.4136	-15.1062	-1.8463	-13.092	-18.7988	-10.91	-16.9525	-19.6381	-7.7209	-14.267	-16.6168	-8.3923	-5.5389	-3.1891	-0.6714	-5.7068	-8.8959	61	290	189	17	1	2
-10.4065	-11.4136	-15.274	-2.3499	-12.7563	-18.7988	-11.0779	-16.7847	-19.4702	-7.7209	-13.7634	-16.1133	-8.0566	-5.5389	-2.6855	-0.5035	-5.5389	-8.5602	61	291	190	17	1	2
-7.0496	-5.0354	-6.3782	-7.3853	-4.5319	-6.3782	-12.085	-4.5319	-5.3711	-12.4207	-0.1678	-2.5177	-9.0637	4.1962	-2.5177	2.182	-5.0354	2.6855	61	231	130	19	1	2
-7.0496	-4.5319	-6.2103	-7.7209	-4.364	-6.2103	-12.085	-4.5319	-5.2032	-12.7563	-0.1678	-2.3499	-9.0637	4.5319	-2.8534	2.0142	-5.3711	2.0142	61	232	131	19	1	2
-6.8817	-3.8605	-6.2103	-7.7209	-3.8605	-6.0425	-12.085	-4.364	-4.8676	-12.7563	0	-2.0142	-9.0637	4.5319	-3.0212	2.182	-5.5389	1.6785	61	233	132	19	1	2
-6.8817	-3.5248	-6.0425	-7.8888	-3.3569	-5.8746	-12.2528	-4.1962	-4.8676	-12.7563	0	-1.6785	-9.0637	4.6997	-3.3569	2.0142	-5.8746	1.1749	61	234	133	19	1	2
-6.3782	-2.8534	-5.7068	-7.7209	-3.0212	-5.7068	-12.085	-4.1962	-4.5319	-12.5885	0.1678	-1.1749	-8.8959	4.6997	-3.5248	1.8463	-5.8746	1.0071	61	235	134	19	1	2
-6.546	-2.8534	-5.7068	-7.7209	-2.6855	-5.7068	-12.2528	-4.1962	-4.364	-12.9242	0.1678	-0.8392	-8.8959	4.6997	-4.0283	1.5106	-6.2103	0.6714	61	236	135	19	1	2
-6.2103	-2.5177	-5.3711	-7.8888	-2.3499	-5.5389	-12.085	-4.1962	-4.0283	-12.7563	0.3357	-0.5035	-8.728	4.6997	-4.364	1.1749	-6.2103	0.5035	61	237	136	19	1	2
-5.8746	-2.182	-5.2032	-7.7209	-2.0142	-5.3711	-11.9171	-4.0283	-3.6926	-12.5885	0.5035	0	-8.3923	4.5319	-4.364	1.0071	-6.2103	0.3357	61	238	137	19	1	2
-5.8746	-2.3499	-5.2032	-7.5531	-2.182	-5.5389	-12.085	-4.1962	-3.5248	-12.7563	0.3357	0.1678	-8.2245	4.364	-4.8676	0.6714	-6.546	-0.1678	61	239	138	19	1	2
-5.5389	-2.182	-4.8676	-7.3853	-2.182	-5.3711	-12.085	-4.1962	-3.1891	-12.4207	0.5035	0.5035	-7.8888	4.1962	-4.8676	0.3357	-6.7139	-0.5035	61	240	139	19	1	2
-5.3711	-2.5177	-5.0354	-7.2174	-2.0142	-5.3711	-12.2528	-4.1962	-3.0212	-12.4207	0.6714	0.8392	-7.5531	3.8605	-5.0354	0	-6.8817	-0.8392	61	241	140	19	1	2
-5.3711	-2.6855	-4.8676	-7.2174	-2.182	-5.3711	-12.2528	-4.1962	-2.5177	-12.4207	0.6714	1.1749	-7.2174	3.3569	-5.3711	-0.1678	-7.0496	-1.3428	61	242	141	19	1	2
-5.3711	-3.1891	-5.0354	-7.2174	-2.5177	-5.5389	-12.4207	-4.5319	-2.5177	-12.2528	0.5035	1.3428	-7.0496	3.0212	-5.7068	-0.3357	-7.0496	-2.0142	61	243	142	19	1	2
-5.2032	-3.3569	-4.8676	-6.8817	-2.6855	-5.5389	-12.2528	-4.5319	-2.182	-12.085	0.5035	1.6785	-6.7139	2.5177	-5.7068	-0.6714	-7.2174	-2.5177	61	244	143	19	1	2
-4.8676	-3.8605	-4.8676	-6.546	-3.0212	-5.7068	-12.4207	-4.5319	-2.0142	-12.085	0.5035	1.8463	-6.3782	2.0142	-5.8746	-0.8392	-7.3853	-2.8534	61	245	144	19	1	2
-5.0354	-4.364	-5.2032	-6.3782	-3.3569	-5.8746	-12.5885	-4.8676	-2.0142	-12.085	0.3357	1.8463	-6.2103	1.5106	-6.3782	-1.3428	-7.7209	-3.5248	61	246	145	19	1	2
-5.0354	-4.8676	-5.3711	-6.2103	-3.6926	-6.0425	-12.7563	-4.8676	-1.8463	-11.9171	0.1678	2.182	-6.0425	1.0071	-6.546	-1.5106	-7.8888	-4.0283	61	247	146	19	1	2
-5.0354	-5.2032	-5.5389	-6.0425	-3.6926	-6.2103	-12.7563	-4.8676	-1.8463	-11.9171	0.1678	2.3499	-5.7068	0.5035	-6.546	-1.6785	-8.0566	-4.364	61	248	147	19	1	2
-5.0354	-5.7068	-5.7068	-6.0425	-4.0283	-6.3782	-12.9242	-5.0354	-1.6785	-11.5814	0.1678	2.5177	-5.3711	0	-6.7139	-1.8463	-8.2245	-4.6997	61	249	148	19	1	2
-5.2032	-6.2103	-5.7068	-5.8746	-4.1962	-6.2103	-12.9242	-4.8676	-1.3428	-11.4136	0.1678	2.6855	-5.0354	-0.5035	-6.7139	-1.6785	-8.2245	-4.6997	61	250	149	19	1	2
-5.3711	-6.7139	-6.0425	-5.8746	-4.5319	-6.3782	-12.9242	-4.8676	-1.1749	-11.2457	0.3357	2.8534	-4.8676	-0.8392	-6.7139	-1.6785	-8.2245	-4.8676	61	251	150	19	1	2
-5.5389	-7.2174	-6.3782	-6.2103	-4.6997	-6.546	-13.092	-5.0354	-1.1749	-11.0779	0.1678	3.0212	-4.5319	-1.0071	-6.7139	-1.6785	-8.3923	-4.8676	61	252	151	19	1	2
-5.7068	-7.7209	-6.546	-6.3782	-5.0354	-6.546	-13.092	-5.0354	-1.0071	-10.7422	0.3357	3.3569	-4.1962	-1.1749	-6.3782	-1.5106	-8.2245	-4.8676	61	253	152	19	1	2
-5.8746	-8.0566	-6.7139	-6.546	-5.2032	-6.546	-12.9242	-4.8676	-0.8392	-10.4065	0.5035	3.5248	-3.6926	-1.3428	-6.2103	-1.3428	-8.0566	-4.5319	61	254	153	19	1	2
-6.3782	-8.728	-7.2174	-6.8817	-5.5389	-6.7139	-13.092	-5.0354	-0.8392	-10.2386	0.3357	3.6926	-3.5248	-1.3428	-6.0425	-1.5106	-8.0566	-4.5319	61	255	154	19	1	2
-6.546	-9.0637	-7.3853	-7.2174	-5.7068	-6.8817	-12.7563	-4.8676	-0.6714	-9.903	0.6714	3.8605	-3.1891	-1.3428	-5.7068	-1.3428	-7.7209	-4.1962	61	256	155	19	1	2
-7.0496	-9.3994	-7.7209	-7.5531	-5.8746	-6.8817	-12.5885	-4.6997	-0.5035	-9.7351	0.6714	4.1962	-2.8534	-1.1749	-5.3711	-1.1749	-7.3853	-3.6926	61	257	156	19	1	2
-7.3853	-9.903	-7.8888	-7.7209	-6.2103	-6.8817	-12.5885	-4.5319	-0.5035	-9.3994	0.6714	4.1962	-2.6855	-1.0071	-5.0354	-1.0071	-7.2174	-3.3569	61	258	157	19	1	2
-7.7209	-10.0708	-8.2245	-8.0566	-6.2103	-6.8817	-12.4207	-4.5319	-0.3357	-9.0637	0.8392	4.364	-2.6855	-0.8392	-5.0354	-1.1749	-7.0496	-3.0212	61	259	158	19	1	2
-7.8888	-9.7351	-8.5602	-8.2245	-6.2103	-6.8817	-12.2528	-4.364	-0.3357	-8.8959	0.8392	4.1962	-2.6855	-0.5035	-4.8676	-1.0071	-6.8817	-2.5177	61	260	159	19	1	2
-8.0566	-9.0637	-8.3923	-8.3923	-5.8746	-6.7139	-11.9171	-4.0283	-0.1678	-8.5602	1.0071	4.1962	-2.5177	-0.3357	-4.6997	-0.8392	-6.7139	-2.0142	61	261	160	19	1	2
-8.0566	-8.0566	-8.3923	-8.3923	-5.5389	-6.546	-11.7493	-3.8605	-0.1678	-8.5602	1.0071	4.1962	-2.5177	0	-4.5319	-0.8392	-6.546	-1.6785	61	262	161	19	1	2
-8.0566	-6.7139	-8.0566	-8.2245	-5.0354	-6.2103	-11.4136	-3.6926	0.1678	-8.3923	1.1749	4.1962	-2.5177	0.1678	-4.364	-0.8392	-6.3782	-1.3428	61	263	162	19	1	2
-7.8888	-5.8746	-8.0566	-8.3923	-4.6997	-6.0425	-11.0779	-3.5248	0	-8.2245	1.0071	3.8605	-2.6855	0.5035	-4.364	-1.1749	-6.2103	-1.0071	61	264	163	19	1	2
-7.5531	-4.8676	-7.7209	-8.0566	-4.0283	-5.7068	-10.5743	-3.3569	0.1678	-8.0566	1.0071	3.8605	-2.6855	0.6714	-4.1962	-1.3428	-6.0425	-0.6714	61	265	164	19	1	2
-7.3853	-4.1962	-7.5531	-7.8888	-3.6926	-5.5389	-10.2386	-3.3569	0	-7.8888	0.6714	3.5248	-2.8534	1.0071	-4.1962	-1.6785	-5.8746	-0.5035	61	266	165	19	1	2
-7.2174	-3.6926	-7.2174	-7.3853	-3.3569	-5.0354	-9.7351	-3.3569	0.1678	-7.7209	0.6714	3.3569	-3.0212	1.1749	-4.0283	-2.0142	-5.7068	-0.1678	61	267	166	19	1	2
-6.8817	-3.3569	-7.0496	-7.0496	-3.1891	-4.8676	-9.3994	-3.5248	0.1678	-7.7209	0.3357	3.0212	-3.1891	1.5106	-4.0283	-2.5177	-5.5389	0	61	268	167	19	1	2
-6.3782	-3.1891	-6.546	-6.546	-2.8534	-4.364	-8.8959	-3.1891	0.3357	-7.5531	0.3357	2.8534	-3.0212	1.6785	-3.8605	-2.8534	-5.3711	0.1678	61	269	168	19	1	2
-6.2103	-3.3569	-6.2103	-6.0425	-2.6855	-4.1962	-8.3923	-3.3569	0.1678	-7.5531	0.1678	2.5177	-3.1891	1.8463	-3.8605	-3.1891	-5.3711	0.1678	61	270	169	19	1	2
-5.8746	-3.5248	-6.0425	-5.5389	-2.5177	-3.8605	-8.0566	-3.5248	0.1678	-7.3853	-0.1678	2.182	-3.3569	2.182	-3.6926	-3.5248	-5.2032	0.1678	61	271	170	19	1	2
-5.7068	-3.5248	-5.5389	-4.8676	-2.5177	-3.5248	-7.7209	-3.5248	0.3357	-7.3853	-0.5035	1.8463	-3.5248	2.3499	-3.6926	-3.8605	-5.0354	0.1678	61	272	171	19	1	2
-5.3711	-3.6926	-5.0354	-4.364	-2.3499	-3.1891	-7.3853	-3.6926	0.3357	-7.2174	-0.6714	1.5106	-3.5248	2.3499	-3.5248	-3.8605	-4.8676	0.5035	61	273	172	19	1	2
-5.0354	-3.8605	-4.5319	-3.6926	-2.0142	-2.8534	-6.7139	-3.6926	0.3357	-6.7139	-0.8392	1.1749	-3.5248	2.5177	-3.3569	-3.8605	-4.6997	0.6714	61	274	173	19	1	2
-4.8676	-4.0283	-4.1962	-3.3569	-1.8463	-2.3499	-6.3782	-3.8605	0.3357	-6.546	-1.1749	0.8392	-3.6926	2.5177	-3.3569	-3.8605	-4.5319	0.6714	61	275	174	19	1	2
-4.364	-4.0283	-3.6926	-2.6855	-1.6785	-1.8463	-5.8746	-3.8605	0.3357	-6.3782	-1.3428	0.5035	-3.6926	2.6855	-3.3569	-3.5248	-4.364	0.8392	61	276	175	19	1	2
-4.0283	-4.0283	-3.1891	-2.0142	-1.3428	-1.5106	-5.5389	-3.8605	0.3357	-6.2103	-1.3428	0.3357	-3.6926	2.6855	-3.3569	-2.8534	-4.1962	1.1749	61	277	176	19	1	2
-3.5248	-3.8605	-2.5177	-1.5106	-1.0071	-1.0071	-5.0354	-3.6926	0.5035	-5.8746	-1.3428	0.1678	-3.5248	2.5177	-3.1891	-2.182	-3.8605	1.5106	61	278	177	19	1	2
-3.3569	-4.0283	-2.0142	-1.3428	-0.8392	-0.6714	-4.6997	-3.6926	0.5035	-5.5389	-1.5106	-0.1678	-3.5248	2.5177	-3.1891	-1.1749	-3.8605	1.8463	61	279	178	19	1	2
-2.8534	-3.6926	-1.3428	-0.6714	-0.5035	-0.3357	-4.1962	-3.3569	0.6714	-5.2032	-1.5106	-0.1678	-3.3569	2.3499	-3.0212	0	-3.5248	2.5177	61	280	179	19	1	2
-2.5177	-3.5248	-0.8392	-0.3357	-0.3357	0.1678	-4.0283	-3.3569	0.6714	-5.0354	-1.5106	-0.5035	-3.3569	2.182	-3.1891	1.1749	-3.3569	2.8534	61	281	180	19	1	2
-2.182	-3.3569	-0.3357	0	-0.1678	0.3357	-3.6926	-3.1891	0.6714	-4.8676	-1.5106	-0.8392	-3.5248	2.0142	-3.1891	2.3499	-3.3569	3.1891	61	282	181	19	1	2
-1.8463	-3.3569	0	0.1678	0	0.6714	-3.5248	-3.1891	0.5035	-4.6997	-1.6785	-1.0071	-3.5248	2.0142	-3.3569	3.6926	-3.3569	3.5248	61	283	182	19	1	2
-1.6785	-3.1891	0.3357	0.3357	0.1678	0.8392	-3.3569	-3.3569	0.3357	-4.6997	-2.0142	-1.5106	-3.8605	1.8463	-3.5248	4.6997	-3.3569	3.8605	61	284	183	19	1	2
-1.6785	-3.3569	0.3357	0.3357	-0.1678	0.6714	-3.5248	-3.5248	0	-4.6997	-2.182	-1.8463	-4.0283	1.6785	-3.8605	5.7068	-3.3569	3.8605	61	285	184	19	1	2
-1.5106	-3.3569	0.5035	0.1678	-0.1678	0.6714	-3.5248	-3.6926	-0.3357	-4.8676	-2.5177	-2.5177	-4.364	1.5106	-4.1962	6.3782	-3.6926	3.8605	61	286	185	19	1	2
-1.8463	-3.5248	0.1678	0	-0.5035	0.5035	-3.5248	-4.0283	-0.8392	-5.0354	-3.0212	-3.1891	-4.6997	1.3428	-4.364	7.0496	-3.8605	3.6926	61	287	186	19	1	2
-1.6785	-3.8605	0.1678	0	-0.6714	0.3357	-3.8605	-4.1962	-1.3428	-5.0354	-3.1891	-3.6926	-4.8676	1.1749	-4.5319	7.7209	-3.8605	3.6926	61	288	187	19	1	2
-2.182	-4.1962	-0.1678	-0.5035	-1.1749	-0.1678	-4.0283	-4.6997	-2.0142	-5.3711	-3.6926	-4.1962	-5.3711	1.1749	-4.8676	7.8888	-4.1962	3.3569	61	289	188	19	1	2
-2.3499	-4.5319	-0.3357	-0.6714	-1.5106	-0.6714	-4.1962	-5.2032	-2.5177	-5.3711	-4.1962	-4.6997	-5.7068	1.0071	-5.0354	8.2245	-4.364	2.8534	61	290	189	19	1	2
-2.6855	-4.8676	-1.0071	-1.0071	-2.0142	-1.1749	-4.6997	-5.7068	-3.1891	-5.7068	-4.6997	-5.3711	-6.2103	1.0071	-5.2032	8.2245	-4.5319	2.3499	61	291	190	19	1	2
21.1487	16.9525	28.5339	27.359	18.7988	34.0729	28.7018	17.2882	32.8979	30.7159	15.7776	28.8696	29.541	2.0142	20.1416	6.8817	18.4631	3.6926	61	231	130	20	1	2
21.3165	18.1274	28.5339	27.1912	18.9667	34.0729	28.5339	16.9525	32.7301	30.5481	15.274	28.5339	29.2053	1.8463	19.9738	7.3853	18.2953	4.0283	61	232	131	20	1	2
21.1487	19.3024	28.5339	27.359	19.3024	33.905	28.3661	16.7847	32.7301	30.3802	14.9384	28.1982	29.0375	1.6785	19.6381	7.8888	17.9596	4.1962	61	233	132	20	1	2
21.1487	19.8059	28.5339	27.5269	19.3024	33.905	28.1982	16.449	32.5623	30.2124	14.7705	28.0304	28.7018	1.5106	19.3024	8.3923	17.7917	4.5319	61	234	133	20	1	2
20.9808	20.3094	28.5339	27.6947	19.4702	33.7372	28.1982	16.449	32.2266	30.0446	14.6027	27.6947	28.7018	1.3428	19.3024	8.8959	17.6239	4.8676	61	235	134	20	1	2
20.9808	20.4773	28.1982	27.8625	19.6381	33.7372	28.0304	16.2811	32.0587	29.8767	14.4348	27.5269	28.3661	1.1749	18.9667	9.2316	17.6239	5.5389	61	236	135	20	1	2
20.6451	20.1416	28.0304	27.8625	19.6381	33.4015	27.8625	16.2811	31.723	29.8767	14.4348	27.359	28.0304	1.0071	18.631	9.7351	17.4561	6.2103	61	237	136	20	1	2
20.3094	19.8059	27.5269	27.8625	19.4702	33.2336	27.6947	16.449	31.5552	29.541	14.4348	27.0233	27.6947	1.0071	18.2953	9.7351	17.2882	7.0496	61	238	137	20	1	2
19.9738	19.4702	27.359	27.6947	19.6381	33.0658	27.5269	16.7847	31.2195	29.541	14.9384	26.8555	27.6947	1.0071	18.1274	9.903	17.2882	8.5602	61	239	138	20	1	2
19.6381	18.631	26.8555	27.5269	19.6381	32.7301	27.5269	16.9525	31.0516	29.3732	15.274	26.6876	27.359	0.8392	17.9596	10.0708	17.2882	9.7351	61	240	139	20	1	2
18.9667	17.7917	26.3519	27.1912	19.4702	32.3944	26.8555	16.9525	30.5481	28.8696	15.274	26.5198	26.6876	0.8392	17.2882	10.2386	16.9525	10.5743	61	241	140	20	1	2
18.4631	16.9525	25.8484	26.8555	19.3024	31.8909	26.6876	17.2882	30.2124	28.5339	15.6097	26.1841	26.3519	0.6714	16.9525	10.5743	16.7847	11.4136	61	242	141	20	1	2
17.7917	15.9454	25.177	26.3519	19.1345	31.2195	26.0162	17.1204	29.541	27.8625	15.6097	25.6805	25.6805	0.6714	16.449	10.7422	16.2811	12.085	61	243	142	20	1	2
17.2882	15.274	24.6735	26.0162	19.1345	30.8838	25.8484	17.1204	29.2053	27.359	15.6097	25.177	25.177	0.6714	15.9454	11.0779	16.1133	12.5885	61	244	143	20	1	2
16.7847	14.7705	24.3378	25.5127	18.9667	30.3802	25.3448	17.2882	28.7018	27.0233	15.6097	25.0092	24.6735	0.6714	15.4419	11.5814	15.7776	13.092	61	245	144	20	1	2
16.2811	14.0991	23.8342	25.177	19.1345	30.0446	25.0092	17.1204	28.1982	26.5198	15.9454	24.6735	24.0021	0.6714	14.7705	12.2528	15.4419	13.5956	61	246	145	20	1	2
15.9454	13.7634	23.4985	24.6735	19.1345	29.7089	24.6735	17.1204	27.6947	26.0162	15.9454	24.1699	23.4985	0.6714	14.4348	12.7563	15.1062	14.0991	61	247	146	20	1	2
15.6097	13.4277	23.1628	24.5056	19.3024	29.3732	24.3378	17.2882	27.359	25.6805	16.1133	24.0021	22.995	0.6714	13.9313	13.2599	15.1062	14.7705	61	248	147	20	1	2
15.1062	12.9242	22.6593	24.0021	19.3024	28.8696	24.0021	17.2882	26.8555	25.177	16.1133	23.4985	22.4915	0.6714	13.4277	13.5956	14.6027	15.1062	61	249	148	20	1	2
14.6027	12.2528	22.1558	23.6664	19.1345	28.3661	23.4985	17.1204	26.3519	24.6735	16.1133	22.995	21.8201	0.8392	12.7563	13.9313	14.267	15.1062	61	250	149	20	1	2
14.4348	11.9171	21.9879	23.3307	19.1345	27.8625	23.3307	17.1204	25.8484	24.3378	16.2811	22.6593	21.3165	0.8392	12.2528	14.4348	13.9313	15.274	61	251	150	20	1	2
13.7634	11.5814	21.4844	22.995	18.9667	27.359	22.995	16.9525	25.3448	23.4985	16.1133	21.9879	20.6451	0.8392	11.7493	14.9384	13.5956	14.7705	61	252	151	20	1	2
13.2599	11.2457	20.9808	22.3236	18.7988	26.6876	22.4915	16.7847	24.6735	22.995	15.9454	21.4844	20.1416	0.8392	11.0779	15.274	13.092	14.267	61	253	152	20	1	2
12.7563	10.7422	20.3094	21.9879	18.4631	26.1841	22.1558	16.7847	24.0021	22.3236	15.7776	20.813	19.4702	1.0071	10.4065	15.6097	12.5885	13.7634	61	254	153	20	1	2
12.085	10.5743	19.9738	21.6522	18.2953	25.5127	21.8201	16.6168	23.4985	21.8201	15.4419	20.1416	18.7988	0.8392	9.7351	15.7776	12.2528	13.092	61	255	154	20	1	2
11.4136	10.2386	19.4702	21.1487	17.9596	24.8413	21.3165	16.449	22.8271	21.3165	15.1062	19.4702	18.1274	0.8392	9.0637	16.1133	11.9171	12.4207	61	256	155	20	1	2
10.91	9.903	18.631	20.6451	17.6239	24.1699	20.813	16.1133	21.9879	20.3094	14.7705	18.4631	17.1204	0.8392	8.3923	16.2811	11.4136	11.5814	61	257	156	20	1	2
10.4065	9.7351	18.2953	20.3094	17.4561	23.6664	20.6451	15.9454	21.3165	19.8059	14.6027	17.7917	16.449	0.6714	7.8888	16.449	11.2457	10.7422	61	258	157	20	1	2
9.903	9.3994	17.6239	19.9738	17.1204	22.8271	19.9738	15.7776	20.4773	19.1345	14.267	16.9525	15.6097	0.6714	7.0496	16.6168	10.5743	9.903	61	259	158	20	1	2
9.5673	9.3994	17.2882	19.6381	16.7847	22.3236	19.8059	15.7776	19.9738	18.631	14.0991	16.2811	15.1062	0.5035	6.3782	16.7847	10.4065	9.0637	61	260	159	20	1	2
9.0637	9.0637	16.7847	19.3024	16.449	21.8201	19.4702	15.6097	19.3024	17.7917	13.7634	15.4419	14.267	0.3357	5.7068	16.6168	10.0708	8.3923	61	261	160	20	1	2
8.728	9.0637	16.449	19.1345	16.2811	21.3165	18.9667	15.274	18.631	17.1204	13.4277	14.7705	13.4277	0.3357	5.0354	16.2811	9.5673	7.5531	61	262	161	20	1	2
8.3923	8.728	15.9454	18.7988	15.9454	20.6451	18.631	15.274	17.7917	16.6168	13.2599	13.9313	12.7563	0.1678	4.364	16.1133	9.2316	6.8817	61	263	162	20	1	2
8.2245	8.8959	15.7776	18.631	15.7776	20.3094	18.2953	15.274	17.1204	16.1133	13.092	13.2599	12.2528	0	3.8605	15.9454	8.728	6.3782	61	264	163	20	1	2
8.2245	8.728	15.6097	18.4631	15.7776	19.9738	17.7917	15.274	16.6168	15.4419	12.9242	12.5885	11.7493	-0.1678	3.1891	15.7776	8.3923	5.8746	61	265	164	20	1	2
8.2245	8.8959	15.274	18.4631	15.4419	19.4702	17.4561	15.1062	16.1133	14.9384	12.7563	11.9171	10.91	-0.3357	2.6855	15.6097	8.0566	5.3711	61	266	165	20	1	2
8.3923	9.0637	15.274	18.2953	15.4419	19.1345	17.2882	15.274	15.6097	14.4348	12.7563	11.4136	10.4065	-0.6714	2.182	15.4419	7.7209	5.2032	61	267	166	20	1	2
8.5602	9.0637	15.274	18.2953	15.6097	18.9667	16.7847	15.274	15.1062	13.9313	12.7563	10.91	10.0708	-0.8392	1.8463	15.4419	7.3853	5.2032	61	268	167	20	1	2
8.5602	9.2316	15.1062	18.1274	15.4419	18.631	16.2811	15.274	14.6027	13.4277	12.7563	10.2386	9.3994	-1.0071	1.3428	15.1062	6.8817	5.0354	61	269	168	20	1	2
8.728	9.3994	15.1062	17.7917	15.4419	18.2953	15.7776	15.274	13.9313	12.7563	12.5885	9.5673	8.728	-1.3428	0.6714	14.9384	6.3782	5.0354	61	270	169	20	1	2
8.728	9.7351	15.1062	17.7917	15.4419	18.1274	15.4419	15.4419	13.5956	12.085	12.7563	9.0637	8.2245	-1.6785	0.1678	14.7705	5.8746	5.3711	61	271	170	20	1	2
8.8959	9.5673	14.7705	17.4561	15.274	17.6239	14.9384	15.4419	13.092	11.4136	12.5885	8.3923	7.5531	-2.0142	-0.5035	14.4348	5.2032	5.3711	61	272	171	20	1	2
8.728	9.5673	14.6027	16.9525	15.1062	17.1204	14.0991	15.274	12.4207	10.5743	12.5885	7.7209	6.8817	-2.182	-0.8392	13.9313	4.6997	5.5389	61	273	172	20	1	2
8.8959	9.7351	14.4348	16.6168	15.1062	16.7847	13.4277	15.274	11.9171	10.0708	12.4207	7.2174	6.2103	-2.5177	-1.3428	13.5956	4.1962	5.7068	61	274	173	20	1	2
8.728	9.3994	13.9313	15.9454	14.7705	16.2811	12.7563	15.1062	11.2457	9.0637	12.2528	6.546	5.5389	-2.6855	-1.6785	12.9242	3.5248	5.7068	61	275	174	20	1	2
8.5602	9.2316	13.7634	15.6097	14.6027	15.7776	12.085	15.1062	10.7422	8.3923	12.085	6.0425	5.0354	-3.0212	-2.3499	12.085	3.0212	5.8746	61	276	175	20	1	2
8.3923	8.8959	13.4277	15.1062	14.267	15.1062	11.4136	14.7705	10.0708	7.5531	11.7493	5.5389	4.1962	-3.1891	-2.5177	11.0779	2.3499	5.7068	61	277	176	20	1	2
8.2245	8.728	12.9242	14.6027	14.0991	14.7705	10.5743	14.6027	9.3994	6.8817	11.5814	5.0354	3.6926	-3.3569	-2.8534	10.2386	1.8463	5.7068	61	278	177	20	1	2
8.0566	8.2245	12.5885	14.0991	13.5956	14.0991	9.903	14.267	8.8959	6.2103	11.2457	4.6997	3.0212	-3.6926	-3.3569	9.5673	1.6785	5.5389	61	279	178	20	1	2
7.8888	7.5531	12.085	13.5956	13.092	13.4277	9.0637	13.9313	8.2245	5.5389	10.91	4.1962	2.3499	-3.8605	-3.6926	8.5602	1.1749	5.3711	61	280	179	20	1	2
7.3853	7.0496	11.4136	12.9242	12.5885	12.5885	8.3923	13.4277	7.5531	4.6997	10.5743	3.6926	1.6785	-3.8605	-3.8605	7.3853	0.6714	5.0354	61	281	180	20	1	2
7.2174	6.546	10.91	12.5885	12.2528	12.085	7.5531	13.2599	7.0496	4.0283	10.2386	3.1891	1.1749	-4.0283	-4.1962	6.3782	0.3357	5.0354	61	282	181	20	1	2
6.7139	6.0425	10.4065	12.2528	11.5814	11.2457	6.8817	12.7563	6.3782	3.3569	9.903	2.6855	0.6714	-4.0283	-4.364	5.3711	0	4.6997	61	283	182	20	1	2
6.7139	5.3711	9.903	12.085	11.0779	10.5743	6.2103	12.4207	5.8746	2.8534	9.7351	2.5177	0.3357	-3.8605	-4.1962	4.5319	-0.3357	4.5319	61	284	183	20	1	2
6.2103	4.8676	9.2316	11.9171	10.5743	9.903	5.8746	12.085	5.2032	2.3499	9.3994	2.0142	-0.1678	-3.6926	-4.1962	3.5248	-0.3357	4.1962	61	285	184	20	1	2
5.8746	4.1962	8.728	11.5814	9.903	9.0637	5.2032	11.5814	4.6997	1.8463	8.8959	1.8463	-0.5035	-3.5248	-4.1962	2.6855	-0.5035	3.6926	61	286	185	20	1	2
5.5389	3.8605	7.8888	11.4136	9.5673	8.3923	4.5319	11.2457	4.1962	1.1749	8.5602	1.3428	-0.8392	-3.1891	-4.0283	1.8463	-0.6714	3.3569	61	287	186	20	1	2
4.8676	3.3569	7.2174	11.0779	9.0637	7.7209	4.0283	10.91	3.6926	0.8392	8.2245	1.1749	-1.0071	-2.8534	-3.8605	1.3428	-0.6714	3.0212	61	288	187	20	1	2
4.364	3.0212	6.7139	10.7422	8.728	7.0496	3.6926	10.7422	3.0212	0.5035	7.8888	0.8392	-1.1749	-2.5177	-3.6926	1.0071	-0.5035	2.6855	61	289	188	20	1	2
4.0283	2.8534	6.0425	10.5743	8.3923	6.3782	3.0212	10.5743	2.6855	0.3357	7.8888	0.6714	-1.3428	-2.182	-3.5248	0.6714	-0.3357	2.182	61	290	189	20	1	2
3.5248	3.0212	5.3711	10.0708	8.3923	5.7068	2.5177	10.2386	2.182	-0.1678	7.5531	0.5035	-1.6785	-1.8463	-3.0212	0.5035	-0.1678	2.0142	61	291	190	20	1	2
-9.3994	-2.3499	-4.8676	-10.7422	-5.7068	-5.2032	-6.546	-5.3711	-1.3428	3.3569	0.6714	3.1891	7.3853	-6.7139	2.0142	-2.0142	9.2316	5.3711	61	231	130	21	1	2
-9.5673	-2.6855	-4.8676	-10.7422	-5.8746	-5.2032	-6.3782	-5.3711	-1.5106	3.5248	0.3357	3.0212	7.7209	-7.0496	2.182	-1.1749	9.5673	4.6997	61	232	131	21	1	2
-9.5673	-3.3569	-5.2032	-10.7422	-6.2103	-5.3711	-6.3782	-5.5389	-1.5106	3.6926	-0.1678	2.6855	7.8888	-7.2174	2.3499	-0.1678	9.903	4.1962	61	233	132	21	1	2
-9.903	-4.364	-5.5389	-10.91	-6.8817	-5.7068	-6.546	-6.0425	-1.8463	3.5248	-0.8392	2.3499	7.8888	-7.3853	2.3499	0.5035	9.903	3.3569	61	234	133	21	1	2
-10.0708	-5.3711	-5.8746	-11.0779	-7.2174	-6.0425	-6.546	-6.2103	-2.0142	3.5248	-1.3428	2.0142	8.0566	-7.5531	2.3499	1.3428	10.2386	2.8534	61	235	134	21	1	2
-10.0708	-6.3782	-6.0425	-10.91	-7.7209	-6.2103	-6.7139	-6.3782	-2.3499	3.5248	-1.8463	1.5106	8.2245	-7.7209	2.3499	2.0142	10.4065	2.182	61	236	135	21	1	2
-10.2386	-7.3853	-6.3782	-10.7422	-8.2245	-6.546	-6.546	-6.7139	-2.6855	3.5248	-2.3499	1.1749	8.2245	-7.8888	2.3499	2.5177	10.5743	1.6785	61	237	136	21	1	2
-10.2386	-8.5602	-6.7139	-10.5743	-8.3923	-7.0496	-6.546	-6.8817	-3.0212	3.3569	-2.6855	0.8392	8.2245	-8.0566	2.182	2.8534	10.7422	1.1749	61	238	137	21	1	2
-10.0708	-9.2316	-6.7139	-10.0708	-8.5602	-7.2174	-6.546	-6.7139	-3.1891	3.6926	-2.8534	0.6714	8.2245	-8.2245	2.182	3.3569	11.0779	0.8392	61	239	138	21	1	2
-10.0708	-10.0708	-6.8817	-9.903	-8.728	-7.3853	-6.3782	-6.8817	-3.5248	3.5248	-3.1891	0.3357	8.2245	-8.3923	2.182	3.5248	11.5814	0.3357	61	240	139	21	1	2
-9.903	-10.5743	-6.8817	-9.3994	-8.3923	-7.5531	-6.2103	-6.546	-3.3569	3.6926	-3.3569	0	8.3923	-8.3923	2.3499	3.8605	11.9171	0	61	241	140	21	1	2
-9.7351	-10.91	-6.7139	-8.8959	-8.3923	-7.5531	-5.7068	-6.546	-3.5248	4.0283	-3.3569	0	8.5602	-8.3923	2.182	4.364	12.2528	0	61	242	141	21	1	2
-9.3994	-11.4136	-6.8817	-8.728	-8.0566	-7.5531	-5.5389	-6.3782	-3.6926	4.1962	-3.5248	0	8.5602	-8.3923	2.182	4.5319	12.5885	-0.3357	61	243	142	21	1	2
-8.8959	-11.5814	-6.546	-8.2245	-8.0566	-7.5531	-5.3711	-6.3782	-3.6926	4.364	-3.5248	-0.1678	8.728	-8.3923	2.3499	4.6997	13.092	-0.5035	61	244	143	21	1	2
-8.5602	-11.7493	-6.546	-7.8888	-7.8888	-7.5531	-4.8676	-6.2103	-3.6926	4.5319	-3.5248	-0.1678	8.8959	-8.2245	2.3499	4.6997	13.4277	-0.8392	61	245	144	21	1	2
-7.8888	-11.5814	-6.2103	-7.3853	-7.5531	-7.2174	-4.364	-6.0425	-3.5248	5.0354	-3.5248	0	9.2316	-8.2245	2.5177	4.6997	13.9313	-0.8392	61	246	145	21	1	2
-7.3853	-11.4136	-5.7068	-7.0496	-7.2174	-6.8817	-4.0283	-6.0425	-3.3569	5.3711	-3.5248	0	9.2316	-8.0566	2.5177	4.1962	14.267	-1.3428	61	247	146	21	1	2
-6.8817	-10.91	-5.2032	-6.3782	-6.7139	-6.546	-3.1891	-5.8746	-3.1891	5.7068	-3.5248	0.3357	9.5673	-8.0566	2.6855	4.0283	14.7705	-1.5106	61	248	147	21	1	2
-6.2103	-10.4065	-4.6997	-6.0425	-6.546	-6.2103	-2.8534	-5.8746	-3.0212	6.0425	-3.5248	0.5035	9.7351	-7.8888	2.8534	3.5248	15.1062	-2.0142	61	249	148	21	1	2
-5.5389	-9.5673	-4.0283	-5.3711	-5.8746	-5.7068	-2.182	-5.7068	-2.5177	6.546	-3.1891	1.0071	10.0708	-7.7209	3.1891	3.0212	15.6097	-2.182	61	250	149	21	1	2
