"FZ"	"FC3"	"FCZ"	"FC4"	"C3"	"CZ"	"C4"	"CP3"	"CPZ"	"CP4"	"P3"	"PZ"	"P4"	"OZ"	"P8"	"TP7"	"TP8"	"P7"	"Subject"	"Points"	"Time"	"Trial"	"Rejected"	"Correct"
-16.7847	-19.4702	-20.813	-13.9313	-17.2882	-24.3378	-17.6239	-16.2811	-24.1699	-18.1274	-15.7776	-18.631	-14.0991	5.5389	-3.8605	-10.2386	0.8392	-12.5885	27	231	130	1	1	2
-16.7847	-19.6381	-20.6451	-14.267	-17.1204	-24.5056	-18.1274	-16.1133	-24.3378	-18.4631	-15.9454	-18.7988	-14.6027	5.7068	-4.364	-10.0708	0.3357	-12.7563	27	232	131	1	1	2
-16.6168	-19.6381	-20.813	-14.7705	-16.9525	-24.6735	-18.2953	-15.9454	-24.5056	-18.9667	-15.7776	-19.1345	-14.9384	5.7068	-4.6997	-9.7351	-0.1678	-12.9242	27	233	132	1	1	2
-16.2811	-19.4702	-20.6451	-14.9384	-16.7847	-24.5056	-18.631	-15.9454	-24.5056	-18.9667	-15.9454	-19.1345	-15.274	5.7068	-4.8676	-9.5673	-0.6714	-13.092	27	234	133	1	1	2
-15.9454	-19.1345	-20.4773	-15.1062	-16.449	-24.5056	-18.4631	-15.6097	-24.3378	-19.1345	-15.7776	-19.1345	-15.6097	5.7068	-5.2032	-9.3994	-1.1749	-12.7563	27	235	134	1	1	2
-15.4419	-18.7988	-20.1416	-14.9384	-16.1133	-24.3378	-18.4631	-15.274	-24.1699	-19.1345	-15.7776	-19.1345	-15.6097	5.5389	-5.3711	-9.0637	-1.6785	-12.7563	27	236	135	1	1	2
-14.9384	-18.631	-19.8059	-14.9384	-15.9454	-24.1699	-18.2953	-15.1062	-24.0021	-18.9667	-15.4419	-18.9667	-15.6097	5.5389	-5.7068	-8.8959	-2.182	-12.5885	27	237	136	1	1	2
-14.0991	-18.1274	-19.3024	-14.6027	-15.4419	-23.8342	-17.9596	-14.7705	-23.4985	-18.7988	-15.274	-18.7988	-15.4419	5.3711	-5.7068	-8.5602	-2.5177	-12.4207	27	238	137	1	1	2
-13.4277	-17.6239	-18.631	-14.0991	-15.1062	-23.3307	-17.7917	-14.4348	-23.3307	-18.631	-15.1062	-18.631	-15.274	5.2032	-5.8746	-8.5602	-2.6855	-12.2528	27	239	138	1	1	2
-12.5885	-17.2882	-18.1274	-13.7634	-14.7705	-22.8271	-17.2882	-14.267	-22.995	-18.2953	-14.9384	-18.4631	-15.1062	5.0354	-6.0425	-8.2245	-2.8534	-11.9171	27	240	139	1	1	2
-12.085	-16.7847	-17.6239	-13.4277	-14.6027	-22.4915	-17.1204	-13.9313	-22.4915	-17.9596	-14.7705	-18.2953	-15.1062	4.6997	-6.2103	-8.3923	-3.1891	-11.7493	27	241	140	1	1	2
-11.0779	-16.2811	-16.9525	-12.7563	-14.0991	-22.1558	-16.7847	-13.9313	-22.1558	-17.6239	-14.6027	-18.1274	-14.9384	4.5319	-6.546	-8.3923	-3.3569	-11.7493	27	242	141	1	1	2
-10.2386	-15.4419	-16.2811	-11.9171	-13.5956	-21.4844	-16.2811	-13.4277	-21.6522	-17.2882	-14.4348	-17.7917	-14.6027	4.1962	-6.546	-8.2245	-3.5248	-11.4136	27	243	142	1	1	2
-9.3994	-14.7705	-15.4419	-11.4136	-13.2599	-20.813	-15.9454	-13.2599	-21.3165	-16.9525	-14.267	-17.6239	-14.6027	3.8605	-6.8817	-8.2245	-3.6926	-11.4136	27	244	143	1	1	2
-8.5602	-14.0991	-14.7705	-10.7422	-12.9242	-20.3094	-15.6097	-13.092	-20.813	-16.7847	-14.0991	-17.6239	-14.7705	3.5248	-7.2174	-8.2245	-3.8605	-11.4136	27	245	144	1	1	2
-7.7209	-13.2599	-14.267	-10.0708	-12.4207	-19.8059	-15.274	-13.092	-20.6451	-16.7847	-14.267	-17.4561	-14.7705	3.3569	-7.5531	-8.2245	-4.1962	-11.2457	27	246	145	1	1	2
-6.8817	-12.4207	-13.4277	-9.3994	-11.9171	-19.1345	-15.274	-12.9242	-20.3094	-16.6168	-14.267	-17.4561	-14.7705	2.8534	-8.0566	-8.3923	-4.5319	-11.4136	27	247	146	1	1	2
-5.8746	-11.5814	-12.7563	-8.728	-11.5814	-18.7988	-14.9384	-12.5885	-19.8059	-16.2811	-14.0991	-17.2882	-14.7705	2.6855	-8.3923	-8.2245	-4.6997	-11.2457	27	248	147	1	1	2
-5.2032	-10.91	-12.2528	-8.3923	-11.0779	-18.2953	-14.7705	-12.7563	-19.8059	-16.2811	-14.0991	-17.4561	-14.9384	2.3499	-8.8959	-8.3923	-5.2032	-11.4136	27	249	148	1	1	2
-4.6997	-10.2386	-11.7493	-7.8888	-11.0779	-18.2953	-14.7705	-12.7563	-19.6381	-16.449	-14.4348	-17.6239	-15.4419	2.0142	-9.5673	-8.728	-5.5389	-11.4136	27	250	149	1	1	2
-4.364	-9.7351	-11.5814	-7.5531	-10.91	-18.1274	-14.7705	-12.7563	-19.8059	-16.6168	-14.7705	-17.7917	-15.6097	1.6785	-10.0708	-8.8959	-5.8746	-11.7493	27	251	150	1	1	2
-3.8605	-9.0637	-11.2457	-7.2174	-10.7422	-18.1274	-14.9384	-12.9242	-19.8059	-16.6168	-14.9384	-17.9596	-15.7776	1.5106	-10.5743	-8.8959	-6.0425	-11.7493	27	252	151	1	1	2
-3.3569	-8.728	-10.91	-6.8817	-10.7422	-18.1274	-14.9384	-13.092	-19.8059	-16.7847	-15.1062	-18.2953	-16.1133	1.3428	-10.91	-9.2316	-6.2103	-11.7493	27	253	152	1	1	2
-3.1891	-8.3923	-11.0779	-6.546	-10.91	-18.1274	-14.9384	-13.2599	-19.9738	-16.9525	-15.6097	-18.631	-16.2811	1.1749	-11.4136	-9.3994	-6.546	-11.7493	27	254	153	1	1	2
-3.1891	-8.5602	-11.0779	-6.7139	-11.2457	-18.631	-15.4419	-13.9313	-20.4773	-17.2882	-16.1133	-19.1345	-16.9525	0.8392	-11.9171	-9.5673	-7.0496	-11.9171	27	255	154	1	1	2
-3.0212	-8.3923	-11.0779	-6.546	-11.2457	-18.7988	-15.6097	-14.0991	-20.6451	-17.2882	-16.449	-19.4702	-17.1204	0.8392	-12.2528	-9.5673	-7.2174	-11.9171	27	256	155	1	1	2
-3.1891	-8.5602	-11.5814	-6.546	-11.7493	-19.3024	-15.7776	-14.6027	-21.1487	-17.6239	-16.9525	-19.9738	-17.6239	0.6714	-12.5885	-9.7351	-7.5531	-12.085	27	257	156	1	1	2
-3.6926	-8.8959	-11.9171	-6.8817	-12.2528	-19.6381	-16.2811	-15.1062	-21.6522	-17.9596	-17.6239	-20.4773	-17.9596	0.5035	-13.092	-9.903	-7.8888	-12.4207	27	258	157	1	1	2
-3.8605	-9.3994	-12.2528	-6.8817	-12.7563	-20.1416	-16.449	-15.6097	-22.1558	-18.2953	-18.1274	-20.9808	-18.2953	0.5035	-13.4277	-9.903	-8.2245	-12.4207	27	259	158	1	1	2
-4.364	-10.0708	-12.9242	-7.5531	-13.4277	-20.6451	-16.7847	-16.2811	-22.8271	-18.7988	-18.7988	-21.6522	-18.7988	0.3357	-13.9313	-10.4065	-8.5602	-12.7563	27	260	159	1	1	2
-5.0354	-10.4065	-13.4277	-7.7209	-13.9313	-21.1487	-17.1204	-16.7847	-23.3307	-19.1345	-19.3024	-22.3236	-19.1345	0.3357	-14.267	-10.5743	-8.728	-12.7563	27	261	160	1	1	2
-5.3711	-10.91	-13.7634	-7.8888	-14.4348	-21.6522	-17.2882	-17.2882	-23.6664	-19.3024	-19.8059	-22.8271	-19.4702	0.3357	-14.4348	-10.7422	-8.728	-12.9242	27	262	161	1	1	2
-5.7068	-11.4136	-14.267	-8.0566	-14.9384	-21.8201	-17.4561	-17.6239	-24.0021	-19.3024	-20.3094	-23.1628	-19.6381	0.3357	-14.4348	-10.91	-8.5602	-13.2599	27	263	162	1	1	2
-6.2103	-11.9171	-14.6027	-8.2245	-15.274	-22.1558	-17.4561	-18.1274	-24.3378	-19.4702	-20.813	-23.4985	-19.6381	0.3357	-14.4348	-11.0779	-8.3923	-13.4277	27	264	163	1	1	2
-6.546	-12.4207	-15.1062	-8.3923	-15.7776	-22.3236	-17.4561	-18.4631	-24.6735	-19.4702	-21.3165	-23.8342	-19.8059	0.3357	-14.4348	-11.4136	-8.0566	-13.7634	27	265	164	1	1	2
-6.7139	-12.9242	-15.4419	-8.5602	-16.2811	-22.3236	-17.4561	-18.9667	-24.8413	-19.3024	-21.6522	-24.0021	-19.8059	0.3357	-14.267	-11.7493	-7.7209	-14.0991	27	266	165	1	1	2
-6.8817	-13.2599	-15.6097	-8.3923	-16.449	-22.3236	-17.2882	-19.1345	-24.8413	-18.9667	-21.8201	-24.0021	-19.4702	0.5035	-13.9313	-11.9171	-7.0496	-14.267	27	267	166	1	1	2
-6.8817	-13.7634	-15.7776	-8.5602	-16.6168	-22.3236	-17.2882	-19.4702	-25.0092	-18.9667	-22.3236	-24.3378	-19.4702	0.5035	-13.5956	-12.2528	-6.546	-14.4348	27	268	167	1	1	2
-6.8817	-13.9313	-15.7776	-8.3923	-16.9525	-22.1558	-17.1204	-19.4702	-24.6735	-18.631	-22.4915	-24.3378	-19.1345	0.6714	-13.092	-12.5885	-5.7068	-14.7705	27	269	168	1	1	2
-6.7139	-14.267	-15.9454	-8.2245	-16.9525	-22.1558	-16.9525	-19.6381	-24.6735	-18.2953	-22.3236	-24.1699	-18.9667	0.8392	-12.5885	-12.7563	-5.0354	-14.9384	27	270	169	1	1	2
-6.546	-14.4348	-15.9454	-8.0566	-16.9525	-21.8201	-16.6168	-19.6381	-24.5056	-18.1274	-22.4915	-24.1699	-18.631	1.0071	-11.9171	-12.9242	-4.5319	-14.9384	27	271	170	1	1	2
-6.3782	-14.6027	-15.7776	-7.8888	-16.7847	-21.4844	-16.449	-19.6381	-24.3378	-17.7917	-22.3236	-24.0021	-18.2953	1.1749	-11.5814	-12.9242	-4.0283	-14.9384	27	272	171	1	1	2
-6.0425	-14.6027	-15.6097	-7.7209	-16.7847	-21.3165	-16.2811	-19.6381	-24.1699	-17.7917	-22.3236	-24.0021	-18.1274	1.3428	-11.0779	-13.2599	-3.5248	-15.1062	27	273	172	1	1	2
-5.7068	-14.6027	-15.4419	-7.3853	-16.6168	-20.9808	-16.1133	-19.4702	-23.8342	-17.4561	-22.1558	-23.8342	-17.7917	1.5106	-10.5743	-13.2599	-3.5248	-14.9384	27	274	173	1	1	2
-5.5389	-14.7705	-15.274	-7.2174	-16.449	-20.813	-15.9454	-19.4702	-23.8342	-17.4561	-22.1558	-23.8342	-17.4561	1.6785	-10.0708	-13.092	-3.3569	-14.9384	27	275	174	1	1	2
-5.3711	-14.7705	-15.274	-7.0496	-16.449	-20.4773	-15.7776	-19.4702	-23.6664	-17.1204	-21.9879	-23.8342	-17.2882	1.8463	-9.7351	-13.2599	-3.1891	-14.7705	27	276	175	1	1	2
-5.0354	-14.7705	-14.9384	-6.7139	-16.1133	-20.1416	-15.4419	-19.1345	-23.3307	-16.9525	-21.8201	-23.4985	-16.7847	2.182	-9.0637	-13.2599	-3.1891	-14.6027	27	277	176	1	1	2
-4.8676	-14.7705	-14.7705	-6.546	-15.9454	-19.9738	-15.4419	-19.1345	-23.1628	-16.9525	-21.6522	-23.3307	-16.6168	2.3499	-8.728	-13.092	-3.1891	-14.4348	27	278	177	1	1	2
-4.8676	-15.1062	-14.7705	-6.546	-15.9454	-19.8059	-15.4419	-19.1345	-23.1628	-16.9525	-21.6522	-23.3307	-16.449	2.5177	-8.2245	-13.092	-3.3569	-14.4348	27	279	178	1	1	2
-4.6997	-15.1062	-14.6027	-6.3782	-15.7776	-19.6381	-15.274	-19.1345	-22.995	-16.7847	-21.3165	-23.1628	-16.1133	2.8534	-7.5531	-12.9242	-3.1891	-14.0991	27	280	179	1	1	2
-4.8676	-15.274	-14.6027	-6.3782	-15.6097	-19.6381	-15.4419	-18.9667	-23.1628	-16.7847	-21.3165	-23.1628	-15.7776	3.0212	-7.0496	-12.9242	-3.3569	-14.0991	27	281	180	1	1	2
-5.0354	-15.4419	-14.7705	-6.546	-15.7776	-19.6381	-15.4419	-18.9667	-23.1628	-16.7847	-21.1487	-22.995	-15.6097	3.1891	-6.546	-12.7563	-3.3569	-13.9313	27	282	181	1	1	2
-5.2032	-15.6097	-14.7705	-6.7139	-15.7776	-19.8059	-15.4419	-18.9667	-23.3307	-16.7847	-20.9808	-22.8271	-15.274	3.3569	-6.2103	-12.7563	-3.3569	-13.7634	27	283	182	1	1	2
-5.3711	-15.9454	-15.1062	-7.0496	-15.9454	-19.9738	-15.6097	-19.1345	-23.4985	-16.7847	-20.813	-22.8271	-15.4419	3.5248	-5.8746	-12.7563	-3.5248	-13.7634	27	284	183	1	1	2
-5.7068	-16.1133	-15.1062	-7.2174	-15.9454	-19.9738	-15.7776	-19.1345	-23.3307	-16.9525	-20.813	-22.8271	-15.1062	3.5248	-5.3711	-12.7563	-3.6926	-13.7634	27	285	184	1	1	2
-6.0425	-16.6168	-15.274	-7.3853	-16.1133	-20.4773	-15.9454	-19.3024	-23.6664	-17.1204	-20.6451	-22.8271	-14.9384	3.5248	-5.0354	-12.7563	-3.8605	-13.7634	27	286	185	1	1	2
-6.2103	-16.9525	-15.6097	-7.7209	-16.2811	-20.6451	-16.2811	-19.3024	-23.8342	-17.1204	-20.4773	-22.6593	-14.9384	3.5248	-4.6997	-13.092	-3.8605	-13.7634	27	287	186	1	1	2
-6.7139	-17.4561	-15.9454	-8.2245	-16.6168	-21.1487	-16.6168	-19.4702	-24.1699	-17.2882	-20.6451	-22.995	-15.1062	3.5248	-4.8676	-13.4277	-4.1962	-13.9313	27	288	187	1	1	2
-7.0496	-17.7917	-16.2811	-8.5602	-16.9525	-21.4844	-16.7847	-19.8059	-24.3378	-17.6239	-20.6451	-22.995	-15.1062	3.5248	-4.6997	-13.7634	-4.1962	-13.9313	27	289	188	1	1	2
-7.3853	-17.9596	-16.449	-8.728	-16.9525	-21.8201	-17.1204	-19.8059	-24.5056	-17.6239	-20.4773	-22.8271	-14.9384	3.3569	-4.364	-14.267	-4.364	-14.0991	27	290	189	1	1	2
-8.0566	-18.4631	-16.9525	-9.3994	-17.4561	-22.3236	-17.4561	-19.9738	-24.8413	-17.9596	-20.6451	-22.995	-15.1062	3.3569	-4.364	-14.7705	-4.5319	-14.267	27	291	190	1	1	2
5.3711	5.8746	9.5673	9.3994	6.3782	11.7493	14.0991	7.0496	11.4136	14.7705	7.7209	14.0991	16.9525	1.3428	12.4207	0	9.3994	4.364	27	231	130	2	1	2
5.0354	5.3711	9.3994	9.2316	6.2103	11.4136	13.4277	6.8817	10.91	14.0991	7.2174	13.4277	16.2811	1.3428	11.9171	-0.1678	9.0637	4.1962	27	232	131	2	1	2
4.8676	5.0354	8.8959	9.0637	5.8746	11.0779	12.7563	6.546	10.4065	13.4277	6.8817	12.9242	15.7776	1.3428	11.5814	-0.1678	8.8959	3.8605	27	233	132	2	1	2
4.6997	4.6997	8.5602	8.728	5.5389	10.7422	12.085	6.3782	9.903	12.7563	6.7139	12.4207	15.1062	1.3428	11.2457	-0.3357	8.728	3.6926	27	234	133	2	1	2
4.5319	4.364	8.3923	8.5602	5.3711	10.4065	11.4136	6.3782	9.5673	12.085	6.546	12.085	14.6027	1.3428	10.91	-0.3357	8.5602	3.6926	27	235	134	2	1	2
4.364	3.8605	8.0566	8.2245	5.2032	9.903	10.5743	6.2103	9.0637	11.4136	6.3782	11.5814	13.9313	1.1749	10.4065	-0.3357	8.2245	3.3569	27	236	135	2	1	2
4.364	3.6926	8.0566	8.0566	5.3711	9.7351	10.0708	6.3782	9.0637	10.91	6.3782	11.4136	13.5956	1.1749	10.0708	-0.3357	8.0566	3.3569	27	237	136	2	1	2
4.364	3.5248	7.7209	7.7209	5.2032	9.3994	9.3994	6.3782	8.8959	10.2386	6.546	11.4136	13.092	1.0071	9.5673	-0.3357	8.0566	3.1891	27	238	137	2	1	2
4.1962	3.1891	7.5531	7.3853	5.0354	9.2316	8.728	6.3782	8.728	9.7351	6.546	11.2457	12.9242	0.8392	9.2316	-0.3357	7.8888	3.0212	27	239	138	2	1	2
4.0283	3.0212	7.3853	7.0496	5.0354	9.0637	8.2245	6.546	8.5602	9.2316	6.7139	11.0779	12.5885	0.6714	8.8959	-0.3357	7.7209	3.1891	27	240	139	2	1	2
4.0283	2.8534	7.0496	6.8817	5.2032	8.8959	7.7209	6.7139	8.5602	9.0637	6.8817	11.0779	12.2528	0.5035	8.5602	-0.5035	7.7209	3.1891	27	241	140	2	1	2
4.1962	2.8534	7.2174	6.546	5.3711	8.8959	7.3853	7.2174	8.8959	8.8959	7.2174	11.4136	12.085	0.5035	8.5602	-0.3357	7.7209	3.1891	27	242	141	2	1	2
3.8605	2.6855	6.8817	6.0425	5.7068	8.8959	7.0496	7.3853	8.8959	8.3923	7.5531	11.7493	11.9171	0.1678	8.2245	-0.1678	7.5531	3.1891	27	243	142	2	1	2
3.6926	2.6855	6.546	5.7068	5.5389	8.728	6.3782	7.3853	8.728	8.0566	7.8888	11.7493	11.5814	0	7.7209	-0.3357	7.0496	3.0212	27	244	143	2	1	2
3.5248	2.6855	6.3782	5.2032	5.7068	8.5602	6.0425	7.7209	8.8959	7.7209	8.3923	11.9171	11.5814	-0.1678	7.2174	-0.3357	6.8817	3.0212	27	245	144	2	1	2
3.3569	2.6855	6.2103	4.8676	5.8746	8.5602	5.7068	8.2245	9.0637	7.5531	8.728	12.085	11.4136	-0.3357	6.8817	-0.3357	6.7139	3.1891	27	246	145	2	1	2
3.5248	3.0212	6.2103	4.6997	6.3782	8.728	5.5389	8.5602	9.3994	7.3853	9.2316	12.2528	11.2457	-0.5035	6.546	-0.1678	6.8817	3.3569	27	247	146	2	1	2
3.3569	3.1891	5.8746	4.364	6.546	8.5602	5.2032	8.728	9.3994	7.0496	9.5673	12.4207	11.0779	-0.5035	6.0425	0	6.7139	3.3569	27	248	147	2	1	2
3.3569	3.3569	5.8746	4.1962	6.7139	8.5602	5.0354	9.0637	9.3994	7.0496	9.903	12.7563	10.91	-0.5035	5.7068	0.1678	6.7139	3.5248	27	249	148	2	1	2
3.5248	3.5248	5.7068	4.0283	7.0496	8.728	4.8676	9.2316	9.5673	6.7139	10.2386	12.7563	10.7422	-0.5035	5.3711	0.3357	6.7139	3.6926	27	250	149	2	1	2
3.5248	4.0283	5.8746	3.8605	7.2174	8.728	5.0354	9.5673	9.7351	6.8817	10.7422	12.9242	10.5743	-0.5035	5.2032	0.5035	6.7139	3.8605	27	251	150	2	1	2
3.5248	4.0283	5.7068	3.8605	7.2174	8.3923	4.8676	9.5673	9.5673	6.7139	10.7422	12.7563	10.5743	-0.3357	4.8676	0.6714	6.7139	3.8605	27	252	151	2	1	2
3.5248	4.5319	5.7068	3.8605	7.3853	8.3923	4.8676	9.5673	9.5673	6.546	10.91	12.7563	10.4065	-0.3357	4.8676	1.0071	6.7139	4.364	27	253	152	2	1	2
3.3569	4.5319	5.7068	3.6926	7.2174	8.2245	4.6997	9.3994	9.2316	6.3782	10.91	12.4207	10.0708	-0.1678	4.5319	1.0071	6.546	4.364	27	254	153	2	1	2
3.3569	4.6997	5.5389	3.8605	7.2174	8.2245	4.8676	9.2316	9.0637	6.2103	10.91	12.2528	10.0708	-0.1678	4.1962	1.1749	6.546	4.5319	27	255	154	2	1	2
3.1891	4.6997	5.3711	3.6926	7.0496	7.8888	4.6997	8.8959	8.728	5.8746	10.5743	11.9171	9.7351	-0.1678	3.8605	1.1749	6.3782	4.6997	27	256	155	2	1	2
2.8534	4.6997	5.2032	3.6926	6.7139	7.5531	4.5319	8.3923	8.3923	5.5389	10.2386	11.4136	9.3994	0	3.8605	1.3428	6.0425	4.6997	27	257	156	2	1	2
2.6855	4.8676	4.8676	3.5248	6.546	7.2174	4.5319	8.0566	7.8888	5.3711	9.903	10.91	9.0637	0	3.5248	1.3428	5.8746	4.6997	27	258	157	2	1	2
2.182	4.5319	4.6997	3.3569	6.3782	6.8817	4.364	7.5531	7.5531	5.0354	9.3994	10.4065	8.728	0	3.3569	1.5106	5.5389	4.5319	27	259	158	2	1	2
1.8463	4.5319	4.5319	3.1891	5.8746	6.546	4.0283	6.8817	7.0496	4.5319	8.8959	9.7351	8.3923	-0.1678	2.8534	1.5106	5.2032	4.5319	27	260	159	2	1	2
1.3428	4.364	4.1962	2.8534	5.3711	6.2103	3.8605	6.2103	6.546	4.1962	8.2245	9.0637	7.7209	0	2.8534	1.5106	4.8676	4.364	27	261	160	2	1	2
1.0071	4.1962	3.8605	2.5177	5.0354	5.7068	3.3569	5.3711	5.8746	3.6926	7.3853	8.3923	7.2174	0	2.6855	1.5106	4.5319	4.0283	27	262	161	2	1	2
0.6714	3.6926	3.3569	2.182	4.5319	5.3711	2.8534	4.5319	5.2032	2.8534	6.546	7.5531	6.7139	0	2.5177	1.3428	4.0283	3.6926	27	263	162	2	1	2
0.1678	3.1891	3.0212	1.6785	3.8605	4.8676	2.3499	3.6926	4.5319	2.182	5.5389	6.546	6.2103	0	2.182	1.0071	3.5248	3.3569	27	264	163	2	1	2
-0.3357	2.8534	2.6855	1.3428	3.3569	4.1962	1.8463	2.3499	3.6926	1.6785	4.6997	5.7068	5.5389	0	2.0142	0.8392	3.0212	3.0212	27	265	164	2	1	2
-0.8392	2.182	2.182	0.6714	2.3499	3.8605	1.3428	1.5106	3.1891	1.1749	3.5248	4.8676	5.0354	0.1678	1.8463	0.3357	2.5177	2.5177	27	266	165	2	1	2
-1.5106	1.5106	1.3428	0	1.5106	3.3569	0.6714	0.3357	2.3499	0.5035	2.3499	3.6926	4.5319	0.1678	1.5106	-0.3357	2.0142	1.8463	27	267	166	2	1	2
-1.8463	0.8392	0.8392	-0.5035	0.5035	2.6855	-0.1678	-0.8392	1.6785	-0.1678	1.1749	2.6855	3.8605	0.1678	1.1749	-1.0071	1.5106	1.1749	27	268	167	2	1	2
-2.6855	-0.1678	0.1678	-1.3428	-0.5035	2.182	-0.6714	-1.8463	1.0071	-0.6714	0.1678	1.8463	3.5248	0.3357	1.0071	-1.6785	0.8392	0.8392	27	269	168	2	1	2
-3.3569	-1.0071	-0.5035	-2.182	-1.5106	1.5106	-1.3428	-3.1891	0	-1.5106	-1.0071	0.8392	2.6855	0.5035	0.6714	-2.182	0.3357	0	27	270	169	2	1	2
-3.6926	-1.8463	-1.1749	-2.6855	-2.3499	1.1749	-1.8463	-4.0283	-0.5035	-1.8463	-2.0142	0.1678	2.3499	0.5035	0.6714	-3.0212	0	-0.5035	27	271	170	2	1	2
-4.364	-2.6855	-1.6785	-3.3569	-3.3569	0.5035	-2.5177	-5.0354	-1.0071	-2.3499	-3.1891	-0.6714	2.0142	0.5035	0.3357	-3.8605	-0.3357	-1.1749	27	272	171	2	1	2
-4.8676	-3.3569	-2.182	-3.8605	-4.1962	0.1678	-3.0212	-6.0425	-1.5106	-2.6855	-4.0283	-1.3428	1.6785	0.6714	0.1678	-4.364	-0.6714	-1.8463	27	273	172	2	1	2
-5.3711	-4.0283	-2.5177	-4.1962	-5.0354	-0.1678	-3.1891	-6.7139	-1.6785	-2.8534	-4.8676	-1.6785	1.5106	0.6714	0	-4.8676	-0.8392	-2.182	27	274	173	2	1	2
-5.7068	-4.5319	-2.6855	-4.5319	-5.5389	-0.3357	-3.3569	-7.3853	-1.8463	-2.8534	-5.3711	-2.0142	1.3428	0.5035	0	-5.2032	-0.8392	-2.6855	27	275	174	2	1	2
-5.5389	-5.0354	-2.8534	-4.6997	-6.0425	-0.3357	-3.1891	-7.7209	-1.8463	-2.6855	-5.7068	-2.182	1.5106	0.5035	0	-5.5389	-0.8392	-2.8534	27	276	175	2	1	2
-5.7068	-5.3711	-2.8534	-4.6997	-6.546	-0.1678	-3.1891	-8.2245	-2.0142	-2.6855	-6.2103	-2.3499	1.5106	0.5035	0	-5.5389	-0.8392	-3.1891	27	277	176	2	1	2
-5.3711	-5.7068	-2.6855	-4.364	-6.546	0.1678	-2.6855	-8.2245	-1.6785	-2.182	-6.0425	-2.0142	1.6785	0.3357	0.1678	-5.7068	-0.6714	-3.1891	27	278	177	2	1	2
-5.3711	-5.7068	-2.3499	-4.1962	-6.7139	0.3357	-2.3499	-8.3923	-1.5106	-2.0142	-6.2103	-2.0142	1.8463	0.1678	0.1678	-5.8746	-0.5035	-3.3569	27	279	178	2	1	2
-5.0354	-5.8746	-2.0142	-3.8605	-6.7139	0.6714	-1.8463	-8.3923	-1.1749	-1.5106	-6.2103	-1.8463	2.3499	0	0.1678	-5.8746	-0.3357	-3.3569	27	280	179	2	1	2
-4.5319	-5.7068	-1.5106	-3.1891	-6.546	1.3428	-1.3428	-8.2245	-0.6714	-1.0071	-6.0425	-1.5106	2.6855	-0.1678	0.3357	-5.8746	-0.1678	-3.0212	27	281	180	2	1	2
-3.8605	-5.5389	-1.0071	-2.6855	-6.3782	2.0142	-0.6714	-7.8888	0	-0.3357	-5.7068	-1.1749	3.0212	-0.1678	0.5035	-5.8746	0.3357	-2.8534	27	282	181	2	1	2
-3.3569	-5.5389	-0.5035	-2.0142	-6.2103	2.3499	0.1678	-7.7209	0.3357	0.1678	-5.5389	-0.8392	3.3569	-0.3357	0.5035	-5.7068	0.3357	-2.6855	27	283	182	2	1	2
-2.8534	-5.3711	0	-1.5106	-6.2103	2.8534	0.6714	-7.5531	0.6714	0.5035	-5.5389	-0.6714	3.5248	-0.5035	0.5035	-5.8746	0.5035	-2.6855	27	284	183	2	1	2
-2.182	-5.2032	0.6714	-0.5035	-5.8746	3.3569	1.5106	-7.2174	1.1749	1.0071	-5.0354	-0.1678	3.8605	-0.5035	0.6714	-5.8746	0.8392	-2.5177	27	285	184	2	1	2
-1.3428	-5.0354	1.5106	0.1678	-5.5389	4.0283	2.182	-7.0496	1.6785	1.5106	-4.8676	0.1678	4.1962	-0.5035	0.6714	-5.8746	1.0071	-2.3499	27	286	185	2	1	2
-0.6714	-4.5319	1.8463	0.6714	-5.3711	4.5319	2.8534	-6.546	2.0142	2.0142	-4.5319	0.3357	4.5319	-0.3357	0.8392	-5.8746	1.1749	-2.3499	27	287	186	2	1	2
-0.1678	-4.364	2.6855	1.5106	-5.2032	4.8676	3.6926	-6.546	2.3499	2.3499	-4.5319	0.5035	4.5319	-0.3357	0.8392	-6.2103	1.3428	-2.3499	27	288	187	2	1	2
0.5035	-4.0283	3.0212	2.182	-4.8676	5.2032	4.1962	-6.2103	2.5177	2.8534	-4.1962	0.6714	4.8676	-0.1678	1.0071	-6.2103	1.5106	-2.3499	27	289	188	2	1	2
1.0071	-3.8605	3.5248	3.0212	-4.5319	5.5389	4.8676	-6.0425	2.6855	3.0212	-4.1962	0.6714	5.0354	-0.1678	1.0071	-6.2103	1.5106	-2.5177	27	290	189	2	1	2
1.5106	-3.1891	4.0283	3.5248	-4.1962	5.8746	5.3711	-5.7068	3.0212	3.3569	-3.8605	0.8392	5.3711	0	1.3428	-6.2103	1.8463	-2.182	27	291	190	2	1	2
8.5602	5.3711	8.5602	9.7351	8.728	8.8959	13.7634	7.2174	8.3923	9.903	4.6997	5.5389	11.0779	5.5389	13.9313	1.3428	19.1345	2.6855	27	231	130	3	1	2
9.2316	6.0425	9.2316	10.4065	9.0637	9.5673	14.0991	7.7209	8.5602	10.2386	5.0354	5.8746	11.0779	5.5389	13.7634	1.6785	19.1345	2.8534	27	232	131	3	1	2
9.903	6.546	9.903	10.91	9.7351	10.2386	14.4348	8.2245	9.0637	10.4065	5.3711	5.8746	11.0779	5.5389	13.7634	1.8463	18.7988	2.8534	27	233	132	3	1	2
10.5743	7.2174	10.4065	11.4136	10.2386	10.7422	14.7705	8.728	9.3994	10.7422	5.7068	6.0425	11.2457	5.5389	13.5956	2.182	18.631	2.8534	27	234	133	3	1	2
11.0779	7.7209	11.0779	11.7493	10.5743	11.0779	15.274	8.8959	9.5673	10.7422	5.7068	6.0425	11.0779	5.3711	13.2599	2.182	18.2953	2.8534	27	235	134	3	1	2
11.7493	8.2245	11.5814	12.2528	10.91	11.7493	15.6097	9.3994	9.7351	10.91	6.0425	6.2103	11.0779	5.3711	13.2599	2.3499	17.9596	2.8534	27	236	135	3	1	2
12.2528	8.728	12.085	12.7563	11.4136	12.2528	15.9454	9.5673	10.0708	11.0779	6.2103	6.3782	11.0779	5.3711	13.092	2.5177	17.4561	3.0212	27	237	136	3	1	2
12.2528	9.2316	12.2528	12.7563	11.5814	12.4207	16.1133	9.7351	10.0708	11.0779	6.2103	6.3782	10.91	5.2032	12.7563	2.5177	16.9525	3.0212	27	238	137	3	1	2
12.5885	9.7351	12.5885	12.9242	11.9171	12.9242	16.1133	9.903	10.4065	10.91	6.3782	6.3782	10.91	5.2032	12.5885	2.6855	16.449	3.1891	27	239	138	3	1	2
12.7563	10.0708	12.9242	13.092	12.2528	13.092	16.2811	9.903	10.4065	10.91	6.3782	6.546	10.91	5.2032	12.4207	2.8534	15.9454	3.3569	27	240	139	3	1	2
12.7563	10.2386	12.7563	12.9242	12.2528	13.2599	16.2811	9.903	10.4065	10.7422	6.2103	6.3782	10.7422	5.0354	12.085	2.8534	15.274	3.3569	27	241	140	3	1	2
12.7563	10.7422	13.092	13.092	12.4207	13.5956	16.2811	10.0708	10.5743	10.7422	6.3782	6.546	10.7422	5.0354	12.085	3.0212	14.6027	3.6926	27	242	141	3	1	2
12.7563	11.0779	13.092	12.7563	12.5885	13.5956	16.2811	9.7351	10.5743	10.5743	6.3782	6.546	10.4065	4.8676	11.9171	3.1891	14.0991	3.8605	27	243	142	3	1	2
12.7563	11.4136	13.092	12.5885	12.5885	13.7634	16.1133	9.7351	10.7422	10.5743	6.2103	6.546	10.4065	4.6997	11.7493	3.5248	13.5956	4.1962	27	244	143	3	1	2
12.5885	11.7493	13.092	12.5885	12.7563	13.7634	16.1133	9.5673	10.7422	10.4065	6.2103	6.546	10.4065	4.5319	11.4136	3.6926	13.092	4.5319	27	245	144	3	1	2
12.5885	12.085	13.092	12.4207	12.7563	13.9313	15.9454	9.3994	10.7422	10.2386	6.2103	6.7139	10.4065	4.364	11.2457	4.0283	12.7563	4.6997	27	246	145	3	1	2
12.5885	12.4207	13.092	12.085	12.9242	13.7634	15.9454	9.3994	10.91	10.2386	6.0425	6.7139	10.0708	4.1962	11.0779	4.1962	12.2528	5.0354	27	247	146	3	1	2
12.2528	12.4207	12.7563	11.7493	12.7563	13.5956	15.6097	8.8959	10.5743	9.903	5.7068	6.3782	9.903	3.8605	10.7422	4.5319	11.5814	5.3711	27	248	147	3	1	2
12.2528	12.5885	12.7563	11.4136	12.7563	13.4277	15.4419	8.728	10.5743	9.5673	5.7068	6.3782	9.903	3.6926	10.5743	5.0354	11.2457	5.7068	27	249	148	3	1	2
12.085	12.9242	12.5885	11.2457	12.5885	13.2599	15.274	8.5602	10.5743	9.5673	5.5389	6.3782	9.7351	3.5248	10.4065	5.5389	10.91	6.0425	27	250	149	3	1	2
11.9171	12.7563	12.4207	10.91	12.4207	12.9242	14.9384	7.8888	10.4065	9.2316	5.2032	6.2103	9.5673	3.1891	10.0708	5.5389	10.4065	6.0425	27	251	150	3	1	2
11.9171	12.9242	12.2528	10.5743	12.2528	12.5885	14.7705	7.7209	10.2386	9.0637	4.8676	6.0425	9.3994	3.0212	9.903	5.8746	10.0708	6.0425	27	252	151	3	1	2
11.7493	12.9242	11.7493	10.2386	12.085	12.2528	14.6027	7.3853	10.0708	8.728	4.6997	5.7068	9.2316	2.8534	9.7351	6.2103	9.903	6.2103	27	253	152	3	1	2
11.5814	12.7563	11.4136	9.903	11.7493	11.9171	14.267	6.8817	9.7351	8.3923	4.364	5.5389	8.8959	2.6855	9.3994	6.3782	9.5673	6.2103	27	254	153	3	1	2
11.2457	12.4207	10.91	9.3994	11.2457	11.4136	13.7634	6.3782	9.3994	8.0566	3.8605	5.2032	8.5602	2.5177	9.2316	6.2103	9.3994	6.0425	27	255	154	3	1	2
10.7422	11.9171	10.5743	8.8959	10.5743	11.0779	13.4277	5.8746	8.8959	7.5531	3.5248	4.8676	8.2245	2.3499	8.8959	6.0425	9.0637	5.7068	27	256	155	3	1	2
10.2386	11.4136	9.7351	8.3923	9.903	10.2386	12.7563	5.2032	8.3923	6.8817	2.8534	4.364	7.7209	2.182	8.5602	5.8746	8.8959	5.5389	27	257	156	3	1	2
9.3994	10.5743	8.8959	7.7209	9.2316	9.3994	12.085	4.5319	7.7209	6.2103	2.182	3.6926	7.0496	2.0142	8.2245	5.3711	8.5602	5.0354	27	258	157	3	1	2
8.8959	10.0708	8.3923	7.2174	8.5602	8.728	11.5814	3.8605	7.0496	5.7068	1.6785	3.0212	6.546	2.0142	7.8888	4.8676	8.3923	4.6997	27	259	158	3	1	2
8.2245	9.0637	7.5531	6.546	7.7209	7.8888	10.91	3.1891	6.3782	4.8676	1.0071	2.3499	5.8746	1.8463	7.3853	4.1962	8.0566	4.0283	27	260	159	3	1	2
7.5531	8.2245	6.546	6.0425	6.7139	6.8817	10.0708	2.3499	5.5389	4.0283	0.3357	1.6785	5.2032	1.6785	7.0496	3.6926	8.0566	3.5248	27	261	160	3	1	2
7.0496	7.5531	5.7068	5.7068	6.0425	6.0425	9.5673	1.5106	4.8676	3.5248	-0.3357	1.0071	4.5319	1.5106	6.7139	3.1891	8.0566	3.3569	27	262	161	3	1	2
6.2103	6.7139	4.8676	4.6997	5.2032	5.2032	8.5602	1.0071	4.0283	2.5177	-1.0071	0.1678	3.8605	1.3428	6.3782	2.8534	7.8888	2.8534	27	263	162	3	1	2
5.5389	5.8746	4.0283	4.1962	4.5319	4.1962	7.8888	0.1678	2.8534	1.6785	-1.3428	-0.6714	3.1891	1.1749	5.7068	2.3499	7.7209	2.3499	27	264	163	3	1	2
4.8676	5.2032	3.1891	3.5248	3.8605	3.0212	6.8817	-0.3357	2.182	0.8392	-2.0142	-1.5106	2.182	1.0071	5.0354	1.8463	7.5531	2.0142	27	265	164	3	1	2
4.1962	4.364	2.3499	2.8534	3.3569	2.182	5.8746	-1.0071	1.3428	0	-2.3499	-2.0142	1.3428	0.8392	4.364	1.5106	7.3853	1.6785	27	266	165	3	1	2
3.5248	3.6926	1.3428	2.182	2.5177	0.8392	5.0354	-1.5106	0.3357	-0.8392	-2.8534	-3.0212	0.5035	0.5035	3.5248	1.0071	7.0496	1.3428	27	267	166	3	1	2
2.5177	2.8534	0.3357	1.3428	1.8463	-0.1678	4.0283	-2.0142	-0.6714	-2.0142	-3.5248	-4.0283	-0.3357	0.1678	3.1891	1.0071	6.7139	1.3428	27	268	167	3	1	2
1.6785	2.182	-0.6714	0.3357	1.3428	-1.3428	2.8534	-2.6855	-1.6785	-3.0212	-3.8605	-4.6997	-1.3428	-0.1678	2.182	0.5035	6.3782	0.8392	27	269	168	3	1	2
1.0071	1.6785	-1.5106	-0.3357	0.8392	-2.182	2.0142	-3.1891	-2.5177	-3.6926	-4.364	-5.5389	-2.182	-0.3357	1.5106	0.5035	5.8746	0.6714	27	270	169	3	1	2
0	1.0071	-2.3499	-1.3428	0.3357	-3.3569	0.8392	-3.5248	-3.5248	-4.6997	-4.8676	-6.546	-3.0212	-0.6714	0.6714	0.1678	5.3711	0.3357	27	271	170	3	1	2
-0.8392	0.5035	-3.5248	-2.0142	-0.3357	-4.5319	0	-4.1962	-4.5319	-5.7068	-5.3711	-7.3853	-3.8605	-1.0071	-0.1678	-0.1678	4.364	0.1678	27	272	171	3	1	2
-1.6785	0	-4.1962	-2.8534	-0.8392	-5.2032	-0.8392	-4.5319	-5.3711	-6.546	-5.5389	-7.8888	-4.6997	-1.1749	-0.8392	-0.3357	3.6926	0	27	273	172	3	1	2
-2.5177	-0.1678	-5.0354	-3.5248	-1.0071	-6.2103	-1.5106	-4.8676	-6.2103	-7.2174	-6.0425	-8.5602	-5.3711	-1.3428	-1.5106	-0.5035	2.8534	-0.1678	27	274	173	3	1	2
-3.1891	-0.5035	-5.8746	-4.364	-1.3428	-6.8817	-2.182	-5.0354	-6.8817	-7.8888	-6.3782	-9.2316	-6.0425	-1.5106	-2.0142	-0.5035	2.0142	-0.3357	27	275	174	3	1	2
-3.8605	-0.6714	-6.546	-5.0354	-1.6785	-7.7209	-2.8534	-5.3711	-7.5531	-8.5602	-6.546	-9.903	-6.7139	-1.6785	-2.6855	-0.8392	1.1749	-0.5035	27	276	175	3	1	2
-4.5319	-0.8392	-7.0496	-5.5389	-2.0142	-8.3923	-3.3569	-5.5389	-8.2245	-9.0637	-6.8817	-10.4065	-7.2174	-1.8463	-3.1891	-1.0071	0.5035	-0.6714	27	277	176	3	1	2
-5.0354	-0.6714	-7.5531	-5.8746	-2.0142	-8.728	-3.6926	-5.5389	-8.728	-9.3994	-7.0496	-10.91	-7.7209	-1.8463	-3.3569	-1.0071	-0.1678	-0.8392	27	278	177	3	1	2
-5.3711	-0.5035	-7.7209	-6.2103	-2.0142	-9.0637	-3.8605	-5.5389	-9.0637	-9.7351	-7.2174	-11.2457	-7.8888	-1.8463	-3.5248	-1.1749	-0.6714	-0.8392	27	279	178	3	1	2
-5.5389	-0.3357	-7.8888	-6.2103	-2.0142	-9.2316	-4.0283	-5.3711	-9.2316	-10.0708	-7.2174	-11.2457	-8.0566	-1.6785	-3.5248	-1.0071	-1.0071	-0.6714	27	280	179	3	1	2
-5.7068	0.1678	-8.0566	-6.3782	-1.8463	-9.5673	-4.0283	-5.3711	-9.3994	-10.0708	-7.3853	-11.5814	-8.2245	-1.5106	-3.3569	-1.0071	-1.3428	-0.6714	27	281	180	3	1	2
-5.8746	0.3357	-8.0566	-6.546	-1.6785	-9.5673	-4.0283	-5.3711	-9.5673	-10.2386	-7.3853	-11.7493	-8.2245	-1.3428	-3.3569	-1.0071	-1.6785	-0.6714	27	282	181	3	1	2
-5.8746	0.6714	-7.8888	-6.546	-1.5106	-9.5673	-4.0283	-5.2032	-9.5673	-10.0708	-7.3853	-11.9171	-8.2245	-1.0071	-3.1891	-0.8392	-1.8463	-0.6714	27	283	182	3	1	2
-5.8746	0.8392	-7.8888	-6.546	-1.5106	-9.5673	-4.1962	-5.3711	-9.7351	-10.2386	-7.7209	-12.2528	-8.5602	-0.8392	-3.1891	-0.8392	-2.182	-0.6714	27	284	183	3	1	2
-5.8746	1.1749	-7.8888	-6.546	-1.5106	-9.5673	-4.0283	-5.5389	-10.0708	-10.2386	-7.7209	-12.4207	-8.728	-0.5035	-2.8534	-0.6714	-2.182	-0.5035	27	285	184	3	1	2
-5.8746	1.1749	-7.8888	-6.7139	-1.6785	-9.7351	-4.1962	-5.8746	-10.2386	-10.4065	-8.2245	-12.7563	-8.8959	-0.3357	-2.8534	-0.6714	-2.3499	-0.6714	27	286	185	3	1	2
-5.8746	1.3428	-7.7209	-6.7139	-1.6785	-9.5673	-4.1962	-6.0425	-10.4065	-10.4065	-8.3923	-12.9242	-8.8959	0	-2.6855	-0.5035	-2.3499	-0.5035	27	287	186	3	1	2
-6.0425	1.1749	-7.8888	-6.8817	-2.0142	-9.7351	-4.364	-6.3782	-10.7422	-10.5743	-8.728	-13.4277	-9.0637	0.1678	-2.6855	-0.5035	-2.3499	-0.6714	27	288	187	3	1	2
-6.0425	1.1749	-7.8888	-6.8817	-2.182	-9.7351	-4.364	-6.7139	-10.7422	-10.5743	-9.0637	-13.5956	-9.2316	0.5035	-2.3499	-0.3357	-2.182	-0.5035	27	289	188	3	1	2
-6.2103	0.8392	-8.0566	-7.0496	-2.5177	-9.7351	-4.6997	-7.2174	-11.0779	-10.7422	-9.5673	-14.0991	-9.3994	0.6714	-2.3499	-0.3357	-2.0142	-0.5035	27	290	189	3	1	2
-6.546	0.5035	-8.0566	-7.2174	-2.6855	-9.903	-4.8676	-7.5531	-11.2457	-10.91	-9.903	-14.4348	-9.5673	0.8392	-2.182	-0.3357	-2.0142	-0.6714	27	291	190	3	1	2
2.8534	3.5248	3.6926	-1.0071	5.7068	3.8605	1.1749	7.7209	6.546	1.5106	8.728	8.728	3.0212	3.3569	7.5531	4.6997	0.8392	5.0354	27	231	130	4	1	2
3.0212	3.6926	4.1962	-0.6714	6.2103	4.5319	1.8463	8.2245	7.2174	2.5177	9.2316	9.3994	3.8605	3.5248	8.0566	4.6997	1.3428	5.0354	27	232	131	4	1	2
3.3569	3.8605	4.8676	-0.1678	6.546	5.0354	2.3499	8.5602	7.8888	3.3569	9.5673	10.2386	4.5319	3.6926	8.3923	4.364	1.6785	4.8676	27	233	132	4	1	2
3.8605	4.364	5.3711	0.5035	7.0496	5.7068	3.1891	8.8959	8.728	4.364	9.903	10.91	5.5389	3.6926	9.0637	4.1962	2.182	4.8676	27	234	133	4	1	2
3.8605	4.364	5.8746	0.8392	7.3853	6.3782	3.6926	9.0637	9.2316	5.3711	10.0708	11.7493	6.2103	3.6926	9.5673	3.6926	2.8534	4.6997	27	235	134	4	1	2
4.1962	4.6997	6.3782	1.3428	7.7209	6.8817	4.364	9.3994	10.0708	6.0425	10.2386	12.2528	7.0496	3.6926	10.0708	3.5248	3.3569	4.5319	27	236	135	4	1	2
4.364	4.8676	6.8817	1.6785	8.0566	7.3853	4.8676	9.5673	10.4065	6.8817	10.4065	12.9242	7.7209	3.6926	10.4065	3.0212	3.6926	4.364	27	237	136	4	1	2
4.6997	5.3711	7.3853	2.3499	8.3923	8.2245	5.3711	10.0708	11.2457	7.7209	10.7422	13.5956	8.3923	3.5248	10.7422	3.0212	4.364	4.364	27	238	137	4	1	2
4.8676	5.7068	7.8888	2.8534	8.8959	8.728	6.0425	10.2386	11.7493	8.5602	10.7422	14.267	9.2316	3.5248	11.0779	2.8534	4.8676	4.1962	27	239	138	4	1	2
5.3711	6.3782	8.5602	3.3569	9.3994	9.3994	6.546	10.5743	12.4207	9.3994	11.2457	15.1062	10.0708	3.5248	11.5814	3.0212	5.5389	4.364	27	240	139	4	1	2
5.7068	6.8817	9.2316	4.0283	10.0708	10.2386	7.0496	11.0779	13.2599	10.2386	11.4136	15.6097	10.7422	3.5248	11.9171	3.0212	6.0425	4.364	27	241	140	4	1	2
6.0425	7.5531	10.0708	4.5319	10.5743	11.0779	7.7209	11.4136	13.7634	10.91	11.7493	16.2811	11.5814	3.3569	12.085	3.1891	6.546	4.5319	27	242	141	4	1	2
6.3782	7.8888	10.4065	4.8676	10.7422	11.4136	7.8888	11.5814	14.267	11.4136	11.5814	16.6168	12.085	3.3569	12.2528	3.1891	6.8817	4.5319	27	243	142	4	1	2
6.7139	8.3923	11.0779	5.2032	11.0779	12.085	8.2245	11.7493	14.6027	11.9171	11.9171	17.1204	12.5885	3.3569	12.5885	3.3569	7.0496	4.6997	27	244	143	4	1	2
7.0496	8.8959	11.7493	5.7068	11.5814	12.5885	8.3923	12.085	15.1062	12.4207	12.085	17.6239	13.2599	3.1891	12.7563	3.3569	7.3853	4.8676	27	245	144	4	1	2
7.3853	9.2316	11.9171	5.7068	11.7493	12.9242	8.5602	12.085	15.274	12.7563	11.9171	17.6239	13.5956	3.1891	12.5885	3.3569	7.3853	4.8676	27	246	145	4	1	2
7.7209	9.7351	12.2528	5.8746	12.085	13.4277	8.728	12.085	15.6097	13.092	11.9171	17.7917	13.9313	3.0212	12.7563	3.5248	7.3853	4.8676	27	247	146	4	1	2
7.8888	9.903	12.5885	6.0425	11.9171	13.4277	8.5602	11.9171	15.6097	13.092	11.7493	17.7917	13.9313	3.0212	12.5885	3.5248	7.2174	4.8676	27	248	147	4	1	2
8.0566	10.2386	12.7563	6.0425	12.085	13.5956	8.5602	11.9171	15.6097	13.2599	11.5814	17.7917	14.0991	2.8534	12.5885	3.8605	7.2174	4.8676	27	249	148	4	1	2
8.0566	10.4065	12.5885	5.8746	11.9171	13.5956	8.2245	11.7493	15.4419	13.092	11.2457	17.4561	14.0991	2.6855	12.2528	3.6926	7.0496	4.8676	27	250	149	4	1	2
7.8888	10.2386	12.4207	5.5389	11.7493	13.4277	7.8888	11.2457	14.9384	12.7563	10.91	17.2882	13.7634	2.6855	11.9171	3.6926	6.546	4.6997	27	251	150	4	1	2
7.8888	10.2386	12.2528	5.3711	11.5814	13.2599	7.5531	10.91	14.7705	12.5885	10.4065	16.7847	13.4277	2.5177	11.9171	3.6926	6.2103	4.5319	27	252	151	4	1	2
7.3853	9.7351	11.7493	4.6997	10.91	12.5885	6.8817	10.2386	13.9313	11.9171	9.7351	16.1133	12.9242	2.3499	11.2457	3.1891	5.5389	4.0283	27	253	152	4	1	2
7.0496	9.3994	11.4136	4.364	10.5743	12.2528	6.3782	9.7351	13.2599	11.4136	9.0637	15.4419	12.4207	2.182	10.91	3.0212	4.8676	3.6926	27	254	153	4	1	2
6.7139	8.8959	10.91	3.8605	9.903	11.7493	5.7068	9.0637	12.5885	10.7422	8.3923	14.6027	11.7493	2.0142	10.5743	2.5177	4.1962	3.1891	27	255	154	4	1	2
6.0425	8.3923	10.0708	3.3569	9.2316	11.0779	5.0354	8.2245	11.7493	9.903	7.5531	13.5956	10.7422	2.0142	10.0708	2.0142	3.3569	2.6855	27	256	155	4	1	2
5.5389	7.5531	9.3994	2.6855	8.5602	10.4065	4.364	7.5531	10.91	9.0637	6.546	12.4207	9.903	1.8463	9.3994	1.5106	2.5177	1.8463	27	257	156	4	1	2
5.2032	7.0496	8.8959	2.3499	8.0566	9.903	3.6926	7.0496	10.0708	8.3923	5.8746	11.5814	9.0637	1.6785	8.8959	1.0071	1.8463	1.3428	27	258	157	4	1	2
4.5319	6.2103	8.0566	1.8463	7.2174	9.0637	3.0212	6.0425	9.0637	7.3853	4.6997	10.4065	8.0566	1.5106	8.3923	0.5035	1.0071	0.6714	27	259	158	4	1	2
3.8605	5.5389	7.5531	1.3428	6.546	8.3923	2.5177	5.3711	8.2245	6.546	3.8605	9.2316	6.8817	1.3428	7.7209	0	0.1678	0	27	260	159	4	1	2
3.5248	5.0354	6.8817	1.3428	6.0425	8.2245	2.0142	4.8676	7.5531	5.8746	3.1891	8.5602	6.0425	1.1749	7.3853	0	-0.5035	-0.3357	27	261	160	4	1	2
3.1891	4.364	6.546	0.8392	5.5389	7.5531	1.5106	4.1962	6.7139	5.0354	2.3499	7.3853	5.0354	1.0071	6.7139	-0.3357	-1.1749	-0.5035	27	262	161	4	1	2
2.8534	3.6926	5.8746	0.6714	4.8676	7.0496	1.0071	3.6926	6.0425	4.1962	1.5106	6.3782	4.1962	0.8392	6.2103	-0.6714	-1.6785	-0.8392	27	263	162	4	1	2
2.3499	3.0212	5.3711	0.5035	4.1962	6.546	0.5035	3.0212	5.2032	3.3569	0.8392	5.5389	3.1891	0.6714	5.7068	-0.8392	-2.182	-1.1749	27	264	163	4	1	2
1.8463	2.5177	5.0354	0	3.5248	6.0425	-0.1678	2.3499	4.5319	2.6855	0	4.5319	2.182	0.5035	5.0354	-1.1749	-2.6855	-1.5106	27	265	164	4	1	2
1.6785	2.0142	4.6997	0	3.0212	5.7068	-0.3357	1.8463	3.8605	2.0142	-0.3357	3.8605	1.5106	0.5035	4.6997	-1.1749	-3.0212	-1.5106	27	266	165	4	1	2
1.1749	1.5106	4.1962	-0.3357	2.182	5.2032	-0.8392	1.3428	3.0212	1.1749	-1.0071	2.8534	0.5035	0.3357	4.1962	-1.3428	-3.3569	-1.6785	27	267	166	4	1	2
1.0071	1.0071	4.0283	-0.5035	1.6785	4.8676	-1.1749	1.0071	2.5177	0.3357	-1.5106	2.182	-0.1678	0.3357	3.8605	-1.6785	-3.5248	-1.6785	27	268	167	4	1	2
0.6714	0.6714	3.6926	-0.6714	1.3428	4.364	-1.6785	0.3357	1.6785	-0.3357	-2.0142	1.3428	-1.0071	0.3357	3.5248	-1.6785	-3.6926	-1.5106	27	269	168	4	1	2
0.1678	0.1678	3.3569	-0.8392	0.6714	4.0283	-1.8463	0	1.0071	-1.0071	-2.3499	0.5035	-1.6785	0.3357	3.1891	-1.6785	-3.8605	-1.5106	27	270	169	4	1	2
0	0	3.3569	-0.6714	0.1678	3.6926	-2.0142	-0.1678	0.5035	-1.5106	-2.6855	0	-2.3499	0.5035	2.6855	-1.8463	-3.8605	-1.1749	27	271	170	4	1	2
-0.3357	-0.5035	2.8534	-0.8392	-0.3357	3.1891	-2.3499	-0.8392	-0.3357	-2.3499	-3.1891	-0.8392	-3.0212	0.5035	2.3499	-1.8463	-4.0283	-1.3428	27	272	171	4	1	2
-0.3357	-1.0071	2.6855	-1.0071	-0.8392	2.8534	-2.5177	-1.1749	-0.8392	-2.8534	-3.3569	-1.5106	-3.5248	0.6714	2.182	-1.8463	-4.0283	-1.1749	27	273	172	4	1	2
-0.6714	-1.6785	2.182	-1.3428	-1.3428	2.3499	-2.8534	-1.8463	-1.6785	-3.6926	-3.8605	-2.182	-4.364	0.6714	1.8463	-2.182	-4.1962	-1.1749	27	274	173	4	1	2
-1.0071	-2.182	1.8463	-1.5106	-2.182	1.8463	-3.0212	-2.3499	-2.3499	-4.364	-4.364	-3.0212	-5.0354	0.6714	1.5106	-2.3499	-4.364	-1.3428	27	275	174	4	1	2
-1.1749	-2.6855	1.6785	-1.5106	-2.6855	1.5106	-3.1891	-2.8534	-3.0212	-4.8676	-4.5319	-3.5248	-5.5389	0.8392	1.3428	-2.5177	-4.5319	-1.1749	27	276	175	4	1	2
-1.5106	-3.1891	1.1749	-1.8463	-3.1891	1.0071	-3.3569	-3.1891	-3.6926	-5.7068	-4.8676	-4.1962	-6.0425	0.8392	0.8392	-2.6855	-4.6997	-1.0071	27	277	176	4	1	2
-1.6785	-3.8605	0.8392	-2.0142	-3.8605	0.6714	-3.6926	-3.6926	-4.364	-6.0425	-5.0354	-5.0354	-6.7139	0.8392	0.5035	-2.8534	-4.8676	-1.0071	27	278	177	4	1	2
-1.8463	-4.364	0.5035	-2.3499	-4.364	0.1678	-3.6926	-4.364	-5.0354	-6.546	-5.5389	-5.5389	-7.0496	0.8392	0.3357	-3.1891	-4.8676	-1.1749	27	279	178	4	1	2
-2.0142	-4.8676	0.1678	-2.3499	-5.0354	-0.1678	-3.6926	-4.6997	-5.5389	-6.8817	-5.7068	-6.0425	-7.3853	0.8392	0.1678	-3.3569	-5.0354	-1.1749	27	280	179	4	1	2
-1.8463	-5.2032	0.1678	-2.3499	-5.3711	-0.3357	-3.3569	-5.0354	-5.8746	-7.2174	-5.8746	-6.3782	-7.5531	1.0071	0.3357	-3.3569	-4.8676	-1.1749	27	281	180	4	1	2
-1.8463	-5.5389	0	-2.3499	-5.7068	-0.6714	-3.3569	-5.3711	-6.3782	-7.3853	-6.0425	-6.7139	-7.7209	1.0071	0.1678	-3.3569	-4.8676	-1.1749	27	282	181	4	1	2
-1.8463	-5.8746	-0.1678	-2.3499	-6.0425	-1.0071	-3.1891	-5.5389	-6.7139	-7.2174	-6.2103	-7.0496	-7.8888	1.1749	0.3357	-3.5248	-4.8676	-1.1749	27	283	182	4	1	2
-1.5106	-6.0425	0	-2.182	-5.8746	-1.1749	-2.8534	-5.7068	-6.8817	-7.2174	-6.0425	-7.2174	-7.7209	1.1749	0.5035	-3.5248	-4.5319	-1.1749	27	284	183	4	1	2
-1.3428	-6.0425	0	-2.182	-5.8746	-1.1749	-2.5177	-5.7068	-7.0496	-7.0496	-5.8746	-7.2174	-7.5531	1.3428	0.6714	-3.3569	-4.364	-1.0071	27	285	184	4	1	2
-1.1749	-6.2103	-0.3357	-2.182	-6.0425	-1.1749	-2.5177	-5.7068	-7.2174	-6.8817	-5.8746	-7.5531	-7.5531	1.5106	0.8392	-3.3569	-4.364	-1.0071	27	286	185	4	1	2
-1.0071	-6.2103	-0.1678	-2.0142	-5.8746	-1.1749	-2.0142	-5.7068	-7.2174	-6.7139	-5.7068	-7.3853	-7.2174	1.6785	1.0071	-3.3569	-4.1962	-1.0071	27	287	186	4	1	2
-1.0071	-6.0425	-0.1678	-2.0142	-5.7068	-1.1749	-1.6785	-5.5389	-7.2174	-6.3782	-5.3711	-7.2174	-6.8817	1.8463	1.3428	-3.3569	-4.0283	-0.8392	27	288	187	4	1	2
-0.8392	-5.8746	0.1678	-1.6785	-5.5389	-1.1749	-1.1749	-5.2032	-7.0496	-5.7068	-5.0354	-7.0496	-6.546	2.0142	1.6785	-3.1891	-3.8605	-0.6714	27	289	188	4	1	2
-0.6714	-5.7068	0.1678	-1.5106	-5.2032	-1.0071	-0.8392	-4.8676	-6.8817	-5.2032	-4.5319	-6.7139	-6.0425	2.0142	2.0142	-3.0212	-3.5248	-0.5035	27	290	189	4	1	2
-0.6714	-5.5389	0.1678	-1.5106	-4.8676	-0.6714	-0.5035	-4.6997	-6.7139	-4.6997	-4.1962	-6.546	-5.7068	2.182	2.3499	-3.0212	-3.3569	-0.3357	27	291	190	4	1	2
-3.6926	-5.3711	-0.8392	-5.3711	-2.182	3.3569	-3.1891	0.1678	2.0142	0	2.8534	4.364	3.8605	2.8534	7.8888	-2.3499	3.1891	0.1678	27	231	130	5	1	2
-3.3569	-5.3711	-0.8392	-5.3711	-1.8463	3.5248	-3.0212	0.3357	2.3499	0.1678	3.1891	4.6997	3.8605	2.8534	7.8888	-2.182	3.1891	0.3357	27	232	131	5	1	2
-3.1891	-5.2032	-0.6714	-5.2032	-1.6785	3.5248	-2.8534	0.6714	2.6855	0.3357	3.5248	5.2032	4.1962	2.8534	8.0566	-1.8463	3.0212	0.6714	27	233	132	5	1	2
-3.0212	-5.0354	-0.5035	-5.2032	-1.3428	3.5248	-2.6855	1.1749	3.1891	0.5035	4.0283	5.7068	4.364	2.8534	8.2245	-1.3428	3.0212	1.0071	27	234	133	5	1	2
-2.8534	-5.0354	-0.3357	-5.0354	-1.0071	3.8605	-2.3499	1.5106	3.6926	0.8392	4.6997	6.3782	4.6997	2.8534	8.5602	-1.0071	3.0212	1.5106	27	235	134	5	1	2
-2.8534	-4.8676	-0.1678	-4.8676	-0.6714	4.0283	-2.182	2.0142	4.1962	1.0071	5.2032	6.8817	5.0354	2.6855	8.728	-0.5035	3.0212	1.8463	27	236	135	5	1	2
-2.5177	-4.5319	0	-4.5319	-0.3357	4.364	-1.8463	2.5177	4.6997	1.3428	5.8746	7.5531	5.5389	2.6855	9.0637	0.1678	3.3569	2.3499	27	237	136	5	1	2
-2.3499	-4.1962	0.1678	-4.364	0.1678	4.6997	-1.6785	3.0212	5.2032	1.6785	6.546	8.2245	5.8746	2.5177	9.3994	0.8392	3.5248	2.8534	27	238	137	5	1	2
-2.0142	-3.8605	0.6714	-3.8605	0.8392	5.2032	-1.3428	3.6926	6.0425	2.3499	7.3853	9.0637	6.3782	2.5177	9.903	1.6785	4.0283	3.3569	27	239	138	5	1	2
-1.6785	-3.1891	1.1749	-3.5248	1.5106	5.8746	-1.0071	4.364	6.8817	2.8534	8.0566	9.7351	7.0496	2.3499	10.2386	2.3499	4.364	3.8605	27	240	139	5	1	2
-1.1749	-2.5177	1.6785	-3.0212	2.182	6.2103	-0.5035	5.0354	7.5531	3.5248	8.728	10.5743	7.5531	2.182	10.5743	3.0212	4.8676	4.364	27	241	140	5	1	2
-0.6714	-1.6785	2.182	-2.3499	3.0212	7.0496	0.1678	5.7068	8.3923	4.1962	9.2316	11.0779	8.2245	2.0142	10.91	3.6926	5.5389	4.6997	27	242	141	5	1	2
0	-1.0071	3.0212	-1.6785	3.6926	7.7209	0.8392	6.2103	9.3994	4.6997	9.7351	11.7493	8.8959	1.8463	11.4136	4.1962	6.2103	5.2032	27	243	142	5	1	2
0.8392	0	4.0283	-0.6714	4.5319	8.728	1.6785	6.8817	10.4065	5.7068	10.4065	12.5885	9.903	1.8463	11.9171	4.8676	7.2174	5.7068	27	244	143	5	1	2
1.5106	1.0071	5.0354	0	5.3711	9.7351	2.5177	7.2174	11.0779	6.546	10.91	13.2599	10.5743	1.6785	12.4207	5.2032	7.8888	5.8746	27	245	144	5	1	2
2.3499	1.8463	5.8746	1.0071	6.0425	10.4065	3.1891	7.7209	11.9171	7.5531	11.2457	13.9313	11.4136	1.5106	12.5885	5.5389	8.728	6.2103	27	246	145	5	1	2
3.3569	3.0212	7.0496	2.0142	6.7139	11.5814	4.1962	8.2245	12.7563	8.5602	11.7493	14.6027	12.2528	1.5106	13.092	6.0425	9.3994	6.546	27	247	146	5	1	2
4.1962	3.8605	7.8888	3.0212	7.3853	12.4207	5.2032	8.5602	13.4277	9.3994	11.7493	14.9384	12.9242	1.3428	13.5956	6.0425	10.0708	6.3782	27	248	147	5	1	2
5.2032	4.8676	9.0637	4.0283	7.8888	13.2599	6.2103	8.728	14.0991	10.4065	12.085	15.4419	13.7634	1.3428	14.0991	6.2103	10.7422	6.7139	27	249	148	5	1	2
6.2103	5.7068	10.0708	5.0354	8.2245	14.0991	7.0496	8.728	14.6027	11.2457	12.085	15.7776	14.4348	1.1749	14.267	6.3782	11.0779	6.7139	27	250	149	5	1	2
7.2174	6.546	11.0779	5.8746	8.5602	14.7705	7.8888	8.728	15.1062	12.2528	12.2528	16.1133	15.1062	1.1749	14.7705	6.3782	11.4136	6.8817	27	251	150	5	1	2
7.8888	7.2174	11.9171	6.7139	8.8959	15.4419	8.728	8.728	15.274	12.7563	11.9171	15.9454	15.6097	1.0071	14.9384	6.2103	11.4136	6.7139	27	252	151	5	1	2
8.728	8.0566	12.7563	7.5531	9.0637	16.1133	9.5673	8.728	15.6097	13.5956	11.9171	16.1133	15.9454	1.0071	15.1062	6.2103	11.2457	6.8817	27	253	152	5	1	2
9.2316	8.3923	13.5956	8.3923	9.2316	16.2811	10.2386	8.5602	15.7776	14.0991	11.7493	16.1133	16.1133	0.8392	14.7705	6.0425	10.7422	6.8817	27	254	153	5	1	2
10.0708	9.0637	14.267	9.2316	9.3994	16.7847	10.7422	8.728	15.9454	14.7705	11.7493	16.1133	16.449	0.8392	14.9384	6.0425	10.4065	7.0496	27	255	154	5	1	2
10.5743	9.5673	14.7705	9.7351	9.5673	16.9525	11.2457	8.3923	15.9454	15.1062	11.5814	15.9454	16.6168	0.6714	14.7705	5.8746	9.7351	7.0496	27	256	155	5	1	2
11.0779	9.903	15.274	10.2386	9.5673	17.1204	11.7493	8.3923	15.7776	15.4419	11.5814	15.7776	16.7847	0.5035	14.6027	5.8746	9.0637	7.0496	27	257	156	5	1	2
11.4136	10.0708	15.7776	10.5743	9.5673	17.1204	12.2528	8.3923	15.4419	15.6097	11.4136	15.4419	16.7847	0.3357	14.4348	5.7068	8.2245	7.2174	27	258	157	5	1	2
11.5814	10.2386	15.9454	10.5743	9.5673	17.1204	12.2528	8.2245	15.1062	15.6097	11.2457	14.9384	16.6168	0	14.267	5.5389	7.3853	7.2174	27	259	158	5	1	2
11.9171	10.2386	16.1133	10.7422	9.3994	16.9525	12.2528	8.2245	14.6027	15.6097	11.0779	14.7705	16.7847	-0.1678	14.0991	5.5389	6.7139	7.3853	27	260	159	5	1	2
12.085	10.2386	16.1133	10.7422	9.3994	16.6168	12.2528	8.2245	14.267	15.7776	11.2457	14.4348	16.6168	-0.3357	13.7634	5.7068	6.0425	7.7209	27	261	160	5	1	2
12.085	10.4065	16.1133	10.5743	9.3994	16.449	12.2528	8.3923	13.9313	15.6097	11.2457	14.0991	16.449	-0.5035	13.5956	5.7068	5.3711	8.0566	27	262	161	5	1	2
11.9171	10.0708	15.7776	9.903	9.0637	15.7776	11.7493	8.2245	13.092	15.1062	11.2457	13.4277	16.1133	-0.8392	13.2599	5.5389	4.6997	8.0566	27	263	162	5	1	2
11.7493	9.7351	15.4419	9.5673	9.0637	15.4419	11.5814	8.3923	12.5885	14.9384	11.4136	13.092	15.7776	-1.0071	12.9242	5.8746	4.1962	8.3923	27	264	163	5	1	2
11.2457	9.2316	14.9384	8.8959	8.8959	14.7705	10.7422	8.2245	11.7493	14.4348	11.2457	12.4207	15.4419	-1.3428	12.5885	5.7068	3.5248	8.728	27	265	164	5	1	2
10.7422	8.728	14.267	8.2245	8.3923	13.7634	10.2386	8.2245	11.0779	13.7634	11.0779	11.7493	14.9384	-1.6785	12.2528	5.5389	2.8534	8.8959	27	266	165	5	1	2
10.2386	8.3923	13.7634	7.5531	8.3923	13.2599	9.3994	8.2245	10.2386	13.4277	11.4136	11.4136	14.4348	-2.0142	12.085	5.8746	2.3499	9.2316	27	267	166	5	1	2
9.3994	7.7209	12.9242	6.3782	8.0566	12.2528	8.728	8.2245	9.3994	12.7563	11.2457	10.5743	13.9313	-2.3499	11.5814	5.7068	1.8463	9.5673	27	268	167	5	1	2
8.728	6.8817	12.085	5.5389	7.5531	11.4136	7.7209	8.0566	8.5602	12.085	11.0779	9.903	13.4277	-2.5177	11.0779	5.7068	1.3428	9.7351	27	269	168	5	1	2
7.8888	6.3782	11.0779	4.6997	7.3853	10.7422	7.0496	8.2245	7.7209	11.5814	11.4136	9.3994	12.9242	-2.8534	10.91	5.8746	1.1749	9.903	27	270	169	5	1	2
7.2174	5.7068	10.4065	4.1962	7.0496	10.0708	6.3782	8.3923	7.0496	11.0779	11.4136	8.8959	12.4207	-3.0212	10.5743	6.0425	1.0071	10.2386	27	271	170	5	1	2
6.3782	5.2032	9.5673	3.3569	6.8817	9.3994	5.5389	8.3923	6.3782	10.4065	11.4136	8.2245	12.085	-3.1891	10.5743	6.2103	0.8392	10.7422	27	272	171	5	1	2
5.7068	4.364	8.8959	2.8534	6.7139	8.5602	4.8676	8.5602	5.5389	9.903	11.4136	7.7209	11.5814	-3.3569	10.4065	6.2103	0.6714	10.91	27	273	172	5	1	2
4.8676	3.6926	8.0566	2.182	6.3782	7.8888	4.0283	8.5602	4.8676	9.5673	11.2457	7.0496	11.0779	-3.3569	10.0708	6.2103	0.6714	10.91	27	274	173	5	1	2
4.1962	3.1891	7.3853	1.6785	6.0425	7.3853	3.5248	8.5602	4.364	9.0637	11.2457	6.7139	10.7422	-3.5248	9.903	6.2103	0.6714	11.0779	27	275	174	5	1	2
3.3569	2.6855	6.7139	1.1749	5.8746	6.8817	2.8534	8.728	3.8605	8.728	11.2457	6.2103	10.4065	-3.5248	9.7351	6.2103	0.6714	11.2457	27	276	175	5	1	2
2.6855	2.0142	6.0425	0.6714	5.5389	6.3782	2.182	8.728	3.3569	8.2245	11.2457	5.8746	9.903	-3.5248	9.5673	6.2103	0.6714	11.2457	27	277	176	5	1	2
2.182	1.3428	5.3711	0	5.2032	6.0425	1.5106	8.728	2.8534	7.7209	11.0779	5.3711	9.3994	-3.3569	9.3994	6.0425	0.6714	11.2457	27	278	177	5	1	2
1.5106	0.6714	5.0354	-0.1678	5.0354	5.7068	1.1749	8.5602	2.6855	7.5531	11.0779	5.2032	9.2316	-3.3569	9.3994	6.0425	0.8392	11.2457	27	279	178	5	1	2
1.0071	0	4.5319	-0.5035	4.6997	5.5389	0.8392	8.5602	2.3499	7.2174	10.91	4.8676	8.8959	-3.1891	9.3994	5.8746	1.0071	11.2457	27	280	179	5	1	2
0.5035	-0.5035	4.1962	-0.8392	4.364	5.2032	0.5035	8.3923	2.182	6.7139	10.7422	4.5319	8.5602	-3.0212	9.3994	5.7068	1.1749	11.0779	27	281	180	5	1	2
-0.1678	-1.1749	3.5248	-1.3428	3.8605	5.0354	-0.1678	8.0566	1.8463	6.3782	10.4065	4.364	8.2245	-2.6855	9.2316	5.3711	1.3428	10.91	27	282	181	5	1	2
-0.8392	-2.0142	3.0212	-1.8463	3.1891	4.6997	-0.5035	7.7209	1.5106	6.0425	10.0708	3.8605	7.7209	-2.5177	9.0637	4.8676	1.5106	10.5743	27	283	182	5	1	2
-1.5106	-2.6855	2.5177	-2.0142	2.6855	4.1962	-0.8392	7.3853	1.3428	5.7068	9.903	3.6926	7.5531	-2.182	9.2316	4.6997	1.8463	10.2386	27	284	183	5	1	2
-2.182	-3.5248	2.0142	-2.5177	2.182	4.0283	-1.1749	6.8817	0.8392	5.3711	9.3994	3.3569	7.3853	-2.0142	9.3994	4.364	2.182	10.0708	27	285	184	5	1	2
-3.1891	-4.364	1.1749	-3.1891	1.1749	3.5248	-1.8463	6.2103	0.5035	4.6997	8.728	2.8534	7.0496	-1.6785	9.3994	3.8605	2.182	9.5673	27	286	185	5	1	2
-3.8605	-5.2032	0.6714	-3.6926	0.5035	3.1891	-2.182	5.7068	0.1678	4.5319	8.3923	2.6855	6.8817	-1.3428	9.5673	3.1891	2.5177	9.2316	27	287	186	5	1	2
-4.6997	-6.0425	0	-4.0283	-0.3357	2.8534	-2.6855	4.8676	-0.1678	4.1962	7.8888	2.5177	6.7139	-1.0071	9.903	2.8534	2.8534	8.8959	27	288	187	5	1	2
-5.3711	-6.546	-0.6714	-4.6997	-0.8392	2.3499	-3.0212	4.364	-0.5035	3.6926	7.3853	2.182	6.546	-0.6714	10.0708	2.3499	3.1891	8.5602	27	289	188	5	1	2
-6.2103	-7.5531	-1.3428	-5.3711	-1.8463	1.8463	-3.5248	3.6926	-0.8392	3.0212	6.8817	1.8463	6.3782	-0.5035	10.2386	1.6785	3.3569	8.0566	27	290	189	5	1	2
-6.8817	-8.2245	-1.8463	-5.8746	-2.3499	1.5106	-4.0283	3.1891	-1.1749	2.6855	6.546	1.8463	6.3782	-0.1678	10.5743	1.3428	3.8605	7.8888	27	291	190	5	1	2
3.6926	6.546	3.6926	4.8676	3.3569	4.8676	5.0354	2.0142	1.5106	5.0354	0.3357	2.182	1.6785	2.3499	2.182	3.3569	-0.8392	-0.3357	27	231	130	6	1	2
4.0283	6.7139	4.0283	5.0354	3.5248	5.3711	5.2032	2.3499	1.8463	5.3711	0.3357	2.5177	1.8463	2.5177	2.3499	3.1891	-0.5035	-0.5035	27	232	131	6	1	2
4.5319	7.0496	4.5319	5.5389	3.5248	5.7068	5.5389	2.6855	2.0142	5.5389	0.6714	2.8534	1.8463	2.6855	2.3499	3.0212	-0.1678	-0.6714	27	233	132	6	1	2
4.6997	7.0496	4.8676	5.8746	3.6926	5.8746	5.5389	2.6855	2.3499	5.7068	0.6714	2.8534	1.6785	2.8534	2.182	2.3499	-0.1678	-1.0071	27	234	133	6	1	2
4.6997	7.2174	4.8676	6.0425	3.6926	6.0425	5.5389	2.8534	2.3499	5.5389	0.5035	2.8534	1.5106	2.8534	1.8463	2.0142	-0.1678	-1.3428	27	235	134	6	1	2
4.5319	7.2174	5.0354	6.2103	3.5248	6.0425	5.5389	2.8534	2.5177	5.5389	0.5035	2.8534	1.1749	2.8534	1.5106	1.6785	-0.3357	-1.5106	27	236	135	6	1	2
4.6997	7.2174	5.0354	6.3782	3.5248	6.0425	5.5389	3.0212	2.5177	5.3711	0.3357	2.8534	1.0071	2.8534	1.3428	1.3428	-0.3357	-1.8463	27	237	136	6	1	2
4.5319	7.0496	5.0354	6.546	3.3569	6.2103	5.7068	2.8534	2.3499	5.2032	0.3357	2.8534	0.8392	2.6855	1.1749	0.8392	-0.5035	-2.0142	27	238	137	6	1	2
4.5319	7.2174	5.0354	6.7139	3.3569	6.3782	5.5389	3.0212	2.5177	4.8676	0.3357	2.6855	0.5035	2.6855	0.8392	0.5035	-0.6714	-2.182	27	239	138	6	1	2
4.364	7.0496	5.2032	6.7139	3.3569	6.2103	5.5389	3.1891	2.5177	4.6997	0.3357	2.6855	0.3357	2.5177	0.6714	0.5035	-0.8392	-2.0142	27	240	139	6	1	2
4.364	7.2174	5.2032	6.8817	3.1891	6.3782	5.5389	3.0212	2.5177	4.5319	0.3357	2.6855	0	2.3499	0.5035	0.3357	-1.1749	-2.182	27	241	140	6	1	2
4.364	7.0496	5.2032	6.8817	3.1891	6.546	5.2032	3.0212	2.5177	4.364	-0.1678	2.182	-0.5035	2.182	0	0	-1.5106	-2.182	27	242	141	6	1	2
4.1962	7.0496	5.2032	7.0496	3.3569	6.546	5.2032	3.1891	2.5177	4.364	0	2.3499	-0.5035	2.0142	0	0.1678	-1.5106	-2.182	27	243	142	6	1	2
4.364	7.2174	5.3711	7.0496	3.1891	6.7139	5.0354	3.1891	2.6855	4.0283	-0.3357	2.0142	-1.0071	1.8463	-0.3357	0	-1.6785	-2.3499	27	244	143	6	1	2
4.364	7.5531	5.7068	6.8817	3.3569	6.8817	4.8676	3.0212	2.5177	3.8605	-0.5035	1.8463	-1.1749	1.6785	-0.8392	0	-1.6785	-2.3499	27	245	144	6	1	2
4.1962	7.5531	5.5389	6.7139	3.3569	6.8817	4.6997	2.8534	2.5177	3.5248	-0.6714	1.8463	-1.3428	1.3428	-1.0071	0	-1.6785	-2.3499	27	246	145	6	1	2
4.364	7.8888	5.7068	6.546	3.5248	7.0496	4.5319	2.8534	2.6855	3.5248	-0.8392	1.6785	-1.5106	1.1749	-1.1749	0	-1.6785	-2.3499	27	247	146	6	1	2
4.5319	8.2245	6.0425	6.3782	3.6926	7.0496	4.364	2.8534	2.6855	3.3569	-1.0071	1.5106	-1.5106	1.0071	-1.3428	-0.1678	-1.5106	-2.5177	27	248	147	6	1	2
4.6997	8.3923	6.2103	6.2103	3.6926	7.2174	4.0283	2.8534	2.6855	3.1891	-1.1749	1.1749	-1.6785	0.8392	-1.5106	-0.1678	-1.3428	-2.6855	27	249	148	6	1	2
4.6997	8.728	6.2103	5.8746	3.6926	7.2174	3.8605	2.6855	2.6855	3.0212	-1.5106	1.0071	-1.8463	0.6714	-1.5106	-0.1678	-1.1749	-2.8534	27	250	149	6	1	2
4.6997	8.8959	6.3782	5.5389	3.8605	7.3853	3.5248	2.5177	2.6855	3.0212	-1.8463	0.6714	-2.0142	0.6714	-1.6785	-0.1678	-1.0071	-3.1891	27	251	150	6	1	2
4.5319	9.0637	6.3782	5.2032	4.0283	7.3853	3.5248	2.3499	2.5177	2.6855	-2.182	0.6714	-2.0142	0.5035	-1.5106	0.1678	-0.8392	-3.3569	27	252	151	6	1	2
4.6997	9.0637	6.546	4.8676	4.0283	7.3853	3.3569	2.0142	2.5177	2.6855	-2.5177	0.5035	-1.8463	0.5035	-1.5106	0.3357	-0.6714	-3.5248	27	253	152	6	1	2
4.6997	9.3994	6.7139	4.8676	3.8605	7.3853	3.1891	2.0142	2.6855	2.5177	-3.0212	0.1678	-2.182	0.5035	-1.5106	0.1678	-0.5035	-4.0283	27	254	153	6	1	2
4.8676	9.3994	6.7139	4.5319	3.8605	7.3853	3.3569	1.8463	2.5177	2.6855	-3.1891	0	-2.0142	0.5035	-1.1749	0.5035	-0.5035	-4.0283	27	255	154	6	1	2
5.0354	9.5673	6.8817	4.5319	3.6926	7.3853	3.0212	1.5106	2.3499	2.3499	-3.6926	-0.3357	-2.0142	0.5035	-1.3428	0.5035	-0.3357	-4.5319	27	256	155	6	1	2
5.0354	9.3994	7.0496	4.364	3.6926	7.3853	3.0212	1.3428	2.3499	2.5177	-3.8605	-0.3357	-1.8463	0.5035	-1.1749	0.6714	-0.3357	-4.6997	27	257	156	6	1	2
5.2032	9.2316	7.0496	4.364	3.5248	7.3853	3.1891	1.0071	2.182	2.5177	-4.364	-0.6714	-2.0142	0.5035	-1.1749	0.6714	-0.5035	-4.8676	27	258	157	6	1	2
5.2032	9.0637	7.2174	4.364	3.1891	7.3853	3.0212	0.8392	2.182	2.5177	-4.5319	-0.8392	-2.0142	0.5035	-1.1749	0.8392	-0.6714	-5.0354	27	259	158	6	1	2
5.5389	9.0637	7.3853	4.6997	3.1891	7.5531	3.1891	0.5035	2.182	2.3499	-4.8676	-1.0071	-2.0142	0.6714	-1.1749	0.8392	-0.6714	-5.2032	27	260	159	6	1	2
5.7068	8.8959	7.5531	4.6997	2.8534	7.5531	3.0212	0.1678	2.182	2.5177	-5.2032	-1.3428	-2.0142	0.6714	-1.1749	1.0071	-0.6714	-5.2032	27	261	160	6	1	2
5.7068	8.5602	7.5531	4.8676	2.5177	7.3853	3.1891	-0.1678	1.8463	2.3499	-5.3711	-1.3428	-2.182	0.6714	-1.1749	1.0071	-1.0071	-5.0354	27	262	161	6	1	2
5.8746	8.2245	7.7209	5.0354	2.182	7.3853	3.1891	-0.5035	1.6785	2.5177	-5.7068	-1.6785	-2.182	0.6714	-1.1749	1.0071	-1.1749	-5.0354	27	263	162	6	1	2
5.8746	7.7209	7.5531	5.0354	1.6785	7.2174	3.0212	-0.6714	1.5106	2.3499	-5.8746	-1.8463	-2.182	0.6714	-1.1749	1.1749	-1.3428	-4.8676	27	264	163	6	1	2
5.8746	7.2174	7.5531	5.2032	1.3428	7.0496	3.1891	-1.0071	1.3428	2.182	-6.2103	-2.182	-2.3499	0.6714	-1.1749	1.1749	-1.6785	-4.8676	27	265	164	6	1	2
5.7068	6.546	7.2174	5.2032	0.6714	6.8817	3.1891	-1.3428	1.0071	2.0142	-6.2103	-2.182	-2.3499	0.6714	-1.1749	1.1749	-1.8463	-4.6997	27	266	165	6	1	2
5.2032	5.8746	7.0496	5.0354	0	6.546	3.0212	-1.6785	0.5035	1.6785	-6.546	-2.3499	-2.6855	0.6714	-1.1749	1.0071	-2.182	-4.6997	27	267	166	6	1	2
4.8676	5.3711	6.7139	5.0354	-0.5035	6.2103	3.0212	-2.0142	0.3357	1.6785	-6.8817	-2.6855	-2.8534	0.8392	-1.1749	0.8392	-2.182	-4.5319	27	268	167	6	1	2
4.5319	4.5319	6.3782	5.0354	-1.1749	5.8746	2.6855	-2.6855	-0.3357	1.1749	-7.3853	-3.1891	-3.1891	1.0071	-1.0071	0.6714	-2.5177	-4.8676	27	269	168	6	1	2
3.8605	3.5248	5.8746	4.6997	-1.8463	5.3711	2.5177	-3.3569	-0.8392	0.8392	-7.7209	-3.5248	-3.3569	1.0071	-1.0071	0.3357	-2.8534	-5.0354	27	270	169	6	1	2
3.5248	3.0212	5.5389	4.5319	-2.5177	5.0354	2.3499	-3.8605	-1.3428	0.5035	-8.2245	-4.0283	-3.6926	1.1749	-1.1749	-0.1678	-3.0212	-5.3711	27	271	170	6	1	2
3.1891	2.3499	5.2032	4.364	-3.3569	4.5319	2.0142	-4.5319	-2.0142	-0.1678	-8.8959	-4.6997	-4.1962	1.3428	-1.3428	-0.6714	-3.3569	-5.8746	27	272	171	6	1	2
2.6855	1.6785	4.8676	4.364	-3.8605	4.1962	1.6785	-5.0354	-2.5177	-0.5035	-9.2316	-5.0354	-4.5319	1.5106	-1.5106	-1.0071	-3.6926	-6.2103	27	273	172	6	1	2
2.3499	1.1749	4.364	4.0283	-4.364	3.6926	1.5106	-5.5389	-3.0212	-0.8392	-9.7351	-5.5389	-4.8676	1.5106	-1.5106	-1.3428	-3.8605	-6.7139	27	274	173	6	1	2
2.0142	0.6714	4.1962	3.8605	-4.8676	3.3569	1.1749	-6.0425	-3.6926	-1.5106	-10.2386	-6.0425	-5.5389	1.6785	-2.0142	-1.8463	-4.1962	-7.2174	27	275	174	6	1	2
1.6785	0.3357	3.8605	3.3569	-5.2032	2.8534	1.0071	-6.3782	-4.1962	-1.8463	-10.5743	-6.546	-5.8746	1.6785	-2.182	-2.0142	-4.364	-7.5531	27	276	175	6	1	2
1.5106	0	3.5248	3.3569	-5.5389	2.6855	0.6714	-6.8817	-4.6997	-2.3499	-11.2457	-7.0496	-6.546	1.8463	-2.5177	-2.5177	-4.6997	-8.0566	27	277	176	6	1	2
1.0071	-0.5035	3.1891	3.0212	-5.7068	2.3499	0.5035	-7.2174	-5.2032	-2.6855	-11.5814	-7.5531	-7.0496	1.8463	-2.8534	-2.5177	-5.0354	-8.3923	27	278	177	6	1	2
0.8392	-0.5035	3.0212	3.0212	-6.2103	1.6785	0.3357	-7.5531	-5.7068	-3.1891	-11.9171	-8.0566	-7.7209	2.0142	-3.5248	-3.0212	-5.3711	-8.8959	27	279	178	6	1	2
0.6714	-1.0071	2.5177	2.8534	-6.3782	1.3428	-0.1678	-8.0566	-6.3782	-3.8605	-12.4207	-8.728	-8.2245	2.0142	-3.8605	-3.1891	-5.8746	-9.3994	27	280	179	6	1	2
0.1678	-1.5106	2.182	2.6855	-6.7139	1.0071	-0.3357	-8.5602	-6.7139	-4.1962	-13.092	-9.2316	-8.728	2.0142	-4.364	-3.3569	-6.2103	-9.7351	27	281	180	6	1	2
-0.1678	-2.0142	1.6785	2.182	-7.2174	0.5035	-0.6714	-8.8959	-7.2174	-4.6997	-13.4277	-9.5673	-9.0637	2.0142	-4.6997	-3.5248	-6.546	-9.903	27	282	181	6	1	2
-0.5035	-2.3499	1.1749	2.0142	-7.5531	0	-1.1749	-9.2316	-7.5531	-5.2032	-13.7634	-10.0708	-9.5673	2.0142	-5.0354	-3.8605	-6.8817	-10.0708	27	283	182	6	1	2
-1.0071	-2.8534	0.6714	1.6785	-7.8888	-0.3357	-1.5106	-9.7351	-8.2245	-5.5389	-14.0991	-10.4065	-9.903	2.0142	-5.2032	-4.0283	-7.2174	-10.2386	27	284	183	6	1	2
-1.6785	-3.3569	0	1.1749	-8.3923	-1.0071	-1.8463	-10.0708	-8.5602	-6.2103	-14.267	-10.7422	-10.4065	1.8463	-5.5389	-4.0283	-7.5531	-10.2386	27	285	184	6	1	2
-2.182	-3.6926	-0.6714	0.6714	-8.728	-1.5106	-2.3499	-10.4065	-8.8959	-6.546	-14.6027	-11.2457	-10.7422	1.8463	-5.7068	-4.1962	-7.8888	-10.5743	27	286	185	6	1	2
-2.6855	-4.5319	-1.1749	0	-9.2316	-2.182	-2.8534	-10.7422	-9.3994	-7.2174	-15.1062	-11.7493	-11.0779	1.8463	-6.0425	-4.364	-8.3923	-10.7422	27	287	186	6	1	2
-3.3569	-5.0354	-2.0142	-0.6714	-9.5673	-2.8534	-3.3569	-11.0779	-9.7351	-7.5531	-15.274	-11.9171	-11.4136	1.8463	-6.0425	-4.5319	-8.728	-10.7422	27	288	187	6	1	2
-3.8605	-5.5389	-2.6855	-1.3428	-9.903	-3.3569	-4.0283	-11.4136	-10.0708	-7.8888	-15.4419	-12.2528	-11.5814	1.6785	-6.2103	-4.6997	-9.0637	-10.7422	27	289	188	6	1	2
-4.364	-6.2103	-3.3569	-2.0142	-10.4065	-4.0283	-4.5319	-11.5814	-10.4065	-8.2245	-15.7776	-12.4207	-11.9171	1.6785	-6.3782	-5.0354	-9.3994	-10.7422	27	290	189	6	1	2
-4.8676	-6.7139	-3.8605	-2.5177	-10.7422	-4.5319	-4.8676	-11.9171	-10.7422	-8.5602	-15.9454	-12.5885	-12.085	1.6785	-6.546	-5.2032	-9.903	-10.7422	27	291	190	6	1	2
1.6785	-2.182	-3.1891	0.1678	0.3357	-3.1891	-3.0212	3.1891	0.3357	-0.3357	4.364	3.3569	0.1678	2.8534	2.6855	0.1678	-0.5035	0	27	231	130	7	1	2
2.0142	-1.8463	-2.6855	0	0.8392	-2.8534	-3.0212	3.5248	0.6714	-0.3357	4.6997	3.5248	0.1678	2.6855	2.5177	0.5035	-0.3357	0.3357	27	232	131	7	1	2
2.182	-1.8463	-2.5177	-0.1678	0.8392	-2.6855	-3.3569	3.6926	1.0071	-0.1678	4.8676	3.6926	0.3357	2.6855	2.5177	0.8392	-0.3357	0.5035	27	233	132	7	1	2
2.5177	-1.5106	-2.0142	-0.1678	1.3428	-2.182	-3.1891	4.1962	1.5106	0	5.0354	3.8605	0.3357	2.5177	2.3499	1.1749	-0.3357	0.6714	27	234	133	7	1	2
2.6855	-1.1749	-1.8463	-0.3357	1.8463	-1.8463	-3.1891	4.6997	2.0142	0	5.3711	4.1962	0.5035	2.5177	2.182	1.5106	-0.1678	1.0071	27	235	134	7	1	2
2.8534	-0.8392	-1.5106	-0.3357	2.0142	-1.5106	-3.3569	5.2032	2.5177	0	5.8746	4.5319	0.6714	2.5177	2.182	1.6785	-0.3357	1.1749	27	236	135	7	1	2
3.1891	-0.5035	-1.0071	-0.5035	2.5177	-1.3428	-3.1891	5.7068	3.0212	0.1678	6.2103	4.8676	0.8392	2.5177	2.182	2.0142	-0.1678	1.5106	27	237	136	7	1	2
3.6926	0	-0.5035	-0.3357	3.0212	-0.8392	-3.1891	6.0425	3.5248	0.5035	6.546	5.0354	0.8392	2.3499	2.0142	2.5177	0	1.8463	27	238	137	7	1	2
3.8605	0.3357	-0.1678	-0.3357	3.3569	-0.6714	-3.1891	6.546	4.0283	0.5035	6.8817	5.5389	1.0071	2.3499	2.0142	2.8534	0.1678	2.0142	27	239	138	7	1	2
4.364	0.8392	0.3357	0	3.8605	0	-3.0212	7.0496	4.5319	0.8392	7.3853	5.8746	1.3428	2.3499	2.0142	3.1891	0.6714	2.3499	27	240	139	7	1	2
4.8676	1.3428	1.0071	0.1678	4.364	0.3357	-2.6855	7.3853	5.0354	1.1749	7.5531	6.0425	1.3428	2.182	2.0142	3.6926	0.8392	2.6855	27	241	140	7	1	2
5.2032	1.6785	1.3428	0.3357	4.6997	0.6714	-2.5177	7.7209	5.5389	1.3428	7.8888	6.2103	1.5106	2.0142	1.8463	4.0283	1.0071	3.0212	27	242	141	7	1	2
5.5389	2.0142	1.8463	0.6714	5.0354	1.0071	-2.5177	8.2245	6.0425	1.6785	8.2245	6.546	1.8463	2.0142	2.0142	4.5319	1.3428	3.3569	27	243	142	7	1	2
5.8746	2.182	2.182	0.8392	5.3711	1.1749	-2.3499	8.5602	6.2103	1.8463	8.3923	6.546	1.8463	1.8463	2.0142	4.8676	1.6785	3.6926	27	244	143	7	1	2
6.3782	2.5177	2.8534	1.1749	5.5389	1.5106	-2.0142	8.728	6.546	2.3499	8.5602	6.7139	2.0142	1.6785	2.0142	5.2032	1.8463	3.8605	27	245	144	7	1	2
6.7139	2.6855	3.1891	1.5106	5.7068	1.6785	-1.8463	8.8959	6.7139	2.5177	8.728	6.8817	2.182	1.5106	2.0142	5.3711	2.0142	4.1962	27	246	145	7	1	2
7.0496	2.8534	3.5248	1.8463	5.8746	1.8463	-1.5106	9.0637	6.8817	2.8534	8.728	6.8817	2.3499	1.3428	2.182	5.7068	2.182	4.364	27	247	146	7	1	2
7.2174	3.0212	3.8605	2.182	5.8746	2.0142	-1.3428	8.8959	6.8817	2.8534	8.5602	6.7139	2.3499	1.0071	2.0142	5.5389	2.182	4.364	27	248	147	7	1	2
7.2174	2.8534	3.8605	2.3499	5.7068	2.0142	-1.1749	8.8959	6.8817	3.0212	8.5602	6.7139	2.5177	0.8392	2.182	5.7068	2.182	4.5319	27	249	148	7	1	2
7.2174	2.8534	4.0283	2.5177	5.7068	2.182	-1.0071	8.8959	6.8817	3.1891	8.3923	6.546	2.5177	0.6714	2.182	5.7068	2.182	4.6997	27	250	149	7	1	2
7.0496	2.6855	4.0283	2.6855	5.3711	2.182	-0.8392	8.3923	6.546	3.1891	8.0566	6.2103	2.3499	0.3357	2.0142	5.5389	2.0142	4.5319	27	251	150	7	1	2
6.7139	2.3499	3.6926	2.6855	5.0354	1.8463	-1.0071	8.2245	6.3782	3.1891	7.7209	5.8746	2.3499	0.1678	2.0142	5.3711	1.8463	4.5319	27	252	151	7	1	2
6.3782	2.0142	3.5248	2.6855	4.8676	1.6785	-0.8392	7.7209	6.0425	3.0212	7.2174	5.5389	2.182	0	2.0142	5.2032	1.6785	4.364	27	253	152	7	1	2
6.0425	1.8463	3.1891	2.6855	4.364	1.5106	-0.8392	7.3853	5.7068	3.0212	6.8817	5.3711	1.8463	-0.3357	2.0142	4.8676	1.3428	4.1962	27	254	153	7	1	2
5.8746	1.5106	2.8534	2.6855	3.6926	1.1749	-1.0071	6.8817	5.3711	2.6855	6.3782	4.6997	1.6785	-0.5035	1.8463	4.5319	1.0071	3.8605	27	255	154	7	1	2
5.5389	1.1749	2.8534	2.6855	3.3569	1.0071	-1.0071	6.3782	5.0354	2.6855	5.7068	4.364	1.3428	-0.5035	1.8463	4.364	0.6714	3.5248	27	256	155	7	1	2
5.2032	1.0071	2.3499	2.5177	3.0212	0.8392	-1.1749	5.7068	4.364	2.3499	5.0354	3.6926	1.0071	-0.5035	1.6785	3.8605	0.3357	3.3569	27	257	156	7	1	2
5.0354	0.5035	2.182	2.5177	2.3499	0.3357	-1.3428	5.2032	3.8605	2.3499	4.5319	3.3569	1.0071	-0.5035	1.6785	3.6926	-0.1678	3.1891	27	258	157	7	1	2
4.6997	0.1678	1.6785	2.182	1.8463	0.1678	-1.5106	4.6997	3.5248	2.182	4.0283	2.8534	0.6714	-0.5035	1.5106	3.0212	-0.5035	2.6855	27	259	158	7	1	2
4.5319	0	1.5106	2.182	1.3428	-0.1678	-1.5106	3.8605	3.1891	2.0142	3.3569	2.5177	0.3357	-0.3357	1.5106	2.8534	-0.6714	2.3499	27	260	159	7	1	2
4.364	-0.3357	1.1749	2.182	1.0071	-0.3357	-1.8463	3.5248	3.0212	1.8463	2.6855	2.0142	0.1678	-0.1678	1.3428	2.3499	-0.8392	2.182	27	261	160	7	1	2
4.1962	-0.6714	1.0071	2.182	0.5035	-0.5035	-1.8463	2.8534	2.5177	1.6785	2.182	1.8463	-0.1678	0	1.3428	2.182	-1.0071	2.0142	27	262	161	7	1	2
4.0283	-1.0071	0.6714	2.0142	-0.1678	-0.8392	-2.182	2.182	2.3499	1.5106	1.6785	1.3428	-0.3357	0.1678	1.5106	1.8463	-1.1749	1.6785	27	263	162	7	1	2
3.6926	-1.6785	0.3357	1.5106	-0.8392	-1.1749	-2.3499	1.3428	1.8463	1.1749	0.8392	0.8392	-0.8392	0.1678	1.1749	1.1749	-1.6785	1.5106	27	264	163	7	1	2
3.3569	-2.0142	0	1.5106	-1.3428	-1.5106	-2.6855	0.8392	1.5106	1.0071	0.5035	0.6714	-0.8392	0.3357	1.1749	1.0071	-1.6785	1.1749	27	265	164	7	1	2
3.0212	-2.6855	-0.5035	1.1749	-2.0142	-1.8463	-3.0212	0	1.0071	0.5035	-0.1678	0.3357	-1.1749	0.5035	1.1749	0.5035	-1.8463	1.0071	27	266	165	7	1	2
2.6855	-3.1891	-0.8392	1.0071	-2.5177	-2.182	-3.3569	-0.5035	0.6714	0.5035	-0.5035	-0.1678	-1.5106	0.5035	0.8392	0.3357	-2.0142	0.8392	27	267	166	7	1	2
2.182	-3.8605	-1.3428	0.5035	-3.1891	-2.6855	-3.8605	-1.3428	0.1678	0.1678	-1.0071	-0.5035	-1.8463	0.5035	0.8392	0	-2.182	0.6714	27	268	167	7	1	2
1.6785	-4.364	-1.8463	0	-3.6926	-3.0212	-4.364	-1.8463	-0.3357	-0.1678	-1.5106	-1.0071	-2.182	0.6714	0.6714	-0.1678	-2.3499	0.5035	27	269	168	7	1	2
1.1749	-5.0354	-2.5177	-0.5035	-4.364	-3.5248	-4.8676	-2.5177	-0.6714	-0.5035	-2.0142	-1.3428	-2.5177	0.6714	0.5035	-0.5035	-2.5177	0.3357	27	270	169	7	1	2
0.6714	-5.8746	-3.0212	-1.0071	-5.0354	-4.0283	-5.3711	-3.1891	-1.1749	-0.8392	-2.3499	-1.8463	-2.6855	0.6714	0.5035	-0.8392	-2.5177	0.1678	27	271	170	7	1	2
0	-6.546	-3.6926	-1.5106	-5.5389	-4.364	-5.8746	-3.8605	-1.6785	-1.3428	-2.8534	-2.182	-3.0212	0.6714	0.5035	-1.0071	-2.6855	0	27	272	171	7	1	2
-0.6714	-7.3853	-4.1962	-2.182	-6.2103	-4.8676	-6.546	-4.5319	-2.182	-1.6785	-3.1891	-2.6855	-3.3569	0.6714	0.3357	-1.3428	-2.6855	-0.1678	27	273	172	7	1	2
-1.1749	-7.8888	-4.8676	-2.6855	-6.7139	-5.3711	-7.0496	-5.0354	-2.8534	-2.0142	-3.5248	-3.0212	-3.5248	0.6714	0.3357	-1.5106	-2.8534	-0.3357	27	274	173	7	1	2
-2.0142	-8.5602	-5.5389	-3.1891	-7.2174	-5.8746	-7.7209	-5.5389	-3.3569	-2.5177	-3.8605	-3.5248	-3.8605	0.6714	0.1678	-1.6785	-2.8534	-0.5035	27	275	174	7	1	2
-2.3499	-9.2316	-6.0425	-3.8605	-7.5531	-6.3782	-8.3923	-5.7068	-3.6926	-3.0212	-4.0283	-3.8605	-4.0283	0.6714	0.3357	-1.6785	-2.8534	-0.5035	27	276	175	7	1	2
-3.0212	-9.7351	-6.7139	-4.364	-8.0566	-6.8817	-9.0637	-6.2103	-4.5319	-3.5248	-4.364	-4.5319	-4.5319	0.8392	0.1678	-1.8463	-3.0212	-0.6714	27	277	176	7	1	2
-3.5248	-10.4065	-7.3853	-5.2032	-8.728	-7.3853	-9.903	-6.7139	-5.2032	-4.0283	-4.8676	-5.3711	-5.0354	0.8392	0	-2.182	-3.3569	-0.6714	27	278	177	7	1	2
-4.0283	-10.91	-8.0566	-5.5389	-8.8959	-8.0566	-10.5743	-6.8817	-5.7068	-4.5319	-5.0354	-5.8746	-5.3711	1.0071	-0.1678	-2.182	-3.3569	-0.8392	27	279	178	7	1	2
-4.6997	-11.4136	-8.3923	-6.0425	-9.3994	-8.3923	-11.0779	-7.2174	-6.2103	-5.2032	-5.3711	-6.3782	-5.7068	1.0071	-0.1678	-2.3499	-3.5248	-1.0071	27	280	179	7	1	2
-5.2032	-12.085	-9.0637	-6.546	-9.903	-9.0637	-11.7493	-7.7209	-7.2174	-5.8746	-5.7068	-7.0496	-6.2103	1.1749	-0.6714	-2.6855	-3.8605	-1.1749	27	281	180	7	1	2
-5.7068	-12.4207	-9.5673	-6.8817	-10.4065	-9.5673	-12.4207	-7.8888	-7.7209	-6.2103	-6.2103	-7.8888	-6.7139	1.3428	-0.8392	-3.0212	-3.8605	-1.3428	27	282	181	7	1	2
-6.0425	-12.9242	-10.0708	-6.8817	-10.5743	-10.0708	-12.7563	-8.0566	-8.2245	-6.7139	-6.3782	-8.3923	-6.8817	1.3428	-1.0071	-3.3569	-4.0283	-1.3428	27	283	182	7	1	2
-6.3782	-13.2599	-10.4065	-7.0496	-11.0779	-10.5743	-13.2599	-8.3923	-8.8959	-7.2174	-6.8817	-9.0637	-7.5531	1.5106	-1.1749	-3.6926	-4.1962	-1.6785	27	284	183	7	1	2
-6.7139	-13.4277	-10.7422	-7.0496	-11.2457	-10.91	-13.4277	-8.5602	-9.5673	-7.7209	-7.0496	-9.5673	-7.8888	1.6785	-1.3428	-4.0283	-4.364	-1.8463	27	285	184	7	1	2
-6.8817	-13.5956	-10.91	-6.8817	-11.4136	-11.2457	-13.5956	-8.728	-10.0708	-7.8888	-7.2174	-10.0708	-8.0566	1.8463	-1.5106	-4.364	-4.364	-2.182	27	286	185	7	1	2
-6.8817	-13.5956	-11.0779	-6.7139	-11.4136	-11.5814	-13.7634	-8.728	-10.5743	-8.2245	-7.5531	-10.5743	-8.2245	1.8463	-1.5106	-4.5319	-4.364	-2.3499	27	287	186	7	1	2
-6.8817	-13.7634	-11.2457	-6.7139	-11.5814	-11.9171	-13.9313	-8.728	-10.91	-8.3923	-7.8888	-11.0779	-8.5602	2.0142	-1.6785	-5.0354	-4.364	-2.5177	27	288	187	7	1	2
-6.8817	-13.7634	-11.4136	-6.546	-11.5814	-12.085	-13.9313	-8.728	-11.2457	-8.5602	-7.8888	-11.4136	-8.5602	2.0142	-1.6785	-5.2032	-4.364	-2.5177	27	289	188	7	1	2
-7.0496	-13.5956	-11.4136	-6.546	-11.7493	-12.4207	-14.0991	-8.728	-11.5814	-8.8959	-8.2245	-11.7493	-8.728	2.182	-1.8463	-5.5389	-4.364	-2.8534	27	290	189	7	1	2
-6.8817	-13.4277	-11.5814	-6.3782	-11.5814	-12.5885	-14.0991	-8.728	-12.085	-9.2316	-8.2245	-11.9171	-9.0637	2.182	-1.8463	-5.8746	-4.364	-3.0212	27	291	190	7	1	2
15.4419	14.7705	17.1204	12.5885	13.7634	15.7776	13.2599	11.4136	11.2457	9.7351	11.2457	9.903	10.7422	4.8676	11.4136	2.5177	13.2599	4.8676	27	231	130	8	1	2
16.1133	15.4419	17.9596	13.092	14.4348	16.449	13.5956	11.5814	11.7493	10.0708	11.2457	10.0708	10.91	5.0354	11.4136	2.3499	13.7634	4.5319	27	232	131	8	1	2
16.6168	15.9454	18.2953	13.5956	14.7705	16.9525	13.9313	11.9171	12.2528	10.5743	11.4136	10.5743	11.2457	5.0354	11.5814	2.182	13.9313	4.364	27	233	132	8	1	2
17.1204	16.449	18.9667	14.267	15.1062	17.4561	14.267	12.4207	13.092	11.4136	11.9171	11.0779	11.9171	5.0354	11.9171	2.0142	14.4348	4.364	27	234	133	8	1	2
17.6239	16.9525	19.4702	14.7705	15.4419	17.9596	14.9384	12.7563	13.5956	11.9171	12.085	11.4136	12.2528	5.2032	12.085	2.0142	14.9384	4.1962	27	235	134	8	1	2
18.1274	17.2882	19.9738	15.4419	15.7776	18.4631	15.1062	12.9242	14.267	12.5885	12.4207	12.085	12.9242	5.2032	12.2528	1.6785	15.274	4.1962	27	236	135	8	1	2
18.7988	17.6239	20.6451	16.1133	16.1133	19.1345	15.7776	13.4277	14.9384	13.4277	12.5885	12.4207	13.4277	5.3711	12.5885	1.8463	15.9454	4.0283	27	237	136	8	1	2
19.3024	17.9596	21.3165	16.6168	16.2811	19.6381	16.2811	13.7634	15.6097	14.267	12.7563	13.092	13.9313	5.5389	12.9242	2.0142	16.449	3.8605	27	238	137	8	1	2
19.9738	18.2953	21.9879	17.2882	16.6168	20.1416	16.9525	14.0991	16.2811	14.9384	13.092	13.5956	14.6027	5.7068	13.2599	2.182	16.9525	3.8605	27	239	138	8	1	2
20.3094	18.4631	22.4915	17.9596	16.9525	20.6451	17.4561	14.6027	16.9525	15.7776	13.4277	14.0991	15.274	5.8746	13.4277	2.3499	17.6239	3.6926	27	240	139	8	1	2
20.9808	18.631	22.995	18.7988	17.2882	21.3165	18.1274	14.7705	17.6239	16.6168	13.7634	14.7705	15.9454	6.0425	13.7634	2.5177	18.1274	3.8605	27	241	140	8	1	2
21.6522	18.7988	23.6664	19.4702	17.6239	21.9879	18.7988	15.1062	18.2953	17.4561	13.9313	15.274	16.449	6.2103	14.0991	2.5177	18.631	3.8605	27	242	141	8	1	2
22.1558	18.9667	24.3378	19.9738	17.9596	22.4915	19.4702	15.4419	18.9667	17.9596	14.267	15.7776	16.9525	6.3782	14.4348	2.6855	19.1345	3.8605	27	243	142	8	1	2
22.3236	18.9667	24.6735	20.4773	17.9596	22.8271	19.9738	15.6097	19.3024	18.7988	14.267	16.2811	17.4561	6.3782	14.7705	2.5177	19.3024	4.0283	27	244	143	8	1	2
22.6593	18.9667	25.177	20.9808	18.1274	23.3307	20.4773	15.9454	19.8059	19.3024	14.6027	16.7847	17.9596	6.546	14.7705	2.5177	19.4702	4.0283	27	245	144	8	1	2
22.8271	18.7988	25.5127	21.3165	18.1274	23.6664	21.1487	15.9454	20.1416	19.6381	14.6027	17.1204	18.2953	6.546	14.9384	2.182	19.4702	4.0283	27	246	145	8	1	2
22.8271	18.631	25.5127	21.4844	17.9596	24.0021	21.4844	15.7776	20.4773	19.9738	14.6027	17.2882	18.4631	6.546	15.274	2.0142	19.3024	4.0283	27	247	146	8	1	2
22.8271	18.2953	25.6805	21.8201	17.9596	24.1699	21.8201	15.6097	20.6451	20.4773	14.4348	17.4561	18.7988	6.546	15.274	1.5106	19.3024	4.0283	27	248	147	8	1	2
22.4915	17.9596	25.6805	21.6522	17.6239	24.1699	21.9879	15.274	20.6451	20.6451	14.4348	17.6239	19.1345	6.3782	15.4419	1.0071	18.9667	4.364	27	249	148	8	1	2
22.1558	17.4561	25.3448	21.4844	17.2882	24.1699	22.3236	14.9384	20.813	20.813	14.0991	17.6239	19.3024	6.2103	15.4419	0.6714	18.4631	4.1962	27	250	149	8	1	2
21.8201	16.9525	25.177	21.4844	16.9525	24.0021	22.3236	14.4348	20.6451	20.813	13.7634	17.4561	19.3024	6.0425	15.4419	0.1678	18.1274	4.0283	27	251	150	8	1	2
21.3165	16.6168	25.0092	21.4844	16.449	23.8342	22.4915	13.9313	20.4773	20.813	13.4277	17.4561	19.3024	5.8746	15.274	-0.3357	17.6239	4.0283	27	252	151	8	1	2
20.9808	15.9454	24.5056	21.1487	16.1133	23.6664	22.6593	13.5956	20.4773	20.813	13.092	17.2882	19.1345	5.7068	15.274	-0.6714	17.2882	4.0283	27	253	152	8	1	2
20.3094	15.274	24.1699	20.9808	15.6097	23.3307	22.4915	13.092	20.1416	20.6451	12.7563	16.9525	19.1345	5.5389	15.1062	-1.0071	16.9525	3.8605	27	254	153	8	1	2
19.8059	14.7705	23.6664	20.4773	15.1062	23.1628	22.4915	12.4207	19.6381	20.3094	12.2528	16.6168	18.9667	5.3711	15.1062	-1.3428	16.449	3.8605	27	255	154	8	1	2
19.1345	13.9313	22.995	20.1416	14.4348	22.6593	22.1558	12.085	19.3024	19.8059	11.5814	16.1133	18.631	5.2032	14.9384	-1.5106	15.9454	3.6926	27	256	155	8	1	2
18.2953	13.2599	22.1558	19.4702	13.9313	21.9879	21.8201	11.4136	18.631	19.4702	11.0779	15.6097	18.1274	5.0354	14.7705	-1.6785	15.4419	3.6926	27	257	156	8	1	2
17.4561	12.4207	21.4844	18.631	13.2599	21.3165	21.3165	10.7422	17.9596	18.9667	10.5743	15.274	17.7917	4.8676	14.6027	-1.8463	14.9384	3.6926	27	258	157	8	1	2
16.6168	11.5814	20.6451	17.9596	12.5885	20.813	20.6451	9.903	17.1204	18.1274	9.903	14.6027	17.1204	4.6997	14.267	-2.182	14.267	3.3569	27	259	158	8	1	2
15.7776	10.5743	19.8059	17.1204	11.9171	20.1416	20.1416	9.2316	16.449	17.4561	9.2316	13.9313	16.6168	4.5319	13.9313	-2.3499	13.7634	3.3569	27	260	159	8	1	2
14.7705	9.903	18.7988	16.2811	11.4136	19.4702	19.4702	8.728	15.6097	16.7847	8.5602	13.092	16.1133	4.364	13.7634	-2.5177	13.2599	3.3569	27	261	160	8	1	2
13.9313	9.2316	17.9596	15.4419	10.5743	18.7988	18.631	8.0566	14.7705	16.1133	7.8888	12.4207	15.4419	4.1962	13.4277	-2.6855	12.5885	3.1891	27	262	161	8	1	2
13.092	8.3923	17.2882	14.4348	9.903	17.9596	17.9596	7.5531	13.7634	15.1062	7.3853	11.5814	14.9384	4.0283	13.092	-2.8534	12.085	3.0212	27	263	162	8	1	2
12.2528	7.7209	16.449	13.7634	9.2316	17.2882	17.2882	6.8817	12.7563	14.4348	6.7139	10.91	14.267	3.8605	12.7563	-3.3569	11.2457	2.8534	27	264	163	8	1	2
11.2457	7.3853	15.6097	13.092	8.8959	16.6168	16.449	6.3782	12.085	13.7634	6.3782	10.2386	13.7634	3.6926	12.5885	-3.5248	10.91	2.8534	27	265	164	8	1	2
10.4065	6.8817	14.7705	12.2528	8.3923	15.9454	15.9454	5.7068	10.91	12.9242	5.7068	9.5673	13.092	3.6926	12.2528	-3.8605	10.4065	2.6855	27	266	165	8	1	2
9.7351	6.2103	13.9313	11.5814	7.8888	15.1062	14.9384	5.2032	10.0708	12.2528	5.2032	8.728	12.4207	3.3569	11.9171	-4.1962	9.903	2.5177	27	267	166	8	1	2
9.0637	5.7068	13.4277	11.0779	7.3853	14.4348	14.267	4.8676	9.3994	11.5814	4.8676	8.2245	11.9171	3.3569	11.5814	-4.1962	9.5673	2.5177	27	268	167	8	1	2
8.3923	5.3711	12.7563	10.4065	6.8817	13.7634	13.7634	4.364	8.5602	10.91	4.5319	7.5531	11.4136	3.1891	11.2457	-4.5319	8.8959	2.3499	27	269	168	8	1	2
7.8888	4.8676	12.2528	9.7351	6.546	13.4277	13.2599	4.1962	7.8888	10.5743	4.1962	7.0496	10.7422	3.1891	11.0779	-4.5319	8.5602	2.182	27	270	169	8	1	2
7.2174	4.5319	11.7493	9.2316	6.0425	12.9242	12.7563	3.6926	7.2174	9.7351	3.6926	6.3782	10.2386	3.0212	10.7422	-5.0354	8.0566	2.0142	27	271	170	8	1	2
6.7139	4.1962	11.4136	8.8959	5.5389	12.2528	12.085	3.3569	6.3782	9.3994	3.5248	5.8746	9.903	3.0212	10.5743	-5.0354	7.7209	2.182	27	272	171	8	1	2
6.2103	3.6926	10.7422	8.2245	5.0354	11.9171	11.7493	3.0212	5.8746	8.8959	3.3569	5.3711	9.3994	3.0212	10.2386	-5.0354	7.3853	2.182	27	273	172	8	1	2
5.7068	3.3569	10.4065	7.8888	4.6997	11.4136	11.4136	2.6855	5.2032	8.5602	3.0212	4.8676	8.8959	3.0212	10.0708	-5.2032	7.0496	2.182	27	274	173	8	1	2
5.2032	2.8534	9.903	7.3853	4.1962	10.91	11.0779	2.3499	4.5319	8.0566	2.8534	4.364	8.5602	3.0212	9.7351	-5.2032	6.7139	2.182	27	275	174	8	1	2
5.2032	2.8534	9.5673	7.0496	3.8605	10.5743	10.5743	2.182	4.0283	7.8888	2.6855	4.1962	8.2245	3.1891	9.7351	-5.0354	6.546	2.182	27	276	175	8	1	2
4.6997	2.3499	9.2316	6.7139	3.5248	10.2386	10.4065	1.8463	3.3569	7.5531	2.5177	3.6926	7.8888	3.1891	9.3994	-5.2032	6.3782	2.182	27	277	176	8	1	2
4.5319	2.0142	8.8959	6.546	3.1891	9.903	10.2386	1.6785	3.0212	7.5531	2.5177	3.5248	7.7209	3.3569	9.3994	-4.8676	6.3782	2.3499	27	278	177	8	1	2
4.0283	1.6785	8.5602	6.2103	2.6855	9.3994	10.0708	1.3428	2.3499	7.2174	2.3499	3.0212	7.5531	3.3569	9.3994	-4.8676	6.546	2.3499	27	279	178	8	1	2
3.8605	1.5106	8.3923	6.0425	2.6855	9.2316	10.0708	1.3428	2.0142	7.0496	2.182	2.6855	7.3853	3.6926	9.5673	-4.6997	6.8817	2.3499	27	280	179	8	1	2
3.6926	1.3428	8.2245	5.7068	2.5177	8.728	9.7351	1.0071	1.5106	6.8817	2.0142	2.5177	7.2174	3.6926	9.5673	-4.6997	7.0496	2.3499	27	281	180	8	1	2
3.3569	1.0071	7.7209	5.5389	2.182	8.3923	9.5673	0.5035	1.0071	6.7139	1.8463	2.182	7.0496	3.6926	9.7351	-4.6997	7.3853	2.3499	27	282	181	8	1	2
3.1891	1.0071	7.7209	5.5389	2.182	8.2245	9.3994	0.6714	0.8392	6.546	1.8463	2.0142	7.0496	3.6926	9.903	-4.5319	7.8888	2.3499	27	283	182	8	1	2
3.1891	1.0071	7.5531	5.3711	2.182	7.8888	9.2316	0.3357	0.3357	6.546	1.8463	1.8463	6.8817	3.6926	9.903	-4.6997	8.3923	2.182	27	284	183	8	1	2
3.0212	0.8392	7.3853	5.2032	2.0142	7.7209	9.2316	0.1678	0.1678	6.2103	1.5106	1.5106	6.7139	3.8605	10.0708	-4.6997	8.728	2.182	27	285	184	8	1	2
3.0212	0.6714	7.0496	5.2032	2.0142	7.3853	9.0637	-0.1678	-0.3357	6.0425	1.3428	1.1749	6.546	3.8605	10.2386	-4.8676	8.8959	2.0142	27	286	185	8	1	2
3.0212	0.6714	7.2174	5.2032	2.0142	7.2174	8.8959	-0.1678	-0.5035	6.0425	1.3428	1.0071	6.546	3.8605	10.4065	-4.8676	9.2316	1.8463	27	287	186	8	1	2
2.8534	0.8392	7.0496	4.8676	2.0142	7.0496	8.728	-0.5035	-0.8392	5.8746	1.1749	0.6714	6.2103	3.8605	10.2386	-5.0354	9.2316	1.6785	27	288	187	8	1	2
2.8534	0.8392	7.0496	4.6997	2.0142	6.7139	8.5602	-0.6714	-1.1749	5.5389	1.0071	0.3357	5.8746	3.8605	10.2386	-5.2032	9.2316	1.5106	27	289	188	8	1	2
2.8534	0.6714	7.0496	4.5319	2.0142	6.7139	8.3923	-0.6714	-1.5106	5.2032	0.8392	0.1678	5.7068	3.8605	10.0708	-5.5389	9.0637	1.5106	27	290	189	8	1	2
2.6855	0.8392	6.8817	4.364	2.0142	6.546	8.0566	-0.8392	-1.8463	4.8676	0.8392	0	5.3711	3.8605	9.903	-5.7068	8.728	1.3428	27	291	190	8	1	2
-12.5885	-8.5602	-13.7634	-13.092	-8.0566	-13.2599	-8.8959	-6.2103	-9.0637	-8.5602	-2.3499	-6.8817	-3.0212	1.1749	1.1749	2.3499	0.3357	0.8392	27	231	130	9	1	2
-11.7493	-7.7209	-12.9242	-12.4207	-7.2174	-12.4207	-8.5602	-5.5389	-8.2245	-8.3923	-1.6785	-6.2103	-2.8534	1.1749	1.0071	2.6855	0.3357	1.0071	27	232	131	9	1	2
-10.7422	-6.7139	-11.9171	-11.5814	-6.546	-11.4136	-8.2245	-4.8676	-7.3853	-8.3923	-1.1749	-5.5389	-2.8534	1.0071	0.6714	2.8534	0.1678	1.1749	27	233	132	9	1	2
-9.5673	-6.0425	-10.91	-10.7422	-5.5389	-10.5743	-7.8888	-4.1962	-6.546	-8.0566	-0.5035	-4.8676	-2.6855	1.0071	0.6714	3.3569	0.3357	1.3428	27	234	133	9	1	2
-8.728	-5.0354	-9.903	-10.0708	-4.6997	-9.7351	-7.7209	-3.3569	-5.8746	-7.8888	0.1678	-4.0283	-2.3499	1.0071	0.5035	3.8605	0.3357	1.8463	27	235	134	9	1	2
-7.7209	-4.0283	-9.0637	-9.2316	-3.8605	-8.5602	-7.2174	-2.6855	-5.0354	-7.5531	0.8392	-3.3569	-2.182	1.0071	0.3357	4.364	0.5035	2.182	27	236	135	9	1	2
-6.7139	-3.1891	-8.2245	-8.5602	-3.1891	-7.8888	-6.546	-2.182	-4.1962	-7.3853	1.3428	-2.6855	-2.0142	0.8392	0	4.6997	0.5035	2.5177	27	237	136	9	1	2
-5.8746	-2.3499	-7.3853	-7.8888	-2.5177	-7.0496	-6.0425	-1.5106	-3.3569	-7.0496	1.8463	-2.0142	-1.6785	0.8392	0	5.2032	0.8392	3.0212	27	238	137	9	1	2
-5.2032	-1.8463	-6.7139	-7.3853	-1.8463	-6.3782	-5.7068	-1.0071	-2.6855	-6.7139	2.182	-1.5106	-1.5106	0.6714	-0.3357	5.3711	1.0071	3.1891	27	239	138	9	1	2
-4.1962	-1.1749	-6.0425	-6.7139	-1.1749	-5.5389	-5.3711	-0.6714	-2.0142	-6.2103	2.6855	-1.0071	-1.3428	0.6714	-0.3357	5.7068	1.3428	3.3569	27	240	139	9	1	2
-3.5248	-0.6714	-5.5389	-6.2103	-0.8392	-5.0354	-5.0354	-0.1678	-1.3428	-6.0425	2.8534	-0.6714	-1.1749	0.5035	-0.5035	5.7068	1.6785	3.5248	27	241	140	9	1	2
-2.8534	-0.3357	-5.0354	-5.7068	-0.5035	-4.5319	-4.5319	0	-0.8392	-5.8746	3.1891	-0.1678	-1.0071	0.3357	-0.6714	5.7068	2.0142	3.5248	27	242	141	9	1	2
-2.5177	0	-4.5319	-5.3711	-0.1678	-4.1962	-4.364	0	-0.5035	-5.5389	3.1891	0.1678	-0.6714	0.1678	-0.8392	5.5389	2.3499	3.3569	27	243	142	9	1	2
-2.0142	0.3357	-4.1962	-4.8676	0	-3.6926	-4.0283	0.3357	0	-5.2032	3.1891	0.3357	-0.6714	0	-1.0071	5.2032	3.0212	3.5248	27	244	143	9	1	2
-1.1749	0.8392	-3.8605	-4.364	0.3357	-3.1891	-3.3569	0.5035	0.5035	-4.6997	3.3569	0.6714	-0.3357	0	-1.0071	5.2032	3.5248	3.5248	27	245	144	9	1	2
-0.8392	1.0071	-3.5248	-4.0283	0.6714	-2.8534	-3.0212	0.6714	1.0071	-4.364	3.3569	1.0071	-0.1678	-0.1678	-1.0071	4.8676	3.8605	3.3569	27	246	145	9	1	2
-0.6714	1.1749	-3.1891	-3.6926	0.6714	-2.5177	-2.6855	0.5035	1.1749	-3.8605	3.3569	1.1749	0	-0.3357	-1.1749	4.5319	4.1962	3.1891	27	247	146	9	1	2
-0.3357	1.3428	-3.0212	-3.1891	0.8392	-2.3499	-2.3499	0.5035	1.5106	-3.5248	3.1891	1.1749	0.3357	-0.5035	-1.0071	4.1962	4.5319	3.0212	27	248	147	9	1	2
-0.1678	1.3428	-2.8534	-3.0212	0.8392	-2.182	-2.0142	0.3357	1.6785	-3.1891	3.0212	1.1749	0.3357	-0.6714	-1.0071	3.8605	4.6997	3.0212	27	249	148	9	1	2
0	1.5106	-2.5177	-2.5177	1.0071	-1.8463	-1.5106	0.5035	1.8463	-2.6855	3.0212	1.5106	0.6714	-0.6714	-0.8392	3.5248	4.8676	3.0212	27	250	149	9	1	2
-0.1678	1.3428	-2.5177	-2.5177	0.6714	-1.6785	-1.1749	0.1678	2.0142	-2.3499	2.6855	1.3428	0.6714	-0.8392	-1.0071	3.0212	5.0354	2.8534	27	251	150	9	1	2
-0.1678	1.0071	-2.5177	-2.3499	0.5035	-1.6785	-1.1749	-0.1678	2.0142	-2.3499	2.5177	1.3428	0.6714	-1.0071	-1.0071	2.5177	4.8676	2.8534	27	252	151	9	1	2
-0.1678	1.0071	-2.5177	-2.182	0.3357	-1.6785	-0.6714	-0.1678	2.0142	-1.8463	2.182	1.1749	0.8392	-1.0071	-0.8392	2.3499	4.8676	2.8534	27	253	152	9	1	2
-0.5035	0.5035	-2.6855	-2.182	0	-1.8463	-0.8392	-0.6714	1.6785	-1.8463	1.6785	1.0071	0.5035	-1.1749	-1.0071	1.8463	4.364	2.5177	27	254	153	9	1	2
-1.0071	0	-3.0212	-2.3499	-0.3357	-2.0142	-0.8392	-1.0071	1.5106	-1.8463	1.1749	0.5035	0.3357	-1.3428	-1.3428	1.1749	3.8605	2.182	27	255	154	9	1	2
-1.1749	-0.3357	-3.0212	-2.3499	-0.6714	-2.0142	-0.8392	-1.3428	1.1749	-1.8463	0.8392	0.3357	0.1678	-1.3428	-1.5106	1.0071	3.3569	1.8463	27	256	155	9	1	2
-1.5106	-0.5035	-3.0212	-2.6855	-0.8392	-2.3499	-0.8392	-1.8463	0.8392	-1.8463	0.3357	-0.1678	-0.1678	-1.5106	-1.8463	0.5035	2.6855	1.6785	27	257	156	9	1	2
-2.0142	-1.1749	-3.3569	-2.6855	-1.3428	-2.5177	-1.1749	-2.3499	0.5035	-2.3499	-0.3357	-0.6714	-0.6714	-1.5106	-2.182	-0.1678	1.8463	1.3428	27	258	157	9	1	2
-2.182	-1.5106	-3.5248	-3.0212	-1.6785	-2.6855	-1.5106	-2.6855	0	-2.5177	-0.8392	-1.1749	-1.1749	-1.6785	-2.5177	-0.6714	1.0071	0.8392	27	259	158	9	1	2
-2.8534	-2.0142	-3.8605	-3.3569	-2.0142	-3.1891	-1.8463	-3.3569	-0.5035	-3.0212	-1.5106	-1.6785	-1.6785	-1.6785	-3.1891	-1.5106	0	0.1678	27	260	159	9	1	2
-3.1891	-2.3499	-4.0283	-3.6926	-2.3499	-3.5248	-2.3499	-3.6926	-1.1749	-3.3569	-1.8463	-2.182	-2.0142	-1.8463	-3.5248	-2.0142	-0.8392	-0.1678	27	261	160	9	1	2
-3.6926	-2.8534	-4.364	-4.0283	-2.6855	-3.8605	-2.8534	-4.0283	-1.6785	-3.8605	-2.6855	-2.8534	-2.5177	-1.8463	-3.8605	-2.6855	-1.6785	-0.8392	27	262	161	9	1	2
-4.1962	-3.0212	-4.5319	-4.364	-2.8534	-4.1962	-3.1891	-4.364	-2.182	-4.1962	-3.0212	-3.3569	-3.0212	-2.0142	-4.1962	-3.3569	-2.3499	-1.1749	27	263	162	9	1	2
-4.6997	-3.3569	-4.8676	-4.8676	-3.3569	-4.8676	-3.8605	-4.8676	-2.6855	-4.6997	-3.5248	-4.0283	-3.5248	-2.0142	-4.5319	-3.8605	-3.1891	-1.6785	27	264	163	9	1	2
-5.2032	-3.3569	-5.2032	-5.2032	-3.3569	-5.0354	-4.1962	-5.0354	-3.1891	-5.2032	-3.8605	-4.364	-3.8605	-2.0142	-4.6997	-4.364	-3.8605	-2.0142	27	265	164	9	1	2
-5.3711	-3.5248	-5.5389	-5.5389	-3.6926	-5.3711	-4.6997	-5.3711	-3.6926	-5.7068	-4.0283	-4.8676	-4.364	-2.0142	-4.8676	-4.6997	-4.5319	-2.3499	27	266	165	9	1	2
-5.7068	-3.5248	-5.7068	-5.8746	-3.8605	-5.7068	-5.2032	-5.5389	-4.0283	-6.0425	-4.1962	-5.0354	-4.6997	-2.0142	-5.0354	-5.0354	-5.0354	-2.3499	27	267	166	9	1	2
-6.0425	-3.3569	-5.8746	-6.0425	-3.8605	-6.0425	-5.5389	-5.5389	-4.1962	-6.3782	-4.1962	-5.3711	-5.0354	-2.0142	-5.2032	-5.0354	-5.3711	-2.3499	27	268	167	9	1	2
-6.0425	-3.3569	-5.7068	-5.8746	-3.8605	-6.0425	-5.7068	-5.5389	-4.6997	-6.546	-4.364	-5.3711	-5.0354	-2.0142	-4.8676	-5.0354	-5.7068	-2.3499	27	269	168	9	1	2
-6.2103	-3.1891	-5.8746	-6.0425	-3.8605	-6.3782	-5.8746	-5.5389	-4.8676	-6.7139	-4.364	-5.5389	-5.2032	-2.0142	-4.8676	-5.0354	-6.2103	-2.3499	27	270	169	9	1	2
-6.3782	-3.1891	-6.0425	-6.0425	-4.0283	-6.546	-6.3782	-5.5389	-5.0354	-7.0496	-4.0283	-5.7068	-5.3711	-2.0142	-5.0354	-4.6997	-6.546	-1.8463	27	271	170	9	1	2
-6.3782	-3.0212	-6.0425	-6.2103	-4.1962	-6.7139	-6.3782	-5.5389	-5.3711	-7.2174	-4.0283	-5.8746	-5.5389	-2.0142	-5.0354	-4.5319	-7.0496	-1.5106	27	272	171	9	1	2
-6.546	-3.1891	-6.0425	-6.0425	-4.1962	-6.8817	-6.546	-5.3711	-5.3711	-7.3853	-4.0283	-5.8746	-5.7068	-2.0142	-5.0354	-4.1962	-7.3853	-1.3428	27	273	172	9	1	2
-6.7139	-3.3569	-6.3782	-6.0425	-4.5319	-7.3853	-6.7139	-5.5389	-5.5389	-7.7209	-4.0283	-6.0425	-5.7068	-2.0142	-5.2032	-3.6926	-7.7209	-1.1749	27	274	173	9	1	2
-6.7139	-3.3569	-6.3782	-6.0425	-4.5319	-7.3853	-6.546	-5.5389	-5.7068	-7.7209	-3.8605	-6.0425	-5.7068	-2.0142	-5.2032	-3.3569	-8.0566	-0.5035	27	275	174	9	1	2
-6.546	-3.3569	-6.3782	-5.8746	-4.5319	-7.5531	-6.546	-5.3711	-5.8746	-7.7209	-3.6926	-6.0425	-5.7068	-2.182	-5.0354	-3.1891	-8.3923	-0.1678	27	276	175	9	1	2
-6.7139	-3.5248	-6.546	-6.0425	-4.8676	-7.7209	-6.546	-5.5389	-6.0425	-7.8888	-3.8605	-6.2103	-5.7068	-2.182	-5.0354	-2.6855	-8.5602	0	27	277	176	9	1	2
-6.546	-3.5248	-6.3782	-5.7068	-4.6997	-7.8888	-6.0425	-5.5389	-6.2103	-7.8888	-3.5248	-6.0425	-5.5389	-2.3499	-5.0354	-2.3499	-8.8959	0.5035	27	278	177	9	1	2
-6.7139	-3.8605	-6.7139	-5.8746	-5.0354	-8.0566	-6.0425	-5.7068	-6.546	-7.8888	-3.5248	-6.0425	-5.3711	-2.5177	-4.8676	-2.182	-8.8959	0.6714	27	279	178	9	1	2
-6.8817	-4.0283	-6.7139	-5.7068	-5.0354	-8.0566	-5.8746	-5.5389	-6.3782	-7.8888	-3.5248	-6.2103	-5.3711	-2.5177	-4.8676	-2.0142	-8.8959	1.0071	27	280	179	9	1	2
-6.8817	-4.1962	-6.8817	-5.7068	-5.0354	-8.2245	-5.7068	-5.7068	-6.546	-7.8888	-3.5248	-6.2103	-5.2032	-2.6855	-4.8676	-2.0142	-8.5602	1.1749	27	281	180	9	1	2
-6.8817	-4.0283	-6.8817	-5.7068	-5.0354	-8.2245	-5.3711	-5.5389	-6.546	-7.7209	-3.3569	-6.2103	-4.8676	-2.8534	-4.5319	-1.6785	-8.5602	1.5106	27	282	181	9	1	2
-6.8817	-4.1962	-6.7139	-5.7068	-5.0354	-8.3923	-5.2032	-5.7068	-6.546	-7.7209	-3.3569	-6.0425	-4.8676	-2.8534	-4.5319	-1.5106	-8.2245	1.5106	27	283	182	9	1	2
-6.7139	-4.1962	-6.7139	-5.5389	-4.6997	-8.2245	-5.0354	-5.5389	-6.7139	-7.7209	-3.1891	-5.8746	-4.5319	-3.0212	-4.1962	-1.3428	-8.2245	1.6785	27	284	183	9	1	2
-6.8817	-4.1962	-6.7139	-5.7068	-4.6997	-8.3923	-4.8676	-5.7068	-6.7139	-7.7209	-3.1891	-6.0425	-4.5319	-3.0212	-4.1962	-1.3428	-7.8888	1.6785	27	285	184	9	1	2
-6.7139	-4.0283	-6.546	-5.7068	-4.5319	-8.2245	-4.6997	-5.5389	-6.546	-7.5531	-3.0212	-5.8746	-4.1962	-3.0212	-3.8605	-1.1749	-7.5531	1.6785	27	286	185	9	1	2
-6.546	-3.8605	-6.3782	-5.7068	-4.1962	-8.0566	-4.5319	-5.3711	-6.546	-7.3853	-2.8534	-5.7068	-4.0283	-3.0212	-3.6926	-0.8392	-7.0496	1.6785	27	287	186	9	1	2
-6.2103	-3.5248	-6.3782	-5.8746	-3.8605	-7.8888	-4.364	-5.0354	-6.3782	-7.2174	-2.8534	-5.7068	-3.6926	-3.0212	-3.3569	-0.5035	-6.7139	1.6785	27	288	187	9	1	2
-6.0425	-3.1891	-6.0425	-5.7068	-3.3569	-7.7209	-4.0283	-4.6997	-6.2103	-7.0496	-2.6855	-5.5389	-3.5248	-3.0212	-3.1891	-0.1678	-6.3782	1.6785	27	289	188	9	1	2
-5.5389	-2.6855	-5.5389	-5.3711	-2.6855	-7.2174	-3.8605	-4.1962	-5.8746	-6.546	-2.182	-5.2032	-3.0212	-3.0212	-2.8534	0.3357	-5.8746	1.8463	27	290	189	9	1	2
-5.2032	-2.182	-5.2032	-5.2032	-2.182	-6.8817	-3.5248	-3.6926	-5.7068	-6.3782	-1.8463	-5.0354	-2.6855	-3.0212	-2.5177	0.6714	-5.5389	2.0142	27	291	190	9	1	2
3.0212	-2.6855	4.6997	6.546	-3.6926	6.546	3.8605	-2.3499	6.3782	5.5389	-0.6714	5.8746	8.2245	3.0212	8.728	-5.8746	4.0283	-2.5177	27	231	130	10	1	2
3.6926	-2.182	5.3711	7.0496	-3.0212	7.3853	4.364	-2.0142	7.2174	6.0425	-0.3357	6.546	8.5602	3.1891	8.5602	-5.5389	3.8605	-2.5177	27	232	131	10	1	2
4.0283	-1.5106	6.2103	7.5531	-2.5177	8.0566	4.6997	-1.5106	7.8888	6.3782	-0.1678	6.8817	8.8959	3.1891	8.5602	-5.5389	3.8605	-2.5177	27	233	132	10	1	2
4.8676	-1.0071	6.8817	8.0566	-1.8463	8.728	5.2032	-1.0071	8.728	6.8817	0.1678	7.3853	8.8959	3.1891	8.5602	-5.3711	3.8605	-2.3499	27	234	133	10	1	2
5.3711	-0.6714	7.3853	8.5602	-1.3428	9.2316	5.3711	-0.6714	9.2316	6.8817	0.3357	7.8888	9.0637	3.1891	8.2245	-5.2032	3.6926	-2.5177	27	235	134	10	1	2
5.7068	0.1678	8.0566	8.8959	-0.6714	9.903	5.7068	0	10.0708	7.2174	0.8392	8.3923	9.2316	3.0212	8.2245	-5.0354	3.6926	-2.3499	27	236	135	10	1	2
6.0425	0.5035	8.3923	8.8959	-0.1678	10.2386	5.8746	0.3357	10.5743	7.5531	1.1749	8.5602	9.3994	2.8534	8.0566	-5.0354	3.6926	-2.3499	27	237	136	10	1	2
6.546	0.8392	8.8959	9.2316	0.1678	10.5743	6.0425	0.8392	10.91	7.7209	1.3428	8.8959	9.3994	2.6855	7.8888	-4.8676	3.6926	-2.182	27	238	137	10	1	2
6.7139	1.0071	9.2316	9.2316	0.5035	10.7422	5.8746	1.0071	11.4136	7.3853	1.6785	9.0637	9.2316	2.5177	7.5531	-4.8676	3.5248	-2.182	27	239	138	10	1	2
6.8817	1.3428	9.2316	9.0637	0.8392	10.91	5.7068	1.3428	11.7493	7.5531	2.0142	9.3994	9.0637	2.3499	7.2174	-4.6997	3.3569	-2.0142	27	240	139	10	1	2
7.0496	1.3428	9.3994	9.0637	1.0071	10.91	5.5389	1.6785	11.9171	7.5531	2.182	9.5673	8.8959	2.182	6.8817	-4.8676	3.3569	-2.0142	27	241	140	10	1	2
6.8817	1.5106	9.0637	8.8959	1.3428	10.5743	5.5389	2.0142	11.9171	7.5531	2.5177	9.7351	8.8959	2.0142	6.7139	-4.6997	3.3569	-1.8463	27	242	141	10	1	2
7.0496	1.5106	9.0637	8.5602	1.3428	10.5743	5.2032	1.8463	11.7493	7.2174	2.6855	9.5673	8.5602	2.0142	6.546	-4.6997	3.3569	-1.8463	27	243	142	10	1	2
6.546	1.5106	8.728	8.0566	1.5106	10.0708	5.0354	2.0142	11.5814	7.0496	2.8534	9.5673	8.3923	1.8463	6.3782	-4.6997	3.3569	-1.6785	27	244	143	10	1	2
6.3782	1.3428	8.3923	7.7209	1.5106	9.7351	4.6997	2.0142	11.4136	6.7139	2.6855	9.2316	8.0566	1.8463	6.2103	-4.8676	3.1891	-1.6785	27	245	144	10	1	2
6.2103	1.1749	8.0566	7.3853	1.3428	9.2316	4.364	1.8463	11.0779	6.3782	2.6855	8.8959	7.7209	1.8463	6.0425	-4.8676	3.3569	-1.6785	27	246	145	10	1	2
5.7068	1.0071	7.7209	6.8817	1.1749	8.728	4.0283	1.6785	10.5743	6.0425	2.5177	8.5602	7.3853	1.8463	5.8746	-4.8676	3.3569	-1.6785	27	247	146	10	1	2
5.3711	0.8392	7.2174	6.546	0.8392	8.0566	3.5248	1.5106	10.2386	5.7068	2.5177	8.3923	7.0496	1.8463	5.8746	-5.0354	3.3569	-1.6785	27	248	147	10	1	2
5.3711	0.6714	6.7139	6.0425	0.6714	7.3853	3.0212	1.1749	9.5673	5.2032	2.3499	7.8888	6.546	2.0142	5.7068	-5.0354	3.5248	-1.6785	27	249	148	10	1	2
4.8676	0.3357	6.2103	5.5389	0.3357	6.8817	2.6855	1.1749	9.2316	4.6997	2.182	7.3853	6.2103	2.0142	5.7068	-5.0354	3.6926	-1.6785	27	250	149	10	1	2
4.6997	0.1678	5.8746	5.0354	-0.1678	6.3782	2.182	0.8392	8.5602	4.364	1.8463	6.8817	5.7068	2.0142	5.7068	-5.0354	3.8605	-1.6785	27	251	150	10	1	2
4.1962	0.1678	5.5389	4.6997	-0.1678	5.8746	1.8463	0.6714	8.2245	4.0283	1.8463	6.546	5.5389	2.0142	6.0425	-4.6997	4.364	-1.5106	27	252	151	10	1	2
3.8605	0	5.2032	4.364	-0.5035	5.2032	1.5106	0.3357	7.5531	3.8605	1.5106	6.0425	5.3711	2.0142	6.2103	-4.8676	4.5319	-1.5106	27	253	152	10	1	2
3.8605	0	4.8676	3.6926	-0.8392	4.8676	1.1749	0.1678	7.0496	3.3569	1.1749	5.5389	5.0354	2.182	6.2103	-4.8676	4.8676	-1.5106	27	254	153	10	1	2
3.6926	0	4.5319	3.3569	-1.0071	4.364	0.8392	-0.3357	6.546	3.0212	1.1749	5.2032	4.6997	2.182	6.3782	-4.8676	5.3711	-1.5106	27	255	154	10	1	2
3.6926	-0.1678	4.1962	3.0212	-1.3428	3.8605	0.6714	-0.6714	6.0425	2.6855	0.8392	4.6997	4.5319	2.182	6.546	-4.8676	5.7068	-1.3428	27	256	155	10	1	2
3.6926	0	4.1962	2.6855	-1.5106	3.6926	0.3357	-0.6714	5.7068	2.6855	0.6714	4.364	4.5319	2.182	6.7139	-4.8676	6.0425	-1.0071	27	257	156	10	1	2
3.5248	0.1678	4.1962	2.6855	-1.5106	3.3569	0.1678	-1.0071	5.3711	2.5177	0.6714	4.0283	4.364	2.0142	6.8817	-4.8676	6.2103	-0.8392	27	258	157	10	1	2
3.3569	0	4.0283	2.182	-1.6785	3.3569	0	-1.3428	4.8676	2.182	0.5035	3.8605	4.0283	2.0142	6.8817	-4.6997	6.3782	-0.6714	27	259	158	10	1	2
3.3569	0.1678	4.1962	2.0142	-1.6785	3.1891	0	-1.3428	4.6997	2.0142	0.5035	3.6926	4.0283	1.8463	7.2174	-4.5319	6.2103	-0.3357	27	260	159	10	1	2
3.3569	0.1678	4.0283	1.8463	-1.8463	3.0212	-0.3357	-1.5106	4.364	1.8463	0.3357	3.3569	3.8605	1.6785	7.2174	-4.364	6.0425	0	27	261	160	10	1	2
3.1891	0.1678	3.8605	1.5106	-1.8463	2.8534	-0.5035	-1.6785	4.1962	1.6785	0.1678	3.0212	3.6926	1.5106	7.0496	-4.1962	5.7068	0.3357	27	262	161	10	1	2
2.8534	0	3.5248	1.1749	-2.0142	2.6855	-1.0071	-2.0142	3.6926	1.3428	0	2.6855	3.3569	1.3428	6.7139	-4.1962	5.2032	0.5035	27	263	162	10	1	2
2.6855	0	3.5248	0.8392	-2.182	2.6855	-1.1749	-2.182	3.3569	0.8392	0	2.3499	3.0212	1.0071	6.546	-3.8605	4.5319	0.8392	27	264	163	10	1	2
2.182	-0.3357	3.1891	0.5035	-2.5177	2.3499	-1.5106	-2.5177	2.8534	0.3357	-0.3357	2.0142	2.6855	0.8392	6.2103	-3.6926	3.6926	1.0071	27	265	164	10	1	2
1.8463	-0.5035	3.1891	0	-2.5177	2.3499	-1.8463	-2.8534	2.3499	0	-0.3357	1.6785	2.3499	0.5035	5.7068	-3.1891	2.8534	1.3428	27	266	165	10	1	2
1.3428	-0.8392	2.6855	-0.3357	-2.6855	1.8463	-2.182	-3.1891	1.8463	-0.6714	-0.6714	1.3428	1.8463	0.3357	5.3711	-3.1891	1.8463	1.5106	27	267	166	10	1	2
1.0071	-1.1749	2.5177	-0.6714	-2.8534	1.6785	-2.6855	-3.1891	1.5106	-1.0071	-0.8392	0.8392	1.5106	0	5.0354	-2.6855	1.0071	1.8463	27	268	167	10	1	2
0.6714	-1.5106	2.182	-1.0071	-3.1891	1.3428	-3.0212	-3.5248	1.0071	-1.6785	-1.0071	0.5035	0.8392	-0.1678	4.5319	-2.5177	0	1.6785	27	269	168	10	1	2
0.3357	-1.6785	2.182	-1.0071	-3.0212	1.3428	-3.1891	-3.5248	0.6714	-2.0142	-0.8392	0.3357	0.6714	-0.5035	4.364	-2.182	-1.0071	2.0142	27	270	169	10	1	2
0	-2.0142	1.8463	-1.1749	-3.1891	1.0071	-3.5248	-3.8605	0.1678	-2.5177	-1.1749	-0.1678	0.3357	-0.6714	4.0283	-2.0142	-1.8463	2.182	27	271	170	10	1	2
-0.1678	-2.182	1.6785	-1.1749	-3.1891	0.8392	-3.6926	-3.8605	0	-2.6855	-1.1749	-0.1678	0	-0.8392	3.6926	-1.8463	-2.6855	2.182	27	272	171	10	1	2
-0.3357	-2.182	1.6785	-1.1749	-3.1891	0.8392	-3.8605	-3.8605	-0.3357	-2.8534	-1.1749	-0.5035	-0.1678	-1.1749	3.5248	-1.5106	-3.3569	2.5177	27	273	172	10	1	2
-0.5035	-2.3499	1.6785	-1.1749	-3.0212	0.6714	-3.8605	-3.6926	-0.5035	-3.1891	-1.1749	-0.5035	-0.3357	-1.3428	3.5248	-1.5106	-4.0283	2.6855	27	274	173	10	1	2
-0.5035	-2.3499	1.6785	-1.0071	-2.6855	0.8392	-4.0283	-3.6926	-0.8392	-3.1891	-1.0071	-0.5035	-0.3357	-1.3428	3.5248	-1.1749	-4.364	2.6855	27	275	174	10	1	2
-0.6714	-2.182	1.5106	-1.1749	-2.5177	0.6714	-4.1962	-3.6926	-1.0071	-3.5248	-1.1749	-0.8392	-0.6714	-1.5106	3.5248	-1.0071	-4.6997	2.8534	27	276	175	10	1	2
-0.6714	-2.182	1.6785	-1.1749	-2.3499	0.6714	-4.364	-3.5248	-1.1749	-3.6926	-1.0071	-1.0071	-0.6714	-1.5106	3.5248	-0.8392	-5.0354	3.0212	27	277	176	10	1	2
-1.0071	-2.0142	1.6785	-1.3428	-2.182	0.5035	-4.6997	-3.5248	-1.5106	-4.0283	-1.1749	-1.1749	-1.0071	-1.6785	3.5248	-0.8392	-5.3711	2.8534	27	278	177	10	1	2
-1.1749	-2.0142	1.5106	-1.5106	-2.182	0.3357	-5.0354	-3.6926	-1.8463	-4.364	-1.3428	-1.5106	-1.1749	-1.8463	3.3569	-1.0071	-5.5389	2.6855	27	279	178	10	1	2
-1.1749	-1.8463	1.5106	-1.8463	-2.0142	0.3357	-5.3711	-3.6926	-2.182	-4.6997	-1.3428	-1.6785	-1.3428	-1.8463	3.3569	-0.8392	-5.7068	2.6855	27	280	179	10	1	2
-1.1749	-1.6785	1.3428	-2.0142	-1.8463	0.1678	-5.7068	-3.6926	-2.3499	-5.0354	-1.5106	-2.0142	-1.6785	-1.8463	3.1891	-0.8392	-5.8746	2.6855	27	281	180	10	1	2
-1.5106	-1.6785	1.0071	-2.5177	-2.0142	-0.3357	-6.3782	-3.8605	-2.8534	-5.5389	-1.8463	-2.3499	-2.0142	-2.0142	3.0212	-0.8392	-6.0425	2.5177	27	282	181	10	1	2
-1.6785	-1.6785	0.8392	-3.0212	-1.8463	-0.5035	-6.8817	-4.0283	-3.1891	-5.7068	-2.0142	-2.5177	-2.3499	-2.0142	3.0212	-1.0071	-6.2103	2.3499	27	283	182	10	1	2
-1.8463	-1.6785	0.6714	-3.5248	-2.0142	-0.6714	-7.3853	-4.1962	-3.5248	-6.0425	-2.0142	-2.6855	-2.6855	-2.0142	2.8534	-1.1749	-6.2103	2.182	27	284	183	10	1	2
-2.182	-2.0142	0.1678	-4.0283	-2.5177	-1.3428	-7.8888	-4.5319	-4.0283	-6.546	-2.3499	-3.0212	-3.1891	-2.182	2.5177	-1.6785	-6.3782	2.0142	27	285	184	10	1	2
-2.5177	-2.3499	0	-4.5319	-2.6855	-1.6785	-8.3923	-4.6997	-4.1962	-6.8817	-2.6855	-3.3569	-3.3569	-2.182	2.5177	-2.0142	-6.546	1.8463	27	286	185	10	1	2
-2.5177	-2.6855	-0.3357	-5.0354	-2.8534	-2.0142	-8.728	-4.6997	-4.364	-7.2174	-2.6855	-3.3569	-3.3569	-2.0142	2.5177	-2.182	-6.3782	1.8463	27	287	186	10	1	2
-3.0212	-3.0212	-0.8392	-5.5389	-3.3569	-2.3499	-9.2316	-5.0354	-4.6997	-7.3853	-2.8534	-3.5248	-3.6926	-2.0142	2.5177	-2.3499	-6.3782	1.5106	27	288	187	10	1	2
-3.3569	-3.6926	-1.1749	-6.2103	-3.8605	-2.8534	-9.7351	-5.3711	-4.8676	-7.5531	-3.1891	-3.6926	-3.8605	-2.0142	2.5177	-2.8534	-6.2103	1.3428	27	289	188	10	1	2
-3.5248	-4.0283	-1.6785	-6.7139	-4.1962	-3.1891	-9.7351	-5.5389	-5.0354	-7.5531	-3.0212	-3.5248	-3.6926	-1.8463	2.6855	-3.0212	-5.8746	1.3428	27	290	189	10	1	2
-4.1962	-4.8676	-2.0142	-7.0496	-4.6997	-3.5248	-10.2386	-5.5389	-5.0354	-7.8888	-3.1891	-3.5248	-3.8605	-1.8463	2.8534	-3.5248	-5.8746	1.1749	27	291	190	10	1	2
-4.1962	-5.0354	-1.3428	1.1749	-4.5319	0.1678	1.3428	-2.6855	0.1678	5.8746	0.1678	3.8605	6.546	0.8392	7.0496	-4.0283	1.8463	-2.6855	27	231	130	11	1	2
-4.0283	-4.5319	-1.1749	1.1749	-4.364	0.3357	1.5106	-2.3499	0.3357	5.8746	0.1678	4.0283	6.546	0.8392	7.2174	-3.6926	1.8463	-2.5177	27	232	131	11	1	2
-3.6926	-4.0283	-0.6714	1.5106	-3.8605	0.8392	1.8463	-2.182	0.5035	6.2103	0.3357	4.1962	6.8817	0.8392	7.3853	-3.3569	1.8463	-2.5177	27	233	132	11	1	2
-3.3569	-3.6926	-0.5035	1.5106	-3.3569	1.1749	2.0142	-1.6785	0.6714	6.3782	0.6714	4.5319	6.8817	0.8392	7.3853	-3.0212	2.0142	-2.182	27	234	133	11	1	2
-3.1891	-3.1891	-0.1678	1.5106	-3.0212	1.5106	2.182	-1.3428	1.0071	6.546	0.8392	4.8676	6.8817	0.8392	7.3853	-2.6855	2.0142	-2.0142	27	235	134	11	1	2
-2.8534	-2.6855	0.1678	1.6785	-2.182	2.0142	2.182	-1.0071	1.1749	6.546	1.1749	5.2032	7.0496	0.8392	7.3853	-2.3499	2.182	-1.6785	27	236	135	11	1	2
-2.5177	-2.3499	0.3357	1.6785	-1.6785	2.3499	2.182	-0.3357	1.6785	6.546	1.5106	5.2032	6.8817	0.8392	7.3853	-2.0142	2.3499	-1.5106	27	237	136	11	1	2
-2.0142	-1.6785	0.8392	1.6785	-1.0071	3.0212	2.3499	0.1678	2.0142	6.8817	1.8463	5.7068	7.0496	0.6714	7.3853	-1.5106	2.3499	-1.1749	27	238	137	11	1	2
-1.6785	-1.0071	1.3428	1.6785	-0.5035	3.3569	2.3499	0.6714	2.5177	6.8817	2.3499	6.0425	7.0496	0.6714	7.3853	-1.1749	2.3499	-0.6714	27	239	138	11	1	2
-1.0071	-0.3357	2.0142	1.8463	0.3357	4.0283	2.6855	1.3428	3.1891	7.2174	3.0212	6.546	7.2174	0.5035	7.5531	-0.6714	2.5177	-0.3357	27	240	139	11	1	2
-0.5035	0.3357	2.3499	2.0142	1.0071	4.5319	2.6855	1.6785	3.5248	7.2174	3.3569	6.8817	7.3853	0.3357	7.3853	-0.3357	2.5177	0	27	241	140	11	1	2
0	0.8392	2.8534	2.182	1.6785	4.8676	2.6855	2.3499	4.0283	7.2174	3.6926	7.2174	7.3853	0.3357	7.3853	0	2.8534	0.5035	27	242	141	11	1	2
0.6714	1.6785	3.5248	2.5177	2.5177	5.3711	2.8534	3.0212	4.5319	7.3853	4.1962	7.7209	7.5531	0.1678	7.3853	0.6714	3.1891	1.0071	27	243	142	11	1	2
1.3428	2.3499	4.1962	2.8534	3.0212	5.8746	3.0212	3.5248	5.0354	7.3853	4.6997	8.0566	7.7209	0.1678	7.5531	1.1749	3.3569	1.5106	27	244	143	11	1	2
1.6785	2.8534	4.5319	3.0212	3.5248	6.2103	3.0212	3.8605	5.2032	7.2174	5.2032	8.3923	7.5531	0.1678	7.3853	1.3428	3.3569	2.0142	27	245	144	11	1	2
2.3499	3.5248	5.0354	3.3569	4.0283	6.546	3.0212	4.1962	5.5389	7.3853	5.5389	8.5602	7.5531	0	7.3853	2.0142	3.5248	2.3499	27	246	145	11	1	2
2.6855	3.6926	5.3711	3.3569	4.364	6.546	3.0212	4.5319	5.7068	7.0496	5.5389	8.5602	7.2174	0	7.2174	2.182	3.5248	2.5177	27	247	146	11	1	2
3.0212	4.1962	5.7068	3.6926	4.6997	6.7139	3.0212	4.6997	5.8746	7.0496	5.8746	8.728	7.0496	0	7.3853	2.5177	3.5248	2.6855	27	248	147	11	1	2
3.3569	4.1962	5.8746	3.6926	4.6997	6.7139	2.8534	4.6997	5.8746	6.7139	5.8746	8.5602	6.7139	-0.1678	7.2174	2.6855	3.3569	2.8534	27	249	148	11	1	2
3.6926	4.5319	6.0425	3.8605	5.0354	6.8817	2.8534	4.8676	5.8746	6.3782	6.0425	8.5602	6.546	-0.3357	7.0496	2.8534	3.3569	3.0212	27	250	149	11	1	2
3.8605	4.5319	6.2103	4.0283	5.0354	6.7139	2.5177	4.6997	5.7068	6.0425	5.8746	8.2245	6.0425	-0.5035	6.8817	3.0212	3.1891	3.1891	27	251	150	11	1	2
3.8605	4.364	6.2103	4.0283	5.0354	6.7139	2.3499	4.6997	5.5389	5.5389	5.7068	7.7209	5.5389	-0.6714	6.7139	3.0212	3.0212	3.3569	27	252	151	11	1	2
4.0283	4.1962	6.0425	4.0283	4.8676	6.546	2.182	4.5319	5.3711	5.2032	5.5389	7.5531	4.8676	-0.8392	6.3782	3.1891	2.5177	3.1891	27	253	152	11	1	2
3.8605	3.8605	5.8746	3.6926	4.6997	6.2103	1.8463	4.364	4.8676	4.6997	5.3711	7.0496	4.5319	-1.0071	5.8746	3.0212	2.0142	3.1891	27	254	153	11	1	2
3.8605	3.6926	5.8746	3.6926	4.364	5.8746	1.6785	4.1962	4.6997	4.364	5.2032	6.546	4.0283	-1.1749	5.5389	3.0212	1.6785	3.1891	27	255	154	11	1	2
3.8605	3.3569	5.5389	3.6926	4.0283	5.5389	1.3428	3.8605	4.364	4.0283	4.8676	6.2103	3.5248	-1.3428	4.8676	3.0212	1.1749	3.1891	27	256	155	11	1	2
3.5248	3.1891	5.3711	3.5248	3.8605	5.3711	1.1749	3.5248	3.8605	3.6926	4.6997	5.7068	3.0212	-1.5106	4.364	2.8534	0.8392	3.1891	27	257	156	11	1	2
3.5248	2.8534	5.3711	3.5248	3.5248	5.2032	1.0071	3.3569	3.5248	3.1891	4.364	5.2032	2.5177	-1.6785	4.0283	2.6855	0.5035	3.1891	27	258	157	11	1	2
3.3569	2.6855	5.0354	3.5248	3.3569	4.8676	0.8392	3.1891	3.3569	2.8534	3.8605	4.6997	2.182	-1.8463	3.5248	2.5177	0.1678	3.1891	27	259	158	11	1	2
3.1891	2.5177	4.8676	3.5248	3.1891	4.5319	0.8392	3.0212	3.0212	2.6855	3.6926	4.1962	1.6785	-2.0142	3.0212	2.5177	-0.1678	3.1891	27	260	159	11	1	2
3.0212	2.5177	4.8676	3.5248	3.0212	4.364	0.8392	2.8534	2.6855	2.5177	3.3569	3.8605	1.3428	-2.182	2.6855	2.3499	-0.3357	3.1891	27	261	160	11	1	2
2.8534	2.5177	4.6997	3.5248	2.8534	4.1962	0.6714	2.6855	2.5177	2.3499	3.1891	3.3569	1.0071	-2.3499	2.3499	2.182	-0.5035	3.1891	27	262	161	11	1	2
2.6855	2.5177	4.5319	3.8605	2.8534	4.0283	0.6714	2.5177	2.182	2.182	2.8534	3.0212	0.6714	-2.5177	2.0142	2.182	-0.6714	3.1891	27	263	162	11	1	2
2.6855	2.6855	4.6997	4.0283	2.8534	4.1962	0.6714	2.5177	1.8463	2.0142	2.6855	2.5177	0.3357	-2.6855	1.5106	2.182	-0.8392	3.1891	27	264	163	11	1	2
2.6855	3.0212	4.8676	4.0283	2.8534	4.0283	0.6714	2.182	1.5106	1.8463	2.6855	2.182	0.1678	-2.6855	1.3428	2.0142	-0.6714	3.1891	27	265	164	11	1	2
2.8534	3.3569	4.8676	4.0283	3.0212	4.0283	0.6714	2.0142	1.1749	1.8463	2.3499	1.8463	-0.1678	-2.6855	1.1749	2.182	-0.6714	3.0212	27	266	165	11	1	2
2.6855	3.5248	4.6997	4.1962	2.8534	3.6926	0.5035	2.0142	1.0071	1.6785	2.0142	1.5106	-0.3357	-2.5177	1.0071	2.0142	-0.6714	2.8534	27	267	166	11	1	2
2.5177	3.8605	5.0354	4.364	2.8534	3.5248	0.5035	1.6785	0.5035	1.3428	1.5106	0.8392	-0.6714	-2.5177	0.6714	1.8463	-0.6714	2.6855	27	268	167	11	1	2
2.5177	4.0283	4.6997	4.1962	2.6855	3.3569	0.1678	1.5106	0	1.1749	1.0071	0.3357	-1.0071	-2.3499	0.8392	1.6785	-0.6714	2.3499	27	269	168	11	1	2
2.5177	4.1962	4.8676	4.364	2.6855	3.1891	0	1.1749	-0.6714	0.8392	0.6714	-0.1678	-1.3428	-2.182	0.6714	1.6785	-0.5035	2.182	27	270	169	11	1	2
2.3499	4.1962	4.6997	4.364	2.5177	2.6855	-0.3357	0.6714	-1.1749	0.5035	0.1678	-0.8392	-1.6785	-2.0142	0.5035	1.3428	-0.6714	2.0142	27	271	170	11	1	2
2.182	4.1962	4.5319	4.1962	2.0142	2.3499	-0.6714	0.3357	-1.8463	0	-0.3357	-1.5106	-1.8463	-1.8463	0.5035	1.1749	-0.6714	1.8463	27	272	171	11	1	2
2.0142	4.0283	4.1962	3.8605	1.6785	1.8463	-1.1749	-0.1678	-2.6855	-0.1678	-0.6714	-2.0142	-2.182	-1.6785	0.3357	1.0071	-0.8392	1.6785	27	273	172	11	1	2
1.5106	3.5248	3.6926	3.5248	1.3428	1.3428	-1.5106	-0.3357	-3.0212	-0.5035	-1.0071	-2.5177	-2.5177	-1.3428	0.3357	0.6714	-1.0071	1.5106	27	274	173	11	1	2
1.1749	3.3569	3.5248	3.3569	0.8392	0.8392	-2.182	-1.0071	-3.6926	-1.0071	-1.5106	-3.0212	-2.8534	-1.1749	0.3357	0.5035	-1.1749	1.1749	27	275	174	11	1	2
0.6714	2.6855	2.8534	3.0212	0.1678	0.1678	-2.8534	-1.5106	-4.5319	-1.6785	-2.0142	-3.6926	-3.3569	-1.0071	0.1678	0.1678	-1.6785	1.0071	27	276	175	11	1	2
0.1678	2.182	2.3499	2.5177	-0.3357	-0.5035	-3.3569	-2.182	-5.3711	-2.3499	-2.5177	-4.364	-3.8605	-1.0071	-0.1678	0	-2.182	0.6714	27	277	176	11	1	2
-0.3357	1.6785	1.6785	2.0142	-0.8392	-1.1749	-4.0283	-2.6855	-6.0425	-2.6855	-2.8534	-5.0354	-4.364	-0.8392	-0.3357	-0.3357	-2.5177	0.6714	27	278	177	11	1	2
-1.0071	0.8392	1.1749	1.6785	-1.5106	-1.5106	-4.6997	-3.1891	-6.546	-3.1891	-3.1891	-5.3711	-4.5319	-0.6714	-0.3357	-0.6714	-2.8534	0.5035	27	279	178	11	1	2
-1.6785	0.1678	0.5035	1.0071	-2.0142	-2.182	-5.3711	-3.6926	-7.2174	-3.6926	-3.5248	-5.8746	-5.0354	-0.6714	-0.5035	-1.0071	-3.3569	0.3357	27	280	179	11	1	2
-2.3499	-0.6714	-0.1678	0.5035	-2.6855	-2.8534	-6.0425	-4.1962	-7.8888	-4.0283	-3.8605	-6.3782	-5.3711	-0.6714	-0.6714	-1.1749	-3.8605	0.1678	27	281	180	11	1	2
-2.8534	-1.5106	-0.8392	-0.1678	-3.3569	-3.5248	-6.546	-4.6997	-8.3923	-4.5319	-4.1962	-6.8817	-5.7068	-0.6714	-0.8392	-1.5106	-4.364	0	27	282	181	11	1	2
-3.6926	-2.3499	-1.6785	-0.8392	-3.8605	-4.1962	-7.0496	-5.0354	-8.8959	-4.8676	-4.364	-7.0496	-6.0425	-0.6714	-1.0071	-1.6785	-4.6997	-0.1678	27	283	182	11	1	2
-4.1962	-3.0212	-2.3499	-1.6785	-4.5319	-5.0354	-7.7209	-5.5389	-9.5673	-5.3711	-4.6997	-7.5531	-6.3782	-0.8392	-1.1749	-2.0142	-5.2032	-0.5035	27	284	183	11	1	2
-4.8676	-3.8605	-3.1891	-2.3499	-5.0354	-5.5389	-8.2245	-5.8746	-9.903	-5.5389	-4.6997	-7.7209	-6.546	-0.8392	-1.1749	-2.182	-5.5389	-0.6714	27	285	184	11	1	2
-5.7068	-4.5319	-4.0283	-3.0212	-5.5389	-6.2103	-8.8959	-6.2103	-10.4065	-6.0425	-4.8676	-8.0566	-6.7139	-0.8392	-1.1749	-2.5177	-5.7068	-0.6714	27	286	185	11	1	2
-6.3782	-5.2032	-4.6997	-3.8605	-5.8746	-6.7139	-9.3994	-6.3782	-10.5743	-6.2103	-4.8676	-8.0566	-6.8817	-0.8392	-1.1749	-2.6855	-6.0425	-0.8392	27	287	186	11	1	2
-7.0496	-5.8746	-5.5389	-4.5319	-6.3782	-7.3853	-9.903	-6.8817	-10.7422	-6.546	-4.8676	-8.2245	-7.0496	-1.0071	-1.3428	-2.8534	-6.3782	-1.0071	27	288	187	11	1	2
-7.5531	-6.546	-6.2103	-5.3711	-6.7139	-7.8888	-10.2386	-6.8817	-11.0779	-6.8817	-4.6997	-8.0566	-7.0496	-1.0071	-1.3428	-3.1891	-6.546	-1.0071	27	289	188	11	1	2
-8.2245	-7.2174	-6.8817	-6.2103	-6.8817	-8.3923	-10.91	-6.8817	-11.0779	-7.0496	-4.6997	-8.2245	-7.0496	-1.0071	-1.3428	-3.1891	-6.546	-1.0071	27	290	189	11	1	2
-8.8959	-7.7209	-7.3853	-6.546	-7.0496	-8.5602	-11.2457	-6.7139	-10.7422	-7.0496	-4.364	-7.8888	-6.8817	-0.8392	-1.0071	-3.1891	-6.546	-1.0071	27	291	190	11	1	2
-9.903	-10.4065	-11.9171	-13.7634	-10.2386	-13.092	-11.0779	-11.7493	-11.7493	-5.2032	-7.3853	-4.0283	-0.3357	2.5177	2.8534	-7.8888	1.1749	-6.546	27	231	130	12	1	2
-9.903	-10.5743	-11.9171	-13.7634	-10.0708	-12.7563	-10.7422	-11.5814	-11.4136	-5.0354	-7.2174	-3.8605	-0.1678	2.3499	2.6855	-7.7209	1.1749	-6.2103	27	232	131	12	1	2
-9.903	-10.4065	-11.7493	-13.7634	-10.0708	-12.7563	-10.7422	-11.5814	-11.0779	-5.2032	-7.3853	-3.6926	-0.1678	2.3499	2.8534	-7.8888	1.3428	-6.3782	27	233	132	12	1	2
-9.3994	-10.2386	-11.2457	-13.4277	-9.7351	-12.4207	-10.4065	-11.4136	-10.4065	-4.6997	-6.8817	-3.1891	0.3357	2.182	2.5177	-7.5531	1.1749	-6.0425	27	234	133	12	1	2
-9.0637	-9.903	-10.91	-13.2599	-9.5673	-12.085	-10.0708	-11.0779	-10.0708	-4.6997	-6.546	-2.6855	0.5035	2.0142	2.3499	-7.3853	1.3428	-5.7068	27	235	134	12	1	2
-8.728	-9.5673	-10.5743	-12.9242	-9.0637	-11.7493	-9.5673	-10.5743	-9.3994	-4.364	-6.3782	-2.5177	0.6714	1.8463	2.3499	-7.2174	1.3428	-5.5389	27	236	135	12	1	2
-8.0566	-9.0637	-9.903	-12.5885	-8.728	-11.2457	-9.2316	-10.2386	-8.728	-4.1962	-6.0425	-2.0142	1.0071	1.6785	2.182	-7.0496	1.5106	-5.3711	27	237	136	12	1	2
-7.7209	-8.8959	-9.5673	-12.4207	-8.3923	-11.0779	-9.0637	-9.903	-8.2245	-4.0283	-5.8746	-1.6785	1.1749	1.5106	2.182	-6.8817	1.5106	-5.3711	27	238	137	12	1	2
-7.2174	-8.5602	-9.0637	-11.9171	-7.8888	-10.5743	-8.728	-9.5673	-7.7209	-3.8605	-5.5389	-1.1749	1.1749	1.1749	1.8463	-6.7139	1.3428	-5.2032	27	239	138	12	1	2
-6.7139	-8.0566	-8.5602	-11.5814	-7.3853	-10.0708	-8.5602	-9.2316	-7.2174	-3.5248	-5.0354	-0.6714	1.3428	1.0071	1.6785	-6.546	1.1749	-5.0354	27	240	139	12	1	2
-6.3782	-8.0566	-8.3923	-11.4136	-7.2174	-10.0708	-8.5602	-9.0637	-6.8817	-3.5248	-5.0354	-0.5035	1.5106	0.8392	1.3428	-6.3782	1.0071	-5.2032	27	241	140	12	1	2
-6.2103	-7.7209	-8.0566	-11.2457	-6.8817	-9.7351	-8.3923	-8.8959	-6.546	-3.5248	-4.8676	-0.3357	1.1749	0.5035	1.3428	-6.2103	0.6714	-5.2032	27	242	141	12	1	2
-5.8746	-7.5531	-7.7209	-11.0779	-6.546	-9.3994	-8.2245	-8.728	-6.2103	-3.5248	-4.6997	0	1.3428	0.3357	1.1749	-5.8746	0.3357	-5.0354	27	243	142	12	1	2
-5.8746	-7.3853	-7.7209	-11.0779	-6.7139	-9.5673	-8.5602	-8.728	-6.2103	-3.8605	-4.6997	0	1.3428	0.3357	0.8392	-5.8746	0.1678	-5.2032	27	244	143	12	1	2
-5.7068	-7.0496	-7.5531	-11.0779	-6.3782	-9.3994	-8.3923	-8.5602	-6.0425	-3.8605	-4.5319	0.1678	1.1749	0.3357	0.8392	-5.5389	-0.3357	-5.0354	27	245	144	12	1	2
-5.5389	-7.0496	-7.3853	-10.91	-6.3782	-9.3994	-8.5602	-8.728	-6.0425	-4.0283	-4.5319	0	1.1749	0.1678	0.8392	-5.5389	-0.6714	-5.2032	27	246	145	12	1	2
-5.5389	-7.0496	-7.3853	-11.0779	-6.2103	-9.5673	-8.728	-8.5602	-6.0425	-4.0283	-4.364	0	1.1749	0.3357	0.6714	-5.2032	-1.0071	-5.3711	27	247	146	12	1	2
-5.7068	-6.8817	-7.3853	-11.0779	-6.2103	-9.5673	-8.728	-8.728	-6.2103	-4.364	-4.5319	-0.1678	0.8392	0.3357	0.5035	-5.2032	-1.5106	-5.2032	27	248	147	12	1	2
-5.5389	-6.7139	-7.3853	-10.91	-6.3782	-9.3994	-8.8959	-8.728	-6.2103	-4.364	-4.5319	-0.1678	0.8392	0.3357	0.3357	-4.8676	-2.0142	-5.2032	27	249	148	12	1	2
-5.5389	-6.7139	-7.5531	-10.91	-6.3782	-9.7351	-8.8959	-8.728	-6.3782	-4.5319	-4.364	-0.3357	0.6714	0.5035	0.1678	-4.8676	-2.182	-5.3711	27	250	149	12	1	2
-5.5389	-6.546	-7.5531	-10.91	-6.2103	-9.5673	-8.8959	-8.8959	-6.3782	-4.6997	-4.364	-0.3357	0.6714	0.5035	0.3357	-4.6997	-2.5177	-5.2032	27	251	150	12	1	2
-5.7068	-6.546	-7.5531	-10.91	-6.546	-9.7351	-8.8959	-9.0637	-6.7139	-4.8676	-4.5319	-0.6714	0.6714	0.5035	0	-4.6997	-3.0212	-5.2032	27	252	151	12	1	2
-5.7068	-6.546	-7.7209	-11.0779	-6.7139	-9.903	-8.8959	-9.0637	-6.8817	-4.6997	-4.6997	-0.8392	0.6714	0.6714	-0.1678	-4.8676	-3.3569	-5.3711	27	253	152	12	1	2
-5.8746	-6.546	-7.7209	-10.91	-6.8817	-9.7351	-8.8959	-9.0637	-6.7139	-4.6997	-4.5319	-0.8392	0.6714	0.6714	-0.1678	-4.6997	-3.6926	-5.2032	27	254	153	12	1	2
-6.2103	-6.7139	-8.0566	-11.0779	-6.8817	-9.903	-9.0637	-9.2316	-7.0496	-4.6997	-4.5319	-1.0071	0.6714	0.6714	-0.3357	-4.8676	-3.8605	-5.2032	27	255	154	12	1	2
-6.7139	-7.0496	-8.2245	-11.2457	-7.2174	-10.0708	-9.0637	-9.3994	-7.2174	-4.8676	-4.5319	-1.1749	0.6714	0.8392	-0.5035	-5.0354	-4.1962	-5.2032	27	256	155	12	1	2
-7.2174	-7.3853	-8.728	-11.5814	-7.7209	-10.4065	-9.2316	-9.5673	-7.5531	-4.8676	-4.6997	-1.5106	0.6714	0.8392	-0.6714	-5.2032	-4.364	-5.2032	27	257	156	12	1	2
-7.7209	-7.7209	-9.0637	-11.9171	-8.0566	-10.5743	-9.3994	-9.7351	-7.7209	-5.0354	-4.6997	-1.6785	0.5035	0.8392	-0.6714	-5.2032	-4.5319	-5.0354	27	258	157	12	1	2
-8.2245	-8.0566	-9.3994	-12.4207	-8.5602	-11.0779	-9.5673	-9.903	-8.2245	-5.0354	-5.0354	-1.8463	0.5035	0.8392	-0.8392	-5.2032	-4.6997	-5.0354	27	259	158	12	1	2
-8.8959	-8.5602	-9.903	-12.7563	-8.8959	-11.2457	-9.7351	-10.2386	-8.3923	-5.2032	-5.0354	-2.0142	0.5035	0.6714	-0.8392	-5.2032	-4.8676	-4.8676	27	260	159	12	1	2
-9.5673	-9.2316	-10.4065	-13.4277	-9.2316	-11.7493	-10.2386	-10.5743	-8.8959	-5.7068	-5.2032	-2.3499	0.3357	0.6714	-1.1749	-5.3711	-5.2032	-4.8676	27	261	160	12	1	2
-10.0708	-9.5673	-11.0779	-13.9313	-9.5673	-11.9171	-10.5743	-10.7422	-9.2316	-5.8746	-5.3711	-2.6855	0.1678	0.5035	-1.3428	-5.3711	-5.2032	-4.6997	27	262	161	12	1	2
-10.91	-10.0708	-11.7493	-14.7705	-10.0708	-12.4207	-11.0779	-11.0779	-9.5673	-6.2103	-5.5389	-3.0212	-0.3357	0.5035	-1.5106	-5.5389	-5.3711	-4.6997	27	263	162	12	1	2
-11.4136	-10.7422	-12.2528	-15.274	-10.5743	-12.5885	-11.4136	-11.2457	-9.903	-6.3782	-5.7068	-3.3569	-0.5035	0.3357	-1.8463	-5.7068	-5.5389	-4.6997	27	264	163	12	1	2
-12.2528	-11.2457	-13.092	-15.9454	-11.2457	-13.2599	-11.7493	-11.5814	-10.4065	-6.8817	-6.0425	-3.6926	-0.8392	0.1678	-2.182	-5.8746	-5.7068	-4.6997	27	265	164	12	1	2
-12.9242	-11.7493	-13.5956	-16.7847	-11.7493	-13.7634	-12.2528	-12.085	-11.0779	-7.3853	-6.2103	-4.1962	-1.1749	0.1678	-2.3499	-6.2103	-5.8746	-4.8676	27	266	165	12	1	2
-13.5956	-12.2528	-14.267	-17.6239	-12.2528	-14.0991	-12.7563	-12.4207	-11.4136	-7.7209	-6.546	-4.6997	-1.5106	0	-2.6855	-6.546	-6.0425	-4.8676	27	267	166	12	1	2
-14.0991	-12.5885	-14.7705	-18.1274	-12.5885	-14.4348	-13.092	-12.5885	-11.7493	-8.0566	-6.8817	-5.0354	-1.8463	-0.1678	-2.8534	-6.7139	-6.2103	-4.8676	27	268	167	12	1	2
-14.6027	-13.092	-15.4419	-18.7988	-12.9242	-14.9384	-13.5956	-12.9242	-12.2528	-8.5602	-7.3853	-5.5389	-2.182	-0.3357	-3.1891	-7.2174	-6.3782	-5.0354	27	269	168	12	1	2
-15.274	-13.4277	-16.1133	-19.4702	-13.4277	-15.274	-14.0991	-13.2599	-12.7563	-8.8959	-7.7209	-6.0425	-2.6855	-0.5035	-3.3569	-7.5531	-6.7139	-5.2032	27	270	169	12	1	2
-15.7776	-13.5956	-16.7847	-20.1416	-13.9313	-15.7776	-14.6027	-13.7634	-13.2599	-9.3994	-8.0566	-6.3782	-3.1891	-0.5035	-3.6926	-8.0566	-7.0496	-5.3711	27	271	170	12	1	2
-15.9454	-13.9313	-17.2882	-20.6451	-14.0991	-15.9454	-14.9384	-13.7634	-13.2599	-9.7351	-8.3923	-6.7139	-3.3569	-0.6714	-3.8605	-8.2245	-7.0496	-5.3711	27	272	171	12	1	2
-16.2811	-14.267	-17.7917	-21.3165	-14.6027	-16.2811	-15.4419	-14.0991	-13.7634	-10.4065	-8.8959	-7.3853	-3.8605	-0.6714	-4.0283	-8.728	-7.3853	-5.7068	27	273	172	12	1	2
-16.449	-14.267	-18.1274	-21.6522	-14.6027	-16.449	-15.9454	-14.4348	-14.0991	-10.7422	-9.2316	-7.7209	-4.0283	-0.6714	-4.0283	-8.728	-7.5531	-5.7068	27	274	173	12	1	2
-16.7847	-14.4348	-18.2953	-22.1558	-14.7705	-16.6168	-16.1133	-14.6027	-14.4348	-10.91	-9.5673	-8.0566	-4.364	-0.8392	-4.1962	-8.8959	-7.7209	-5.8746	27	275	174	12	1	2
-16.9525	-14.7705	-18.631	-22.6593	-14.9384	-16.7847	-16.6168	-14.9384	-14.6027	-11.4136	-9.903	-8.3923	-4.8676	-0.8392	-4.5319	-9.2316	-8.2245	-6.2103	27	276	175	12	1	2
-16.9525	-14.7705	-18.9667	-22.995	-15.1062	-16.9525	-16.7847	-15.1062	-14.9384	-11.7493	-10.0708	-8.728	-5.2032	-1.0071	-4.6997	-9.0637	-8.3923	-6.3782	27	277	176	12	1	2
-16.9525	-14.9384	-18.9667	-23.1628	-15.1062	-16.9525	-17.2882	-15.4419	-15.274	-12.2528	-10.5743	-9.0637	-5.7068	-1.0071	-5.0354	-9.2316	-8.3923	-6.3782	27	278	177	12	1	2
-16.7847	-14.9384	-18.9667	-23.3307	-15.1062	-16.9525	-17.4561	-15.274	-15.1062	-12.4207	-10.7422	-9.2316	-5.7068	-1.1749	-5.2032	-9.0637	-8.5602	-6.3782	27	279	178	12	1	2
-16.7847	-14.9384	-18.9667	-23.4985	-15.274	-16.9525	-17.7917	-15.4419	-15.4419	-12.7563	-10.91	-9.5673	-6.0425	-1.1749	-5.5389	-9.0637	-8.5602	-6.3782	27	280	179	12	1	2
-16.6168	-15.1062	-18.9667	-23.4985	-15.274	-16.9525	-17.9596	-15.6097	-15.6097	-12.9242	-11.0779	-9.7351	-6.3782	-1.3428	-5.7068	-8.8959	-8.728	-6.3782	27	281	180	12	1	2
-16.2811	-15.1062	-18.7988	-23.4985	-14.9384	-16.7847	-17.7917	-15.4419	-15.6097	-13.092	-10.91	-9.7351	-6.3782	-1.5106	-5.8746	-8.5602	-8.5602	-6.2103	27	282	181	12	1	2
-16.1133	-15.1062	-18.631	-23.4985	-14.9384	-16.6168	-17.9596	-15.6097	-15.7776	-13.2599	-11.0779	-9.903	-6.7139	-1.5106	-6.0425	-8.0566	-8.3923	-6.0425	27	283	182	12	1	2
-15.6097	-15.1062	-18.2953	-23.3307	-14.7705	-16.6168	-17.9596	-15.4419	-15.6097	-13.2599	-10.91	-9.903	-6.7139	-1.5106	-6.0425	-7.8888	-8.0566	-5.8746	27	284	183	12	1	2
-15.274	-14.9384	-17.9596	-23.1628	-14.6027	-16.449	-17.9596	-15.274	-15.6097	-13.2599	-10.7422	-10.0708	-6.7139	-1.6785	-6.0425	-7.3853	-7.7209	-5.3711	27	285	184	12	1	2
-15.1062	-14.9384	-17.7917	-23.1628	-14.4348	-16.449	-18.1274	-15.274	-15.7776	-13.4277	-10.91	-10.2386	-6.8817	-1.6785	-6.2103	-7.2174	-7.5531	-5.2032	27	286	185	12	1	2
-14.7705	-14.9384	-17.6239	-22.995	-14.0991	-16.2811	-18.1274	-14.9384	-15.7776	-13.4277	-10.7422	-10.0708	-6.7139	-1.6785	-6.0425	-6.8817	-7.0496	-4.8676	27	287	186	12	1	2
-14.4348	-14.7705	-17.2882	-22.8271	-13.9313	-15.9454	-18.1274	-14.7705	-15.6097	-13.2599	-10.4065	-10.0708	-6.8817	-1.8463	-6.0425	-6.3782	-6.7139	-4.364	27	288	187	12	1	2
-14.0991	-14.6027	-16.9525	-22.6593	-13.5956	-15.7776	-17.9596	-14.6027	-15.7776	-13.4277	-10.2386	-9.903	-6.7139	-1.8463	-5.8746	-6.0425	-6.3782	-4.0283	27	289	188	12	1	2
-13.9313	-14.6027	-16.7847	-22.6593	-13.4277	-15.9454	-18.1274	-14.4348	-15.7776	-13.4277	-10.0708	-9.903	-6.7139	-2.0142	-5.8746	-5.7068	-6.546	-3.6926	27	290	189	12	1	2
-13.7634	-14.267	-16.449	-22.4915	-13.092	-15.6097	-18.2953	-14.0991	-15.6097	-13.4277	-9.5673	-9.7351	-6.546	-2.0142	-5.8746	-5.3711	-6.3782	-3.0212	27	291	190	12	1	2
0	-7.7209	-3.0212	1.3428	-6.3782	-3.6926	-1.3428	-2.5177	2.182	2.8534	-3.8605	2.5177	2.6855	2.3499	6.7139	-5.5389	3.3569	-3.5248	27	231	130	13	1	2
0.8392	-7.2174	-2.182	2.0142	-5.7068	-2.8534	-0.5035	-2.0142	3.0212	3.5248	-3.3569	3.3569	3.1891	2.5177	6.8817	-5.5389	3.1891	-3.5248	27	232	131	13	1	2
1.5106	-6.546	-1.5106	2.6855	-5.2032	-2.0142	0.1678	-1.3428	3.8605	4.364	-2.8534	4.1962	3.8605	2.6855	7.0496	-5.5389	3.0212	-3.5248	27	233	132	13	1	2
2.0142	-6.0425	-0.8392	3.1891	-4.5319	-1.1749	1.0071	-0.8392	4.8676	5.2032	-2.3499	5.0354	4.5319	2.8534	7.3853	-5.5389	3.0212	-3.6926	27	234	133	13	1	2
2.5177	-5.3711	-0.1678	3.6926	-3.8605	-0.3357	1.8463	-0.1678	5.7068	6.0425	-1.8463	5.7068	5.2032	3.0212	7.8888	-5.7068	2.8534	-3.8605	27	235	134	13	1	2
2.6855	-5.0354	0.3357	4.0283	-3.1891	0.3357	2.6855	0.5035	6.7139	7.0496	-1.1749	6.546	6.0425	3.1891	8.2245	-6.0425	2.8534	-4.1962	27	236	135	13	1	2
3.0212	-4.364	1.1749	4.364	-2.5177	1.3428	3.3569	1.0071	7.5531	7.8888	-0.8392	7.3853	6.8817	3.3569	8.728	-6.2103	2.8534	-4.5319	27	237	136	13	1	2
3.3569	-3.8605	1.3428	4.364	-1.8463	2.0142	4.1962	1.6785	8.3923	8.728	-0.3357	8.0566	7.5531	3.5248	9.2316	-6.3782	3.0212	-4.8676	27	238	137	13	1	2
3.5248	-3.1891	1.8463	4.6997	-1.3428	2.3499	4.8676	2.182	9.0637	9.7351	0	8.8959	8.3923	3.6926	9.7351	-6.7139	3.1891	-5.3711	27	239	138	13	1	2
3.5248	-2.6855	2.182	4.6997	-0.8392	3.0212	5.5389	2.6855	9.7351	10.4065	0.3357	9.5673	9.0637	3.8605	10.2386	-7.0496	3.1891	-5.7068	27	240	139	13	1	2
3.6926	-2.182	2.5177	4.8676	0	3.5248	6.2103	3.1891	10.4065	11.2457	0.5035	9.903	9.903	4.0283	10.7422	-7.2174	3.3569	-6.3782	27	241	140	13	1	2
3.5248	-1.6785	2.5177	4.6997	0.3357	3.8605	6.7139	3.5248	10.91	11.7493	0.5035	10.4065	10.2386	4.0283	10.91	-7.2174	3.5248	-6.7139	27	242	141	13	1	2
3.3569	-1.3428	2.6855	4.6997	0.8392	4.364	7.3853	4.0283	11.5814	12.5885	0.6714	10.91	10.91	4.1962	11.4136	-7.2174	3.6926	-6.8817	27	243	142	13	1	2
3.5248	-0.8392	3.0212	4.8676	1.3428	4.8676	8.0566	4.5319	12.085	13.4277	1.0071	11.4136	11.5814	4.364	11.9171	-7.0496	3.5248	-7.0496	27	244	143	13	1	2
3.5248	-0.5035	3.1891	5.0354	1.8463	5.3711	8.728	4.8676	12.7563	14.0991	1.1749	11.9171	12.2528	4.5319	12.2528	-7.0496	3.5248	-7.3853	27	245	144	13	1	2
3.5248	-0.3357	3.3569	5.0354	2.0142	5.5389	9.2316	5.0354	13.092	14.6027	1.1749	12.2528	12.5885	4.5319	12.4207	-6.8817	3.5248	-7.5531	27	246	145	13	1	2
3.3569	-0.3357	3.3569	5.0354	2.0142	5.8746	9.7351	5.2032	13.2599	15.1062	1.1749	12.4207	12.9242	4.5319	12.5885	-6.7139	4.0283	-7.5531	27	247	146	13	1	2
3.3569	-0.3357	3.5248	5.2032	2.182	6.0425	10.0708	5.3711	13.4277	15.4419	1.0071	12.5885	13.2599	4.5319	12.7563	-6.546	4.0283	-7.7209	27	248	147	13	1	2
3.3569	-0.1678	3.6926	5.2032	2.182	6.0425	10.4065	5.3711	13.5956	15.7776	0.8392	12.7563	13.5956	4.5319	12.7563	-6.3782	4.0283	-7.7209	27	249	148	13	1	2
3.3569	-0.3357	3.6926	5.2032	2.0142	6.2103	10.7422	5.3711	13.5956	16.1133	0.8392	12.7563	13.5956	4.5319	12.7563	-6.3782	3.8605	-7.8888	27	250	149	13	1	2
3.1891	-0.5035	3.5248	5.2032	2.182	6.3782	11.0779	5.3711	13.7634	16.1133	0.6714	12.7563	13.5956	4.5319	12.7563	-6.2103	4.0283	-8.0566	27	251	150	13	1	2
3.1891	-0.8392	3.5248	5.2032	1.8463	6.2103	10.91	5.2032	13.4277	15.9454	0.1678	12.4207	13.4277	4.364	12.4207	-6.2103	4.0283	-8.0566	27	252	151	13	1	2
3.0212	-1.1749	3.5248	5.2032	1.6785	6.2103	11.0779	5.0354	13.4277	15.7776	0	12.2528	13.2599	4.364	12.2528	-6.2103	4.0283	-8.2245	27	253	152	13	1	2
2.6855	-1.6785	3.1891	5.0354	1.3428	5.8746	10.7422	4.8676	13.092	15.4419	-0.3357	11.9171	12.9242	4.1962	11.9171	-6.2103	3.8605	-8.2245	27	254	153	13	1	2
2.5177	-2.0142	3.0212	4.8676	1.0071	5.7068	10.5743	4.5319	12.7563	14.9384	-0.5035	11.5814	12.5885	4.0283	11.5814	-6.0425	3.8605	-8.0566	27	255	154	13	1	2
2.182	-2.3499	2.8534	4.6997	0.8392	5.5389	10.2386	4.364	12.5885	14.6027	-0.6714	11.2457	12.2528	3.8605	11.2457	-5.8746	3.8605	-7.7209	27	256	155	13	1	2
1.8463	-2.6855	2.6855	4.364	0.5035	5.3711	9.903	4.1962	12.2528	14.0991	-0.8392	10.91	11.7493	3.6926	10.91	-5.5389	3.8605	-7.3853	27	257	156	13	1	2
1.5106	-3.0212	2.3499	4.0283	0.1678	5.0354	9.2316	3.8605	11.9171	13.4277	-1.1749	10.4065	11.2457	3.3569	10.4065	-5.2032	3.8605	-6.8817	27	258	157	13	1	2
1.3428	-3.5248	2.182	3.8605	0	4.8676	8.728	3.6926	11.5814	12.7563	-1.1749	10.0708	10.7422	3.1891	10.0708	-5.2032	3.5248	-6.546	27	259	158	13	1	2
1.0071	-3.8605	2.0142	3.5248	-0.3357	4.6997	8.2245	3.5248	11.2457	12.085	-1.5106	9.5673	10.0708	3.0212	9.5673	-4.8676	3.3569	-6.0425	27	260	159	13	1	2
0.6714	-4.1962	1.5106	3.0212	-0.8392	4.364	7.3853	3.0212	10.5743	11.2457	-1.6785	8.8959	9.2316	2.6855	9.0637	-4.6997	3.1891	-5.5389	27	261	160	13	1	2
0.3357	-4.5319	1.3428	2.5177	-1.1749	4.0283	6.7139	2.5177	10.0708	10.4065	-2.0142	8.2245	8.5602	2.5177	8.3923	-4.5319	2.8534	-5.2032	27	262	161	13	1	2
0	-5.2032	0.8392	2.0142	-1.5106	3.8605	6.0425	2.182	9.5673	9.3994	-2.3499	7.5531	7.7209	2.3499	7.8888	-4.364	2.5177	-5.0354	27	263	162	13	1	2
-0.3357	-5.5389	0.5035	1.5106	-2.0142	3.3569	5.0354	1.5106	8.8959	8.3923	-2.8534	6.7139	6.8817	2.182	7.2174	-4.364	2.0142	-4.6997	27	264	163	13	1	2
-0.8392	-6.0425	0.1678	1.1749	-2.5177	3.1891	4.5319	1.1749	8.3923	7.3853	-3.5248	6.0425	6.0425	2.182	6.7139	-4.6997	1.6785	-4.6997	27	265	164	13	1	2
-1.1749	-6.7139	-0.3357	0.8392	-2.8534	2.8534	3.8605	0.6714	7.7209	6.3782	-4.0283	5.2032	4.6997	2.0142	5.8746	-4.8676	1.1749	-4.8676	27	266	165	13	1	2
-1.5106	-7.0496	-0.5035	0.1678	-3.3569	2.3499	3.0212	0	7.0496	5.3711	-4.364	4.364	3.6926	1.8463	5.2032	-4.8676	0.5035	-4.6997	27	267	166	13	1	2
-2.0142	-7.7209	-1.0071	-0.3357	-3.8605	2.182	2.3499	-0.5035	6.7139	4.364	-5.0354	3.6926	2.6855	1.8463	4.364	-5.0354	0	-4.8676	27	268	167	13	1	2
-2.3499	-8.2245	-1.1749	-0.8392	-4.364	2.0142	1.6785	-1.0071	6.0425	3.3569	-5.3711	2.6855	1.6785	1.8463	3.6926	-5.3711	-0.3357	-5.0354	27	269	168	13	1	2
-2.6855	-8.728	-1.6785	-1.3428	-4.6997	1.3428	1.0071	-1.5106	5.3711	2.3499	-6.0425	1.8463	0.6714	1.6785	3.0212	-5.5389	-0.8392	-5.0354	27	270	169	13	1	2
-3.1891	-9.2316	-2.182	-1.8463	-5.2032	1.3428	0.5035	-1.8463	4.8676	1.5106	-6.546	1.1749	-0.5035	1.8463	2.3499	-5.7068	-1.1749	-5.3711	27	271	170	13	1	2
-3.8605	-9.7351	-2.5177	-2.182	-5.5389	1.0071	-0.1678	-2.3499	4.1962	0.5035	-7.0496	0.3357	-1.6785	1.8463	1.6785	-6.0425	-1.6785	-5.5389	27	272	171	13	1	2
-4.364	-10.2386	-3.0212	-2.8534	-5.8746	0.3357	-0.8392	-2.8534	3.6926	-0.5035	-7.7209	-0.3357	-2.8534	1.8463	0.8392	-6.3782	-2.182	-5.8746	27	273	172	13	1	2
-5.0354	-10.7422	-3.6926	-3.3569	-6.3782	-0.1678	-1.5106	-3.3569	3.0212	-1.6785	-8.2245	-1.1749	-4.0283	1.8463	0	-6.7139	-2.6855	-6.2103	27	274	173	13	1	2
-5.7068	-11.0779	-4.1962	-4.0283	-6.7139	-0.5035	-2.182	-3.8605	2.5177	-2.6855	-8.728	-1.8463	-5.2032	1.8463	-0.6714	-7.2174	-3.1891	-6.546	27	275	174	13	1	2
-6.0425	-11.5814	-4.5319	-4.5319	-7.0496	-1.0071	-3.0212	-4.1962	1.8463	-3.5248	-9.2316	-2.5177	-6.3782	1.8463	-1.5106	-7.5531	-3.6926	-6.8817	27	276	175	13	1	2
-6.7139	-11.7493	-5.2032	-5.0354	-7.3853	-1.3428	-3.6926	-4.5319	1.3428	-4.364	-9.5673	-3.1891	-7.3853	1.8463	-2.182	-7.8888	-4.1962	-7.0496	27	277	176	13	1	2
-6.8817	-11.9171	-5.5389	-5.5389	-7.5531	-1.6785	-4.0283	-4.5319	1.0071	-5.2032	-9.903	-3.6926	-8.2245	1.6785	-2.8534	-8.2245	-4.6997	-7.2174	27	278	177	13	1	2
-7.5531	-12.4207	-6.0425	-6.0425	-7.8888	-2.182	-4.6997	-5.0354	0.5035	-6.2103	-10.2386	-4.1962	-9.2316	1.6785	-3.5248	-8.728	-5.2032	-7.5531	27	279	178	13	1	2
-7.8888	-12.4207	-6.3782	-6.546	-8.0566	-2.5177	-5.0354	-5.0354	0.3357	-6.546	-10.4065	-4.5319	-9.903	1.6785	-4.0283	-8.728	-5.5389	-7.7209	27	280	179	13	1	2
-7.8888	-12.4207	-6.7139	-6.8817	-8.0566	-2.8534	-5.7068	-5.2032	-0.1678	-7.2174	-10.5743	-4.8676	-10.4065	1.6785	-4.1962	-9.0637	-5.7068	-7.7209	27	281	180	13	1	2
-8.0566	-12.2528	-7.0496	-7.2174	-7.8888	-3.0212	-6.0425	-5.0354	-0.1678	-7.5531	-10.5743	-5.0354	-10.91	1.5106	-4.5319	-9.0637	-6.0425	-7.8888	27	282	181	13	1	2
-8.0566	-12.2528	-7.3853	-7.7209	-7.8888	-3.3569	-6.2103	-4.8676	-0.3357	-7.7209	-10.4065	-5.0354	-11.4136	1.5106	-4.6997	-9.0637	-6.2103	-7.8888	27	283	182	13	1	2
