"FZ"	"FC3"	"FCZ"	"FC4"	"C3"	"CZ"	"C4"	"CP3"	"CPZ"	"CP4"	"P3"	"PZ"	"P4"	"OZ"	"P8"	"TP7"	"TP8"	"P7"	"Subject"	"Points"	"Time"	"Trial"	"Rejected"	"Correct"
3.8605	1.5106	6.2103	11.9171	4.5319	8.728	9.3994	6.2103	4.0283	3.0212	3.3569	2.8534	0.5035	1.5106	3.8605	-0.3357	6.7139	0.5035	17	221	120	1	1	2
3.5248	1.8463	6.546	11.9171	5.3711	9.5673	9.5673	7.8888	5.7068	3.8605	5.7068	4.8676	2.0142	1.5106	5.0354	0.3357	7.2174	2.3499	17	222	121	1	1	2
3.6926	2.5177	7.0496	12.2528	6.3782	10.5743	10.0708	9.5673	7.7209	5.0354	8.3923	7.2174	3.8605	1.6785	6.0425	1.1749	7.8888	4.6997	17	223	122	1	1	2
4.0283	3.1891	7.7209	12.5885	7.5531	12.085	10.7422	11.7493	9.5673	6.0425	10.91	9.5673	5.5389	1.6785	6.8817	2.3499	8.3923	7.0496	17	224	123	1	1	2
4.5319	4.5319	8.728	13.092	8.8959	13.2599	11.2457	13.5956	11.2457	7.0496	13.4277	11.5814	7.0496	1.5106	7.2174	3.5248	8.5602	9.2316	17	225	124	1	1	2
5.2032	5.8746	9.903	13.5956	10.5743	14.4348	11.7493	15.4419	13.4277	8.3923	15.9454	13.9313	8.8959	1.5106	7.7209	5.0354	8.8959	11.7493	17	226	125	1	1	2
6.0425	7.5531	11.0779	14.267	12.085	16.1133	12.5885	17.6239	15.6097	9.5673	18.631	16.449	10.4065	1.5106	8.0566	6.7139	9.2316	14.0991	17	227	126	1	1	2
7.2174	9.2316	12.5885	14.6027	13.5956	17.6239	13.4277	19.3024	17.4561	10.7422	20.6451	18.4631	12.085	1.3428	7.8888	8.2245	9.2316	16.1133	17	228	127	1	1	2
8.3923	11.2457	14.0991	15.274	15.1062	19.1345	14.0991	20.9808	19.4702	12.085	22.8271	20.4773	13.5956	1.3428	7.7209	9.903	9.3994	17.9596	17	229	128	1	1	2
9.7351	13.092	15.6097	15.7776	16.7847	20.6451	14.9384	22.6593	21.3165	13.2599	24.5056	22.4915	15.1062	1.3428	7.2174	11.2457	9.5673	19.4702	17	230	129	1	1	2
11.4136	14.9384	16.9525	16.2811	18.2953	21.9879	15.6097	24.0021	22.8271	14.267	25.6805	24.0021	16.1133	1.1749	6.3782	12.4207	9.2316	20.6451	17	231	130	1	1	2
12.9242	17.1204	18.4631	16.9525	19.6381	23.4985	16.2811	25.0092	24.5056	15.274	26.8555	25.3448	17.2882	1.1749	5.5389	13.7634	9.2316	21.4844	17	232	131	1	1	2
14.4348	19.1345	19.9738	17.4561	21.1487	25.0092	17.2882	26.0162	26.0162	16.449	27.6947	26.6876	18.1274	1.1749	4.6997	14.7705	9.0637	22.1558	17	233	132	1	1	2
15.9454	21.1487	21.3165	17.7917	22.3236	26.0162	17.6239	26.5198	27.0233	17.2882	28.0304	27.5269	18.7988	1.0071	3.5248	15.7776	8.728	22.1558	17	234	133	1	1	2
17.4561	22.8271	22.4915	18.2953	23.4985	27.1912	18.2953	27.0233	28.0304	17.7917	28.0304	28.1982	19.1345	0.8392	1.8463	16.6168	8.2245	21.9879	17	235	134	1	1	2
18.7988	24.5056	23.4985	18.631	24.3378	28.1982	18.7988	27.359	28.8696	18.2953	27.6947	28.5339	19.3024	0.6714	0.5035	17.2882	7.8888	21.3165	17	236	135	1	1	2
20.3094	26.1841	24.6735	19.1345	25.177	28.8696	19.1345	27.359	29.3732	18.631	27.1912	28.7018	19.3024	0.5035	-1.0071	17.7917	7.3853	20.4773	17	237	136	1	1	2
21.4844	27.5269	25.5127	19.3024	25.8484	29.541	19.4702	27.0233	29.7089	18.7988	26.3519	28.5339	19.1345	0.3357	-2.6855	18.1274	6.8817	19.1345	17	238	137	1	1	2
22.6593	28.7018	26.0162	19.6381	26.3519	30.0446	19.6381	26.5198	29.8767	18.9667	25.177	28.3661	18.631	0.1678	-4.1962	17.9596	6.3782	17.4561	17	239	138	1	1	2
23.4985	29.3732	26.5198	19.6381	26.3519	30.0446	19.6381	25.6805	29.7089	18.631	23.4985	27.6947	17.9596	-0.1678	-5.8746	17.6239	5.7068	15.4419	17	240	139	1	1	2
24.3378	30.0446	26.8555	19.8059	26.3519	30.2124	19.6381	24.8413	29.541	18.4631	21.9879	27.0233	17.2882	-0.3357	-7.5531	17.2882	5.0354	13.2599	17	241	140	1	1	2
25.0092	30.3802	27.1912	19.8059	26.0162	30.0446	19.4702	24.0021	29.2053	18.1274	20.3094	26.1841	16.449	-0.5035	-8.8959	16.9525	4.5319	10.91	17	242	141	1	1	2
25.5127	30.5481	27.1912	19.8059	25.6805	29.8767	19.3024	22.995	28.8696	17.6239	18.631	25.3448	15.4419	-0.6714	-10.5743	16.2811	3.8605	8.5602	17	243	142	1	1	2
25.8484	30.2124	27.0233	19.6381	25.0092	29.3732	18.9667	21.6522	28.1982	16.9525	16.6168	24.1699	14.267	-1.0071	-11.9171	15.6097	3.0212	6.0425	17	244	143	1	1	2
26.0162	29.8767	27.0233	19.4702	24.1699	28.8696	18.631	20.813	27.5269	16.2811	14.9384	23.1628	13.2599	-1.1749	-13.4277	14.9384	2.3499	3.6926	17	245	144	1	1	2
26.0162	29.0375	26.5198	19.1345	23.1628	28.1982	17.9596	19.6381	26.6876	15.4419	13.2599	21.9879	11.9171	-1.5106	-14.7705	14.0991	1.6785	1.3428	17	246	145	1	1	2
25.8484	28.1982	26.0162	18.7988	22.3236	27.6947	17.4561	18.4631	26.0162	14.6027	11.7493	20.9808	10.7422	-1.8463	-15.9454	13.2599	1.0071	-0.6714	17	247	146	1	1	2
25.5127	27.0233	25.6805	18.2953	21.3165	27.0233	17.1204	17.4561	25.3448	13.7634	10.4065	20.3094	9.3994	-2.0142	-16.9525	12.5885	0.5035	-2.5177	17	248	147	1	1	2
25.177	26.0162	25.177	17.7917	20.3094	26.1841	16.449	16.449	24.5056	12.9242	9.2316	19.3024	8.2245	-2.182	-17.9596	11.7493	0	-4.0283	17	249	148	1	1	2
24.6735	24.5056	24.5056	17.2882	19.1345	25.177	15.7776	15.6097	23.4985	11.7493	8.2245	18.2953	6.8817	-2.182	-18.631	11.0779	-0.5035	-5.0354	17	250	149	1	1	2
24.0021	23.1628	23.8342	16.7847	17.9596	24.3378	15.274	14.7705	22.8271	10.91	7.7209	17.4561	5.7068	-2.182	-19.1345	10.4065	-0.8392	-5.8746	17	251	150	1	1	2
23.3307	21.8201	23.1628	16.2811	16.9525	23.4985	14.6027	14.267	21.9879	9.903	7.2174	16.7847	4.5319	-2.182	-19.6381	9.7351	-1.0071	-6.546	17	252	151	1	1	2
22.8271	20.4773	22.6593	15.7776	15.9454	22.8271	14.0991	13.7634	21.1487	9.0637	7.0496	16.1133	3.5248	-2.0142	-19.9738	9.3994	-1.0071	-6.7139	17	253	152	1	1	2
22.1558	19.1345	21.9879	15.274	15.1062	21.9879	13.7634	13.5956	20.4773	8.2245	7.0496	15.6097	2.5177	-1.8463	-20.1416	8.8959	-1.0071	-6.7139	17	254	153	1	1	2
21.6522	17.9596	21.6522	15.1062	14.4348	21.4844	13.4277	13.5956	19.9738	7.5531	7.5531	15.274	1.6785	-1.5106	-20.1416	8.728	-0.8392	-6.3782	17	255	154	1	1	2
20.9808	16.7847	20.9808	14.4348	13.7634	20.6451	12.9242	13.4277	19.3024	6.7139	7.8888	14.7705	0.8392	-1.3428	-20.1416	8.3923	-0.6714	-6.0425	17	256	155	1	1	2
20.3094	15.4419	20.6451	14.0991	13.2599	20.1416	12.5885	13.5956	18.631	5.8746	8.3923	14.4348	0	-1.1749	-20.1416	8.2245	-0.6714	-5.3711	17	257	156	1	1	2
19.8059	14.6027	19.9738	13.5956	12.5885	19.4702	12.085	13.7634	18.1274	5.2032	9.0637	13.9313	-0.8392	-1.0071	-19.9738	7.8888	-0.5035	-4.5319	17	258	157	1	1	2
19.1345	13.5956	19.4702	13.2599	12.2528	18.631	11.7493	13.9313	17.2882	4.364	9.5673	13.4277	-1.6785	-1.0071	-19.8059	7.5531	-0.5035	-3.5248	17	259	158	1	1	2
18.631	13.092	19.3024	12.7563	12.085	18.2953	11.4136	14.267	16.6168	3.8605	10.4065	13.2599	-2.182	-0.8392	-19.6381	7.3853	-0.3357	-2.6855	17	260	159	1	1	2
18.2953	12.2528	18.631	12.4207	11.9171	17.7917	11.2457	14.4348	15.9454	3.0212	10.91	12.9242	-2.8534	-0.8392	-19.3024	6.8817	-0.3357	-1.6785	17	261	160	1	1	2
17.7917	12.085	18.631	12.2528	12.085	17.4561	11.0779	14.7705	15.4419	2.5177	11.5814	12.5885	-3.5248	-0.6714	-19.1345	6.8817	-0.1678	-1.0071	17	262	161	1	1	2
17.6239	11.9171	18.4631	12.085	12.085	17.1204	10.7422	15.1062	14.7705	1.8463	11.9171	12.085	-4.0283	-0.6714	-18.7988	6.7139	-0.3357	-0.3357	17	263	162	1	1	2
17.2882	11.9171	18.2953	11.7493	12.2528	16.7847	10.5743	15.274	13.9313	1.1749	12.2528	11.5814	-4.5319	-0.6714	-18.4631	6.546	-0.5035	0.1678	17	264	163	1	1	2
17.1204	11.9171	18.2953	11.5814	12.4207	16.449	10.4065	15.4419	13.092	0.5035	12.2528	11.0779	-4.8676	-0.6714	-17.9596	6.546	-0.8392	0.6714	17	265	164	1	1	2
17.1204	12.2528	18.2953	11.4136	12.5885	15.9454	10.2386	15.4419	12.2528	0.1678	12.2528	10.4065	-5.2032	-0.6714	-17.6239	6.546	-1.1749	1.0071	17	266	165	1	1	2
16.9525	12.5885	18.1274	11.2457	12.7563	15.6097	10.0708	15.274	11.2457	-0.5035	11.9171	9.5673	-5.7068	-0.6714	-17.2882	6.546	-1.8463	1.1749	17	267	166	1	1	2
16.7847	12.9242	18.1274	10.91	12.7563	15.1062	9.7351	14.9384	9.903	-1.0071	11.2457	8.5602	-6.0425	-0.8392	-16.9525	6.546	-2.8534	1.3428	17	268	167	1	1	2
16.7847	13.7634	18.1274	10.91	12.9242	14.7705	9.5673	14.7705	8.8959	-1.8463	10.5743	7.5531	-6.7139	-0.8392	-16.7847	6.546	-3.8605	1.0071	17	269	168	1	1	2
16.7847	14.4348	18.1274	10.5743	13.092	14.4348	9.2316	14.267	7.7209	-2.5177	9.7351	6.3782	-7.0496	-0.8392	-16.6168	6.3782	-4.6997	1.0071	17	270	169	1	1	2
16.6168	15.1062	18.1274	10.2386	13.2599	13.7634	8.8959	13.5956	6.3782	-3.1891	8.3923	5.2032	-7.5531	-1.0071	-16.449	6.2103	-5.7068	0.6714	17	271	170	1	1	2
16.6168	15.9454	17.7917	9.7351	13.2599	13.092	8.3923	12.7563	4.8676	-4.0283	7.2174	3.6926	-8.2245	-1.1749	-16.449	5.8746	-6.8817	0.3357	17	272	171	1	1	2
16.6168	16.9525	17.7917	9.2316	13.4277	12.5885	7.8888	12.085	3.3569	-5.0354	5.8746	2.3499	-9.0637	-1.1749	-16.6168	5.7068	-8.0566	-0.3357	17	273	172	1	1	2
16.449	17.6239	17.4561	8.5602	13.4277	11.7493	7.0496	11.2457	1.8463	-5.8746	4.364	0.8392	-9.7351	-1.3428	-16.7847	5.3711	-8.8959	-0.6714	17	274	173	1	1	2
15.9454	18.2953	17.1204	7.7209	13.2599	10.91	6.2103	10.2386	0.3357	-6.8817	2.8534	-0.8392	-10.5743	-1.5106	-16.9525	5.2032	-9.7351	-1.1749	17	275	174	1	1	2
15.9454	19.3024	16.7847	7.0496	13.2599	10.2386	5.2032	9.3994	-1.1749	-7.8888	1.1749	-2.5177	-11.2457	-1.5106	-17.2882	5.3711	-10.4065	-1.6785	17	276	175	1	1	2
15.7776	19.9738	16.6168	6.2103	13.2599	9.3994	4.364	8.5602	-2.8534	-8.728	-0.1678	-4.0283	-11.9171	-1.8463	-17.4561	5.3711	-11.0779	-1.8463	17	277	176	1	1	2
15.4419	20.4773	16.1133	4.8676	13.092	8.728	3.1891	7.7209	-4.1962	-9.5673	-1.3428	-5.3711	-12.5885	-2.0142	-17.6239	5.5389	-11.4136	-1.8463	17	278	177	1	1	2
15.1062	21.3165	15.7776	3.6926	13.2599	7.8888	2.0142	6.8817	-5.5389	-10.5743	-2.6855	-6.7139	-13.2599	-2.3499	-17.9596	5.7068	-11.7493	-1.8463	17	279	178	1	1	2
14.7705	21.9879	15.274	2.5177	13.092	7.3853	0.8392	6.3782	-6.546	-11.4136	-3.5248	-7.7209	-13.5956	-2.5177	-18.1274	5.8746	-11.7493	-1.5106	17	280	179	1	1	2
14.4348	22.4915	14.9384	1.1749	13.2599	6.546	-0.3357	5.8746	-7.7209	-12.2528	-4.5319	-8.728	-14.0991	-2.8534	-18.2953	6.2103	-11.9171	-1.1749	17	281	180	1	1	2
14.0991	22.8271	14.4348	-0.1678	13.2599	6.0425	-1.5106	5.5389	-8.728	-12.9242	-5.2032	-9.5673	-14.4348	-3.1891	-18.4631	6.546	-11.9171	-1.0071	17	282	181	1	1	2
13.4277	23.1628	13.9313	-1.3428	13.092	5.7068	-2.5177	5.3711	-9.5673	-13.4277	-5.5389	-10.2386	-14.4348	-3.3569	-18.4631	6.8817	-11.7493	-0.3357	17	283	182	1	1	2
13.092	23.4985	13.5956	-2.8534	13.092	5.2032	-3.6926	5.0354	-10.2386	-13.9313	-6.0425	-10.7422	-14.6027	-3.6926	-18.4631	7.2174	-11.5814	-0.1678	17	284	183	1	1	2
12.5885	23.3307	13.092	-4.1962	13.092	4.8676	-4.6997	4.8676	-10.7422	-14.267	-6.2103	-11.2457	-14.4348	-3.8605	-18.4631	7.5531	-11.4136	0.3357	17	285	184	1	1	2
11.9171	23.1628	12.4207	-5.3711	12.9242	4.6997	-5.5389	4.8676	-11.0779	-14.4348	-6.2103	-11.4136	-14.267	-3.8605	-18.2953	7.8888	-10.91	0.6714	17	286	185	1	1	2
11.2457	22.8271	11.7493	-6.7139	12.7563	4.364	-6.546	4.6997	-11.4136	-14.7705	-6.3782	-11.7493	-14.267	-4.0283	-18.2953	8.3923	-10.7422	0.6714	17	287	186	1	1	2
10.4065	22.1558	11.0779	-7.7209	12.2528	4.1962	-7.3853	4.6997	-11.7493	-14.7705	-6.2103	-11.7493	-14.267	-4.0283	-18.1274	8.3923	-10.2386	0.8392	17	288	187	1	1	2
9.5673	21.4844	10.4065	-8.728	11.7493	3.8605	-8.0566	4.5319	-11.9171	-15.1062	-6.2103	-11.7493	-14.267	-4.0283	-17.9596	8.5602	-9.903	0.8392	17	289	188	1	1	2
8.3923	20.3094	9.3994	-9.903	11.0779	3.1891	-9.0637	4.0283	-12.4207	-15.4419	-6.3782	-12.085	-14.7705	-4.1962	-18.2953	8.728	-9.903	0.5035	17	290	189	1	1	2
7.5531	18.9667	8.3923	-10.91	10.2386	2.8534	-9.7351	3.6926	-12.4207	-15.9454	-6.3782	-12.4207	-15.1062	-4.1962	-18.7988	8.5602	-9.5673	0.3357	17	291	190	1	1	2
3.3569	1.8463	-2.3499	6.3782	0.1678	-9.3994	-0.1678	3.1891	-8.728	-0.1678	5.2032	-6.2103	3.8605	-2.8534	0.8392	2.3499	3.5248	9.5673	17	221	120	2	1	2
3.5248	1.5106	-2.5177	6.7139	0.5035	-9.0637	0.1678	3.3569	-8.3923	0	5.5389	-5.8746	3.8605	-3.1891	0.1678	2.8534	3.0212	9.903	17	222	121	2	1	2
3.5248	1.3428	-2.6855	6.8817	0.5035	-9.0637	0.1678	3.6926	-8.0566	0	6.0425	-5.3711	3.8605	-3.5248	-0.6714	3.3569	2.5177	10.2386	17	223	122	2	1	2
3.6926	1.0071	-2.5177	6.7139	0.6714	-8.728	0.1678	4.0283	-7.7209	0.1678	6.546	-5.0354	4.0283	-3.8605	-1.3428	4.0283	1.8463	10.5743	17	224	123	2	1	2
3.6926	0.8392	-2.5177	6.546	0.8392	-8.5602	0.1678	4.364	-7.2174	0.1678	7.0496	-4.5319	4.1962	-4.1962	-2.182	4.6997	1.0071	11.0779	17	225	124	2	1	2
3.8605	0.8392	-2.5177	6.2103	1.0071	-8.2245	0	4.6997	-6.7139	0.3357	7.5531	-3.8605	4.1962	-4.5319	-3.1891	5.3711	0.1678	11.4136	17	226	125	2	1	2
4.364	1.0071	-2.3499	6.2103	1.3428	-7.7209	0	5.3711	-5.8746	0.5035	8.2245	-3.0212	4.364	-4.8676	-4.0283	6.2103	-0.6714	11.7493	17	227	126	2	1	2
4.364	1.1749	-2.182	5.5389	1.5106	-7.3853	-0.3357	5.7068	-5.2032	0.6714	8.728	-2.5177	4.364	-5.0354	-4.6997	6.8817	-1.5106	11.9171	17	228	127	2	1	2
4.6997	1.3428	-1.8463	5.3711	1.8463	-6.7139	-0.5035	6.2103	-4.5319	0.6714	9.2316	-1.6785	4.5319	-5.3711	-5.8746	7.3853	-2.182	12.2528	17	229	128	2	1	2
5.0354	1.5106	-1.6785	5.0354	2.182	-6.2103	-0.6714	6.546	-4.0283	0.8392	9.5673	-1.1749	4.6997	-5.5389	-6.7139	8.2245	-2.6855	12.085	17	230	129	2	1	2
4.8676	1.5106	-1.5106	4.5319	2.3499	-5.7068	-1.0071	6.7139	-3.5248	0.8392	9.5673	-0.8392	4.5319	-5.7068	-7.3853	8.8959	-3.1891	11.9171	17	231	130	2	1	2
5.0354	1.8463	-1.1749	4.364	2.6855	-5.2032	-1.0071	7.0496	-2.8534	1.0071	9.7351	-0.1678	4.6997	-5.8746	-8.0566	9.5673	-3.5248	11.7493	17	232	131	2	1	2
5.2032	2.182	-0.8392	4.0283	2.8534	-4.8676	-1.3428	7.2174	-2.5177	1.0071	9.7351	0.1678	4.6997	-5.8746	-8.728	10.0708	-3.5248	11.0779	17	233	132	2	1	2
5.2032	2.3499	-0.6714	3.8605	3.1891	-4.1962	-1.3428	7.3853	-2.0142	1.1749	9.5673	0.6714	4.6997	-6.0425	-9.3994	10.7422	-3.6926	10.5743	17	234	133	2	1	2
5.2032	2.6855	-0.3357	3.6926	3.5248	-3.6926	-1.3428	7.5531	-1.6785	1.3428	9.5673	0.8392	4.8676	-6.0425	-9.7351	11.2457	-3.6926	10.0708	17	235	134	2	1	2
5.2032	2.8534	-0.1678	3.5248	3.6926	-3.3569	-1.5106	7.3853	-1.3428	1.1749	9.3994	1.1749	4.8676	-5.8746	-9.903	11.5814	-3.1891	9.3994	17	236	135	2	1	2
5.3711	3.5248	0	3.5248	4.0283	-2.8534	-1.5106	7.5531	-1.0071	1.5106	9.2316	1.5106	4.8676	-5.7068	-10.2386	12.2528	-2.6855	8.8959	17	237	136	2	1	2
5.3711	3.6926	0.3357	3.6926	4.1962	-2.5177	-1.5106	7.7209	-0.6714	1.3428	9.0637	1.6785	4.8676	-5.5389	-10.4065	12.5885	-2.3499	8.3923	17	238	137	2	1	2
5.3711	4.1962	0.5035	3.8605	4.5319	-2.0142	-1.3428	7.7209	-0.3357	1.6785	9.0637	2.182	5.2032	-5.2032	-10.2386	12.9242	-1.6785	8.2245	17	239	138	2	1	2
5.3711	4.6997	0.8392	4.1962	4.8676	-1.5106	-1.0071	7.8888	0	1.8463	9.2316	2.5177	5.3711	-5.0354	-10.4065	13.4277	-1.1749	8.0566	17	240	139	2	1	2
5.3711	5.0354	1.0071	4.364	5.2032	-1.1749	-1.0071	8.0566	0.3357	2.0142	9.2316	2.8534	5.3711	-4.6997	-10.4065	13.5956	-0.5035	8.0566	17	241	140	2	1	2
5.5389	5.3711	1.3428	4.6997	5.5389	-0.8392	-0.8392	8.2245	0.5035	2.0142	9.2316	3.0212	5.3711	-4.364	-10.2386	13.7634	0	8.0566	17	242	141	2	1	2
5.3711	5.7068	1.3428	4.8676	5.7068	-0.6714	-0.8392	8.2245	0.5035	1.8463	9.0637	3.0212	5.2032	-4.0283	-10.2386	13.5956	0.3357	8.0566	17	243	142	2	1	2
5.5389	6.0425	1.6785	5.2032	6.0425	-0.5035	-0.6714	8.3923	0.6714	1.6785	9.2316	3.1891	5.0354	-3.6926	-10.0708	13.5956	0.6714	8.0566	17	244	143	2	1	2
5.5389	6.3782	1.8463	5.5389	6.2103	-0.3357	-0.5035	8.3923	0.6714	1.5106	9.3994	3.0212	5.0354	-3.3569	-10.0708	13.4277	1.1749	8.0566	17	245	144	2	1	2
5.7068	6.8817	2.0142	5.8746	6.546	0	-0.3357	8.3923	0.5035	1.3428	9.2316	3.0212	4.6997	-3.1891	-10.2386	13.092	1.6785	8.0566	17	246	145	2	1	2
5.7068	7.0496	2.0142	6.0425	6.546	0	-0.3357	8.2245	0.3357	1.0071	8.8959	2.6855	4.1962	-2.8534	-10.0708	12.5885	1.6785	7.7209	17	247	146	2	1	2
5.7068	7.2174	2.182	6.3782	6.8817	-0.1678	-0.3357	8.0566	0	0.6714	8.5602	2.182	3.8605	-2.6855	-10.0708	12.085	2.0142	7.5531	17	248	147	2	1	2
5.7068	7.3853	2.0142	6.3782	6.8817	-0.3357	-0.5035	7.8888	-0.3357	0.1678	8.0566	1.5106	3.1891	-2.5177	-10.2386	11.4136	2.0142	6.8817	17	249	148	2	1	2
5.5389	7.5531	1.8463	6.3782	6.8817	-0.5035	-0.5035	7.5531	-0.8392	-0.5035	7.5531	1.0071	2.3499	-2.182	-10.2386	10.91	2.182	6.3782	17	250	149	2	1	2
5.3711	7.5531	1.8463	6.3782	6.8817	-0.6714	-0.6714	7.3853	-1.5106	-0.8392	7.2174	0.3357	1.8463	-2.0142	-10.0708	10.2386	2.182	6.0425	17	251	150	2	1	2
5.2032	7.3853	1.5106	6.2103	6.8817	-1.1749	-1.0071	7.2174	-1.8463	-1.5106	6.7139	-0.1678	1.1749	-1.8463	-10.2386	9.903	2.3499	5.7068	17	252	151	2	1	2
4.8676	7.5531	1.1749	5.8746	6.8817	-1.5106	-1.3428	7.0496	-2.5177	-1.8463	6.3782	-0.8392	0.6714	-1.8463	-10.4065	9.3994	2.3499	5.3711	17	253	152	2	1	2
4.6997	7.3853	0.8392	5.5389	7.0496	-1.6785	-1.5106	6.8817	-3.0212	-2.5177	6.0425	-1.5106	0	-1.6785	-10.2386	8.728	2.3499	5.3711	17	254	153	2	1	2
4.0283	7.0496	0.3357	4.8676	6.8817	-2.3499	-2.0142	6.7139	-3.6926	-3.0212	5.7068	-2.0142	-0.6714	-1.5106	-9.903	8.3923	2.3499	5.0354	17	255	154	2	1	2
3.6926	6.8817	-0.1678	4.364	6.8817	-2.8534	-2.3499	6.7139	-4.1962	-3.3569	5.7068	-2.5177	-1.0071	-1.3428	-9.5673	7.8888	2.5177	5.2032	17	256	155	2	1	2
3.1891	6.7139	-0.6714	3.6926	7.2174	-3.1891	-2.5177	6.8817	-4.6997	-3.6926	5.7068	-2.8534	-1.1749	-1.1749	-9.0637	7.7209	2.5177	5.5389	17	257	156	2	1	2
2.8534	6.3782	-1.1749	3.0212	7.3853	-3.5248	-2.8534	7.0496	-5.0354	-3.8605	6.0425	-3.0212	-1.3428	-1.1749	-8.728	7.3853	2.6855	6.0425	17	258	157	2	1	2
2.3499	6.2103	-1.6785	2.3499	7.5531	-4.0283	-3.1891	7.3853	-5.3711	-3.8605	6.3782	-3.0212	-1.3428	-0.8392	-8.0566	7.2174	2.8534	6.7139	17	259	158	2	1	2
1.8463	5.7068	-2.182	1.5106	7.7209	-4.5319	-3.6926	7.8888	-5.5389	-4.0283	6.8817	-3.0212	-1.1749	-0.6714	-7.2174	7.2174	3.0212	7.7209	17	260	159	2	1	2
1.3428	5.5389	-2.6855	0.8392	7.8888	-4.8676	-4.0283	8.0566	-5.8746	-4.0283	7.5531	-2.8534	-0.8392	-0.5035	-6.546	7.2174	3.1891	8.728	17	261	160	2	1	2
0.5035	5.0354	-3.5248	-0.1678	7.8888	-5.7068	-4.5319	8.3923	-6.2103	-4.1962	8.2245	-2.8534	-0.8392	-0.5035	-5.8746	7.3853	3.0212	9.5673	17	262	161	2	1	2
0	4.6997	-4.1962	-1.0071	8.0566	-6.0425	-4.8676	8.8959	-6.3782	-4.1962	8.728	-2.6855	-0.6714	-0.3357	-5.2032	7.7209	3.0212	10.7422	17	263	162	2	1	2
-0.5035	4.364	-4.8676	-1.8463	8.2245	-6.546	-5.3711	9.2316	-6.546	-4.1962	9.5673	-2.5177	-0.3357	-0.1678	-4.8676	8.0566	2.6855	12.085	17	264	163	2	1	2
-1.0071	3.8605	-5.5389	-2.6855	8.0566	-7.2174	-5.8746	9.3994	-6.8817	-4.1962	10.0708	-2.5177	-0.3357	-0.1678	-4.6997	8.2245	2.3499	12.9242	17	265	164	2	1	2
-1.6785	3.3569	-6.3782	-3.5248	7.8888	-7.5531	-6.3782	9.3994	-7.2174	-4.5319	10.2386	-2.5177	-0.3357	-0.1678	-4.5319	8.5602	2.0142	13.5956	17	266	165	2	1	2
-2.0142	3.0212	-6.8817	-4.1962	8.0566	-8.0566	-6.7139	9.5673	-7.3853	-4.364	10.5743	-2.5177	-0.1678	0	-4.5319	9.0637	1.8463	14.4348	17	267	166	2	1	2
-2.3499	2.6855	-7.5531	-4.8676	7.7209	-8.5602	-7.2174	9.3994	-7.5531	-4.6997	10.7422	-2.6855	-0.3357	0	-4.5319	9.2316	1.1749	14.7705	17	268	167	2	1	2
-3.0212	2.182	-8.0566	-5.2032	7.3853	-9.0637	-7.7209	9.2316	-8.0566	-4.8676	10.4065	-2.8534	-0.5035	0	-4.6997	9.3994	0.6714	14.7705	17	269	168	2	1	2
-3.3569	1.8463	-8.5602	-5.7068	6.8817	-9.5673	-8.0566	8.8959	-8.3923	-5.2032	10.0708	-3.3569	-0.6714	0	-4.8676	9.5673	0.3357	14.4348	17	270	169	2	1	2
-3.5248	1.5106	-8.8959	-6.0425	6.546	-10.0708	-8.728	8.3923	-8.8959	-5.5389	9.3994	-3.8605	-1.0071	0	-5.0354	9.7351	-0.1678	14.0991	17	271	170	2	1	2
-3.8605	1.3428	-9.5673	-6.2103	6.0425	-10.5743	-9.0637	7.8888	-9.2316	-5.8746	8.728	-4.5319	-1.3428	0	-5.3711	9.7351	-0.6714	13.2599	17	272	171	2	1	2
-4.0283	1.0071	-9.7351	-6.3782	5.5389	-10.91	-9.3994	7.2174	-9.7351	-6.2103	7.8888	-5.2032	-1.6785	0	-5.7068	9.5673	-1.1749	12.4207	17	273	172	2	1	2
-4.0283	0.6714	-9.903	-6.7139	4.8676	-11.2457	-9.903	6.3782	-10.2386	-6.3782	6.7139	-5.7068	-2.182	0	-6.3782	9.2316	-1.5106	11.0779	17	274	173	2	1	2
-4.1962	0.3357	-10.0708	-6.7139	4.1962	-11.5814	-10.0708	5.5389	-10.7422	-6.7139	5.5389	-6.546	-2.8534	0	-6.8817	8.8959	-2.182	9.7351	17	275	174	2	1	2
-4.0283	0.1678	-10.0708	-6.7139	3.6926	-11.7493	-10.4065	4.6997	-11.2457	-7.2174	4.364	-7.5531	-3.3569	0	-7.3853	8.5602	-2.6855	8.3923	17	276	175	2	1	2
-4.0283	-0.1678	-10.2386	-6.7139	2.8534	-12.2528	-10.5743	3.5248	-11.9171	-7.7209	3.1891	-8.3923	-4.0283	-0.1678	-7.5531	7.8888	-3.0212	6.7139	17	277	176	2	1	2
-4.0283	-0.1678	-10.0708	-6.7139	2.182	-12.2528	-10.91	3.0212	-12.2528	-8.0566	2.0142	-9.3994	-4.6997	-0.1678	-8.2245	7.3853	-3.5248	5.3711	17	278	177	2	1	2
-3.6926	-0.3357	-10.0708	-6.546	1.6785	-12.4207	-11.0779	2.0142	-12.7563	-8.3923	0.8392	-10.0708	-5.0354	-0.3357	-8.5602	7.0496	-3.5248	3.8605	17	279	178	2	1	2
-3.5248	-0.1678	-9.7351	-6.546	1.3428	-12.2528	-11.2457	1.5106	-12.9242	-8.728	0	-10.5743	-5.5389	-0.3357	-8.8959	6.7139	-3.8605	2.5177	17	280	179	2	1	2
-3.1891	-0.1678	-9.3994	-6.0425	1.1749	-12.2528	-11.0779	1.0071	-13.092	-8.8959	-0.5035	-10.91	-5.7068	-0.5035	-9.0637	6.3782	-4.0283	1.6785	17	281	180	2	1	2
-2.8534	-0.1678	-9.0637	-5.8746	0.8392	-12.085	-11.0779	0.5035	-13.4277	-9.0637	-1.1749	-11.4136	-5.8746	-0.6714	-9.2316	6.0425	-4.1962	1.1749	17	282	181	2	1	2
-2.5177	0.1678	-8.5602	-5.3711	0.6714	-11.9171	-11.0779	0.3357	-13.2599	-9.0637	-1.5106	-11.5814	-6.0425	-0.6714	-9.2316	6.2103	-4.0283	0.8392	17	283	182	2	1	2
-2.3499	0.5035	-8.2245	-5.2032	0.8392	-11.5814	-10.91	0.1678	-13.2599	-9.0637	-1.6785	-11.9171	-6.0425	-0.6714	-9.3994	6.0425	-4.364	0.5035	17	284	183	2	1	2
-2.182	0.5035	-7.8888	-4.8676	0.6714	-11.2457	-10.5743	-0.1678	-13.2599	-9.0637	-1.6785	-11.9171	-5.8746	-0.8392	-9.3994	5.7068	-4.364	0.8392	17	285	184	2	1	2
-2.0142	0.6714	-7.5531	-4.6997	0.5035	-11.0779	-10.4065	0	-13.2599	-8.728	-1.5106	-11.7493	-5.7068	-0.8392	-9.2316	5.8746	-4.364	1.1749	17	286	185	2	1	2
-1.8463	0.8392	-7.2174	-4.5319	0.6714	-10.7422	-10.2386	0	-12.9242	-8.728	-1.0071	-11.7493	-5.5389	-0.8392	-9.2316	5.8746	-4.364	1.6785	17	287	186	2	1	2
-1.6785	0.8392	-7.0496	-4.1962	0.6714	-10.4065	-10.0708	0.3357	-12.5885	-8.2245	-0.5035	-11.5814	-5.0354	-0.8392	-9.0637	6.0425	-4.1962	2.6855	17	288	187	2	1	2
-1.8463	0.6714	-6.8817	-3.8605	0.6714	-10.2386	-9.5673	0.5035	-12.5885	-7.8888	-0.1678	-11.0779	-4.5319	-1.0071	-8.728	5.8746	-4.0283	3.6926	17	289	188	2	1	2
-2.0142	0.6714	-6.7139	-3.6926	0.8392	-10.0708	-9.3994	0.8392	-12.2528	-7.5531	0.5035	-10.7422	-4.0283	-1.0071	-8.3923	6.0425	-3.8605	4.6997	17	290	189	2	1	2
-1.8463	0.6714	-6.546	-3.5248	0.8392	-9.903	-9.2316	1.1749	-12.085	-7.0496	1.1749	-10.4065	-3.5248	-1.1749	-8.2245	6.0425	-3.8605	5.7068	17	291	190	2	1	2
13.7634	17.4561	10.5743	8.2245	13.2599	3.8605	3.3569	9.0637	4.0283	0.5035	14.7705	7.2174	-2.0142	-3.6926	-9.0637	8.0566	-7.8888	10.5743	17	221	120	3	1	2
15.1062	18.9667	11.9171	10.0708	14.0991	4.6997	4.364	9.2316	4.364	1.3428	14.6027	7.2174	-1.5106	-3.6926	-8.3923	8.2245	-7.7209	9.903	17	222	121	3	1	2
16.449	20.3094	13.092	11.5814	14.7705	5.2032	5.2032	9.3994	4.364	1.6785	14.267	7.3853	-1.1749	-3.8605	-8.2245	8.5602	-7.8888	9.2316	17	223	122	3	1	2
17.4561	21.1487	14.0991	12.9242	15.4419	5.7068	6.0425	9.2316	4.5319	2.182	13.7634	7.2174	-0.8392	-3.8605	-7.7209	8.5602	-7.8888	8.3923	17	224	123	3	1	2
18.2953	21.6522	14.7705	13.7634	15.6097	6.2103	6.8817	9.0637	4.364	2.6855	13.4277	7.0496	-0.6714	-3.8605	-7.2174	8.5602	-7.8888	7.7209	17	225	124	3	1	2
18.7988	21.9879	15.274	14.4348	15.7776	6.546	7.3853	8.8959	4.364	3.1891	12.9242	6.8817	-0.3357	-3.6926	-6.3782	8.3923	-7.5531	7.0496	17	226	125	3	1	2
19.1345	21.9879	15.6097	14.7705	15.7776	6.7139	8.0566	8.728	4.1962	3.3569	12.5885	6.7139	0.1678	-3.6926	-5.7068	8.5602	-7.3853	6.7139	17	227	126	3	1	2
19.1345	21.4844	15.6097	14.9384	15.4419	6.8817	8.2245	8.0566	4.1962	3.8605	12.085	6.546	0.3357	-3.5248	-4.8676	8.3923	-7.0496	6.0425	17	228	127	3	1	2
18.631	20.6451	15.274	14.4348	14.9384	6.546	8.3923	7.7209	3.8605	4.0283	11.7493	6.2103	0.6714	-3.5248	-4.0283	8.2245	-6.8817	5.5389	17	229	128	3	1	2
17.9596	19.6381	14.7705	13.9313	14.4348	6.3782	8.2245	7.3853	3.5248	4.1962	11.2457	6.0425	1.0071	-3.5248	-3.1891	8.2245	-6.546	5.3711	17	230	129	3	1	2
16.9525	18.2953	13.9313	13.092	13.5956	6.0425	8.0566	6.8817	3.1891	4.364	10.91	5.8746	1.1749	-3.3569	-2.3499	8.2245	-6.2103	5.2032	17	231	130	3	1	2
15.4419	16.6168	12.7563	11.9171	12.5885	5.7068	7.5531	6.3782	2.8534	4.364	10.7422	5.7068	1.3428	-3.3569	-1.6785	8.0566	-5.8746	5.2032	17	232	131	3	1	2
13.7634	14.7705	11.4136	10.5743	11.4136	5.0354	7.0496	5.7068	2.5177	4.1962	10.5743	5.5389	1.5106	-3.3569	-1.1749	8.2245	-5.7068	5.3711	17	233	132	3	1	2
11.9171	12.5885	9.903	9.0637	10.2386	4.364	6.3782	5.2032	1.8463	3.8605	10.4065	5.3711	1.5106	-3.5248	-0.8392	8.2245	-5.7068	5.5389	17	234	133	3	1	2
9.7351	10.4065	8.2245	7.3853	8.728	3.6926	5.5389	4.5319	1.3428	3.5248	10.0708	5.0354	1.1749	-3.5248	-0.6714	8.2245	-5.7068	5.5389	17	235	134	3	1	2
7.5531	8.0566	6.3782	5.7068	7.3853	2.8534	4.6997	4.0283	0.8392	3.0212	9.903	4.6997	1.0071	-3.5248	-0.5035	8.3923	-5.7068	5.8746	17	236	135	3	1	2
5.2032	5.5389	4.364	4.0283	5.8746	1.6785	3.5248	3.3569	0	2.3499	9.7351	4.364	0.6714	-3.6926	-0.6714	8.5602	-6.0425	6.0425	17	237	136	3	1	2
3.0212	3.1891	2.3499	2.182	4.1962	0.8392	2.6855	2.6855	-0.5035	1.8463	9.3994	3.6926	0.1678	-3.6926	-0.8392	8.5602	-6.0425	6.2103	17	238	137	3	1	2
0.5035	0.6714	0.3357	0.5035	2.6855	-0.3357	1.3428	1.8463	-1.5106	0.8392	9.2316	3.3569	-0.3357	-3.8605	-1.3428	8.8959	-6.546	6.3782	17	239	138	3	1	2
-1.5106	-1.5106	-1.5106	-0.8392	1.1749	-1.3428	0.5035	1.3428	-2.182	0.1678	9.0637	2.8534	-1.0071	-3.8605	-1.8463	8.728	-6.546	6.546	17	240	139	3	1	2
-3.6926	-3.8605	-3.5248	-2.5177	-0.3357	-2.5177	-0.6714	0.5035	-3.1891	-0.8392	8.728	2.182	-1.8463	-4.0283	-2.3499	8.8959	-7.0496	6.546	17	241	140	3	1	2
-5.5389	-6.0425	-5.2032	-3.8605	-1.8463	-3.5248	-1.8463	-0.3357	-3.8605	-1.8463	8.2245	1.5106	-2.6855	-4.1962	-3.3569	8.728	-7.3853	6.2103	17	242	141	3	1	2
-7.0496	-7.7209	-6.7139	-5.0354	-3.0212	-4.5319	-2.8534	-1.0071	-4.6997	-2.5177	7.7209	1.0071	-3.3569	-4.1962	-4.0283	8.5602	-7.7209	5.7068	17	243	142	3	1	2
-8.5602	-9.2316	-8.0566	-6.0425	-4.364	-5.5389	-3.6926	-1.8463	-5.3711	-3.6926	7.2174	0.1678	-4.364	-4.364	-5.2032	8.2245	-8.2245	5.3711	17	244	143	3	1	2
-9.3994	-10.5743	-9.0637	-6.8817	-5.3711	-6.546	-4.6997	-2.5177	-6.3782	-4.6997	6.3782	-0.5035	-5.5389	-4.5319	-6.3782	7.7209	-8.728	4.6997	17	245	144	3	1	2
-10.0708	-11.2457	-9.7351	-7.3853	-5.8746	-7.0496	-5.2032	-3.1891	-6.7139	-5.5389	5.5389	-1.0071	-6.2103	-4.5319	-7.2174	7.3853	-9.0637	3.6926	17	246	145	3	1	2
-10.0708	-11.5814	-10.0708	-7.5531	-6.546	-7.3853	-5.7068	-3.6926	-7.3853	-6.2103	5.0354	-1.5106	-6.8817	-4.5319	-8.3923	6.8817	-9.5673	2.8534	17	247	146	3	1	2
-10.0708	-11.7493	-10.2386	-7.5531	-6.8817	-7.8888	-6.2103	-4.5319	-7.8888	-6.8817	4.364	-2.182	-7.8888	-4.6997	-9.5673	6.546	-9.903	2.0142	17	248	147	3	1	2
-9.5673	-11.4136	-10.0708	-7.2174	-7.0496	-8.0566	-6.3782	-5.0354	-8.2245	-7.5531	3.5248	-2.5177	-8.3923	-4.6997	-10.5743	6.0425	-10.4065	1.0071	17	249	148	3	1	2
-8.8959	-11.0779	-9.7351	-7.0496	-7.0496	-8.2245	-6.7139	-5.5389	-8.5602	-8.2245	3.0212	-3.0212	-9.0637	-4.8676	-11.5814	5.5389	-11.0779	-0.1678	17	250	149	3	1	2
-7.8888	-10.0708	-9.2316	-6.3782	-7.0496	-8.2245	-6.7139	-5.8746	-8.8959	-8.728	2.182	-3.3569	-9.5673	-4.8676	-12.5885	5.3711	-11.5814	-1.1749	17	251	150	3	1	2
-6.7139	-9.0637	-8.3923	-5.5389	-6.7139	-8.0566	-6.7139	-6.3782	-9.0637	-9.2316	1.3428	-3.6926	-10.0708	-4.8676	-13.4277	5.2032	-12.2528	-2.3499	17	252	151	3	1	2
-5.2032	-7.8888	-7.2174	-4.8676	-6.2103	-7.7209	-6.546	-6.7139	-9.2316	-9.3994	0.5035	-4.0283	-10.4065	-4.8676	-14.4348	5.2032	-12.9242	-3.3569	17	253	152	3	1	2
-3.6926	-6.3782	-5.8746	-3.6926	-5.3711	-7.2174	-6.0425	-6.8817	-9.0637	-9.5673	-0.1678	-4.1962	-10.5743	-4.6997	-15.4419	5.0354	-13.2599	-4.1962	17	254	153	3	1	2
-1.8463	-4.364	-4.364	-2.3499	-4.6997	-6.546	-5.5389	-7.0496	-8.8959	-9.5673	-0.6714	-4.364	-10.91	-4.5319	-16.1133	5.2032	-13.7634	-5.2032	17	255	154	3	1	2
0.1678	-2.6855	-2.8534	-1.1749	-3.8605	-6.2103	-5.2032	-7.2174	-8.728	-9.5673	-1.3428	-4.5319	-11.2457	-4.5319	-16.9525	5.2032	-14.4348	-6.2103	17	256	155	3	1	2
2.182	-0.6714	-1.1749	0.1678	-2.8534	-5.5389	-4.6997	-7.2174	-8.728	-9.7351	-2.0142	-4.6997	-11.4136	-4.5319	-17.7917	5.3711	-14.9384	-7.2174	17	257	156	3	1	2
4.1962	1.3428	0.5035	1.3428	-1.8463	-4.8676	-4.364	-7.2174	-8.3923	-9.7351	-2.5177	-4.8676	-11.4136	-4.5319	-18.631	5.5389	-15.7776	-7.8888	17	258	157	3	1	2
6.2103	3.5248	2.182	2.6855	-0.5035	-4.0283	-3.5248	-6.8817	-7.8888	-9.3994	-2.8534	-4.6997	-11.4136	-4.364	-19.1345	5.8746	-16.1133	-8.3923	17	259	158	3	1	2
8.0566	5.2032	3.5248	3.8605	0.5035	-3.5248	-3.1891	-6.8817	-7.7209	-9.5673	-3.3569	-4.8676	-11.7493	-4.5319	-19.9738	5.8746	-16.6168	-9.0637	17	260	159	3	1	2
10.0708	7.2174	5.0354	4.8676	1.6785	-2.6855	-2.5177	-6.546	-7.2174	-9.3994	-3.5248	-4.8676	-11.7493	-4.5319	-20.813	6.2103	-16.9525	-9.5673	17	261	160	3	1	2
11.7493	8.8959	6.2103	5.8746	2.6855	-2.182	-2.182	-6.2103	-6.8817	-9.2316	-3.5248	-4.6997	-11.7493	-4.5319	-21.3165	6.7139	-17.4561	-9.903	17	262	161	3	1	2
13.092	10.7422	7.3853	6.546	3.6926	-1.3428	-1.5106	-5.7068	-6.3782	-9.0637	-3.6926	-4.6997	-11.7493	-4.5319	-21.6522	6.7139	-17.6239	-10.0708	17	263	162	3	1	2
14.4348	12.2528	8.0566	7.0496	4.5319	-1.0071	-1.3428	-5.5389	-6.0425	-9.0637	-3.8605	-4.5319	-11.9171	-4.6997	-22.1558	7.2174	-17.7917	-10.2386	17	264	163	3	1	2
15.274	13.092	8.8959	7.5531	5.3711	-0.6714	-1.1749	-5.0354	-5.5389	-9.0637	-3.6926	-4.1962	-11.7493	-4.6997	-22.6593	7.5531	-17.7917	-10.0708	17	265	164	3	1	2
15.7776	13.9313	9.2316	7.7209	6.0425	-0.3357	-1.0071	-4.6997	-5.0354	-9.0637	-3.8605	-4.1962	-12.085	-4.8676	-22.995	7.7209	-17.9596	-10.0708	17	266	165	3	1	2
16.1133	14.4348	9.2316	7.7209	6.546	-0.1678	-1.1749	-4.364	-4.8676	-9.3994	-3.6926	-4.0283	-12.085	-5.0354	-23.1628	8.0566	-17.7917	-9.903	17	267	166	3	1	2
16.1133	14.6027	9.2316	7.7209	6.7139	0	-1.0071	-4.0283	-4.364	-9.2316	-3.1891	-3.5248	-12.085	-5.0354	-22.995	8.3923	-17.4561	-9.5673	17	268	167	3	1	2
15.7776	14.6027	8.728	7.3853	7.0496	0	-1.3428	-3.6926	-4.0283	-9.2316	-3.0212	-3.3569	-12.085	-5.2032	-23.1628	8.728	-17.1204	-9.2316	17	269	168	3	1	2
15.1062	14.0991	8.2245	6.8817	6.8817	0.1678	-1.3428	-3.1891	-3.5248	-9.2316	-2.5177	-2.8534	-11.9171	-5.2032	-22.8271	8.8959	-16.7847	-8.728	17	270	169	3	1	2
14.4348	13.5956	7.7209	6.546	7.0496	0.1678	-1.5106	-2.8534	-2.8534	-9.2316	-1.8463	-2.182	-11.7493	-5.2032	-22.3236	9.2316	-16.1133	-8.2245	17	271	170	3	1	2
13.5956	13.092	6.8817	5.7068	6.8817	0.1678	-1.6785	-2.3499	-2.3499	-9.0637	-1.1749	-1.5106	-11.4136	-5.2032	-21.9879	9.7351	-15.4419	-7.5531	17	272	171	3	1	2
12.5885	12.085	6.0425	5.0354	6.8817	0.1678	-1.8463	-1.6785	-1.6785	-8.8959	-0.1678	-0.8392	-11.0779	-5.0354	-21.3165	10.0708	-14.6027	-6.546	17	273	172	3	1	2
11.2457	10.91	5.0354	4.1962	6.546	0.1678	-2.182	-1.1749	-1.0071	-8.728	0.8392	0.1678	-10.5743	-4.8676	-20.6451	10.4065	-13.9313	-5.5389	17	274	173	3	1	2
9.903	9.903	4.0283	3.1891	6.2103	0	-2.5177	-0.6714	-0.3357	-8.728	1.6785	1.0071	-10.0708	-4.6997	-19.9738	10.5743	-13.092	-4.5319	17	275	174	3	1	2
8.5602	8.8959	3.1891	2.3499	5.8746	0.1678	-2.6855	0	0.6714	-8.3923	3.0212	2.182	-9.3994	-4.364	-19.1345	10.7422	-12.085	-3.1891	17	276	175	3	1	2
7.2174	7.7209	2.3499	1.5106	5.5389	0.1678	-2.6855	0.6714	1.5106	-7.8888	4.1962	3.3569	-8.5602	-4.0283	-18.2953	10.91	-11.2457	-2.0142	17	277	176	3	1	2
5.8746	6.7139	1.5106	0.5035	5.2032	0.3357	-2.8534	1.1749	2.3499	-7.5531	5.5389	4.5319	-7.7209	-3.6926	-17.4561	11.0779	-10.4065	-0.6714	17	278	177	3	1	2
4.6997	5.7068	0.6714	-0.5035	4.6997	0.6714	-2.8534	1.6785	3.1891	-6.8817	6.7139	5.7068	-6.8817	-3.3569	-16.6168	11.0779	-9.5673	0.3357	17	279	178	3	1	2
3.6926	4.6997	0.1678	-1.1749	4.364	0.6714	-2.8534	2.182	4.0283	-6.3782	7.8888	7.2174	-6.0425	-3.0212	-15.7776	11.0779	-8.728	1.5106	17	280	179	3	1	2
3.0212	4.1962	0	-1.6785	4.1962	1.1749	-2.5177	2.6855	5.2032	-5.5389	8.8959	8.3923	-4.8676	-2.5177	-14.6027	10.91	-7.7209	2.3499	17	281	180	3	1	2
2.3499	3.6926	-0.3357	-2.182	3.8605	1.5106	-2.182	3.1891	6.2103	-4.8676	9.903	9.5673	-3.6926	-2.182	-13.5956	10.91	-6.8817	3.3569	17	282	181	3	1	2
2.182	3.6926	0	-2.3499	4.0283	2.182	-1.6785	3.6926	7.0496	-3.8605	10.7422	10.5743	-2.3499	-1.6785	-12.2528	10.7422	-5.8746	4.0283	17	283	182	3	1	2
2.0142	3.6926	0.3357	-2.3499	4.0283	2.8534	-1.0071	4.0283	8.0566	-2.8534	11.4136	11.7493	-1.1749	-1.3428	-11.2457	10.4065	-5.0354	4.364	17	284	183	3	1	2
2.0142	3.8605	1.0071	-2.182	4.1962	3.3569	-0.3357	4.5319	8.8959	-1.6785	12.085	12.5885	0	-1.0071	-10.0708	10.2386	-4.1962	4.6997	17	285	184	3	1	2
2.5177	4.1962	1.8463	-1.8463	4.364	4.364	0.6714	4.8676	9.903	-0.6714	12.5885	13.5956	1.1749	-0.6714	-9.0637	9.903	-3.5248	4.8676	17	286	185	3	1	2
3.0212	4.8676	2.6855	-1.3428	5.0354	5.2032	1.3428	5.3711	10.7422	0.5035	12.9242	14.267	2.5177	-0.5035	-8.2245	9.7351	-2.8534	5.0354	17	287	186	3	1	2
3.6926	5.5389	3.8605	-0.6714	5.3711	6.0425	2.3499	5.7068	11.4136	1.5106	13.2599	14.7705	3.5248	-0.3357	-7.3853	9.0637	-2.0142	5.0354	17	288	187	3	1	2
4.6997	6.546	5.0354	0.3357	6.0425	6.8817	3.3569	6.0425	12.085	2.6855	13.4277	15.4419	4.364	-0.1678	-6.546	8.5602	-1.5106	4.6997	17	289	188	3	1	2
6.0425	7.7209	6.546	1.5106	6.546	7.8888	4.5319	6.2103	12.4207	3.6926	13.2599	15.6097	4.8676	0	-6.0425	7.7209	-1.0071	4.1962	17	290	189	3	1	2
7.0496	9.0637	8.0566	2.6855	7.3853	9.0637	5.5389	6.546	13.092	4.6997	13.2599	15.6097	5.7068	0	-5.7068	7.2174	-0.8392	4.0283	17	291	190	3	1	2
-15.274	-4.364	-8.3923	-9.2316	9.7351	4.8676	3.5248	18.7988	16.7847	14.7705	16.449	17.2882	18.7988	1.0071	17.4561	1.1749	3.1891	9.0637	17	221	120	4	1	2
-15.9454	-4.1962	-8.5602	-10.2386	9.903	4.8676	3.1891	19.1345	16.2811	14.4348	16.1133	16.6168	17.9596	0.8392	16.6168	1.1749	2.5177	8.728	17	222	121	4	1	2
-16.2811	-4.0283	-8.5602	-10.91	9.903	4.6997	2.6855	19.1345	15.4419	13.7634	15.7776	15.6097	17.1204	0.6714	15.6097	1.3428	2.182	8.5602	17	223	122	4	1	2
-16.6168	-3.6926	-8.5602	-11.4136	10.0708	4.8676	2.5177	19.3024	14.7705	13.4277	15.7776	14.9384	16.449	0.3357	14.7705	1.6785	1.6785	8.728	17	224	123	4	1	2
-16.449	-3.5248	-8.3923	-11.7493	9.903	4.5319	2.3499	19.3024	13.9313	12.9242	15.4419	13.9313	15.6097	0.1678	13.5956	1.8463	1.3428	8.728	17	225	124	4	1	2
-16.1133	-3.3569	-8.0566	-11.7493	9.903	4.6997	2.5177	19.3024	13.092	12.5885	15.1062	13.092	14.6027	0	12.4207	1.8463	0.8392	8.728	17	226	125	4	1	2
-15.9454	-3.1891	-8.0566	-11.7493	9.3994	4.5319	2.5177	19.3024	12.4207	12.4207	14.9384	12.2528	13.7634	-0.3357	11.4136	2.0142	0.3357	9.0637	17	227	126	4	1	2
-15.274	-3.0212	-7.3853	-10.91	9.0637	4.364	3.1891	18.9667	11.4136	12.085	14.4348	11.2457	12.9242	-0.3357	10.2386	2.0142	0.1678	9.2316	17	228	127	4	1	2
-14.4348	-3.1891	-6.8817	-10.2386	8.5602	4.364	3.6926	18.631	10.4065	11.9171	14.0991	10.2386	12.2528	-0.5035	9.2316	1.8463	0	9.3994	17	229	128	4	1	2
-13.5956	-3.1891	-6.546	-9.2316	7.5531	4.0283	4.5319	17.9596	9.5673	11.7493	13.5956	9.2316	11.4136	-0.3357	8.2245	1.3428	0.1678	9.2316	17	230	129	4	1	2
-12.7563	-3.3569	-6.0425	-8.0566	6.546	3.8605	5.2032	17.2882	8.5602	11.5814	13.092	8.2245	10.7422	-0.3357	7.2174	0.8392	0.1678	9.2316	17	231	130	4	1	2
-11.7493	-3.8605	-5.5389	-6.7139	5.3711	3.5248	6.2103	16.449	7.3853	11.5814	12.2528	7.2174	10.0708	0	6.3782	0	0.5035	8.8959	17	232	131	4	1	2
-10.7422	-4.364	-5.0354	-5.2032	4.1962	3.1891	6.8817	15.4419	6.2103	11.4136	11.4136	6.0425	9.3994	0.1678	5.3711	-0.6714	0.6714	8.3923	17	233	132	4	1	2
-9.7351	-4.8676	-4.5319	-3.6926	2.6855	2.6855	8.0566	14.267	5.0354	11.5814	10.4065	4.8676	8.5602	0.6714	4.8676	-1.6785	1.1749	7.8888	17	234	133	4	1	2
-8.728	-5.3711	-4.0283	-2.182	1.1749	2.182	8.8959	13.092	3.8605	11.5814	9.5673	4.0283	8.0566	1.0071	4.0283	-2.5177	1.5106	7.3853	17	235	134	4	1	2
-7.5531	-6.0425	-3.6926	-0.5035	-0.3357	1.6785	9.903	11.5814	2.6855	11.5814	8.3923	2.8534	7.3853	1.5106	3.5248	-3.1891	2.3499	6.8817	17	236	135	4	1	2
-6.7139	-6.7139	-3.3569	0.6714	-1.8463	1.3428	10.91	10.4065	1.5106	11.7493	7.7209	2.182	7.0496	1.8463	2.8534	-3.8605	2.8534	6.3782	17	237	136	4	1	2
-5.8746	-7.2174	-2.8534	2.0142	-3.5248	0.6714	11.5814	8.8959	0.3357	11.7493	6.546	1.1749	6.7139	2.3499	2.3499	-4.6997	3.3569	5.7068	17	238	137	4	1	2
-5.0354	-7.7209	-2.6855	3.1891	-5.0354	0.1678	12.085	7.3853	-0.6714	11.7493	5.3711	0.3357	6.3782	2.6855	1.6785	-5.5389	3.8605	5.0354	17	239	138	4	1	2
-4.1962	-8.2245	-2.5177	4.1962	-6.546	-0.6714	12.4207	5.7068	-1.8463	11.5814	4.364	-0.3357	6.2103	3.0212	1.3428	-5.8746	4.364	4.5319	17	240	139	4	1	2
-3.8605	-8.728	-2.5177	4.8676	-8.2245	-1.3428	12.7563	3.8605	-2.8534	11.4136	3.1891	-1.1749	5.7068	3.1891	0.6714	-6.7139	4.5319	3.6926	17	241	140	4	1	2
-3.3569	-8.8959	-2.6855	5.2032	-9.7351	-2.0142	12.7563	2.0142	-4.1962	11.0779	1.6785	-1.8463	5.2032	3.3569	0	-7.3853	4.6997	2.6855	17	242	141	4	1	2
-3.1891	-9.2316	-2.8534	5.5389	-11.2457	-2.8534	12.2528	0	-5.3711	10.5743	0.1678	-2.8534	4.8676	3.5248	-0.5035	-7.8888	4.6997	1.3428	17	243	142	4	1	2
-2.8534	-9.2316	-3.0212	5.5389	-12.4207	-3.5248	11.9171	-2.0142	-6.546	9.903	-1.5106	-4.0283	4.1962	3.6926	-1.1749	-8.3923	4.6997	0.3357	17	244	143	4	1	2
-2.8534	-9.2316	-3.5248	5.2032	-13.7634	-4.364	10.91	-4.1962	-7.7209	8.8959	-3.3569	-5.2032	3.5248	3.6926	-1.8463	-9.0637	4.5319	-1.0071	17	245	144	4	1	2
-3.0212	-9.0637	-3.8605	4.5319	-14.7705	-5.0354	9.5673	-6.3782	-8.8959	7.7209	-5.3711	-6.2103	2.6855	3.6926	-2.5177	-9.3994	4.1962	-2.5177	17	246	145	4	1	2
-3.3569	-8.728	-4.5319	3.6926	-15.6097	-5.8746	8.0566	-8.3923	-10.0708	6.3782	-7.0496	-7.3853	1.6785	3.5248	-3.3569	-9.5673	3.6926	-3.8605	17	247	146	4	1	2
-3.5248	-8.0566	-5.0354	2.8534	-16.2811	-6.546	6.3782	-10.4065	-11.2457	4.8676	-9.0637	-8.5602	0.5035	3.3569	-4.0283	-9.5673	3.0212	-5.0354	17	248	147	4	1	2
-4.1962	-7.7209	-5.5389	1.6785	-16.7847	-7.2174	4.5319	-12.4207	-12.4207	3.0212	-11.0779	-9.903	-0.8392	3.0212	-5.0354	-9.7351	2.182	-6.3782	17	249	148	4	1	2
-4.5319	-6.8817	-6.0425	0.1678	-17.1204	-7.7209	2.3499	-14.267	-13.5956	1.0071	-12.9242	-11.0779	-2.3499	2.6855	-6.2103	-9.5673	1.3428	-7.5531	17	250	149	4	1	2
-5.0354	-6.0425	-6.7139	-1.0071	-17.4561	-8.3923	0	-16.2811	-14.9384	-1.1749	-14.7705	-12.4207	-3.8605	2.3499	-7.2174	-9.3994	0.1678	-8.728	17	251	150	4	1	2
-5.7068	-4.6997	-7.3853	-2.6855	-17.4561	-8.8959	-2.3499	-18.1274	-16.1133	-3.6926	-16.7847	-13.9313	-5.8746	1.8463	-8.3923	-9.3994	-1.1749	-9.903	17	252	151	4	1	2
-5.8746	-3.6926	-7.5531	-3.8605	-17.1204	-9.0637	-4.6997	-19.6381	-16.9525	-6.0425	-18.7988	-15.4419	-7.8888	1.5106	-9.3994	-9.0637	-2.3499	-10.7422	17	253	152	4	1	2
-6.2103	-2.3499	-7.7209	-5.2032	-16.9525	-9.5673	-7.2174	-21.3165	-18.1274	-8.728	-20.6451	-16.9525	-10.0708	1.0071	-10.7422	-9.0637	-3.8605	-11.9171	17	254	153	4	1	2
-6.2103	-1.0071	-7.7209	-6.3782	-16.449	-9.5673	-9.5673	-22.4915	-18.7988	-11.2457	-22.4915	-18.2953	-12.085	0.6714	-12.085	-9.0637	-5.2032	-13.092	17	255	154	4	1	2
-5.8746	0.3357	-7.3853	-7.2174	-15.6097	-9.2316	-11.5814	-23.4985	-19.4702	-13.7634	-24.3378	-19.6381	-14.4348	0.3357	-13.4277	-9.2316	-6.7139	-14.4348	17	256	155	4	1	2
-5.5389	1.8463	-6.8817	-7.8888	-14.7705	-8.8959	-13.7634	-24.5056	-19.9738	-16.449	-25.8484	-20.813	-16.6168	0	-14.7705	-9.5673	-8.0566	-15.6097	17	257	156	4	1	2
-4.8676	3.1891	-6.0425	-8.3923	-13.9313	-8.3923	-15.6097	-25.3448	-20.3094	-19.1345	-27.359	-21.9879	-18.7988	-0.3357	-16.1133	-9.903	-9.5673	-16.9525	17	258	157	4	1	2
-4.0283	4.6997	-5.0354	-8.728	-12.9242	-7.5531	-16.9525	-25.8484	-20.3094	-21.3165	-28.7018	-22.995	-20.9808	-0.6714	-17.4561	-10.5743	-11.0779	-18.2953	17	259	158	4	1	2
-2.8534	6.0425	-3.8605	-8.5602	-11.5814	-6.546	-18.2953	-26.1841	-20.3094	-23.4985	-29.8767	-23.6664	-22.8271	-1.0071	-18.631	-11.2457	-12.4207	-19.6381	17	260	159	4	1	2
-1.5106	7.3853	-2.3499	-8.0566	-10.2386	-5.3711	-19.1345	-25.8484	-19.6381	-25.177	-30.3802	-24.1699	-24.3378	-1.1749	-19.3024	-11.5814	-13.5956	-20.4773	17	261	160	4	1	2
0.1678	8.5602	-0.6714	-7.3853	-8.728	-3.8605	-19.4702	-25.3448	-18.631	-26.3519	-31.0516	-24.1699	-25.6805	-1.3428	-20.1416	-12.085	-14.4348	-21.3165	17	262	161	4	1	2
1.8463	9.903	1.1749	-6.3782	-7.2174	-2.3499	-19.8059	-24.6735	-17.7917	-27.6947	-31.0516	-23.8342	-26.6876	-1.5106	-20.813	-12.2528	-15.6097	-21.9879	17	263	162	4	1	2
3.6926	10.91	3.0212	-5.3711	-5.7068	-0.6714	-19.6381	-23.6664	-16.449	-28.3661	-30.8838	-23.4985	-27.359	-1.6785	-21.1487	-12.4207	-16.449	-22.3236	17	264	163	4	1	2
5.5389	11.7493	5.2032	-4.0283	-4.0283	0.8392	-19.4702	-22.4915	-15.274	-29.0375	-30.7159	-22.8271	-28.0304	-1.8463	-21.6522	-12.4207	-17.1204	-22.6593	17	265	164	4	1	2
7.3853	12.4207	7.0496	-2.6855	-2.5177	2.6855	-18.631	-21.1487	-13.5956	-29.2053	-29.8767	-21.8201	-28.1982	-1.8463	-21.6522	-12.4207	-17.6239	-22.4915	17	266	165	4	1	2
9.2316	12.9242	8.8959	-1.0071	-1.1749	4.1962	-17.7917	-19.4702	-11.7493	-29.2053	-28.8696	-20.4773	-28.0304	-1.8463	-21.8201	-12.2528	-17.9596	-22.3236	17	267	166	4	1	2
10.91	13.092	10.4065	0.3357	0	5.7068	-16.7847	-17.7917	-10.0708	-28.8696	-27.6947	-19.1345	-27.8625	-1.8463	-21.8201	-12.085	-18.2953	-21.9879	17	268	167	4	1	2
12.5885	13.092	11.7493	1.8463	1.1749	7.0496	-15.4419	-15.9454	-8.0566	-28.1982	-26.1841	-17.6239	-27.1912	-1.6785	-21.4844	-11.5814	-18.4631	-21.3165	17	269	168	4	1	2
14.0991	12.9242	13.092	3.3569	2.3499	8.2245	-14.267	-13.9313	-6.2103	-27.359	-24.6735	-15.9454	-26.5198	-1.6785	-21.4844	-11.0779	-18.631	-20.6451	17	270	169	4	1	2
15.1062	12.4207	14.0991	4.6997	3.1891	9.3994	-12.7563	-11.9171	-4.364	-26.3519	-22.995	-14.0991	-25.6805	-1.5106	-21.1487	-10.5743	-18.4631	-19.8059	17	271	170	4	1	2
16.1133	11.9171	14.7705	5.7068	3.8605	10.2386	-11.4136	-10.0708	-2.5177	-25.177	-21.4844	-12.4207	-24.8413	-1.5106	-20.813	-10.2386	-18.2953	-18.7988	17	272	171	4	1	2
16.7847	11.4136	15.274	6.546	4.5319	10.91	-10.0708	-8.2245	-0.8392	-23.8342	-19.4702	-10.5743	-23.4985	-1.3428	-20.3094	-9.3994	-18.1274	-17.7917	17	273	172	4	1	2
16.9525	10.4065	15.1062	7.2174	4.8676	11.2457	-8.5602	-6.2103	0.8392	-22.1558	-17.7917	-8.728	-22.3236	-1.1749	-19.6381	-8.8959	-17.7917	-16.7847	17	274	173	4	1	2
16.9525	9.5673	15.1062	7.8888	5.2032	11.5814	-7.2174	-4.6997	2.182	-20.6451	-15.9454	-7.2174	-20.813	-1.1749	-19.1345	-8.2245	-17.2882	-15.7776	17	275	174	4	1	2
16.449	8.3923	14.4348	7.8888	5.3711	11.4136	-5.8746	-2.8534	3.6926	-18.7988	-14.267	-5.2032	-19.3024	-1.0071	-18.2953	-7.7209	-16.7847	-14.6027	17	276	175	4	1	2
15.9454	7.2174	13.5956	7.8888	5.5389	11.4136	-4.5319	-1.1749	5.2032	-16.7847	-12.4207	-3.5248	-17.7917	-0.8392	-17.4561	-7.0496	-16.2811	-13.4277	17	277	176	4	1	2
14.7705	6.0425	12.4207	7.7209	5.3711	11.0779	-3.5248	0.3357	6.3782	-15.1062	-10.7422	-1.6785	-15.9454	-0.8392	-16.6168	-6.3782	-15.4419	-12.085	17	278	177	4	1	2
13.5956	4.8676	11.0779	7.0496	5.3711	10.5743	-2.3499	1.5106	7.3853	-13.092	-8.8959	-0.1678	-14.0991	-0.6714	-15.6097	-5.7068	-14.7705	-10.91	17	279	178	4	1	2
12.085	3.8605	9.5673	6.3782	5.2032	10.0708	-1.3428	3.0212	8.5602	-10.91	-7.2174	1.3428	-12.085	-0.5035	-14.4348	-5.0354	-13.7634	-9.5673	17	280	179	4	1	2
10.2386	2.6855	7.8888	5.5389	5.2032	9.5673	-0.1678	4.364	9.7351	-8.8959	-5.5389	3.0212	-10.0708	-0.5035	-13.2599	-4.364	-13.092	-8.2245	17	281	180	4	1	2
8.3923	1.5106	6.0425	4.6997	5.0354	8.8959	0.8392	5.5389	10.7422	-6.546	-3.8605	4.6997	-7.8888	-0.3357	-11.7493	-3.6926	-11.9171	-6.8817	17	282	181	4	1	2
6.2103	0.6714	4.364	3.6926	5.0354	8.3923	1.6785	6.8817	11.7493	-4.364	-2.0142	6.2103	-5.5389	-0.3357	-10.2386	-3.0212	-11.0779	-5.3711	17	283	182	4	1	2
4.0283	-0.3357	2.3499	3.0212	5.0354	7.7209	2.5177	8.0566	12.7563	-2.0142	-0.3357	7.7209	-3.0212	-0.1678	-8.5602	-2.3499	-9.7351	-3.6926	17	284	183	4	1	2
1.6785	-1.0071	0.5035	1.8463	4.8676	7.2174	3.5248	9.2316	13.9313	0.3357	1.5106	9.3994	-0.6714	-0.1678	-6.7139	-1.6785	-8.5602	-2.182	17	285	184	4	1	2
-0.5035	-1.6785	-1.1749	1.0071	5.2032	7.0496	4.5319	10.4065	14.9384	2.5177	3.3569	11.0779	2.0142	-0.1678	-4.6997	-0.8392	-7.3853	-0.3357	17	286	185	4	1	2
-2.6855	-2.3499	-2.8534	0.1678	5.3711	6.7139	5.3711	11.7493	16.1133	5.0354	5.2032	12.7563	4.6997	-0.1678	-2.6855	-0.1678	-6.0425	1.3428	17	287	186	4	1	2
-4.6997	-2.8534	-4.1962	-0.5035	5.8746	6.7139	6.546	13.092	17.2882	7.5531	6.8817	14.267	7.2174	-0.1678	-0.5035	0.3357	-4.6997	3.0212	17	288	187	4	1	2
-6.7139	-3.3569	-5.5389	-1.1749	5.8746	6.546	7.5531	13.9313	18.1274	9.7351	8.5602	15.7776	9.7351	-0.1678	1.8463	0.8392	-3.3569	4.6997	17	289	188	4	1	2
-8.3923	-3.5248	-6.546	-1.5106	6.546	6.7139	8.728	15.274	19.3024	12.085	10.4065	17.2882	12.4207	-0.1678	4.0283	1.3428	-1.8463	6.3782	17	290	189	4	1	2
-9.903	-3.6926	-7.3853	-1.6785	7.0496	6.8817	9.7351	16.2811	20.1416	14.267	11.9171	18.631	14.6027	-0.1678	6.2103	1.5106	-0.6714	8.0566	17	291	190	4	1	2
-26.1841	-30.5481	-29.7089	-20.6451	-22.995	-25.0092	-15.1062	-17.1204	-19.6381	-12.085	-11.4136	-11.0779	-7.5531	5.2032	-0.1678	-16.6168	-2.6855	-9.5673	17	221	120	5	1	2
-26.5198	-30.3802	-29.541	-20.813	-22.4915	-24.5056	-14.7705	-16.2811	-18.2953	-11.2457	-10.4065	-9.5673	-6.546	5.0354	-0.1678	-15.9454	-2.5177	-8.8959	17	222	121	5	1	2
-26.5198	-30.0446	-29.3732	-20.4773	-21.8201	-23.6664	-14.0991	-15.1062	-16.6168	-10.2386	-9.0637	-8.0566	-5.5389	4.8676	-0.1678	-15.1062	-2.3499	-7.8888	17	223	122	5	1	2
-26.1841	-29.3732	-28.8696	-20.1416	-20.9808	-22.8271	-13.5956	-14.0991	-15.1062	-9.3994	-8.0566	-6.7139	-4.8676	4.5319	-0.3357	-14.267	-2.3499	-6.8817	17	224	123	5	1	2
-26.0162	-28.8696	-28.3661	-19.8059	-20.1416	-21.9879	-12.9242	-13.092	-13.7634	-8.728	-7.2174	-5.2032	-4.1962	4.1962	-0.5035	-13.4277	-2.182	-6.2103	17	225	124	5	1	2
-25.6805	-28.0304	-27.8625	-19.4702	-19.4702	-20.9808	-12.2528	-12.2528	-12.2528	-7.8888	-6.546	-3.6926	-3.3569	4.0283	-0.5035	-12.9242	-1.8463	-5.5389	17	226	125	5	1	2
-25.177	-27.359	-27.1912	-18.7988	-18.631	-19.9738	-11.4136	-11.5814	-10.7422	-7.3853	-5.7068	-2.5177	-2.6855	3.6926	-0.6714	-12.085	-1.6785	-5.2032	17	227	126	5	1	2
-24.8413	-26.5198	-26.6876	-18.2953	-17.9596	-19.1345	-10.91	-10.7422	-9.3994	-6.546	-5.0354	-1.3428	-2.0142	3.5248	-0.8392	-11.5814	-1.5106	-4.8676	17	228	127	5	1	2
-24.5056	-25.5127	-26.1841	-17.7917	-17.1204	-18.4631	-10.4065	-10.2386	-8.2245	-6.0425	-4.5319	-0.3357	-1.5106	3.3569	-1.1749	-11.0779	-1.1749	-4.5319	17	229	128	5	1	2
-24.0021	-24.6735	-25.6805	-17.2882	-16.449	-17.7917	-9.7351	-9.7351	-7.2174	-5.5389	-4.1962	0.5035	-1.3428	3.1891	-1.5106	-10.5743	-1.1749	-4.5319	17	230	129	5	1	2
-23.4985	-23.8342	-25.0092	-16.7847	-15.7776	-16.9525	-9.2316	-9.3994	-6.3782	-5.3711	-3.8605	1.1749	-1.1749	3.0212	-2.182	-10.2386	-1.3428	-4.6997	17	231	130	5	1	2
-23.3307	-22.995	-24.8413	-16.449	-15.274	-16.6168	-8.8959	-9.0637	-5.5389	-5.0354	-3.6926	1.6785	-1.1749	3.0212	-2.6855	-10.0708	-1.1749	-4.8676	17	232	131	5	1	2
-22.995	-22.1558	-24.5056	-15.9454	-14.7705	-16.1133	-8.5602	-8.8959	-4.8676	-4.8676	-3.6926	2.182	-1.1749	3.0212	-3.3569	-9.7351	-1.0071	-5.0354	17	233	132	5	1	2
-22.8271	-21.3165	-24.5056	-15.6097	-14.4348	-15.7776	-8.2245	-8.728	-4.364	-4.8676	-3.5248	2.5177	-1.3428	3.0212	-4.0283	-9.5673	-1.1749	-5.3711	17	234	133	5	1	2
-22.4915	-20.6451	-24.0021	-15.1062	-13.9313	-15.274	-7.7209	-8.728	-4.0283	-5.0354	-3.5248	2.6855	-1.6785	3.0212	-4.8676	-9.2316	-1.3428	-5.7068	17	235	134	5	1	2
-22.3236	-19.9738	-24.1699	-14.9384	-13.5956	-15.1062	-7.7209	-8.5602	-3.6926	-5.0354	-3.5248	2.8534	-2.0142	3.0212	-5.7068	-9.2316	-1.5106	-5.8746	17	236	135	5	1	2
-22.4915	-19.6381	-24.1699	-14.6027	-13.4277	-15.1062	-7.7209	-8.2245	-3.1891	-5.0354	-3.3569	3.0212	-2.3499	3.1891	-6.546	-8.8959	-1.6785	-6.0425	17	237	136	5	1	2
-22.3236	-18.9667	-24.1699	-14.0991	-13.092	-14.7705	-7.5531	-8.3923	-3.1891	-5.3711	-3.1891	3.1891	-2.6855	3.1891	-7.3853	-8.5602	-2.0142	-6.2103	17	238	137	5	1	2
-22.3236	-18.631	-24.3378	-14.0991	-12.7563	-14.9384	-7.7209	-8.3923	-3.0212	-5.7068	-3.3569	3.0212	-3.1891	3.1891	-8.3923	-8.5602	-2.5177	-6.3782	17	239	138	5	1	2
-22.4915	-18.631	-24.5056	-14.0991	-12.7563	-14.9384	-7.8888	-8.3923	-2.8534	-5.8746	-3.3569	2.8534	-3.8605	3.3569	-9.3994	-8.5602	-2.6855	-6.3782	17	240	139	5	1	2
-22.6593	-18.631	-24.6735	-13.9313	-12.7563	-15.274	-8.2245	-8.5602	-3.1891	-6.546	-3.6926	2.3499	-4.6997	3.3569	-10.5743	-8.3923	-3.1891	-6.8817	17	241	140	5	1	2
-22.8271	-18.4631	-25.0092	-13.7634	-12.7563	-15.4419	-8.3923	-9.0637	-3.5248	-7.3853	-4.1962	1.8463	-5.5389	3.3569	-11.7493	-8.2245	-3.8605	-7.3853	17	242	141	5	1	2
-23.1628	-18.631	-25.5127	-13.9313	-13.092	-15.9454	-9.0637	-9.3994	-3.6926	-7.8888	-4.6997	1.1749	-6.546	3.5248	-13.092	-8.3923	-4.6997	-8.2245	17	243	142	5	1	2
-23.3307	-18.9667	-26.0162	-14.0991	-13.4277	-16.449	-9.3994	-10.0708	-4.5319	-8.728	-5.5389	0.1678	-7.7209	3.5248	-14.267	-8.5602	-5.3711	-9.0637	17	244	143	5	1	2
-23.8342	-19.3024	-26.5198	-14.0991	-14.0991	-17.1204	-10.0708	-10.7422	-5.2032	-9.5673	-6.7139	-0.6714	-8.8959	3.6926	-15.6097	-8.8959	-6.0425	-10.2386	17	245	144	5	1	2
-24.1699	-19.8059	-27.0233	-14.267	-14.7705	-17.7917	-10.5743	-11.5814	-5.8746	-10.4065	-7.7209	-1.6785	-10.0708	3.8605	-16.6168	-9.3994	-6.7139	-11.2457	17	246	145	5	1	2
-24.5056	-20.6451	-27.6947	-14.4348	-15.4419	-18.4631	-11.0779	-12.5885	-6.8817	-11.4136	-8.8959	-3.0212	-11.4136	3.8605	-17.6239	-9.903	-7.2174	-12.4207	17	247	146	5	1	2
-24.8413	-21.1487	-28.5339	-14.6027	-16.2811	-19.1345	-11.5814	-13.5956	-7.7209	-12.2528	-10.0708	-4.1962	-12.5885	4.0283	-18.4631	-10.4065	-7.7209	-13.7634	17	248	147	5	1	2
-25.3448	-21.8201	-29.0375	-14.7705	-16.9525	-19.8059	-11.9171	-14.4348	-8.728	-12.9242	-11.2457	-5.2032	-13.5956	4.1962	-19.1345	-11.0779	-8.2245	-14.9384	17	249	148	5	1	2
-26.0162	-22.4915	-29.8767	-14.7705	-17.9596	-20.3094	-12.2528	-15.6097	-9.5673	-13.7634	-12.4207	-6.2103	-14.6027	4.5319	-19.4702	-11.7493	-8.5602	-16.1133	17	250	149	5	1	2
-26.3519	-23.1628	-30.3802	-14.9384	-18.9667	-21.1487	-12.7563	-16.6168	-10.5743	-14.4348	-13.5956	-7.3853	-15.274	4.6997	-19.6381	-12.4207	-8.8959	-17.1204	17	251	150	5	1	2
-26.6876	-23.6664	-30.8838	-14.9384	-19.6381	-21.6522	-12.7563	-17.4561	-11.2457	-14.7705	-14.7705	-8.2245	-16.1133	4.8676	-19.4702	-13.2599	-8.8959	-17.9596	17	252	151	5	1	2
-27.0233	-24.5056	-31.5552	-14.7705	-20.6451	-22.3236	-13.092	-18.631	-12.2528	-15.4419	-15.9454	-9.0637	-16.7847	5.0354	-19.3024	-14.0991	-9.2316	-18.9667	17	253	152	5	1	2
-27.359	-25.3448	-32.0587	-14.7705	-21.6522	-22.995	-13.2599	-19.6381	-13.092	-15.7776	-16.9525	-9.903	-17.2882	5.3711	-19.1345	-14.7705	-9.2316	-20.1416	17	254	153	5	1	2
-27.5269	-25.6805	-32.3944	-14.6027	-22.4915	-23.4985	-13.2599	-20.4773	-13.5956	-15.9454	-17.7917	-10.7422	-17.6239	5.5389	-18.631	-15.4419	-9.0637	-20.813	17	255	154	5	1	2
-27.6947	-26.5198	-32.8979	-14.4348	-23.3307	-24.0021	-13.2599	-21.4844	-14.6027	-16.449	-18.9667	-11.4136	-18.1274	5.7068	-18.1274	-16.1133	-9.0637	-21.4844	17	256	155	5	1	2
-28.0304	-27.1912	-33.2336	-14.267	-24.3378	-24.3378	-13.2599	-22.4915	-15.274	-16.6168	-19.8059	-12.085	-18.4631	6.0425	-17.6239	-16.6168	-8.8959	-22.1558	17	257	156	5	1	2
-28.1982	-27.8625	-33.5693	-14.267	-25.177	-25.0092	-13.2599	-23.3307	-15.9454	-16.7847	-20.6451	-12.5885	-18.631	6.2103	-17.1204	-17.1204	-8.8959	-22.4915	17	258	157	5	1	2
-28.3661	-28.3661	-33.905	-13.7634	-26.0162	-25.3448	-13.092	-24.1699	-16.6168	-16.7847	-21.3165	-13.092	-18.7988	6.3782	-16.449	-17.2882	-8.728	-22.8271	17	259	158	5	1	2
-28.3661	-29.0375	-34.0729	-13.5956	-26.6876	-25.6805	-12.9242	-24.8413	-17.1204	-16.9525	-21.6522	-13.4277	-18.7988	6.3782	-16.1133	-17.4561	-8.3923	-22.6593	17	260	159	5	1	2
-28.5339	-29.541	-34.2407	-13.2599	-27.359	-26.0162	-12.7563	-25.5127	-17.6239	-17.1204	-22.3236	-13.7634	-18.9667	6.546	-15.6097	-17.4561	-8.2245	-22.4915	17	261	160	5	1	2
-28.7018	-30.0446	-34.5764	-13.092	-27.8625	-26.3519	-12.5885	-26.0162	-18.1274	-17.1204	-22.6593	-13.9313	-18.7988	6.546	-15.274	-17.6239	-8.2245	-22.3236	17	262	161	5	1	2
-28.8696	-30.3802	-34.7443	-12.7563	-28.3661	-26.5198	-12.4207	-26.5198	-18.4631	-17.1204	-22.8271	-13.9313	-18.631	6.546	-14.7705	-17.6239	-8.0566	-21.8201	17	263	162	5	1	2
-28.7018	-30.5481	-34.7443	-12.2528	-28.5339	-26.6876	-12.085	-26.6876	-18.4631	-16.7847	-22.6593	-13.7634	-18.2953	6.546	-14.0991	-17.4561	-7.8888	-20.9808	17	264	163	5	1	2
-29.0375	-30.8838	-34.9121	-12.085	-29.0375	-26.8555	-12.085	-27.1912	-18.9667	-16.9525	-22.6593	-13.9313	-18.1274	6.546	-13.9313	-17.4561	-8.0566	-20.6451	17	265	164	5	1	2
-29.0375	-30.8838	-34.9121	-11.9171	-29.2053	-27.0233	-11.9171	-27.5269	-19.1345	-16.9525	-22.6593	-13.9313	-17.7917	6.546	-13.5956	-17.1204	-8.0566	-19.9738	17	266	165	5	1	2
-29.3732	-31.0516	-35.08	-11.9171	-29.541	-27.359	-12.085	-27.8625	-19.6381	-16.9525	-22.8271	-14.0991	-17.7917	6.3782	-13.4277	-17.1204	-8.3923	-19.4702	17	267	166	5	1	2
-29.2053	-30.8838	-34.7443	-11.7493	-29.541	-27.359	-11.9171	-28.0304	-19.8059	-16.9525	-22.6593	-14.0991	-17.6239	6.2103	-13.2599	-17.1204	-8.5602	-18.9667	17	268	167	5	1	2
-29.3732	-30.8838	-34.7443	-11.9171	-29.7089	-27.5269	-12.085	-28.3661	-20.3094	-17.2882	-22.6593	-14.4348	-17.6239	6.0425	-13.2599	-17.4561	-9.0637	-18.7988	17	269	168	5	1	2
-29.541	-30.5481	-34.7443	-11.9171	-29.7089	-27.5269	-12.2528	-28.7018	-20.9808	-17.6239	-22.995	-14.7705	-17.9596	6.0425	-13.4277	-17.7917	-9.2316	-18.7988	17	270	169	5	1	2
-29.3732	-30.2124	-34.4086	-12.085	-29.541	-27.5269	-12.4207	-28.8696	-21.4844	-17.6239	-23.1628	-15.274	-18.1274	5.8746	-13.4277	-18.1274	-9.3994	-18.7988	17	271	170	5	1	2
-29.541	-30.0446	-34.0729	-12.4207	-29.541	-27.8625	-12.7563	-29.0375	-21.9879	-18.1274	-23.6664	-15.7776	-18.631	5.8746	-13.7634	-18.7988	-9.5673	-18.9667	17	272	171	5	1	2
-29.2053	-29.3732	-33.7372	-12.4207	-29.3732	-27.8625	-13.092	-29.3732	-22.6593	-18.631	-24.0021	-16.2811	-19.1345	5.7068	-13.9313	-19.3024	-9.3994	-19.4702	17	273	172	5	1	2
-29.0375	-29.0375	-33.2336	-12.7563	-29.3732	-27.8625	-13.4277	-29.8767	-23.4985	-19.3024	-24.6735	-17.2882	-19.8059	5.7068	-14.267	-19.9738	-9.3994	-20.1416	17	274	173	5	1	2
-28.5339	-28.1982	-32.7301	-12.7563	-28.8696	-27.6947	-13.7634	-30.2124	-24.1699	-19.6381	-25.177	-17.9596	-20.3094	5.5389	-14.4348	-20.4773	-9.0637	-20.813	17	275	174	5	1	2
-28.1982	-27.5269	-32.0587	-13.092	-28.8696	-27.8625	-14.0991	-30.3802	-25.0092	-19.9738	-25.6805	-18.9667	-20.813	5.5389	-14.7705	-20.9808	-9.0637	-21.4844	17	276	175	5	1	2
-27.6947	-26.8555	-31.2195	-13.2599	-28.3661	-27.5269	-14.267	-30.7159	-25.6805	-20.4773	-26.1841	-19.6381	-21.3165	5.3711	-15.1062	-21.4844	-8.8959	-22.3236	17	277	176	5	1	2
-26.8555	-25.6805	-30.3802	-13.4277	-27.8625	-27.1912	-14.4348	-30.8838	-26.3519	-20.813	-26.3519	-20.4773	-21.6522	5.2032	-14.9384	-21.8201	-8.3923	-22.6593	17	278	177	5	1	2
-26.1841	-25.0092	-29.3732	-13.4277	-27.5269	-26.8555	-14.4348	-30.8838	-26.8555	-20.9808	-26.6876	-21.1487	-21.9879	5.2032	-15.1062	-22.1558	-8.0566	-22.995	17	279	178	5	1	2
-25.5127	-23.8342	-28.3661	-13.4277	-26.8555	-26.3519	-14.267	-30.7159	-27.359	-20.9808	-26.6876	-21.8201	-21.9879	5.0354	-15.1062	-22.1558	-7.7209	-23.1628	17	280	179	5	1	2
-24.6735	-22.995	-27.5269	-13.2599	-26.3519	-26.0162	-14.267	-30.7159	-27.8625	-20.9808	-26.8555	-22.4915	-22.1558	5.0354	-15.1062	-22.3236	-7.7209	-23.3307	17	281	180	5	1	2
-23.8342	-21.9879	-26.3519	-13.092	-25.6805	-25.5127	-13.9313	-30.5481	-28.1982	-20.813	-26.8555	-22.995	-22.1558	4.8676	-14.9384	-21.9879	-7.3853	-23.3307	17	282	181	5	1	2
-22.995	-20.9808	-25.177	-12.7563	-25.0092	-24.8413	-13.5956	-30.3802	-28.5339	-20.6451	-26.6876	-23.4985	-21.8201	4.8676	-14.7705	-21.6522	-7.2174	-23.3307	17	283	182	5	1	2
-21.9879	-20.1416	-24.1699	-12.4207	-24.3378	-24.3378	-13.2599	-30.0446	-28.7018	-20.3094	-26.5198	-23.8342	-21.6522	4.8676	-14.4348	-21.3165	-6.8817	-23.3307	17	284	183	5	1	2
-21.1487	-19.4702	-23.4985	-12.2528	-23.8342	-23.8342	-12.9242	-29.8767	-29.0375	-20.1416	-26.5198	-24.3378	-21.4844	4.8676	-14.0991	-21.1487	-6.8817	-23.3307	17	285	184	5	1	2
-20.3094	-18.631	-22.3236	-11.9171	-23.1628	-23.1628	-12.2528	-29.3732	-29.2053	-19.6381	-26.3519	-24.5056	-20.9808	4.8676	-13.5956	-20.4773	-6.546	-23.1628	17	286	185	5	1	2
-19.3024	-17.9596	-21.3165	-11.4136	-22.4915	-22.4915	-11.5814	-28.8696	-29.2053	-18.9667	-26.0162	-24.6735	-20.3094	4.8676	-12.9242	-19.8059	-6.3782	-22.8271	17	287	186	5	1	2
-18.2953	-17.1204	-20.3094	-10.91	-21.6522	-21.6522	-10.91	-28.1982	-29.0375	-18.1274	-25.3448	-24.5056	-19.4702	4.8676	-12.085	-18.7988	-6.0425	-22.4915	17	288	187	5	1	2
-17.4561	-16.6168	-19.4702	-10.2386	-20.9808	-20.9808	-10.0708	-27.5269	-28.8696	-17.4561	-25.0092	-24.3378	-18.631	4.8676	-11.4136	-17.9596	-5.7068	-22.1558	17	289	188	5	1	2
-16.6168	-16.2811	-18.7988	-9.903	-20.6451	-20.4773	-9.5673	-26.8555	-28.5339	-16.6168	-24.5056	-24.3378	-17.7917	4.8676	-10.5743	-17.2882	-5.3711	-21.8201	17	290	189	5	1	2
-16.1133	-16.1133	-18.2953	-9.5673	-20.1416	-19.9738	-8.8959	-26.5198	-28.5339	-16.1133	-24.5056	-24.1699	-17.2882	4.8676	-9.903	-16.6168	-5.2032	-21.6522	17	291	190	5	1	2
-11.7493	-10.0708	-10.2386	-17.1204	-2.6855	-10.7422	-10.7422	3.1891	-7.3853	-5.7068	7.8888	0.6714	-1.6785	1.6785	0.1678	9.5673	4.0283	13.7634	17	221	120	6	1	2
-11.5814	-9.5673	-10.2386	-17.6239	-2.0142	-10.7422	-11.0779	3.5248	-7.5531	-6.2103	8.2245	0.5035	-2.0142	1.5106	-0.5035	10.2386	3.6926	14.267	17	222	121	6	1	2
-11.4136	-8.728	-10.0708	-17.9596	-1.5106	-10.91	-11.4136	3.6926	-7.5531	-6.3782	8.2245	0	-2.5177	1.1749	-1.3428	10.91	3.3569	14.6027	17	223	122	6	1	2
-11.2457	-8.2245	-10.0708	-18.4631	-1.1749	-11.0779	-11.7493	3.6926	-7.8888	-6.8817	7.8888	-0.6714	-3.1891	0.8392	-2.182	11.2457	3.0212	14.6027	17	224	123	6	1	2
-11.2457	-7.8888	-10.2386	-18.9667	-1.0071	-11.5814	-12.2528	3.8605	-8.5602	-7.2174	7.8888	-1.1749	-3.8605	0.6714	-2.8534	11.7493	2.6855	14.6027	17	225	124	6	1	2
-11.0779	-7.5531	-10.2386	-19.4702	-0.8392	-12.085	-12.5885	3.6926	-8.8959	-7.7209	7.3853	-1.6785	-4.1962	0.3357	-3.8605	12.2528	2.182	14.4348	17	226	125	6	1	2
-11.4136	-7.3853	-10.7422	-19.8059	-0.8392	-12.5885	-13.092	3.3569	-9.3994	-8.2245	7.0496	-2.3499	-4.6997	0	-4.6997	12.5885	2.0142	14.0991	17	227	126	6	1	2
-11.4136	-7.2174	-11.0779	-20.1416	-1.1749	-13.092	-13.4277	3.0212	-9.903	-8.5602	6.546	-2.8534	-4.8676	-0.1678	-5.2032	12.7563	1.5106	13.2599	17	228	127	6	1	2
-11.5814	-7.3853	-11.5814	-20.6451	-1.3428	-14.0991	-14.0991	2.6855	-10.5743	-9.0637	6.0425	-3.5248	-5.2032	-0.5035	-5.7068	13.092	1.1749	12.7563	17	229	128	6	1	2
-11.7493	-7.5531	-12.2528	-20.9808	-1.6785	-14.6027	-14.4348	2.182	-11.0779	-9.2316	5.5389	-4.0283	-5.3711	-0.6714	-6.2103	13.2599	1.0071	12.085	17	230	129	6	1	2
-11.7493	-7.7209	-12.5885	-21.1487	-2.182	-15.274	-14.6027	1.8463	-11.5814	-9.5673	4.6997	-4.6997	-5.3711	-0.8392	-6.546	13.2599	0.6714	11.4136	17	231	130	6	1	2
-11.7493	-7.7209	-12.9242	-20.9808	-2.6855	-15.6097	-14.6027	1.1749	-11.9171	-9.5673	4.0283	-5.0354	-5.2032	-0.8392	-6.546	13.2599	0.5035	10.5743	17	232	131	6	1	2
-11.9171	-8.0566	-13.4277	-21.1487	-3.0212	-16.1133	-14.6027	0.6714	-12.2528	-9.7351	3.5248	-5.5389	-5.2032	-1.0071	-6.8817	13.092	0.5035	9.7351	17	233	132	6	1	2
-11.9171	-8.2245	-13.7634	-20.9808	-3.5248	-16.449	-14.4348	0.1678	-12.5885	-9.7351	3.0212	-5.8746	-5.0354	-1.0071	-6.8817	13.092	0.5035	8.728	17	234	133	6	1	2
-11.5814	-8.3923	-14.0991	-20.6451	-4.0283	-16.6168	-14.267	-0.3357	-12.7563	-9.5673	2.5177	-6.0425	-4.5319	-1.0071	-6.8817	13.092	0.5035	7.7209	17	235	134	6	1	2
-11.2457	-8.5602	-14.0991	-20.1416	-4.1962	-16.6168	-13.9313	-0.6714	-12.7563	-9.3994	2.0142	-6.2103	-4.1962	-0.8392	-6.8817	12.7563	0.5035	6.7139	17	236	135	6	1	2
-11.0779	-8.728	-14.267	-19.8059	-4.6997	-16.6168	-13.5956	-1.0071	-12.9242	-9.2316	1.5106	-6.3782	-3.8605	-0.8392	-6.8817	12.5885	0.6714	6.0425	17	237	136	6	1	2
-10.7422	-8.8959	-14.267	-19.1345	-4.8676	-16.449	-13.092	-1.1749	-12.7563	-8.5602	1.3428	-6.0425	-3.3569	-0.6714	-6.8817	12.2528	0.6714	5.0354	17	238	137	6	1	2
-10.4065	-9.0637	-14.0991	-18.631	-4.8676	-16.1133	-12.4207	-1.3428	-12.4207	-8.2245	1.1749	-5.8746	-2.8534	-0.5035	-6.7139	11.9171	1.0071	4.1962	17	239	138	6	1	2
-10.0708	-9.2316	-13.9313	-17.9596	-4.8676	-15.7776	-11.7493	-1.5106	-12.085	-7.8888	1.0071	-5.7068	-2.5177	-0.3357	-6.7139	11.4136	1.1749	3.5248	17	240	139	6	1	2
-9.7351	-9.3994	-13.7634	-17.2882	-5.0354	-15.274	-11.2457	-1.6785	-11.7493	-7.3853	1.0071	-5.5389	-1.8463	-0.1678	-6.7139	11.0779	1.5106	2.8534	17	241	140	6	1	2
-9.2316	-9.3994	-13.4277	-16.2811	-4.8676	-14.6027	-10.4065	-1.5106	-11.2457	-6.8817	1.0071	-5.2032	-1.6785	0.1678	-6.546	10.4065	1.6785	2.182	17	242	141	6	1	2
-9.0637	-9.5673	-13.092	-15.6097	-4.8676	-14.0991	-9.7351	-1.5106	-10.91	-6.8817	0.6714	-5.3711	-1.3428	0.3357	-6.7139	9.903	2.0142	1.5106	17	243	142	6	1	2
-8.728	-9.5673	-12.7563	-14.9384	-4.8676	-13.4277	-9.0637	-1.3428	-10.2386	-6.546	0.6714	-5.0354	-1.3428	0.6714	-6.8817	8.8959	2.0142	1.0071	17	244	143	6	1	2
-8.5602	-9.7351	-12.5885	-14.4348	-4.8676	-12.9242	-8.5602	-1.6785	-9.903	-6.3782	0.5035	-4.8676	-1.1749	1.0071	-7.2174	8.3923	2.3499	0.3357	17	245	144	6	1	2
-8.0566	-9.7351	-12.085	-13.5956	-4.6997	-12.2528	-7.8888	-1.5106	-9.3994	-6.2103	0.5035	-4.6997	-1.3428	1.1749	-7.3853	7.7209	2.3499	-0.1678	17	246	145	6	1	2
-8.0566	-9.7351	-11.5814	-12.9242	-4.6997	-12.085	-7.5531	-1.5106	-9.2316	-6.3782	0.5035	-4.6997	-1.5106	1.5106	-7.8888	7.2174	2.6855	-0.8392	17	247	146	6	1	2
-7.8888	-9.7351	-11.2457	-12.4207	-4.5319	-11.5814	-7.2174	-1.5106	-8.8959	-6.3782	0.3357	-4.6997	-1.8463	1.6785	-8.5602	6.7139	2.6855	-1.3428	17	248	147	6	1	2
-7.3853	-9.7351	-10.7422	-11.7493	-4.5319	-11.0779	-6.7139	-1.3428	-8.5602	-6.546	0.3357	-4.5319	-2.182	1.8463	-9.0637	6.0425	2.6855	-1.6785	17	249	148	6	1	2
-7.3853	-9.3994	-10.2386	-11.0779	-4.364	-10.5743	-6.2103	-1.1749	-8.3923	-6.7139	0.3357	-4.5319	-2.8534	1.8463	-9.5673	5.3711	2.6855	-2.0142	17	250	149	6	1	2
-7.0496	-9.3994	-9.5673	-10.4065	-4.0283	-10.2386	-5.8746	-0.8392	-8.0566	-7.0496	0.3357	-4.364	-3.3569	2.0142	-10.2386	5.0354	2.8534	-2.182	17	251	150	6	1	2
-6.7139	-9.2316	-9.0637	-9.7351	-4.0283	-9.7351	-5.7068	-0.8392	-7.8888	-7.5531	0.3357	-4.364	-4.0283	2.182	-11.0779	4.5319	2.8534	-2.5177	17	252	151	6	1	2
-6.3782	-8.8959	-8.3923	-9.0637	-3.6926	-9.3994	-5.3711	-0.5035	-7.5531	-7.8888	0.5035	-4.1962	-4.5319	2.3499	-11.7493	4.0283	2.6855	-2.5177	17	253	152	6	1	2
-6.3782	-8.5602	-7.8888	-8.728	-3.5248	-9.2316	-5.0354	-0.1678	-7.2174	-8.2245	0.8392	-4.0283	-5.0354	2.3499	-12.4207	3.1891	2.3499	-2.5177	17	254	153	6	1	2
-6.0425	-8.3923	-7.2174	-8.0566	-3.3569	-8.8959	-4.8676	0.1678	-7.0496	-8.5602	1.0071	-3.8605	-5.7068	2.5177	-13.092	2.6855	2.0142	-2.3499	17	255	154	6	1	2
-5.8746	-8.2245	-6.8817	-7.7209	-3.1891	-8.728	-4.8676	0.3357	-6.8817	-9.0637	1.1749	-3.8605	-6.3782	2.5177	-13.9313	2.0142	1.3428	-2.3499	17	256	155	6	1	2
-5.7068	-8.0566	-6.2103	-7.2174	-3.0212	-8.5602	-4.6997	0.5035	-6.7139	-9.7351	1.5106	-3.6926	-7.0496	2.6855	-14.7705	1.6785	1.0071	-2.3499	17	257	156	6	1	2
-6.0425	-8.0566	-6.0425	-7.2174	-3.1891	-8.5602	-5.0354	0.5035	-6.546	-10.2386	1.6785	-3.5248	-7.5531	2.5177	-15.274	1.0071	0.1678	-2.182	17	258	157	6	1	2
-5.8746	-8.0566	-5.7068	-7.0496	-3.1891	-8.728	-5.2032	0.6714	-6.3782	-10.5743	2.0142	-3.1891	-7.8888	2.5177	-15.7776	0.5035	-0.5035	-1.8463	17	259	158	6	1	2
-6.0425	-8.3923	-5.8746	-7.0496	-3.5248	-8.8959	-5.3711	0.5035	-6.546	-11.0779	2.0142	-3.1891	-8.5602	2.3499	-16.449	0.1678	-1.3428	-1.8463	17	260	159	6	1	2
-6.3782	-8.5602	-5.8746	-7.0496	-3.8605	-8.8959	-5.7068	0	-6.546	-11.5814	1.6785	-3.3569	-9.0637	2.3499	-17.1204	-0.3357	-2.3499	-2.182	17	261	160	6	1	2
-6.7139	-8.728	-6.0425	-7.2174	-4.1962	-9.2316	-5.8746	-0.1678	-6.546	-11.7493	1.6785	-3.3569	-9.3994	2.182	-17.4561	-0.5035	-3.0212	-2.0142	17	262	161	6	1	2
-7.0496	-9.2316	-6.2103	-7.3853	-5.0354	-9.3994	-6.2103	-0.6714	-6.7139	-12.085	1.5106	-3.3569	-9.903	2.182	-17.9596	-0.8392	-3.6926	-2.182	17	263	162	6	1	2
-7.2174	-9.5673	-6.3782	-7.5531	-5.3711	-9.5673	-6.3782	-1.0071	-6.7139	-12.2528	1.5106	-3.1891	-9.903	2.182	-18.1274	-1.0071	-4.1962	-2.182	17	264	163	6	1	2
-7.3853	-9.7351	-6.546	-7.7209	-5.7068	-9.7351	-6.7139	-1.3428	-6.7139	-12.2528	1.5106	-3.0212	-9.903	2.182	-18.1274	-0.8392	-4.5319	-2.0142	17	265	164	6	1	2
-7.5531	-9.903	-6.546	-8.0566	-5.8746	-9.7351	-6.7139	-1.5106	-6.2103	-12.085	1.8463	-2.6855	-9.5673	2.182	-17.7917	-0.3357	-4.5319	-1.5106	17	266	165	6	1	2
-7.7209	-9.903	-6.8817	-8.0566	-6.3782	-9.7351	-6.7139	-1.6785	-6.0425	-11.7493	2.0142	-2.182	-9.0637	2.182	-17.4561	0	-4.5319	-1.0071	17	267	166	6	1	2
-7.7209	-9.903	-6.8817	-8.2245	-6.546	-9.5673	-6.7139	-2.0142	-5.7068	-11.2457	2.3499	-1.8463	-8.5602	2.182	-17.1204	0.5035	-4.5319	-0.5035	17	268	167	6	1	2
-7.8888	-10.0708	-6.8817	-8.3923	-6.7139	-9.5673	-6.7139	-2.0142	-5.2032	-10.7422	2.5177	-1.5106	-7.8888	2.182	-16.449	1.1749	-4.364	0.1678	17	269	168	6	1	2
-7.8888	-9.903	-6.8817	-8.5602	-6.7139	-9.3994	-6.546	-2.182	-5.0354	-10.2386	2.6855	-1.1749	-7.3853	2.182	-15.9454	1.6785	-4.0283	0.6714	17	270	169	6	1	2
-7.8888	-10.0708	-7.0496	-8.8959	-7.0496	-9.2316	-6.3782	-2.3499	-4.6997	-9.7351	2.8534	-0.6714	-6.546	2.182	-15.1062	2.0142	-3.8605	0.8392	17	271	170	6	1	2
-8.0566	-10.0708	-6.8817	-8.8959	-7.3853	-9.0637	-6.546	-2.6855	-4.5319	-9.2316	3.1891	-0.3357	-5.8746	2.3499	-14.267	2.6855	-3.5248	1.0071	17	272	171	6	1	2
-8.0566	-10.0708	-7.2174	-9.3994	-7.7209	-9.0637	-6.546	-2.8534	-4.6997	-8.728	3.0212	-0.1678	-5.2032	2.3499	-13.4277	3.1891	-3.0212	1.0071	17	273	172	6	1	2
-8.0566	-10.0708	-7.3853	-9.903	-7.7209	-9.2316	-6.3782	-3.0212	-4.5319	-8.2245	2.6855	-0.5035	-4.364	2.3499	-12.4207	3.3569	-2.5177	0.8392	17	274	173	6	1	2
-8.0566	-10.0708	-7.3853	-10.0708	-8.0566	-9.2316	-6.546	-3.5248	-4.8676	-7.8888	2.3499	-0.5035	-4.0283	2.5177	-11.5814	3.8605	-2.0142	0.3357	17	275	174	6	1	2
-7.8888	-9.903	-7.7209	-10.7422	-8.2245	-9.5673	-6.3782	-3.8605	-5.0354	-7.5531	1.6785	-0.8392	-3.5248	2.5177	-10.7422	3.6926	-1.5106	-0.1678	17	276	175	6	1	2
-8.0566	-9.7351	-7.7209	-11.0779	-8.5602	-9.7351	-6.546	-4.5319	-5.7068	-7.3853	1.0071	-1.3428	-3.0212	2.6855	-10.2386	4.0283	-1.0071	-1.0071	17	277	176	6	1	2
-7.8888	-9.903	-8.2245	-11.7493	-8.728	-10.4065	-7.0496	-5.0354	-6.2103	-7.3853	0.1678	-2.0142	-2.8534	2.6855	-9.7351	4.0283	-0.8392	-1.8463	17	278	177	6	1	2
-7.8888	-9.5673	-8.2245	-12.085	-8.8959	-10.7422	-7.0496	-5.3711	-6.8817	-7.2174	-0.5035	-2.6855	-2.8534	2.6855	-9.0637	3.8605	-0.6714	-2.6855	17	279	178	6	1	2
-7.8888	-9.5673	-8.728	-12.5885	-9.0637	-11.2457	-7.3853	-5.8746	-7.7209	-7.3853	-1.3428	-3.5248	-2.8534	2.6855	-8.728	3.8605	-0.5035	-3.6926	17	280	179	6	1	2
-7.7209	-9.3994	-9.0637	-13.2599	-9.2316	-11.7493	-7.7209	-6.3782	-8.5602	-7.7209	-2.182	-4.364	-2.8534	2.8534	-8.3923	3.8605	0	-4.8676	17	281	180	6	1	2
-7.7209	-9.2316	-9.2316	-13.9313	-9.5673	-12.4207	-8.0566	-6.8817	-9.5673	-8.0566	-3.0212	-5.3711	-3.0212	2.8534	-8.2245	3.6926	0.1678	-5.7068	17	282	181	6	1	2
-7.3853	-9.0637	-9.3994	-14.267	-9.5673	-13.092	-8.2245	-7.3853	-10.5743	-8.3923	-3.8605	-6.3782	-3.1891	2.8534	-8.0566	3.6926	0.3357	-6.546	17	283	182	6	1	2
-7.7209	-9.0637	-9.5673	-14.6027	-9.5673	-13.5956	-8.5602	-7.7209	-11.5814	-8.728	-4.5319	-7.3853	-3.5248	2.8534	-7.7209	3.5248	0.5035	-7.3853	17	284	183	6	1	2
-7.3853	-8.728	-9.903	-14.9384	-9.5673	-14.0991	-8.728	-8.2245	-12.4207	-9.0637	-5.2032	-8.2245	-3.6926	2.8534	-7.5531	3.3569	0.5035	-7.8888	17	285	184	6	1	2
-7.0496	-8.728	-9.7351	-15.1062	-9.7351	-14.7705	-8.8959	-8.3923	-13.4277	-9.2316	-5.8746	-8.8959	-4.0283	2.8534	-7.3853	3.3569	0.6714	-8.3923	17	286	185	6	1	2
-6.8817	-8.3923	-9.903	-15.1062	-9.5673	-15.274	-8.8959	-8.5602	-14.267	-9.3994	-6.2103	-9.7351	-4.1962	2.8534	-7.0496	3.0212	0.8392	-8.728	17	287	186	6	1	2
-6.546	-8.2245	-9.5673	-15.1062	-9.3994	-15.6097	-8.8959	-8.5602	-14.9384	-9.7351	-6.546	-10.4065	-4.364	2.8534	-6.7139	3.1891	1.0071	-8.8959	17	288	187	6	1	2
-6.2103	-7.8888	-9.3994	-14.7705	-9.2316	-16.1133	-8.8959	-8.5602	-15.6097	-9.7351	-6.8817	-10.91	-4.5319	2.6855	-6.546	3.0212	1.0071	-8.8959	17	289	188	6	1	2
-5.5389	-7.5531	-9.0637	-14.267	-9.0637	-16.2811	-8.5602	-8.3923	-15.9454	-9.903	-6.8817	-11.2457	-4.5319	2.6855	-6.2103	3.1891	1.1749	-8.8959	17	290	189	6	1	2
-5.0354	-7.2174	-8.8959	-13.7634	-8.8959	-16.6168	-8.3923	-8.5602	-16.6168	-9.903	-7.0496	-11.7493	-4.6997	2.6855	-6.0425	3.3569	1.3428	-8.728	17	291	190	6	1	2
16.6168	9.903	13.092	6.7139	7.3853	0.1678	2.6855	4.6997	-8.5602	2.6855	5.0354	-0.5035	7.3853	-2.5177	4.8676	3.5248	0.1678	8.0566	17	221	120	7	1	2
16.6168	9.7351	13.4277	7.7209	7.0496	0.8392	4.0283	4.8676	-7.5531	4.0283	5.8746	0.6714	8.3923	-2.3499	5.3711	3.8605	1.0071	8.5602	17	222	121	7	1	2
16.7847	9.7351	13.7634	8.728	6.3782	1.5106	5.3711	4.5319	-6.7139	5.5389	6.546	1.5106	9.5673	-2.3499	5.8746	4.1962	1.5106	9.0637	17	223	122	7	1	2
16.6168	9.5673	14.0991	9.903	5.8746	2.0142	6.546	4.5319	-5.7068	6.8817	7.0496	2.5177	10.4065	-2.182	5.8746	4.364	2.3499	9.3994	17	224	123	7	1	2
16.9525	9.5673	14.7705	11.4136	5.2032	2.6855	7.8888	4.1962	-5.0354	8.2245	7.5531	3.3569	11.4136	-2.182	6.2103	4.5319	3.0212	9.7351	17	225	124	7	1	2
17.4561	9.3994	15.274	12.7563	4.5319	3.5248	9.2316	3.6926	-4.0283	9.3994	7.8888	4.1962	12.085	-2.0142	6.3782	4.6997	3.5248	9.903	17	226	125	7	1	2
17.6239	9.2316	15.7776	14.0991	3.8605	4.364	10.5743	3.3569	-2.8534	10.4065	7.8888	4.8676	12.5885	-1.8463	6.2103	4.6997	4.1962	9.7351	17	227	126	7	1	2
17.9596	9.0637	16.2811	15.4419	3.0212	5.0354	11.7493	2.6855	-2.0142	11.4136	8.0566	5.3711	12.9242	-1.8463	5.8746	4.5319	4.6997	9.3994	17	228	127	7	1	2
18.4631	8.5602	16.9525	16.9525	2.0142	5.7068	13.092	2.182	-1.1749	12.5885	8.0566	6.2103	13.4277	-1.8463	5.5389	4.6997	5.2032	9.2316	17	229	128	7	1	2
18.9667	8.3923	17.6239	18.1274	1.0071	6.546	14.0991	1.3428	-0.1678	13.2599	7.8888	6.7139	13.7634	-1.8463	5.0354	4.5319	5.5389	8.8959	17	230	129	7	1	2
19.4702	8.0566	18.2953	19.4702	0	7.2174	15.1062	0.5035	0.8392	14.267	7.7209	7.2174	13.7634	-1.8463	4.1962	4.1962	5.7068	8.2245	17	231	130	7	1	2
20.1416	7.8888	18.7988	20.813	-1.0071	8.3923	16.1133	0	2.0142	14.9384	7.5531	7.8888	14.267	-1.6785	3.5248	4.1962	5.8746	7.7209	17	232	131	7	1	2
20.4773	7.5531	19.4702	21.8201	-1.6785	9.2316	17.1204	-0.6714	3.1891	15.6097	7.2174	8.3923	14.4348	-1.5106	2.6855	3.6926	6.0425	7.0496	17	233	132	7	1	2
20.9808	7.2174	20.1416	22.995	-2.8534	10.2386	17.9596	-1.5106	4.0283	16.2811	6.8817	9.0637	14.6027	-1.5106	1.8463	3.3569	6.0425	6.2103	17	234	133	7	1	2
21.6522	6.8817	20.6451	23.8342	-3.8605	11.0779	18.631	-2.3499	5.5389	16.9525	6.546	9.5673	14.7705	-1.3428	0.8392	2.8534	5.8746	5.5389	17	235	134	7	1	2
21.9879	6.3782	21.1487	24.5056	-4.6997	12.085	19.3024	-3.0212	6.546	17.2882	6.0425	10.0708	14.9384	-1.1749	-0.1678	2.182	5.7068	4.5319	17	236	135	7	1	2
22.4915	5.8746	21.4844	24.8413	-5.7068	12.7563	19.6381	-3.8605	7.5531	17.6239	5.2032	10.4065	14.6027	-1.0071	-1.0071	1.5106	5.5389	3.5248	17	237	136	7	1	2
22.6593	5.3711	21.9879	25.177	-6.546	13.4277	19.8059	-5.0354	8.3923	17.7917	4.5319	10.5743	14.4348	-0.8392	-2.182	0.5035	5.2032	2.3499	17	238	137	7	1	2
22.8271	4.8676	22.1558	25.0092	-7.5531	14.0991	19.9738	-6.0425	9.2316	17.6239	3.6926	10.5743	13.9313	-0.6714	-3.1891	-0.3357	4.6997	1.0071	17	239	138	7	1	2
22.8271	4.364	22.3236	24.6735	-8.3923	14.7705	19.8059	-7.0496	10.0708	17.4561	2.6855	10.5743	13.4277	-0.5035	-4.1962	-1.1749	4.0283	-0.6714	17	240	139	7	1	2
22.8271	3.6926	22.1558	24.5056	-9.0637	15.274	19.4702	-8.0566	10.7422	17.2882	1.6785	10.5743	12.7563	-0.3357	-5.2032	-2.0142	3.3569	-2.182	17	241	140	7	1	2
22.6593	3.1891	21.9879	23.8342	-9.903	15.6097	19.1345	-9.2316	11.2457	16.9525	0.5035	10.5743	12.085	0	-6.2103	-2.8534	2.5177	-3.6926	17	242	141	7	1	2
21.9879	2.6855	21.4844	22.8271	-10.5743	15.9454	18.4631	-10.0708	11.5814	16.2811	-0.5035	10.2386	11.2457	0	-7.0496	-3.6926	1.5106	-5.2032	17	243	142	7	1	2
21.6522	2.0142	21.1487	21.9879	-11.0779	16.2811	17.9596	-11.0779	12.2528	15.7776	-1.5106	10.0708	10.5743	0.1678	-8.0566	-4.6997	0.6714	-6.7139	17	244	143	7	1	2
20.9808	1.5106	20.6451	20.813	-11.4136	16.2811	17.1204	-11.9171	12.5885	15.274	-2.3499	9.903	9.7351	0.1678	-8.5602	-5.2032	-0.1678	-7.8888	17	245	144	7	1	2
20.3094	1.0071	19.9738	19.8059	-11.7493	16.6168	16.449	-12.4207	13.092	14.7705	-3.1891	9.903	9.0637	0.3357	-9.0637	-6.0425	-0.8392	-9.2316	17	246	145	7	1	2
19.4702	0.6714	19.1345	18.631	-11.7493	16.7847	15.6097	-12.9242	13.4277	14.267	-3.6926	9.7351	8.5602	0.3357	-9.3994	-6.546	-1.5106	-9.903	17	247	146	7	1	2
18.631	0.1678	18.4631	17.6239	-11.9171	16.7847	14.9384	-13.092	14.0991	13.7634	-4.1962	9.7351	8.0566	0.5035	-9.7351	-6.8817	-2.3499	-10.7422	17	248	147	7	1	2
17.2882	0	17.4561	16.1133	-11.7493	16.449	13.9313	-13.2599	14.267	13.092	-4.364	9.5673	7.5531	0.3357	-9.7351	-7.3853	-2.8534	-11.4136	17	249	148	7	1	2
16.2811	-0.1678	16.2811	15.274	-11.4136	16.2811	13.092	-13.2599	14.6027	12.4207	-4.6997	9.7351	6.8817	0.3357	-9.903	-7.5531	-3.5248	-11.7493	17	250	149	7	1	2
15.274	-0.3357	15.4419	14.0991	-11.0779	16.1133	12.2528	-13.092	15.1062	12.085	-4.6997	9.7351	6.546	0.3357	-10.2386	-7.8888	-4.0283	-12.085	17	251	150	7	1	2
14.0991	-0.3357	14.267	13.2599	-10.4065	15.9454	11.5814	-12.7563	15.1062	11.4136	-4.6997	9.7351	6.0425	0.1678	-10.4065	-7.8888	-4.6997	-12.085	17	252	151	7	1	2
13.092	-0.1678	13.092	12.2528	-9.5673	15.6097	10.91	-12.2528	15.4419	11.0779	-4.364	9.7351	5.5389	0	-10.4065	-7.7209	-5.0354	-11.7493	17	253	152	7	1	2
12.085	0	12.085	11.7493	-8.728	15.274	10.2386	-11.4136	15.6097	10.4065	-4.0283	9.903	5.2032	-0.1678	-10.4065	-7.5531	-5.3711	-11.4136	17	254	153	7	1	2
11.2457	0.1678	11.0779	11.2457	-7.7209	14.7705	9.5673	-10.4065	16.1133	10.0708	-3.3569	9.903	4.8676	-0.3357	-10.5743	-7.3853	-5.7068	-10.5743	17	255	154	7	1	2
10.4065	0.6714	10.2386	11.0779	-6.7139	14.7705	9.2316	-9.2316	16.449	10.0708	-2.6855	10.5743	4.8676	-0.5035	-10.5743	-6.8817	-5.8746	-9.7351	17	256	155	7	1	2
9.7351	1.1749	9.7351	11.0779	-5.2032	14.7705	9.2316	-7.7209	16.9525	9.903	-1.6785	10.91	4.8676	-0.5035	-10.2386	-6.3782	-5.8746	-8.5602	17	257	156	7	1	2
9.3994	1.8463	9.2316	11.4136	-3.8605	14.6027	9.0637	-6.2103	17.4561	9.903	-0.1678	11.5814	5.0354	-0.5035	-9.7351	-5.7068	-5.8746	-7.2174	17	258	157	7	1	2
9.0637	2.6855	8.8959	11.5814	-2.0142	14.6027	9.0637	-4.1962	17.9596	9.903	1.1749	12.085	5.3711	-0.3357	-9.2316	-4.8676	-5.5389	-5.5389	17	259	158	7	1	2
8.8959	3.3569	8.728	12.2528	-0.3357	14.7705	9.2316	-2.5177	18.631	10.2386	2.6855	12.9242	5.8746	-0.3357	-8.728	-4.1962	-5.3711	-3.8605	17	260	159	7	1	2
8.8959	4.0283	8.728	12.9242	1.3428	14.7705	9.5673	-0.3357	19.1345	10.4065	4.364	13.7634	6.2103	-0.1678	-8.0566	-3.1891	-5.0354	-2.0142	17	261	160	7	1	2
8.728	4.8676	8.5602	13.5956	3.0212	15.1062	9.903	1.6785	19.9738	10.91	6.0425	14.6027	6.7139	0	-7.5531	-2.182	-4.6997	0	17	262	161	7	1	2
9.0637	5.7068	8.728	14.267	5.0354	15.1062	10.0708	3.6926	20.3094	11.2457	7.5531	15.4419	7.2174	0	-6.8817	-1.0071	-4.364	1.8463	17	263	162	7	1	2
9.0637	6.3782	9.0637	15.1062	6.546	15.4419	10.5743	5.7068	20.813	11.4136	9.2316	16.2811	7.7209	0.1678	-6.3782	-0.3357	-4.1962	3.8605	17	264	163	7	1	2
9.3994	7.2174	9.3994	15.6097	8.3923	15.4419	10.5743	7.7209	21.1487	11.5814	10.7422	16.7847	8.0566	0.1678	-5.8746	0.8392	-3.8605	5.5389	17	265	164	7	1	2
9.3994	7.5531	9.5673	16.2811	9.7351	15.7776	10.91	9.5673	21.3165	11.5814	11.7493	17.2882	8.2245	0.3357	-5.5389	1.6785	-3.6926	6.7139	17	266	165	7	1	2
9.7351	8.2245	9.903	16.7847	11.2457	15.7776	11.0779	11.2457	21.4844	11.5814	12.9242	17.7917	8.2245	0.5035	-5.2032	2.3499	-3.5248	7.7209	17	267	166	7	1	2
9.7351	8.5602	10.2386	16.9525	12.4207	15.7776	11.0779	12.4207	21.1487	11.4136	13.4277	17.6239	8.0566	0.5035	-5.0354	2.5177	-3.5248	8.0566	17	268	167	7	1	2
9.7351	8.8959	10.4065	16.7847	13.2599	15.6097	10.7422	13.4277	20.9808	11.0779	13.7634	17.6239	7.7209	0.5035	-4.8676	2.6855	-3.5248	8.0566	17	269	168	7	1	2
9.7351	9.0637	10.5743	16.9525	14.4348	15.7776	10.7422	14.6027	20.6451	10.91	14.0991	17.6239	7.5531	0.6714	-4.8676	3.0212	-3.5248	7.8888	17	270	169	7	1	2
9.5673	9.0637	10.7422	16.449	15.1062	15.4419	10.2386	15.4419	20.4773	10.5743	14.267	17.4561	7.2174	0.6714	-4.6997	2.8534	-3.6926	7.2174	17	271	170	7	1	2
9.3994	9.0637	10.7422	16.1133	15.7776	15.4419	9.903	16.2811	20.1416	10.0708	14.4348	17.2882	7.0496	0.6714	-4.6997	2.6855	-3.6926	6.7139	17	272	171	7	1	2
9.2316	8.8959	10.91	15.274	16.449	15.274	9.3994	16.9525	19.9738	9.5673	14.4348	17.1204	6.7139	0.5035	-4.5319	2.3499	-3.6926	5.8746	17	273	172	7	1	2
8.8959	9.0637	10.91	14.4348	17.1204	15.274	8.728	17.9596	19.8059	9.3994	14.6027	17.2882	6.7139	0.5035	-4.364	2.182	-3.6926	5.3711	17	274	173	7	1	2
8.5602	8.8959	10.91	13.2599	17.6239	15.1062	8.0566	18.631	19.6381	8.8959	14.7705	17.1204	6.3782	0.1678	-4.1962	1.8463	-3.8605	4.8676	17	275	174	7	1	2
8.0566	8.8959	10.7422	12.2528	18.2953	15.1062	7.5531	19.4702	19.6381	8.728	15.1062	17.4561	6.3782	0	-4.1962	1.6785	-4.1962	4.5319	17	276	175	7	1	2
7.7209	8.728	10.4065	10.91	18.7988	14.9384	6.7139	20.1416	19.4702	8.2245	15.4419	17.4561	6.0425	-0.3357	-3.8605	1.5106	-4.1962	4.364	17	277	176	7	1	2
6.8817	8.5602	10.0708	9.5673	19.4702	14.7705	5.7068	20.9808	19.3024	7.7209	15.6097	17.6239	5.8746	-0.6714	-3.8605	1.5106	-4.1962	4.1962	17	278	177	7	1	2
6.0425	8.3923	9.5673	7.8888	19.9738	14.6027	4.6997	21.6522	19.1345	7.2174	15.9454	17.7917	5.7068	-1.1749	-4.1962	1.6785	-4.5319	4.364	17	279	178	7	1	2
5.2032	8.2245	9.0637	6.2103	20.4773	14.267	3.6926	22.3236	18.9667	6.546	16.449	17.7917	5.5389	-1.5106	-4.1962	1.8463	-4.6997	4.5319	17	280	179	7	1	2
4.1962	8.2245	8.3923	4.364	20.813	13.9313	2.3499	22.8271	18.631	5.8746	16.7847	17.7917	5.2032	-1.8463	-4.5319	2.182	-4.8676	4.8676	17	281	180	7	1	2
3.1891	8.0566	7.7209	2.6855	21.1487	13.5956	1.1749	23.1628	18.1274	5.0354	16.9525	17.6239	4.6997	-2.182	-4.8676	2.6855	-5.0354	5.2032	17	282	181	7	1	2
2.0142	7.8888	6.8817	1.0071	21.3165	12.9242	-0.1678	23.1628	17.4561	3.8605	16.9525	17.1204	4.0283	-2.5177	-5.2032	2.8534	-5.3711	5.3711	17	283	182	7	1	2
1.0071	7.7209	6.0425	-0.5035	21.4844	12.2528	-1.6785	23.3307	16.7847	2.8534	17.1204	16.7847	3.3569	-2.8534	-5.8746	3.1891	-5.7068	5.7068	17	284	183	7	1	2
-0.1678	7.3853	5.0354	-2.182	21.4844	11.5814	-3.0212	23.3307	16.1133	1.5106	17.1204	16.2811	2.5177	-3.1891	-6.546	3.5248	-6.0425	6.0425	17	285	184	7	1	2
-1.0071	7.0496	4.1962	-3.6926	21.6522	10.91	-4.5319	23.3307	15.274	0.3357	16.9525	15.7776	1.6785	-3.5248	-7.2174	4.0283	-6.3782	6.3782	17	286	185	7	1	2
-1.8463	6.8817	3.3569	-4.6997	21.3165	10.0708	-5.8746	23.1628	14.267	-1.0071	16.6168	15.1062	0.8392	-3.6926	-8.0566	4.1962	-6.7139	6.546	17	287	186	7	1	2
-2.6855	6.546	2.5177	-5.8746	21.3165	9.2316	-7.3853	22.8271	13.4277	-2.3499	16.449	14.267	0	-4.0283	-8.8959	4.5319	-7.2174	6.546	17	288	187	7	1	2
-3.3569	6.3782	1.8463	-6.7139	20.9808	8.5602	-8.3923	22.1558	12.085	-3.6926	15.7776	13.092	-1.0071	-4.1962	-9.7351	4.6997	-7.5531	6.3782	17	289	188	7	1	2
-3.8605	6.0425	1.0071	-7.5531	20.6451	7.7209	-9.903	21.6522	10.91	-5.0354	15.274	12.085	-2.182	-4.5319	-10.5743	5.0354	-8.2245	6.3782	17	290	189	7	1	2
-4.364	5.8746	0.5035	-7.8888	20.4773	7.0496	-10.7422	21.1487	9.7351	-6.546	14.4348	11.0779	-3.1891	-4.6997	-11.4136	5.0354	-8.728	6.2103	17	291	190	7	1	2
12.7563	6.3782	13.2599	14.0991	5.0354	9.2316	12.085	1.6785	3.3569	10.91	-1.0071	-1.5106	5.3711	3.8605	1.3428	-2.3499	5.5389	-9.0637	17	221	120	8	1	2
12.7563	6.8817	13.092	14.0991	5.3711	9.3994	12.2528	2.0142	3.6926	11.5814	-0.5035	-1.0071	5.8746	3.3569	1.3428	-2.0142	5.0354	-8.2245	17	222	121	8	1	2
12.9242	7.0496	13.2599	14.0991	5.5389	9.3994	12.4207	2.5177	4.0283	12.085	0	-0.5035	6.546	2.8534	1.1749	-1.6785	4.8676	-7.7209	17	223	122	8	1	2
13.4277	7.8888	13.5956	14.6027	6.2103	10.0708	12.7563	3.1891	4.364	12.7563	0.3357	0	7.3853	2.3499	1.3428	-1.1749	4.6997	-7.0496	17	224	123	8	1	2
13.7634	8.3923	13.7634	14.7705	6.7139	10.4065	13.092	3.6926	5.0354	13.4277	1.0071	0.6714	7.8888	2.0142	1.5106	-1.1749	4.364	-6.2103	17	225	124	8	1	2
14.0991	8.8959	14.4348	15.1062	7.3853	11.2457	13.7634	4.364	5.3711	14.0991	1.3428	1.1749	8.728	1.5106	1.8463	-0.6714	4.1962	-5.5389	17	226	125	8	1	2
14.4348	9.3994	14.9384	15.4419	8.0566	12.085	14.267	5.0354	6.2103	14.9384	1.8463	1.8463	9.3994	1.1749	2.0142	-0.3357	4.1962	-5.0354	17	227	126	8	1	2
14.7705	9.903	15.274	15.9454	8.728	12.7563	14.6027	5.5389	6.8817	15.4419	2.5177	2.6855	10.0708	0.8392	2.182	-0.1678	3.8605	-4.1962	17	228	127	8	1	2
14.9384	10.4065	15.9454	16.2811	9.2316	13.7634	15.1062	6.2103	7.5531	15.9454	3.0212	3.1891	10.5743	0.5035	2.3499	0.1678	3.8605	-3.3569	17	229	128	8	1	2
14.9384	10.7422	16.6168	16.9525	9.903	14.6027	15.6097	6.8817	8.2245	16.449	3.3569	3.8605	11.2457	0.1678	2.5177	0.3357	3.5248	-2.8534	17	230	129	8	1	2
15.1062	11.0779	17.2882	17.4561	10.7422	15.6097	16.2811	7.5531	9.2316	17.2882	4.0283	4.5319	11.9171	-0.1678	3.0212	0.6714	3.6926	-2.182	17	231	130	8	1	2
15.1062	11.4136	17.7917	17.9596	11.4136	16.6168	16.7847	8.2245	10.0708	17.7917	4.6997	5.3711	12.4207	-0.3357	3.1891	1.1749	3.6926	-1.5106	17	232	131	8	1	2
15.274	11.7493	18.631	18.7988	12.2528	17.7917	17.6239	8.8959	10.91	18.4631	5.3711	6.2103	13.092	-0.3357	3.6926	1.3428	4.0283	-0.8392	17	233	132	8	1	2
15.1062	12.2528	19.3024	19.3024	12.9242	18.7988	18.2953	9.5673	11.9171	18.9667	5.8746	7.0496	13.5956	-0.3357	4.0283	1.5106	4.1962	-0.1678	17	234	133	8	1	2
15.1062	12.4207	19.9738	19.9738	13.5956	19.9738	18.9667	10.0708	12.9242	19.6381	6.3782	7.8888	14.267	-0.1678	4.364	1.3428	4.6997	0.1678	17	235	134	8	1	2
15.1062	12.5885	20.6451	20.6451	14.267	21.1487	19.8059	10.7422	13.7634	20.1416	6.7139	8.8959	14.7705	0	5.0354	1.3428	5.2032	0.5035	17	236	135	8	1	2
15.1062	12.7563	21.3165	21.1487	14.6027	21.9879	20.4773	11.0779	14.7705	20.6451	7.2174	9.5673	15.1062	0.1678	5.5389	1.0071	5.7068	0.3357	17	237	136	8	1	2
15.1062	12.9242	21.9879	21.8201	15.274	23.1628	21.3165	11.4136	15.6097	21.1487	7.5531	10.2386	15.6097	0.5035	5.8746	0.6714	6.546	0.5035	17	238	137	8	1	2
14.9384	13.092	22.3236	22.3236	15.6097	23.8342	21.9879	11.7493	16.2811	21.4844	8.0566	11.0779	15.9454	0.8392	6.3782	0.3357	7.2174	0.5035	17	239	138	8	1	2
14.7705	13.092	22.8271	22.4915	15.7776	24.5056	22.4915	11.9171	16.9525	21.6522	8.0566	11.5814	16.1133	1.1749	6.546	-0.1678	7.8888	0.5035	17	240	139	8	1	2
14.6027	13.092	23.3307	22.995	16.1133	25.177	22.995	12.085	17.6239	21.9879	8.3923	12.2528	16.2811	1.5106	6.8817	-0.5035	8.728	0.5035	17	241	140	8	1	2
14.4348	12.9242	23.4985	23.1628	16.1133	25.3448	23.3307	11.9171	17.9596	21.8201	8.3923	12.5885	16.1133	2.0142	6.8817	-0.8392	9.3994	0.3357	17	242	141	8	1	2
14.267	12.9242	23.8342	23.3307	16.1133	25.5127	23.4985	11.9171	18.2953	21.8201	8.5602	12.9242	15.9454	2.3499	6.8817	-1.1749	10.2386	0.1678	17	243	142	8	1	2
14.267	12.9242	23.6664	23.3307	15.7776	25.3448	23.4985	11.7493	18.2953	21.3165	8.5602	12.9242	15.4419	2.8534	6.3782	-1.6785	10.7422	0	17	244	143	8	1	2
13.7634	12.5885	23.4985	22.995	15.4419	24.8413	23.1628	11.4136	17.9596	20.6451	8.2245	12.5885	14.6027	3.0212	5.8746	-2.0142	10.91	-0.5035	17	245	144	8	1	2
13.5956	12.4207	23.3307	22.8271	14.9384	24.3378	22.995	10.91	17.6239	20.1416	7.7209	12.4207	13.9313	3.3569	5.2032	-2.182	11.2457	-1.0071	17	246	145	8	1	2
13.2599	12.085	22.995	22.3236	14.4348	23.6664	22.6593	10.4065	17.2882	19.3024	7.3853	12.2528	12.9242	3.6926	4.6997	-2.5177	11.4136	-1.5106	17	247	146	8	1	2
12.9242	11.9171	22.4915	21.8201	13.9313	22.6593	22.1558	9.7351	16.6168	18.2953	6.546	11.5814	11.9171	3.8605	3.6926	-2.8534	11.5814	-2.3499	17	248	147	8	1	2
12.5885	11.5814	21.8201	21.1487	13.092	21.6522	21.3165	8.8959	15.7776	17.2882	5.8746	10.7422	10.5743	4.0283	2.6855	-3.0212	11.4136	-2.8534	17	249	148	8	1	2
12.2528	11.4136	21.1487	20.3094	12.4207	20.3094	20.6451	8.0566	15.1062	16.1133	5.0354	9.903	9.2316	4.1962	1.5106	-3.5248	11.0779	-3.8605	17	250	149	8	1	2
11.7493	10.91	20.1416	19.4702	11.5814	19.3024	19.6381	7.2174	14.0991	14.7705	4.0283	9.0637	7.5531	4.1962	0.3357	-3.5248	10.5743	-4.5319	17	251	150	8	1	2
11.4136	10.5743	19.4702	18.4631	10.91	18.1274	18.631	6.546	13.092	13.4277	3.3569	8.2245	6.2103	4.1962	-1.0071	-3.6926	10.0708	-5.2032	17	252	151	8	1	2
11.0779	10.4065	18.7988	17.4561	10.4065	16.9525	17.9596	5.8746	12.4207	12.5885	2.5177	7.2174	5.0354	4.1962	-2.182	-3.8605	9.3994	-5.8746	17	253	152	8	1	2
10.91	10.2386	18.1274	16.449	9.7351	16.1133	16.7847	5.3711	11.7493	11.4136	1.8463	6.3782	3.3569	4.0283	-3.5248	-3.6926	8.728	-6.2103	17	254	153	8	1	2
10.4065	10.2386	17.2882	15.274	9.2316	15.274	15.9454	4.8676	11.0779	10.2386	1.6785	5.8746	2.3499	3.8605	-4.6997	-3.3569	7.8888	-6.2103	17	255	154	8	1	2
10.4065	10.2386	16.7847	14.4348	8.8959	14.6027	14.9384	4.5319	10.5743	9.3994	1.1749	5.2032	1.1749	3.6926	-6.0425	-3.1891	7.0496	-6.546	17	256	155	8	1	2
10.2386	10.4065	16.449	13.5956	8.8959	14.267	14.267	4.5319	10.4065	8.5602	1.0071	4.6997	0.1678	3.5248	-7.2174	-2.8534	6.2103	-6.7139	17	257	156	8	1	2
10.0708	10.4065	15.9454	12.4207	8.728	13.7634	13.2599	4.364	9.903	7.7209	0.8392	4.364	-0.6714	3.1891	-8.2245	-2.3499	5.2032	-6.7139	17	258	157	8	1	2
10.0708	10.7422	15.6097	11.5814	8.5602	13.5956	12.5885	4.364	9.903	7.0496	0.6714	3.8605	-1.5106	3.0212	-9.2316	-2.182	4.364	-6.8817	17	259	158	8	1	2
9.903	10.91	15.274	10.5743	8.5602	13.5956	11.9171	4.364	9.7351	6.546	0.6714	3.5248	-2.182	2.6855	-10.2386	-1.8463	3.3569	-7.0496	17	260	159	8	1	2
9.5673	10.91	15.1062	9.5673	8.728	13.4277	11.0779	4.1962	9.3994	5.8746	0.1678	3.0212	-3.0212	2.3499	-11.2457	-1.8463	2.3499	-7.3853	17	261	160	8	1	2
9.5673	11.2457	14.7705	8.728	8.728	13.4277	10.4065	4.1962	9.0637	5.0354	-0.1678	2.5177	-4.0283	2.0142	-12.2528	-1.8463	1.0071	-7.8888	17	262	161	8	1	2
9.3994	11.4136	14.6027	7.7209	8.8959	13.5956	9.7351	4.364	9.0637	4.364	-0.5035	1.8463	-4.8676	1.6785	-13.4277	-1.8463	0	-8.3923	17	263	162	8	1	2
9.0637	11.5814	14.4348	6.7139	8.8959	13.5956	8.8959	4.1962	8.8959	3.8605	-0.8392	1.3428	-5.5389	1.3428	-14.4348	-2.182	-1.0071	-8.8959	17	264	163	8	1	2
8.5602	11.4136	13.9313	5.7068	8.8959	13.5956	8.2245	4.0283	8.3923	3.1891	-1.3428	0.8392	-6.2103	1.0071	-15.1062	-2.3499	-2.182	-9.3994	17	265	164	8	1	2
8.2245	11.4136	13.5956	5.0354	9.0637	13.5956	7.7209	4.0283	8.2245	2.8534	-1.6785	0.5035	-6.7139	0.6714	-15.7776	-2.3499	-3.1891	-9.7351	17	266	165	8	1	2
7.8888	11.5814	13.4277	4.1962	9.2316	13.9313	7.0496	4.1962	8.0566	2.3499	-1.8463	0.1678	-7.2174	0.1678	-16.449	-2.5177	-4.1962	-10.2386	17	267	166	8	1	2
7.3853	11.4136	13.2599	3.5248	9.3994	13.7634	6.546	4.364	8.0566	2.182	-1.8463	-0.1678	-7.3853	-0.1678	-16.9525	-2.5177	-4.6997	-10.2386	17	268	167	8	1	2
7.2174	11.5814	13.092	2.8534	9.903	14.0991	6.2103	4.6997	8.0566	2.0142	-1.8463	-0.1678	-7.5531	-0.6714	-17.2882	-2.3499	-5.3711	-10.0708	17	269	168	8	1	2
6.7139	11.5814	13.092	2.182	10.0708	14.0991	5.7068	5.0354	8.0566	1.6785	-1.5106	-0.1678	-7.5531	-1.1749	-17.4561	-2.0142	-5.7068	-9.7351	17	270	169	8	1	2
6.3782	11.4136	12.7563	1.6785	10.4065	14.0991	5.3711	5.3711	8.0566	1.5106	-1.1749	-0.1678	-7.3853	-1.6785	-17.4561	-1.8463	-6.3782	-9.2316	17	271	170	8	1	2
5.7068	11.4136	12.5885	1.3428	10.7422	14.0991	5.2032	5.8746	7.8888	1.6785	-0.6714	0.1678	-7.0496	-2.0142	-17.4561	-1.1749	-6.546	-8.3923	17	272	171	8	1	2
5.3711	11.2457	12.2528	0.8392	10.91	13.9313	4.6997	6.2103	7.7209	1.5106	0	0.5035	-7.0496	-2.5177	-17.4561	-0.6714	-6.7139	-7.5531	17	273	172	8	1	2
4.8676	11.0779	11.9171	0.5035	11.2457	13.9313	4.364	6.7139	7.7209	1.3428	0.6714	0.5035	-6.8817	-3.0212	-17.4561	-0.1678	-7.2174	-6.546	17	274	173	8	1	2
4.364	10.7422	11.5814	0.1678	11.4136	13.5956	4.0283	7.2174	7.5531	1.1749	1.1749	0.8392	-6.546	-3.3569	-17.2882	0.3357	-7.2174	-5.5389	17	275	174	8	1	2
3.8605	10.5743	11.2457	-0.1678	11.5814	13.2599	3.6926	7.3853	7.3853	1.1749	2.0142	1.1749	-6.3782	-3.6926	-16.9525	1.0071	-7.3853	-4.5319	17	276	175	8	1	2
3.1891	10.2386	10.5743	-0.5035	11.5814	12.5885	3.1891	7.8888	6.8817	0.8392	2.6855	1.1749	-6.2103	-4.0283	-16.9525	1.6785	-7.5531	-3.3569	17	277	176	8	1	2
2.5177	9.7351	9.903	-1.0071	11.5814	11.9171	2.8534	8.0566	6.3782	0.5035	3.3569	1.1749	-6.0425	-4.364	-16.7847	2.182	-7.8888	-2.3499	17	278	177	8	1	2
1.5106	9.3994	9.2316	-1.5106	11.2457	11.2457	2.182	8.3923	5.7068	0	3.6926	1.0071	-6.2103	-4.6997	-16.7847	2.8534	-8.2245	-1.3428	17	279	178	8	1	2
0.6714	8.728	8.3923	-2.0142	11.0779	10.0708	1.5106	8.3923	5.2032	-0.5035	4.0283	0.8392	-6.2103	-4.8676	-16.7847	3.5248	-8.728	0	17	280	179	8	1	2
0	8.0566	7.5531	-2.5177	10.91	8.8959	0.8392	8.3923	4.1962	-1.1749	4.6997	0.6714	-6.546	-5.0354	-16.9525	4.1962	-9.2316	0.8392	17	281	180	8	1	2
-1.0071	7.5531	6.3782	-3.1891	10.4065	7.7209	0.1678	8.5602	3.3569	-1.8463	5.0354	0.1678	-6.8817	-5.2032	-17.1204	4.6997	-9.7351	1.6785	17	282	181	8	1	2
-1.6785	6.8817	5.3711	-3.5248	10.0708	6.2103	-0.5035	8.3923	2.6855	-2.5177	5.3711	0.1678	-7.0496	-5.2032	-17.2882	5.3711	-10.0708	2.6855	17	283	182	8	1	2
-2.5177	6.7139	4.5319	-4.1962	9.903	5.2032	-1.1749	8.5602	2.0142	-3.1891	5.8746	-0.1678	-7.3853	-5.3711	-17.6239	6.0425	-10.5743	3.6926	17	284	183	8	1	2
-3.1891	6.2103	3.3569	-4.6997	9.3994	3.8605	-1.6785	8.728	1.3428	-3.6926	6.0425	-0.1678	-7.5531	-5.3711	-17.6239	6.3782	-11.0779	4.5319	17	285	184	8	1	2
-3.6926	5.8746	2.8534	-4.8676	9.3994	2.8534	-2.182	8.8959	1.0071	-4.1962	6.546	-0.1678	-7.7209	-5.3711	-17.7917	7.0496	-11.5814	5.5389	17	286	185	8	1	2
-4.1962	5.8746	2.0142	-5.5389	9.3994	2.0142	-2.8534	9.0637	0.5035	-4.8676	7.0496	-0.5035	-8.0566	-5.5389	-17.9596	7.5531	-12.2528	6.3782	17	287	186	8	1	2
-4.5319	5.8746	1.6785	-5.7068	9.3994	1.1749	-3.3569	9.3994	0.1678	-5.2032	7.3853	-0.5035	-8.0566	-5.5389	-17.9596	8.0566	-12.7563	7.0496	17	288	187	8	1	2
-4.6997	5.8746	1.3428	-6.0425	9.5673	0.6714	-3.6926	9.5673	0	-5.5389	7.7209	-0.3357	-8.0566	-5.5389	-18.1274	8.3923	-13.2599	7.2174	17	289	188	8	1	2
-4.5319	6.0425	1.3428	-6.0425	9.5673	0.5035	-3.8605	9.7351	0.1678	-5.8746	8.0566	-0.1678	-7.8888	-5.3711	-18.1274	8.5602	-13.5956	7.5531	17	290	189	8	1	2
-4.364	6.2103	1.3428	-6.2103	9.5673	0.3357	-4.0283	9.5673	0.1678	-6.0425	7.7209	0	-7.8888	-5.2032	-18.1274	8.3923	-14.0991	7.2174	17	291	190	8	1	2
-4.5319	-10.2386	-0.1678	1.0071	-4.1962	-3.1891	-4.6997	-2.6855	-6.0425	-6.2103	-0.6714	-5.8746	-3.5248	-2.6855	1.3428	-1.0071	-6.546	-0.5035	17	221	120	10	1	2
-7.3853	-12.9242	-3.1891	-1.1749	-6.8817	-5.7068	-6.3782	-5.3711	-8.2245	-8.0566	-3.0212	-7.8888	-5.3711	-2.5177	0.6714	-2.182	-6.8817	-2.8534	17	222	121	10	1	2
-10.4065	-15.9454	-6.3782	-4.0283	-9.903	-8.3923	-8.2245	-7.7209	-10.5743	-10.0708	-5.5389	-9.903	-7.2174	-2.5177	0	-3.1891	-7.2174	-4.6997	17	223	122	10	1	2
-13.5956	-18.4631	-10.0708	-6.7139	-12.5885	-11.0779	-10.0708	-10.0708	-12.4207	-11.9171	-7.3853	-11.7493	-8.8959	-2.3499	-0.5035	-4.0283	-7.5531	-6.7139	17	224	123	10	1	2
-16.7847	-21.1487	-13.7634	-9.5673	-15.274	-13.5956	-11.9171	-12.2528	-14.4348	-13.9313	-9.3994	-13.5956	-10.5743	-2.3499	-1.1749	-4.8676	-7.8888	-8.3923	17	225	124	10	1	2
-20.1416	-23.8342	-17.6239	-12.5885	-17.6239	-16.2811	-13.9313	-14.4348	-16.2811	-15.7776	-11.0779	-15.1062	-12.085	-2.3499	-1.6785	-5.5389	-8.2245	-10.0708	17	226	125	10	1	2
-23.3307	-26.1841	-21.4844	-15.6097	-19.9738	-18.9667	-15.9454	-16.1133	-18.1274	-17.4561	-12.5885	-16.6168	-13.5956	-2.3499	-2.182	-6.0425	-8.5602	-11.4136	17	227	126	10	1	2
-26.5198	-28.1982	-25.177	-18.4631	-21.9879	-21.3165	-17.7917	-17.7917	-19.6381	-19.1345	-13.9313	-17.7917	-14.9384	-2.3499	-2.6855	-6.3782	-8.8959	-12.5885	17	228	127	10	1	2
-29.3732	-29.8767	-28.7018	-21.1487	-23.8342	-23.4985	-19.4702	-19.1345	-20.9808	-20.813	-15.1062	-18.7988	-16.1133	-2.3499	-3.0212	-6.546	-9.0637	-13.5956	17	229	128	10	1	2
-31.8909	-31.2195	-31.8909	-23.4985	-25.5127	-25.3448	-20.9808	-20.3094	-22.1558	-22.1558	-15.9454	-19.8059	-17.1204	-2.3499	-3.5248	-6.546	-9.2316	-14.4348	17	230	129	10	1	2
-34.0729	-32.2266	-34.5764	-25.5127	-26.8555	-27.0233	-22.3236	-21.1487	-23.1628	-23.3307	-16.6168	-20.4773	-17.9596	-2.3499	-4.0283	-6.546	-9.3994	-15.1062	17	231	130	10	1	2
-35.5835	-32.7301	-36.9263	-27.1912	-27.8625	-28.1982	-23.4985	-21.9879	-23.8342	-24.1699	-16.9525	-20.9808	-18.631	-2.3499	-4.364	-6.546	-9.5673	-15.6097	17	232	131	10	1	2
-36.7584	-32.5623	-38.6047	-28.1982	-28.3661	-29.0375	-24.0021	-22.3236	-24.1699	-24.6735	-17.1204	-21.1487	-19.1345	-2.182	-4.6997	-6.2103	-9.5673	-15.7776	17	233	132	10	1	2
-37.4298	-32.5623	-39.7797	-28.8696	-28.8696	-29.541	-24.5056	-22.6593	-24.3378	-25.0092	-17.4561	-21.1487	-19.4702	-2.182	-5.0354	-6.0425	-9.5673	-15.9454	17	234	133	10	1	2
-37.4298	-32.0587	-40.2832	-28.8696	-29.0375	-29.541	-24.5056	-22.6593	-24.0021	-25.0092	-17.2882	-20.813	-19.3024	-2.0142	-5.2032	-5.5389	-9.3994	-15.9454	17	235	134	10	1	2
-37.0941	-31.0516	-40.2832	-28.3661	-28.8696	-29.2053	-24.1699	-22.6593	-23.4985	-24.6735	-17.1204	-20.4773	-19.1345	-1.8463	-5.2032	-5.2032	-9.2316	-15.6097	17	236	135	10	1	2
-35.9192	-29.7089	-39.444	-27.359	-28.5339	-28.3661	-23.4985	-22.3236	-22.8271	-24.1699	-16.6168	-19.8059	-18.7988	-1.6785	-5.3711	-4.6997	-8.8959	-15.274	17	237	136	10	1	2
-34.4086	-28.1982	-38.4369	-26.0162	-27.8625	-27.359	-22.4915	-21.8201	-21.9879	-23.3307	-15.9454	-18.7988	-18.1274	-1.5106	-5.3711	-4.1962	-8.5602	-14.6027	17	238	137	10	1	2
-32.5623	-26.6876	-36.5906	-24.0021	-27.0233	-25.8484	-21.1487	-21.4844	-20.813	-22.1558	-15.1062	-17.7917	-17.1204	-1.3428	-5.2032	-3.8605	-8.2245	-13.7634	17	239	138	10	1	2
-30.0446	-24.8413	-34.4086	-21.6522	-26.1841	-24.1699	-19.6381	-20.6451	-19.4702	-20.6451	-14.0991	-16.7847	-16.1133	-1.1749	-5.2032	-3.3569	-7.7209	-12.7563	17	240	139	10	1	2
-27.359	-22.995	-31.723	-18.9667	-25.177	-22.1558	-17.7917	-19.8059	-17.9596	-19.3024	-13.092	-15.4419	-14.9384	-1.0071	-5.0354	-2.6855	-7.2174	-11.5814	17	241	140	10	1	2
-24.5056	-20.813	-28.7018	-15.9454	-24.0021	-19.9738	-15.7776	-19.1345	-16.2811	-17.4561	-11.9171	-13.9313	-13.7634	-0.8392	-4.6997	-2.0142	-6.7139	-10.4065	17	242	141	10	1	2
-21.3165	-18.7988	-25.3448	-12.7563	-22.6593	-17.4561	-13.4277	-18.1274	-14.6027	-15.6097	-10.5743	-12.5885	-12.085	-0.6714	-4.364	-1.5106	-5.8746	-8.8959	17	243	142	10	1	2
-17.9596	-16.7847	-21.9879	-9.5673	-21.6522	-15.1062	-11.2457	-17.4561	-12.7563	-13.5956	-9.3994	-11.0779	-10.91	-0.6714	-4.1962	-1.1749	-5.5389	-7.7209	17	244	143	10	1	2
-14.6027	-14.6027	-18.1274	-6.0425	-19.9738	-12.5885	-8.728	-16.449	-10.91	-11.5814	-8.0566	-9.3994	-9.2316	-0.5035	-3.6926	-0.5035	-4.8676	-6.7139	17	245	144	10	1	2
-11.2457	-12.7563	-14.267	-2.3499	-18.631	-9.903	-6.2103	-15.6097	-8.8959	-9.2316	-6.546	-7.7209	-7.3853	-0.3357	-3.1891	-0.1678	-4.1962	-5.5389	17	246	145	10	1	2
-7.8888	-10.7422	-10.5743	1.1749	-17.2882	-7.2174	-3.6926	-14.7705	-7.0496	-7.2174	-5.5389	-6.2103	-6.0425	-0.3357	-2.8534	0.1678	-3.6926	-4.5319	17	247	146	10	1	2
-4.5319	-8.8959	-6.7139	4.5319	-15.9454	-4.6997	-1.1749	-14.0991	-5.2032	-5.2032	-4.364	-4.5319	-4.5319	-0.3357	-2.6855	0.5035	-3.3569	-3.8605	17	248	147	10	1	2
-1.5106	-7.0496	-3.0212	8.0566	-14.6027	-2.0142	1.3428	-13.2599	-3.3569	-3.0212	-3.3569	-3.1891	-3.0212	-0.3357	-2.5177	0.5035	-3.0212	-3.6926	17	249	148	10	1	2
1.5106	-5.3711	0.3357	11.0779	-13.092	0.1678	3.5248	-12.4207	-1.6785	-1.0071	-2.3499	-1.8463	-1.3428	-0.1678	-2.182	0.6714	-2.5177	-3.5248	17	250	149	10	1	2
4.364	-3.8605	3.8605	14.0991	-12.085	2.6855	6.0425	-12.085	0.1678	1.0071	-1.5106	-0.5035	-0.1678	-0.1678	-2.182	0.6714	-2.3499	-3.5248	17	251	150	10	1	2
6.7139	-2.6855	6.546	16.7847	-10.7422	4.5319	7.7209	-11.4136	1.5106	2.6855	-0.8392	0.5035	1.1749	0	-2.0142	0.5035	-2.0142	-3.8605	17	252	151	10	1	2
8.728	-1.8463	9.2316	18.9667	-10.0708	6.3782	9.7351	-11.0779	2.6855	4.1962	-0.3357	1.3428	2.182	0	-2.3499	0	-2.182	-4.1962	17	253	152	10	1	2
10.4065	-1.1749	11.4136	21.1487	-9.0637	8.0566	11.4136	-10.5743	3.8605	5.7068	0.1678	2.3499	3.1891	0.1678	-2.5177	-0.6714	-2.182	-4.6997	17	254	153	10	1	2
11.9171	-0.6714	13.2599	22.8271	-8.2245	9.2316	12.7563	-10.2386	5.0354	6.8817	0.6714	3.0212	4.0283	0.3357	-2.6855	-1.3428	-2.182	-5.2032	17	255	154	10	1	2
12.9242	-0.3357	14.7705	24.1699	-7.3853	10.4065	14.0991	-9.903	5.8746	8.0566	1.1749	3.6926	4.6997	0.5035	-3.0212	-2.182	-2.182	-6.0425	17	256	155	10	1	2
13.5956	-0.1678	15.9454	25.3448	-6.8817	11.4136	15.274	-9.3994	6.7139	9.0637	1.6785	4.364	5.3711	0.6714	-3.1891	-2.8534	-2.3499	-6.546	17	257	156	10	1	2
14.0991	-0.1678	16.6168	26.0162	-6.0425	12.2528	16.2811	-8.5602	7.3853	9.903	2.182	5.0354	6.0425	1.0071	-3.3569	-3.3569	-2.182	-6.7139	17	258	157	10	1	2
14.267	-0.1678	17.2882	26.8555	-5.3711	12.9242	17.1204	-7.8888	8.3923	10.91	3.0212	5.7068	6.8817	1.1749	-3.3569	-4.0283	-2.0142	-6.7139	17	259	158	10	1	2
14.0991	-0.1678	17.6239	27.1912	-4.8676	13.5956	17.9596	-7.0496	9.2316	11.7493	3.6926	6.3782	7.5531	1.5106	-3.5248	-4.364	-2.0142	-6.546	17	260	159	10	1	2
13.7634	-0.3357	17.2882	27.359	-3.8605	13.9313	18.631	-6.2103	9.903	12.5885	4.5319	7.0496	8.2245	1.6785	-3.3569	-4.5319	-1.6785	-6.0425	17	261	160	10	1	2
13.2599	-0.3357	17.2882	27.359	-3.0212	14.4348	19.3024	-5.2032	10.7422	13.5956	5.5389	7.8888	9.2316	2.0142	-3.1891	-4.5319	-1.3428	-5.5389	17	262	161	10	1	2
12.2528	-0.5035	16.449	26.8555	-2.3499	14.6027	19.6381	-4.0283	11.2457	14.0991	6.2103	8.5602	9.7351	2.182	-3.0212	-4.5319	-1.0071	-5.0354	17	263	162	10	1	2
11.0779	-0.5035	15.6097	26.1841	-1.6785	14.6027	19.8059	-3.0212	11.7493	14.7705	6.8817	9.0637	10.2386	2.3499	-2.5177	-4.1962	-0.3357	-4.5319	17	264	163	10	1	2
9.903	-0.8392	14.4348	25.3448	-1.0071	14.4348	19.9738	-2.3499	12.2528	15.274	7.5531	9.3994	10.91	2.5177	-2.182	-3.8605	0.1678	-4.364	17	265	164	10	1	2
8.5602	-0.8392	13.2599	24.3378	-0.5035	14.267	19.6381	-1.5106	12.5885	15.6097	7.8888	9.5673	11.2457	2.6855	-2.0142	-3.3569	0.6714	-4.1962	17	266	165	10	1	2
7.2174	-0.6714	11.7493	22.995	0.3357	14.0991	19.6381	-0.5035	12.5885	15.9454	8.3923	9.903	11.7493	3.0212	-1.6785	-3.0212	1.1749	-4.0283	17	267	166	10	1	2
5.5389	-0.6714	10.2386	21.6522	1.0071	13.5956	19.1345	0.1678	12.7563	15.9454	8.3923	9.903	11.7493	3.1891	-1.5106	-2.6855	1.5106	-4.1962	17	268	167	10	1	2
4.1962	-0.5035	8.728	19.9738	1.6785	13.092	18.631	0.8392	12.5885	15.7776	8.2245	9.5673	11.5814	3.3569	-1.6785	-2.182	1.8463	-4.364	17	269	168	10	1	2
2.5177	-0.3357	6.8817	18.1274	2.182	12.2528	17.6239	1.1749	12.085	15.274	7.5531	9.0637	11.0779	3.3569	-1.8463	-1.5106	2.182	-4.8676	17	270	169	10	1	2
1.1749	0.1678	5.2032	16.449	2.8534	11.5814	16.9525	1.8463	11.9171	14.9384	7.2174	8.728	10.7422	3.5248	-2.182	-1.1749	2.3499	-5.5389	17	271	170	10	1	2
0	0.6714	3.6926	14.7705	3.6926	10.91	15.9454	2.3499	11.4136	14.4348	6.7139	8.2245	10.0708	3.6926	-2.6855	-0.6714	2.3499	-6.0425	17	272	171	10	1	2
-1.1749	1.1749	2.182	13.092	4.1962	10.4065	14.9384	2.6855	10.91	13.7634	6.3782	7.3853	9.2316	3.6926	-3.3569	-0.1678	2.3499	-6.7139	17	273	172	10	1	2
-2.182	1.6785	0.8392	11.4136	5.0354	9.5673	13.9313	3.0212	10.4065	12.9242	5.8746	6.7139	8.3923	3.6926	-3.8605	0.3357	2.3499	-7.0496	17	274	173	10	1	2
-2.8534	2.5177	-0.1678	9.7351	5.7068	9.0637	12.9242	3.5248	9.903	12.085	5.3711	6.0425	7.3853	3.6926	-4.6997	0.8392	2.182	-7.7209	17	275	174	10	1	2
-3.3569	3.3569	-1.0071	8.3923	6.546	8.5602	11.9171	3.8605	9.3994	11.2457	4.8676	5.3711	6.3782	3.6926	-5.3711	1.3428	2.0142	-8.0566	17	276	175	10	1	2
-3.5248	4.1962	-1.5106	7.3853	7.5531	7.8888	11.0779	4.5319	9.0637	10.4065	4.5319	4.8676	5.5389	3.6926	-6.2103	1.8463	1.5106	-8.5602	17	277	176	10	1	2
-3.6926	5.2032	-1.8463	6.3782	8.3923	7.7209	10.2386	4.8676	8.8959	9.7351	4.364	4.364	4.5319	3.6926	-6.8817	2.5177	1.3428	-8.728	17	278	177	10	1	2
-3.6926	6.0425	-2.0142	5.5389	9.2316	7.3853	9.3994	5.5389	8.5602	8.8959	4.364	4.0283	3.6926	3.5248	-7.3853	3.0212	1.0071	-8.728	17	279	178	10	1	2
-3.1891	7.2174	-1.6785	5.2032	10.4065	7.5531	8.8959	6.3782	8.5602	8.3923	4.5319	3.8605	3.0212	3.5248	-8.2245	3.6926	0.6714	-8.5602	17	280	179	10	1	2
-2.6855	7.8888	-1.3428	4.8676	11.4136	7.5531	8.3923	7.0496	8.3923	7.7209	4.8676	3.6926	2.5177	3.3569	-8.3923	4.364	0.5035	-8.0566	17	281	180	10	1	2
-1.8463	9.0637	-0.5035	5.0354	12.5885	7.7209	8.2245	8.0566	8.3923	7.2174	5.5389	4.0283	2.0142	3.3569	-8.728	5.2032	0.1678	-7.7209	17	282	181	10	1	2
-0.8392	9.7351	0.5035	5.2032	13.4277	7.8888	7.7209	8.8959	8.5602	6.8817	6.2103	4.1962	1.6785	3.1891	-8.728	5.8746	-0.1678	-7.0496	17	283	182	10	1	2
0.1678	10.5743	1.3428	5.5389	14.267	8.2245	7.5531	9.5673	8.728	6.546	7.0496	4.5319	1.5106	3.0212	-8.728	6.3782	-0.5035	-6.3782	17	284	183	10	1	2
1.1749	11.0779	2.5177	6.0425	15.1062	8.5602	7.3853	10.4065	9.0637	6.2103	7.7209	4.8676	1.5106	2.8534	-8.5602	6.8817	-0.6714	-5.5389	17	285	184	10	1	2
2.5177	11.5814	3.6926	6.546	15.7776	8.728	7.2174	11.2457	9.3994	6.0425	8.728	5.3711	1.3428	2.6855	-8.2245	7.5531	-1.0071	-4.5319	17	286	185	10	1	2
3.3569	11.7493	4.6997	7.2174	16.1133	9.0637	7.0496	11.7493	9.2316	5.5389	9.3994	5.5389	1.5106	2.3499	-7.7209	7.8888	-1.1749	-3.6926	17	287	186	10	1	2
4.364	11.5814	5.7068	7.8888	16.449	9.2316	6.8817	12.4207	9.5673	5.3711	10.4065	6.2103	1.6785	2.182	-7.2174	8.3923	-1.3428	-2.5177	17	288	187	10	1	2
5.2032	11.4136	6.7139	8.5602	16.449	9.2316	6.7139	12.9242	9.903	5.3711	11.4136	6.7139	1.8463	2.0142	-6.7139	8.728	-1.5106	-1.5106	17	289	188	10	1	2
5.7068	10.5743	7.2174	9.0637	16.2811	9.2316	6.3782	13.2599	9.7351	5.0354	12.085	6.8817	2.182	1.6785	-6.2103	8.8959	-1.6785	-0.6714	17	290	189	10	1	2
6.2103	9.7351	7.8888	9.3994	15.9454	9.2316	6.2103	13.4277	9.903	4.6997	12.7563	7.3853	2.182	1.5106	-5.5389	9.2316	-1.8463	0.1678	17	291	190	10	1	2
7.7209	14.9384	8.728	5.7068	21.8201	8.2245	4.0283	20.6451	12.5885	5.7068	19.1345	11.4136	3.5248	-3.3569	-7.8888	12.9242	-8.2245	9.7351	17	221	120	11	1	2
8.0566	15.6097	9.2316	6.3782	22.4915	8.8959	4.8676	21.3165	13.5956	6.546	19.4702	12.2528	3.6926	-3.3569	-8.2245	13.092	-8.0566	9.7351	17	222	121	11	1	2
8.5602	15.9454	9.7351	6.8817	23.1628	9.5673	5.3711	21.9879	14.6027	7.2174	19.9738	13.092	4.364	-3.3569	-8.5602	13.2599	-7.8888	9.903	17	223	122	11	1	2
8.8959	16.6168	10.0708	7.3853	23.8342	10.2386	6.0425	22.6593	15.6097	8.0566	20.4773	14.0991	4.8676	-3.3569	-9.0637	13.2599	-7.8888	9.903	17	224	123	11	1	2
9.2316	16.7847	10.2386	7.7209	24.3378	10.91	6.546	22.995	16.449	8.728	20.813	14.7705	5.3711	-3.3569	-9.2316	13.2599	-7.7209	9.903	17	225	124	11	1	2
9.7351	17.4561	10.5743	8.0566	25.0092	11.4136	6.8817	23.6664	17.2882	9.2316	21.3165	15.4419	6.0425	-3.3569	-9.2316	13.2599	-7.5531	9.903	17	226	125	11	1	2
9.903	17.7917	11.0779	8.5602	25.5127	12.085	7.3853	24.1699	18.2953	9.903	21.8201	16.2811	6.8817	-3.3569	-9.2316	13.4277	-7.2174	9.7351	17	227	126	11	1	2
10.2386	18.2953	11.2457	8.728	26.1841	12.7563	7.7209	24.6735	19.1345	10.5743	22.3236	17.1204	7.5531	-3.5248	-9.5673	13.4277	-6.8817	9.7351	17	228	127	11	1	2
10.4065	18.7988	11.5814	8.8959	26.6876	13.4277	8.2245	25.0092	19.8059	11.0779	22.4915	17.7917	8.0566	-3.3569	-9.2316	13.2599	-6.546	9.7351	17	229	128	11	1	2
10.5743	19.1345	11.7493	9.0637	27.1912	13.9313	8.3923	25.177	20.3094	11.5814	22.8271	18.2953	8.728	-3.3569	-8.8959	13.092	-6.2103	9.5673	17	230	129	11	1	2
10.7422	19.6381	12.085	9.3994	27.5269	14.4348	8.728	25.5127	20.9808	12.2528	23.1628	18.9667	9.5673	-3.3569	-8.5602	13.092	-5.7068	9.3994	17	231	130	11	1	2
10.7422	19.9738	12.085	9.3994	27.6947	14.7705	8.8959	25.5127	21.1487	12.4207	23.3307	19.1345	10.0708	-3.1891	-8.2245	12.7563	-5.3711	9.0637	17	232	131	11	1	2
10.7422	20.1416	12.2528	9.3994	27.8625	15.1062	9.0637	25.3448	21.4844	12.7563	23.3307	19.4702	10.5743	-3.1891	-7.7209	12.5885	-5.0354	8.8959	17	233	132	11	1	2
10.5743	20.1416	12.085	9.2316	27.6947	15.1062	8.8959	25.0092	21.3165	12.7563	23.1628	19.3024	10.91	-3.0212	-7.5531	12.085	-4.8676	8.2245	17	234	133	11	1	2
10.5743	20.1416	11.9171	9.2316	27.5269	15.1062	8.8959	24.5056	21.1487	12.7563	22.6593	18.9667	11.2457	-3.0212	-6.8817	11.5814	-4.5319	7.5531	17	235	134	11	1	2
10.0708	19.8059	11.7493	8.8959	26.8555	14.7705	8.5602	23.6664	20.4773	12.4207	21.8201	18.2953	11.0779	-2.8534	-6.7139	10.7422	-4.364	6.546	17	236	135	11	1	2
9.7351	19.6381	11.4136	8.728	26.3519	14.4348	8.2245	22.6593	19.9738	12.085	20.9808	17.6239	10.91	-2.8534	-6.546	10.0708	-4.1962	5.7068	17	237	136	11	1	2
9.3994	19.1345	11.0779	8.5602	25.5127	14.267	8.0566	21.8201	19.1345	11.7493	19.8059	16.9525	10.5743	-2.6855	-6.3782	9.0637	-4.1962	4.5319	17	238	137	11	1	2
8.8959	18.4631	10.4065	8.0566	24.6735	13.5956	7.3853	20.4773	18.1274	11.0779	18.2953	15.7776	9.903	-2.5177	-6.3782	8.2245	-4.364	3.0212	17	239	138	11	1	2
8.5602	17.9596	9.903	7.8888	23.6664	13.092	7.2174	19.1345	17.2882	10.4065	16.9525	14.7705	9.2316	-2.5177	-6.3782	7.2174	-4.1962	1.6785	17	240	139	11	1	2
7.8888	17.2882	9.3994	7.5531	22.6593	12.4207	6.7139	17.7917	16.1133	9.5673	15.7776	13.5956	8.728	-2.3499	-6.3782	6.2103	-4.1962	0.3357	17	241	140	11	1	2
7.2174	16.449	8.728	7.2174	21.6522	11.7493	6.2103	16.2811	14.9384	8.8959	14.0991	12.085	7.8888	-2.182	-6.7139	5.0354	-4.5319	-1.0071	17	242	141	11	1	2
6.8817	15.7776	8.0566	6.8817	20.6451	11.2457	5.8746	15.274	13.9313	8.0566	12.7563	11.0779	7.0496	-2.0142	-6.7139	4.1962	-4.6997	-2.3499	17	243	142	11	1	2
6.3782	14.9384	7.5531	6.7139	19.4702	10.5743	5.3711	13.9313	12.7563	7.2174	11.2457	9.7351	6.0425	-2.0142	-6.8817	3.3569	-5.0354	-3.1891	17	244	143	11	1	2
5.8746	14.0991	7.0496	6.546	18.631	10.0708	4.8676	12.7563	11.9171	6.3782	10.0708	8.728	5.2032	-1.8463	-7.0496	3.0212	-5.2032	-4.1962	17	245	144	11	1	2
5.3711	13.4277	6.546	6.3782	17.6239	9.5673	4.5319	11.5814	10.91	5.5389	8.728	7.5531	4.1962	-1.8463	-7.3853	2.3499	-5.5389	-4.8676	17	246	145	11	1	2
5.0354	12.7563	6.2103	6.546	16.7847	9.3994	4.364	10.91	10.0708	5.0354	7.8888	6.7139	3.3569	-1.6785	-7.5531	2.0142	-5.5389	-5.5389	17	247	146	11	1	2
4.5319	11.9171	5.7068	6.3782	15.9454	9.0637	4.0283	9.903	9.5673	4.364	7.0496	5.7068	2.6855	-1.6785	-7.8888	1.5106	-6.0425	-5.7068	17	248	147	11	1	2
4.1962	11.4136	5.3711	6.3782	15.274	8.728	3.8605	9.0637	8.8959	3.6926	6.0425	4.8676	1.6785	-1.6785	-8.2245	1.1749	-6.3782	-6.0425	17	249	148	11	1	2
4.0283	10.91	5.2032	6.7139	14.7705	8.728	3.6926	8.3923	8.3923	3.1891	5.5389	4.364	0.8392	-1.5106	-8.3923	1.0071	-6.546	-6.3782	17	250	149	11	1	2
3.6926	10.4065	5.0354	6.8817	14.0991	8.728	3.6926	7.7209	7.8888	2.6855	4.8676	3.6926	0	-1.5106	-9.0637	0.5035	-7.0496	-6.546	17	251	150	11	1	2
3.5248	9.903	4.6997	7.0496	13.5956	8.728	3.5248	7.2174	7.3853	2.182	4.1962	2.8534	-1.0071	-1.5106	-9.7351	0.3357	-7.5531	-6.546	17	252	151	11	1	2
3.3569	9.3994	4.6997	7.2174	13.092	8.5602	3.5248	6.7139	7.2174	1.6785	3.6926	2.182	-1.8463	-1.5106	-10.2386	-0.1678	-8.0566	-6.546	17	253	152	11	1	2
3.1891	9.0637	4.364	7.3853	12.5885	8.728	3.5248	6.2103	6.8817	1.1749	3.1891	1.5106	-2.6855	-1.5106	-10.91	-0.8392	-8.728	-6.7139	17	254	153	11	1	2
2.6855	8.5602	4.1962	7.3853	12.085	8.5602	3.3569	5.3711	6.3782	0.5035	2.5177	0.6714	-3.8605	-1.6785	-11.7493	-1.5106	-9.3994	-6.8817	17	255	154	11	1	2
2.5177	8.0566	4.0283	7.7209	11.5814	8.5602	3.3569	4.8676	6.0425	0.1678	2.0142	0.1678	-4.6997	-1.6785	-12.5885	-2.182	-10.0708	-7.2174	17	256	155	11	1	2
2.5177	7.8888	3.8605	7.7209	11.2457	8.5602	3.3569	4.5319	5.7068	-0.1678	1.5106	-0.3357	-5.5389	-1.6785	-13.5956	-3.0212	-10.91	-7.5531	17	257	156	11	1	2
2.182	7.3853	3.8605	7.5531	10.5743	8.5602	3.1891	3.8605	5.3711	-0.6714	0.8392	-1.1749	-6.546	-1.8463	-14.4348	-3.5248	-11.5814	-7.8888	17	258	157	11	1	2
2.0142	7.0496	3.6926	7.5531	10.2386	8.728	3.1891	3.3569	5.0354	-1.0071	0.3357	-1.6785	-7.2174	-1.8463	-15.274	-4.1962	-12.2528	-8.3923	17	259	158	11	1	2
2.0142	6.7139	3.6926	7.7209	10.0708	8.728	3.1891	2.8534	4.8676	-1.1749	0	-2.0142	-7.7209	-1.8463	-15.7776	-4.5319	-12.5885	-8.5602	17	260	159	11	1	2
1.6785	6.3782	3.5248	7.3853	9.5673	8.728	3.1891	2.3499	4.6997	-1.3428	-0.3357	-2.3499	-8.0566	-1.8463	-15.9454	-4.6997	-12.7563	-8.5602	17	261	160	11	1	2
1.6785	6.2103	3.5248	7.2174	9.2316	8.728	3.0212	2.0142	4.5319	-1.5106	-0.5035	-2.5177	-8.0566	-1.8463	-15.9454	-4.8676	-12.9242	-8.5602	17	262	161	11	1	2
1.6785	6.0425	3.6926	7.2174	9.0637	8.728	3.1891	1.8463	4.6997	-1.3428	-0.3357	-2.3499	-7.8888	-1.6785	-15.7776	-4.8676	-12.9242	-8.3923	17	263	162	11	1	2
1.6785	5.8746	3.5248	6.8817	8.8959	8.5602	2.8534	1.5106	4.5319	-1.1749	-0.1678	-2.3499	-7.5531	-1.6785	-15.274	-4.5319	-12.5885	-7.8888	17	264	163	11	1	2
1.3428	5.5389	3.5248	6.546	8.728	8.5602	2.6855	1.3428	4.5319	-1.1749	0	-2.0142	-7.0496	-1.6785	-14.6027	-4.1962	-12.2528	-7.3853	17	265	164	11	1	2
1.3428	5.5389	3.6926	6.2103	8.728	8.5602	2.6855	1.3428	4.6997	-1.0071	0.5035	-1.5106	-6.2103	-1.5106	-13.7634	-3.8605	-11.9171	-6.7139	17	266	165	11	1	2
1.3428	5.3711	3.5248	5.7068	8.2245	8.3923	2.3499	1.3428	4.6997	-0.8392	1.0071	-1.3428	-5.5389	-1.5106	-12.7563	-3.1891	-11.2457	-5.7068	17	267	166	11	1	2
1.1749	5.2032	3.5248	5.5389	8.2245	8.3923	2.182	1.5106	5.0354	-0.5035	1.8463	-0.6714	-4.5319	-1.3428	-11.7493	-2.6855	-10.7422	-4.8676	17	268	167	11	1	2
1.0071	5.0354	3.3569	4.6997	7.8888	7.8888	1.6785	1.5106	5.0354	-0.5035	2.182	-0.1678	-3.6926	-1.3428	-10.5743	-2.0142	-9.7351	-3.6926	17	269	168	11	1	2
0.8392	4.6997	3.1891	4.364	7.5531	7.5531	1.3428	1.6785	4.8676	-0.1678	2.8534	0.3357	-2.6855	-1.1749	-9.7351	-1.3428	-8.8959	-2.8534	17	270	169	11	1	2
0.5035	4.364	3.0212	3.6926	7.0496	7.2174	1.0071	1.5106	4.8676	-0.3357	3.5248	0.8392	-1.8463	-1.0071	-8.3923	-1.0071	-8.0566	-2.0142	17	271	170	11	1	2
0.3357	3.8605	2.5177	3.0212	6.546	6.7139	0.3357	1.3428	4.6997	-0.3357	3.8605	1.0071	-1.0071	-0.8392	-7.3853	-0.6714	-7.3853	-1.1749	17	272	171	11	1	2
-0.1678	3.1891	2.0142	2.182	5.7068	6.0425	-0.3357	0.8392	4.364	-0.3357	4.0283	1.0071	-0.3357	-0.6714	-6.546	-0.5035	-6.546	-0.5035	17	273	172	11	1	2
-0.8392	2.3499	1.3428	1.5106	4.6997	5.2032	-1.0071	0.3357	3.6926	-0.6714	4.0283	0.8392	0	-0.5035	-5.7068	-0.3357	-5.8746	0	17	274	173	11	1	2
-1.5106	1.5106	0.5035	0.5035	3.5248	4.1962	-1.8463	-0.5035	3.0212	-1.1749	3.5248	0.5035	0.1678	-0.3357	-5.2032	-0.5035	-5.5389	0.1678	17	275	174	11	1	2
-2.0142	0.3357	-0.1678	0	2.3499	3.5248	-2.5177	-1.0071	2.5177	-1.3428	3.5248	0.3357	0.5035	0	-4.5319	-0.5035	-4.8676	0.6714	17	276	175	11	1	2
-2.8534	-0.6714	-1.1749	-1.0071	1.0071	2.6855	-3.1891	-2.0142	1.8463	-1.6785	3.1891	-0.1678	0.6714	0.1678	-4.364	-0.6714	-4.364	0.8392	17	277	176	11	1	2
-3.5248	-1.6785	-2.0142	-1.5106	-0.3357	1.6785	-4.0283	-3.0212	1.0071	-1.8463	2.6855	-0.8392	0.8392	0.3357	-3.8605	-0.8392	-4.0283	1.0071	17	278	177	11	1	2
-4.1962	-2.8534	-2.8534	-2.3499	-1.6785	1.0071	-4.5319	-3.6926	0.3357	-2.3499	2.3499	-1.3428	0.8392	0.5035	-3.5248	-1.1749	-3.5248	1.1749	17	279	178	11	1	2
-5.0354	-4.0283	-3.5248	-2.6855	-3.0212	0.1678	-5.2032	-4.5319	-0.3357	-2.5177	1.6785	-2.0142	0.6714	0.6714	-3.3569	-1.6785	-3.1891	1.3428	17	280	179	11	1	2
-5.7068	-4.8676	-4.364	-3.3569	-4.364	-0.5035	-5.7068	-5.2032	-1.1749	-2.6855	1.0071	-2.6855	0.5035	0.6714	-3.1891	-2.0142	-3.0212	1.1749	17	281	180	11	1	2
-6.2103	-5.8746	-4.8676	-3.5248	-5.5389	-0.8392	-5.8746	-6.2103	-1.8463	-2.6855	0.5035	-3.1891	0.5035	0.8392	-2.8534	-2.6855	-2.5177	1.0071	17	282	181	11	1	2
-6.7139	-6.7139	-5.3711	-3.8605	-6.7139	-1.1749	-6.0425	-7.2174	-2.3499	-3.0212	-0.1678	-4.1962	0.3357	0.8392	-2.6855	-3.1891	-2.3499	0.5035	17	283	182	11	1	2
-6.7139	-7.2174	-5.7068	-4.0283	-7.5531	-1.5106	-6.2103	-7.7209	-2.8534	-3.0212	-1.0071	-4.8676	0.1678	0.8392	-2.6855	-3.6926	-2.0142	0	17	284	183	11	1	2
-6.8817	-7.8888	-5.7068	-3.8605	-8.3923	-1.6785	-6.2103	-8.5602	-3.3569	-2.8534	-1.8463	-5.5389	-0.1678	0.8392	-2.6855	-4.364	-1.8463	-0.8392	17	285	184	11	1	2
-6.8817	-8.3923	-5.7068	-3.6926	-9.2316	-1.6785	-6.2103	-9.2316	-3.8605	-2.8534	-2.8534	-6.2103	-0.5035	0.8392	-2.8534	-5.2032	-1.8463	-1.6785	17	286	185	11	1	2
-6.8817	-8.728	-5.3711	-3.3569	-9.903	-1.1749	-5.5389	-9.903	-3.8605	-2.3499	-3.6926	-6.7139	-0.6714	1.0071	-2.8534	-6.0425	-1.5106	-2.6855	17	287	186	11	1	2
-6.546	-9.0637	-4.8676	-2.8534	-10.4065	-1.0071	-5.2032	-10.4065	-4.1962	-2.0142	-4.6997	-7.3853	-0.8392	1.0071	-3.0212	-6.8817	-1.5106	-3.8605	17	288	187	11	1	2
-6.0425	-8.8959	-4.5319	-2.3499	-10.4065	-0.6714	-4.8676	-10.91	-4.0283	-1.6785	-5.5389	-7.8888	-1.1749	1.0071	-3.1891	-7.5531	-1.6785	-5.0354	17	289	188	11	1	2
-5.3711	-8.5602	-3.6926	-1.6785	-10.4065	0	-4.0283	-11.0779	-4.0283	-1.3428	-6.2103	-8.0566	-1.3428	1.0071	-3.5248	-8.0566	-1.5106	-6.0425	17	290	189	11	1	2
-4.8676	-8.5602	-3.0212	-1.0071	-10.4065	0.5035	-3.3569	-11.4136	-3.8605	-0.8392	-6.546	-8.2245	-1.3428	1.0071	-3.6926	-8.8959	-1.6785	-7.0496	17	291	190	11	1	2
-14.9384	-5.2032	-13.5956	-11.4136	-5.2032	-7.3853	-9.0637	-0.6714	-0.5035	-7.3853	4.364	0.6714	-6.7139	-9.2316	-14.0991	11.7493	-13.4277	6.7139	17	221	120	12	1	2
-15.4419	-4.8676	-14.267	-12.085	-5.0354	-8.3923	-9.5673	-1.1749	-1.5106	-7.7209	3.5248	-0.1678	-7.0496	-9.3994	-14.267	11.9171	-13.7634	6.2103	17	222	121	12	1	2
-15.9454	-4.6997	-15.1062	-12.9242	-5.2032	-9.3994	-10.0708	-1.6785	-2.6855	-8.2245	2.5177	-1.1749	-7.7209	-9.5673	-14.9384	12.2528	-14.0991	5.5389	17	223	122	12	1	2
-16.6168	-4.5319	-15.7776	-13.5956	-5.3711	-10.7422	-10.7422	-2.3499	-3.8605	-8.8959	1.6785	-2.3499	-8.2245	-9.7351	-15.274	12.5885	-14.4348	5.2032	17	224	123	12	1	2
-17.1204	-4.364	-16.6168	-14.0991	-5.5389	-11.9171	-11.2457	-2.8534	-5.3711	-9.3994	0.8392	-3.3569	-8.728	-9.903	-15.6097	12.5885	-14.7705	5.0354	17	225	124	12	1	2
-17.7917	-4.364	-17.2882	-14.7705	-5.5389	-13.092	-11.7493	-3.1891	-6.7139	-9.903	0	-4.5319	-9.2316	-10.0708	-15.9454	13.092	-15.1062	4.8676	17	226	125	12	1	2
-17.9596	-4.1962	-17.7917	-14.9384	-5.5389	-14.267	-12.085	-3.3569	-8.2245	-10.2386	-0.5035	-5.5389	-9.5673	-10.0708	-15.9454	13.4277	-14.9384	5.0354	17	227	126	12	1	2
-18.2953	-4.1962	-18.2953	-15.4419	-5.5389	-15.274	-12.4207	-3.5248	-9.5673	-10.7422	-1.0071	-6.546	-9.903	-10.2386	-16.449	13.7634	-15.1062	5.0354	17	228	127	12	1	2
-18.631	-4.1962	-18.631	-15.4419	-5.3711	-16.2811	-12.5885	-3.6926	-10.91	-11.0779	-1.3428	-7.2174	-10.0708	-10.2386	-16.449	14.0991	-15.1062	5.3711	17	229	128	12	1	2
-18.4631	-4.0283	-18.9667	-15.274	-5.0354	-16.9525	-12.5885	-3.3569	-12.085	-11.2457	-1.5106	-7.8888	-10.4065	-10.2386	-16.449	14.267	-14.9384	5.8746	17	230	129	12	1	2
-18.4631	-3.8605	-18.9667	-15.1062	-4.6997	-17.4561	-12.4207	-3.1891	-13.2599	-11.4136	-1.3428	-8.728	-10.4065	-10.2386	-16.6168	14.4348	-14.7705	6.2103	17	231	130	12	1	2
-18.4631	-4.0283	-18.9667	-14.7705	-4.5319	-18.2953	-12.4207	-2.8534	-14.267	-11.7493	-1.5106	-9.3994	-10.5743	-10.4065	-16.7847	14.6027	-14.6027	6.7139	17	232	131	12	1	2
-17.9596	-3.8605	-18.7988	-14.0991	-3.8605	-18.4631	-12.085	-2.3499	-15.1062	-11.5814	-1.0071	-9.5673	-10.4065	-10.2386	-16.6168	14.6027	-14.0991	7.3853	17	233	132	12	1	2
-17.4561	-3.8605	-18.4631	-13.4277	-3.5248	-18.631	-11.5814	-1.8463	-15.7776	-11.5814	-0.6714	-9.903	-10.4065	-10.2386	-16.7847	14.6027	-13.9313	7.8888	17	234	133	12	1	2
-17.1204	-4.0283	-17.9596	-12.7563	-3.1891	-18.631	-11.2457	-1.3428	-16.449	-11.5814	-0.3357	-10.2386	-10.4065	-10.2386	-16.9525	14.7705	-13.5956	8.5602	17	235	134	12	1	2
-16.1133	-3.6926	-17.4561	-11.9171	-2.5177	-18.1274	-10.5743	-0.5035	-16.7847	-11.4136	0.1678	-10.2386	-10.2386	-10.0708	-16.9525	14.7705	-13.092	9.0637	17	236	135	12	1	2
-15.6097	-3.8605	-16.7847	-10.91	-2.182	-17.9596	-10.0708	0	-17.1204	-11.4136	0.5035	-10.2386	-10.4065	-10.0708	-17.2882	14.9384	-12.7563	9.5673	17	237	136	12	1	2
-14.6027	-3.6926	-15.9454	-9.903	-1.5106	-17.4561	-9.3994	0.6714	-16.9525	-11.2457	1.0071	-10.2386	-10.2386	-9.903	-17.4561	15.274	-12.2528	10.0708	17	238	137	12	1	2
-13.4277	-3.5248	-14.9384	-8.728	-0.8392	-16.6168	-8.5602	1.5106	-16.7847	-10.7422	1.6785	-10.0708	-10.0708	-9.7351	-17.6239	15.4419	-11.7493	10.4065	17	239	138	12	1	2
-12.2528	-3.3569	-13.9313	-7.5531	0	-15.9454	-7.8888	2.3499	-16.449	-10.4065	2.3499	-9.7351	-9.903	-9.5673	-17.7917	15.9454	-11.2457	10.91	17	240	139	12	1	2
-11.0779	-3.1891	-12.7563	-6.546	0.6714	-14.9384	-7.2174	3.0212	-15.9454	-10.2386	2.8534	-9.2316	-9.903	-9.5673	-18.1274	16.449	-10.91	11.5814	17	241	140	12	1	2
-9.7351	-2.6855	-11.4136	-5.2032	1.6785	-13.7634	-6.3782	4.0283	-15.1062	-9.5673	3.6926	-8.728	-9.7351	-9.3994	-18.2953	16.7847	-10.4065	11.9171	17	242	141	12	1	2
-8.3923	-2.0142	-10.0708	-3.8605	2.6855	-12.2528	-5.3711	5.0354	-14.0991	-9.0637	4.5319	-8.0566	-9.0637	-9.2316	-18.2953	17.4561	-9.903	12.2528	17	243	142	12	1	2
-7.3853	-1.6785	-8.728	-3.0212	3.6926	-11.0779	-4.6997	6.0425	-12.7563	-8.5602	5.5389	-7.2174	-8.728	-9.2316	-18.4631	18.2953	-9.3994	12.9242	17	244	143	12	1	2
-6.2103	-0.6714	-7.2174	-1.8463	4.8676	-9.5673	-3.8605	7.0496	-11.4136	-7.7209	6.3782	-6.2103	-8.0566	-9.0637	-18.2953	18.9667	-8.8959	13.2599	17	245	144	12	1	2
-5.2032	0	-6.0425	-1.0071	6.0425	-8.2245	-3.0212	8.2245	-9.903	-7.0496	7.3853	-5.2032	-7.5531	-9.0637	-18.1274	19.8059	-8.5602	14.0991	17	246	145	12	1	2
-4.1962	0.5035	-4.6997	-0.1678	7.3853	-6.546	-2.182	9.3994	-8.3923	-6.3782	8.3923	-4.0283	-6.7139	-9.0637	-17.7917	20.6451	-8.0566	14.7705	17	247	146	12	1	2
-3.1891	1.6785	-3.3569	0.6714	8.5602	-4.8676	-1.3428	10.5743	-6.7139	-5.2032	9.5673	-2.5177	-5.7068	-8.8959	-17.2882	21.3165	-7.7209	15.6097	17	248	147	12	1	2
-2.5177	2.6855	-1.8463	1.5106	10.0708	-3.1891	-0.6714	11.9171	-4.8676	-4.364	10.7422	-1.1749	-4.8676	-8.8959	-16.7847	22.3236	-7.2174	16.7847	17	249	148	12	1	2
-1.6785	3.6926	-0.6714	2.182	11.2457	-1.6785	0.1678	13.092	-3.0212	-3.3569	11.9171	0.3357	-3.5248	-8.728	-16.449	23.3307	-6.546	17.7917	17	250	149	12	1	2
-1.0071	4.6997	0.5035	2.5177	12.7563	0	0.8392	14.4348	-1.1749	-2.6855	13.2599	2.0142	-2.5177	-8.728	-15.9454	24.1699	-5.8746	18.7988	17	251	150	12	1	2
-0.1678	6.2103	1.6785	3.1891	13.9313	1.5106	1.6785	15.4419	0.6714	-1.5106	14.0991	3.1891	-1.5106	-8.5602	-15.274	25.0092	-5.7068	19.8059	17	252	151	12	1	2
0.5035	7.5531	2.8534	3.6926	15.1062	3.0212	2.3499	16.2811	2.5177	-0.8392	15.1062	4.5319	-0.5035	-8.3923	-14.7705	25.8484	-5.2032	20.6451	17	253	152	12	1	2
1.1749	8.728	3.8605	4.1962	16.449	4.1962	2.8534	17.2882	3.8605	0	15.7776	5.7068	0.1678	-8.2245	-14.4348	26.6876	-4.6997	21.1487	17	254	153	12	1	2
1.8463	10.0708	4.8676	4.6997	17.6239	5.5389	3.5248	18.1274	5.3711	0.5035	16.2811	6.546	1.0071	-8.0566	-14.0991	27.5269	-4.364	21.6522	17	255	154	12	1	2
2.5177	11.5814	5.7068	5.0354	18.4631	6.3782	3.8605	18.631	6.3782	1.1749	16.6168	7.2174	1.5106	-7.7209	-13.9313	28.0304	-4.1962	21.8201	17	256	155	12	1	2
3.1891	12.5885	6.2103	5.0354	19.1345	6.7139	3.8605	18.7988	7.0496	1.3428	16.1133	7.3853	1.3428	-7.3853	-13.7634	27.8625	-4.1962	21.3165	17	257	156	12	1	2
3.5248	13.5956	6.7139	5.2032	19.4702	7.0496	4.0283	18.7988	7.2174	1.1749	15.7776	7.2174	1.3428	-7.0496	-13.9313	27.8625	-4.364	20.4773	17	258	157	12	1	2
3.6926	14.4348	6.8817	5.3711	19.6381	7.0496	4.0283	18.631	7.3853	1.1749	14.9384	6.8817	1.1749	-6.7139	-14.0991	27.5269	-4.364	19.6381	17	259	158	12	1	2
4.0283	15.1062	6.8817	5.2032	19.6381	6.7139	3.6926	17.9596	7.0496	0.6714	13.9313	6.2103	0.5035	-6.3782	-14.267	26.8555	-4.6997	18.4631	17	260	159	12	1	2
4.1962	15.7776	6.7139	5.2032	19.3024	6.2103	3.5248	17.4561	6.3782	0.3357	12.7563	5.3711	0	-6.0425	-14.7705	26.1841	-5.0354	17.1204	17	261	160	12	1	2
4.1962	16.2811	6.546	5.0354	19.1345	5.3711	3.1891	16.6168	5.5389	-0.3357	11.5814	4.364	-0.6714	-5.7068	-15.1062	25.3448	-5.5389	15.4419	17	262	161	12	1	2
4.0283	16.449	6.2103	4.8676	18.2953	4.364	2.8534	15.7776	4.364	-1.0071	10.2386	3.0212	-1.5106	-5.5389	-15.4419	24.1699	-6.2103	13.7634	17	263	162	12	1	2
3.8605	16.6168	5.7068	4.6997	17.6239	3.3569	2.5177	14.7705	3.0212	-1.6785	8.5602	1.5106	-2.6855	-5.3711	-15.7776	23.3307	-6.7139	12.085	17	264	163	12	1	2
3.8605	16.7847	5.0354	4.5319	16.7847	2.0142	2.0142	13.7634	1.5106	-2.3499	7.2174	0.1678	-3.5248	-5.2032	-16.2811	22.3236	-7.3853	10.5743	17	265	164	12	1	2
4.0283	16.6168	4.6997	4.6997	16.1133	0.8392	1.5106	12.7563	-0.3357	-3.1891	6.0425	-1.3428	-4.5319	-5.0354	-16.7847	21.6522	-8.2245	9.2316	17	266	165	12	1	2
3.8605	16.449	4.1962	4.5319	15.274	-0.3357	1.3428	11.7493	-1.8463	-3.6926	4.8676	-2.5177	-5.2032	-5.0354	-16.9525	20.6451	-8.728	7.8888	17	267	166	12	1	2
3.8605	16.2811	3.5248	4.6997	14.267	-1.6785	0.8392	10.91	-3.6926	-4.364	3.8605	-4.0283	-6.2103	-5.0354	-17.6239	19.9738	-9.5673	6.3782	17	268	167	12	1	2
3.8605	15.9454	3.1891	4.6997	13.4277	-2.6855	0.6714	10.2386	-5.2032	-4.8676	2.6855	-5.3711	-7.0496	-5.0354	-17.7917	19.1345	-10.0708	5.3711	17	269	168	12	1	2
3.8605	15.7776	2.8534	4.8676	12.4207	-4.0283	0.3357	9.2316	-6.8817	-5.3711	1.8463	-6.546	-7.5531	-5.2032	-17.9596	18.4631	-10.5743	4.5319	17	270	169	12	1	2
3.8605	15.274	2.5177	4.8676	11.5814	-4.6997	0.5035	8.5602	-8.0566	-5.5389	1.3428	-7.2174	-7.7209	-5.3711	-17.7917	17.9596	-10.7422	4.0283	17	271	170	12	1	2
4.0283	14.7705	2.3499	5.0354	10.7422	-5.5389	0.3357	7.8888	-9.2316	-5.5389	1.0071	-7.8888	-7.8888	-5.5389	-17.4561	17.6239	-10.91	3.5248	17	272	171	12	1	2
4.364	14.7705	2.3499	5.5389	10.2386	-6.0425	0.5035	7.3853	-10.2386	-5.7068	0.6714	-8.5602	-7.8888	-5.5389	-17.2882	17.4561	-10.91	3.1891	17	273	172	12	1	2
4.6997	14.267	2.182	5.7068	9.7351	-6.2103	0.6714	6.8817	-11.0779	-5.5389	0.1678	-9.0637	-8.0566	-5.7068	-16.9525	17.1204	-10.91	2.5177	17	274	173	12	1	2
5.0354	13.9313	2.3499	6.0425	9.0637	-6.546	0.8392	6.546	-11.5814	-5.3711	0	-9.2316	-7.7209	-5.7068	-16.2811	16.9525	-10.4065	2.182	17	275	174	12	1	2
5.2032	13.4277	2.5177	6.546	8.5602	-6.546	1.1749	5.8746	-12.2528	-5.2032	-0.3357	-9.5673	-7.3853	-5.7068	-15.7776	16.6168	-10.0708	1.6785	17	276	175	12	1	2
