"FZ"	"FC3"	"FCZ"	"FC4"	"C3"	"CZ"	"C4"	"CP3"	"CPZ"	"CP4"	"P3"	"PZ"	"P4"	"OZ"	"P8"	"TP7"	"TP8"	"P7"	"Subject"	"Points"	"Time"	"Trial"	"Rejected"	"Correct"
6.546	7.8888	6.8817	0.3357	10.0708	9.2316	0.5035	8.0566	5.0354	0.1678	7.5531	2.5177	-1.6785	-0.1678	-2.3499	4.0283	-1.3428	3.0212	48	261	160	1	1	2
6.3782	7.7209	6.546	0.6714	9.903	9.0637	0.3357	7.8888	4.6997	0	7.5531	2.3499	-1.8463	0	-2.182	3.8605	-1.3428	2.8534	48	262	161	1	1	2
5.8746	7.2174	6.0425	0.6714	9.3994	8.728	0	7.3853	4.5319	-0.5035	7.3853	2.0142	-2.3499	0.1678	-2.5177	3.1891	-1.5106	2.3499	48	263	162	1	1	2
5.5389	6.8817	5.5389	0.5035	9.0637	8.3923	-0.1678	7.2174	4.1962	-0.8392	7.2174	1.8463	-2.6855	0.3357	-2.6855	2.6855	-1.5106	2.0142	48	264	163	1	1	2
4.8676	6.3782	4.8676	0.1678	8.5602	7.8888	-0.6714	6.546	3.6926	-1.1749	6.8817	1.5106	-3.0212	0.3357	-2.8534	2.0142	-1.8463	1.3428	48	265	164	1	1	2
4.364	5.8746	4.1962	-0.1678	8.2245	7.3853	-1.0071	6.2103	3.5248	-1.5106	6.7139	1.3428	-3.3569	0.5035	-3.0212	1.5106	-1.8463	1.0071	48	266	165	1	1	2
3.8605	5.3711	3.6926	-0.5035	7.7209	7.0496	-1.1749	5.8746	3.1891	-1.6785	6.546	1.3428	-3.5248	0.6714	-3.1891	1.0071	-1.8463	0.5035	48	267	166	1	1	2
3.1891	4.6997	2.8534	-1.1749	7.2174	6.546	-1.6785	5.3711	2.6855	-2.0142	6.0425	1.0071	-3.6926	0.6714	-3.3569	0.3357	-2.0142	0	48	268	167	1	1	2
2.8534	4.364	2.3499	-1.6785	6.7139	6.2103	-1.8463	5.0354	2.5177	-2.0142	6.0425	1.0071	-4.0283	0.8392	-3.6926	-0.1678	-2.0142	-0.3357	48	269	168	1	1	2
2.3499	3.8605	1.8463	-2.182	6.3782	5.8746	-2.0142	4.8676	2.3499	-2.0142	5.8746	1.1749	-4.0283	1.0071	-3.6926	-0.5035	-2.0142	-0.6714	48	270	169	1	1	2
2.0142	3.3569	1.1749	-2.5177	6.0425	5.5389	-2.182	4.5319	2.3499	-2.0142	5.8746	1.1749	-4.0283	1.1749	-3.6926	-0.8392	-2.0142	-1.0071	48	271	170	1	1	2
1.3428	3.0212	0.8392	-2.8534	5.8746	5.3711	-2.3499	4.364	2.3499	-2.0142	5.8746	1.3428	-3.8605	1.3428	-3.8605	-1.1749	-1.8463	-1.3428	48	272	171	1	1	2
1.1749	2.8534	0.5035	-3.1891	5.7068	5.2032	-2.3499	4.364	2.5177	-1.6785	5.8746	1.6785	-3.5248	1.5106	-3.8605	-1.3428	-1.8463	-1.5106	48	273	172	1	1	2
1.0071	2.5177	0.3357	-3.5248	5.3711	5.0354	-2.182	4.364	2.6855	-1.5106	6.0425	2.0142	-3.3569	1.6785	-3.8605	-1.5106	-1.6785	-1.6785	48	274	173	1	1	2
0.8392	2.182	0	-3.8605	5.0354	4.8676	-2.182	4.1962	2.6855	-1.3428	5.8746	2.182	-3.1891	1.6785	-4.0283	-1.6785	-1.6785	-1.8463	48	275	174	1	1	2
0.8392	2.0142	-0.1678	-4.0283	5.2032	5.0354	-2.0142	4.1962	2.8534	-0.8392	6.0425	2.5177	-2.6855	1.8463	-3.8605	-1.6785	-1.5106	-1.8463	48	276	175	1	1	2
0.5035	1.6785	-0.3357	-4.0283	5.2032	5.0354	-1.6785	4.1962	3.1891	-0.3357	6.2103	2.8534	-2.182	2.0142	-3.6926	-1.6785	-1.3428	-1.8463	48	277	176	1	1	2
0.6714	1.8463	-0.3357	-4.1962	5.0354	5.2032	-1.3428	4.1962	3.3569	0.1678	6.2103	3.1891	-1.8463	2.0142	-3.6926	-1.8463	-1.1749	-1.8463	48	278	177	1	1	2
0.5035	1.5106	-0.3357	-4.0283	4.8676	5.3711	-0.8392	4.1962	3.8605	0.8392	6.7139	3.8605	-1.0071	2.182	-3.3569	-1.5106	-1.0071	-1.8463	48	279	178	1	1	2
0.6714	1.5106	-0.5035	-4.0283	4.8676	5.3711	-0.5035	4.364	4.1962	1.3428	6.7139	4.364	-0.5035	2.182	-3.1891	-1.6785	-0.8392	-1.8463	48	280	179	1	1	2
0.6714	1.3428	-0.5035	-3.8605	4.6997	5.5389	0.1678	4.1962	4.364	2.0142	6.7139	4.6997	0.1678	2.182	-3.1891	-1.6785	-0.5035	-1.6785	48	281	180	1	1	2
0.5035	1.1749	-0.6714	-3.6926	4.5319	5.5389	0.6714	4.1962	4.6997	2.6855	6.7139	5.2032	0.8392	2.182	-2.8534	-1.8463	-0.5035	-1.6785	48	282	181	1	1	2
0.5035	1.0071	-0.6714	-3.1891	4.364	5.7068	1.3428	4.0283	5.0354	3.3569	6.7139	5.7068	1.5106	2.182	-2.6855	-2.0142	-0.3357	-1.8463	48	283	182	1	1	2
0.3357	0.8392	-0.6714	-2.8534	4.1962	5.7068	2.0142	4.0283	5.3711	4.1962	6.8817	6.2103	2.3499	2.182	-2.3499	-2.0142	0	-1.8463	48	284	183	1	1	2
0.5035	0.5035	-0.8392	-2.5177	3.8605	5.8746	2.6855	4.0283	5.7068	4.8676	6.8817	6.546	3.0212	2.182	-2.182	-2.182	0.1678	-2.0142	48	285	184	1	1	2
0.3357	0.1678	-0.8392	-2.182	3.5248	5.8746	3.3569	3.6926	5.8746	5.5389	6.7139	7.2174	3.8605	2.182	-1.8463	-2.3499	0.3357	-2.182	48	286	185	1	1	2
0.1678	-0.1678	-0.8392	-1.6785	3.1891	5.8746	4.0283	3.5248	6.0425	6.2103	6.546	7.3853	4.364	2.182	-1.6785	-2.6855	0.5035	-2.5177	48	287	186	1	1	2
-0.1678	-0.6714	-1.0071	-1.3428	2.6855	5.5389	4.5319	3.1891	6.2103	6.8817	6.3782	7.7209	5.0354	2.182	-1.5106	-2.8534	0.5035	-2.6855	48	288	187	1	1	2
-0.3357	-1.1749	-1.0071	-1.0071	2.182	5.3711	5.0354	2.6855	6.2103	7.3853	6.0425	8.0566	5.5389	2.182	-1.3428	-3.1891	0.6714	-3.0212	48	289	188	1	1	2
-0.5035	-1.5106	-1.1749	-0.8392	1.6785	5.2032	5.3711	2.3499	6.0425	7.7209	5.7068	8.2245	5.8746	2.182	-1.1749	-3.8605	0.6714	-3.6926	48	290	189	1	1	2
-0.6714	-2.182	-1.3428	-0.5035	1.0071	5.0354	5.7068	2.0142	6.0425	8.2245	5.3711	8.3923	6.2103	2.182	-1.1749	-4.1962	0.6714	-4.0283	48	291	190	1	1	2
-0.6714	-2.5177	-1.5106	-0.1678	0.5035	4.8676	5.8746	1.5106	6.0425	8.5602	5.0354	8.5602	6.546	2.182	-1.1749	-4.5319	0.6714	-4.364	48	292	191	1	1	2
-0.6714	-2.8534	-1.5106	0.1678	0	4.6997	6.2103	1.1749	6.0425	8.728	4.6997	8.728	6.8817	2.182	-1.0071	-4.8676	0.6714	-4.6997	48	293	192	1	1	2
-0.8392	-3.1891	-1.3428	0.3357	-0.5035	4.5319	6.546	0.8392	6.0425	9.0637	4.5319	8.8959	7.2174	2.182	-1.0071	-5.2032	0.6714	-5.0354	48	294	193	1	1	2
-0.6714	-3.3569	-1.0071	0.8392	-0.6714	4.5319	6.7139	0.6714	6.0425	9.3994	4.364	9.0637	7.7209	2.182	-0.8392	-5.5389	0.6714	-5.3711	48	295	194	1	1	2
-0.5035	-3.6926	-0.8392	1.5106	-1.0071	4.6997	7.0496	0.5035	6.3782	9.903	4.364	9.2316	8.0566	2.182	-0.5035	-5.7068	0.8392	-5.8746	48	296	195	1	1	2
-0.1678	-3.5248	-0.3357	2.0142	-1.0071	4.8676	7.3853	0.5035	6.546	10.2386	4.364	9.5673	8.5602	2.0142	-0.3357	-5.5389	0.8392	-5.7068	48	297	196	1	1	2
0.3357	-3.1891	0.5035	2.5177	-0.8392	5.3711	8.0566	0.8392	6.8817	10.7422	4.5319	10.2386	9.0637	2.0142	0	-5.7068	1.3428	-5.5389	48	298	197	1	1	2
1.0071	-2.6855	1.3428	3.1891	-0.5035	5.8746	8.5602	1.1749	7.3853	11.2457	4.8676	10.7422	9.5673	1.8463	0.3357	-5.2032	1.5106	-5.3711	48	299	198	1	1	2
1.8463	-2.3499	2.0142	4.0283	0	6.3782	9.0637	1.6785	7.8888	11.5814	5.3711	11.4136	10.0708	1.6785	0.6714	-4.8676	1.8463	-4.8676	48	300	199	1	1	2
2.6855	-1.5106	3.0212	4.6997	0.5035	7.2174	9.5673	2.0142	8.5602	12.2528	5.8746	11.9171	10.7422	1.5106	1.1749	-4.364	2.182	-4.364	48	301	200	1	1	2
3.5248	-0.8392	4.0283	5.3711	1.1749	7.8888	10.2386	2.8534	9.0637	12.5885	6.546	12.5885	11.2457	1.3428	1.5106	-3.8605	2.3499	-3.8605	48	302	201	1	1	2
4.1962	0	5.0354	6.0425	1.8463	8.5602	10.5743	3.5248	9.5673	13.092	7.2174	13.092	11.5814	1.1749	1.8463	-3.1891	2.3499	-3.3569	48	303	202	1	1	2
5.0354	1.0071	6.0425	6.546	2.3499	9.2316	11.0779	4.1962	10.2386	13.092	7.5531	13.5956	11.7493	1.0071	2.0142	-2.8534	2.5177	-2.6855	48	304	203	1	1	2
6.0425	1.6785	7.0496	7.2174	3.1891	10.0708	11.5814	4.8676	10.7422	13.4277	8.2245	14.0991	12.085	1.0071	2.3499	-2.0142	2.6855	-2.0142	48	305	204	1	1	2
7.0496	2.6855	8.0566	7.7209	4.0283	10.7422	11.9171	5.5389	11.2457	13.5956	8.728	14.4348	12.2528	1.0071	2.5177	-1.3428	2.6855	-1.3428	48	306	205	1	1	2
7.5531	3.6926	8.8959	8.0566	4.5319	11.2457	11.9171	6.0425	11.5814	13.4277	9.0637	14.6027	12.085	0.8392	2.3499	-1.0071	2.5177	-1.0071	48	307	206	1	1	2
8.3923	4.364	9.5673	8.5602	5.3711	11.7493	12.085	6.546	11.7493	13.4277	9.7351	14.7705	12.085	0.8392	2.182	-0.1678	2.3499	-0.5035	48	308	207	1	1	2
9.0637	5.3711	10.4065	8.728	5.8746	12.2528	12.2528	7.0496	12.085	13.092	10.0708	14.9384	11.9171	0.8392	2.0142	0.1678	2.182	0.1678	48	309	208	1	1	2
9.7351	6.0425	10.91	8.8959	6.546	12.5885	12.085	7.5531	12.085	12.5885	10.2386	14.7705	11.4136	0.8392	1.5106	0.6714	1.8463	0.5035	48	310	209	1	1	2
10.2386	6.8817	11.5814	9.0637	6.8817	12.7563	11.9171	7.8888	12.2528	12.085	10.5743	14.6027	11.0779	0.8392	1.3428	1.1749	1.5106	0.6714	48	311	210	1	1	2
11.0779	7.7209	12.085	9.2316	7.7209	13.2599	11.9171	8.3923	12.2528	11.7493	10.91	14.6027	10.5743	1.0071	1.0071	1.6785	1.3428	1.3428	48	312	211	1	1	2
11.4136	8.3923	12.4207	9.2316	8.2245	13.092	11.7493	8.728	12.2528	10.91	11.0779	14.267	10.0708	1.0071	0.3357	2.0142	0.8392	1.5106	48	313	212	1	1	2
11.7493	8.8959	12.7563	9.0637	8.5602	13.2599	11.2457	8.8959	11.9171	10.2386	11.2457	13.9313	9.2316	1.0071	0	2.3499	0.5035	2.0142	48	314	213	1	1	2
11.9171	9.7351	12.9242	9.0637	9.0637	13.2599	11.0779	9.3994	11.9171	9.5673	11.4136	13.7634	8.5602	1.1749	-0.5035	2.8534	0.1678	2.3499	48	315	214	1	1	2
12.085	10.2386	13.092	8.8959	9.3994	13.2599	10.5743	9.5673	11.5814	8.8959	11.5814	13.4277	7.8888	1.1749	-1.1749	3.0212	-0.3357	2.5177	48	316	215	1	1	2
12.2528	10.7422	13.2599	8.728	10.0708	13.092	10.2386	9.903	11.5814	8.2245	11.9171	13.2599	7.2174	1.3428	-1.5106	3.3569	-0.5035	2.8534	48	317	216	1	1	2
12.2528	11.0779	12.9242	8.3923	10.2386	12.9242	9.7351	10.0708	11.2457	7.7209	12.085	12.7563	6.7139	1.3428	-1.8463	3.6926	-1.0071	3.1891	48	318	217	1	1	2
12.2528	11.5814	13.092	8.3923	10.7422	12.7563	9.3994	10.4065	11.2457	7.0496	12.2528	12.7563	6.2103	1.5106	-2.182	4.0283	-1.3428	3.6926	48	319	218	1	1	2
12.2528	12.085	13.092	8.2245	11.0779	12.7563	9.0637	10.5743	11.2457	6.7139	12.5885	12.5885	5.7068	1.6785	-2.5177	4.5319	-1.5106	4.0283	48	320	219	1	1	2
12.2528	12.2528	12.9242	7.8888	11.2457	12.4207	8.728	10.7422	11.0779	6.0425	12.7563	12.2528	5.3711	1.6785	-2.8534	4.5319	-1.6785	4.364	48	321	220	1	1	2
-13.4277	-15.6097	-18.4631	-14.9384	-18.1274	-17.9596	-11.4136	-17.9596	-16.7847	-9.7351	-15.9454	-13.092	-8.0566	-0.3357	-2.3499	-1.6785	-2.5177	-4.364	48	261	160	2	1	2
-13.5956	-15.7776	-18.7988	-15.4419	-18.1274	-18.1274	-11.7493	-17.9596	-16.9525	-10.0708	-15.9454	-13.092	-8.2245	-0.5035	-2.8534	-1.5106	-3.1891	-4.1962	48	262	161	2	1	2
-13.7634	-15.7776	-18.9667	-15.9454	-18.1274	-18.2953	-11.9171	-17.9596	-17.2882	-10.4065	-15.9454	-13.2599	-8.2245	-0.6714	-3.5248	-1.3428	-3.8605	-4.1962	48	263	162	2	1	2
-13.7634	-15.7776	-19.3024	-16.2811	-18.2953	-18.4631	-12.085	-18.1274	-17.6239	-10.7422	-15.9454	-13.4277	-8.3923	-0.8392	-4.1962	-1.3428	-4.364	-4.364	48	264	163	2	1	2
-14.0991	-15.9454	-19.4702	-16.7847	-18.2953	-18.631	-12.4207	-18.2953	-17.7917	-10.91	-16.1133	-13.4277	-8.5602	-1.0071	-4.8676	-1.3428	-5.0354	-4.364	48	265	164	2	1	2
-14.0991	-16.1133	-19.6381	-16.9525	-18.2953	-18.631	-12.4207	-18.4631	-17.9596	-11.2457	-16.1133	-13.5956	-8.728	-1.1749	-5.7068	-1.5106	-5.7068	-4.364	48	266	165	2	1	2
-14.267	-16.2811	-19.8059	-17.1204	-18.2953	-18.7988	-12.4207	-18.4631	-18.1274	-11.5814	-16.449	-13.7634	-9.0637	-1.3428	-6.3782	-1.5106	-6.3782	-4.364	48	267	166	2	1	2
-14.267	-16.449	-19.6381	-17.4561	-18.4631	-18.7988	-12.5885	-18.4631	-18.1274	-11.7493	-16.449	-13.9313	-9.2316	-1.5106	-7.2174	-1.6785	-7.0496	-4.5319	48	268	167	2	1	2
-14.267	-16.2811	-19.4702	-17.2882	-18.1274	-18.4631	-12.2528	-18.2953	-18.2953	-11.5814	-16.2811	-13.9313	-9.0637	-1.5106	-7.7209	-1.6785	-7.7209	-4.5319	48	269	168	2	1	2
-14.267	-16.2811	-19.4702	-17.4561	-18.1274	-18.4631	-12.2528	-18.2953	-18.2953	-11.5814	-16.2811	-13.9313	-9.2316	-1.6785	-8.5602	-1.8463	-8.3923	-4.6997	48	270	169	2	1	2
-14.267	-16.449	-19.3024	-17.2882	-17.9596	-18.2953	-11.9171	-18.2953	-18.1274	-11.7493	-16.2811	-13.9313	-9.2316	-1.8463	-9.5673	-2.182	-9.0637	-5.2032	48	271	170	2	1	2
-14.0991	-16.2811	-18.7988	-16.9525	-17.7917	-17.7917	-11.5814	-17.9596	-17.9596	-11.5814	-15.9454	-13.7634	-9.2316	-1.8463	-10.0708	-2.182	-9.5673	-5.3711	48	272	171	2	1	2
-13.7634	-16.1133	-18.2953	-16.6168	-17.4561	-17.2882	-11.4136	-17.4561	-17.6239	-11.2457	-15.7776	-13.4277	-9.0637	-1.8463	-10.5743	-2.3499	-10.0708	-5.5389	48	273	172	2	1	2
-13.5956	-15.9454	-18.1274	-16.449	-17.1204	-16.9525	-11.0779	-17.2882	-17.4561	-11.0779	-15.6097	-13.2599	-9.0637	-2.0142	-11.2457	-2.6855	-10.5743	-5.8746	48	274	173	2	1	2
-13.2599	-15.6097	-17.4561	-15.9454	-16.7847	-16.2811	-10.7422	-16.7847	-16.9525	-10.5743	-15.274	-12.7563	-8.728	-2.0142	-11.5814	-2.8534	-11.0779	-6.0425	48	275	174	2	1	2
-12.9242	-15.274	-16.9525	-15.6097	-16.1133	-15.6097	-10.2386	-16.1133	-16.449	-10.0708	-14.7705	-12.2528	-8.3923	-2.0142	-11.9171	-3.0212	-11.2457	-6.2103	48	276	175	2	1	2
-12.5885	-14.9384	-15.9454	-15.1062	-15.6097	-14.9384	-9.7351	-15.6097	-15.7776	-9.5673	-14.267	-11.7493	-7.8888	-2.0142	-12.085	-3.0212	-11.5814	-6.3782	48	277	176	2	1	2
-12.085	-14.4348	-15.274	-14.6027	-14.6027	-14.0991	-9.0637	-14.9384	-14.9384	-8.8959	-13.7634	-11.0779	-7.3853	-2.0142	-12.2528	-3.1891	-11.7493	-6.546	48	278	177	2	1	2
-11.4136	-13.5956	-14.4348	-13.9313	-13.9313	-13.2599	-8.3923	-14.0991	-14.0991	-7.8888	-13.2599	-10.4065	-6.8817	-2.0142	-11.9171	-3.1891	-11.7493	-6.546	48	279	178	2	1	2
-11.0779	-13.092	-13.5956	-13.2599	-13.2599	-12.2528	-7.8888	-13.2599	-13.4277	-7.2174	-12.7563	-9.7351	-6.3782	-2.182	-11.9171	-3.3569	-11.7493	-6.7139	48	280	179	2	1	2
-10.4065	-12.4207	-12.5885	-12.5885	-12.2528	-11.2457	-7.2174	-12.4207	-12.2528	-6.3782	-12.085	-8.8959	-5.5389	-2.182	-11.7493	-3.5248	-11.5814	-6.8817	48	281	180	2	1	2
-9.7351	-11.4136	-11.5814	-11.9171	-11.2457	-10.2386	-6.2103	-11.4136	-11.0779	-5.3711	-11.2457	-7.8888	-4.6997	-2.182	-11.4136	-3.5248	-11.2457	-6.8817	48	282	181	2	1	2
-9.0637	-10.5743	-10.5743	-11.0779	-10.0708	-9.0637	-5.5389	-10.5743	-10.0708	-4.364	-10.5743	-6.8817	-3.8605	-2.182	-10.91	-3.5248	-11.0779	-6.8817	48	283	182	2	1	2
-8.2245	-9.7351	-9.5673	-10.2386	-9.0637	-7.8888	-4.6997	-9.5673	-8.728	-3.3569	-9.7351	-5.8746	-3.0212	-2.182	-10.4065	-3.5248	-10.7422	-6.8817	48	284	183	2	1	2
-7.7209	-8.8959	-8.5602	-9.7351	-8.2245	-6.8817	-3.8605	-8.5602	-7.7209	-2.5177	-9.0637	-5.0354	-2.3499	-2.3499	-10.0708	-3.5248	-10.5743	-6.8817	48	285	184	2	1	2
-6.8817	-8.0566	-7.3853	-8.8959	-7.0496	-5.5389	-3.1891	-7.5531	-6.3782	-1.3428	-8.2245	-4.1962	-1.5106	-2.3499	-9.5673	-3.5248	-10.2386	-6.7139	48	286	185	2	1	2
-6.2103	-6.8817	-6.2103	-7.8888	-5.8746	-4.1962	-2.182	-6.3782	-5.2032	-0.3357	-7.2174	-3.0212	-0.5035	-2.3499	-9.0637	-3.3569	-10.0708	-6.546	48	287	186	2	1	2
-5.2032	-5.7068	-5.0354	-7.0496	-4.5319	-3.0212	-1.1749	-5.3711	-3.6926	0.6714	-6.3782	-2.0142	0.3357	-2.3499	-8.5602	-3.1891	-9.7351	-6.2103	48	288	187	2	1	2
-4.6997	-4.8676	-4.0283	-6.2103	-3.5248	-1.8463	-0.1678	-4.364	-2.5177	1.5106	-5.5389	-1.0071	1.1749	-2.5177	-8.3923	-3.1891	-9.5673	-6.2103	48	289	188	2	1	2
-3.6926	-3.6926	-2.8534	-5.2032	-2.3499	-0.5035	0.5035	-3.3569	-1.1749	2.3499	-4.6997	0	2.0142	-2.5177	-8.0566	-3.0212	-9.2316	-5.8746	48	290	189	2	1	2
-3.0212	-2.6855	-1.6785	-4.364	-1.0071	0.6714	1.5106	-2.182	0.1678	3.3569	-3.8605	1.0071	2.5177	-2.5177	-7.7209	-2.6855	-8.8959	-5.5389	48	291	190	2	1	2
-2.3499	-1.8463	-0.8392	-3.8605	0	1.5106	2.0142	-1.5106	1.0071	3.8605	-3.3569	1.5106	3.0212	-2.6855	-7.5531	-2.6855	-8.728	-5.3711	48	292	191	2	1	2
-1.6785	-1.0071	0.1678	-3.1891	0.8392	2.5177	2.6855	-0.6714	2.182	4.5319	-2.5177	2.3499	3.5248	-2.6855	-7.3853	-2.5177	-8.5602	-5.0354	48	293	192	2	1	2
-1.5106	-0.3357	0.5035	-3.1891	1.5106	3.1891	2.8534	-0.1678	2.8534	4.5319	-2.182	2.8534	3.6926	-2.8534	-7.3853	-2.6855	-8.8959	-5.0354	48	294	193	2	1	2
-1.1749	0.3357	1.1749	-3.0212	2.182	3.8605	3.0212	0.5035	3.5248	4.8676	-1.6785	3.3569	3.6926	-2.8534	-7.3853	-2.6855	-8.8959	-4.8676	48	295	194	2	1	2
-1.0071	0.6714	1.6785	-3.1891	2.8534	4.364	3.1891	0.8392	4.0283	4.8676	-1.3428	3.6926	3.8605	-2.8534	-7.5531	-3.0212	-9.0637	-4.8676	48	296	195	2	1	2
-1.0071	1.1749	1.8463	-3.3569	3.1891	4.5319	3.0212	1.1749	4.364	4.8676	-1.0071	3.8605	3.6926	-2.8534	-7.7209	-3.3569	-9.2316	-4.8676	48	297	196	2	1	2
-1.0071	1.5106	2.0142	-3.8605	3.3569	4.6997	2.8534	1.3428	4.5319	4.6997	-0.8392	3.8605	3.5248	-2.8534	-8.0566	-3.6926	-9.3994	-5.0354	48	298	197	2	1	2
-1.3428	1.5106	2.0142	-4.1962	3.5248	4.8676	2.5177	1.3428	4.6997	4.364	-0.8392	3.8605	3.0212	-2.8534	-8.3923	-4.0283	-9.7351	-5.2032	48	299	198	2	1	2
-1.1749	2.0142	2.3499	-4.364	3.8605	5.0354	2.3499	1.5106	4.8676	4.1962	-0.6714	4.0283	2.8534	-2.6855	-8.5602	-4.1962	-9.7351	-5.0354	48	300	199	2	1	2
-1.3428	2.182	2.3499	-5.0354	3.8605	5.0354	2.182	1.6785	5.0354	3.8605	-0.5035	4.0283	2.6855	-2.6855	-8.728	-4.5319	-10.0708	-5.0354	48	301	200	2	1	2
-1.3428	2.182	2.3499	-5.3711	3.8605	5.0354	1.8463	1.6785	5.0354	3.6926	-0.3357	4.0283	2.3499	-2.6855	-9.0637	-5.0354	-10.4065	-5.0354	48	302	201	2	1	2
-1.1749	2.6855	2.6855	-5.5389	4.0283	5.3711	1.6785	2.0142	5.0354	3.5248	-0.1678	4.1962	2.3499	-2.5177	-9.0637	-5.2032	-10.4065	-4.8676	48	303	202	2	1	2
-1.1749	2.8534	2.6855	-5.7068	4.0283	5.3711	1.5106	1.8463	5.0354	3.3569	0	4.1962	2.0142	-2.5177	-9.0637	-5.3711	-10.5743	-4.6997	48	304	203	2	1	2
-0.8392	3.1891	3.0212	-5.8746	4.1962	5.7068	1.6785	2.182	5.3711	3.1891	0.3357	4.364	2.0142	-2.3499	-9.0637	-5.3711	-10.5743	-4.5319	48	305	204	2	1	2
-0.6714	3.3569	3.1891	-6.0425	4.364	5.8746	1.5106	2.3499	5.3711	3.1891	0.5035	4.5319	2.0142	-2.3499	-9.0637	-5.3711	-10.5743	-4.1962	48	306	205	2	1	2
-0.5035	3.6926	3.5248	-6.0425	4.364	6.0425	1.6785	2.5177	5.5389	3.1891	0.8392	4.5319	1.8463	-2.3499	-8.8959	-5.3711	-10.5743	-4.0283	48	307	206	2	1	2
0	4.1962	4.0283	-5.5389	4.6997	6.546	1.8463	2.8534	5.8746	3.5248	1.3428	4.8676	2.0142	-2.182	-8.5602	-5.2032	-10.2386	-3.5248	48	308	207	2	1	2
0.3357	4.5319	4.5319	-5.3711	4.8676	6.8817	2.0142	3.0212	6.0425	3.5248	1.6785	5.0354	2.0142	-2.182	-8.3923	-5.0354	-10.2386	-3.1891	48	309	208	2	1	2
0.6714	4.8676	5.0354	-5.0354	5.2032	7.2174	2.3499	3.3569	6.2103	3.8605	2.0142	5.2032	2.182	-2.182	-7.8888	-4.6997	-9.903	-2.6855	48	310	209	2	1	2
0.8392	5.2032	5.3711	-4.8676	5.3711	7.5531	2.5177	3.6926	6.3782	3.8605	2.3499	5.2032	2.182	-2.3499	-7.7209	-4.5319	-9.903	-2.182	48	311	210	2	1	2
1.3428	5.7068	5.8746	-4.364	5.7068	8.0566	2.8534	4.0283	6.7139	4.1962	2.8534	5.5389	2.3499	-2.3499	-7.2174	-4.1962	-9.5673	-1.6785	48	312	211	2	1	2
1.6785	6.0425	6.546	-4.0283	5.8746	8.3923	3.1891	4.5319	6.8817	4.364	3.1891	5.7068	2.5177	-2.5177	-6.7139	-3.8605	-9.2316	-1.1749	48	313	212	2	1	2
2.182	6.546	7.2174	-3.5248	6.3782	8.8959	3.8605	5.0354	7.3853	4.6997	3.6926	5.8746	2.6855	-2.5177	-6.2103	-3.3569	-8.8959	-0.5035	48	314	213	2	1	2
2.5177	7.2174	7.7209	-3.0212	6.7139	9.2316	4.0283	5.3711	7.7209	4.6997	3.8605	5.8746	2.8534	-2.6855	-5.8746	-3.0212	-8.5602	0	48	315	214	2	1	2
2.8534	7.7209	8.2245	-2.182	7.2174	9.7351	4.5319	5.7068	7.8888	5.0354	4.364	6.0425	3.0212	-2.6855	-5.2032	-2.3499	-8.2245	0.6714	48	316	215	2	1	2
3.3569	8.0566	8.8959	-1.8463	7.5531	10.2386	4.6997	6.0425	8.0566	5.3711	4.6997	6.0425	3.0212	-2.8534	-5.0354	-1.8463	-8.0566	1.1749	48	317	216	2	1	2
3.8605	8.8959	9.3994	-1.1749	7.8888	10.7422	5.3711	6.546	8.2245	5.5389	5.2032	6.2103	3.1891	-2.8534	-4.364	-1.3428	-7.7209	1.8463	48	318	217	2	1	2
4.1962	9.2316	10.0708	-0.5035	8.5602	11.0779	5.5389	6.8817	8.5602	5.5389	5.5389	6.2103	3.1891	-2.8534	-4.0283	-0.8392	-7.5531	2.6855	48	319	218	2	1	2
4.6997	9.7351	10.4065	-0.1678	8.8959	11.5814	5.8746	7.2174	8.728	5.5389	5.7068	6.0425	3.1891	-2.8534	-3.8605	-0.3357	-7.3853	3.3569	48	320	219	2	1	2
5.2032	10.0708	10.91	0.5035	9.0637	11.7493	6.0425	7.3853	8.5602	5.7068	5.8746	5.8746	3.0212	-2.8534	-3.6926	0.1678	-7.2174	3.8605	48	321	220	2	1	2
-8.8959	3.5248	-1.3428	-15.9454	5.8746	-0.3357	-8.2245	3.6926	-3.3569	-8.2245	0.1678	-5.8746	-9.7351	2.182	-1.1749	0.1678	-1.0071	-2.3499	48	261	160	3	1	2
-9.0637	3.0212	-1.6785	-16.1133	5.3711	-0.6714	-8.3923	3.3569	-3.6926	-8.3923	-0.1678	-6.3782	-10.0708	2.0142	-2.0142	0.3357	-1.3428	-2.3499	48	262	161	3	1	2
-9.3994	2.5177	-2.0142	-16.2811	4.8676	-1.0071	-8.5602	2.8534	-4.0283	-8.728	-0.6714	-6.7139	-10.4065	1.8463	-2.5177	0.5035	-1.8463	-2.5177	48	263	162	3	1	2
-9.7351	2.0142	-2.3499	-16.2811	4.364	-1.3428	-8.728	2.182	-4.5319	-8.8959	-1.0071	-7.0496	-10.7422	1.6785	-3.1891	0.5035	-2.3499	-2.5177	48	264	163	3	1	2
-9.903	1.6785	-2.5177	-16.2811	3.8605	-1.6785	-8.8959	1.5106	-4.8676	-9.0637	-1.6785	-7.3853	-11.2457	1.5106	-3.6926	0.6714	-2.6855	-2.6855	48	265	164	3	1	2
-10.0708	1.1749	-2.8534	-16.449	3.1891	-2.182	-9.0637	0.8392	-5.3711	-9.3994	-2.182	-8.0566	-11.5814	1.1749	-4.364	0.5035	-3.1891	-2.8534	48	266	165	3	1	2
-10.0708	1.0071	-3.0212	-16.2811	2.6855	-2.3499	-9.0637	0.3357	-5.7068	-9.3994	-2.6855	-8.2245	-11.7493	1.0071	-4.6997	0.6714	-3.6926	-3.0212	48	267	166	3	1	2
-10.2386	0.5035	-3.3569	-15.9454	2.0142	-2.5177	-9.0637	-0.5035	-6.2103	-9.3994	-3.1891	-8.8959	-11.9171	0.6714	-5.3711	0.5035	-4.1962	-3.3569	48	268	167	3	1	2
-10.0708	0.1678	-3.3569	-15.7776	1.5106	-2.8534	-9.0637	-1.0071	-6.3782	-9.3994	-3.8605	-9.2316	-12.085	0.5035	-5.8746	0.3357	-4.5319	-3.5248	48	269	168	3	1	2
-10.0708	0.1678	-3.5248	-15.4419	0.8392	-3.0212	-8.8959	-1.8463	-6.8817	-9.3994	-4.5319	-9.5673	-12.2528	0.3357	-6.2103	0.3357	-4.8676	-3.8605	48	270	169	3	1	2
-9.903	-0.1678	-3.5248	-15.1062	0.5035	-3.3569	-8.5602	-2.6855	-7.2174	-9.5673	-5.2032	-10.0708	-12.4207	0.1678	-6.7139	0	-5.0354	-4.1962	48	271	170	3	1	2
-9.7351	-0.3357	-3.6926	-14.9384	-0.3357	-3.5248	-8.5602	-3.3569	-7.5531	-9.3994	-6.0425	-10.5743	-12.7563	0	-7.2174	-0.1678	-5.3711	-4.364	48	272	171	3	1	2
-9.7351	-0.6714	-3.8605	-14.7705	-1.0071	-4.0283	-8.3923	-4.364	-8.2245	-9.7351	-6.7139	-10.91	-12.9242	-0.1678	-7.7209	-0.5035	-5.7068	-5.0354	48	273	172	3	1	2
-9.7351	-1.0071	-4.0283	-14.6027	-1.6785	-4.1962	-8.3923	-5.3711	-8.728	-9.903	-7.5531	-11.4136	-13.092	-0.1678	-8.0566	-1.0071	-5.8746	-5.5389	48	274	173	3	1	2
-9.7351	-1.3428	-4.1962	-14.4348	-2.3499	-4.5319	-8.3923	-6.2103	-9.0637	-9.903	-8.5602	-11.9171	-13.4277	-0.1678	-8.3923	-1.3428	-6.0425	-6.2103	48	275	174	3	1	2
-9.7351	-1.6785	-4.5319	-14.6027	-3.1891	-4.8676	-8.3923	-7.2174	-9.7351	-10.0708	-9.3994	-12.4207	-13.5956	0	-8.728	-2.0142	-6.2103	-6.7139	48	276	175	3	1	2
-9.903	-2.3499	-5.0354	-14.7705	-4.1962	-5.5389	-8.5602	-8.3923	-10.2386	-10.4065	-10.5743	-13.2599	-14.0991	0	-9.2316	-2.8534	-6.546	-7.5531	48	277	176	3	1	2
-10.0708	-2.6855	-5.3711	-15.1062	-5.0354	-5.8746	-8.728	-9.5673	-10.91	-10.7422	-11.5814	-13.9313	-14.4348	0.1678	-9.5673	-3.3569	-6.7139	-8.2245	48	278	177	3	1	2
-10.2386	-3.1891	-5.7068	-15.274	-6.0425	-6.3782	-8.728	-10.5743	-11.5814	-11.0779	-12.4207	-14.267	-14.4348	0.3357	-9.903	-4.1962	-6.7139	-9.0637	48	279	178	3	1	2
-10.5743	-3.6926	-6.2103	-15.6097	-6.8817	-6.8817	-9.0637	-11.9171	-12.2528	-11.4136	-13.5956	-14.9384	-14.9384	0.3357	-10.2386	-5.2032	-6.8817	-9.903	48	280	179	3	1	2
-10.7422	-4.364	-6.7139	-15.9454	-7.8888	-7.2174	-9.2316	-13.092	-12.9242	-11.5814	-14.6027	-15.6097	-15.274	0.3357	-10.4065	-6.0425	-7.0496	-10.7422	48	281	180	3	1	2
-10.7422	-4.8676	-6.8817	-16.1133	-8.5602	-7.5531	-9.2316	-13.9313	-13.2599	-11.7493	-15.4419	-16.1133	-15.4419	0.5035	-10.4065	-6.8817	-6.8817	-11.2457	48	282	181	3	1	2
-11.0779	-5.3711	-7.2174	-16.2811	-9.5673	-8.0566	-9.3994	-14.9384	-13.7634	-11.9171	-16.2811	-16.6168	-15.6097	0.5035	-10.4065	-7.7209	-6.8817	-11.9171	48	283	182	3	1	2
-11.0779	-6.0425	-7.5531	-16.449	-10.4065	-8.3923	-9.3994	-16.1133	-14.0991	-12.085	-17.1204	-16.9525	-15.6097	0.5035	-10.4065	-8.5602	-6.7139	-12.5885	48	284	183	3	1	2
-11.4136	-6.546	-7.7209	-16.6168	-11.0779	-8.728	-9.2316	-16.9525	-14.267	-12.2528	-17.9596	-17.1204	-15.6097	0.5035	-10.2386	-9.2316	-6.546	-13.092	48	285	184	3	1	2
-11.4136	-7.2174	-7.8888	-16.6168	-11.9171	-8.8959	-9.3994	-17.7917	-14.4348	-12.2528	-18.631	-17.2882	-15.6097	0.5035	-9.903	-9.903	-6.2103	-13.4277	48	286	185	3	1	2
-11.4136	-7.3853	-7.8888	-16.6168	-12.4207	-8.8959	-9.0637	-18.2953	-14.267	-11.9171	-18.9667	-17.4561	-15.274	0.6714	-9.3994	-10.2386	-5.8746	-13.5956	48	287	186	3	1	2
-11.5814	-8.0566	-8.0566	-16.6168	-13.092	-9.0637	-8.8959	-18.7988	-14.4348	-11.7493	-19.4702	-17.2882	-14.9384	0.6714	-8.8959	-11.0779	-5.5389	-13.7634	48	288	187	3	1	2
-11.5814	-8.5602	-8.2245	-16.9525	-13.7634	-9.0637	-8.8959	-19.6381	-14.4348	-11.7493	-19.8059	-17.2882	-14.6027	0.6714	-8.3923	-11.5814	-5.2032	-14.0991	48	289	188	3	1	2
-11.9171	-9.3994	-8.5602	-17.2882	-14.4348	-9.3994	-8.728	-20.1416	-14.4348	-11.5814	-20.4773	-17.2882	-14.267	0.6714	-8.0566	-12.085	-4.8676	-14.4348	48	290	189	3	1	2
-12.085	-10.2386	-8.728	-17.6239	-15.274	-9.3994	-8.8959	-20.9808	-14.4348	-11.5814	-20.813	-17.2882	-13.9313	0.6714	-7.7209	-12.7563	-4.6997	-14.7705	48	291	190	3	1	2
-12.4207	-10.91	-9.0637	-18.1274	-15.9454	-9.7351	-8.8959	-21.4844	-14.4348	-11.4136	-21.3165	-17.2882	-13.5956	0.6714	-7.3853	-13.4277	-4.364	-15.1062	48	292	191	3	1	2
-12.9242	-11.9171	-9.3994	-18.631	-16.7847	-9.903	-9.0637	-22.1558	-14.4348	-11.4136	-21.8201	-17.2882	-13.2599	0.6714	-6.8817	-13.9313	-4.1962	-15.4419	48	293	192	3	1	2
-13.4277	-12.7563	-9.7351	-19.3024	-17.6239	-10.2386	-9.2316	-22.8271	-14.7705	-11.5814	-22.4915	-17.4561	-13.092	0.6714	-6.546	-14.7705	-4.0283	-15.7776	48	294	193	3	1	2
-14.0991	-13.9313	-10.2386	-20.1416	-18.4631	-10.7422	-9.5673	-23.6664	-14.9384	-11.5814	-23.1628	-17.6239	-12.9242	0.5035	-6.3782	-15.4419	-4.1962	-16.2811	48	295	194	3	1	2
-14.7705	-14.9384	-11.0779	-20.9808	-19.6381	-11.2457	-9.903	-24.5056	-15.1062	-11.7493	-23.6664	-17.7917	-12.9242	0.3357	-6.0425	-16.1133	-4.1962	-16.7847	48	296	195	3	1	2
-15.4419	-16.1133	-11.5814	-21.8201	-20.4773	-11.7493	-10.4065	-25.177	-15.4419	-11.9171	-24.3378	-17.9596	-12.7563	0.1678	-5.8746	-16.7847	-4.364	-17.2882	48	297	196	3	1	2
-16.1133	-17.1204	-12.4207	-22.6593	-21.4844	-12.2528	-10.7422	-26.0162	-15.7776	-11.9171	-25.0092	-18.1274	-12.5885	0	-5.5389	-17.2882	-4.5319	-17.4561	48	298	197	3	1	2
-16.9525	-18.1274	-13.092	-23.4985	-22.4915	-12.7563	-11.0779	-26.5198	-15.9454	-11.9171	-25.5127	-18.1274	-12.2528	-0.1678	-5.3711	-18.1274	-4.6997	-17.9596	48	299	198	3	1	2
-17.6239	-19.3024	-13.5956	-24.0021	-23.1628	-13.092	-11.4136	-27.1912	-16.1133	-11.9171	-26.0162	-17.9596	-11.9171	-0.1678	-4.8676	-18.631	-4.6997	-18.1274	48	300	199	3	1	2
-18.4631	-20.1416	-14.4348	-24.8413	-24.0021	-13.5956	-11.7493	-27.6947	-16.1133	-11.9171	-26.3519	-17.9596	-11.5814	-0.3357	-4.5319	-19.1345	-4.6997	-18.1274	48	301	200	3	1	2
-19.1345	-21.1487	-15.274	-25.5127	-24.8413	-14.0991	-12.085	-28.1982	-16.2811	-11.9171	-27.0233	-18.1274	-11.2457	-0.5035	-4.364	-19.4702	-4.8676	-18.4631	48	302	201	3	1	2
-19.9738	-22.1558	-16.1133	-26.0162	-25.5127	-14.7705	-12.4207	-28.7018	-16.449	-11.7493	-27.359	-17.9596	-10.91	-0.6714	-3.8605	-20.1416	-4.8676	-18.4631	48	303	202	3	1	2
-20.6451	-23.1628	-16.9525	-26.5198	-26.3519	-15.274	-12.7563	-29.3732	-16.7847	-11.7493	-27.5269	-17.7917	-10.7422	-0.8392	-3.6926	-20.4773	-5.0354	-18.4631	48	304	203	3	1	2
-21.1487	-23.8342	-17.6239	-26.8555	-26.8555	-15.6097	-12.9242	-29.541	-16.7847	-11.5814	-27.8625	-17.6239	-10.2386	-0.8392	-3.3569	-20.6451	-5.0354	-18.2953	48	305	204	3	1	2
-21.9879	-24.6735	-18.631	-27.359	-27.5269	-16.2811	-13.092	-30.0446	-16.9525	-11.5814	-28.1982	-17.6239	-9.903	-1.0071	-3.1891	-20.9808	-5.3711	-18.2953	48	306	205	3	1	2
-22.6593	-25.3448	-19.3024	-27.6947	-28.0304	-16.7847	-13.2599	-30.3802	-17.1204	-11.4136	-28.3661	-17.6239	-9.5673	-1.0071	-3.0212	-21.1487	-5.3711	-18.1274	48	307	206	3	1	2
-23.1628	-26.1841	-20.1416	-27.8625	-28.5339	-17.2882	-13.5956	-30.5481	-17.1204	-11.4136	-28.7018	-17.2882	-9.3994	-1.0071	-2.8534	-21.1487	-5.5389	-17.7917	48	308	207	3	1	2
-23.8342	-26.8555	-20.9808	-28.0304	-29.0375	-17.7917	-13.7634	-31.0516	-17.4561	-11.4136	-28.7018	-17.4561	-9.0637	-1.0071	-2.8534	-21.3165	-5.8746	-17.7917	48	309	208	3	1	2
-24.5056	-27.359	-21.9879	-28.3661	-29.541	-18.2953	-14.0991	-31.2195	-17.7917	-11.4136	-29.0375	-17.4561	-9.0637	-1.0071	-2.6855	-21.4844	-6.0425	-17.6239	48	310	209	3	1	2
-25.177	-28.1982	-22.8271	-28.5339	-30.2124	-19.1345	-14.4348	-31.723	-18.1274	-11.7493	-29.3732	-17.7917	-9.2316	-1.1749	-3.0212	-21.6522	-6.546	-17.6239	48	311	210	3	1	2
-25.6805	-28.8696	-23.8342	-28.7018	-30.5481	-19.9738	-14.7705	-32.0587	-18.631	-11.9171	-29.541	-17.7917	-9.3994	-1.1749	-3.1891	-21.6522	-6.8817	-17.2882	48	312	211	3	1	2
-26.1841	-29.2053	-24.6735	-28.8696	-31.0516	-20.6451	-15.1062	-32.3944	-19.1345	-12.2528	-29.8767	-18.1274	-9.5673	-1.1749	-3.5248	-21.6522	-7.3853	-17.2882	48	313	212	3	1	2
-26.6876	-29.7089	-25.6805	-29.0375	-31.3873	-21.1487	-15.4419	-32.7301	-19.6381	-12.5885	-29.8767	-18.4631	-9.7351	-1.1749	-3.8605	-21.4844	-7.8888	-17.1204	48	314	213	3	1	2
-27.359	-30.3802	-26.6876	-29.2053	-32.0587	-22.1558	-15.9454	-33.2336	-20.3094	-13.092	-30.3802	-18.9667	-10.5743	-1.3428	-4.5319	-21.6522	-8.728	-17.1204	48	315	214	3	1	2
-27.8625	-30.8838	-27.359	-29.2053	-32.3944	-22.8271	-16.2811	-33.5693	-20.9808	-13.4277	-30.5481	-19.3024	-11.0779	-1.3428	-5.0354	-21.4844	-9.2316	-17.1204	48	316	215	3	1	2
-28.3661	-31.2195	-28.1982	-29.2053	-32.7301	-23.6664	-16.6168	-33.7372	-21.4844	-13.9313	-30.7159	-19.9738	-11.5814	-1.3428	-5.8746	-21.3165	-9.903	-17.1204	48	317	216	3	1	2
-28.5339	-31.3873	-29.0375	-29.0375	-33.2336	-24.3378	-17.2882	-34.0729	-22.1558	-14.4348	-30.7159	-20.4773	-12.2528	-1.3428	-6.546	-21.1487	-10.5743	-17.1204	48	318	217	3	1	2
-29.2053	-31.723	-29.8767	-29.2053	-33.5693	-25.177	-17.7917	-34.4086	-22.995	-15.1062	-31.0516	-20.9808	-13.092	-1.5106	-7.5531	-21.1487	-11.5814	-17.1204	48	319	218	3	1	2
-29.541	-32.0587	-30.3802	-29.0375	-33.7372	-25.8484	-18.1274	-34.7443	-23.4985	-15.7776	-31.0516	-21.4844	-13.7634	-1.5106	-8.5602	-20.9808	-12.4207	-16.9525	48	320	219	3	1	2
-29.3732	-31.8909	-30.8838	-28.8696	-33.7372	-26.1841	-18.2953	-34.5764	-23.8342	-16.1133	-30.8838	-21.8201	-14.4348	-1.3428	-9.3994	-20.4773	-13.092	-16.6168	48	321	220	3	1	2
0.8392	3.1891	3.5248	-6.0425	5.2032	7.0496	-3.5248	5.8746	11.0779	-0.5035	9.2316	15.274	7.8888	-3.8605	1.5106	-2.3499	-1.3428	-0.3357	48	261	160	4	1	2
1.1749	3.1891	3.5248	-5.8746	4.8676	6.7139	-3.5248	5.2032	10.4065	-1.0071	8.2245	14.267	6.8817	-3.8605	0.6714	-2.6855	-1.8463	-0.8392	48	262	161	4	1	2
1.1749	2.8534	3.1891	-5.7068	4.0283	6.2103	-3.6926	4.0283	9.3994	-1.8463	7.2174	13.092	5.5389	-4.0283	-0.3357	-3.3569	-2.3499	-1.3428	48	263	162	4	1	2
1.0071	2.3499	2.6855	-5.2032	3.5248	5.5389	-4.0283	3.0212	8.3923	-2.5177	6.0425	11.7493	4.364	-4.1962	-1.3428	-4.1962	-3.0212	-2.0142	48	264	163	4	1	2
0.6714	2.0142	2.3499	-5.2032	2.6855	4.8676	-4.1962	1.8463	7.2174	-3.3569	4.6997	10.4065	3.0212	-4.364	-2.3499	-5.0354	-3.6926	-3.0212	48	265	164	4	1	2
0.5035	1.5106	2.0142	-5.2032	1.8463	4.1962	-4.5319	0.6714	6.0425	-4.364	3.3569	9.0637	1.6785	-4.5319	-3.1891	-5.8746	-4.364	-3.8605	48	266	165	4	1	2
0.3357	1.0071	1.5106	-5.0354	0.8392	3.5248	-4.6997	-0.6714	5.0354	-5.2032	2.0142	7.7209	0.5035	-4.6997	-4.364	-6.8817	-5.2032	-5.0354	48	267	166	4	1	2
0.1678	0.3357	1.0071	-4.8676	-0.1678	2.6855	-5.2032	-1.8463	3.6926	-6.0425	0.6714	6.3782	-0.6714	-4.8676	-5.2032	-7.8888	-5.7068	-6.0425	48	268	167	4	1	2
-0.1678	-0.1678	0.5035	-4.8676	-1.1749	2.0142	-5.3711	-3.1891	2.5177	-7.0496	-0.8392	5.0354	-2.182	-5.0354	-6.0425	-9.0637	-6.2103	-7.2174	48	269	168	4	1	2
-0.5035	-0.6714	0.1678	-4.8676	-1.8463	1.1749	-5.8746	-4.1962	1.3428	-7.8888	-2.182	3.5248	-3.1891	-5.0354	-6.7139	-9.903	-6.8817	-8.2245	48	270	169	4	1	2
-0.8392	-1.3428	-0.5035	-4.8676	-3.0212	0.1678	-6.3782	-5.5389	0.1678	-8.8959	-3.6926	2.182	-4.5319	-5.2032	-7.7209	-11.2457	-7.5531	-9.5673	48	271	170	4	1	2
-1.1749	-2.0142	-1.0071	-4.8676	-4.0283	-0.3357	-6.7139	-6.8817	-0.8392	-9.5673	-5.2032	0.6714	-5.7068	-5.2032	-8.2245	-12.2528	-7.8888	-10.7422	48	272	171	4	1	2
-1.6785	-2.6855	-1.8463	-4.8676	-5.0354	-1.0071	-7.2174	-8.0566	-2.3499	-10.5743	-6.8817	-0.8392	-7.0496	-5.3711	-9.0637	-13.5956	-8.3923	-12.2528	48	273	172	4	1	2
-2.182	-3.6926	-2.3499	-5.0354	-6.2103	-1.8463	-7.5531	-9.3994	-3.3569	-11.4136	-8.2245	-2.3499	-8.2245	-5.3711	-9.7351	-14.7705	-8.728	-13.5956	48	274	173	4	1	2
-2.3499	-4.1962	-2.8534	-5.2032	-7.0496	-2.6855	-8.0566	-10.7422	-4.5319	-12.2528	-9.903	-3.8605	-9.5673	-5.2032	-10.2386	-15.7776	-9.2316	-14.7705	48	275	174	4	1	2
-3.0212	-5.0354	-3.5248	-5.3711	-7.8888	-3.3569	-8.5602	-11.5814	-5.5389	-12.9242	-11.2457	-5.0354	-10.5743	-5.2032	-10.7422	-16.9525	-9.3994	-16.2811	48	276	175	4	1	2
-3.3569	-5.8746	-4.0283	-5.5389	-9.0637	-4.0283	-9.0637	-12.9242	-6.7139	-13.9313	-12.9242	-6.546	-11.9171	-5.0354	-11.2457	-18.1274	-9.903	-17.4561	48	277	176	4	1	2
-3.8605	-6.3782	-4.6997	-5.5389	-10.0708	-4.6997	-9.3994	-13.9313	-7.7209	-14.6027	-14.267	-7.8888	-12.9242	-4.8676	-11.5814	-19.1345	-10.0708	-18.631	48	278	177	4	1	2
-4.364	-7.2174	-5.0354	-5.8746	-10.7422	-5.3711	-10.0708	-14.9384	-8.728	-15.4419	-15.4419	-9.0637	-13.9313	-4.6997	-11.9171	-20.3094	-10.2386	-19.8059	48	279	178	4	1	2
-5.0354	-8.0566	-5.7068	-6.2103	-11.7493	-6.0425	-10.5743	-15.7776	-9.5673	-16.1133	-16.7847	-10.4065	-15.1062	-4.5319	-12.4207	-21.1487	-10.4065	-20.9808	48	280	179	4	1	2
-5.3711	-8.5602	-6.546	-6.2103	-12.4207	-6.546	-10.7422	-16.7847	-10.5743	-16.6168	-17.7917	-11.4136	-15.9454	-4.364	-12.4207	-21.9879	-10.4065	-21.9879	48	281	180	4	1	2
-5.8746	-9.2316	-7.0496	-6.546	-13.092	-7.3853	-11.2457	-17.4561	-11.4136	-17.4561	-18.9667	-12.5885	-16.7847	-4.0283	-12.9242	-22.8271	-10.5743	-22.6593	48	282	181	4	1	2
-6.2103	-9.903	-7.3853	-6.7139	-13.7634	-7.7209	-11.4136	-18.1274	-12.085	-17.7917	-19.8059	-13.4277	-17.4561	-3.8605	-12.9242	-23.4985	-10.4065	-23.6664	48	283	182	4	1	2
-6.546	-10.4065	-7.8888	-6.7139	-14.267	-8.2245	-11.5814	-18.631	-12.7563	-18.2953	-20.4773	-14.4348	-18.1274	-3.5248	-12.7563	-24.0021	-10.2386	-24.3378	48	284	183	4	1	2
-6.7139	-10.91	-8.3923	-6.8817	-14.9384	-8.8959	-11.9171	-19.3024	-13.5956	-18.7988	-21.3165	-15.274	-18.7988	-3.1891	-12.9242	-24.5056	-10.2386	-24.6735	48	285	184	4	1	2
-7.0496	-11.4136	-8.728	-6.7139	-15.4419	-9.2316	-12.085	-19.8059	-14.0991	-18.9667	-21.8201	-16.1133	-19.3024	-2.8534	-12.5885	-24.8413	-9.903	-25.0092	48	286	185	4	1	2
-7.0496	-11.9171	-9.0637	-6.7139	-15.9454	-9.5673	-12.085	-19.9738	-14.6027	-19.3024	-22.3236	-16.6168	-19.8059	-2.5177	-12.4207	-25.177	-9.5673	-25.3448	48	287	186	4	1	2
-7.2174	-12.085	-9.2316	-6.546	-16.1133	-10.0708	-11.9171	-20.1416	-15.1062	-19.4702	-22.4915	-17.1204	-19.9738	-2.3499	-12.2528	-25.3448	-9.2316	-25.6805	48	288	187	4	1	2
-7.2174	-12.4207	-9.3994	-6.3782	-16.2811	-10.2386	-11.9171	-20.1416	-15.274	-19.6381	-22.8271	-17.6239	-20.3094	-2.0142	-11.9171	-25.3448	-8.8959	-25.5127	48	289	188	4	1	2
-7.2174	-12.9242	-9.5673	-6.3782	-16.6168	-10.5743	-11.9171	-20.4773	-15.9454	-19.6381	-22.8271	-18.1274	-20.6451	-1.6785	-11.4136	-25.5127	-8.5602	-25.6805	48	290	189	4	1	2
-7.3853	-13.092	-9.7351	-6.3782	-16.6168	-10.7422	-11.5814	-20.3094	-16.1133	-19.8059	-22.995	-18.4631	-20.813	-1.5106	-11.2457	-25.3448	-8.2245	-25.6805	48	291	190	4	1	2
-7.2174	-13.2599	-9.7351	-6.0425	-16.6168	-11.0779	-11.5814	-20.3094	-16.449	-19.8059	-22.995	-18.7988	-20.813	-1.3428	-10.7422	-25.177	-7.8888	-25.5127	48	292	191	4	1	2
-7.2174	-13.4277	-10.0708	-6.0425	-16.6168	-11.4136	-11.4136	-20.1416	-16.6168	-19.8059	-22.8271	-18.9667	-20.813	-1.1749	-10.4065	-25.177	-7.5531	-25.177	48	293	192	4	1	2
-7.2174	-13.4277	-10.0708	-5.8746	-16.6168	-11.5814	-11.4136	-19.9738	-16.9525	-19.8059	-22.8271	-19.1345	-20.9808	-1.0071	-10.0708	-25.0092	-7.2174	-25.0092	48	294	193	4	1	2
-7.3853	-13.7634	-10.2386	-6.0425	-16.7847	-11.9171	-11.4136	-19.8059	-17.1204	-19.8059	-22.6593	-19.4702	-20.9808	-0.8392	-9.5673	-24.8413	-7.0496	-24.8413	48	295	194	4	1	2
-7.3853	-13.7634	-10.4065	-5.8746	-16.449	-12.085	-11.2457	-19.4702	-17.4561	-19.6381	-22.3236	-19.4702	-20.813	-0.8392	-9.3994	-24.5056	-6.8817	-24.6735	48	296	195	4	1	2
-7.5531	-13.5956	-10.4065	-6.0425	-16.449	-12.2528	-11.2457	-19.4702	-17.6239	-19.4702	-22.3236	-19.8059	-20.813	-0.8392	-9.0637	-24.5056	-6.7139	-24.5056	48	297	196	4	1	2
-7.5531	-13.5956	-10.4065	-6.2103	-16.2811	-12.4207	-11.2457	-19.1345	-17.6239	-19.4702	-21.9879	-19.8059	-20.6451	-0.6714	-8.728	-24.1699	-6.546	-24.1699	48	298	197	4	1	2
-7.7209	-13.7634	-10.5743	-6.3782	-16.1133	-12.4207	-11.2457	-18.9667	-17.7917	-19.1345	-21.6522	-19.8059	-20.4773	-0.6714	-8.5602	-24.0021	-6.546	-24.0021	48	299	198	4	1	2
-7.7209	-13.4277	-10.4065	-6.7139	-15.7776	-12.5885	-11.2457	-18.4631	-17.7917	-18.9667	-21.3165	-19.4702	-20.1416	-0.6714	-8.2245	-23.8342	-6.2103	-23.4985	48	300	199	4	1	2
-7.7209	-13.2599	-10.4065	-6.8817	-15.4419	-12.5885	-11.2457	-18.1274	-17.6239	-18.7988	-20.813	-19.3024	-19.6381	-0.6714	-7.8888	-23.4985	-6.2103	-23.3307	48	301	200	4	1	2
-7.7209	-12.9242	-10.0708	-7.0496	-15.1062	-12.2528	-11.0779	-17.6239	-17.4561	-18.4631	-20.3094	-18.9667	-19.1345	-0.6714	-7.5531	-23.1628	-6.0425	-22.995	48	302	201	4	1	2
-7.5531	-12.5885	-9.903	-7.2174	-14.7705	-12.085	-10.91	-17.1204	-17.1204	-17.9596	-19.6381	-18.4631	-18.631	-0.6714	-7.3853	-22.995	-6.0425	-22.6593	48	303	202	4	1	2
-7.3853	-12.2528	-9.7351	-7.3853	-14.267	-11.9171	-10.7422	-16.6168	-16.7847	-17.4561	-19.1345	-17.9596	-17.9596	-0.8392	-7.3853	-22.6593	-6.0425	-22.4915	48	304	203	4	1	2
-7.2174	-11.9171	-9.3994	-7.5531	-13.9313	-11.5814	-10.7422	-16.1133	-16.449	-17.1204	-18.4631	-17.4561	-17.4561	-0.8392	-7.2174	-22.4915	-5.8746	-22.1558	48	305	204	4	1	2
-7.0496	-11.5814	-9.2316	-7.5531	-13.4277	-11.4136	-10.5743	-15.4419	-15.9454	-16.7847	-17.9596	-16.7847	-16.7847	-0.8392	-7.0496	-22.3236	-5.8746	-21.9879	48	306	205	4	1	2
-7.0496	-11.4136	-9.0637	-7.8888	-13.092	-11.0779	-10.7422	-15.1062	-15.6097	-16.6168	-17.4561	-16.2811	-16.449	-0.8392	-6.8817	-22.1558	-6.0425	-21.6522	48	307	206	4	1	2
-6.8817	-11.0779	-8.8959	-7.8888	-12.5885	-10.91	-10.5743	-14.4348	-14.9384	-16.2811	-16.7847	-15.4419	-15.7776	-0.8392	-6.8817	-21.9879	-6.0425	-21.4844	48	308	207	4	1	2
-6.546	-10.7422	-8.5602	-7.8888	-12.085	-10.4065	-10.4065	-13.7634	-14.267	-15.7776	-16.1133	-14.7705	-15.1062	-1.0071	-6.8817	-21.8201	-6.0425	-21.3165	48	309	208	4	1	2
-6.2103	-10.2386	-8.2245	-8.0566	-11.4136	-9.903	-10.4065	-13.092	-13.5956	-15.4419	-15.4419	-13.9313	-14.6027	-1.0071	-6.8817	-21.8201	-6.2103	-21.1487	48	310	209	4	1	2
-6.0425	-9.903	-8.0566	-8.0566	-11.0779	-9.5673	-10.4065	-12.4207	-13.2599	-15.1062	-15.1062	-13.2599	-14.0991	-1.0071	-6.7139	-21.8201	-6.3782	-20.9808	48	311	210	4	1	2
-5.7068	-9.3994	-7.5531	-8.0566	-10.4065	-9.0637	-10.2386	-11.7493	-12.4207	-14.6027	-14.267	-12.2528	-13.4277	-1.1749	-6.7139	-21.4844	-6.3782	-20.9808	48	312	211	4	1	2
-5.3711	-8.728	-7.2174	-7.8888	-9.903	-8.3923	-10.0708	-10.91	-11.4136	-14.267	-13.4277	-11.2457	-12.7563	-1.1749	-6.546	-21.1487	-6.2103	-20.813	48	313	212	4	1	2
-5.0354	-8.2245	-6.7139	-7.7209	-9.2316	-8.0566	-9.903	-10.4065	-10.5743	-13.9313	-12.7563	-10.2386	-11.9171	-1.1749	-6.2103	-20.813	-6.3782	-20.4773	48	314	213	4	1	2
-4.364	-7.3853	-6.0425	-7.5531	-8.5602	-7.2174	-9.5673	-9.5673	-9.5673	-13.092	-11.7493	-9.2316	-11.0779	-1.1749	-5.8746	-20.4773	-6.3782	-20.3094	48	315	214	4	1	2
-4.0283	-6.7139	-5.7068	-7.2174	-7.5531	-6.3782	-9.2316	-8.5602	-8.5602	-12.5885	-10.91	-8.0566	-10.2386	-1.3428	-5.8746	-20.1416	-6.3782	-20.1416	48	316	215	4	1	2
-3.5248	-5.8746	-5.0354	-6.8817	-6.8817	-5.5389	-9.0637	-7.7209	-7.3853	-12.085	-10.0708	-6.546	-9.3994	-1.3428	-5.7068	-19.6381	-6.2103	-19.8059	48	317	216	4	1	2
-2.8534	-5.0354	-4.364	-6.546	-5.8746	-4.8676	-8.728	-6.7139	-6.3782	-11.4136	-8.8959	-5.3711	-8.3923	-1.3428	-5.5389	-18.9667	-6.2103	-19.3024	48	318	217	4	1	2
-2.182	-4.364	-3.6926	-6.3782	-5.2032	-4.1962	-8.3923	-5.7068	-5.2032	-11.0779	-7.8888	-4.1962	-7.7209	-1.3428	-5.2032	-18.4631	-6.3782	-18.9667	48	319	218	4	1	2
-1.6785	-3.5248	-3.1891	-6.0425	-4.1962	-3.3569	-8.2245	-5.0354	-4.0283	-10.4065	-6.8817	-2.6855	-6.7139	-1.5106	-5.0354	-17.9596	-6.546	-18.4631	48	320	219	4	1	2
-0.8392	-2.5177	-2.182	-5.7068	-3.3569	-2.5177	-7.8888	-3.8605	-3.0212	-9.903	-5.5389	-1.3428	-5.5389	-1.5106	-4.8676	-16.9525	-6.546	-17.6239	48	321	220	4	1	2
19.6381	27.359	18.7988	4.6997	23.6664	10.5743	-3.3569	14.9384	-2.8534	-10.2386	5.5389	-11.2457	-16.2811	-2.3499	-11.2457	7.3853	-10.7422	4.1962	48	261	160	5	1	2
20.1416	27.6947	19.1345	5.5389	24.1699	11.2457	-2.5177	15.6097	-2.0142	-9.5673	6.3782	-10.5743	-15.9454	-2.182	-11.0779	8.0566	-10.4065	4.6997	48	262	161	5	1	2
19.9738	28.0304	19.3024	6.0425	24.5056	11.7493	-1.8463	16.2811	-1.5106	-8.8959	7.2174	-10.2386	-15.7776	-2.182	-10.7422	8.2245	-10.2386	5.0354	48	263	162	5	1	2
20.1416	28.0304	19.4702	6.7139	24.8413	12.2528	-1.0071	16.7847	-0.6714	-8.0566	8.0566	-9.7351	-15.274	-2.0142	-10.5743	8.5602	-9.903	5.3711	48	264	163	5	1	2
20.3094	28.1982	19.8059	7.5531	25.177	12.7563	0	17.2882	0	-7.0496	9.2316	-8.8959	-14.4348	-1.6785	-10.0708	9.0637	-9.3994	6.0425	48	265	164	5	1	2
20.3094	27.8625	19.6381	8.0566	25.177	13.092	0.8392	17.4561	0.6714	-6.2103	9.903	-8.0566	-13.9313	-1.5106	-9.903	9.2316	-9.0637	6.3782	48	266	165	5	1	2
20.1416	27.6947	19.6381	8.728	25.0092	13.5956	1.6785	17.7917	1.3428	-5.3711	10.5743	-7.5531	-13.4277	-1.3428	-9.5673	9.5673	-8.728	6.8817	48	267	166	5	1	2
20.1416	27.359	19.8059	9.5673	24.8413	13.9313	2.8534	17.9596	2.0142	-4.1962	11.2457	-6.7139	-12.5885	-1.0071	-9.0637	9.7351	-8.2245	7.2174	48	268	167	5	1	2
19.6381	27.0233	19.4702	10.0708	24.3378	14.0991	3.5248	17.7917	2.5177	-3.3569	11.9171	-6.2103	-11.9171	-0.8392	-8.5602	9.5673	-7.5531	7.2174	48	269	168	5	1	2
19.4702	26.3519	19.3024	10.91	23.8342	14.267	4.6997	17.7917	3.1891	-2.182	12.2528	-5.3711	-10.91	-0.5035	-7.8888	9.5673	-7.0496	7.3853	48	270	169	5	1	2
19.1345	25.6805	19.1345	11.4136	23.1628	14.4348	5.5389	17.4561	3.6926	-1.0071	12.5885	-4.5319	-10.0708	-0.1678	-7.2174	9.5673	-6.3782	7.5531	48	271	170	5	1	2
18.7988	24.8413	18.631	12.085	22.4915	14.4348	6.7139	17.1204	4.1962	0	12.7563	-3.8605	-8.8959	0.1678	-6.546	9.2316	-5.7068	7.5531	48	272	171	5	1	2
18.4631	24.0021	18.4631	12.7563	21.6522	14.6027	7.7209	16.7847	4.8676	1.5106	13.092	-2.8534	-7.5531	0.6714	-5.5389	9.0637	-4.6997	7.5531	48	273	172	5	1	2
17.9596	22.995	17.7917	13.092	20.6451	14.4348	8.5602	15.9454	5.2032	2.6855	13.092	-2.182	-6.3782	1.0071	-4.8676	8.728	-3.8605	7.2174	48	274	173	5	1	2
17.2882	21.8201	17.2882	13.5956	19.4702	14.0991	9.3994	15.4419	5.5389	3.6926	12.9242	-1.6785	-5.3711	1.3428	-3.8605	8.0566	-3.1891	7.0496	48	275	174	5	1	2
16.449	20.4773	16.2811	13.5956	17.9596	13.7634	9.903	14.267	5.5389	4.6997	12.4207	-1.1749	-4.1962	1.5106	-3.0212	7.2174	-2.5177	6.3782	48	276	175	5	1	2
15.6097	18.9667	15.6097	13.9313	16.6168	13.2599	10.5743	13.2599	5.7068	5.7068	12.085	-0.5035	-2.8534	1.8463	-2.182	6.546	-1.8463	5.7068	48	277	176	5	1	2
14.7705	17.4561	14.7705	13.7634	15.1062	12.5885	10.91	12.085	5.7068	6.546	11.5814	0	-1.6785	2.182	-1.1749	5.7068	-0.8392	5.0354	48	278	177	5	1	2
13.5956	15.7776	13.5956	13.4277	13.2599	11.7493	11.0779	10.7422	5.3711	7.2174	10.7422	0.1678	-0.8392	2.3499	-0.5035	4.6997	-0.1678	4.1962	48	279	178	5	1	2
12.4207	14.0991	12.4207	13.092	11.5814	10.91	11.2457	9.3994	5.2032	7.7209	9.903	0.5035	0.1678	2.5177	0.1678	3.6926	0.3357	3.3569	48	280	179	5	1	2
11.2457	12.4207	11.0779	12.5885	9.7351	10.0708	11.0779	8.0566	4.8676	8.2245	9.0637	0.6714	1.0071	2.6855	1.0071	2.6855	0.8392	2.5177	48	281	180	5	1	2
9.903	10.5743	9.7351	11.9171	7.8888	9.0637	10.91	6.546	4.364	8.5602	8.0566	0.6714	1.8463	2.6855	1.5106	1.6785	1.3428	1.5106	48	282	181	5	1	2
8.728	8.8959	8.5602	11.2457	6.3782	8.0566	10.7422	5.2032	4.0283	8.8959	7.2174	1.0071	2.6855	2.8534	2.182	0.8392	1.8463	0.6714	48	283	182	5	1	2
7.7209	7.3853	7.5531	10.5743	4.6997	7.3853	10.4065	4.0283	3.8605	9.0637	6.3782	1.1749	3.5248	3.0212	2.8534	-0.1678	2.3499	0	48	284	183	5	1	2
6.3782	5.7068	6.3782	9.903	3.1891	6.3782	10.2386	2.8534	3.3569	9.2316	5.3711	1.1749	4.1962	3.0212	3.3569	-1.1749	2.6855	-0.8392	48	285	184	5	1	2
5.5389	4.364	5.3711	9.2316	1.8463	5.5389	9.903	1.6785	3.0212	9.3994	4.5319	1.3428	4.8676	3.1891	3.8605	-2.0142	3.0212	-1.5106	48	286	185	5	1	2
4.1962	2.6855	4.364	8.5602	0.3357	4.6997	9.2316	0.5035	2.5177	9.2316	3.6926	1.5106	5.5389	3.1891	4.1962	-2.8534	3.3569	-2.0142	48	287	186	5	1	2
3.5248	1.5106	3.5248	7.8888	-0.6714	3.8605	8.8959	-0.3357	2.3499	9.3994	3.0212	1.6785	6.0425	3.3569	4.8676	-3.5248	3.8605	-2.5177	48	288	187	5	1	2
2.6855	0.1678	2.5177	7.0496	-1.8463	3.1891	8.3923	-1.5106	1.8463	9.0637	2.0142	1.5106	6.546	3.3569	5.0354	-4.364	4.0283	-3.1891	48	289	188	5	1	2
1.6785	-1.3428	1.6785	6.2103	-3.0212	2.182	7.7209	-2.3499	1.5106	8.8959	1.3428	1.6785	6.8817	3.3569	5.2032	-5.0354	4.0283	-3.6926	48	290	189	5	1	2
1.0071	-2.3499	1.0071	5.7068	-3.8605	1.6785	7.3853	-3.1891	1.1749	8.5602	0.6714	1.6785	7.2174	3.5248	5.3711	-5.5389	4.5319	-4.0283	48	291	190	5	1	2
0	-3.3569	0.1678	4.8676	-5.0354	0.8392	6.7139	-4.0283	0.8392	8.2245	0	1.5106	7.5531	3.5248	5.5389	-6.2103	4.5319	-4.5319	48	292	191	5	1	2
-0.6714	-4.364	-0.6714	4.0283	-5.8746	0	6.0425	-4.8676	0.3357	7.8888	-0.8392	1.3428	7.5531	3.5248	5.5389	-6.7139	4.364	-4.8676	48	293	192	5	1	2
-1.3428	-5.3711	-1.1749	3.5248	-6.7139	-0.5035	5.5389	-5.5389	-0.1678	7.3853	-1.3428	1.3428	7.7209	3.6926	5.7068	-7.2174	4.6997	-4.8676	48	294	193	5	1	2
-2.182	-6.2103	-1.6785	3.0212	-7.3853	-1.1749	5.0354	-6.2103	-0.5035	7.0496	-2.182	1.1749	7.7209	3.6926	5.5389	-7.7209	4.6997	-5.2032	48	295	194	5	1	2
-3.0212	-7.0496	-2.5177	2.182	-8.2245	-2.0142	4.364	-6.8817	-1.0071	6.546	-2.6855	1.0071	7.7209	3.6926	5.3711	-8.0566	4.5319	-5.5389	48	296	195	5	1	2
-3.6926	-7.7209	-3.0212	1.5106	-8.8959	-2.5177	3.8605	-7.5531	-1.5106	5.8746	-3.3569	0.8392	7.5531	3.6926	5.5389	-8.3923	4.364	-5.7068	48	297	196	5	1	2
-4.364	-8.5602	-3.6926	0.6714	-9.5673	-3.3569	3.0212	-8.0566	-1.6785	5.5389	-4.0283	0.5035	7.3853	3.6926	5.3711	-8.728	4.364	-6.0425	48	298	197	5	1	2
-4.6997	-9.0637	-4.1962	0.1678	-9.903	-3.6926	2.5177	-8.3923	-2.0142	5.2032	-4.364	0.5035	7.3853	3.8605	5.3711	-8.8959	4.364	-5.8746	48	299	198	5	1	2
-5.3711	-9.5673	-4.5319	-0.5035	-10.4065	-4.1962	2.0142	-8.728	-2.182	4.8676	-4.8676	0.5035	7.2174	3.8605	5.3711	-9.0637	4.5319	-5.8746	48	300	199	5	1	2
-5.8746	-10.0708	-5.0354	-1.1749	-10.7422	-4.5319	1.5106	-9.0637	-2.5177	4.5319	-5.0354	0.5035	7.3853	3.8605	5.3711	-9.2316	4.5319	-5.8746	48	301	200	5	1	2
-6.3782	-10.4065	-5.5389	-1.8463	-11.0779	-4.8676	1.0071	-9.3994	-2.5177	4.1962	-5.3711	0.6714	7.3853	3.8605	5.3711	-8.8959	4.5319	-5.8746	48	302	201	5	1	2
-6.7139	-10.5743	-5.8746	-2.3499	-11.2457	-5.2032	0.5035	-9.5673	-2.5177	4.0283	-5.5389	0.6714	7.3853	3.8605	5.3711	-8.8959	4.5319	-5.7068	48	303	202	5	1	2
-6.8817	-10.7422	-5.8746	-2.6855	-11.4136	-5.3711	0	-9.3994	-2.3499	4.0283	-5.5389	0.8392	7.5531	3.8605	5.3711	-8.5602	4.5319	-5.5389	48	304	203	5	1	2
-7.3853	-11.0779	-6.3782	-3.3569	-11.5814	-5.5389	-0.3357	-9.5673	-2.3499	3.8605	-5.8746	1.0071	7.5531	3.6926	5.3711	-8.3923	4.364	-5.3711	48	305	204	5	1	2
-7.5531	-11.0779	-6.3782	-3.6926	-11.4136	-5.5389	-0.6714	-9.3994	-2.182	4.0283	-5.7068	1.3428	7.7209	3.6926	5.5389	-7.8888	4.364	-5.0354	48	306	205	5	1	2
-7.8888	-11.0779	-6.546	-4.0283	-11.4136	-5.7068	-0.8392	-9.3994	-2.0142	4.0283	-5.7068	1.6785	7.8888	3.5248	5.5389	-7.5531	4.1962	-4.6997	48	307	206	5	1	2
-8.0566	-10.91	-6.7139	-4.364	-11.4136	-5.7068	-1.1749	-9.3994	-1.8463	4.1962	-5.7068	2.0142	8.0566	3.3569	5.5389	-7.2174	4.1962	-4.1962	48	308	207	5	1	2
-8.3923	-10.7422	-6.8817	-4.6997	-11.2457	-5.7068	-1.1749	-9.3994	-1.6785	4.1962	-5.7068	2.3499	8.3923	3.1891	5.5389	-6.546	4.0283	-3.8605	48	309	208	5	1	2
-8.5602	-10.7422	-6.8817	-4.6997	-11.0779	-5.5389	-1.1749	-9.2316	-1.3428	4.364	-5.5389	2.8534	8.5602	3.0212	5.7068	-6.0425	3.8605	-3.1891	48	310	209	5	1	2
-8.5602	-10.4065	-6.8817	-4.8676	-10.7422	-5.3711	-1.1749	-8.8959	-1.0071	4.6997	-5.5389	3.0212	8.728	2.8534	5.7068	-5.5389	3.8605	-2.6855	48	311	210	5	1	2
-8.8959	-10.0708	-6.8817	-5.0354	-10.5743	-5.3711	-1.3428	-8.5602	-0.6714	4.8676	-5.3711	3.3569	9.0637	2.6855	5.8746	-4.6997	3.6926	-2.0142	48	312	211	5	1	2
-9.2316	-10.0708	-7.0496	-5.3711	-10.4065	-5.2032	-1.5106	-8.5602	-0.5035	5.0354	-5.2032	3.5248	9.0637	2.3499	5.7068	-4.1962	3.1891	-1.5106	48	313	212	5	1	2
-9.2316	-9.5673	-7.0496	-5.5389	-9.903	-5.0354	-1.6785	-8.3923	-0.3357	5.0354	-5.0354	3.8605	9.2316	2.182	5.7068	-3.3569	3.0212	-0.8392	48	314	213	5	1	2
-9.2316	-9.2316	-6.8817	-5.7068	-9.5673	-4.8676	-1.5106	-7.8888	0	5.3711	-4.8676	4.1962	9.3994	2.0142	5.5389	-2.5177	2.8534	0	48	315	214	5	1	2
-9.2316	-8.728	-6.8817	-5.8746	-9.0637	-4.5319	-1.5106	-7.5531	0.3357	5.5389	-4.6997	4.364	9.3994	1.8463	5.5389	-1.6785	2.6855	0.8392	48	316	215	5	1	2
-9.5673	-8.3923	-6.8817	-6.0425	-8.8959	-4.5319	-1.6785	-7.5531	0.1678	5.3711	-4.6997	4.364	9.3994	1.5106	5.3711	-0.8392	2.182	1.5106	48	317	216	5	1	2
-9.3994	-7.8888	-6.7139	-6.2103	-8.3923	-4.1962	-1.6785	-7.2174	0.3357	5.3711	-4.5319	4.364	9.2316	1.3428	5.2032	0.1678	1.8463	2.182	48	318	217	5	1	2
-9.3994	-7.3853	-6.546	-6.3782	-7.7209	-3.8605	-1.6785	-6.8817	0.5035	5.3711	-4.364	4.364	9.2316	1.1749	5.0354	1.0071	1.5106	2.8534	48	319	218	5	1	2
-9.0637	-6.8817	-6.2103	-6.546	-7.3853	-3.6926	-2.0142	-6.7139	0.6714	5.2032	-4.5319	4.1962	8.8959	1.0071	4.8676	1.8463	1.1749	3.5248	48	320	219	5	1	2
-9.0637	-6.2103	-6.0425	-6.546	-6.8817	-3.3569	-2.0142	-6.546	0.5035	5.0354	-4.5319	4.0283	8.5602	0.8392	4.5319	2.8534	0.8392	4.364	48	321	220	5	1	2
5.0354	9.2316	7.5531	-10.5743	4.6997	7.8888	-10.0708	2.8534	12.4207	-5.8746	-1.5106	16.6168	5.7068	-3.1891	-9.7351	-6.8817	-19.6381	-9.5673	48	261	160	6	1	2
5.5389	9.903	8.2245	-10.2386	5.0354	8.0566	-9.903	2.8534	12.4207	-6.0425	-2.0142	16.2811	5.2032	-3.3569	-10.7422	-7.0496	-20.4773	-10.2386	48	262	161	6	1	2
5.8746	10.5743	8.5602	-10.2386	5.3711	8.2245	-9.903	2.6855	12.2528	-6.0425	-2.5177	15.6097	4.5319	-3.5248	-11.4136	-7.2174	-21.1487	-10.7422	48	263	162	6	1	2
6.2103	10.91	9.0637	-9.7351	5.7068	8.5602	-9.3994	2.6855	12.085	-5.7068	-2.8534	14.9384	4.0283	-3.5248	-11.9171	-7.2174	-21.4844	-11.2457	48	264	163	6	1	2
6.7139	11.5814	9.5673	-9.5673	5.8746	8.728	-8.8959	2.6855	12.085	-5.5389	-3.3569	14.4348	3.3569	-3.6926	-12.4207	-7.2174	-21.8201	-11.5814	48	265	164	6	1	2
7.2174	12.085	9.903	-9.2316	6.2103	8.8959	-8.3923	2.5177	11.9171	-5.2032	-3.6926	13.9313	3.0212	-3.8605	-12.9242	-7.2174	-21.9879	-11.9171	48	266	165	6	1	2
7.7209	12.5885	10.4065	-8.8959	6.546	9.2316	-7.7209	2.6855	12.085	-4.6997	-3.8605	13.4277	2.6855	-4.0283	-13.092	-7.0496	-21.9879	-12.2528	48	267	166	6	1	2
8.2245	13.092	10.91	-8.3923	7.0496	9.5673	-7.0496	3.0212	12.085	-4.1962	-4.0283	13.092	2.3499	-4.1962	-13.4277	-6.8817	-21.9879	-12.4207	48	268	167	6	1	2
8.728	13.5956	11.4136	-7.7209	7.3853	10.0708	-6.2103	3.1891	12.085	-3.3569	-4.0283	12.9242	2.3499	-4.364	-13.4277	-6.7139	-21.6522	-12.4207	48	269	168	6	1	2
9.3994	14.0991	11.9171	-7.2174	7.8888	10.4065	-5.3711	3.5248	12.2528	-2.5177	-4.0283	12.7563	2.182	-4.5319	-13.2599	-6.3782	-21.3165	-12.2528	48	270	169	6	1	2
10.0708	14.6027	12.4207	-6.3782	8.3923	10.7422	-4.1962	3.8605	12.4207	-1.8463	-3.8605	12.5885	2.182	-4.6997	-13.092	-5.8746	-20.813	-12.2528	48	271	170	6	1	2
10.4065	15.1062	12.7563	-5.5389	8.8959	11.2457	-3.1891	4.364	12.7563	-0.8392	-3.6926	12.4207	2.3499	-4.8676	-12.5885	-5.3711	-20.1416	-12.085	48	272	171	6	1	2
11.2457	15.7776	13.4277	-4.6997	9.7351	11.7493	-2.0142	5.0354	13.092	0.3357	-3.5248	12.5885	2.6855	-5.0354	-12.085	-4.6997	-19.1345	-11.7493	48	273	172	6	1	2
11.7493	16.2811	13.5956	-3.6926	10.2386	12.085	-0.8392	5.3711	13.2599	1.3428	-3.0212	12.7563	3.0212	-5.2032	-11.5814	-4.1962	-18.2953	-11.4136	48	274	173	6	1	2
12.085	16.449	13.9313	-2.6855	10.91	12.4207	0.5035	6.0425	13.5956	2.3499	-2.5177	12.7563	3.1891	-5.2032	-10.7422	-3.3569	-17.1204	-10.7422	48	275	174	6	1	2
12.4207	17.1204	14.267	-1.8463	11.4136	12.7563	2.0142	6.7139	13.9313	3.5248	-2.182	12.7563	3.6926	-5.3711	-10.0708	-2.5177	-16.1133	-10.4065	48	276	175	6	1	2
12.5885	17.1204	14.0991	-1.0071	11.7493	12.9242	3.0212	7.0496	13.9313	4.364	-1.6785	12.7563	3.8605	-5.5389	-9.2316	-2.0142	-14.7705	-9.903	48	277	176	6	1	2
12.5885	17.4561	13.9313	-0.3357	12.2528	12.9242	3.8605	7.5531	14.0991	5.2032	-1.0071	12.7563	4.1962	-5.5389	-8.2245	-1.3428	-13.5956	-9.3994	48	278	177	6	1	2
12.4207	17.4561	13.7634	0.1678	12.4207	12.5885	4.8676	7.8888	13.7634	5.8746	-0.6714	12.5885	4.364	-5.7068	-7.2174	-0.8392	-12.4207	-8.8959	48	279	178	6	1	2
12.085	17.2882	13.4277	0.3357	12.4207	12.4207	5.7068	8.0566	13.5956	6.7139	-0.3357	12.4207	4.5319	-5.8746	-6.3782	-0.3357	-11.2457	-8.5602	48	280	179	6	1	2
11.7493	17.2882	12.9242	0.6714	12.5885	12.085	6.546	8.3923	13.2599	7.3853	0	12.2528	4.6997	-6.0425	-5.3711	0.3357	-10.2386	-8.2245	48	281	180	6	1	2
11.4136	17.1204	12.4207	0.6714	12.5885	11.5814	7.0496	8.3923	12.7563	7.7209	0.1678	11.9171	4.6997	-6.0425	-4.5319	0.6714	-9.0637	-7.8888	48	282	181	6	1	2
11.0779	16.9525	11.7493	0.8392	12.5885	11.0779	7.5531	8.5602	12.2528	8.2245	0.5035	11.5814	4.6997	-6.2103	-3.6926	1.0071	-8.2245	-7.5531	48	283	182	6	1	2
10.4065	16.2811	10.91	0.5035	12.2528	10.5743	7.8888	8.3923	11.5814	8.3923	0.5035	10.91	4.5319	-6.2103	-3.0212	1.3428	-7.2174	-7.0496	48	284	183	6	1	2
9.7351	15.9454	10.4065	0.5035	12.085	9.903	8.2245	8.2245	10.7422	8.728	0.5035	10.4065	4.364	-6.2103	-2.3499	1.5106	-6.3782	-6.8817	48	285	184	6	1	2
9.0637	15.274	9.5673	0.3357	11.7493	9.0637	8.5602	8.0566	9.903	8.728	0.5035	9.7351	4.0283	-6.3782	-1.8463	1.6785	-5.5389	-6.8817	48	286	185	6	1	2
8.3923	14.6027	8.728	0.1678	11.4136	8.2245	8.728	7.7209	9.2316	8.728	0.5035	9.0637	3.6926	-6.3782	-1.3428	1.8463	-4.8676	-6.546	48	287	186	6	1	2
7.7209	14.0991	7.8888	-0.3357	10.91	7.3853	8.728	7.5531	8.2245	8.8959	0.5035	8.5602	3.3569	-6.3782	-1.0071	1.8463	-4.1962	-6.3782	48	288	187	6	1	2
7.0496	13.4277	7.0496	-0.3357	10.2386	6.7139	8.8959	7.2174	7.2174	8.728	0.3357	7.7209	3.0212	-6.3782	-0.6714	1.8463	-3.6926	-6.2103	48	289	188	6	1	2
6.546	12.7563	6.0425	-0.6714	9.903	5.8746	9.0637	6.7139	6.2103	8.5602	0	6.8817	2.5177	-6.3782	-0.3357	2.0142	-3.1891	-6.0425	48	290	189	6	1	2
5.7068	11.9171	5.5389	-0.8392	9.0637	4.8676	9.0637	6.2103	5.0354	8.2245	-0.3357	6.0425	1.8463	-6.3782	-0.3357	1.8463	-3.0212	-6.0425	48	291	190	6	1	2
4.8676	11.0779	4.5319	-1.0071	8.5602	4.0283	9.0637	5.7068	4.1962	8.0566	-0.6714	5.2032	1.3428	-6.546	0	1.6785	-2.6855	-5.8746	48	292	191	6	1	2
4.1962	10.2386	3.6926	-1.0071	7.7209	2.8534	9.0637	5.2032	3.0212	7.7209	-1.0071	4.1962	0.8392	-6.546	0	1.5106	-2.5177	-5.7068	48	293	192	6	1	2
3.5248	9.3994	2.8534	-1.1749	7.0496	2.0142	9.0637	4.6997	1.8463	7.7209	-1.5106	3.3569	0.3357	-6.7139	0.1678	1.3428	-2.3499	-5.5389	48	294	193	6	1	2
2.6855	8.5602	2.182	-1.1749	6.2103	1.0071	8.8959	4.0283	0.8392	7.2174	-1.8463	2.5177	-0.3357	-6.7139	0.1678	1.0071	-2.182	-5.7068	48	295	194	6	1	2
2.0142	7.7209	1.3428	-1.5106	5.5389	0	9.0637	3.3569	-0.5035	7.0496	-2.3499	1.6785	-0.6714	-6.8817	0.1678	0.8392	-2.0142	-5.7068	48	296	195	6	1	2
1.3428	6.7139	0.5035	-1.3428	4.6997	-0.6714	9.0637	2.8534	-1.3428	6.8817	-2.6855	0.8392	-1.0071	-6.8817	0.1678	0.6714	-2.0142	-5.5389	48	297	196	6	1	2
0.8392	6.2103	0	-1.3428	4.0283	-1.6785	9.0637	2.182	-2.182	6.7139	-3.0212	0.1678	-1.5106	-6.8817	0.3357	0.3357	-1.8463	-5.3711	48	298	197	6	1	2
0.1678	5.3711	-0.6714	-1.1749	3.3569	-2.3499	9.2316	1.5106	-3.1891	6.3782	-3.3569	-0.6714	-2.182	-6.8817	0.3357	0	-2.0142	-5.2032	48	299	198	6	1	2
-0.3357	4.8676	-1.1749	-1.0071	2.6855	-3.0212	9.0637	1.1749	-3.8605	6.2103	-3.5248	-1.0071	-2.3499	-6.7139	0.3357	-0.1678	-2.0142	-5.3711	48	300	199	6	1	2
-0.6714	4.1962	-1.8463	-0.8392	2.182	-3.5248	9.2316	0.5035	-4.5319	6.0425	-3.8605	-1.6785	-2.5177	-6.7139	0.1678	-0.5035	-1.8463	-5.2032	48	301	200	6	1	2
-1.0071	3.6926	-2.182	-0.5035	1.5106	-4.1962	9.5673	0.1678	-5.2032	6.0425	-4.0283	-2.182	-2.8534	-6.546	0.3357	-0.6714	-2.0142	-5.0354	48	302	201	6	1	2
-1.1749	3.3569	-2.3499	0	1.3428	-4.364	9.5673	0	-5.5389	5.8746	-4.0283	-2.3499	-2.6855	-6.2103	0.3357	-0.8392	-1.8463	-4.8676	48	303	202	6	1	2
-1.3428	3.0212	-2.6855	0.5035	0.8392	-4.6997	10.0708	-0.1678	-6.0425	6.2103	-3.8605	-2.3499	-2.6855	-5.8746	0.5035	-1.1749	-1.6785	-4.6997	48	304	203	6	1	2
-1.3428	2.8534	-2.6855	1.1749	0.6714	-4.8676	10.5743	-0.3357	-6.2103	6.3782	-3.8605	-2.5177	-2.5177	-5.5389	0.6714	-1.3428	-1.5106	-4.5319	48	305	204	6	1	2
-1.3428	2.6855	-2.5177	1.8463	0.5035	-4.8676	11.0779	-0.5035	-6.2103	6.7139	-3.8605	-2.5177	-2.182	-5.2032	0.8392	-1.3428	-1.3428	-4.364	48	306	205	6	1	2
-1.1749	2.5177	-2.5177	2.5177	0.3357	-4.8676	11.4136	-0.5035	-6.2103	7.0496	-3.6926	-2.3499	-2.182	-4.8676	1.0071	-1.5106	-1.1749	-4.0283	48	307	206	6	1	2
-1.0071	2.5177	-2.3499	3.3569	0.1678	-4.6997	12.085	-0.5035	-6.0425	7.7209	-3.3569	-2.182	-1.5106	-4.5319	1.5106	-1.5106	-0.8392	-3.6926	48	308	207	6	1	2
-0.8392	2.5177	-2.182	4.0283	0.1678	-4.5319	12.5885	-0.5035	-5.8746	8.0566	-3.0212	-1.8463	-1.1749	-4.1962	1.6785	-1.5106	-0.6714	-3.3569	48	309	208	6	1	2
-0.5035	2.5177	-1.8463	4.6997	0.1678	-4.364	12.9242	-0.3357	-5.3711	8.5602	-2.6855	-1.3428	-0.6714	-3.8605	1.8463	-1.6785	-0.5035	-3.1891	48	310	209	6	1	2
-0.1678	2.8534	-1.5106	5.3711	0.1678	-4.0283	13.4277	-0.1678	-5.0354	9.0637	-2.0142	-0.8392	-0.1678	-3.5248	2.0142	-1.8463	-0.3357	-3.0212	48	311	210	6	1	2
0.1678	3.0212	-1.1749	6.0425	0.3357	-3.5248	13.9313	0	-4.364	9.5673	-1.6785	-0.1678	0.3357	-3.1891	2.182	-1.8463	-0.1678	-2.6855	48	312	211	6	1	2
0.6714	3.1891	-0.5035	6.8817	0.5035	-2.8534	14.267	0.3357	-3.5248	10.0708	-1.0071	0.5035	0.8392	-2.8534	2.3499	-2.0142	0	-2.5177	48	313	212	6	1	2
1.1749	3.3569	0	7.5531	0.8392	-2.3499	14.7705	0.8392	-2.8534	10.5743	-0.3357	1.3428	1.5106	-2.5177	2.6855	-1.8463	0.1678	-2.0142	48	314	213	6	1	2
1.6785	3.6926	0.5035	8.2245	1.1749	-1.6785	15.6097	1.3428	-1.8463	11.4136	0.3357	2.182	2.0142	-2.182	2.8534	-1.8463	0.5035	-1.6785	48	315	214	6	1	2
2.3499	4.0283	1.3428	9.2316	1.3428	-1.0071	16.1133	1.8463	-1.0071	12.085	1.0071	3.1891	2.6855	-1.8463	3.1891	-1.8463	0.6714	-1.3428	48	316	215	6	1	2
3.0212	4.1962	2.0142	9.903	1.6785	0	16.6168	2.5177	0.1678	12.7563	1.6785	4.364	3.5248	-1.3428	3.5248	-1.8463	1.1749	-1.0071	48	317	216	6	1	2
3.6926	4.6997	2.8534	10.7422	2.182	0.8392	17.2882	3.0212	1.3428	13.4277	2.6855	5.5389	4.5319	-1.0071	3.8605	-1.8463	1.3428	-0.6714	48	318	217	6	1	2
4.5319	5.0354	3.6926	11.4136	2.8534	1.6785	17.7917	3.6926	2.6855	14.0991	3.3569	6.7139	5.3711	-0.6714	4.1962	-1.6785	1.6785	-0.3357	48	319	218	6	1	2
5.3711	5.5389	4.6997	12.2528	3.3569	2.6855	18.631	4.5319	4.0283	14.9384	4.1962	8.0566	6.2103	-0.3357	4.8676	-1.5106	1.8463	0	48	320	219	6	1	2
6.0425	5.8746	5.3711	12.9242	3.8605	3.5248	18.9667	4.8676	5.2032	15.4419	4.8676	9.0637	7.0496	-0.1678	4.8676	-1.5106	2.0142	0.1678	48	321	220	6	1	2
-0.5035	0.8392	-1.5106	-6.3782	-3.5248	-5.2032	-8.8959	-5.5389	-7.0496	-6.7139	-5.2032	-6.0425	-1.5106	-0.3357	2.3499	-5.5389	-1.0071	-7.7209	48	261	160	9	1	2
-0.6714	0.8392	-1.5106	-6.546	-3.5248	-5.2032	-9.0637	-5.8746	-7.0496	-6.8817	-5.5389	-6.3782	-2.0142	-0.5035	1.8463	-5.8746	-1.3428	-8.2245	48	262	161	9	1	2
-0.5035	1.1749	-1.3428	-6.3782	-3.5248	-5.0354	-8.8959	-6.0425	-7.2174	-7.0496	-6.2103	-6.7139	-2.3499	-0.5035	1.1749	-6.2103	-1.5106	-8.5602	48	263	162	9	1	2
-0.5035	1.1749	-1.3428	-6.3782	-3.6926	-5.0354	-9.0637	-6.2103	-7.5531	-7.5531	-6.546	-7.0496	-2.8534	-0.5035	0.6714	-6.546	-1.8463	-9.0637	48	264	163	9	1	2
-0.5035	1.5106	-1.1749	-6.2103	-3.5248	-4.8676	-8.8959	-6.3782	-7.5531	-7.5531	-7.0496	-7.7209	-3.5248	-0.5035	0.1678	-6.8817	-2.3499	-9.3994	48	265	164	9	1	2
-0.1678	1.5106	-1.1749	-6.2103	-3.6926	-4.6997	-8.8959	-6.3782	-7.5531	-7.7209	-7.2174	-8.0566	-4.0283	-0.5035	-0.6714	-7.0496	-2.5177	-9.7351	48	266	165	9	1	2
0.1678	2.0142	-1.0071	-6.2103	-3.5248	-4.5319	-8.728	-6.546	-7.8888	-8.0566	-7.3853	-8.2245	-4.364	-0.5035	-1.1749	-7.2174	-2.8534	-9.903	48	267	166	9	1	2
0.5035	2.182	-0.6714	-5.7068	-3.0212	-4.0283	-8.3923	-6.3782	-7.7209	-7.8888	-7.5531	-8.3923	-5.0354	-0.3357	-1.5106	-7.2174	-3.0212	-9.7351	48	268	167	9	1	2
1.0071	2.5177	-0.3357	-5.3711	-2.8534	-3.8605	-8.3923	-6.2103	-7.5531	-7.8888	-7.5531	-8.3923	-5.3711	-0.3357	-2.0142	-7.2174	-3.3569	-9.7351	48	269	168	9	1	2
1.5106	3.3569	0.3357	-5.0354	-2.5177	-3.3569	-8.2245	-6.2103	-7.3853	-8.2245	-7.3853	-8.5602	-5.5389	-0.3357	-2.3499	-7.0496	-3.3569	-9.7351	48	270	169	9	1	2
2.0142	3.6926	0.6714	-4.5319	-2.182	-3.1891	-7.8888	-5.8746	-7.3853	-8.0566	-7.2174	-8.3923	-6.0425	-0.1678	-2.6855	-6.7139	-3.5248	-9.5673	48	271	170	9	1	2
2.6855	4.5319	1.3428	-4.1962	-1.8463	-2.6855	-7.5531	-5.5389	-7.0496	-8.2245	-7.2174	-8.5602	-6.3782	-0.1678	-3.1891	-6.7139	-3.6926	-9.3994	48	272	171	9	1	2
3.1891	5.0354	1.5106	-4.0283	-1.5106	-2.3499	-7.5531	-5.3711	-7.0496	-8.3923	-7.0496	-8.728	-7.0496	-0.1678	-3.5248	-6.546	-3.8605	-9.3994	48	273	172	9	1	2
3.6926	5.3711	2.0142	-3.5248	-1.1749	-2.182	-7.7209	-5.2032	-7.2174	-8.5602	-6.8817	-8.5602	-7.3853	0	-4.0283	-6.2103	-4.0283	-9.2316	48	274	173	9	1	2
4.5319	6.2103	2.6855	-3.3569	-0.5035	-2.0142	-7.5531	-5.0354	-7.0496	-8.8959	-6.8817	-8.728	-7.8888	0	-4.1962	-6.0425	-4.364	-9.2316	48	275	174	9	1	2
4.6997	6.546	2.8534	-3.0212	-0.3357	-2.182	-7.7209	-4.8676	-7.2174	-9.2316	-6.7139	-8.8959	-8.3923	0	-4.6997	-5.8746	-4.6997	-9.3994	48	276	175	9	1	2
5.0354	7.0496	3.1891	-3.0212	0	-2.0142	-7.8888	-4.5319	-7.2174	-9.5673	-6.7139	-8.8959	-8.728	0	-5.0354	-5.7068	-4.8676	-9.2316	48	277	176	9	1	2
5.5389	7.5531	3.5248	-3.1891	0.1678	-2.182	-8.3923	-4.5319	-7.5531	-10.0708	-6.8817	-9.3994	-9.5673	-0.1678	-5.3711	-5.8746	-5.2032	-9.3994	48	278	177	9	1	2
5.8746	7.8888	3.8605	-3.1891	0.5035	-2.182	-8.728	-4.364	-7.8888	-10.5743	-7.0496	-9.5673	-10.2386	-0.3357	-5.5389	-5.8746	-5.3711	-9.5673	48	279	178	9	1	2
6.0425	8.3923	3.8605	-3.3569	0.5035	-2.3499	-9.0637	-4.364	-8.0566	-11.0779	-7.2174	-9.903	-10.7422	-0.5035	-6.0425	-5.8746	-5.7068	-9.7351	48	280	179	9	1	2
6.2103	8.5602	4.1962	-3.5248	0.6714	-2.6855	-9.3994	-4.5319	-8.5602	-11.7493	-7.5531	-10.4065	-11.5814	-0.6714	-6.2103	-6.2103	-6.0425	-9.903	48	281	180	9	1	2
6.2103	8.5602	4.1962	-3.5248	0.6714	-3.1891	-9.903	-4.5319	-8.8959	-12.4207	-7.8888	-10.5743	-12.085	-0.8392	-6.2103	-6.2103	-6.2103	-10.0708	48	282	181	9	1	2
6.0425	8.5602	4.0283	-3.5248	0.5035	-3.3569	-10.4065	-5.0354	-9.3994	-13.092	-8.0566	-10.91	-12.7563	-1.0071	-6.3782	-6.546	-6.546	-10.2386	48	283	182	9	1	2
6.0425	8.5602	3.8605	-3.6926	0.6714	-4.0283	-10.5743	-5.0354	-9.7351	-13.7634	-8.5602	-11.4136	-13.4277	-1.1749	-6.546	-6.7139	-6.7139	-10.5743	48	284	183	9	1	2
5.8746	8.3923	3.6926	-3.8605	0.5035	-4.5319	-11.0779	-5.3711	-10.2386	-14.267	-8.728	-11.7493	-13.9313	-1.3428	-6.546	-6.8817	-6.7139	-10.7422	48	285	184	9	1	2
5.3711	8.2245	3.3569	-4.1962	0.1678	-5.0354	-11.5814	-5.5389	-10.5743	-14.9384	-9.0637	-12.2528	-14.6027	-1.5106	-6.3782	-7.0496	-7.0496	-10.7422	48	286	185	9	1	2
5.2032	8.0566	3.0212	-4.5319	0.1678	-5.5389	-12.085	-5.7068	-10.91	-15.274	-9.2316	-12.4207	-15.1062	-1.6785	-6.546	-7.2174	-7.0496	-10.91	48	287	186	9	1	2
4.6997	7.5531	2.6855	-4.6997	0	-5.7068	-12.4207	-5.7068	-11.0779	-15.6097	-9.2316	-12.5885	-15.274	-1.6785	-6.3782	-7.2174	-7.2174	-10.7422	48	288	187	9	1	2
4.1962	7.5531	2.3499	-5.2032	0	-6.3782	-12.7563	-5.7068	-11.4136	-16.1133	-9.3994	-12.7563	-15.6097	-1.8463	-6.2103	-7.2174	-7.0496	-10.5743	48	289	188	9	1	2
3.6926	7.0496	1.8463	-5.5389	-0.1678	-6.7139	-13.2599	-6.0425	-11.7493	-16.6168	-9.5673	-13.2599	-16.1133	-2.0142	-6.2103	-7.2174	-7.3853	-10.4065	48	290	189	9	1	2
3.0212	6.546	1.1749	-5.8746	-0.3357	-7.0496	-13.5956	-5.8746	-11.9171	-16.7847	-9.2316	-13.2599	-16.1133	-2.0142	-5.8746	-7.0496	-7.2174	-9.903	48	291	190	9	1	2
2.3499	6.2103	0.5035	-6.546	-0.5035	-7.7209	-14.0991	-5.8746	-12.085	-17.1204	-9.2316	-13.4277	-16.449	-2.182	-5.8746	-6.8817	-7.2174	-9.5673	48	292	191	9	1	2
1.5106	5.8746	-0.1678	-7.2174	-0.8392	-8.2245	-14.6027	-5.8746	-12.4207	-17.4561	-9.0637	-13.5956	-16.449	-2.3499	-5.8746	-6.8817	-7.3853	-9.2316	48	293	192	9	1	2
0.6714	5.5389	-0.8392	-7.8888	-1.0071	-8.728	-15.1062	-5.8746	-12.7563	-17.6239	-8.8959	-13.5956	-16.6168	-2.5177	-5.8746	-6.7139	-7.0496	-8.728	48	294	193	9	1	2
0	4.8676	-1.5106	-8.3923	-1.1749	-9.2316	-15.6097	-6.0425	-13.092	-17.9596	-8.728	-13.9313	-16.7847	-2.6855	-5.7068	-6.546	-7.0496	-8.2245	48	295	194	9	1	2
-0.8392	4.5319	-2.3499	-8.728	-1.3428	-9.5673	-15.7776	-5.8746	-13.2599	-17.9596	-8.2245	-13.7634	-16.6168	-2.6855	-5.5389	-6.0425	-7.0496	-7.5531	48	296	195	9	1	2
-1.6785	4.0283	-2.8534	-9.2316	-1.8463	-9.903	-16.1133	-5.8746	-13.4277	-17.9596	-8.0566	-13.9313	-16.6168	-2.8534	-5.2032	-5.8746	-6.8817	-6.8817	48	297	196	9	1	2
-2.3499	3.5248	-3.5248	-9.5673	-1.8463	-10.4065	-16.1133	-5.7068	-13.4277	-17.7917	-7.3853	-13.5956	-16.2811	-2.8534	-4.8676	-5.3711	-6.546	-6.0425	48	298	197	9	1	2
-2.8534	3.1891	-4.1962	-9.903	-2.182	-10.5743	-16.2811	-5.5389	-13.2599	-17.7917	-6.8817	-13.5956	-15.9454	-2.8534	-4.364	-4.8676	-6.3782	-5.3711	48	299	198	9	1	2
-3.5248	2.8534	-4.8676	-10.0708	-2.182	-10.91	-16.2811	-5.3711	-13.2599	-17.2882	-6.3782	-13.2599	-15.4419	-2.8534	-3.8605	-4.5319	-6.0425	-4.5319	48	300	199	9	1	2
-4.1962	2.6855	-5.2032	-10.0708	-2.5177	-11.0779	-16.1133	-5.2032	-13.2599	-16.9525	-5.5389	-12.9242	-14.7705	-2.8534	-3.1891	-4.0283	-5.5389	-3.6926	48	301	200	9	1	2
-4.5319	2.3499	-5.7068	-10.0708	-2.3499	-11.0779	-15.7776	-4.6997	-12.7563	-16.2811	-5.0354	-12.2528	-13.9313	-2.6855	-2.3499	-3.3569	-4.8676	-2.8534	48	302	201	9	1	2
-4.8676	2.0142	-6.0425	-9.903	-2.5177	-11.2457	-15.6097	-4.364	-12.5885	-15.7776	-4.1962	-11.9171	-13.2599	-2.6855	-1.5106	-3.0212	-4.1962	-2.182	48	303	202	9	1	2
-5.0354	1.8463	-6.2103	-9.7351	-2.3499	-10.91	-15.1062	-3.8605	-12.085	-15.1062	-3.5248	-11.2457	-12.2528	-2.5177	-0.6714	-2.3499	-3.6926	-1.1749	48	304	203	9	1	2
-5.0354	1.8463	-6.3782	-9.3994	-2.3499	-10.7422	-14.4348	-3.3569	-11.5814	-14.267	-2.6855	-10.4065	-11.2457	-2.3499	0.3357	-1.8463	-3.0212	-0.3357	48	305	204	9	1	2
-5.0354	1.6785	-6.2103	-8.8959	-2.182	-10.4065	-13.7634	-3.0212	-11.0779	-13.2599	-1.8463	-9.5673	-10.0708	-2.182	1.1749	-1.1749	-2.3499	0.5035	48	306	205	9	1	2
-4.8676	1.6785	-5.8746	-8.2245	-1.8463	-9.903	-12.9242	-2.5177	-10.2386	-12.2528	-1.0071	-8.5602	-8.728	-1.8463	2.182	-0.3357	-1.5106	1.3428	48	307	206	9	1	2
-4.8676	1.6785	-5.7068	-7.5531	-1.6785	-9.5673	-12.085	-1.8463	-9.5673	-11.2457	0	-7.7209	-7.3853	-1.6785	3.1891	0.3357	-0.8392	2.182	48	308	207	9	1	2
-4.5319	1.8463	-5.5389	-6.8817	-1.3428	-9.0637	-11.2457	-1.3428	-8.8959	-10.2386	0.8392	-6.7139	-6.2103	-1.5106	4.0283	1.0071	-0.1678	3.0212	48	309	208	9	1	2
-4.364	2.0142	-5.0354	-6.0425	-1.0071	-8.5602	-10.4065	-0.8392	-8.0566	-9.2316	1.6785	-5.7068	-4.8676	-1.3428	5.0354	1.6785	0.5035	3.8605	48	310	209	9	1	2
-4.1962	2.0142	-4.5319	-5.2032	-0.6714	-7.8888	-9.7351	-0.1678	-7.2174	-8.0566	2.5177	-4.8676	-3.5248	-1.1749	5.8746	2.3499	1.0071	4.6997	48	311	210	9	1	2
-3.6926	2.3499	-4.0283	-4.364	-0.1678	-7.3853	-8.728	0.5035	-6.546	-7.0496	3.3569	-3.8605	-2.3499	-1.0071	6.7139	3.1891	1.6785	5.5389	48	312	211	9	1	2
-3.3569	2.6855	-3.5248	-3.5248	0.3357	-6.546	-7.8888	1.0071	-5.7068	-6.0425	4.1962	-2.8534	-1.1749	-0.8392	7.5531	3.8605	2.3499	6.546	48	313	212	9	1	2
-3.0212	3.0212	-2.6855	-2.6855	0.8392	-6.0425	-7.0496	1.5106	-5.0354	-5.2032	5.0354	-2.0142	0	-0.8392	8.0566	4.5319	2.6855	7.3853	48	314	213	9	1	2
-2.182	3.1891	-2.3499	-1.8463	1.3428	-5.3711	-6.2103	2.0142	-4.364	-4.364	5.5389	-1.5106	0.8392	-0.6714	8.5602	5.0354	3.0212	8.0566	48	315	214	9	1	2
-1.8463	3.8605	-1.6785	-1.0071	1.8463	-4.6997	-5.3711	2.3499	-3.6926	-3.6926	6.3782	-0.6714	1.8463	-0.6714	9.2316	5.8746	3.5248	8.8959	48	316	215	9	1	2
-1.3428	4.0283	-1.0071	-0.1678	2.3499	-4.364	-4.6997	2.8534	-3.3569	-2.8534	6.8817	0	2.6855	-0.6714	9.7351	6.2103	3.8605	9.3994	48	317	216	9	1	2
-0.5035	4.364	-0.3357	0.5035	2.6855	-3.5248	-4.0283	3.1891	-2.8534	-2.182	7.2174	0.5035	3.3569	-0.5035	10.0708	6.7139	4.0283	10.0708	48	318	217	9	1	2
0.1678	5.0354	0.3357	1.3428	3.3569	-2.8534	-3.0212	3.5248	-2.3499	-1.5106	7.8888	1.1749	4.364	-0.5035	10.4065	7.3853	4.5319	10.5743	48	319	218	9	1	2
0.8392	5.3711	1.0071	2.182	3.8605	-2.3499	-2.5177	3.8605	-1.8463	-0.8392	8.2245	1.6785	5.0354	-0.3357	10.7422	7.5531	4.8676	11.0779	48	320	219	9	1	2
1.5106	5.8746	1.6785	3.0212	4.364	-1.6785	-1.6785	4.364	-1.1749	0	8.8959	2.5177	5.8746	-0.3357	11.4136	8.2245	5.2032	11.7493	48	321	220	9	1	2
-15.6097	-13.7634	-17.9596	-18.631	-13.4277	-12.7563	-8.5602	-8.5602	-10.4065	-5.3711	-6.546	-7.8888	-1.8463	1.1749	9.0637	-2.3499	5.3711	-2.6855	48	261	160	10	1	2
-15.7776	-13.7634	-18.2953	-18.7988	-13.4277	-13.092	-8.8959	-8.5602	-10.7422	-5.8746	-6.546	-8.2245	-2.5177	1.1749	8.5602	-2.3499	5.0354	-2.8534	48	262	161	10	1	2
-15.9454	-13.5956	-18.4631	-18.9667	-13.2599	-13.4277	-9.2316	-8.5602	-11.0779	-6.546	-6.3782	-8.728	-3.3569	1.1749	8.3923	-2.182	4.8676	-2.8534	48	263	162	10	1	2
-16.1133	-13.5956	-18.9667	-19.3024	-13.4277	-13.7634	-9.7351	-8.2245	-11.2457	-6.8817	-6.3782	-9.2316	-4.0283	1.1749	8.0566	-2.0142	4.8676	-2.5177	48	264	163	10	1	2
-16.1133	-13.7634	-19.1345	-19.3024	-13.2599	-13.9313	-9.903	-8.2245	-11.5814	-7.3853	-6.0425	-9.3994	-4.5319	1.1749	7.5531	-1.8463	4.5319	-2.3499	48	265	164	10	1	2
-16.449	-13.7634	-19.4702	-19.4702	-13.2599	-14.267	-10.2386	-8.0566	-11.7493	-7.7209	-5.8746	-9.5673	-5.2032	1.1749	7.2174	-1.5106	4.5319	-2.0142	48	266	165	10	1	2
-16.2811	-13.9313	-19.4702	-19.4702	-13.2599	-14.4348	-10.5743	-7.7209	-11.7493	-7.8888	-5.5389	-9.7351	-5.7068	1.1749	6.8817	-1.3428	4.1962	-1.6785	48	267	166	10	1	2
-16.449	-14.267	-19.6381	-19.4702	-13.2599	-14.6027	-10.7422	-7.5531	-11.9171	-8.0566	-5.2032	-9.903	-6.0425	1.1749	6.546	-1.0071	4.0283	-1.3428	48	268	167	10	1	2
-16.6168	-14.4348	-19.9738	-19.4702	-13.092	-14.7705	-10.91	-7.5531	-12.085	-8.3923	-4.6997	-9.903	-6.3782	1.1749	6.2103	-0.8392	4.0283	-1.0071	48	269	168	10	1	2
-16.6168	-14.7705	-19.9738	-19.3024	-13.092	-14.7705	-10.91	-7.2174	-12.085	-8.5602	-4.364	-9.7351	-6.546	1.1749	5.8746	-0.6714	3.8605	-0.5035	48	270	169	10	1	2
-16.6168	-15.1062	-19.9738	-19.3024	-13.2599	-14.9384	-11.0779	-7.0496	-11.9171	-8.3923	-4.0283	-9.903	-6.8817	1.1749	5.5389	-0.5035	3.6926	-0.3357	48	271	170	10	1	2
-16.9525	-15.4419	-20.1416	-19.3024	-13.2599	-14.9384	-11.0779	-6.8817	-11.9171	-8.5602	-3.6926	-9.7351	-6.8817	1.1749	5.2032	-0.1678	3.5248	0.1678	48	272	171	10	1	2
-16.9525	-15.6097	-20.1416	-19.1345	-13.2599	-14.7705	-10.91	-6.7139	-11.7493	-8.3923	-3.3569	-9.5673	-7.0496	1.0071	4.6997	-0.1678	3.5248	0.5035	48	273	172	10	1	2
-16.9525	-16.1133	-19.8059	-18.7988	-13.2599	-14.7705	-10.91	-6.546	-11.5814	-8.2245	-2.8534	-9.3994	-6.8817	1.0071	4.364	0.1678	3.3569	0.8392	48	274	173	10	1	2
-17.1204	-16.6168	-19.9738	-18.9667	-13.4277	-14.7705	-10.91	-6.546	-11.5814	-8.2245	-2.6855	-9.2316	-6.8817	1.0071	4.0283	0	3.1891	1.0071	48	275	174	10	1	2
-17.2882	-16.7847	-19.9738	-18.7988	-13.5956	-14.6027	-10.91	-6.546	-11.4136	-8.0566	-2.5177	-9.2316	-6.8817	0.8392	3.6926	0	3.0212	1.3428	48	276	175	10	1	2
-17.2882	-17.2882	-19.8059	-18.631	-13.5956	-14.4348	-10.7422	-6.546	-11.2457	-7.8888	-2.182	-8.8959	-6.7139	0.8392	3.5248	0	3.0212	1.6785	48	277	176	10	1	2
-17.4561	-17.6239	-19.9738	-18.631	-13.9313	-14.4348	-10.7422	-6.7139	-11.2457	-7.8888	-2.182	-8.8959	-6.8817	0.8392	3.0212	-0.1678	2.6855	1.6785	48	278	177	10	1	2
-17.4561	-17.9596	-19.9738	-18.631	-14.0991	-14.4348	-10.7422	-6.7139	-11.0779	-7.7209	-2.0142	-8.728	-6.7139	0.8392	3.0212	-0.3357	2.5177	1.6785	48	279	178	10	1	2
-17.6239	-18.1274	-19.9738	-18.631	-14.267	-14.267	-10.7422	-6.8817	-11.0779	-7.5531	-2.0142	-8.728	-6.7139	0.8392	2.6855	-0.5035	2.3499	1.6785	48	280	179	10	1	2
-17.6239	-18.4631	-19.8059	-18.4631	-14.4348	-14.0991	-10.5743	-6.8817	-10.91	-7.2174	-1.8463	-8.5602	-6.546	0.8392	2.5177	-0.5035	2.3499	1.6785	48	281	180	10	1	2
-17.4561	-18.4631	-19.6381	-18.1274	-14.6027	-14.0991	-10.4065	-6.8817	-10.91	-7.0496	-1.6785	-8.3923	-6.2103	0.8392	2.3499	-0.6714	2.3499	1.8463	48	282	181	10	1	2
-17.4561	-18.631	-19.6381	-17.9596	-14.6027	-13.9313	-10.2386	-7.0496	-10.7422	-6.8817	-1.8463	-8.3923	-6.2103	1.0071	2.182	-1.0071	2.3499	1.6785	48	283	182	10	1	2
-17.1204	-18.631	-19.6381	-17.7917	-14.6027	-13.7634	-10.0708	-7.2174	-10.7422	-6.7139	-1.8463	-8.0566	-5.8746	1.0071	2.3499	-1.1749	2.3499	1.6785	48	284	183	10	1	2
-16.9525	-18.4631	-19.6381	-17.4561	-14.7705	-13.7634	-9.7351	-7.2174	-10.5743	-6.546	-1.8463	-7.8888	-5.7068	1.1749	2.3499	-1.3428	2.5177	1.8463	48	285	184	10	1	2
-16.9525	-18.631	-19.6381	-17.2882	-14.7705	-13.7634	-9.5673	-7.5531	-10.7422	-6.546	-2.0142	-7.7209	-5.5389	1.3428	2.0142	-1.5106	2.5177	1.5106	48	286	185	10	1	2
-16.9525	-18.4631	-19.6381	-17.1204	-14.9384	-13.7634	-9.5673	-7.5531	-10.5743	-6.2103	-2.182	-7.5531	-5.3711	1.3428	2.0142	-1.6785	2.5177	1.5106	48	287	186	10	1	2
-16.9525	-18.2953	-19.8059	-16.9525	-14.9384	-13.7634	-9.5673	-7.7209	-10.7422	-6.3782	-2.5177	-7.7209	-5.3711	1.5106	2.182	-2.0142	2.6855	1.3428	48	288	187	10	1	2
-16.7847	-18.1274	-19.8059	-16.7847	-14.9384	-13.9313	-9.3994	-7.7209	-10.5743	-6.0425	-2.3499	-7.3853	-4.8676	1.5106	2.182	-1.8463	2.8534	1.3428	48	289	188	10	1	2
-16.6168	-17.9596	-19.9738	-16.7847	-14.9384	-13.9313	-9.2316	-8.0566	-10.91	-6.2103	-2.6855	-7.3853	-4.8676	1.5106	2.0142	-2.182	2.8534	1.0071	48	290	189	10	1	2
-16.9525	-17.7917	-20.1416	-16.7847	-15.1062	-14.0991	-9.3994	-8.2245	-11.0779	-6.2103	-3.0212	-7.3853	-4.6997	1.5106	2.0142	-2.3499	2.8534	0.8392	48	291	190	10	1	2
-17.1204	-17.6239	-20.4773	-16.9525	-15.1062	-14.4348	-9.3994	-8.3923	-11.2457	-6.3782	-3.3569	-7.3853	-4.6997	1.5106	1.8463	-2.6855	2.8534	0.6714	48	292	191	10	1	2
-17.4561	-17.7917	-20.9808	-17.1204	-15.4419	-14.9384	-9.7351	-8.728	-11.5814	-6.546	-3.8605	-7.5531	-4.6997	1.5106	1.6785	-3.0212	2.6855	0.3357	48	293	192	10	1	2
-17.7917	-17.6239	-21.3165	-17.2882	-15.6097	-15.274	-9.7351	-9.0637	-11.7493	-6.7139	-4.0283	-7.5531	-4.6997	1.5106	1.5106	-3.1891	2.6855	0	48	294	193	10	1	2
-18.1274	-17.4561	-21.6522	-17.4561	-15.7776	-15.6097	-9.903	-9.2316	-12.085	-6.8817	-4.364	-7.7209	-4.5319	1.5106	1.5106	-3.5248	2.6855	-0.1678	48	295	194	10	1	2
-18.2953	-17.4561	-21.9879	-17.6239	-15.7776	-15.9454	-10.0708	-9.3994	-12.2528	-6.8817	-4.5319	-7.7209	-4.5319	1.3428	1.5106	-3.6926	2.6855	-0.3357	48	296	195	10	1	2
-18.7988	-17.2882	-22.4915	-17.9596	-15.9454	-16.2811	-10.0708	-9.3994	-12.2528	-6.8817	-4.6997	-7.5531	-4.364	1.3428	1.5106	-3.6926	2.6855	-0.3357	48	297	196	10	1	2
-19.1345	-17.4561	-22.8271	-18.2953	-16.1133	-16.7847	-10.4065	-9.5673	-12.5885	-7.2174	-4.8676	-7.5531	-4.364	1.3428	1.3428	-4.0283	2.5177	-0.5035	48	298	197	10	1	2
-19.6381	-17.2882	-23.1628	-18.4631	-15.9454	-16.7847	-10.2386	-9.3994	-12.5885	-7.0496	-4.6997	-7.3853	-4.1962	1.1749	1.5106	-3.8605	2.5177	-0.5035	48	299	198	10	1	2
-19.9738	-17.2882	-23.4985	-18.631	-15.9454	-17.1204	-10.4065	-9.3994	-12.5885	-7.0496	-4.5319	-7.2174	-3.8605	1.1749	1.5106	-3.8605	2.5177	-0.3357	48	300	199	10	1	2
-20.1416	-16.9525	-23.4985	-18.631	-15.6097	-17.1204	-10.4065	-8.8959	-12.2528	-6.7139	-4.364	-6.7139	-3.3569	1.0071	2.0142	-3.5248	2.5177	-0.1678	48	301	200	10	1	2
-20.3094	-16.7847	-23.6664	-18.7988	-15.4419	-17.1204	-10.2386	-8.728	-12.085	-6.546	-3.8605	-6.2103	-2.8534	1.0071	2.182	-3.3569	2.6855	0.1678	48	302	201	10	1	2
-20.3094	-16.2811	-23.4985	-18.631	-14.9384	-16.9525	-10.0708	-8.0566	-11.5814	-6.0425	-3.3569	-5.5389	-2.182	0.8392	2.6855	-2.6855	2.8534	0.6714	48	303	202	10	1	2
-20.3094	-15.9454	-23.3307	-18.4631	-14.267	-16.6168	-9.7351	-7.5531	-11.0779	-5.5389	-2.6855	-4.8676	-1.3428	0.6714	3.1891	-2.3499	3.0212	1.0071	48	304	203	10	1	2
-20.3094	-15.4419	-23.3307	-18.4631	-13.9313	-16.449	-9.5673	-7.0496	-10.5743	-5.2032	-2.182	-4.364	-0.6714	0.6714	3.6926	-1.8463	3.1891	1.5106	48	305	204	10	1	2
-19.9738	-14.7705	-22.6593	-18.1274	-13.092	-15.9454	-9.2316	-6.2103	-9.903	-4.364	-1.3428	-3.3569	0.3357	0.6714	4.5319	-1.0071	3.5248	2.182	48	306	205	10	1	2
-19.6381	-14.267	-22.3236	-17.7917	-12.4207	-15.6097	-8.728	-5.3711	-9.0637	-3.6926	-0.5035	-2.5177	1.3428	0.5035	5.0354	-0.3357	4.0283	2.8534	48	307	206	10	1	2
-19.3024	-13.7634	-21.9879	-17.4561	-11.9171	-15.274	-8.3923	-4.6997	-8.5602	-3.1891	0	-1.8463	2.182	0.5035	5.8746	0.3357	4.1962	3.5248	48	308	207	10	1	2
-18.9667	-13.092	-21.4844	-17.1204	-11.0779	-14.9384	-7.8888	-3.8605	-7.8888	-2.5177	0.6714	-1.0071	3.0212	0.3357	6.546	1.0071	4.6997	3.8605	48	309	208	10	1	2
-18.4631	-12.2528	-20.813	-16.6168	-10.4065	-14.267	-7.5531	-3.3569	-7.3853	-1.8463	1.3428	-0.3357	3.8605	0.3357	7.2174	1.5106	5.0354	4.364	48	310	209	10	1	2
-18.1274	-11.9171	-20.4773	-16.449	-10.0708	-14.267	-7.2174	-2.8534	-7.2174	-1.6785	1.5106	0	4.5319	0.3357	7.8888	1.8463	5.5389	4.6997	48	311	210	10	1	2
-17.7917	-11.4136	-19.9738	-15.9454	-9.5673	-13.9313	-6.8817	-2.3499	-6.7139	-1.0071	2.0142	0.5035	5.2032	0.3357	8.728	2.5177	5.8746	5.0354	48	312	211	10	1	2
-17.2882	-10.91	-19.6381	-15.6097	-9.2316	-13.5956	-6.7139	-1.8463	-6.3782	-0.6714	2.3499	0.6714	5.8746	0.3357	9.2316	2.6855	6.0425	5.0354	48	313	212	10	1	2
-17.1204	-10.7422	-19.4702	-15.4419	-8.8959	-13.5956	-6.3782	-1.6785	-6.3782	-0.5035	2.3499	1.0071	6.3782	0.5035	9.7351	3.0212	6.3782	5.2032	48	314	213	10	1	2
-16.449	-10.2386	-19.1345	-15.1062	-8.5602	-13.4277	-6.2103	-1.5106	-6.2103	-0.1678	2.5177	1.0071	6.546	0.5035	10.0708	3.3569	6.3782	5.2032	48	315	214	10	1	2
-16.2811	-10.2386	-18.7988	-14.6027	-8.5602	-13.4277	-6.2103	-1.5106	-6.3782	-0.3357	2.3499	1.0071	6.8817	0.6714	10.4065	3.3569	6.546	5.2032	48	316	215	10	1	2
-15.7776	-10.0708	-18.631	-14.267	-8.3923	-13.2599	-6.2103	-1.5106	-6.3782	-0.1678	2.182	0.8392	7.0496	0.8392	10.7422	3.3569	6.8817	5.0354	48	317	216	10	1	2
-15.4419	-9.903	-18.4631	-13.7634	-8.2245	-13.4277	-5.8746	-1.3428	-6.3782	0	2.0142	0.3357	7.0496	1.0071	11.0779	3.3569	6.8817	4.8676	48	318	217	10	1	2
-15.274	-10.0708	-18.1274	-13.2599	-8.2245	-13.4277	-5.8746	-1.5106	-6.546	0	1.6785	0.1678	7.2174	1.1749	11.2457	3.3569	6.8817	4.5319	48	319	218	10	1	2
-14.9384	-10.0708	-18.1274	-12.9242	-8.3923	-13.5956	-5.8746	-1.6785	-6.8817	-0.1678	1.3428	-0.3357	7.2174	1.3428	11.4136	3.1891	7.0496	4.1962	48	320	219	10	1	2
-14.6027	-10.0708	-17.9596	-12.5885	-8.3923	-13.7634	-5.7068	-1.8463	-7.0496	-0.1678	1.3428	-0.5035	7.2174	1.5106	11.4136	3.0212	7.0496	3.8605	48	321	220	10	1	2
-7.5531	-6.546	-7.5531	-12.9242	-8.2245	-10.2386	-14.4348	-9.2316	-10.2386	-13.9313	-14.0991	-12.2528	-13.7634	0.6714	-4.0283	-7.0496	-2.3499	-7.5531	48	261	160	11	1	2
-8.0566	-6.546	-8.0566	-13.4277	-8.3923	-10.5743	-14.7705	-9.0637	-10.2386	-13.9313	-13.9313	-12.2528	-13.9313	0.5035	-4.1962	-6.8817	-2.3499	-7.3853	48	262	161	11	1	2
-8.3923	-6.7139	-8.5602	-13.9313	-8.5602	-10.7422	-14.9384	-9.3994	-10.5743	-14.267	-14.0991	-12.2528	-14.0991	0.3357	-4.1962	-6.546	-2.6855	-7.2174	48	263	162	11	1	2
-8.5602	-6.7139	-9.2316	-14.6027	-8.728	-11.2457	-15.274	-9.5673	-10.91	-14.6027	-13.9313	-12.4207	-14.0991	0.1678	-4.364	-6.546	-3.0212	-6.8817	48	264	163	11	1	2
-9.0637	-6.8817	-9.7351	-15.274	-9.0637	-11.7493	-15.6097	-9.7351	-11.0779	-14.7705	-13.9313	-12.5885	-14.267	0.1678	-4.364	-6.2103	-3.0212	-6.7139	48	265	164	11	1	2
-9.2316	-7.0496	-10.0708	-15.6097	-9.0637	-12.085	-15.7776	-9.7351	-11.0779	-14.9384	-13.7634	-12.5885	-14.4348	0	-4.5319	-6.0425	-3.3569	-6.7139	48	266	165	11	1	2
-9.5673	-7.0496	-10.5743	-16.1133	-9.3994	-12.2528	-15.9454	-9.903	-11.4136	-15.1062	-13.7634	-12.7563	-14.4348	-0.1678	-4.6997	-6.0425	-3.5248	-6.546	48	267	166	11	1	2
-9.903	-7.2174	-11.0779	-16.449	-9.5673	-12.5885	-16.1133	-10.0708	-11.5814	-15.1062	-13.7634	-12.7563	-14.4348	-0.3357	-4.8676	-5.7068	-3.8605	-6.546	48	268	167	11	1	2
-9.903	-7.2174	-11.4136	-16.6168	-9.5673	-12.7563	-15.9454	-10.0708	-11.5814	-15.1062	-13.5956	-12.7563	-14.267	-0.5035	-5.2032	-5.7068	-4.0283	-6.3782	48	269	168	11	1	2
-10.0708	-7.3853	-11.7493	-16.9525	-9.7351	-13.092	-15.9454	-10.0708	-11.7493	-15.1062	-13.4277	-12.7563	-14.267	-0.6714	-5.3711	-5.5389	-4.1962	-6.3782	48	270	169	11	1	2
-10.4065	-7.5531	-12.2528	-17.2882	-9.903	-13.2599	-16.1133	-10.4065	-11.9171	-15.1062	-13.4277	-12.7563	-14.0991	-0.6714	-5.3711	-5.3711	-4.1962	-6.2103	48	271	170	11	1	2
-10.4065	-7.3853	-12.2528	-17.2882	-9.903	-13.2599	-15.9454	-10.2386	-11.7493	-14.9384	-13.092	-12.5885	-13.7634	-0.8392	-5.5389	-5.0354	-4.1962	-6.0425	48	272	171	11	1	2
-10.5743	-7.5531	-12.4207	-17.2882	-9.903	-13.2599	-15.7776	-10.2386	-11.7493	-14.7705	-12.9242	-12.4207	-13.5956	-1.0071	-5.7068	-4.8676	-4.364	-6.0425	48	273	172	11	1	2
-10.5743	-7.5531	-12.7563	-17.4561	-9.903	-13.5956	-15.6097	-10.2386	-11.7493	-14.6027	-13.092	-12.5885	-13.5956	-1.1749	-5.7068	-4.5319	-4.1962	-5.8746	48	274	173	11	1	2
-10.5743	-7.3853	-12.5885	-17.1204	-9.903	-13.4277	-15.4419	-10.0708	-11.5814	-14.267	-12.7563	-12.4207	-13.2599	-1.1749	-6.0425	-4.5319	-4.1962	-5.8746	48	275	174	11	1	2
-10.5743	-7.2174	-12.7563	-17.1204	-9.7351	-13.4277	-15.1062	-10.0708	-11.7493	-14.0991	-12.5885	-12.2528	-12.7563	-1.3428	-6.0425	-4.1962	-4.1962	-5.7068	48	276	175	11	1	2
-10.4065	-7.0496	-12.5885	-16.6168	-9.5673	-13.2599	-14.7705	-9.7351	-11.5814	-13.7634	-12.4207	-12.085	-12.5885	-1.3428	-6.0425	-4.0283	-4.1962	-5.5389	48	277	176	11	1	2
-10.2386	-7.0496	-12.5885	-16.449	-9.5673	-13.2599	-14.6027	-9.7351	-11.5814	-13.5956	-12.2528	-12.085	-12.4207	-1.5106	-6.0425	-3.6926	-4.0283	-5.3711	48	278	177	11	1	2
-10.0708	-6.8817	-12.4207	-16.1133	-9.2316	-13.092	-14.267	-9.5673	-11.2457	-13.2599	-12.085	-11.9171	-12.2528	-1.5106	-6.2103	-3.5248	-4.0283	-5.3711	48	279	178	11	1	2
-9.7351	-7.0496	-12.4207	-15.7776	-9.0637	-13.092	-13.9313	-9.5673	-11.4136	-13.2599	-12.085	-11.7493	-12.085	-1.6785	-6.0425	-3.1891	-3.8605	-5.2032	48	280	179	11	1	2
-9.3994	-6.8817	-12.085	-15.274	-8.8959	-12.7563	-13.5956	-9.3994	-11.2457	-13.092	-11.7493	-11.4136	-11.7493	-1.6785	-6.0425	-2.8534	-3.8605	-4.8676	48	281	180	11	1	2
-9.0637	-6.7139	-11.9171	-14.9384	-8.728	-12.7563	-13.4277	-9.2316	-11.2457	-12.9242	-11.5814	-11.5814	-11.7493	-1.6785	-6.2103	-2.8534	-3.8605	-4.8676	48	282	181	11	1	2
-8.728	-6.7139	-11.5814	-14.4348	-8.3923	-12.7563	-13.092	-9.0637	-11.0779	-12.5885	-11.5814	-11.5814	-11.5814	-1.6785	-6.3782	-2.8534	-3.8605	-4.8676	48	283	182	11	1	2
-8.3923	-6.7139	-11.5814	-14.0991	-8.3923	-12.5885	-13.092	-9.0637	-11.2457	-12.5885	-11.5814	-11.5814	-11.5814	-1.6785	-6.3782	-2.5177	-3.8605	-4.6997	48	284	183	11	1	2
-8.3923	-6.8817	-11.5814	-13.7634	-8.2245	-12.7563	-12.7563	-8.8959	-11.4136	-12.5885	-11.4136	-11.2457	-11.2457	-1.6785	-6.3782	-2.5177	-3.6926	-4.5319	48	285	184	11	1	2
-8.2245	-7.0496	-11.7493	-13.4277	-8.2245	-12.9242	-12.9242	-8.728	-11.4136	-12.4207	-11.5814	-11.4136	-11.4136	-1.6785	-6.3782	-2.5177	-3.6926	-4.5319	48	286	185	11	1	2
-8.0566	-7.2174	-11.7493	-13.092	-8.2245	-13.092	-12.7563	-8.8959	-11.5814	-12.4207	-11.5814	-11.5814	-11.4136	-1.5106	-6.546	-2.6855	-3.8605	-4.5319	48	287	186	11	1	2
-8.2245	-7.5531	-12.085	-12.9242	-8.3923	-13.4277	-12.7563	-8.8959	-11.9171	-12.5885	-11.7493	-11.5814	-11.4136	-1.5106	-6.3782	-2.5177	-3.8605	-4.5319	48	288	187	11	1	2
-8.3923	-8.2245	-12.2528	-12.9242	-8.728	-13.7634	-12.9242	-9.3994	-12.2528	-12.5885	-11.7493	-11.7493	-11.5814	-1.5106	-6.546	-2.6855	-3.8605	-4.6997	48	289	188	11	1	2
-8.5602	-8.3923	-12.5885	-12.9242	-8.8959	-14.267	-12.9242	-9.3994	-12.4207	-12.5885	-11.9171	-12.085	-11.4136	-1.3428	-6.7139	-3.0212	-4.0283	-4.8676	48	290	189	11	1	2
-8.728	-9.0637	-13.092	-13.092	-9.3994	-14.7705	-13.092	-9.7351	-12.9242	-12.7563	-12.2528	-12.4207	-11.7493	-1.3428	-6.7139	-3.5248	-4.1962	-5.0354	48	291	190	11	1	2
-9.2316	-9.7351	-13.5956	-13.092	-9.7351	-15.4419	-13.2599	-10.0708	-13.4277	-13.092	-12.5885	-12.7563	-11.7493	-1.3428	-6.7139	-3.6926	-4.1962	-5.2032	48	292	191	11	1	2
-9.7351	-10.4065	-14.0991	-13.4277	-10.2386	-15.7776	-13.4277	-10.5743	-13.9313	-13.4277	-13.092	-13.092	-11.9171	-1.3428	-6.8817	-4.1962	-4.364	-5.5389	48	293	192	11	1	2
-10.2386	-11.0779	-14.6027	-13.5956	-10.91	-16.449	-13.7634	-11.0779	-14.4348	-13.5956	-13.4277	-13.5956	-12.2528	-1.3428	-7.0496	-4.8676	-4.5319	-5.8746	48	294	193	11	1	2
-10.5743	-11.5814	-15.1062	-13.9313	-11.5814	-17.1204	-14.0991	-11.7493	-14.9384	-13.9313	-13.9313	-14.0991	-12.4207	-1.3428	-7.0496	-5.5389	-4.8676	-6.7139	48	295	194	11	1	2
-10.91	-12.2528	-15.6097	-14.0991	-12.085	-17.4561	-14.267	-12.085	-15.4419	-14.0991	-14.4348	-14.267	-12.7563	-1.1749	-7.2174	-6.2103	-5.0354	-7.0496	48	296	195	11	1	2
-11.4136	-12.7563	-16.1133	-14.4348	-12.7563	-18.1274	-14.4348	-12.7563	-15.9454	-14.4348	-14.9384	-14.7705	-12.7563	-1.1749	-7.2174	-6.7139	-5.2032	-7.7209	48	297	196	11	1	2
-11.9171	-13.2599	-16.6168	-14.7705	-13.4277	-18.631	-14.9384	-13.2599	-16.2811	-14.7705	-15.4419	-15.1062	-13.2599	-1.1749	-7.5531	-7.7209	-5.3711	-8.3923	48	298	197	11	1	2
-12.2528	-13.5956	-16.7847	-14.9384	-13.9313	-18.9667	-15.1062	-13.7634	-16.7847	-14.7705	-15.7776	-15.4419	-13.4277	-1.0071	-7.7209	-8.2245	-5.7068	-8.728	48	299	198	11	1	2
-12.7563	-13.9313	-17.2882	-15.274	-14.6027	-19.4702	-15.274	-14.267	-17.1204	-15.274	-16.449	-15.9454	-13.7634	-1.0071	-7.7209	-8.8959	-6.0425	-9.2316	48	300	199	11	1	2
-12.9242	-14.0991	-17.4561	-15.274	-14.9384	-19.6381	-15.4419	-14.6027	-17.2882	-15.274	-16.7847	-16.1133	-13.7634	-0.8392	-7.8888	-9.5673	-6.3782	-9.7351	48	301	200	11	1	2
-13.4277	-14.4348	-17.4561	-15.6097	-15.4419	-19.9738	-15.6097	-15.274	-17.6239	-15.6097	-17.2882	-16.449	-13.9313	-0.8392	-8.2245	-10.2386	-6.546	-10.2386	48	302	201	11	1	2
-13.5956	-14.4348	-17.6239	-15.9454	-15.7776	-20.1416	-15.9454	-15.6097	-17.9596	-15.9454	-17.7917	-16.7847	-14.267	-0.6714	-8.2245	-11.0779	-6.8817	-10.7422	48	303	202	11	1	2
-13.9313	-14.4348	-17.7917	-16.1133	-16.2811	-20.4773	-16.2811	-16.1133	-18.2953	-16.2811	-18.1274	-17.1204	-14.4348	-0.6714	-8.3923	-11.5814	-7.0496	-11.0779	48	304	203	11	1	2
-14.0991	-14.4348	-17.6239	-16.1133	-16.449	-20.6451	-16.2811	-16.449	-18.4631	-16.449	-18.631	-17.2882	-14.7705	-0.8392	-8.728	-12.085	-7.5531	-11.5814	48	305	204	11	1	2
-14.267	-14.267	-17.7917	-16.2811	-16.9525	-20.9808	-16.6168	-16.7847	-18.9667	-16.6168	-19.1345	-17.7917	-14.9384	-0.8392	-9.0637	-12.5885	-7.8888	-11.9171	48	306	205	11	1	2
-14.4348	-14.4348	-17.9596	-16.6168	-17.4561	-21.3165	-16.9525	-17.4561	-19.3024	-17.2882	-19.6381	-18.2953	-15.274	-1.0071	-9.2316	-13.2599	-8.2245	-12.4207	48	307	206	11	1	2
-14.4348	-14.267	-17.7917	-16.449	-17.7917	-21.6522	-16.9525	-17.6239	-19.6381	-17.6239	-19.9738	-18.631	-15.6097	-1.0071	-9.5673	-13.5956	-8.728	-12.7563	48	308	207	11	1	2
-14.6027	-14.4348	-17.9596	-16.6168	-18.2953	-22.1558	-17.4561	-18.2953	-20.1416	-18.1274	-20.6451	-19.3024	-16.1133	-1.1749	-9.7351	-14.267	-9.0637	-13.4277	48	309	208	11	1	2
-14.6027	-14.267	-17.9596	-16.6168	-18.631	-22.3236	-17.6239	-18.631	-20.6451	-18.4631	-21.3165	-19.8059	-16.6168	-1.1749	-10.0708	-14.6027	-9.5673	-13.7634	48	310	209	11	1	2
-14.7705	-14.4348	-18.1274	-16.7847	-19.1345	-22.8271	-17.9596	-19.3024	-21.4844	-19.1345	-21.9879	-20.6451	-17.2882	-1.3428	-10.4065	-15.274	-10.0708	-14.4348	48	311	210	11	1	2
-14.9384	-14.6027	-18.2953	-16.7847	-19.8059	-23.1628	-18.4631	-19.8059	-21.9879	-19.8059	-22.6593	-21.3165	-17.9596	-1.5106	-10.5743	-15.9454	-10.4065	-15.1062	48	312	211	11	1	2
-14.7705	-14.4348	-18.1274	-16.6168	-20.1416	-23.6664	-18.4631	-20.3094	-22.6593	-20.3094	-23.1628	-21.8201	-18.2953	-1.5106	-10.91	-16.449	-11.0779	-15.7776	48	313	212	11	1	2
-14.7705	-14.6027	-18.2953	-16.6168	-20.4773	-23.8342	-18.7988	-20.813	-23.3307	-20.813	-23.6664	-22.4915	-18.9667	-1.5106	-11.4136	-17.1204	-11.4136	-16.2811	48	314	213	11	1	2
-14.4348	-14.6027	-18.2953	-16.2811	-20.813	-24.1699	-18.9667	-21.1487	-23.8342	-21.3165	-24.3378	-23.3307	-19.6381	-1.5106	-11.4136	-17.4561	-11.7493	-16.9525	48	315	214	11	1	2
-14.6027	-14.7705	-18.631	-16.2811	-21.4844	-24.6735	-19.4702	-21.8201	-24.6735	-21.9879	-25.0092	-24.0021	-20.3094	-1.6785	-11.9171	-18.1274	-12.2528	-17.6239	48	316	215	11	1	2
-14.4348	-14.7705	-18.4631	-15.9454	-21.4844	-24.6735	-19.4702	-21.9879	-25.0092	-22.3236	-25.5127	-24.6735	-20.813	-1.5106	-12.085	-18.2953	-12.4207	-17.9596	48	317	216	11	1	2
-14.267	-14.9384	-18.4631	-15.6097	-21.8201	-24.8413	-19.6381	-22.4915	-25.5127	-22.6593	-25.8484	-25.177	-21.3165	-1.5106	-12.085	-18.9667	-12.5885	-18.4631	48	318	217	11	1	2
-13.9313	-15.1062	-18.4631	-15.4419	-22.1558	-25.0092	-19.8059	-22.8271	-26.0162	-23.1628	-26.3519	-25.6805	-21.9879	-1.5106	-12.2528	-19.3024	-12.7563	-18.9667	48	319	218	11	1	2
-13.5956	-14.9384	-18.2953	-14.9384	-22.1558	-25.0092	-19.8059	-22.995	-26.3519	-23.3307	-26.6876	-26.0162	-22.3236	-1.3428	-12.2528	-19.4702	-12.9242	-19.1345	48	320	219	11	1	2
-13.4277	-14.9384	-18.1274	-14.6027	-22.1558	-25.0092	-19.8059	-23.1628	-26.3519	-23.4985	-26.6876	-26.1841	-22.4915	-1.1749	-11.9171	-19.6381	-12.7563	-19.4702	48	321	220	11	1	2
3.3569	0.3357	2.5177	4.6997	1.1749	2.6855	3.3569	2.5177	5.8746	5.3711	8.2245	11.0779	11.0779	-2.0142	2.3499	-5.5389	1.5106	2.5177	48	261	160	12	1	2
3.5248	0.8392	2.6855	4.8676	1.5106	2.5177	3.6926	2.5177	6.0425	5.5389	8.0566	11.0779	11.4136	-1.8463	2.6855	-5.3711	1.6785	2.5177	48	262	161	12	1	2
3.6926	1.0071	2.8534	4.8676	1.5106	2.5177	3.3569	2.3499	5.8746	5.3711	7.7209	10.91	11.2457	-1.8463	2.8534	-5.3711	1.6785	2.3499	48	263	162	12	1	2
3.5248	1.1749	2.6855	4.5319	1.5106	2.5177	3.3569	2.3499	5.5389	5.3711	7.5531	10.4065	11.2457	-1.8463	3.0212	-5.3711	1.5106	2.3499	48	264	163	12	1	2
3.6926	1.3428	2.8534	4.5319	1.6785	2.3499	3.3569	2.3499	5.5389	5.3711	7.3853	10.2386	11.4136	-1.6785	3.1891	-5.3711	1.5106	2.3499	48	265	164	12	1	2
3.5248	1.3428	2.6855	4.1962	1.5106	2.182	3.0212	2.0142	5.2032	5.0354	7.2174	9.903	11.2457	-1.6785	3.1891	-5.2032	1.3428	2.182	48	266	165	12	1	2
3.3569	1.1749	2.5177	3.8605	1.3428	2.0142	2.6855	1.8463	4.8676	4.6997	6.8817	9.5673	11.0779	-1.6785	3.1891	-5.2032	1.1749	2.182	48	267	166	12	1	2
3.1891	1.1749	2.182	3.3569	1.1749	1.6785	2.3499	1.6785	4.5319	4.364	6.546	8.8959	10.5743	-1.6785	3.0212	-5.3711	0.8392	1.8463	48	268	167	12	1	2
2.8534	1.0071	1.8463	3.0212	0.8392	1.3428	1.8463	1.3428	4.0283	3.8605	6.2103	8.3923	10.2386	-1.6785	2.5177	-5.5389	0.3357	1.6785	48	269	168	12	1	2
2.6855	0.5035	1.6785	2.5177	0.5035	1.1749	1.3428	0.8392	3.6926	3.1891	5.8746	7.8888	9.7351	-1.6785	2.182	-5.5389	-0.1678	1.5106	48	270	169	12	1	2
2.182	0.3357	1.1749	1.8463	0.1678	0.8392	0.8392	0.5035	3.1891	2.6855	5.3711	7.3853	9.2316	-1.6785	1.8463	-5.5389	-0.5035	1.3428	48	271	170	12	1	2
1.8463	0	0.6714	1.3428	-0.3357	0.3357	0.3357	0.1678	2.8534	2.0142	5.0354	6.7139	8.728	-1.6785	1.5106	-5.5389	-1.0071	1.0071	48	272	171	12	1	2
1.3428	-0.3357	0.3357	0.6714	-0.6714	-0.1678	-0.3357	-0.1678	2.3499	1.3428	4.5319	6.0425	8.0566	-1.6785	1.0071	-5.5389	-1.5106	0.8392	48	273	172	12	1	2
0.5035	-1.1749	-0.3357	-0.1678	-1.3428	-0.6714	-1.3428	-0.8392	1.6785	0.5035	3.8605	5.2032	7.0496	-1.8463	0.3357	-5.8746	-2.3499	0.3357	48	274	173	12	1	2
0.1678	-1.5106	-1.0071	-0.8392	-1.6785	-1.1749	-2.0142	-1.3428	1.0071	-0.1678	3.1891	4.364	6.3782	-1.8463	-0.1678	-5.8746	-2.8534	0	48	275	174	12	1	2
-0.5035	-2.0142	-1.5106	-1.6785	-2.3499	-1.8463	-2.8534	-1.8463	0.3357	-1.1749	2.5177	3.5248	5.3711	-2.0142	-1.0071	-6.0425	-3.6926	-0.3357	48	276	175	12	1	2
-1.1749	-2.5177	-2.182	-2.5177	-2.8534	-2.5177	-3.6926	-2.5177	-0.3357	-2.182	1.5106	2.3499	4.0283	-2.182	-1.8463	-6.2103	-4.5319	-0.8392	48	277	176	12	1	2
-1.5106	-2.8534	-2.5177	-3.1891	-3.1891	-2.8534	-4.5319	-3.1891	-1.1749	-3.0212	0.8392	1.6785	3.1891	-2.182	-2.5177	-6.2103	-5.2032	-1.1749	48	278	177	12	1	2
-2.182	-3.3569	-3.0212	-4.0283	-3.6926	-3.5248	-5.3711	-3.6926	-1.8463	-4.0283	0.1678	0.6714	2.0142	-2.3499	-3.3569	-6.546	-5.8746	-1.5106	48	279	178	12	1	2
-2.5177	-3.6926	-3.3569	-4.5319	-3.8605	-4.0283	-6.0425	-4.0283	-2.3499	-4.8676	-0.5035	-0.1678	1.1749	-2.3499	-4.0283	-6.546	-6.546	-1.8463	48	280	179	12	1	2
-2.8534	-3.8605	-3.8605	-5.2032	-4.364	-4.5319	-7.2174	-4.6997	-3.0212	-5.8746	-1.1749	-1.0071	0.1678	-2.5177	-4.8676	-6.546	-7.5531	-2.182	48	281	180	12	1	2
-3.1891	-4.0283	-4.0283	-5.7068	-4.5319	-4.8676	-7.7209	-4.8676	-3.5248	-6.7139	-1.6785	-1.6785	-1.0071	-2.6855	-5.7068	-6.546	-8.2245	-2.182	48	282	181	12	1	2
-3.5248	-4.1962	-4.364	-6.3782	-4.6997	-5.3711	-8.5602	-5.2032	-4.1962	-7.7209	-2.3499	-2.3499	-2.0142	-2.8534	-6.3782	-6.546	-8.8959	-2.3499	48	283	182	12	1	2
-3.6926	-4.1962	-4.364	-6.7139	-4.8676	-5.5389	-9.2316	-5.3711	-4.5319	-8.5602	-2.8534	-3.1891	-3.0212	-3.0212	-7.0496	-6.546	-9.3994	-2.3499	48	284	183	12	1	2
-3.5248	-4.1962	-4.5319	-7.2174	-4.6997	-5.7068	-9.903	-5.5389	-4.8676	-9.2316	-3.1891	-3.6926	-3.8605	-3.1891	-7.7209	-6.546	-9.903	-2.6855	48	285	184	12	1	2
-3.5248	-4.0283	-4.5319	-7.3853	-4.6997	-5.8746	-10.4065	-5.7068	-5.3711	-9.903	-3.6926	-4.364	-4.6997	-3.3569	-8.2245	-6.3782	-10.5743	-2.6855	48	286	185	12	1	2
-3.3569	-4.0283	-4.5319	-7.7209	-4.5319	-5.8746	-10.91	-5.7068	-5.5389	-10.5743	-4.0283	-4.6997	-5.5389	-3.5248	-8.728	-6.3782	-10.91	-2.6855	48	287	186	12	1	2
-3.3569	-3.6926	-4.364	-7.7209	-4.364	-5.8746	-11.2457	-5.7068	-5.7068	-11.0779	-4.5319	-5.3711	-6.3782	-3.6926	-9.0637	-6.3782	-11.2457	-2.8534	48	288	187	12	1	2
-3.0212	-3.1891	-3.8605	-7.7209	-3.8605	-5.5389	-11.4136	-5.7068	-5.8746	-11.5814	-5.0354	-5.8746	-7.0496	-3.8605	-9.5673	-6.3782	-11.5814	-3.0212	48	289	188	12	1	2
-2.8534	-3.0212	-3.6926	-7.5531	-3.6926	-5.5389	-11.5814	-5.5389	-6.0425	-11.9171	-5.3711	-6.2103	-7.5531	-4.0283	-9.903	-6.3782	-11.7493	-3.1891	48	290	189	12	1	2
-2.5177	-2.6855	-3.3569	-7.3853	-3.5248	-5.3711	-11.7493	-5.5389	-6.2103	-12.2528	-5.7068	-6.7139	-8.2245	-4.1962	-10.0708	-6.546	-11.9171	-3.5248	48	291	190	12	1	2
-2.182	-2.182	-3.0212	-7.0496	-3.0212	-5.0354	-11.5814	-5.3711	-6.0425	-12.2528	-5.8746	-6.8817	-8.5602	-4.1962	-10.0708	-6.8817	-11.9171	-3.6926	48	292	191	12	1	2
-1.6785	-1.6785	-2.6855	-6.7139	-2.5177	-4.5319	-11.5814	-5.3711	-6.2103	-12.4207	-6.3782	-7.2174	-9.0637	-4.364	-10.0708	-6.8817	-12.085	-4.1962	48	293	192	12	1	2
-1.5106	-1.3428	-2.3499	-6.3782	-2.3499	-4.364	-11.2457	-5.2032	-6.0425	-12.4207	-6.546	-7.3853	-9.2316	-4.364	-9.903	-7.2174	-11.9171	-4.364	48	294	193	12	1	2
-1.1749	-0.8392	-2.0142	-5.8746	-2.0142	-4.0283	-11.0779	-5.2032	-6.0425	-12.4207	-6.8817	-7.5531	-9.5673	-4.5319	-9.903	-7.5531	-11.9171	-4.8676	48	295	194	12	1	2
-0.5035	-0.5035	-1.3428	-5.3711	-1.6785	-3.6926	-10.7422	-5.0354	-5.8746	-12.4207	-7.0496	-7.5531	-9.7351	-4.5319	-9.903	-7.8888	-11.7493	-5.3711	48	296	195	12	1	2
-0.3357	0.1678	-1.0071	-4.8676	-1.5106	-3.1891	-10.2386	-4.8676	-5.5389	-11.7493	-7.2174	-7.5531	-9.5673	-4.364	-9.5673	-8.2245	-11.4136	-5.5389	48	297	196	12	1	2
0	0.3357	-0.6714	-4.364	-1.1749	-2.6855	-9.5673	-4.5319	-5.2032	-11.5814	-7.3853	-7.5531	-9.7351	-4.364	-9.3994	-8.5602	-10.91	-6.0425	48	298	197	12	1	2
0.6714	0.8392	-0.1678	-3.6926	-0.8392	-2.182	-8.8959	-4.364	-4.8676	-11.0779	-7.3853	-7.5531	-9.5673	-4.1962	-9.2316	-8.8959	-10.5743	-6.2103	48	299	198	12	1	2
1.1749	1.1749	0.3357	-2.8534	-0.5035	-1.6785	-8.3923	-4.1962	-4.6997	-10.7422	-7.5531	-7.3853	-9.7351	-4.1962	-9.2316	-9.2316	-10.4065	-6.546	48	300	199	12	1	2
1.6785	1.6785	0.8392	-2.182	-0.3357	-1.1749	-7.5531	-3.8605	-4.0283	-10.0708	-7.3853	-7.0496	-9.2316	-3.8605	-8.728	-9.3994	-9.7351	-6.7139	48	301	200	12	1	2
2.3499	2.182	1.3428	-1.5106	0	-0.6714	-6.8817	-3.5248	-3.5248	-9.5673	-7.2174	-6.8817	-9.0637	-3.6926	-8.5602	-9.3994	-9.3994	-6.8817	48	302	201	12	1	2
2.5177	2.3499	1.6785	-0.8392	0.3357	-0.3357	-5.8746	-3.3569	-3.0212	-8.728	-6.8817	-6.2103	-8.728	-3.3569	-8.3923	-9.5673	-8.728	-7.0496	48	303	202	12	1	2
3.0212	2.5177	2.0142	0	0.5035	0.3357	-5.2032	-3.0212	-2.3499	-7.8888	-6.3782	-5.7068	-8.0566	-3.0212	-8.0566	-9.5673	-8.2245	-7.0496	48	304	203	12	1	2
3.3569	3.0212	2.5177	0.6714	1.0071	1.0071	-4.1962	-2.5177	-1.6785	-7.2174	-5.8746	-5.2032	-7.5531	-2.5177	-7.8888	-9.7351	-7.5531	-7.0496	48	305	204	12	1	2
3.6926	3.0212	2.8534	1.3428	1.0071	1.3428	-3.5248	-2.182	-1.0071	-6.3782	-5.2032	-4.5319	-7.0496	-2.182	-7.3853	-9.7351	-7.2174	-6.8817	48	306	205	12	1	2
4.0283	3.3569	3.1891	2.0142	1.3428	1.8463	-2.6855	-1.6785	-0.3357	-5.5389	-4.6997	-3.8605	-6.546	-1.6785	-7.2174	-9.7351	-6.546	-6.7139	48	307	206	12	1	2
4.0283	3.3569	3.3569	2.3499	1.5106	2.0142	-2.0142	-1.3428	0.3357	-5.0354	-4.0283	-3.0212	-5.8746	-1.3428	-6.8817	-9.3994	-6.0425	-6.2103	48	308	207	12	1	2
4.1962	3.3569	3.5248	2.8534	1.6785	2.3499	-1.5106	-0.8392	1.0071	-4.1962	-3.1891	-2.5177	-5.2032	-1.0071	-6.546	-9.2316	-5.5389	-5.5389	48	309	208	12	1	2
4.1962	3.5248	3.8605	3.5248	1.8463	2.6855	-0.8392	-0.1678	1.8463	-3.3569	-2.3499	-1.6785	-4.5319	-0.6714	-6.0425	-8.8959	-4.8676	-4.8676	48	310	209	12	1	2
4.364	3.3569	3.8605	3.8605	2.182	3.1891	0	0.5035	2.6855	-2.5177	-1.1749	-0.6714	-3.5248	-0.3357	-5.5389	-8.3923	-4.364	-4.0283	48	311	210	12	1	2
4.1962	3.3569	4.0283	4.1962	2.3499	3.3569	0.5035	1.0071	3.3569	-1.8463	-0.1678	0.1678	-2.8534	-0.1678	-5.2032	-8.0566	-3.6926	-3.3569	48	312	211	12	1	2
4.0283	3.1891	4.0283	4.6997	2.6855	3.3569	1.1749	1.6785	4.0283	-1.0071	0.8392	1.1749	-1.8463	0	-4.6997	-7.5531	-3.3569	-2.5177	48	313	212	12	1	2
4.0283	2.8534	3.8605	4.8676	2.6855	3.5248	1.5106	2.182	4.5319	-0.3357	1.8463	2.0142	-1.0071	0.1678	-4.1962	-7.0496	-2.6855	-1.6785	48	314	213	12	1	2
3.6926	2.8534	3.8605	5.2032	2.8534	3.6926	2.0142	2.6855	5.2032	0.3357	2.8534	2.8534	-0.1678	0.3357	-3.5248	-6.3782	-2.0142	-0.8392	48	315	214	12	1	2
3.3569	2.3499	3.6926	5.3711	2.6855	3.5248	2.3499	3.1891	5.5389	1.0071	3.8605	3.8605	0.6714	0.3357	-3.1891	-6.2103	-1.5106	0.1678	48	316	215	12	1	2
3.1891	2.0142	3.3569	5.3711	2.6855	3.5248	2.5177	3.5248	5.8746	1.5106	4.8676	4.6997	1.6785	0.3357	-2.5177	-5.7068	-1.0071	0.8392	48	317	216	12	1	2
2.8534	1.5106	3.0212	5.5389	2.5177	3.3569	2.8534	4.0283	6.3782	2.0142	5.8746	5.5389	2.6855	0.3357	-1.8463	-5.2032	-0.6714	1.5106	48	318	217	12	1	2
2.3499	1.1749	2.5177	5.3711	2.3499	3.1891	2.8534	4.364	6.7139	2.5177	6.546	6.3782	3.3569	0.3357	-1.1749	-4.6997	-0.1678	2.3499	48	319	218	12	1	2
2.182	0.8392	2.182	5.3711	2.3499	3.0212	3.0212	4.6997	7.2174	3.0212	7.5531	7.2174	4.364	0.3357	-0.5035	-4.5319	0.3357	3.0212	48	320	219	12	1	2
1.6785	0.3357	1.6785	5.2032	2.182	2.6855	3.1891	5.0354	7.3853	3.3569	8.3923	8.0566	5.3711	0.3357	0.1678	-4.0283	0.8392	3.8605	48	321	220	12	1	2
0.3357	-0.3357	-4.8676	-9.5673	-4.364	-7.2174	-9.0637	-7.3853	-15.274	-12.2528	-6.8817	-17.2882	-14.9384	3.0212	-5.8746	-0.3357	-4.0283	-3.1891	48	261	160	13	1	2
-0.5035	-1.0071	-5.7068	-10.7422	-4.8676	-7.7209	-10.0708	-7.7209	-15.6097	-13.092	-6.8817	-17.6239	-15.6097	3.0212	-6.3782	-0.8392	-4.364	-3.0212	48	262	161	13	1	2
-1.5106	-1.6785	-6.546	-11.7493	-5.3711	-8.2245	-11.0779	-8.2245	-16.1133	-13.7634	-7.0496	-17.9596	-16.2811	3.1891	-6.7139	-1.3428	-4.8676	-3.0212	48	263	162	13	1	2
-2.182	-2.3499	-7.3853	-12.7563	-5.8746	-8.728	-11.9171	-8.5602	-16.449	-14.4348	-7.0496	-18.2953	-16.9525	3.1891	-6.8817	-1.6785	-5.0354	-2.8534	48	264	163	13	1	2
-3.1891	-3.1891	-8.5602	-13.9313	-6.546	-9.5673	-12.9242	-9.0637	-16.9525	-15.1062	-7.3853	-18.631	-17.6239	3.3569	-7.2174	-2.182	-5.3711	-2.8534	48	265	164	13	1	2
-4.1962	-3.8605	-9.3994	-15.1062	-7.0496	-10.0708	-13.9313	-9.3994	-17.2882	-15.7776	-7.3853	-18.9667	-18.1274	3.3569	-7.3853	-2.5177	-5.7068	-2.6855	48	266	165	13	1	2
-5.3711	-4.6997	-10.5743	-16.449	-7.8888	-10.91	-14.9384	-10.0708	-17.7917	-16.6168	-7.7209	-19.4702	-18.7988	3.5248	-7.7209	-3.1891	-6.0425	-2.6855	48	267	166	13	1	2
-6.3782	-5.5389	-11.5814	-17.4561	-8.5602	-11.5814	-15.9454	-10.5743	-18.2953	-17.1204	-8.0566	-19.8059	-19.3024	3.5248	-7.8888	-3.5248	-6.2103	-2.6855	48	268	167	13	1	2
-7.5531	-6.546	-12.7563	-18.7988	-9.3994	-12.5885	-16.9525	-11.2457	-18.9667	-17.9596	-8.3923	-20.3094	-19.9738	3.6926	-8.2245	-4.1962	-6.546	-2.8534	48	269	168	13	1	2
-8.728	-7.3853	-13.7634	-19.9738	-10.0708	-13.2599	-17.9596	-11.9171	-19.6381	-18.631	-8.728	-20.6451	-20.6451	3.6926	-8.3923	-4.6997	-6.7139	-2.8534	48	270	169	13	1	2
-9.903	-8.5602	-15.1062	-21.3165	-11.0779	-14.267	-18.9667	-12.7563	-20.3094	-19.4702	-9.3994	-21.3165	-21.3165	3.8605	-8.5602	-5.3711	-7.0496	-3.0212	48	271	170	13	1	2
-11.2457	-9.5673	-16.2811	-22.6593	-12.085	-15.4419	-20.1416	-13.5956	-21.1487	-20.3094	-9.903	-21.9879	-22.1558	3.8605	-8.8959	-6.0425	-7.3853	-3.3569	48	272	171	13	1	2
-12.5885	-10.7422	-17.4561	-24.0021	-13.092	-16.449	-21.1487	-14.4348	-21.9879	-21.1487	-10.5743	-22.6593	-22.995	3.6926	-9.2316	-6.7139	-7.7209	-3.6926	48	273	172	13	1	2
-13.9313	-11.9171	-18.9667	-25.5127	-14.0991	-17.7917	-22.3236	-15.4419	-23.1628	-21.9879	-11.4136	-23.4985	-24.0021	3.6926	-9.903	-7.5531	-8.2245	-4.0283	48	274	173	13	1	2
-15.1062	-12.7563	-19.9738	-26.6876	-15.1062	-18.9667	-23.4985	-16.2811	-24.0021	-22.995	-12.085	-24.0021	-24.8413	3.5248	-10.2386	-8.2245	-8.5602	-4.5319	48	275	174	13	1	2
-16.449	-13.9313	-21.3165	-28.0304	-16.449	-20.1416	-24.6735	-17.2882	-25.0092	-24.1699	-12.7563	-24.8413	-25.6805	3.5248	-10.91	-9.0637	-9.0637	-5.0354	48	276	175	13	1	2
-17.4561	-14.9384	-22.3236	-29.3732	-17.4561	-21.4844	-25.8484	-18.4631	-26.1841	-25.177	-13.7634	-25.8484	-26.8555	3.3569	-11.5814	-9.7351	-9.7351	-5.7068	48	277	176	13	1	2
-18.631	-15.7776	-23.6664	-30.5481	-18.631	-22.6593	-27.1912	-19.3024	-27.359	-26.3519	-14.7705	-26.6876	-28.0304	3.1891	-12.4207	-10.4065	-10.4065	-6.3782	48	278	177	13	1	2
-19.4702	-16.7847	-24.6735	-31.723	-19.4702	-23.8342	-28.1982	-20.3094	-28.3661	-27.5269	-15.6097	-27.6947	-29.2053	3.0212	-13.2599	-11.0779	-11.0779	-6.8817	48	279	178	13	1	2
-20.3094	-17.4561	-25.6805	-32.8979	-20.4773	-25.0092	-29.2053	-21.1487	-29.541	-28.5339	-16.6168	-28.5339	-30.5481	2.8534	-14.267	-11.7493	-11.7493	-7.7209	48	280	179	13	1	2
-21.1487	-18.1274	-26.5198	-33.905	-21.3165	-26.0162	-30.3802	-22.1558	-30.3802	-29.7089	-17.4561	-29.3732	-31.723	2.5177	-15.1062	-12.4207	-12.7563	-8.3923	48	281	180	13	1	2
-21.4844	-18.7988	-27.1912	-34.7443	-22.1558	-27.1912	-31.2195	-22.8271	-31.2195	-30.7159	-18.4631	-30.2124	-32.8979	2.3499	-16.1133	-12.9242	-13.4277	-9.0637	48	282	181	13	1	2
-21.9879	-19.3024	-27.8625	-35.5835	-22.8271	-28.0304	-32.0587	-23.6664	-32.2266	-31.723	-19.4702	-30.8838	-34.2407	2.182	-17.1204	-13.7634	-14.267	-9.7351	48	283	182	13	1	2
-22.4915	-19.8059	-28.5339	-36.2549	-23.6664	-28.7018	-33.0658	-24.3378	-32.8979	-32.8979	-20.3094	-31.723	-35.4156	2.0142	-18.1274	-14.267	-15.1062	-10.5743	48	284	183	13	1	2
-22.8271	-20.3094	-29.0375	-36.9263	-24.1699	-29.7089	-33.7372	-25.177	-33.7372	-33.7372	-21.1487	-32.2266	-36.7584	1.8463	-19.1345	-14.9384	-15.7776	-11.4136	48	285	184	13	1	2
-22.8271	-20.6451	-29.2053	-37.262	-24.6735	-30.0446	-34.0729	-25.5127	-34.2407	-34.5764	-21.8201	-32.8979	-37.7655	1.8463	-19.9738	-15.4419	-16.6168	-12.085	48	286	185	13	1	2
-22.995	-20.9808	-29.7089	-37.5977	-25.3448	-30.7159	-34.5764	-26.1841	-34.9121	-35.4156	-22.8271	-33.4015	-38.9404	1.6785	-21.1487	-16.2811	-17.2882	-13.092	48	287	186	13	1	2
-22.995	-21.1487	-29.7089	-37.7655	-25.8484	-30.8838	-35.08	-26.6876	-35.08	-36.2549	-23.3307	-33.7372	-39.7797	1.6785	-21.8201	-16.9525	-17.7917	-13.9313	48	288	187	13	1	2
-22.995	-21.4844	-30.0446	-37.9333	-26.3519	-31.3873	-35.4156	-27.0233	-35.2478	-36.7584	-24.3378	-34.2407	-40.9546	1.5106	-22.8271	-17.7917	-18.631	-14.9384	48	289	188	13	1	2
-22.995	-21.6522	-29.8767	-37.7655	-26.5198	-31.3873	-35.4156	-27.5269	-35.4156	-37.0941	-24.6735	-34.2407	-41.626	1.5106	-23.6664	-18.2953	-18.9667	-15.7776	48	290	189	13	1	2
-22.6593	-21.8201	-29.8767	-37.5977	-26.8555	-31.2195	-35.2478	-27.5269	-35.2478	-37.5977	-25.3448	-34.2407	-42.2974	1.5106	-24.1699	-18.9667	-19.4702	-16.6168	48	291	190	13	1	2
-22.4915	-21.9879	-29.7089	-37.4298	-27.1912	-31.3873	-35.4156	-27.8625	-35.2478	-37.7655	-25.6805	-34.2407	-42.8009	1.3428	-25.0092	-19.6381	-19.8059	-17.6239	48	292	191	13	1	2
-21.9879	-21.9879	-29.3732	-37.0941	-27.0233	-30.8838	-34.9121	-27.8625	-34.7443	-37.7655	-26.0162	-34.0729	-43.1366	1.3428	-25.5127	-20.1416	-19.9738	-18.1274	48	293	192	13	1	2
-21.6522	-21.6522	-28.8696	-36.4227	-27.0233	-30.3802	-34.5764	-27.6947	-34.2407	-37.4298	-26.1841	-33.7372	-43.3044	1.3428	-25.8484	-20.813	-20.1416	-18.7988	48	294	193	13	1	2
-21.1487	-21.4844	-28.3661	-35.5835	-27.0233	-29.7089	-33.905	-27.5269	-33.5693	-37.0941	-26.1841	-33.0658	-43.3044	1.3428	-26.0162	-21.1487	-20.1416	-19.4702	48	295	194	13	1	2
-20.6451	-21.3165	-27.6947	-34.9121	-26.5198	-28.8696	-33.2336	-27.1912	-32.7301	-36.5906	-26.0162	-32.3944	-42.9688	1.3428	-26.1841	-21.4844	-20.1416	-19.9738	48	296	195	13	1	2
-19.9738	-20.9808	-26.8555	-33.905	-26.1841	-28.0304	-32.2266	-26.6876	-31.8909	-35.9192	-25.6805	-31.5552	-42.6331	1.3428	-26.1841	-21.8201	-19.8059	-20.4773	48	297	196	13	1	2
-19.4702	-20.4773	-26.0162	-32.8979	-25.6805	-27.0233	-31.2195	-26.1841	-30.7159	-35.08	-25.5127	-30.7159	-41.9617	1.3428	-26.0162	-21.9879	-19.6381	-20.813	48	298	197	13	1	2
-18.4631	-19.6381	-25.0092	-31.723	-24.8413	-25.6805	-29.8767	-25.3448	-29.3732	-33.7372	-24.8413	-29.3732	-41.1224	1.5106	-25.5127	-21.9879	-19.1345	-20.9808	48	299	198	13	1	2
-17.6239	-18.9667	-23.8342	-30.3802	-24.1699	-24.3378	-28.5339	-24.6735	-27.8625	-32.5623	-24.3378	-28.1982	-40.1154	1.5106	-25.177	-22.3236	-18.631	-21.1487	48	300	199	13	1	2
-16.449	-17.9596	-22.4915	-29.0375	-22.995	-22.995	-27.1912	-23.6664	-26.1841	-31.0516	-23.4985	-27.0233	-38.7726	1.6785	-24.5056	-22.1558	-17.9596	-21.1487	48	301	200	13	1	2
-15.6097	-16.9525	-21.3165	-27.6947	-21.9879	-21.4844	-25.5127	-22.6593	-24.6735	-29.541	-22.8271	-25.5127	-37.4298	1.6785	-24.0021	-22.1558	-17.2882	-21.1487	48	302	201	13	1	2
-14.6027	-15.9454	-19.9738	-26.0162	-20.6451	-19.8059	-23.6664	-21.3165	-22.8271	-27.8625	-21.8201	-23.8342	-35.7513	1.8463	-22.995	-21.8201	-16.449	-20.813	48	303	202	13	1	2
-13.4277	-14.7705	-18.631	-24.5056	-19.3024	-17.9596	-21.8201	-19.9738	-20.813	-25.8484	-20.6451	-22.1558	-33.905	2.0142	-22.1558	-21.4844	-15.4419	-20.4773	48	304	203	13	1	2
-12.4207	-13.4277	-17.1204	-22.8271	-17.9596	-16.1133	-19.8059	-18.631	-18.9667	-23.8342	-19.6381	-20.3094	-31.8909	2.182	-20.9808	-20.9808	-14.4348	-20.1416	48	305	204	13	1	2
-11.2457	-12.085	-15.6097	-21.1487	-16.449	-14.267	-17.7917	-17.1204	-16.7847	-21.6522	-18.4631	-18.2953	-29.7089	2.3499	-19.9738	-20.6451	-13.4277	-19.8059	48	306	205	13	1	2
-10.0708	-10.7422	-14.0991	-19.4702	-14.9384	-12.4207	-15.7776	-15.7776	-14.6027	-19.3024	-17.1204	-16.2811	-27.5269	2.5177	-18.631	-20.1416	-12.2528	-19.4702	48	307	206	13	1	2
-8.8959	-9.2316	-12.5885	-17.6239	-13.2599	-10.4065	-13.7634	-14.0991	-12.4207	-16.9525	-15.9454	-14.267	-25.3448	2.8534	-17.2882	-19.4702	-10.91	-18.7988	48	308	207	13	1	2
-7.5531	-7.5531	-10.7422	-15.7776	-11.4136	-8.2245	-11.4136	-12.4207	-9.903	-14.4348	-14.4348	-11.9171	-22.4915	3.0212	-15.4419	-18.7988	-9.3994	-18.1274	48	309	208	13	1	2
-6.546	-6.0425	-9.2316	-14.267	-9.5673	-6.3782	-9.2316	-10.7422	-7.7209	-11.9171	-13.2599	-9.7351	-19.9738	3.3569	-13.9313	-18.2953	-8.0566	-17.4561	48	310	209	13	1	2
-5.2032	-4.364	-7.5531	-12.2528	-7.7209	-4.1962	-6.8817	-8.8959	-5.2032	-9.2316	-11.7493	-7.2174	-17.1204	3.5248	-11.9171	-17.4561	-6.3782	-16.6168	48	311	210	13	1	2
-3.8605	-2.8534	-5.8746	-10.5743	-5.8746	-2.182	-4.8676	-7.2174	-3.0212	-6.7139	-10.4065	-5.0354	-14.267	3.8605	-10.0708	-16.7847	-5.0354	-15.9454	48	312	211	13	1	2
-2.5177	-1.1749	-4.1962	-8.728	-4.0283	-0.1678	-2.6855	-5.3711	-0.5035	-4.1962	-8.8959	-2.8534	-11.2457	4.0283	-8.0566	-15.9454	-3.3569	-14.9384	48	313	212	13	1	2
-1.1749	0.5035	-2.5177	-6.8817	-2.3499	1.8463	-0.5035	-3.6926	1.8463	-1.5106	-7.3853	-0.3357	-8.3923	4.364	-5.8746	-15.1062	-1.5106	-13.9313	48	314	213	13	1	2
-0.1678	1.6785	-1.1749	-5.2032	-0.6714	3.6926	1.5106	-2.182	3.8605	1.0071	-6.0425	1.6785	-5.5389	4.6997	-4.0283	-14.4348	0	-13.2599	48	315	214	13	1	2
1.1749	3.3569	0.5035	-3.6926	1.0071	5.5389	3.3569	-0.6714	5.8746	3.5248	-4.6997	4.0283	-2.6855	5.0354	-1.8463	-13.5956	1.6785	-12.2528	48	316	215	13	1	2
2.3499	4.8676	2.182	-2.0142	2.6855	7.3853	5.3711	0.6714	8.0566	6.0425	-3.3569	6.2103	0.1678	5.2032	0.3357	-12.7563	3.3569	-11.2457	48	317	216	13	1	2
3.3569	6.0425	3.3569	-0.5035	3.8605	9.0637	7.2174	2.0142	10.0708	8.2245	-2.182	8.2245	2.6855	5.5389	2.3499	-11.9171	4.8676	-10.4065	48	318	217	13	1	2
4.364	7.3853	4.8676	1.0071	5.2032	10.7422	8.8959	3.1891	11.9171	10.4065	-1.0071	10.2386	5.3711	5.8746	4.364	-11.2457	6.546	-9.5673	48	319	218	13	1	2
5.2032	8.2245	5.8746	2.3499	6.3782	11.9171	10.5743	4.364	13.2599	12.4207	0.1678	11.9171	7.8888	6.0425	6.546	-10.4065	7.8888	-8.5602	48	320	219	13	1	2
6.0425	9.2316	7.2174	3.5248	7.3853	13.2599	12.085	5.2032	14.7705	14.4348	1.0071	13.5956	10.2386	6.3782	8.2245	-9.903	9.3994	-7.7209	48	321	220	13	1	2
-1.1749	-5.2032	-1.0071	-4.5319	-5.5389	-3.3569	-9.3994	-7.0496	-7.2174	-14.4348	-9.903	-9.7351	-11.9171	-0.8392	-6.7139	-9.0637	-9.3994	-8.0566	48	261	160	14	1	2
-1.1749	-5.3711	-1.1749	-4.1962	-5.8746	-3.3569	-8.728	-7.5531	-7.0496	-13.5956	-10.2386	-9.3994	-11.0779	-0.8392	-6.546	-9.3994	-9.2316	-8.2245	48	262	161	14	1	2
-1.3428	-5.7068	-1.1749	-4.1962	-6.3782	-3.1891	-8.2245	-7.8888	-6.8817	-12.5885	-10.4065	-9.0637	-10.4065	-1.0071	-6.546	-9.7351	-9.3994	-8.3923	48	263	162	14	1	2
-1.1749	-5.7068	-1.0071	-4.1962	-6.546	-3.1891	-7.5531	-8.2245	-6.546	-11.5814	-10.5743	-8.728	-9.7351	-1.0071	-6.3782	-9.903	-9.2316	-8.5602	48	264	163	14	1	2
-1.1749	-5.8746	-1.0071	-4.0283	-6.8817	-3.1891	-7.0496	-8.5602	-6.3782	-10.5743	-10.7422	-8.3923	-9.0637	-1.0071	-6.2103	-10.0708	-9.0637	-8.728	48	265	164	14	1	2
-1.0071	-5.8746	-0.8392	-3.6926	-7.0496	-3.0212	-6.3782	-8.8959	-6.0425	-9.7351	-10.91	-8.0566	-8.3923	-1.0071	-6.2103	-10.4065	-8.8959	-8.8959	48	266	165	14	1	2
-0.8392	-5.8746	-0.8392	-3.3569	-7.2174	-3.0212	-5.7068	-9.2316	-5.8746	-8.8959	-11.0779	-7.8888	-7.7209	-1.0071	-6.0425	-10.5743	-8.8959	-8.8959	48	267	166	14	1	2
-0.6714	-5.7068	-0.8392	-3.1891	-7.3853	-3.0212	-5.0354	-9.5673	-5.7068	-8.2245	-11.4136	-7.7209	-7.2174	-1.0071	-6.0425	-10.91	-8.5602	-9.0637	48	268	167	14	1	2
-0.5035	-5.7068	-0.5035	-3.0212	-7.5531	-2.8534	-4.6997	-9.7351	-5.5389	-7.5531	-11.5814	-7.2174	-6.546	-1.0071	-6.0425	-11.2457	-8.5602	-9.2316	48	269	168	14	1	2
-0.3357	-5.5389	-0.1678	-3.0212	-7.5531	-2.6855	-4.364	-9.903	-5.0354	-7.0496	-11.5814	-6.8817	-6.2103	-1.1749	-6.2103	-11.4136	-8.728	-9.3994	48	270	169	14	1	2
0	-5.2032	0	-2.8534	-7.5531	-2.3499	-3.8605	-10.0708	-4.6997	-6.3782	-11.7493	-6.546	-5.7068	-1.1749	-6.2103	-11.5814	-8.8959	-9.5673	48	271	170	14	1	2
0.3357	-5.2032	0.1678	-2.5177	-7.7209	-2.0142	-3.5248	-10.4065	-4.364	-5.8746	-11.9171	-6.3782	-5.3711	-1.1749	-6.3782	-12.085	-8.8959	-9.903	48	272	171	14	1	2
0.6714	-4.6997	0.8392	-2.182	-7.7209	-1.6785	-2.8534	-10.4065	-4.0283	-5.3711	-11.9171	-5.8746	-5.0354	-1.1749	-6.3782	-12.2528	-8.8959	-10.0708	48	273	172	14	1	2
1.0071	-4.364	1.1749	-2.0142	-7.5531	-1.3428	-2.5177	-10.5743	-3.5248	-4.8676	-11.9171	-5.3711	-4.6997	-1.1749	-6.546	-12.5885	-9.0637	-10.2386	48	274	173	14	1	2
1.5106	-3.8605	1.6785	-1.6785	-7.3853	-0.8392	-2.182	-10.5743	-3.0212	-4.364	-11.9171	-5.0354	-4.364	-1.1749	-6.7139	-12.7563	-9.0637	-10.5743	48	275	174	14	1	2
2.0142	-3.1891	2.5177	-1.5106	-7.0496	0	-1.6785	-10.2386	-2.3499	-4.0283	-11.5814	-4.364	-4.0283	-1.1749	-6.8817	-12.7563	-9.2316	-10.5743	48	276	175	14	1	2
2.5177	-2.8534	2.8534	-1.1749	-6.7139	0.6714	-1.5106	-10.0708	-1.6785	-3.5248	-11.5814	-4.1962	-3.6926	-1.1749	-7.2174	-12.9242	-9.2316	-10.7422	48	277	176	14	1	2
3.1891	-2.182	3.6926	-0.8392	-6.3782	1.1749	-1.0071	-9.903	-1.0071	-3.0212	-11.4136	-3.6926	-3.5248	-1.1749	-7.3853	-13.092	-9.3994	-10.91	48	278	177	14	1	2
3.8605	-1.5106	4.5319	-0.1678	-5.8746	2.182	-0.3357	-9.7351	-0.3357	-2.3499	-11.2457	-3.0212	-3.0212	-1.0071	-7.3853	-13.092	-9.2316	-11.0779	48	279	178	14	1	2
4.5319	-1.0071	5.2032	0.1678	-5.5389	3.0212	0	-9.5673	0.5035	-1.8463	-11.0779	-2.6855	-2.8534	-1.0071	-7.5531	-13.092	-9.3994	-11.2457	48	280	179	14	1	2
5.2032	-0.1678	6.0425	0.6714	-4.8676	3.6926	0.5035	-8.8959	1.3428	-1.5106	-10.7422	-2.182	-2.6855	-1.0071	-7.8888	-13.092	-9.5673	-11.2457	48	281	180	14	1	2
5.7068	0.5035	6.546	1.0071	-4.5319	4.6997	1.0071	-8.5602	1.8463	-1.1749	-10.5743	-1.8463	-2.5177	-1.0071	-8.0566	-13.092	-9.5673	-11.4136	48	282	181	14	1	2
6.546	1.0071	7.3853	1.6785	-3.8605	5.5389	1.5106	-8.3923	2.8534	-0.6714	-10.4065	-1.3428	-2.182	-0.8392	-8.0566	-13.092	-9.3994	-11.4136	48	283	182	14	1	2
7.0496	1.8463	8.2245	2.182	-3.3569	6.3782	2.0142	-7.7209	3.5248	-0.1678	-10.2386	-1.0071	-2.182	-0.8392	-8.2245	-12.9242	-9.5673	-11.5814	48	284	183	14	1	2
7.7209	2.3499	8.8959	2.5177	-2.6855	7.0496	2.3499	-7.5531	4.0283	0.1678	-10.0708	-0.8392	-2.0142	-0.8392	-8.3923	-12.9242	-9.5673	-11.5814	48	285	184	14	1	2
8.2245	3.1891	9.5673	3.1891	-2.182	8.0566	3.0212	-7.0496	4.8676	0.5035	-9.7351	-0.3357	-1.6785	-0.6714	-8.5602	-12.7563	-9.3994	-11.5814	48	286	185	14	1	2
8.728	3.6926	10.4065	3.5248	-1.6785	8.5602	3.1891	-6.546	5.3711	1.0071	-9.5673	0	-1.6785	-0.6714	-8.5602	-12.5885	-9.3994	-11.5814	48	287	186	14	1	2
9.0637	4.1962	10.5743	3.8605	-1.0071	9.0637	3.5248	-6.2103	5.8746	1.1749	-9.3994	0	-1.8463	-0.8392	-8.8959	-12.2528	-9.7351	-11.4136	48	288	187	14	1	2
9.3994	4.5319	11.2457	4.0283	-0.5035	9.5673	3.8605	-5.7068	6.3782	1.5106	-9.0637	0.1678	-1.6785	-0.8392	-8.8959	-11.9171	-9.5673	-11.2457	48	289	188	14	1	2
9.7351	5.0354	11.7493	4.5319	0.1678	10.2386	4.1962	-5.3711	6.8817	1.8463	-8.8959	0.3357	-1.5106	-0.8392	-8.8959	-11.5814	-9.5673	-11.2457	48	290	189	14	1	2
9.903	5.7068	12.2528	5.0354	0.6714	10.5743	4.5319	-4.5319	7.3853	2.182	-8.5602	0.8392	-1.5106	-0.8392	-8.8959	-11.0779	-9.3994	-10.91	48	291	190	14	1	2
10.0708	5.8746	12.4207	5.0354	1.0071	10.91	4.5319	-4.0283	7.7209	2.3499	-8.0566	0.8392	-1.3428	-1.0071	-9.0637	-10.5743	-9.3994	-10.5743	48	292	191	14	1	2
10.2386	6.3782	12.7563	5.3711	1.3428	11.2457	5.0354	-3.5248	8.0566	2.6855	-7.5531	1.0071	-1.1749	-1.0071	-8.8959	-9.903	-9.2316	-10.0708	48	293	192	14	1	2
10.4065	6.546	13.092	5.5389	2.0142	11.2457	5.2032	-2.8534	8.3923	3.0212	-7.2174	1.1749	-1.0071	-1.0071	-8.5602	-9.3994	-9.0637	-9.903	48	294	193	14	1	2
10.2386	6.7139	13.092	5.7068	2.182	11.4136	5.5389	-2.3499	8.728	3.1891	-6.546	1.3428	-1.0071	-1.1749	-8.5602	-8.728	-9.0637	-9.2316	48	295	194	14	1	2
10.4065	6.8817	13.092	6.0425	2.6855	11.4136	5.7068	-1.6785	8.8959	3.5248	-6.2103	1.5106	-0.6714	-1.1749	-8.2245	-7.8888	-8.728	-8.728	48	296	195	14	1	2
10.2386	6.8817	13.092	5.8746	2.8534	11.4136	5.7068	-1.1749	8.8959	3.6926	-5.7068	1.5106	-0.6714	-1.3428	-8.2245	-7.2174	-8.728	-8.2245	48	297	196	14	1	2
10.0708	6.8817	13.092	6.0425	3.1891	11.4136	6.0425	-0.5035	9.0637	3.8605	-5.2032	1.6785	-0.5035	-1.3428	-7.8888	-6.546	-8.3923	-7.7209	48	298	197	14	1	2
9.903	6.8817	12.7563	6.0425	3.5248	11.0779	6.0425	0	9.0637	3.8605	-4.6997	1.6785	-0.6714	-1.5106	-7.7209	-5.7068	-8.3923	-6.8817	48	299	198	14	1	2
9.5673	6.7139	12.5885	6.0425	3.6926	10.7422	6.0425	0.5035	8.8959	3.8605	-4.364	1.6785	-0.6714	-1.6785	-7.5531	-5.0354	-8.2245	-6.3782	48	300	199	14	1	2
9.3994	6.7139	12.2528	6.0425	3.8605	10.4065	6.0425	1.0071	8.8959	3.8605	-4.0283	1.6785	-0.6714	-1.8463	-7.3853	-4.1962	-8.2245	-5.7068	48	301	200	14	1	2
8.8959	6.3782	11.9171	6.0425	4.0283	10.0708	6.0425	1.3428	8.728	3.8605	-3.5248	1.5106	-0.8392	-2.0142	-7.3853	-3.5248	-8.0566	-5.0354	48	302	201	14	1	2
8.5602	6.2103	11.7493	5.8746	4.1962	9.7351	6.0425	1.8463	8.3923	3.6926	-3.0212	1.5106	-0.8392	-2.182	-7.0496	-2.8534	-7.8888	-4.1962	48	303	202	14	1	2
8.0566	6.0425	11.0779	5.7068	4.1962	9.0637	5.7068	2.0142	8.0566	3.5248	-2.6855	1.3428	-1.0071	-2.5177	-7.0496	-2.182	-7.8888	-3.6926	48	304	203	14	1	2
7.5531	5.7068	10.7422	5.5389	4.364	8.728	5.7068	2.5177	7.8888	3.1891	-2.182	1.3428	-1.1749	-2.6855	-6.8817	-1.6785	-8.0566	-2.8534	48	305	204	14	1	2
7.2174	5.3711	10.2386	5.3711	4.364	8.2245	5.3711	2.8534	7.3853	3.0212	-2.0142	1.0071	-1.5106	-3.0212	-6.8817	-1.0071	-8.0566	-2.5177	48	306	205	14	1	2
6.8817	5.3711	9.903	5.3711	4.5319	7.7209	5.3711	3.0212	7.2174	2.6855	-1.5106	0.8392	-1.5106	-3.1891	-6.546	-0.3357	-7.8888	-1.6785	48	307	206	14	1	2
6.2103	5.0354	9.3994	5.0354	4.364	7.0496	5.0354	3.3569	6.7139	2.3499	-1.1749	0.6714	-1.6785	-3.5248	-6.7139	0	-8.0566	-1.1749	48	308	207	14	1	2
5.7068	4.6997	8.8959	4.8676	4.364	6.7139	4.8676	3.5248	6.3782	2.0142	-0.8392	0.5035	-2.0142	-3.6926	-6.546	0.6714	-8.0566	-0.5035	48	309	208	14	1	2
5.3711	4.5319	8.5602	4.6997	4.364	6.2103	4.6997	3.6926	6.0425	1.8463	-0.3357	0.5035	-2.0142	-3.8605	-6.2103	1.0071	-8.0566	0.1678	48	310	209	14	1	2
5.0354	4.1962	8.0566	4.5319	4.5319	5.5389	4.364	4.0283	5.7068	1.5106	0	0.1678	-2.182	-4.0283	-6.2103	1.6785	-8.2245	0.8392	48	311	210	14	1	2
4.6997	3.8605	7.7209	4.364	4.5319	5.2032	4.0283	4.1962	5.2032	1.1749	0.3357	0	-2.3499	-4.1962	-6.0425	2.0142	-8.2245	1.3428	48	312	211	14	1	2
4.5319	3.6926	7.3853	4.1962	4.5319	4.8676	3.6926	4.5319	5.0354	0.8392	0.8392	0	-2.5177	-4.1962	-5.7068	2.5177	-8.0566	2.0142	48	313	212	14	1	2
4.0283	3.5248	7.0496	4.0283	4.364	4.364	3.5248	4.6997	4.5319	0.5035	1.3428	-0.1678	-2.5177	-4.1962	-5.5389	2.8534	-8.0566	2.5177	48	314	213	14	1	2
4.0283	3.5248	6.8817	4.0283	4.6997	4.1962	3.3569	5.0354	4.364	0.3357	1.6785	0	-2.6855	-4.0283	-5.2032	3.3569	-7.8888	3.3569	48	315	214	14	1	2
3.8605	3.3569	6.546	3.8605	4.5319	3.8605	3.0212	5.0354	3.8605	0	2.182	-0.3357	-2.6855	-3.8605	-5.0354	3.8605	-7.8888	3.8605	48	316	215	14	1	2
3.5248	3.0212	6.3782	3.6926	4.5319	3.3569	2.6855	5.2032	3.5248	-0.3357	2.5177	-0.5035	-2.8534	-3.6926	-4.8676	3.8605	-7.8888	4.364	48	317	216	14	1	2
3.5248	3.0212	6.0425	3.5248	4.364	3.0212	2.3499	5.3711	3.0212	-0.6714	2.8534	-0.5035	-2.8534	-3.3569	-4.5319	4.1962	-7.7209	4.6997	48	318	217	14	1	2
3.1891	2.8534	5.8746	3.3569	4.364	2.8534	1.8463	5.2032	2.5177	-1.1749	3.0212	-0.6714	-3.1891	-3.0212	-4.364	4.1962	-7.5531	5.0354	48	319	218	14	1	2
3.1891	2.5177	5.7068	3.1891	4.1962	2.5177	1.3428	5.3711	2.0142	-1.6785	3.3569	-1.0071	-3.3569	-2.6855	-4.1962	4.364	-7.5531	5.3711	48	320	219	14	1	2
3.1891	2.8534	5.7068	3.1891	4.1962	2.3499	1.0071	5.3711	1.8463	-1.8463	3.6926	-0.6714	-3.1891	-2.182	-3.6926	4.5319	-7.2174	5.7068	48	321	220	14	1	2
-2.6855	-3.6926	-5.3711	-7.8888	-1.6785	-6.2103	-11.5814	-1.8463	-9.2316	-11.9171	-4.5319	-9.2316	-9.3994	-0.5035	-5.8746	-4.364	-5.2032	-2.8534	48	261	160	15	1	2
-3.1891	-4.5319	-6.0425	-8.3923	-2.8534	-6.8817	-11.7493	-2.6855	-9.5673	-11.9171	-5.5389	-9.7351	-9.903	-0.5035	-6.3782	-5.2032	-5.2032	-3.6926	48	262	161	15	1	2
-3.8605	-5.2032	-6.7139	-8.8959	-3.6926	-7.3853	-11.7493	-3.6926	-10.2386	-12.085	-6.2103	-10.0708	-10.0708	-0.5035	-6.8817	-6.0425	-5.0354	-4.6997	48	263	162	15	1	2
-4.6997	-5.8746	-7.3853	-9.5673	-4.6997	-7.8888	-11.9171	-4.5319	-10.4065	-12.085	-7.2174	-10.5743	-10.2386	-0.5035	-7.2174	-7.0496	-5.2032	-5.3711	48	264	163	15	1	2
-5.2032	-6.7139	-8.0566	-9.903	-5.7068	-8.3923	-11.9171	-5.5389	-10.91	-11.9171	-7.8888	-10.7422	-10.5743	-0.5035	-7.3853	-7.7209	-5.2032	-6.2103	48	265	164	15	1	2
-5.8746	-7.2174	-8.3923	-10.2386	-6.3782	-8.5602	-11.7493	-6.3782	-11.0779	-11.7493	-8.3923	-10.91	-10.5743	-0.3357	-7.7209	-8.5602	-5.0354	-6.7139	48	266	165	15	1	2
-6.3782	-7.8888	-8.8959	-10.5743	-7.0496	-8.8959	-11.7493	-7.2174	-11.2457	-11.5814	-9.2316	-11.0779	-10.91	-0.3357	-7.8888	-9.2316	-5.0354	-7.3853	48	267	166	15	1	2
-6.8817	-8.2245	-9.2316	-10.91	-7.7209	-9.0637	-11.5814	-7.8888	-11.2457	-11.4136	-9.5673	-11.2457	-10.7422	-0.1678	-7.8888	-9.903	-4.8676	-8.0566	48	268	167	15	1	2
-7.3853	-8.8959	-9.7351	-11.0779	-8.3923	-9.2316	-11.5814	-8.5602	-11.4136	-11.2457	-10.4065	-11.4136	-10.91	-0.1678	-8.0566	-10.5743	-4.8676	-8.5602	48	269	168	15	1	2
-7.7209	-9.2316	-9.7351	-11.2457	-8.8959	-9.2316	-11.0779	-9.2316	-11.4136	-10.91	-10.7422	-11.2457	-10.7422	0	-8.2245	-11.2457	-4.6997	-8.8959	48	270	169	15	1	2
-7.7209	-9.3994	-9.903	-11.0779	-9.3994	-9.0637	-10.91	-9.7351	-11.0779	-10.4065	-10.91	-11.2457	-10.5743	0.1678	-8.0566	-11.7493	-4.364	-9.3994	48	271	170	15	1	2
-8.2245	-9.7351	-9.903	-11.0779	-9.903	-9.2316	-10.5743	-10.2386	-11.0779	-10.0708	-11.5814	-11.2457	-10.5743	0.1678	-8.2245	-12.4207	-4.1962	-9.903	48	272	171	15	1	2
-8.2245	-9.903	-9.903	-10.91	-10.0708	-8.8959	-10.2386	-10.5743	-10.7422	-9.5673	-11.7493	-11.0779	-10.2386	0.3357	-8.0566	-12.9242	-4.0283	-10.0708	48	273	172	15	1	2
-8.2245	-10.0708	-9.5673	-10.5743	-10.4065	-8.2245	-9.7351	-10.91	-10.2386	-9.0637	-11.5814	-10.7422	-9.7351	0.5035	-7.8888	-13.2599	-3.6926	-10.4065	48	274	173	15	1	2
-7.8888	-9.903	-9.3994	-10.2386	-10.5743	-7.8888	-9.2316	-11.0779	-9.903	-8.3923	-11.7493	-10.2386	-9.3994	0.6714	-7.7209	-13.7634	-3.3569	-10.4065	48	275	174	15	1	2
-7.5531	-9.903	-8.8959	-9.5673	-10.5743	-7.3853	-8.3923	-11.2457	-9.3994	-7.7209	-11.7493	-9.903	-8.8959	0.8392	-7.3853	-14.267	-3.1891	-10.5743	48	276	175	15	1	2
-7.2174	-9.7351	-8.3923	-9.0637	-10.7422	-6.546	-7.8888	-11.2457	-8.728	-6.8817	-11.7493	-9.5673	-8.3923	1.0071	-6.8817	-14.4348	-2.6855	-10.7422	48	277	176	15	1	2
-6.8817	-9.5673	-7.7209	-8.2245	-10.5743	-6.0425	-7.0496	-11.4136	-8.2245	-6.2103	-11.4136	-9.0637	-7.7209	1.1749	-6.546	-14.7705	-2.3499	-11.0779	48	278	177	15	1	2
-6.3782	-9.3994	-7.0496	-7.3853	-10.5743	-5.2032	-6.3782	-11.2457	-7.5531	-5.3711	-11.4136	-8.5602	-7.0496	1.3428	-6.0425	-15.274	-2.0142	-11.0779	48	279	178	15	1	2
