"FZ"	"FC3"	"FCZ"	"FC4"	"C3"	"CZ"	"C4"	"CP3"	"CPZ"	"CP4"	"P3"	"PZ"	"P4"	"OZ"	"P8"	"TP7"	"TP8"	"P7"	"Subject"	"Points"	"Time"	"Trial"	"Rejected"	"Correct"
-5.7068	-3.1891	-3.1891	-4.5319	1.1749	-6.546	-4.0283	0.1678	-2.182	-0.6714	-0.5035	-4.8676	-0.6714	-3.6926	-2.6855	4.6997	1.0071	5.0354	53	261	160	1	1	2
-5.7068	-3.1891	-3.3569	-4.6997	1.1749	-6.7139	-4.1962	0.1678	-2.3499	-0.8392	-0.5035	-4.8676	-0.8392	-3.8605	-3.0212	4.8676	0.8392	5.0354	53	262	161	1	1	2
-5.5389	-3.1891	-3.5248	-4.8676	1.1749	-6.8817	-4.364	0.1678	-2.5177	-1.0071	-0.5035	-5.0354	-1.0071	-3.8605	-3.3569	5.0354	0.5035	5.0354	53	263	162	1	1	2
-5.7068	-3.1891	-3.6926	-5.2032	1.0071	-7.0496	-4.5319	0	-2.6855	-1.3428	-0.6714	-5.2032	-1.3428	-4.0283	-3.6926	5.2032	0.1678	4.8676	53	264	163	1	1	2
-5.8746	-3.3569	-4.0283	-5.5389	0.8392	-7.3853	-4.8676	-0.1678	-2.8534	-1.6785	-0.8392	-5.3711	-1.5106	-4.1962	-4.0283	5.2032	-0.1678	4.5319	53	265	164	1	1	2
-6.0425	-3.5248	-4.0283	-5.5389	0.8392	-7.5531	-4.8676	-0.1678	-3.0212	-1.6785	-1.0071	-5.3711	-1.6785	-4.364	-4.0283	5.2032	-0.1678	4.1962	53	266	165	1	1	2
-6.2103	-3.6926	-4.364	-5.8746	0.8392	-7.7209	-5.2032	-0.5035	-3.3569	-2.0142	-1.3428	-5.7068	-2.0142	-4.364	-4.364	5.3711	-0.5035	3.5248	53	267	166	1	1	2
-6.3782	-3.8605	-4.5319	-6.2103	0.6714	-7.7209	-5.2032	-0.8392	-3.5248	-2.182	-1.6785	-5.8746	-2.182	-4.5319	-4.364	5.2032	-0.6714	2.8534	53	268	167	1	1	2
-6.546	-4.0283	-4.6997	-6.3782	0.3357	-8.0566	-5.2032	-1.0071	-3.6926	-2.3499	-2.0142	-6.0425	-2.3499	-4.5319	-4.364	5.0354	-0.6714	2.5177	53	269	168	1	1	2
-6.7139	-4.1962	-5.0354	-6.546	0.1678	-8.2245	-5.3711	-1.3428	-3.8605	-2.5177	-2.3499	-6.3782	-2.5177	-4.5319	-4.5319	4.8676	-0.8392	1.8463	53	270	169	1	1	2
-6.546	-4.1962	-5.2032	-6.546	-0.1678	-8.3923	-5.5389	-1.6785	-4.1962	-2.6855	-2.8534	-6.7139	-2.6855	-4.364	-4.5319	4.6997	-0.8392	1.1749	53	271	170	1	1	2
-6.7139	-4.5319	-5.3711	-6.546	-0.3357	-8.5602	-5.5389	-2.0142	-4.364	-2.6855	-3.3569	-6.8817	-2.8534	-4.364	-4.1962	4.5319	-0.8392	0.5035	53	272	171	1	1	2
-6.8817	-4.5319	-5.3711	-6.7139	-0.5035	-8.5602	-5.5389	-2.182	-4.364	-2.6855	-3.6926	-7.0496	-2.8534	-4.1962	-4.0283	4.364	-0.6714	0	53	273	172	1	1	2
-6.8817	-4.6997	-5.5389	-6.8817	-1.0071	-8.8959	-5.7068	-2.3499	-4.6997	-2.8534	-3.6926	-7.3853	-3.0212	-4.0283	-3.8605	4.0283	-0.6714	-0.5035	53	274	173	1	1	2
-7.0496	-4.8676	-5.5389	-6.7139	-0.8392	-8.728	-5.3711	-2.3499	-4.5319	-2.6855	-3.8605	-7.0496	-2.6855	-3.8605	-3.5248	4.1962	-0.1678	-0.6714	53	275	174	1	1	2
-7.0496	-4.8676	-5.5389	-6.7139	-1.0071	-8.728	-5.3711	-2.3499	-4.5319	-2.5177	-3.8605	-7.2174	-2.6855	-3.6926	-3.1891	4.1962	0	-0.8392	53	276	175	1	1	2
-6.8817	-4.8676	-5.5389	-6.7139	-1.0071	-8.728	-5.2032	-2.182	-4.364	-2.3499	-3.8605	-7.2174	-2.5177	-3.5248	-3.0212	4.1962	0.1678	-0.6714	53	277	176	1	1	2
-6.8817	-4.8676	-5.3711	-6.8817	-1.3428	-8.8959	-5.3711	-2.0142	-4.5319	-2.3499	-3.8605	-7.3853	-2.6855	-3.3569	-2.8534	4.1962	0.1678	-0.5035	53	278	177	1	1	2
-6.8817	-4.8676	-5.2032	-6.7139	-1.3428	-8.728	-5.3711	-1.8463	-4.5319	-2.3499	-3.6926	-7.2174	-2.5177	-3.1891	-2.6855	4.364	0.3357	-0.3357	53	279	178	1	1	2
-6.8817	-4.8676	-5.2032	-6.7139	-1.3428	-8.728	-5.2032	-1.6785	-4.5319	-2.182	-3.5248	-7.2174	-2.5177	-3.0212	-2.5177	4.364	0.3357	0	53	280	179	1	1	2
-6.8817	-4.8676	-5.0354	-6.7139	-1.3428	-8.728	-5.2032	-1.6785	-4.5319	-2.182	-3.3569	-7.2174	-2.3499	-2.8534	-2.182	4.5319	0.5035	0.1678	53	281	180	1	1	2
-7.0496	-5.0354	-4.8676	-6.7139	-1.3428	-8.728	-5.2032	-1.6785	-4.5319	-2.182	-3.5248	-7.2174	-2.3499	-2.8534	-2.0142	4.5319	0.6714	0.1678	53	282	181	1	1	2
-7.2174	-5.0354	-4.8676	-6.7139	-1.3428	-8.728	-5.0354	-1.8463	-4.8676	-2.3499	-3.5248	-7.2174	-2.3499	-2.6855	-1.8463	4.5319	0.6714	0.1678	53	283	182	1	1	2
-7.2174	-5.0354	-4.8676	-6.7139	-1.5106	-8.728	-5.2032	-2.0142	-5.0354	-2.5177	-3.5248	-7.3853	-2.3499	-2.5177	-1.6785	4.1962	0.6714	0.1678	53	284	183	1	1	2
-7.2174	-5.0354	-4.8676	-6.7139	-1.5106	-8.728	-5.2032	-2.0142	-5.2032	-2.5177	-3.5248	-7.5531	-2.5177	-2.3499	-1.5106	4.0283	0.6714	0	53	285	184	1	1	2
-7.2174	-5.2032	-4.6997	-6.7139	-1.6785	-8.728	-5.0354	-2.3499	-5.3711	-2.5177	-3.8605	-7.8888	-2.5177	-2.3499	-1.3428	3.8605	0.8392	-0.3357	53	286	185	1	1	2
-7.2174	-5.2032	-4.6997	-6.546	-1.6785	-8.728	-5.0354	-2.3499	-5.3711	-2.5177	-4.0283	-7.8888	-2.3499	-2.182	-1.0071	3.6926	0.8392	-0.5035	53	287	186	1	1	2
-7.0496	-5.2032	-4.6997	-6.7139	-1.8463	-8.8959	-5.0354	-2.5177	-5.7068	-2.6855	-4.364	-7.8888	-2.5177	-2.0142	-1.0071	3.3569	0.8392	-0.8392	53	288	187	1	1	2
-7.0496	-5.3711	-4.6997	-6.546	-1.8463	-8.8959	-5.0354	-2.8534	-5.8746	-2.6855	-4.6997	-8.2245	-2.5177	-2.0142	-0.8392	3.1891	1.0071	-1.1749	53	289	188	1	1	2
-6.8817	-5.3711	-4.6997	-6.546	-2.0142	-9.0637	-5.0354	-3.0212	-6.0425	-2.8534	-4.8676	-8.3923	-2.6855	-1.8463	-0.8392	3.0212	1.0071	-1.3428	53	290	189	1	1	2
-6.7139	-5.3711	-4.8676	-6.546	-2.3499	-9.2316	-5.2032	-3.3569	-6.546	-3.1891	-5.0354	-8.5602	-3.0212	-1.6785	-1.0071	2.5177	0.8392	-1.6785	53	291	190	1	1	2
-6.8817	-5.5389	-4.8676	-6.546	-2.6855	-9.3994	-5.2032	-3.8605	-6.7139	-3.5248	-5.5389	-9.0637	-3.1891	-1.6785	-1.1749	2.3499	0.8392	-2.0142	53	292	191	1	1	2
-6.7139	-5.7068	-5.2032	-6.7139	-2.8534	-9.903	-5.3711	-4.1962	-7.2174	-4.0283	-5.8746	-9.2316	-3.5248	-1.5106	-1.6785	2.0142	0.6714	-2.182	53	293	192	1	1	2
-6.7139	-5.8746	-5.7068	-6.7139	-3.1891	-10.0708	-5.5389	-4.6997	-7.7209	-4.364	-6.3782	-9.903	-3.8605	-1.5106	-2.0142	1.6785	0.6714	-2.5177	53	294	193	1	1	2
-6.546	-6.0425	-5.8746	-6.7139	-3.5248	-10.4065	-5.5389	-5.0354	-7.8888	-4.5319	-6.8817	-10.4065	-4.1962	-1.3428	-2.5177	1.5106	0.5035	-2.8534	53	295	194	1	1	2
-6.3782	-6.2103	-6.2103	-6.8817	-3.6926	-10.91	-5.8746	-5.3711	-8.3923	-5.0354	-7.2174	-10.7422	-4.8676	-1.1749	-3.0212	1.0071	0.1678	-3.0212	53	296	195	1	1	2
-6.7139	-6.546	-6.546	-7.0496	-4.1962	-11.2457	-6.0425	-6.0425	-9.0637	-5.5389	-7.7209	-11.2457	-5.2032	-1.1749	-3.5248	0.8392	0	-3.3569	53	297	196	1	1	2
-6.546	-6.7139	-6.8817	-7.2174	-4.364	-11.7493	-6.2103	-6.3782	-9.3994	-5.8746	-7.8888	-11.5814	-5.5389	-1.0071	-4.0283	0.5035	-0.3357	-3.3569	53	298	197	1	1	2
-6.546	-6.8817	-7.0496	-7.0496	-4.5319	-12.085	-6.2103	-6.7139	-9.7351	-6.0425	-8.0566	-11.9171	-5.8746	-0.8392	-4.1962	0.5035	-0.6714	-3.1891	53	299	198	1	1	2
-6.546	-7.0496	-7.3853	-7.0496	-4.6997	-12.2528	-6.2103	-6.8817	-9.903	-6.0425	-8.2245	-12.085	-6.0425	-0.6714	-4.5319	0.5035	-0.6714	-3.1891	53	300	199	1	1	2
-6.546	-7.2174	-7.3853	-7.0496	-4.6997	-12.4207	-6.2103	-7.0496	-9.903	-6.0425	-8.2245	-12.085	-6.0425	-0.5035	-4.5319	0.5035	-0.8392	-3.0212	53	301	200	1	1	2
-6.3782	-7.2174	-7.5531	-7.2174	-4.6997	-12.5885	-6.2103	-7.0496	-10.0708	-6.2103	-8.0566	-12.085	-6.0425	-0.5035	-4.8676	0.3357	-1.0071	-2.8534	53	302	201	1	1	2
-6.546	-7.3853	-7.7209	-7.2174	-4.8676	-12.7563	-6.2103	-7.2174	-10.0708	-6.0425	-8.0566	-12.085	-5.8746	-0.3357	-4.8676	0.3357	-1.0071	-2.8534	53	303	202	1	1	2
-6.3782	-7.3853	-7.8888	-7.3853	-4.6997	-13.092	-6.2103	-7.0496	-10.2386	-6.2103	-7.7209	-11.9171	-5.8746	-0.3357	-5.0354	0.3357	-1.1749	-2.6855	53	304	203	1	1	2
-6.546	-7.5531	-8.0566	-7.3853	-4.8676	-13.092	-6.0425	-7.2174	-10.2386	-6.0425	-7.7209	-12.085	-5.7068	-0.1678	-5.0354	0.3357	-1.1749	-2.6855	53	305	204	1	1	2
-6.546	-7.5531	-8.2245	-7.5531	-4.6997	-13.4277	-6.2103	-7.2174	-10.4065	-6.2103	-7.7209	-11.7493	-5.5389	-0.1678	-5.0354	0.1678	-1.1749	-2.6855	53	306	205	1	1	2
-6.7139	-7.7209	-8.3923	-7.5531	-4.8676	-13.4277	-6.2103	-7.3853	-10.4065	-6.0425	-7.8888	-11.9171	-5.3711	0	-5.0354	0.1678	-1.1749	-2.8534	53	307	206	1	1	2
-6.8817	-7.8888	-8.728	-7.7209	-4.8676	-13.5956	-6.2103	-7.3853	-10.5743	-6.0425	-7.8888	-12.085	-5.3711	0	-5.0354	0	-1.5106	-3.1891	53	308	207	1	1	2
-7.2174	-8.0566	-8.8959	-8.0566	-4.8676	-13.9313	-6.3782	-7.3853	-10.7422	-6.0425	-8.2245	-12.085	-5.3711	0	-5.0354	-0.1678	-1.6785	-3.3569	53	309	208	1	1	2
-7.5531	-8.2245	-9.2316	-8.3923	-4.8676	-14.0991	-6.546	-7.3853	-10.7422	-6.0425	-8.2245	-12.085	-5.2032	0	-5.2032	-0.3357	-1.8463	-3.3569	53	310	209	1	1	2
-7.7209	-8.5602	-9.5673	-8.728	-4.8676	-14.0991	-6.8817	-7.3853	-10.7422	-6.0425	-8.2245	-12.085	-5.2032	0	-5.3711	-0.3357	-2.0142	-3.6926	53	311	210	1	1	2
-8.2245	-8.5602	-9.903	-9.0637	-5.0354	-14.7705	-7.3853	-7.3853	-11.0779	-6.2103	-8.2245	-12.085	-5.3711	-0.1678	-5.7068	-0.8392	-2.3499	-3.6926	53	312	211	1	1	2
-8.728	-8.8959	-10.0708	-9.5673	-5.2032	-14.9384	-7.7209	-7.5531	-11.2457	-6.546	-8.2245	-12.085	-5.3711	-0.1678	-5.8746	-0.8392	-2.6855	-3.8605	53	313	212	1	1	2
-9.3994	-9.2316	-10.5743	-10.2386	-5.3711	-15.1062	-8.2245	-7.7209	-11.4136	-6.7139	-8.5602	-12.5885	-5.7068	-0.1678	-6.0425	-0.8392	-3.0212	-4.1962	53	314	213	1	1	2
-10.0708	-9.7351	-11.0779	-10.7422	-5.7068	-15.6097	-8.728	-7.8888	-11.7493	-7.2174	-9.0637	-12.9242	-6.0425	-0.3357	-6.546	-1.1749	-3.5248	-4.5319	53	315	214	1	1	2
-10.5743	-10.0708	-11.7493	-11.5814	-6.0425	-16.1133	-9.2316	-8.0566	-12.2528	-7.7209	-9.3994	-13.2599	-6.546	-0.5035	-7.2174	-1.3428	-4.0283	-4.8676	53	316	215	1	1	2
-11.2457	-10.4065	-11.9171	-12.2528	-6.2103	-16.7847	-10.0708	-8.3923	-12.5885	-8.2245	-9.5673	-13.4277	-6.8817	-0.6714	-7.7209	-1.6785	-4.364	-5.0354	53	317	216	1	1	2
-11.7493	-10.5743	-12.4207	-12.9242	-6.546	-16.9525	-10.4065	-8.5602	-12.7563	-8.5602	-9.7351	-13.7634	-7.3853	-0.6714	-8.0566	-1.8463	-4.6997	-5.3711	53	318	217	1	1	2
-12.4207	-11.0779	-12.9242	-13.4277	-6.8817	-17.2882	-10.91	-8.8959	-13.092	-8.8959	-10.0708	-14.0991	-7.5531	-0.6714	-8.3923	-2.0142	-5.0354	-5.7068	53	319	218	1	1	2
-13.092	-11.2457	-13.2599	-13.9313	-7.2174	-17.6239	-11.4136	-8.8959	-13.2599	-9.2316	-10.2386	-14.267	-7.8888	-0.6714	-8.728	-2.182	-5.3711	-5.8746	53	320	219	1	1	2
-13.4277	-11.4136	-13.5956	-14.4348	-7.3853	-17.9596	-11.9171	-9.0637	-13.4277	-9.5673	-10.4065	-14.4348	-8.0566	-0.6714	-8.8959	-2.3499	-5.5389	-6.0425	53	321	220	1	1	2
-6.0425	-4.6997	-8.5602	0.3357	-3.8605	6.0425	2.8534	-5.2032	3.5248	3.5248	-4.5319	1.8463	-0.6714	5.5389	-2.5177	-5.3711	-1.3428	-9.5673	53	261	160	2	1	2
-6.3782	-5.0354	-8.8959	0	-4.0283	5.8746	2.6855	-5.5389	3.1891	3.5248	-4.6997	1.6785	-0.6714	5.5389	-2.6855	-5.3711	-1.5106	-9.3994	53	262	161	2	1	2
-6.7139	-5.3711	-9.2316	-0.1678	-4.1962	5.5389	2.182	-5.5389	3.0212	3.1891	-4.8676	1.6785	-1.0071	5.7068	-2.3499	-5.0354	-1.5106	-9.2316	53	263	162	2	1	2
-7.0496	-5.5389	-9.3994	-0.6714	-4.5319	5.3711	2.0142	-5.8746	2.8534	3.0212	-5.0354	1.5106	-1.1749	5.7068	-2.3499	-5.0354	-1.5106	-9.2316	53	264	163	2	1	2
-7.3853	-5.7068	-9.7351	-0.8392	-4.5319	5.2032	1.6785	-6.0425	2.6855	3.0212	-5.0354	1.3428	-1.1749	5.7068	-2.5177	-5.0354	-1.6785	-9.3994	53	265	164	2	1	2
-7.3853	-5.8746	-9.903	-0.8392	-4.6997	5.3711	1.6785	-5.8746	2.6855	3.0212	-5.0354	1.5106	-1.1749	5.7068	-2.5177	-5.2032	-1.6785	-9.5673	53	266	165	2	1	2
-7.5531	-6.0425	-10.0708	-1.1749	-4.6997	5.2032	1.3428	-6.0425	2.5177	3.0212	-5.2032	1.3428	-1.3428	5.7068	-2.3499	-5.2032	-1.5106	-9.5673	53	267	166	2	1	2
-7.7209	-6.2103	-10.2386	-1.1749	-4.8676	5.0354	1.0071	-6.2103	2.5177	2.8534	-5.3711	1.1749	-1.3428	5.8746	-2.182	-5.2032	-1.5106	-9.5673	53	268	167	2	1	2
-8.0566	-6.3782	-10.5743	-1.5106	-5.0354	5.0354	1.0071	-6.3782	2.3499	2.8534	-5.5389	1.1749	-1.1749	5.8746	-2.0142	-5.3711	-1.3428	-9.7351	53	269	168	2	1	2
-8.0566	-6.3782	-10.5743	-1.3428	-4.8676	5.2032	1.0071	-6.2103	2.3499	3.0212	-5.5389	1.3428	-1.0071	5.8746	-2.0142	-5.5389	-1.3428	-9.903	53	270	169	2	1	2
-8.2245	-6.3782	-10.5743	-1.5106	-4.8676	5.2032	0.8392	-6.2103	2.3499	3.0212	-5.5389	1.3428	-1.0071	5.8746	-1.8463	-5.7068	-1.1749	-10.2386	53	271	170	2	1	2
-8.2245	-6.3782	-10.5743	-1.5106	-4.8676	5.2032	0.8392	-6.2103	2.3499	3.1891	-5.5389	1.3428	-0.8392	5.8746	-1.8463	-5.7068	-1.1749	-10.4065	53	272	171	2	1	2
-8.3923	-6.546	-10.5743	-1.5106	-4.6997	5.3711	1.0071	-6.0425	2.3499	3.1891	-5.5389	1.5106	-0.6714	6.0425	-1.6785	-5.7068	-0.8392	-10.4065	53	273	172	2	1	2
-8.5602	-6.3782	-10.5743	-1.5106	-4.6997	5.5389	1.0071	-6.0425	2.3499	3.3569	-5.5389	1.6785	-0.3357	6.0425	-1.5106	-5.8746	-0.6714	-10.7422	53	274	173	2	1	2
-8.3923	-6.2103	-10.5743	-1.5106	-4.5319	5.7068	1.1749	-6.0425	2.5177	3.6926	-5.3711	1.8463	0	6.0425	-1.3428	-5.8746	-0.5035	-10.91	53	275	174	2	1	2
-8.5602	-6.2103	-10.5743	-1.3428	-4.1962	5.7068	1.3428	-5.8746	2.6855	4.0283	-5.2032	1.8463	0.1678	6.0425	-1.1749	-5.8746	-0.1678	-11.0779	53	276	175	2	1	2
-8.3923	-5.7068	-10.4065	-1.0071	-4.0283	6.2103	1.6785	-5.5389	2.8534	4.1962	-5.0354	2.3499	0.6714	6.0425	-1.0071	-5.8746	0	-11.0779	53	277	176	2	1	2
-8.3923	-5.7068	-10.2386	-0.8392	-3.8605	6.2103	1.8463	-5.3711	3.0212	4.5319	-4.8676	2.5177	1.1749	6.0425	-0.8392	-5.8746	0.1678	-11.2457	53	278	177	2	1	2
-8.5602	-5.5389	-10.4065	-0.8392	-3.6926	6.3782	2.0142	-5.3711	3.1891	4.8676	-4.6997	2.5177	1.5106	6.2103	-0.6714	-5.8746	0.6714	-11.0779	53	279	178	2	1	2
-8.3923	-5.3711	-10.0708	-0.5035	-3.5248	6.7139	2.182	-5.0354	3.1891	5.0354	-4.364	2.8534	1.6785	6.2103	-0.3357	-5.8746	0.8392	-11.0779	53	280	179	2	1	2
-8.5602	-5.2032	-10.2386	-0.5035	-3.3569	6.7139	2.3499	-5.0354	3.1891	5.2032	-4.5319	2.8534	2.0142	6.3782	0	-5.5389	1.1749	-11.0779	53	281	180	2	1	2
-8.5602	-5.0354	-10.0708	-0.1678	-3.1891	6.8817	2.6855	-4.8676	3.3569	5.5389	-4.1962	3.1891	2.3499	6.3782	0	-5.5389	1.3428	-11.0779	53	282	181	2	1	2
-8.5602	-5.0354	-10.2386	-0.3357	-3.3569	6.8817	2.5177	-5.0354	3.1891	5.7068	-4.1962	3.1891	2.3499	6.546	0.3357	-5.3711	1.5106	-10.91	53	283	182	2	1	2
-8.728	-4.8676	-10.4065	-0.1678	-3.3569	6.8817	2.5177	-5.2032	3.1891	5.7068	-4.1962	3.0212	2.5177	6.546	0.3357	-5.3711	1.6785	-11.0779	53	284	183	2	1	2
-8.728	-4.8676	-10.2386	0	-3.3569	6.8817	2.6855	-5.2032	3.1891	5.7068	-4.1962	3.0212	2.6855	6.7139	0.5035	-5.2032	1.8463	-11.0779	53	285	184	2	1	2
-8.5602	-4.8676	-10.0708	0.1678	-3.3569	7.0496	2.8534	-5.2032	3.1891	5.7068	-4.1962	3.0212	2.6855	6.7139	0.5035	-5.3711	1.8463	-11.2457	53	286	185	2	1	2
-8.5602	-4.8676	-10.4065	0.1678	-3.5248	7.0496	2.8534	-5.3711	3.0212	5.7068	-4.1962	2.8534	2.3499	6.8817	0.6714	-5.2032	2.0142	-11.4136	53	287	186	2	1	2
-8.3923	-4.6997	-10.2386	0.3357	-3.5248	7.0496	3.0212	-5.3711	3.0212	5.7068	-4.1962	2.8534	2.5177	6.8817	0.6714	-5.3711	2.0142	-11.5814	53	288	187	2	1	2
-8.3923	-4.6997	-10.0708	0.5035	-3.6926	7.0496	3.0212	-5.5389	3.0212	5.5389	-4.364	2.8534	2.5177	6.8817	0.6714	-5.3711	1.8463	-11.7493	53	289	188	2	1	2
-8.3923	-4.6997	-10.0708	0.6714	-3.8605	7.0496	2.8534	-5.7068	2.8534	5.5389	-4.364	2.6855	2.3499	7.0496	0.6714	-5.2032	2.0142	-11.7493	53	290	189	2	1	2
-8.0566	-4.364	-9.7351	1.0071	-3.6926	7.2174	3.0212	-5.5389	2.8534	5.7068	-4.1962	2.8534	2.3499	7.2174	1.0071	-5.0354	2.0142	-11.5814	53	291	190	2	1	2
-7.7209	-4.364	-9.5673	1.0071	-3.6926	7.3853	3.0212	-5.3711	3.0212	5.5389	-4.1962	2.8534	2.182	7.2174	1.0071	-5.0354	1.8463	-11.5814	53	292	191	2	1	2
-7.5531	-4.1962	-9.3994	1.3428	-3.6926	7.3853	3.0212	-5.5389	3.0212	5.2032	-4.0283	2.6855	2.0142	7.2174	0.8392	-4.8676	1.8463	-11.5814	53	293	192	2	1	2
-7.2174	-4.1962	-9.2316	1.3428	-3.6926	7.3853	3.0212	-5.5389	2.8534	5.0354	-3.8605	2.6855	1.8463	7.2174	0.8392	-4.6997	1.6785	-11.4136	53	294	193	2	1	2
-6.8817	-4.0283	-8.8959	1.5106	-3.6926	7.5531	2.8534	-5.3711	2.8534	4.8676	-3.6926	2.5177	1.6785	7.2174	0.5035	-4.6997	1.3428	-11.0779	53	295	194	2	1	2
-6.546	-3.6926	-8.728	1.6785	-3.5248	7.5531	2.8534	-5.3711	3.0212	4.6997	-3.5248	2.5177	1.3428	7.0496	0.1678	-4.6997	0.8392	-11.0779	53	296	195	2	1	2
-6.3782	-3.8605	-8.728	1.6785	-3.6926	7.5531	2.5177	-5.3711	2.6855	4.1962	-3.6926	2.182	0.8392	7.0496	0	-4.364	0.5035	-10.7422	53	297	196	2	1	2
-6.2103	-3.6926	-8.5602	1.5106	-3.6926	7.7209	2.3499	-5.2032	2.6855	3.8605	-3.5248	2.182	0.5035	6.8817	-0.5035	-4.364	0.1678	-10.5743	53	298	197	2	1	2
-6.0425	-3.5248	-8.3923	1.3428	-3.8605	7.5531	2.0142	-5.2032	2.3499	3.3569	-3.5248	1.8463	0	6.8817	-0.8392	-4.1962	-0.3357	-10.2386	53	299	198	2	1	2
-5.8746	-3.3569	-8.3923	1.5106	-3.5248	7.5531	1.8463	-5.0354	2.3499	3.1891	-3.0212	1.6785	-0.3357	6.7139	-1.3428	-4.0283	-0.8392	-10.0708	53	300	199	2	1	2
-5.7068	-3.3569	-8.3923	1.1749	-3.6926	7.3853	1.5106	-5.2032	2.3499	2.6855	-3.0212	1.5106	-0.8392	6.7139	-1.8463	-3.8605	-1.3428	-9.7351	53	301	200	2	1	2
-5.5389	-3.0212	-8.2245	1.0071	-3.6926	7.2174	1.3428	-5.0354	2.182	2.3499	-3.0212	1.3428	-1.1749	6.546	-2.3499	-4.0283	-1.8463	-9.5673	53	302	201	2	1	2
-5.5389	-3.0212	-8.2245	0.8392	-3.8605	7.2174	1.0071	-5.0354	1.8463	2.0142	-3.1891	1.0071	-1.6785	6.546	-2.6855	-3.8605	-2.3499	-9.3994	53	303	202	2	1	2
-5.3711	-2.8534	-8.2245	0.8392	-3.8605	7.0496	0.8392	-5.0354	1.6785	1.6785	-3.3569	0.8392	-2.182	6.3782	-3.3569	-4.1962	-2.8534	-9.5673	53	304	203	2	1	2
-5.3711	-3.0212	-8.3923	0.5035	-4.1962	6.7139	0.3357	-5.2032	1.3428	1.1749	-3.6926	0.3357	-2.6855	6.3782	-3.8605	-4.1962	-3.3569	-9.5673	53	305	204	2	1	2
-5.2032	-2.8534	-8.3923	0.3357	-4.0283	6.7139	0.1678	-5.3711	1.0071	0.8392	-4.0283	0	-3.0212	6.2103	-4.364	-4.5319	-3.6926	-9.7351	53	306	205	2	1	2
-5.2032	-2.8534	-8.5602	0.1678	-4.364	6.3782	-0.1678	-5.5389	0.8392	0.6714	-4.5319	-0.3357	-3.5248	6.2103	-4.6997	-4.6997	-4.0283	-10.0708	53	307	206	2	1	2
-4.8676	-2.8534	-8.5602	0	-4.5319	6.3782	-0.1678	-5.7068	0.6714	0.5035	-4.8676	-0.6714	-3.6926	6.0425	-5.0354	-5.2032	-4.5319	-10.4065	53	308	207	2	1	2
-4.8676	-2.8534	-8.728	-0.3357	-4.6997	6.0425	-0.5035	-5.8746	0.3357	0	-5.0354	-1.0071	-4.0283	6.0425	-5.5389	-5.3711	-4.8676	-10.5743	53	309	208	2	1	2
-4.6997	-2.6855	-8.8959	-0.3357	-4.6997	5.8746	-0.6714	-5.8746	0.1678	-0.1678	-5.3711	-1.1749	-4.1962	5.8746	-5.7068	-5.7068	-5.3711	-10.91	53	310	209	2	1	2
-4.8676	-2.8534	-9.0637	-0.6714	-4.8676	5.5389	-0.8392	-6.2103	-0.1678	-0.3357	-5.8746	-1.5106	-4.5319	5.7068	-6.2103	-6.2103	-5.8746	-11.4136	53	311	210	2	1	2
-4.8676	-2.8534	-9.3994	-1.0071	-5.2032	5.3711	-1.1749	-6.3782	-0.3357	-0.6714	-6.3782	-1.8463	-4.8676	5.7068	-6.546	-6.3782	-6.0425	-11.5814	53	312	211	2	1	2
-4.8676	-2.8534	-9.5673	-1.1749	-5.2032	5.2032	-1.1749	-6.546	-0.5035	-0.8392	-6.546	-2.0142	-4.8676	5.5389	-6.7139	-6.8817	-6.3782	-12.085	53	313	212	2	1	2
-5.0354	-3.0212	-9.7351	-1.3428	-5.3711	4.8676	-1.5106	-6.8817	-0.6714	-1.0071	-7.0496	-2.3499	-5.0354	5.5389	-7.0496	-7.0496	-6.546	-12.4207	53	314	213	2	1	2
-5.0354	-3.0212	-9.903	-1.5106	-5.3711	4.8676	-1.5106	-7.0496	-0.8392	-1.0071	-7.2174	-2.3499	-5.0354	5.5389	-7.0496	-7.3853	-6.546	-12.5885	53	315	214	2	1	2
-5.0354	-2.8534	-10.0708	-1.6785	-5.3711	4.6997	-1.5106	-7.0496	-0.8392	-1.0071	-7.5531	-2.3499	-5.0354	5.3711	-7.2174	-7.7209	-6.7139	-13.092	53	316	215	2	1	2
-5.2032	-2.8534	-10.4065	-1.6785	-5.3711	4.5319	-1.6785	-7.2174	-0.8392	-1.0071	-7.5531	-2.3499	-4.8676	5.3711	-7.2174	-7.8888	-6.7139	-13.2599	53	317	216	2	1	2
-5.2032	-2.6855	-10.5743	-1.8463	-5.3711	4.5319	-1.6785	-7.2174	-0.8392	-1.0071	-7.7209	-2.3499	-4.8676	5.3711	-7.0496	-8.0566	-6.7139	-13.4277	53	318	217	2	1	2
-5.2032	-2.6855	-10.5743	-1.8463	-5.2032	4.364	-1.6785	-7.2174	-0.8392	-1.0071	-7.7209	-2.3499	-4.6997	5.5389	-7.0496	-7.8888	-6.546	-13.2599	53	319	218	2	1	2
-5.2032	-2.5177	-10.7422	-2.0142	-5.0354	4.364	-1.8463	-7.2174	-0.8392	-0.8392	-7.7209	-2.182	-4.5319	5.5389	-7.0496	-7.8888	-6.3782	-13.2599	53	320	219	2	1	2
-5.2032	-2.3499	-10.91	-2.0142	-4.8676	4.364	-1.8463	-7.0496	-0.6714	-0.6714	-7.5531	-2.0142	-4.364	5.5389	-6.8817	-7.7209	-6.3782	-12.9242	53	321	220	2	1	2
-8.8959	-8.3923	-8.728	-5.2032	-6.3782	-8.8959	-5.8746	-4.1962	-7.7209	-6.2103	-4.6997	-6.0425	-4.8676	0.8392	0.6714	-2.182	2.182	-3.0212	53	261	160	3	1	2
-9.2316	-8.5602	-8.728	-5.3711	-6.3782	-9.0637	-5.8746	-4.364	-7.8888	-6.3782	-4.6997	-6.0425	-5.0354	0.6714	0.1678	-2.0142	1.8463	-3.0212	53	262	161	3	1	2
-9.5673	-8.728	-9.0637	-5.8746	-6.546	-9.2316	-6.2103	-4.364	-7.8888	-6.7139	-4.5319	-6.2103	-5.2032	0.3357	0	-2.0142	1.5106	-2.8534	53	263	162	3	1	2
-9.903	-8.8959	-9.3994	-6.2103	-6.546	-9.3994	-6.3782	-4.364	-7.8888	-6.8817	-4.5319	-6.2103	-5.3711	0	-0.5035	-1.8463	1.0071	-2.6855	53	264	163	3	1	2
-10.2386	-9.0637	-9.5673	-6.546	-6.546	-9.5673	-6.546	-4.364	-7.8888	-6.8817	-4.1962	-6.2103	-5.3711	-0.3357	-0.8392	-1.6785	0.6714	-2.5177	53	265	164	3	1	2
-10.5743	-9.0637	-10.0708	-6.7139	-6.3782	-9.7351	-6.7139	-4.1962	-7.7209	-7.0496	-4.0283	-6.0425	-5.3711	-0.6714	-1.0071	-1.5106	0.3357	-2.0142	53	266	165	3	1	2
-10.7422	-9.0637	-10.0708	-7.0496	-6.3782	-9.7351	-6.8817	-4.0283	-7.3853	-6.8817	-3.5248	-5.7068	-5.2032	-1.0071	-1.1749	-1.3428	0	-1.5106	53	267	166	3	1	2
-11.2457	-9.0637	-10.2386	-7.2174	-6.2103	-9.903	-7.0496	-4.0283	-7.3853	-6.8817	-3.1891	-5.3711	-5.2032	-1.3428	-1.5106	-1.0071	-0.1678	-0.8392	53	268	167	3	1	2
-11.4136	-8.8959	-10.2386	-7.5531	-6.0425	-9.7351	-7.0496	-3.6926	-6.8817	-6.7139	-2.6855	-4.8676	-4.8676	-1.6785	-1.6785	-0.6714	-0.5035	-0.3357	53	269	168	3	1	2
-11.7493	-9.0637	-10.2386	-7.8888	-5.8746	-9.5673	-7.0496	-3.3569	-6.546	-6.546	-2.182	-4.5319	-4.6997	-2.0142	-1.8463	-0.3357	-0.6714	0.3357	53	270	169	3	1	2
-11.9171	-9.0637	-10.4065	-8.0566	-5.7068	-9.3994	-7.2174	-3.1891	-6.0425	-6.2103	-1.8463	-4.0283	-4.364	-2.3499	-2.0142	0	-0.8392	0.8392	53	271	170	3	1	2
-12.085	-8.8959	-10.4065	-8.2245	-5.5389	-9.3994	-7.2174	-2.8534	-5.7068	-6.0425	-1.3428	-3.8605	-4.1962	-2.6855	-2.182	0.3357	-1.1749	1.5106	53	272	171	3	1	2
-12.4207	-8.8959	-10.4065	-8.3923	-5.3711	-9.2316	-7.2174	-2.8534	-5.5389	-6.0425	-0.8392	-3.3569	-4.0283	-3.0212	-2.182	0.5035	-1.5106	2.0142	53	273	172	3	1	2
-12.5885	-9.0637	-10.4065	-8.5602	-5.5389	-9.0637	-7.2174	-2.6855	-5.0354	-5.8746	-0.5035	-3.0212	-3.6926	-3.3569	-2.3499	0.8392	-1.6785	2.5177	53	274	173	3	1	2
-12.7563	-9.0637	-10.4065	-8.728	-5.5389	-9.0637	-7.3853	-2.3499	-4.6997	-5.7068	0	-2.5177	-3.3569	-3.6926	-2.3499	0.8392	-1.8463	2.8534	53	275	174	3	1	2
-12.9242	-9.0637	-10.4065	-8.8959	-5.5389	-8.728	-7.3853	-2.3499	-4.364	-5.5389	0.1678	-2.3499	-3.1891	-3.8605	-2.3499	1.1749	-2.0142	3.3569	53	276	175	3	1	2
-13.092	-9.2316	-10.4065	-9.0637	-5.7068	-8.728	-7.5531	-2.182	-4.0283	-5.5389	0.5035	-2.0142	-3.0212	-4.1962	-2.6855	1.1749	-2.182	3.5248	53	277	176	3	1	2
-13.092	-9.3994	-10.4065	-9.0637	-5.7068	-8.3923	-7.3853	-2.182	-3.8605	-5.3711	0.6714	-1.8463	-2.8534	-4.364	-2.6855	1.3428	-2.3499	3.6926	53	278	177	3	1	2
-13.2599	-9.5673	-10.4065	-9.2316	-5.8746	-8.3923	-7.3853	-2.182	-3.6926	-5.3711	0.6714	-1.6785	-2.8534	-4.5319	-2.8534	1.3428	-2.5177	3.8605	53	279	178	3	1	2
-13.2599	-9.7351	-10.4065	-9.2316	-5.8746	-8.2245	-7.3853	-2.182	-3.5248	-5.2032	0.6714	-1.5106	-2.6855	-4.5319	-2.8534	1.3428	-2.6855	4.0283	53	280	179	3	1	2
-13.2599	-9.7351	-10.2386	-9.0637	-5.8746	-8.0566	-7.2174	-2.182	-3.5248	-5.0354	0.6714	-1.5106	-2.6855	-4.364	-2.6855	1.5106	-2.5177	4.1962	53	281	180	3	1	2
-13.4277	-10.0708	-10.4065	-9.2316	-6.0425	-8.2245	-7.3853	-2.182	-3.3569	-5.0354	0.8392	-1.5106	-2.5177	-4.364	-2.8534	1.3428	-2.6855	4.0283	53	282	181	3	1	2
-13.2599	-10.2386	-10.4065	-9.2316	-6.0425	-8.0566	-7.2174	-2.182	-3.1891	-4.8676	0.8392	-1.3428	-2.3499	-4.0283	-2.8534	1.3428	-2.5177	4.1962	53	283	182	3	1	2
-13.4277	-10.2386	-10.4065	-9.0637	-6.2103	-7.8888	-7.0496	-2.3499	-3.1891	-4.6997	0.8392	-1.3428	-2.182	-3.6926	-2.6855	1.1749	-2.3499	4.0283	53	284	183	3	1	2
-13.4277	-10.2386	-10.2386	-8.8959	-6.2103	-7.7209	-6.8817	-2.3499	-3.1891	-4.5319	0.8392	-1.1749	-2.0142	-3.1891	-2.5177	1.1749	-2.182	3.8605	53	285	184	3	1	2
-13.2599	-10.4065	-10.0708	-8.5602	-6.3782	-7.7209	-6.546	-2.3499	-3.1891	-4.364	1.0071	-1.0071	-1.8463	-2.5177	-2.182	1.0071	-1.8463	3.6926	53	286	185	3	1	2
-13.2599	-10.2386	-10.0708	-8.5602	-6.2103	-7.3853	-6.2103	-2.5177	-3.1891	-4.0283	0.8392	-1.1749	-1.8463	-1.8463	-2.182	0.8392	-1.6785	3.5248	53	287	186	3	1	2
-13.092	-10.2386	-9.7351	-8.0566	-6.3782	-7.3853	-5.8746	-2.5177	-3.1891	-3.6926	0.6714	-1.1749	-1.6785	-1.0071	-1.6785	0.6714	-1.1749	3.1891	53	288	187	3	1	2
-12.9242	-10.4065	-9.5673	-7.7209	-6.2103	-7.0496	-5.3711	-2.6855	-3.1891	-3.5248	0.6714	-1.1749	-1.3428	-0.1678	-1.3428	0.5035	-0.6714	2.8534	53	289	188	3	1	2
-12.7563	-10.2386	-9.5673	-7.3853	-6.0425	-7.0496	-5.2032	-2.5177	-2.8534	-3.0212	0.8392	-1.0071	-1.0071	0.6714	-0.8392	0.1678	-0.3357	2.5177	53	290	189	3	1	2
-12.4207	-10.4065	-9.3994	-7.0496	-6.2103	-6.8817	-4.6997	-2.5177	-2.8534	-2.6855	0.6714	-1.0071	-0.8392	1.5106	-0.5035	0	0.1678	2.0142	53	291	190	3	1	2
-12.085	-10.4065	-9.2316	-6.7139	-6.2103	-6.7139	-4.1962	-2.5177	-2.8534	-2.3499	0.6714	-1.0071	-0.5035	2.3499	0	-0.3357	0.6714	1.5106	53	292	191	3	1	2
-11.7493	-10.0708	-8.728	-6.0425	-5.8746	-6.3782	-3.6926	-2.3499	-2.6855	-1.8463	0.6714	-0.8392	0	3.3569	0.6714	-0.5035	1.5106	1.3428	53	293	192	3	1	2
-11.2457	-10.0708	-8.3923	-5.5389	-5.7068	-6.0425	-2.8534	-2.3499	-2.5177	-1.1749	0.6714	-0.6714	0.3357	4.364	1.1749	-0.6714	2.3499	1.0071	53	294	193	3	1	2
-11.0779	-9.903	-8.0566	-5.0354	-5.5389	-5.8746	-2.3499	-2.182	-2.0142	-0.5035	1.0071	-0.5035	0.8392	5.3711	2.0142	-1.0071	3.0212	0.6714	53	295	194	3	1	2
-10.4065	-9.5673	-7.5531	-4.364	-5.2032	-5.3711	-1.6785	-2.0142	-1.6785	0.1678	1.0071	-0.1678	1.3428	6.2103	2.6855	-1.0071	3.8605	0.5035	53	296	195	3	1	2
-10.0708	-9.3994	-7.2174	-4.0283	-5.0354	-5.0354	-1.0071	-1.8463	-1.5106	0.8392	1.1749	0.1678	1.8463	7.0496	3.3569	-1.1749	4.5319	0.1678	53	297	196	3	1	2
-9.7351	-9.2316	-7.0496	-3.5248	-4.8676	-4.8676	-0.6714	-1.5106	-1.1749	1.1749	1.3428	0.3357	2.3499	7.8888	4.1962	-1.5106	5.2032	0	53	298	197	3	1	2
-9.0637	-8.8959	-6.546	-3.0212	-4.5319	-4.5319	-0.1678	-1.5106	-1.0071	1.8463	1.3428	0.6714	2.8534	8.5602	4.6997	-1.6785	5.8746	-0.3357	53	299	198	3	1	2
-8.728	-8.5602	-6.2103	-2.6855	-4.1962	-4.364	0.1678	-1.0071	-0.6714	2.182	1.5106	1.0071	3.3569	9.3994	5.3711	-2.0142	6.546	-0.6714	53	300	199	3	1	2
-8.3923	-8.3923	-5.8746	-2.3499	-4.1962	-4.0283	0.5035	-1.0071	-0.5035	2.5177	1.3428	1.1749	3.5248	9.903	5.7068	-2.182	7.0496	-1.0071	53	301	200	3	1	2
-7.8888	-8.0566	-5.5389	-2.0142	-4.0283	-3.8605	0.8392	-0.8392	-0.3357	2.8534	1.3428	1.3428	3.6926	10.4065	6.2103	-2.3499	7.5531	-1.3428	53	302	201	3	1	2
-7.7209	-7.8888	-5.3711	-1.8463	-3.8605	-3.8605	0.8392	-0.6714	0	3.3569	1.5106	1.5106	4.0283	10.91	6.7139	-2.6855	7.8888	-1.6785	53	303	202	3	1	2
-7.2174	-7.5531	-5.0354	-1.6785	-3.6926	-3.6926	1.0071	-0.6714	0	3.3569	1.3428	1.5106	4.0283	11.0779	6.7139	-2.8534	8.2245	-2.0142	53	304	203	3	1	2
-7.0496	-7.2174	-4.5319	-1.5106	-3.5248	-3.5248	1.0071	-0.5035	0	3.3569	1.3428	1.6785	4.1962	11.2457	7.2174	-2.8534	8.3923	-2.3499	53	305	204	3	1	2
-6.546	-6.8817	-4.364	-1.5106	-3.1891	-3.5248	0.8392	-0.1678	0.1678	3.5248	1.5106	2.0142	4.364	11.4136	7.3853	-3.0212	8.5602	-2.5177	53	306	205	3	1	2
-6.2103	-6.3782	-4.1962	-1.3428	-3.0212	-3.3569	0.8392	-0.1678	0.1678	3.3569	1.5106	2.0142	4.1962	11.2457	7.2174	-3.0212	8.728	-2.6855	53	307	206	3	1	2
-5.7068	-6.2103	-3.8605	-1.3428	-2.8534	-3.1891	0.8392	0	0.3357	3.3569	1.6785	2.3499	4.364	11.2457	7.3853	-3.0212	8.8959	-3.0212	53	308	207	3	1	2
-5.3711	-5.8746	-3.3569	-1.1749	-2.5177	-3.1891	0.6714	0.1678	0.3357	3.3569	1.8463	2.5177	4.5319	11.0779	7.3853	-3.0212	8.8959	-3.0212	53	309	208	3	1	2
-5.0354	-5.3711	-3.0212	-1.1749	-2.5177	-3.0212	0.6714	0.3357	0.3357	3.0212	1.8463	2.6855	4.364	10.7422	7.2174	-2.8534	8.8959	-3.0212	53	310	209	3	1	2
-4.6997	-5.0354	-2.6855	-1.1749	-2.182	-3.0212	0.3357	0.6714	0.5035	3.0212	2.0142	2.8534	4.364	10.5743	7.2174	-2.8534	8.728	-3.0212	53	311	210	3	1	2
-4.0283	-4.364	-2.5177	-1.0071	-2.0142	-3.0212	0.3357	0.8392	0.5035	2.6855	2.0142	3.0212	4.1962	10.2386	7.0496	-2.6855	8.5602	-2.8534	53	312	211	3	1	2
-3.6926	-4.0283	-2.0142	-0.8392	-1.8463	-2.8534	0.1678	1.0071	0.8392	2.6855	2.182	3.1891	4.1962	9.903	6.8817	-2.5177	8.3923	-2.6855	53	313	212	3	1	2
-3.1891	-3.8605	-1.5106	-0.6714	-1.8463	-2.6855	0	1.1749	0.6714	2.5177	2.182	3.1891	3.8605	9.3994	6.546	-2.182	8.2245	-2.5177	53	314	213	3	1	2
-2.8534	-3.5248	-1.3428	-0.6714	-1.3428	-2.6855	-0.1678	1.3428	0.8392	2.3499	2.5177	3.3569	3.8605	9.0637	6.3782	-1.8463	8.0566	-2.3499	53	315	214	3	1	2
-2.182	-3.1891	-0.8392	-0.5035	-1.3428	-2.3499	0	1.5106	1.0071	2.182	2.5177	3.3569	3.6926	8.5602	6.0425	-1.5106	7.8888	-1.8463	53	316	215	3	1	2
-1.8463	-3.0212	-0.6714	-0.5035	-1.1749	-2.182	-0.1678	1.6785	1.0071	2.0142	2.6855	3.5248	3.5248	8.0566	5.8746	-1.3428	7.5531	-1.5106	53	317	216	3	1	2
-1.5106	-2.5177	-0.3357	-0.5035	-1.0071	-2.0142	-0.3357	1.8463	1.1749	1.6785	3.0212	3.6926	3.5248	7.7209	5.7068	-1.1749	7.2174	-1.1749	53	318	217	3	1	2
-1.0071	-2.3499	0	-0.3357	-1.0071	-2.0142	-0.6714	2.0142	1.1749	1.5106	3.1891	3.6926	3.5248	7.2174	5.5389	-0.8392	6.8817	-1.0071	53	319	218	3	1	2
-0.5035	-2.182	0.3357	-0.3357	-0.8392	-1.8463	-0.8392	2.0142	1.3428	1.3428	3.1891	3.8605	3.3569	6.7139	5.3711	-0.6714	6.546	-0.6714	53	320	219	3	1	2
-0.1678	-2.182	0.5035	-0.1678	-1.0071	-1.6785	-0.8392	2.0142	1.3428	1.1749	3.5248	3.8605	3.1891	6.2103	5.2032	-0.3357	6.2103	-0.1678	53	321	220	3	1	2
-7.2174	-4.1962	-10.5743	-1.6785	-6.546	-14.4348	-4.5319	-6.0425	-12.7563	-6.2103	-7.2174	-12.5885	-9.7351	1.8463	0.1678	3.0212	-0.3357	1.1749	53	261	160	4	1	2
-7.3853	-4.5319	-10.91	-2.0142	-6.3782	-14.7705	-4.8676	-6.0425	-12.4207	-6.2103	-7.0496	-12.4207	-9.903	1.8463	0.1678	3.3569	-0.5035	1.6785	53	262	161	4	1	2
-7.5531	-4.364	-11.0779	-2.182	-6.3782	-14.7705	-4.8676	-6.0425	-12.4207	-6.3782	-6.8817	-12.2528	-9.903	1.6785	0	3.5248	-0.6714	2.0142	53	263	162	4	1	2
-7.5531	-4.364	-11.2457	-2.3499	-6.3782	-14.7705	-5.2032	-5.8746	-12.4207	-6.546	-6.7139	-12.2528	-9.903	1.6785	0	3.6926	-0.8392	2.5177	53	264	163	4	1	2
-7.5531	-4.1962	-11.0779	-2.3499	-6.0425	-14.7705	-5.2032	-5.7068	-12.2528	-6.3782	-6.546	-12.085	-9.7351	1.6785	0	4.0283	-0.8392	2.8534	53	265	164	4	1	2
-7.3853	-4.0283	-11.0779	-2.182	-5.8746	-14.6027	-5.3711	-5.7068	-12.085	-6.7139	-6.546	-11.7493	-9.7351	1.5106	0.1678	4.0283	-0.8392	3.0212	53	266	165	4	1	2
-7.2174	-3.8605	-11.0779	-2.5177	-5.8746	-14.6027	-5.5389	-5.5389	-11.9171	-6.7139	-6.3782	-11.7493	-9.7351	1.5106	0.1678	4.364	-0.8392	3.3569	53	267	166	4	1	2
-6.8817	-3.5248	-10.7422	-2.182	-5.5389	-14.4348	-5.5389	-5.5389	-11.9171	-6.7139	-6.3782	-11.5814	-9.7351	1.3428	0.1678	4.364	-1.0071	3.3569	53	268	167	4	1	2
-6.546	-3.1891	-10.5743	-2.0142	-5.3711	-14.0991	-5.3711	-5.3711	-11.4136	-6.546	-6.3782	-11.2457	-9.3994	1.3428	0.1678	4.6997	-0.8392	3.3569	53	269	168	4	1	2
-6.2103	-2.8534	-10.4065	-2.182	-5.2032	-13.9313	-5.5389	-5.0354	-11.2457	-6.3782	-6.0425	-11.0779	-9.3994	1.3428	0.5035	4.6997	-0.6714	3.6926	53	270	169	4	1	2
-5.7068	-2.5177	-10.0708	-1.8463	-5.0354	-13.7634	-5.3711	-5.0354	-10.91	-6.3782	-6.0425	-10.91	-9.3994	1.3428	0.5035	4.6997	-0.6714	3.6926	53	271	170	4	1	2
-5.3711	-2.182	-9.5673	-1.6785	-4.6997	-13.5956	-5.3711	-4.8676	-10.91	-6.3782	-6.0425	-10.5743	-9.0637	1.3428	0.6714	4.6997	-0.5035	3.5248	53	272	171	4	1	2
-5.0354	-1.6785	-9.3994	-1.5106	-4.5319	-13.4277	-5.3711	-4.8676	-10.7422	-6.2103	-6.0425	-10.5743	-9.0637	1.3428	0.6714	4.6997	-0.3357	3.3569	53	273	172	4	1	2
-4.364	-1.1749	-8.8959	-1.3428	-4.1962	-13.092	-5.0354	-4.6997	-10.7422	-6.2103	-6.0425	-10.5743	-8.8959	1.3428	0.6714	4.5319	-0.1678	3.0212	53	274	173	4	1	2
-4.1962	-1.0071	-8.5602	-1.0071	-4.1962	-13.092	-5.0354	-4.6997	-10.4065	-6.2103	-6.0425	-10.5743	-8.8959	1.3428	0.5035	4.364	-0.1678	2.8534	53	275	174	4	1	2
-3.6926	-0.5035	-8.3923	-1.0071	-4.0283	-12.9242	-5.0354	-4.5319	-10.4065	-6.2103	-6.0425	-10.4065	-9.0637	1.5106	0.6714	4.364	0.1678	2.6855	53	276	175	4	1	2
-3.1891	-0.3357	-7.8888	-0.8392	-3.8605	-12.7563	-5.0354	-4.5319	-10.4065	-6.3782	-6.2103	-10.5743	-9.0637	1.5106	0.5035	4.0283	0.1678	2.182	53	277	176	4	1	2
-3.0212	0	-7.8888	-0.8392	-3.5248	-12.7563	-5.2032	-4.5319	-10.4065	-6.546	-6.2103	-10.5743	-9.2316	1.6785	0.5035	4.0283	0.3357	2.182	53	278	177	4	1	2
-2.6855	0.1678	-7.5531	-0.6714	-3.5248	-12.5885	-5.0354	-4.5319	-10.5743	-6.7139	-6.3782	-10.91	-9.2316	1.6785	0.3357	3.8605	0.1678	1.8463	53	279	178	4	1	2
-2.3499	0.6714	-7.0496	-0.5035	-3.3569	-12.5885	-5.2032	-4.364	-10.4065	-6.8817	-6.3782	-10.91	-9.5673	1.8463	0.1678	3.8605	0.3357	1.8463	53	280	179	4	1	2
-2.182	0.8392	-6.8817	-0.5035	-3.3569	-12.7563	-5.2032	-4.1962	-10.5743	-7.0496	-6.3782	-11.2457	-9.903	1.8463	-0.1678	3.6926	0.1678	2.0142	53	281	180	4	1	2
-1.8463	1.0071	-6.7139	-0.3357	-3.1891	-12.5885	-5.0354	-4.1962	-10.7422	-7.3853	-6.3782	-11.2457	-10.0708	1.8463	-0.5035	3.6926	0.1678	1.8463	53	282	181	4	1	2
-1.6785	1.3428	-6.7139	-0.3357	-3.1891	-12.7563	-5.2032	-4.0283	-10.7422	-7.5531	-6.3782	-11.4136	-10.4065	1.8463	-1.0071	3.6926	0	2.0142	53	283	182	4	1	2
-1.5106	1.5106	-6.546	-0.3357	-3.0212	-12.7563	-5.2032	-3.8605	-10.7422	-7.7209	-6.2103	-11.5814	-10.7422	1.8463	-1.3428	3.6926	0	2.182	53	284	183	4	1	2
-1.3428	1.6785	-6.3782	-0.3357	-2.8534	-12.7563	-5.2032	-3.6926	-10.7422	-7.8888	-6.0425	-11.9171	-11.0779	1.8463	-1.6785	3.6926	-0.1678	2.182	53	285	184	4	1	2
-1.3428	1.6785	-6.2103	-0.5035	-2.6855	-12.9242	-5.5389	-3.5248	-10.7422	-8.0566	-5.8746	-12.085	-11.4136	1.8463	-2.182	3.8605	-0.3357	2.182	53	286	185	4	1	2
-1.5106	1.5106	-6.546	-0.6714	-2.6855	-12.9242	-5.5389	-3.5248	-10.7422	-8.3923	-5.8746	-12.2528	-11.5814	1.6785	-2.5177	3.6926	-0.5035	2.182	53	287	186	4	1	2
-1.3428	1.6785	-6.3782	-0.6714	-2.5177	-12.9242	-5.5389	-3.3569	-10.7422	-8.3923	-5.7068	-12.2528	-11.9171	1.6785	-2.6855	3.6926	-0.6714	2.182	53	288	187	4	1	2
-1.5106	1.6785	-6.3782	-0.8392	-2.5177	-13.2599	-5.7068	-3.1891	-10.7422	-8.3923	-5.5389	-12.4207	-12.2528	1.6785	-3.3569	3.8605	-0.8392	2.182	53	289	188	4	1	2
-1.3428	1.5106	-6.3782	-0.6714	-2.5177	-13.2599	-5.5389	-3.1891	-10.7422	-8.3923	-5.5389	-12.4207	-12.2528	1.5106	-3.5248	3.6926	-1.0071	2.182	53	290	189	4	1	2
-1.5106	1.6785	-6.546	-1.0071	-2.3499	-13.4277	-5.5389	-3.0212	-10.7422	-8.2245	-5.3711	-12.4207	-12.4207	1.5106	-3.8605	3.6926	-1.0071	2.182	53	291	190	4	1	2
-1.5106	1.3428	-6.546	-0.8392	-2.182	-13.2599	-5.5389	-3.0212	-10.7422	-8.2245	-5.3711	-12.2528	-12.2528	1.3428	-3.8605	3.5248	-1.1749	2.182	53	292	191	4	1	2
-1.5106	1.5106	-6.3782	-0.8392	-1.8463	-13.5956	-5.3711	-2.8534	-10.4065	-8.0566	-5.0354	-12.085	-12.085	1.3428	-4.0283	3.6926	-1.1749	2.3499	53	293	192	4	1	2
-1.5106	1.3428	-6.546	-0.6714	-2.0142	-13.4277	-5.2032	-2.6855	-10.2386	-7.8888	-4.8676	-11.9171	-11.9171	1.1749	-4.0283	3.6926	-1.3428	2.3499	53	294	193	4	1	2
-1.5106	1.1749	-6.546	-0.6714	-1.6785	-13.4277	-5.0354	-2.3499	-10.0708	-7.5531	-4.5319	-11.7493	-11.9171	1.1749	-4.0283	3.8605	-1.1749	2.5177	53	295	194	4	1	2
-1.6785	1.0071	-6.7139	-0.5035	-1.6785	-13.2599	-4.8676	-2.182	-10.0708	-7.3853	-4.364	-11.4136	-11.5814	1.0071	-4.0283	3.6926	-1.3428	2.5177	53	296	195	4	1	2
-1.6785	0.8392	-6.8817	-0.5035	-1.6785	-13.2599	-4.8676	-2.182	-10.0708	-7.2174	-4.1962	-11.2457	-11.4136	0.8392	-4.0283	3.6926	-1.3428	2.5177	53	297	196	4	1	2
-2.0142	0.8392	-6.8817	-0.5035	-1.5106	-13.5956	-4.8676	-2.182	-9.903	-7.0496	-4.0283	-10.91	-11.2457	0.8392	-4.1962	3.6926	-1.3428	2.5177	53	298	197	4	1	2
-2.0142	0.3357	-7.0496	-0.3357	-1.6785	-13.5956	-4.6997	-2.182	-9.903	-6.8817	-4.0283	-10.91	-10.91	0.6714	-4.0283	3.5248	-1.3428	2.182	53	299	198	4	1	2
-2.3499	0.3357	-7.0496	-0.3357	-1.6785	-13.5956	-4.6997	-2.0142	-9.903	-6.546	-3.8605	-10.5743	-10.5743	0.6714	-4.1962	3.5248	-1.3428	2.182	53	300	199	4	1	2
-2.182	0.3357	-7.2174	-0.1678	-1.6785	-13.4277	-4.6997	-1.8463	-9.903	-6.0425	-3.8605	-10.4065	-10.2386	0.6714	-3.8605	3.5248	-1.1749	2.0142	53	301	200	4	1	2
-2.3499	0	-7.5531	0	-1.8463	-13.5956	-4.5319	-2.0142	-10.0708	-6.0425	-3.8605	-10.2386	-9.903	0.5035	-3.6926	3.3569	-1.3428	1.6785	53	302	201	4	1	2
-2.5177	-0.1678	-7.5531	0.1678	-1.8463	-13.5956	-4.5319	-2.0142	-9.903	-5.8746	-3.8605	-10.0708	-9.5673	0.5035	-3.5248	3.3569	-1.3428	1.5106	53	303	202	4	1	2
-2.6855	-0.3357	-7.8888	0	-2.0142	-13.7634	-4.5319	-2.0142	-9.903	-5.7068	-3.8605	-9.903	-9.3994	0.5035	-3.5248	3.1891	-1.3428	1.3428	53	304	203	4	1	2
-2.8534	-0.3357	-8.0566	0.1678	-2.182	-13.9313	-4.5319	-2.0142	-10.0708	-5.5389	-4.0283	-9.903	-9.0637	0.5035	-3.3569	3.1891	-1.3428	1.1749	53	305	204	4	1	2
-3.0212	-0.6714	-8.3923	0.1678	-2.3499	-14.0991	-4.5319	-2.182	-10.2386	-5.5389	-4.1962	-9.903	-8.728	0.5035	-3.1891	3.0212	-1.3428	0.8392	53	306	205	4	1	2
-3.1891	-0.8392	-8.5602	0.1678	-2.3499	-14.267	-4.6997	-2.3499	-10.4065	-5.5389	-4.364	-9.7351	-8.728	0.5035	-3.1891	2.8534	-1.3428	0.5035	53	307	206	4	1	2
-3.5248	-1.1749	-8.8959	0	-2.6855	-14.267	-4.8676	-2.6855	-10.7422	-5.5389	-4.6997	-9.903	-8.728	0.5035	-3.1891	2.5177	-1.3428	0.1678	53	308	207	4	1	2
-3.6926	-1.5106	-9.2316	0	-3.0212	-14.4348	-5.0354	-3.0212	-11.2457	-5.7068	-5.0354	-10.2386	-8.5602	0.5035	-3.0212	2.3499	-1.5106	-0.1678	53	309	208	4	1	2
-4.0283	-1.6785	-9.7351	-0.1678	-3.1891	-14.7705	-5.3711	-3.0212	-11.5814	-5.7068	-5.0354	-10.4065	-8.8959	0.6714	-3.1891	2.182	-1.6785	-0.5035	53	310	209	4	1	2
-4.364	-1.6785	-10.2386	-0.3357	-3.5248	-15.1062	-5.5389	-3.3569	-11.9171	-6.0425	-5.3711	-10.7422	-9.0637	0.6714	-3.3569	2.0142	-1.8463	-0.8392	53	311	210	4	1	2
-4.5319	-2.0142	-10.4065	-0.5035	-3.8605	-15.4419	-5.8746	-3.6926	-12.4207	-6.546	-5.7068	-11.2457	-9.3994	0.6714	-3.5248	1.8463	-2.182	-1.1749	53	312	211	4	1	2
-5.0354	-2.3499	-10.91	-0.8392	-4.0283	-15.6097	-6.3782	-4.0283	-12.9242	-7.0496	-6.0425	-11.7493	-9.5673	0.6714	-3.6926	1.5106	-2.5177	-1.5106	53	313	212	4	1	2
-5.3711	-2.3499	-11.2457	-1.0071	-4.364	-15.9454	-6.546	-4.1962	-13.4277	-7.2174	-6.2103	-12.085	-10.0708	0.8392	-4.0283	1.6785	-2.6855	-1.5106	53	314	213	4	1	2
-5.5389	-2.3499	-11.5814	-1.1749	-4.5319	-16.1133	-7.0496	-4.364	-13.7634	-7.7209	-6.546	-12.5885	-10.5743	0.8392	-4.5319	1.5106	-2.8534	-1.8463	53	315	214	4	1	2
-5.7068	-2.5177	-11.9171	-1.5106	-4.6997	-16.6168	-7.3853	-4.6997	-14.267	-8.2245	-6.8817	-13.092	-11.2457	0.8392	-4.8676	1.3428	-3.3569	-2.182	53	316	215	4	1	2
-5.8746	-2.182	-11.9171	-1.5106	-4.8676	-16.7847	-7.5531	-5.0354	-14.7705	-8.728	-7.0496	-13.4277	-11.4136	0.8392	-5.0354	1.3428	-3.5248	-2.3499	53	317	216	4	1	2
-6.0425	-2.182	-12.085	-1.5106	-4.6997	-16.9525	-7.8888	-5.2032	-15.1062	-9.2316	-7.3853	-13.9313	-11.9171	0.8392	-5.5389	1.1749	-3.6926	-2.5177	53	318	217	4	1	2
-6.0425	-2.0142	-12.2528	-1.8463	-4.8676	-17.2882	-8.2245	-5.3711	-15.6097	-9.903	-7.5531	-14.4348	-12.5885	0.8392	-6.0425	1.1749	-4.0283	-2.5177	53	319	218	4	1	2
-6.2103	-2.182	-12.4207	-2.3499	-5.0354	-17.6239	-8.728	-5.5389	-16.1133	-10.5743	-7.5531	-14.9384	-13.2599	0.8392	-6.7139	1.1749	-4.5319	-2.3499	53	320	219	4	1	2
-6.2103	-1.8463	-12.5885	-2.3499	-5.0354	-17.7917	-9.0637	-5.7068	-16.6168	-10.91	-7.5531	-15.274	-13.5956	0.8392	-7.0496	1.3428	-4.8676	-2.3499	53	321	220	4	1	2
-1.3428	-0.5035	0.8392	6.7139	2.0142	-1.0071	3.6926	4.364	4.6997	7.5531	8.5602	5.8746	8.5602	-2.0142	4.0283	7.7209	3.1891	10.7422	53	261	160	5	1	2
-1.6785	-0.8392	0.5035	6.546	1.5106	-1.1749	3.3569	4.0283	4.364	7.2174	8.2245	5.3711	8.2245	-2.0142	4.0283	7.5531	3.0212	10.5743	53	262	161	5	1	2
-1.8463	-1.3428	-0.1678	6.2103	1.1749	-1.6785	3.0212	3.6926	3.6926	6.7139	7.7209	4.8676	7.7209	-2.182	3.6926	7.3853	2.6855	10.2386	53	263	162	5	1	2
-2.0142	-1.8463	-0.6714	6.0425	0.6714	-2.182	2.6855	3.3569	3.1891	6.2103	7.3853	4.6997	7.2174	-2.3499	3.5248	7.2174	2.3499	10.2386	53	264	163	5	1	2
-2.5177	-2.3499	-1.0071	5.8746	0.3357	-2.6855	2.5177	2.8534	2.6855	6.0425	6.8817	4.1962	6.7139	-2.3499	3.3569	6.8817	2.182	9.7351	53	265	164	5	1	2
-2.6855	-2.6855	-1.5106	5.8746	0	-3.0212	2.5177	2.5177	2.3499	5.7068	6.546	3.5248	6.3782	-2.3499	3.3569	6.546	2.182	9.5673	53	266	165	5	1	2
-2.8534	-3.1891	-2.0142	5.7068	-0.5035	-3.5248	2.3499	2.182	1.8463	5.3711	6.0425	3.1891	6.0425	-2.3499	3.1891	6.2103	2.182	9.0637	53	267	166	5	1	2
-3.5248	-3.8605	-2.6855	5.5389	-1.0071	-4.0283	1.8463	1.6785	1.3428	4.8676	5.5389	2.6855	5.3711	-2.5177	3.0212	5.8746	1.8463	8.5602	53	268	167	5	1	2
-3.5248	-4.364	-3.0212	5.3711	-1.3428	-4.1962	1.8463	1.5106	1.0071	4.6997	5.0354	2.3499	5.2032	-2.3499	3.0212	5.5389	2.0142	8.0566	53	269	168	5	1	2
-3.8605	-4.6997	-3.3569	5.2032	-1.6785	-4.6997	1.6785	1.3428	0.6714	4.364	4.6997	2.0142	4.8676	-2.3499	2.8534	5.0354	1.8463	7.7209	53	270	169	5	1	2
-4.0283	-5.3711	-3.8605	5.2032	-2.0142	-5.0354	1.3428	1.0071	0.3357	4.1962	4.0283	1.5106	4.364	-2.3499	2.6855	4.8676	1.8463	7.5531	53	271	170	5	1	2
-4.1962	-5.8746	-4.364	4.8676	-2.3499	-5.3711	1.1749	0.8392	0	3.8605	3.6926	1.1749	4.1962	-2.3499	2.5177	4.364	1.8463	7.2174	53	272	171	5	1	2
-4.364	-6.0425	-4.364	4.8676	-2.6855	-5.5389	1.1749	0.8392	0	3.6926	3.5248	1.1749	4.0283	-2.182	2.5177	4.0283	2.0142	6.8817	53	273	172	5	1	2
-4.5319	-6.3782	-4.6997	4.8676	-2.8534	-5.7068	1.1749	0.6714	-0.1678	3.3569	3.3569	0.8392	3.6926	-2.182	2.3499	3.8605	1.8463	6.8817	53	274	173	5	1	2
-4.364	-6.3782	-4.6997	4.8676	-3.0212	-5.5389	1.1749	0.6714	0	3.5248	3.3569	0.8392	3.6926	-2.0142	2.3499	3.6926	2.0142	6.8817	53	275	174	5	1	2
-4.1962	-6.546	-4.5319	5.0354	-3.0212	-5.5389	1.3428	0.8392	0.1678	3.5248	3.3569	1.0071	3.6926	-1.8463	2.3499	3.3569	2.3499	6.7139	53	276	175	5	1	2
-4.364	-6.7139	-4.5319	5.0354	-2.8534	-5.3711	1.5106	1.0071	0.1678	3.6926	3.5248	1.1749	3.8605	-1.6785	2.5177	3.1891	2.5177	6.7139	53	277	176	5	1	2
-4.1962	-6.7139	-4.364	5.2032	-2.8534	-5.0354	1.8463	1.1749	0.3357	3.6926	3.6926	1.3428	3.8605	-1.5106	2.5177	3.0212	2.6855	6.8817	53	278	177	5	1	2
-4.0283	-6.546	-4.0283	5.3711	-2.6855	-4.8676	2.0142	1.5106	0.6714	4.0283	3.8605	1.5106	4.0283	-1.3428	2.6855	2.8534	3.0212	6.8817	53	279	178	5	1	2
-3.6926	-6.3782	-3.6926	5.5389	-2.5177	-4.5319	2.182	1.5106	1.0071	4.1962	4.1962	1.8463	4.1962	-1.1749	2.8534	2.6855	3.3569	6.8817	53	280	179	5	1	2
-3.6926	-6.2103	-3.3569	5.8746	-2.182	-4.364	2.5177	1.8463	1.3428	4.5319	4.5319	2.182	4.364	-1.0071	3.0212	2.5177	3.5248	6.8817	53	281	180	5	1	2
-3.3569	-5.8746	-2.8534	6.3782	-2.0142	-3.8605	2.8534	2.182	1.6785	4.8676	4.8676	2.3499	4.6997	-0.6714	3.1891	2.182	3.6926	7.0496	53	282	181	5	1	2
-3.0212	-5.5389	-2.5177	6.7139	-1.8463	-3.5248	3.5248	2.5177	2.182	5.2032	5.3711	2.6855	5.0354	-0.5035	3.5248	2.182	4.0283	7.0496	53	283	182	5	1	2
-2.6855	-5.0354	-2.0142	6.8817	-1.3428	-3.0212	3.8605	3.0212	2.6855	5.3711	5.8746	3.1891	5.3711	-0.3357	3.8605	2.0142	4.364	7.0496	53	284	183	5	1	2
-2.3499	-4.5319	-1.1749	7.2174	-0.8392	-2.3499	4.364	3.5248	3.3569	6.0425	6.2103	3.8605	5.8746	-0.1678	4.364	2.182	5.0354	7.0496	53	285	184	5	1	2
-2.0142	-4.0283	-0.5035	7.7209	-0.3357	-1.6785	4.6997	4.0283	3.8605	6.546	6.7139	4.364	6.3782	0	4.6997	2.3499	5.3711	7.2174	53	286	185	5	1	2
-1.3428	-3.5248	-0.1678	8.2245	0	-1.5106	5.2032	4.364	4.1962	6.8817	7.2174	4.8676	6.7139	0.1678	5.0354	2.182	5.5389	7.3853	53	287	186	5	1	2
-0.8392	-3.0212	0.6714	8.5602	0.3357	-0.8392	5.7068	4.8676	4.8676	7.5531	7.7209	5.3711	7.2174	0.3357	5.5389	2.3499	5.8746	7.3853	53	288	187	5	1	2
-0.5035	-2.3499	1.3428	8.8959	0.8392	-0.1678	6.2103	5.0354	5.3711	7.8888	7.8888	5.7068	7.7209	0.3357	5.8746	2.5177	6.2103	7.3853	53	289	188	5	1	2
-0.1678	-1.8463	1.8463	9.3994	1.3428	0.3357	6.546	5.3711	5.8746	8.2245	8.3923	6.0425	8.0566	0.5035	6.2103	2.5177	6.2103	7.5531	53	290	189	5	1	2
0.3357	-1.1749	2.5177	9.5673	1.6785	0.6714	6.8817	5.5389	6.3782	8.5602	8.5602	6.2103	8.5602	0.5035	6.546	2.6855	6.546	7.5531	53	291	190	5	1	2
0.5035	-1.0071	2.8534	9.7351	1.8463	1.1749	7.0496	5.7068	6.546	8.8959	8.5602	6.3782	8.728	0.5035	6.7139	2.6855	6.7139	7.3853	53	292	191	5	1	2
0.8392	-0.5035	3.1891	10.0708	2.0142	1.5106	7.2174	5.7068	6.8817	9.0637	8.5602	6.546	8.8959	0.5035	6.8817	2.6855	6.8817	7.3853	53	293	192	5	1	2
1.1749	0	3.5248	10.2386	2.3499	2.0142	7.5531	5.7068	7.2174	9.3994	8.728	6.7139	9.0637	0.6714	7.2174	2.6855	7.0496	7.3853	53	294	193	5	1	2
1.3428	0	3.6926	10.2386	2.3499	1.8463	7.3853	5.5389	7.2174	9.2316	8.5602	6.546	9.0637	0.5035	7.2174	2.8534	7.0496	7.0496	53	295	194	5	1	2
1.3428	0.3357	4.0283	10.0708	2.3499	2.0142	7.3853	5.5389	7.3853	9.2316	8.3923	6.3782	9.0637	0.5035	7.2174	2.6855	7.0496	6.8817	53	296	195	5	1	2
1.6785	0.5035	4.1962	10.2386	2.3499	2.182	7.5531	5.3711	7.3853	9.3994	8.3923	6.2103	8.8959	0.5035	7.2174	2.5177	6.7139	6.7139	53	297	196	5	1	2
1.6785	0.8392	4.364	10.2386	2.3499	2.3499	7.3853	5.3711	7.2174	9.3994	8.2245	6.2103	8.728	0.5035	7.2174	2.6855	6.7139	6.546	53	298	197	5	1	2
1.6785	0.6714	4.0283	10.0708	2.3499	2.182	7.2174	5.2032	7.0496	9.0637	7.8888	5.8746	8.5602	0.3357	7.0496	2.6855	6.7139	6.2103	53	299	198	5	1	2
1.6785	0.6714	4.0283	9.903	2.182	2.182	7.0496	4.8676	6.8817	8.8959	7.5531	5.5389	8.2245	0.1678	6.8817	2.6855	6.546	6.0425	53	300	199	5	1	2
1.8463	0.8392	4.0283	9.903	2.182	2.182	6.8817	4.8676	6.7139	8.8959	7.5531	5.3711	7.8888	0.1678	6.7139	2.8534	6.3782	5.8746	53	301	200	5	1	2
1.6785	0.8392	4.0283	9.7351	2.0142	2.0142	6.546	4.5319	6.3782	8.5602	7.2174	5.0354	7.7209	0	6.546	3.0212	6.3782	5.7068	53	302	201	5	1	2
1.6785	0.8392	3.8605	9.5673	1.8463	1.8463	6.2103	4.364	6.0425	8.2245	6.8817	4.6997	7.2174	-0.1678	6.2103	3.0212	6.0425	5.5389	53	303	202	5	1	2
1.6785	1.0071	3.6926	9.3994	1.6785	1.6785	5.8746	4.1962	5.5389	8.0566	6.7139	4.364	6.8817	-0.1678	5.8746	3.1891	5.8746	5.5389	53	304	203	5	1	2
1.6785	0.6714	3.5248	9.0637	1.3428	1.5106	5.5389	3.8605	5.2032	7.5531	6.3782	4.0283	6.3782	-0.3357	5.5389	3.1891	5.5389	5.3711	53	305	204	5	1	2
1.5106	0.3357	3.1891	8.728	1.1749	1.1749	5.0354	3.6926	4.8676	7.2174	6.0425	3.5248	5.8746	-0.5035	5.3711	3.3569	5.3711	5.2032	53	306	205	5	1	2
1.3428	0	3.0212	8.5602	0.8392	0.8392	4.6997	3.5248	4.5319	6.8817	5.7068	3.1891	5.5389	-0.5035	5.2032	3.5248	5.2032	5.2032	53	307	206	5	1	2
1.1749	-0.5035	2.5177	8.3923	0.3357	0.5035	4.1962	3.1891	3.8605	6.2103	5.5389	2.6855	4.8676	-0.5035	4.6997	3.6926	4.8676	5.2032	53	308	207	5	1	2
1.1749	-0.8392	2.182	8.2245	0	0.1678	3.8605	3.0212	3.3569	5.8746	5.0354	2.6855	4.5319	-0.5035	4.5319	3.8605	4.6997	5.3711	53	309	208	5	1	2
1.0071	-1.3428	1.8463	7.8888	-0.3357	-0.1678	3.5248	2.8534	3.0212	5.5389	4.8676	2.3499	4.1962	-0.5035	4.364	3.8605	4.5319	5.5389	53	310	209	5	1	2
0.5035	-1.6785	1.5106	7.3853	-0.5035	-0.3357	3.0212	2.6855	2.6855	5.3711	4.8676	2.182	3.8605	-0.6714	4.364	3.8605	4.364	5.5389	53	311	210	5	1	2
0.1678	-2.182	1.1749	7.2174	-0.8392	-0.6714	2.6855	2.6855	2.3499	5.0354	4.6997	2.0142	3.6926	-0.6714	4.1962	4.0283	4.1962	5.7068	53	312	211	5	1	2
-0.1678	-2.5177	0.6714	6.8817	-1.1749	-1.0071	2.3499	2.6855	2.182	4.8676	4.8676	1.8463	3.3569	-0.6714	4.1962	4.1962	4.1962	6.0425	53	313	212	5	1	2
-0.6714	-3.1891	0.1678	6.7139	-1.5106	-1.3428	1.8463	2.5177	1.8463	4.5319	4.6997	1.5106	3.1891	-0.6714	4.1962	4.364	4.0283	6.546	53	314	213	5	1	2
-1.0071	-3.6926	-0.1678	6.3782	-1.8463	-1.6785	1.6785	2.5177	1.6785	4.364	4.8676	1.5106	3.0212	-0.6714	4.1962	4.6997	4.0283	6.8817	53	315	214	5	1	2
-1.3428	-4.0283	-0.6714	6.0425	-2.0142	-1.8463	1.5106	2.5177	1.5106	4.364	5.3711	1.6785	3.0212	-0.6714	4.364	4.6997	4.0283	7.3853	53	316	215	5	1	2
-1.8463	-4.364	-0.8392	5.7068	-2.0142	-2.0142	1.5106	2.8534	1.5106	4.364	5.5389	1.8463	3.1891	-0.6714	4.6997	4.8676	4.364	7.8888	53	317	216	5	1	2
-2.182	-4.6997	-1.3428	5.5389	-2.182	-2.182	1.3428	2.8534	1.3428	4.364	5.8746	2.0142	3.1891	-0.6714	4.8676	5.0354	4.5319	8.3923	53	318	217	5	1	2
-2.5177	-5.0354	-1.6785	5.2032	-2.3499	-2.3499	1.1749	2.8534	1.3428	4.364	6.2103	2.182	3.3569	-0.6714	5.0354	5.2032	4.6997	8.8959	53	319	218	5	1	2
-3.0212	-5.3711	-2.0142	5.2032	-2.3499	-2.5177	1.0071	3.0212	1.1749	4.364	6.546	2.3499	3.3569	-0.5035	5.2032	5.5389	4.8676	9.3994	53	320	219	5	1	2
-3.3569	-5.5389	-2.3499	4.6997	-2.5177	-2.6855	1.0071	3.0212	1.1749	4.364	6.8817	2.3499	3.5248	-0.5035	5.5389	5.7068	5.0354	9.7351	53	321	220	5	1	2
12.4207	6.546	7.5531	8.0566	0.8392	5.2032	8.728	2.0142	4.0283	5.2032	-0.3357	0.1678	6.0425	0.6714	-2.8534	0.5035	0.3357	2.5177	53	261	160	6	1	2
12.4207	6.546	7.5531	8.0566	1.0071	5.2032	8.5602	2.182	4.1962	4.8676	-0.5035	0	5.5389	0.5035	-2.8534	0.5035	0.1678	2.3499	53	262	161	6	1	2
12.4207	6.546	7.3853	7.7209	1.1749	5.3711	8.3923	2.182	4.0283	4.6997	-0.8392	-0.1678	5.0354	0.3357	-3.3569	0.5035	-0.1678	2.0142	53	263	162	6	1	2
12.2528	6.546	7.3853	7.5531	1.1749	5.2032	8.2245	2.182	3.8605	4.5319	-1.1749	-0.5035	4.6997	0.1678	-3.8605	0.3357	-0.5035	1.6785	53	264	163	6	1	2
12.085	6.7139	7.3853	7.3853	1.3428	5.2032	8.0566	2.3499	3.6926	4.364	-1.3428	-0.6714	4.5319	0	-4.1962	0.5035	-0.8392	1.5106	53	265	164	6	1	2
12.085	6.7139	7.2174	7.3853	1.3428	5.2032	8.0566	2.182	3.5248	4.1962	-1.6785	-0.8392	4.1962	-0.3357	-4.6997	0.3357	-1.3428	1.1749	53	266	165	6	1	2
11.7493	6.7139	7.2174	7.2174	1.3428	5.0354	7.8888	2.3499	3.5248	4.0283	-1.8463	-1.0071	4.0283	-0.5035	-5.0354	0.3357	-1.6785	1.1749	53	267	166	6	1	2
11.4136	6.546	7.2174	7.0496	1.1749	5.0354	7.8888	2.182	3.3569	3.8605	-2.182	-1.1749	3.8605	-0.8392	-5.7068	0.3357	-2.3499	0.8392	53	268	167	6	1	2
11.2457	6.7139	7.0496	6.8817	1.3428	5.0354	7.7209	2.182	3.3569	3.6926	-2.3499	-1.3428	3.6926	-1.0071	-5.8746	0.1678	-2.5177	0.8392	53	269	168	6	1	2
11.2457	6.546	6.8817	6.7139	1.1749	5.0354	7.7209	2.182	3.3569	3.6926	-2.6855	-1.5106	3.5248	-1.1749	-6.2103	0.1678	-2.8534	0.5035	53	270	169	6	1	2
11.0779	6.546	6.8817	6.546	1.1749	5.0354	7.5531	2.182	3.1891	3.6926	-2.8534	-1.6785	3.3569	-1.3428	-6.546	0	-3.0212	0.1678	53	271	170	6	1	2
10.5743	6.2103	6.7139	6.3782	1.1749	5.0354	7.5531	2.182	3.3569	3.6926	-3.0212	-1.5106	3.3569	-1.3428	-6.546	0	-3.3569	0	53	272	171	6	1	2
10.4065	6.0425	6.546	6.3782	1.0071	5.2032	7.5531	2.0142	3.3569	3.6926	-3.5248	-1.8463	3.1891	-1.5106	-7.0496	-0.1678	-3.5248	-0.5035	53	273	172	6	1	2
10.2386	6.0425	6.546	6.0425	0.8392	5.2032	7.3853	2.0142	3.1891	3.6926	-3.6926	-1.8463	3.1891	-1.5106	-7.2174	-0.3357	-3.6926	-0.6714	53	274	173	6	1	2
10.0708	5.8746	6.3782	5.7068	0.6714	5.2032	7.5531	1.8463	3.1891	3.6926	-3.8605	-2.0142	3.1891	-1.5106	-7.2174	-0.5035	-3.6926	-1.1749	53	275	174	6	1	2
10.0708	5.8746	6.3782	5.7068	0.5035	5.3711	7.5531	1.6785	3.1891	3.6926	-4.0283	-2.0142	3.5248	-1.5106	-7.3853	-1.0071	-3.8605	-1.6785	53	276	175	6	1	2
9.903	5.7068	6.2103	5.7068	0.3357	5.3711	7.5531	1.5106	3.1891	3.6926	-4.364	-2.3499	3.5248	-1.5106	-7.3853	-1.3428	-3.8605	-2.182	53	277	176	6	1	2
9.7351	5.8746	6.2103	5.5389	0.3357	5.5389	7.7209	1.6785	3.3569	4.0283	-4.364	-2.3499	3.3569	-1.3428	-7.2174	-1.5106	-3.6926	-2.3499	53	278	177	6	1	2
9.903	5.8746	6.2103	5.7068	0.3357	5.5389	7.8888	1.6785	3.1891	4.1962	-4.364	-2.182	3.5248	-1.1749	-7.0496	-1.6785	-3.5248	-2.5177	53	279	178	6	1	2
10.0708	5.7068	6.2103	5.7068	0.1678	5.5389	8.0566	1.5106	3.1891	4.1962	-4.6997	-2.3499	3.8605	-1.1749	-7.0496	-1.8463	-3.5248	-3.0212	53	280	179	6	1	2
10.0708	6.0425	6.3782	5.7068	0.1678	5.8746	8.3923	1.6785	3.3569	4.364	-4.6997	-2.3499	4.0283	-1.0071	-6.8817	-2.0142	-3.3569	-3.1891	53	281	180	6	1	2
10.2386	6.3782	6.3782	6.0425	0.3357	5.8746	8.5602	1.6785	3.3569	4.5319	-4.5319	-2.3499	4.1962	-0.8392	-6.7139	-2.182	-3.0212	-3.1891	53	282	181	6	1	2
10.4065	6.546	6.546	6.3782	0.3357	6.0425	8.8959	1.8463	3.5248	5.0354	-4.5319	-2.3499	4.6997	-0.6714	-6.546	-2.182	-2.8534	-3.1891	53	283	182	6	1	2
10.5743	6.7139	6.546	6.546	0.3357	6.2103	9.2316	1.8463	3.5248	5.2032	-4.364	-2.182	4.6997	-0.5035	-6.3782	-2.182	-2.6855	-3.1891	53	284	183	6	1	2
10.91	6.7139	6.7139	6.7139	0.5035	6.3782	9.5673	2.0142	3.6926	5.5389	-4.364	-2.182	5.0354	-0.3357	-6.2103	-2.182	-2.3499	-3.1891	53	285	184	6	1	2
10.91	6.546	6.546	6.8817	0.5035	6.3782	9.903	2.182	3.5248	5.7068	-4.1962	-2.0142	5.0354	-0.1678	-5.8746	-2.182	-2.0142	-3.1891	53	286	185	6	1	2
11.2457	6.7139	6.7139	7.0496	0.6714	6.3782	10.2386	2.3499	3.6926	5.8746	-4.0283	-1.8463	5.3711	0	-5.8746	-2.182	-1.8463	-3.0212	53	287	186	6	1	2
11.2457	6.8817	6.7139	7.3853	0.3357	6.3782	10.5743	2.3499	3.5248	6.2103	-4.1962	-1.8463	5.7068	0	-5.8746	-2.3499	-1.6785	-3.0212	53	288	187	6	1	2
11.5814	7.0496	6.7139	7.7209	0.5035	6.546	10.91	2.3499	3.6926	6.3782	-3.8605	-1.6785	6.0425	0.3357	-5.7068	-2.3499	-1.3428	-2.8534	53	289	188	6	1	2
11.5814	6.8817	6.546	7.7209	0.5035	6.7139	11.0779	2.6855	3.8605	6.546	-3.6926	-1.3428	6.3782	0.3357	-5.3711	-2.182	-1.0071	-2.5177	53	290	189	6	1	2
11.5814	6.8817	6.546	7.8888	0.5035	6.546	11.4136	2.6855	4.0283	6.8817	-3.5248	-1.1749	6.546	0.3357	-5.2032	-2.182	-0.8392	-2.5177	53	291	190	6	1	2
11.7493	6.7139	6.546	8.3923	0.5035	6.546	11.9171	2.8534	4.0283	7.2174	-3.3569	-1.0071	7.0496	0.5035	-5.0354	-2.3499	-0.5035	-2.3499	53	292	191	6	1	2
11.9171	6.546	6.546	8.5602	0.5035	6.546	12.085	2.8534	4.1962	7.5531	-3.0212	-0.6714	7.3853	0.5035	-4.8676	-2.3499	-0.3357	-2.182	53	293	192	6	1	2
11.9171	6.546	6.546	8.728	0.3357	6.546	12.4207	3.0212	4.1962	7.7209	-2.8534	-0.5035	7.8888	0.5035	-4.5319	-2.3499	-0.1678	-2.0142	53	294	193	6	1	2
11.9171	6.3782	6.3782	8.8959	0.5035	6.546	12.7563	3.1891	4.364	8.0566	-2.5177	0	8.2245	0.5035	-4.364	-2.3499	0.1678	-1.8463	53	295	194	6	1	2
11.9171	6.0425	6.3782	9.0637	0.5035	6.7139	12.9242	3.3569	4.6997	8.3923	-2.182	0.3357	8.728	0.5035	-4.0283	-2.182	0.3357	-1.6785	53	296	195	6	1	2
11.9171	6.0425	6.3782	9.2316	0.5035	6.7139	13.2599	3.5248	4.8676	8.5602	-1.8463	0.8392	9.2316	0.5035	-3.6926	-2.182	0.6714	-1.3428	53	297	196	6	1	2
11.9171	6.0425	6.3782	9.3994	0.6714	6.8817	13.4277	3.8605	5.2032	9.0637	-1.3428	1.3428	9.7351	0.5035	-3.1891	-2.0142	0.8392	-1.1749	53	298	197	6	1	2
11.7493	5.8746	6.3782	9.5673	0.6714	7.0496	13.5956	4.0283	5.5389	9.2316	-0.8392	2.0142	10.2386	0.3357	-2.8534	-2.0142	1.1749	-0.8392	53	299	198	6	1	2
11.9171	5.8746	6.546	9.903	0.8392	7.2174	13.9313	4.364	5.8746	9.7351	-0.3357	2.5177	10.91	0.5035	-2.3499	-1.8463	1.3428	-0.6714	53	300	199	6	1	2
11.9171	5.8746	6.7139	10.0708	1.0071	7.3853	14.267	4.6997	6.2103	10.0708	0.1678	3.1891	11.4136	0.5035	-2.0142	-1.6785	1.6785	-0.3357	53	301	200	6	1	2
11.9171	5.7068	6.7139	10.2386	1.0071	7.7209	14.4348	4.8676	6.7139	10.2386	0.6714	4.0283	11.9171	0.5035	-1.5106	-1.6785	1.8463	-0.1678	53	302	201	6	1	2
11.7493	5.7068	6.8817	10.2386	1.1749	7.8888	14.6027	5.2032	7.0496	10.5743	1.1749	4.5319	12.4207	0.5035	-1.1749	-1.5106	2.0142	0.1678	53	303	202	6	1	2
11.7493	5.5389	6.8817	10.2386	1.3428	8.0566	14.7705	5.3711	7.3853	10.91	1.5106	5.0354	12.7563	0.5035	-1.0071	-1.3428	2.182	0.3357	53	304	203	6	1	2
11.5814	5.3711	7.0496	10.2386	1.3428	8.2245	14.9384	5.5389	7.7209	11.0779	2.0142	5.5389	13.092	0.5035	-0.6714	-1.3428	2.182	0.5035	53	305	204	6	1	2
11.4136	5.3711	6.8817	10.4065	1.5106	8.3923	14.9384	5.7068	8.0566	11.2457	2.5177	5.8746	13.4277	0.5035	-0.3357	-1.0071	2.182	0.8392	53	306	205	6	1	2
11.0779	5.0354	6.8817	10.4065	1.5106	8.2245	14.9384	5.7068	8.0566	11.4136	2.6855	6.2103	13.5956	0.5035	-0.3357	-1.1749	2.182	0.6714	53	307	206	6	1	2
11.0779	5.0354	6.8817	10.2386	1.3428	8.3923	14.7705	5.8746	8.2245	11.4136	2.8534	6.3782	13.5956	0.5035	-0.3357	-1.1749	2.182	0.6714	53	308	207	6	1	2
10.7422	4.6997	6.8817	10.2386	1.3428	8.3923	14.7705	5.8746	8.3923	11.4136	3.1891	6.7139	13.7634	0.5035	-0.1678	-1.1749	2.182	0.6714	53	309	208	6	1	2
10.5743	4.5319	6.546	10.2386	1.3428	8.3923	14.7705	5.7068	8.5602	11.4136	3.3569	6.8817	13.9313	0.5035	0	-1.3428	2.182	0.5035	53	310	209	6	1	2
10.2386	4.5319	6.546	10.0708	1.3428	8.3923	14.7705	5.8746	8.728	11.5814	3.3569	7.0496	13.9313	0.5035	-0.1678	-1.3428	2.182	0.5035	53	311	210	6	1	2
10.0708	4.5319	6.546	10.0708	1.5106	8.5602	14.6027	5.8746	8.8959	11.5814	3.6926	7.2174	14.0991	0.5035	0.1678	-1.3428	2.3499	0.5035	53	312	211	6	1	2
9.7351	4.364	6.3782	10.2386	1.5106	8.5602	14.6027	5.8746	8.8959	11.7493	4.0283	7.5531	14.267	0.5035	0.1678	-1.5106	2.3499	0.5035	53	313	212	6	1	2
9.7351	4.364	6.3782	10.2386	1.3428	8.728	14.6027	6.0425	9.0637	11.9171	4.1962	7.7209	14.4348	0.5035	0.3357	-1.5106	2.182	0.5035	53	314	213	6	1	2
9.3994	4.364	6.3782	10.2386	1.3428	8.8959	14.7705	6.0425	9.3994	12.085	4.5319	7.8888	14.6027	0.5035	0.5035	-1.6785	2.182	0.6714	53	315	214	6	1	2
9.3994	4.364	6.2103	10.2386	1.5106	8.8959	14.7705	6.2103	9.7351	12.085	4.8676	8.2245	14.7705	0.5035	0.6714	-1.6785	2.3499	0.8392	53	316	215	6	1	2
9.3994	4.1962	6.3782	10.4065	1.6785	9.0637	14.7705	6.546	10.0708	12.4207	5.3711	8.5602	15.1062	0.5035	0.8392	-1.6785	2.3499	1.0071	53	317	216	6	1	2
9.3994	4.364	6.3782	10.2386	1.8463	9.2316	14.9384	6.546	10.4065	12.5885	5.7068	8.8959	15.4419	0.5035	1.0071	-1.5106	2.5177	1.3428	53	318	217	6	1	2
9.3994	4.364	6.546	10.4065	1.8463	9.5673	15.1062	6.8817	10.91	12.9242	6.3782	9.3994	15.7776	0.5035	1.1749	-1.5106	2.5177	1.6785	53	319	218	6	1	2
9.5673	4.5319	6.7139	10.5743	1.8463	9.7351	15.274	7.2174	11.4136	13.2599	6.8817	9.903	16.2811	0.5035	1.3428	-1.3428	2.6855	2.182	53	320	219	6	1	2
9.5673	4.6997	6.7139	10.5743	2.182	9.903	15.4419	7.5531	11.5814	13.5956	7.2174	10.4065	16.6168	0.5035	1.6785	-1.0071	3.0212	2.6855	53	321	220	6	1	2
17.1204	12.9242	16.2811	14.6027	10.0708	10.4065	11.4136	11.2457	11.5814	10.0708	11.2457	8.2245	10.4065	-2.8534	8.0566	12.085	7.8888	12.9242	53	261	160	7	1	2
17.2882	13.2599	16.449	14.6027	10.0708	10.4065	11.4136	11.2457	11.4136	9.903	11.2457	8.2245	10.2386	-2.8534	7.8888	11.9171	7.8888	12.7563	53	262	161	7	1	2
17.2882	13.4277	16.6168	14.6027	10.0708	10.4065	11.4136	10.91	11.4136	9.7351	11.0779	7.8888	9.903	-2.8534	7.8888	11.9171	8.0566	12.4207	53	263	162	7	1	2
17.6239	13.5956	16.9525	14.7705	10.4065	10.5743	11.4136	11.0779	11.2457	9.7351	11.0779	7.7209	9.903	-2.6855	7.8888	11.9171	8.0566	12.4207	53	264	163	7	1	2
17.7917	13.9313	17.2882	14.7705	10.2386	10.4065	11.4136	10.91	11.0779	9.3994	10.91	7.5531	9.7351	-2.6855	7.7209	11.7493	8.0566	12.4207	53	265	164	7	1	2
18.1274	14.267	17.6239	14.7705	10.5743	10.7422	11.2457	10.91	11.2457	9.3994	10.91	7.3853	9.5673	-2.5177	7.7209	11.7493	8.0566	12.4207	53	266	165	7	1	2
18.2953	14.4348	17.9596	14.9384	10.7422	10.5743	11.2457	10.91	11.0779	9.2316	10.91	7.2174	9.2316	-2.5177	7.5531	11.7493	8.0566	12.2528	53	267	166	7	1	2
18.631	14.6027	18.2953	14.7705	10.91	10.7422	11.2457	10.7422	11.0779	8.8959	10.7422	7.0496	9.0637	-2.5177	7.2174	11.7493	7.8888	12.085	53	268	167	7	1	2
19.3024	15.1062	18.9667	15.1062	11.2457	11.0779	11.2457	10.91	11.2457	8.8959	10.7422	7.0496	9.0637	-2.3499	7.2174	11.9171	7.8888	12.2528	53	269	168	7	1	2
19.6381	15.6097	19.3024	15.1062	11.4136	11.4136	11.0779	10.91	11.4136	8.8959	10.7422	6.8817	8.8959	-2.3499	7.0496	11.9171	7.7209	12.2528	53	270	169	7	1	2
20.1416	15.9454	19.8059	15.274	11.7493	11.5814	11.0779	11.0779	11.5814	8.728	10.7422	6.8817	8.8959	-2.3499	6.8817	12.085	7.7209	12.085	53	271	170	7	1	2
20.6451	16.2811	20.1416	15.1062	12.085	11.7493	10.91	11.0779	11.5814	8.5602	10.7422	6.8817	8.728	-2.5177	6.3782	12.085	7.3853	12.085	53	272	171	7	1	2
21.3165	16.7847	20.813	15.274	12.4207	12.2528	10.91	11.2457	11.9171	8.5602	10.91	7.0496	8.728	-2.5177	6.3782	12.2528	7.3853	12.2528	53	273	172	7	1	2
21.9879	17.2882	21.4844	15.4419	12.9242	12.5885	10.91	11.5814	12.2528	8.728	11.0779	7.0496	8.728	-2.5177	6.2103	12.4207	7.2174	12.4207	53	274	173	7	1	2
22.4915	17.6239	21.9879	15.4419	13.2599	12.9242	10.91	11.7493	12.4207	8.5602	10.91	7.2174	8.728	-2.6855	5.8746	12.5885	7.0496	12.4207	53	275	174	7	1	2
22.995	17.9596	22.3236	15.4419	13.5956	13.4277	10.7422	11.9171	12.7563	8.5602	10.91	7.2174	8.728	-2.8534	5.5389	12.5885	6.7139	12.5885	53	276	175	7	1	2
23.6664	18.2953	22.995	15.6097	13.9313	13.7634	10.91	12.085	12.9242	8.5602	10.91	7.2174	8.728	-3.0212	5.3711	12.5885	6.3782	12.5885	53	277	176	7	1	2
24.1699	18.7988	23.4985	15.7776	14.4348	14.0991	10.7422	12.2528	13.092	8.5602	11.0779	7.3853	8.728	-3.1891	5.0354	12.7563	6.2103	12.4207	53	278	177	7	1	2
24.8413	18.9667	24.1699	15.7776	14.7705	14.6027	10.7422	12.4207	13.4277	8.728	10.91	7.3853	8.728	-3.3569	4.6997	12.7563	6.0425	12.2528	53	279	178	7	1	2
25.6805	19.6381	24.6735	16.1133	15.1062	15.1062	11.0779	12.5885	13.9313	8.8959	10.91	7.7209	9.0637	-3.3569	4.6997	12.7563	5.8746	12.2528	53	280	179	7	1	2
26.1841	19.8059	25.177	16.449	15.6097	15.274	11.0779	12.9242	14.0991	9.0637	10.91	7.8888	9.0637	-3.5248	4.5319	12.9242	5.7068	12.085	53	281	180	7	1	2
26.8555	20.1416	25.6805	16.449	15.7776	15.7776	11.2457	12.9242	14.4348	9.2316	10.91	7.8888	9.0637	-3.6926	4.1962	12.9242	5.5389	11.7493	53	282	181	7	1	2
27.5269	20.6451	26.3519	16.9525	16.449	16.1133	11.5814	13.2599	14.7705	9.5673	11.0779	8.2245	9.5673	-3.6926	4.0283	13.092	5.3711	11.9171	53	283	182	7	1	2
28.0304	20.9808	26.6876	16.9525	16.6168	16.449	11.7493	13.5956	14.9384	9.7351	11.0779	8.2245	9.5673	-3.8605	3.8605	13.092	5.2032	11.7493	53	284	183	7	1	2
29.0375	21.4844	27.5269	17.6239	17.2882	17.1204	12.2528	14.0991	15.6097	10.2386	11.4136	8.728	9.903	-3.6926	4.0283	13.4277	5.2032	12.085	53	285	184	7	1	2
29.541	21.9879	27.8625	17.9596	17.7917	17.4561	12.5885	14.267	15.7776	10.4065	11.7493	8.8959	10.0708	-3.8605	3.8605	13.4277	5.2032	12.085	53	286	185	7	1	2
30.2124	22.4915	28.5339	18.2953	18.2953	17.9596	12.9242	14.7705	16.449	11.0779	12.085	9.3994	10.5743	-3.8605	3.8605	13.7634	5.2032	12.2528	53	287	186	7	1	2
30.8838	22.8271	29.0375	18.631	18.7988	18.4631	13.092	15.1062	16.6168	11.2457	12.2528	9.7351	10.7422	-4.0283	3.6926	14.0991	5.0354	12.5885	53	288	187	7	1	2
31.3873	23.3307	29.2053	18.7988	19.1345	18.631	13.4277	15.4419	16.9525	11.4136	12.5885	9.903	10.91	-4.1962	3.5248	14.4348	4.8676	12.9242	53	289	188	7	1	2
31.723	23.6664	29.7089	19.1345	19.6381	18.9667	13.7634	15.7776	17.1204	11.7493	13.092	10.4065	11.2457	-4.1962	3.6926	14.7705	5.0354	13.2599	53	290	189	7	1	2
32.2266	23.8342	29.8767	19.1345	19.9738	19.1345	13.7634	16.1133	17.4561	12.085	13.2599	10.4065	11.4136	-4.364	3.3569	14.9384	4.8676	13.5956	53	291	190	7	1	2
32.3944	24.1699	29.8767	19.3024	20.3094	19.4702	14.267	16.449	17.6239	12.2528	13.5956	10.5743	11.5814	-4.364	3.3569	15.274	4.8676	13.9313	53	292	191	7	1	2
32.3944	24.3378	29.8767	19.3024	20.3094	19.4702	14.0991	16.449	17.4561	12.2528	13.5956	10.5743	11.4136	-4.5319	3.1891	15.4419	4.6997	13.9313	53	293	192	7	1	2
32.5623	24.3378	29.7089	19.3024	20.4773	19.3024	14.0991	16.6168	17.4561	12.4207	13.7634	10.5743	11.5814	-4.5319	3.0212	15.7776	4.5319	14.267	53	294	193	7	1	2
32.5623	24.5056	29.541	19.1345	20.3094	19.1345	14.0991	16.7847	17.2882	12.2528	13.7634	10.5743	11.4136	-4.5319	2.8534	15.9454	4.5319	14.4348	53	295	194	7	1	2
32.0587	24.3378	29.2053	18.9667	19.9738	18.7988	13.7634	16.449	16.6168	11.9171	13.4277	10.0708	11.0779	-4.6997	2.5177	16.1133	4.0283	14.4348	53	296	195	7	1	2
31.723	24.0021	28.7018	18.631	19.8059	18.631	13.4277	16.449	16.2811	11.5814	13.2599	9.7351	10.7422	-4.6997	2.182	16.2811	3.8605	14.267	53	297	196	7	1	2
31.2195	24.0021	28.0304	18.1274	19.4702	18.1274	13.2599	16.2811	15.7776	11.2457	13.092	9.3994	10.5743	-4.6997	2.0142	16.1133	3.6926	14.4348	53	298	197	7	1	2
30.3802	23.4985	27.359	17.6239	19.1345	17.7917	12.7563	15.9454	15.274	10.91	12.9242	8.8959	10.0708	-4.6997	1.8463	16.2811	3.3569	14.4348	53	299	198	7	1	2
29.541	22.995	26.3519	16.9525	18.4631	16.9525	12.2528	15.4419	14.4348	10.4065	12.2528	8.3923	9.3994	-4.8676	1.1749	16.1133	2.8534	14.267	53	300	199	7	1	2
28.7018	22.4915	25.6805	16.449	18.1274	16.2811	11.7493	15.1062	13.7634	9.7351	12.085	7.7209	8.8959	-5.0354	1.0071	15.9454	2.6855	14.0991	53	301	200	7	1	2
28.0304	21.9879	24.8413	15.9454	17.4561	15.6097	11.2457	14.7705	13.092	9.2316	11.5814	7.2174	8.3923	-5.0354	0.6714	15.9454	2.3499	13.9313	53	302	201	7	1	2
27.0233	21.4844	24.0021	15.274	16.7847	15.1062	10.7422	14.267	12.4207	8.728	11.2457	6.8817	8.0566	-5.0354	0.3357	15.6097	2.0142	13.9313	53	303	202	7	1	2
26.1841	20.9808	23.1628	14.6027	16.449	14.267	10.0708	13.9313	11.7493	8.0566	11.0779	6.2103	7.5531	-5.0354	0.1678	15.6097	1.6785	13.9313	53	304	203	7	1	2
25.177	20.3094	22.1558	13.7634	15.6097	13.4277	9.3994	13.2599	11.0779	7.5531	10.5743	5.7068	7.0496	-5.0354	-0.1678	15.274	1.3428	13.5956	53	305	204	7	1	2
24.3378	19.6381	21.4844	13.092	15.274	13.092	8.8959	13.092	10.5743	7.2174	10.4065	5.3711	6.7139	-5.0354	-0.5035	15.274	1.1749	13.7634	53	306	205	7	1	2
23.6664	19.1345	20.9808	12.4207	14.7705	12.4207	8.3923	12.9242	10.0708	6.7139	10.4065	5.0354	6.546	-5.0354	-0.5035	15.274	1.0071	13.9313	53	307	206	7	1	2
22.995	18.631	20.3094	11.9171	14.4348	12.085	8.0566	12.5885	9.7351	6.3782	10.2386	5.0354	6.3782	-5.2032	-0.5035	15.1062	1.0071	14.0991	53	308	207	7	1	2
22.3236	17.9596	19.8059	11.4136	13.9313	11.5814	7.5531	12.4207	9.3994	6.0425	10.4065	4.8676	6.2103	-5.2032	-0.5035	14.9384	1.0071	14.4348	53	309	208	7	1	2
21.6522	17.4561	19.1345	10.91	13.5956	11.2457	7.3853	12.085	9.0637	5.7068	10.4065	4.6997	6.0425	-5.2032	-0.3357	14.9384	1.0071	14.6027	53	310	209	7	1	2
21.1487	16.9525	18.631	10.5743	13.092	10.7422	7.0496	11.9171	8.8959	5.5389	10.4065	4.6997	6.0425	-5.2032	-0.3357	14.7705	1.0071	14.6027	53	311	210	7	1	2
20.6451	16.449	18.1274	10.2386	12.7563	10.2386	6.7139	11.5814	8.5602	5.2032	10.2386	4.5319	5.8746	-5.0354	-0.1678	14.6027	1.0071	14.6027	53	312	211	7	1	2
19.9738	15.7776	17.6239	9.7351	12.2528	9.903	6.546	11.2457	8.2245	5.0354	10.0708	4.364	5.8746	-5.0354	0	14.267	1.1749	14.4348	53	313	212	7	1	2
19.3024	14.9384	17.2882	9.2316	11.7493	9.3994	6.2103	10.7422	7.8888	4.8676	9.903	4.364	5.8746	-5.0354	0	13.9313	1.1749	14.0991	53	314	213	7	1	2
18.9667	14.6027	16.7847	9.2316	11.4136	9.0637	6.2103	10.4065	7.7209	4.6997	9.5673	4.1962	5.8746	-5.0354	0.3357	13.5956	1.3428	13.9313	53	315	214	7	1	2
18.4631	13.7634	16.2811	8.728	10.5743	8.3923	5.8746	9.7351	7.2174	4.364	9.2316	3.8605	5.7068	-4.8676	0.3357	13.2599	1.1749	13.2599	53	316	215	7	1	2
17.9596	13.2599	15.7776	8.5602	10.2386	8.0566	5.7068	9.2316	6.7139	4.1962	8.728	3.5248	5.5389	-4.6997	0.3357	12.7563	1.5106	12.5885	53	317	216	7	1	2
17.4561	12.5885	15.1062	8.2245	9.3994	7.3853	5.3711	8.3923	6.3782	3.8605	7.8888	3.0212	5.3711	-4.6997	0.5035	12.085	1.3428	11.9171	53	318	217	7	1	2
17.2882	11.7493	14.7705	7.8888	8.728	7.0496	5.2032	7.8888	5.8746	3.5248	7.3853	2.6855	5.0354	-4.5319	0.5035	11.4136	1.3428	11.4136	53	319	218	7	1	2
16.7847	11.2457	14.267	7.5531	8.2245	6.3782	4.8676	7.0496	5.3711	3.3569	6.7139	2.0142	4.6997	-4.5319	0.5035	10.7422	1.3428	10.5743	53	320	219	7	1	2
16.7847	10.7422	13.9313	7.3853	7.5531	6.2103	4.8676	6.546	4.8676	3.1891	6.2103	1.8463	4.6997	-4.364	0.5035	10.4065	1.3428	10.0708	53	321	220	7	1	2
-3.6926	-2.182	-5.2032	-5.2032	-3.0212	-5.7068	-5.0354	-3.1891	-7.3853	-7.0496	-2.5177	-3.1891	-5.8746	-0.1678	-8.0566	-0.8392	-8.5602	-5.2032	53	261	160	8	1	2
-3.6926	-2.0142	-5.3711	-5.3711	-3.0212	-5.8746	-5.2032	-3.1891	-7.5531	-7.3853	-2.5177	-3.3569	-6.0425	-0.1678	-8.3923	-1.0071	-9.0637	-5.3711	53	262	161	8	1	2
-3.3569	-2.0142	-5.2032	-5.7068	-2.6855	-5.7068	-5.3711	-2.8534	-7.3853	-7.5531	-2.3499	-3.1891	-6.2103	-0.3357	-8.5602	-1.0071	-9.2316	-5.3711	53	263	162	8	1	2
-3.1891	-1.8463	-5.2032	-5.8746	-2.6855	-5.8746	-5.5389	-2.6855	-7.3853	-7.8888	-2.3499	-3.1891	-6.546	-0.3357	-9.0637	-1.1749	-9.5673	-5.7068	53	264	163	8	1	2
-3.0212	-1.6785	-5.0354	-6.0425	-2.3499	-5.5389	-5.5389	-2.5177	-7.2174	-8.0566	-2.182	-3.0212	-6.546	-0.3357	-9.2316	-1.0071	-9.7351	-5.7068	53	265	164	8	1	2
-2.8534	-1.3428	-5.0354	-6.2103	-2.182	-5.3711	-5.7068	-2.182	-7.0496	-8.2245	-1.8463	-2.8534	-6.7139	-0.5035	-9.3994	-1.0071	-9.903	-5.7068	53	266	165	8	1	2
-2.5177	-1.0071	-4.8676	-6.2103	-2.0142	-5.0354	-5.7068	-1.8463	-6.8817	-8.3923	-1.8463	-2.5177	-6.7139	-0.5035	-9.5673	-1.0071	-10.0708	-5.7068	53	267	166	8	1	2
-2.5177	-1.0071	-4.6997	-6.546	-1.8463	-5.0354	-5.8746	-1.6785	-6.8817	-8.728	-1.8463	-2.5177	-6.8817	-0.5035	-9.903	-1.0071	-10.2386	-5.8746	53	268	167	8	1	2
-2.182	-0.6714	-4.5319	-6.7139	-1.6785	-4.6997	-5.7068	-1.3428	-6.546	-8.8959	-1.5106	-2.182	-6.7139	-0.5035	-9.903	-1.0071	-10.4065	-6.0425	53	269	168	8	1	2
-2.0142	-0.1678	-4.364	-6.7139	-1.3428	-4.6997	-5.7068	-1.0071	-6.546	-8.8959	-1.3428	-2.0142	-6.7139	-0.6714	-10.0708	-1.0071	-10.4065	-6.0425	53	270	169	8	1	2
-1.6785	0.1678	-4.1962	-6.7139	-1.1749	-4.364	-5.7068	-0.6714	-6.2103	-9.0637	-1.3428	-1.8463	-6.7139	-0.6714	-10.0708	-1.0071	-10.4065	-6.0425	53	271	170	8	1	2
-1.3428	0.5035	-4.0283	-6.8817	-1.0071	-4.1962	-5.8746	-0.5035	-6.0425	-9.0637	-1.1749	-1.8463	-6.8817	-0.6714	-10.2386	-1.0071	-10.4065	-6.2103	53	272	171	8	1	2
-1.3428	0.5035	-3.8605	-7.0496	-0.8392	-4.0283	-5.8746	-0.3357	-6.0425	-9.2316	-1.1749	-1.6785	-6.8817	-0.6714	-10.2386	-1.0071	-10.4065	-6.3782	53	273	172	8	1	2
-1.3428	0.8392	-4.0283	-7.2174	-1.0071	-4.0283	-5.8746	-0.3357	-5.8746	-9.3994	-1.3428	-1.6785	-7.0496	-0.6714	-10.5743	-1.1749	-10.4065	-6.546	53	274	173	8	1	2
-1.1749	0.8392	-4.0283	-7.2174	-1.0071	-4.0283	-5.8746	-0.5035	-5.8746	-9.7351	-1.5106	-1.8463	-7.2174	-0.6714	-10.7422	-1.3428	-10.2386	-6.7139	53	275	174	8	1	2
-1.3428	1.0071	-4.1962	-7.3853	-1.0071	-4.1962	-6.0425	-0.5035	-6.0425	-9.903	-1.8463	-2.0142	-7.3853	-0.5035	-10.7422	-1.5106	-10.2386	-6.8817	53	276	175	8	1	2
-1.3428	1.0071	-4.364	-7.7209	-1.3428	-4.5319	-6.2103	-0.6714	-6.2103	-10.2386	-2.182	-2.182	-7.5531	-0.5035	-10.91	-1.6785	-10.2386	-7.2174	53	277	176	8	1	2
-1.5106	1.1749	-4.364	-7.7209	-1.3428	-4.5319	-6.2103	-0.8392	-6.2103	-10.2386	-2.5177	-2.3499	-7.7209	-0.5035	-10.91	-1.6785	-10.0708	-7.3853	53	278	177	8	1	2
-1.6785	1.0071	-4.5319	-7.8888	-1.6785	-5.0354	-6.3782	-1.1749	-6.546	-10.5743	-2.8534	-2.6855	-8.0566	-0.3357	-11.0779	-2.0142	-10.0708	-7.8888	53	279	178	8	1	2
-1.8463	1.0071	-4.6997	-8.0566	-1.8463	-5.2032	-6.546	-1.3428	-6.7139	-10.7422	-3.1891	-2.8534	-8.2245	-0.3357	-11.0779	-2.182	-9.903	-8.0566	53	280	179	8	1	2
-2.182	0.8392	-5.0354	-8.2245	-2.182	-5.7068	-6.7139	-1.6785	-7.0496	-11.0779	-3.8605	-3.3569	-8.5602	-0.3357	-11.2457	-2.3499	-9.903	-8.5602	53	281	180	8	1	2
-2.3499	0.8392	-5.3711	-8.3923	-2.5177	-6.0425	-6.8817	-2.182	-7.3853	-11.4136	-4.364	-3.8605	-8.8959	-0.1678	-11.4136	-2.8534	-9.903	-8.8959	53	282	181	8	1	2
-2.8534	0.6714	-5.7068	-8.728	-2.8534	-6.546	-7.2174	-2.5177	-7.7209	-11.7493	-4.8676	-4.364	-9.3994	-0.1678	-11.5814	-3.0212	-9.903	-9.2316	53	283	182	8	1	2
-3.0212	0.6714	-5.7068	-8.728	-3.0212	-6.8817	-7.2174	-2.6855	-8.0566	-12.085	-5.0354	-4.6997	-9.5673	-0.1678	-11.5814	-3.1891	-9.5673	-9.3994	53	284	183	8	1	2
-3.3569	0.3357	-6.2103	-8.728	-3.3569	-7.2174	-7.5531	-3.0212	-8.3923	-12.4207	-5.7068	-5.2032	-9.903	-0.1678	-11.9171	-3.3569	-9.5673	-9.7351	53	285	184	8	1	2
-3.5248	0.1678	-6.3782	-9.0637	-3.6926	-7.5531	-7.5531	-3.1891	-8.728	-12.7563	-6.0425	-5.5389	-10.2386	0	-12.085	-3.3569	-9.7351	-10.0708	53	286	185	8	1	2
-3.6926	0.1678	-6.546	-8.8959	-3.8605	-7.7209	-7.5531	-3.5248	-8.8959	-12.7563	-6.0425	-5.8746	-10.4065	0	-12.085	-3.3569	-9.5673	-10.0708	53	287	186	8	1	2
-3.8605	0.1678	-6.7139	-8.8959	-4.0283	-8.0566	-7.7209	-3.6926	-9.2316	-13.092	-6.3782	-6.2103	-10.7422	0	-12.085	-3.3569	-9.5673	-10.0708	53	288	187	8	1	2
-4.0283	0	-6.8817	-9.0637	-4.1962	-8.2245	-7.7209	-3.6926	-9.5673	-13.4277	-6.546	-6.546	-10.91	0	-12.4207	-3.5248	-9.5673	-10.0708	53	289	188	8	1	2
-4.1962	-0.1678	-7.0496	-8.8959	-4.364	-8.2245	-7.7209	-3.8605	-9.7351	-13.5956	-6.7139	-6.8817	-11.0779	0.1678	-12.5885	-3.5248	-9.5673	-10.0708	53	290	189	8	1	2
-4.0283	0	-7.0496	-8.728	-4.364	-8.2245	-7.7209	-3.6926	-9.7351	-13.4277	-6.7139	-6.8817	-11.2457	0.1678	-12.5885	-3.1891	-9.5673	-9.903	53	291	190	8	1	2
-3.8605	0.1678	-6.8817	-8.5602	-4.364	-8.2245	-7.5531	-3.6926	-9.7351	-13.5956	-6.8817	-7.2174	-11.2457	0.3357	-12.5885	-3.1891	-9.5673	-9.7351	53	292	191	8	1	2
-3.5248	0.3357	-6.546	-8.2245	-4.1962	-8.0566	-7.2174	-3.6926	-9.7351	-13.5956	-6.7139	-7.2174	-11.2457	0.3357	-12.5885	-2.8534	-9.3994	-9.5673	53	293	192	8	1	2
-3.3569	0.5035	-6.3782	-8.0566	-4.0283	-7.8888	-7.2174	-3.6926	-9.7351	-13.5956	-6.7139	-7.3853	-11.2457	0.3357	-12.5885	-2.6855	-9.3994	-9.3994	53	294	193	8	1	2
-3.1891	0.6714	-6.2103	-7.7209	-4.0283	-7.5531	-7.0496	-3.6926	-9.7351	-13.7634	-6.7139	-7.5531	-11.2457	0.3357	-12.5885	-2.3499	-9.3994	-9.2316	53	295	194	8	1	2
-2.8534	0.8392	-6.0425	-7.5531	-3.8605	-7.3853	-6.8817	-3.3569	-9.7351	-13.7634	-6.7139	-7.3853	-11.2457	0.3357	-12.7563	-2.182	-9.5673	-9.0637	53	296	195	8	1	2
-2.5177	0.8392	-5.7068	-7.2174	-3.6926	-7.2174	-6.7139	-3.3569	-9.7351	-13.9313	-6.8817	-7.5531	-11.2457	0.3357	-12.9242	-2.0142	-9.5673	-9.0637	53	297	196	8	1	2
-2.182	1.1749	-5.3711	-7.0496	-3.5248	-6.7139	-6.546	-3.1891	-9.7351	-14.0991	-6.546	-7.5531	-11.2457	0.1678	-13.092	-1.6785	-9.7351	-8.8959	53	298	197	8	1	2
-1.8463	1.3428	-5.2032	-6.8817	-3.1891	-6.546	-6.3782	-3.0212	-9.7351	-14.0991	-6.546	-7.7209	-11.2457	0.1678	-13.2599	-1.3428	-9.903	-8.728	53	299	198	8	1	2
-1.5106	1.6785	-4.5319	-6.7139	-2.8534	-6.0425	-6.2103	-2.6855	-9.5673	-14.0991	-6.2103	-7.5531	-11.0779	0	-13.092	-0.8392	-10.0708	-8.3923	53	300	199	8	1	2
-1.1749	1.8463	-4.1962	-6.3782	-2.6855	-5.7068	-6.2103	-2.5177	-9.2316	-14.0991	-6.0425	-7.3853	-11.0779	0	-13.2599	-0.6714	-10.2386	-8.0566	53	301	200	8	1	2
-0.8392	2.0142	-4.0283	-6.3782	-2.5177	-5.3711	-6.0425	-2.3499	-9.0637	-14.0991	-5.8746	-7.3853	-11.0779	-0.1678	-13.5956	-0.1678	-10.4065	-7.7209	53	302	201	8	1	2
-0.5035	2.3499	-3.5248	-6.2103	-2.0142	-4.6997	-5.8746	-1.8463	-8.728	-13.9313	-5.3711	-7.0496	-10.7422	-0.3357	-13.5956	0.3357	-10.5743	-7.2174	53	303	202	8	1	2
-0.1678	2.5177	-3.1891	-6.0425	-1.8463	-4.1962	-5.8746	-1.6785	-8.5602	-13.7634	-5.0354	-6.7139	-10.7422	-0.5035	-13.7634	0.6714	-10.7422	-6.8817	53	304	203	8	1	2
0.1678	3.0212	-2.6855	-6.0425	-1.5106	-3.8605	-5.8746	-1.1749	-8.2245	-13.7634	-4.6997	-6.3782	-10.5743	-0.6714	-13.7634	1.1749	-10.91	-6.3782	53	305	204	8	1	2
0.3357	3.1891	-2.3499	-5.8746	-1.1749	-3.3569	-5.7068	-0.8392	-8.0566	-13.5956	-4.364	-6.0425	-10.2386	-0.8392	-13.9313	1.5106	-11.0779	-5.8746	53	306	205	8	1	2
0.5035	3.3569	-2.182	-6.0425	-0.8392	-3.0212	-5.7068	-0.5035	-7.8888	-13.5956	-4.0283	-5.8746	-10.2386	-1.0071	-14.267	1.8463	-11.5814	-5.5389	53	307	206	8	1	2
0.6714	3.6926	-1.8463	-6.0425	-0.5035	-2.6855	-5.7068	-0.1678	-7.3853	-13.4277	-3.5248	-5.3711	-9.903	-1.1749	-14.267	2.3499	-11.7493	-4.8676	53	308	207	8	1	2
1.0071	4.0283	-1.5106	-5.8746	-0.1678	-2.3499	-5.5389	0.1678	-7.0496	-13.092	-3.0212	-5.0354	-9.5673	-1.5106	-14.267	2.8534	-11.7493	-4.364	53	309	208	8	1	2
1.0071	4.1962	-1.1749	-5.8746	0.3357	-1.8463	-5.3711	0.6714	-6.7139	-12.9242	-2.5177	-4.5319	-9.2316	-1.6785	-14.267	3.3569	-11.9171	-3.6926	53	310	209	8	1	2
1.1749	4.5319	-1.0071	-5.8746	0.6714	-1.5106	-5.3711	1.0071	-6.3782	-12.7563	-2.182	-4.1962	-9.0637	-1.8463	-14.267	3.6926	-12.085	-3.1891	53	311	210	8	1	2
1.1749	4.6997	-0.6714	-5.8746	0.8392	-1.3428	-5.2032	1.1749	-6.2103	-12.4207	-1.8463	-3.8605	-8.728	-2.0142	-14.0991	4.0283	-12.2528	-2.8534	53	312	211	8	1	2
1.1749	4.8676	-0.6714	-5.8746	1.1749	-1.1749	-5.2032	1.3428	-5.8746	-12.2528	-1.5106	-3.5248	-8.5602	-2.182	-14.0991	4.5319	-12.4207	-2.5177	53	313	212	8	1	2
1.1749	5.0354	-0.6714	-6.0425	1.1749	-1.0071	-5.2032	1.5106	-5.7068	-12.085	-1.3428	-3.1891	-8.0566	-2.3499	-14.0991	4.6997	-12.5885	-2.182	53	314	213	8	1	2
1.1749	5.2032	-0.5035	-5.8746	1.6785	-0.8392	-5.0354	1.8463	-5.3711	-11.7493	-0.8392	-2.8534	-7.7209	-2.3499	-13.7634	4.6997	-12.4207	-1.6785	53	315	214	8	1	2
0.8392	5.2032	-0.6714	-6.0425	1.6785	-0.8392	-5.2032	1.8463	-5.3711	-11.5814	-0.8392	-2.6855	-7.5531	-2.5177	-13.7634	4.8676	-12.4207	-1.5106	53	316	215	8	1	2
0.8392	5.3711	-0.5035	-6.0425	1.6785	-0.8392	-4.8676	1.8463	-5.2032	-11.4136	-0.3357	-2.3499	-7.2174	-2.5177	-13.4277	4.8676	-12.4207	-1.3428	53	317	216	8	1	2
0.5035	5.2032	-0.8392	-6.2103	1.6785	-0.8392	-5.0354	1.8463	-5.0354	-11.0779	-0.1678	-2.3499	-7.0496	-2.6855	-13.4277	5.0354	-12.5885	-1.1749	53	318	217	8	1	2
0.3357	5.2032	-1.0071	-6.2103	1.6785	-1.0071	-5.0354	1.8463	-5.0354	-10.91	0	-2.0142	-6.7139	-2.6855	-13.092	4.8676	-12.5885	-1.0071	53	319	218	8	1	2
-0.1678	4.8676	-1.3428	-6.546	1.3428	-1.3428	-5.2032	1.6785	-5.2032	-10.91	0	-2.0142	-6.7139	-2.8534	-12.9242	5.0354	-12.5885	-1.0071	53	320	219	8	1	2
-0.5035	4.6997	-1.6785	-6.7139	1.3428	-1.5106	-5.3711	1.5106	-5.2032	-10.7422	0.1678	-1.8463	-6.3782	-2.8534	-12.7563	5.0354	-12.5885	-0.8392	53	321	220	8	1	2
1.3428	-1.0071	-2.182	0.3357	-3.0212	-3.6926	3.8605	-1.3428	0.1678	4.364	2.6855	2.5177	7.2174	0.1678	5.5389	1.5106	4.1962	2.6855	53	261	160	9	1	2
1.3428	-0.8392	-2.0142	0.3357	-3.1891	-3.5248	3.8605	-1.3428	0.3357	4.364	2.6855	2.6855	7.2174	0.1678	5.5389	1.5106	4.1962	2.6855	53	262	161	9	1	2
1.5106	-1.0071	-1.8463	0.3357	-3.1891	-3.3569	4.0283	-1.1749	0.6714	4.5319	2.8534	2.6855	7.2174	0.1678	5.7068	1.6785	4.364	2.8534	53	263	162	9	1	2
1.6785	-0.8392	-1.6785	0.1678	-3.1891	-3.3569	4.0283	-1.1749	0.8392	4.364	2.8534	2.5177	7.0496	0.1678	5.7068	1.6785	4.364	2.8534	53	264	163	9	1	2
1.8463	-1.0071	-1.6785	0.1678	-3.1891	-3.1891	4.0283	-1.3428	0.8392	4.1962	3.0212	2.5177	6.8817	0.1678	5.7068	1.5106	4.5319	2.6855	53	265	164	9	1	2
2.0142	-1.0071	-1.3428	0.1678	-3.5248	-3.1891	4.0283	-1.1749	1.0071	4.1962	2.8534	2.6855	6.8817	0.3357	5.7068	1.3428	4.6997	2.3499	53	266	165	9	1	2
2.182	-1.0071	-1.5106	0.1678	-3.5248	-3.0212	3.6926	-1.1749	1.0071	4.0283	2.6855	2.5177	6.546	0.3357	5.5389	1.3428	4.6997	2.182	53	267	166	9	1	2
2.182	-1.1749	-1.5106	-0.1678	-3.5248	-3.0212	3.6926	-1.3428	1.0071	3.6926	2.3499	2.182	6.2103	0.3357	5.3711	1.1749	4.5319	1.6785	53	268	167	9	1	2
2.5177	-1.0071	-1.3428	-0.1678	-3.6926	-2.8534	3.3569	-1.5106	1.0071	3.3569	2.0142	2.182	5.8746	0.5035	5.3711	0.8392	4.364	1.1749	53	269	168	9	1	2
2.5177	-1.1749	-1.3428	-0.3357	-3.6926	-2.8534	3.0212	-1.5106	0.8392	2.8534	2.0142	1.8463	5.3711	0.5035	5.2032	0.6714	4.364	0.6714	53	270	169	9	1	2
2.6855	-1.1749	-1.1749	-0.6714	-3.6926	-2.6855	2.8534	-1.5106	1.0071	2.8534	1.5106	1.8463	5.2032	0.6714	5.2032	0.3357	4.364	-0.1678	53	271	170	9	1	2
2.6855	-1.1749	-1.0071	-0.5035	-3.6926	-2.5177	2.6855	-1.5106	1.0071	2.3499	1.1749	1.5106	4.6997	0.6714	4.8676	0.1678	4.364	-0.8392	53	272	171	9	1	2
3.0212	-1.1749	-0.8392	-0.8392	-3.8605	-2.182	2.3499	-1.6785	1.0071	2.0142	0.6714	1.1749	4.1962	0.8392	4.6997	-0.3357	4.1962	-1.5106	53	273	172	9	1	2
3.3569	-1.0071	-0.6714	-0.8392	-3.6926	-2.0142	2.182	-1.5106	1.0071	1.8463	0.5035	1.0071	3.8605	1.0071	4.5319	-0.5035	4.1962	-2.182	53	274	173	9	1	2
3.5248	-1.0071	-0.3357	-0.6714	-3.6926	-1.6785	2.0142	-1.5106	1.0071	1.3428	0.3357	1.0071	3.6926	1.0071	4.1962	-0.6714	4.1962	-2.6855	53	275	174	9	1	2
3.8605	-0.8392	-0.1678	-0.5035	-3.1891	-1.5106	2.0142	-1.1749	1.3428	1.3428	0	1.0071	3.5248	1.1749	4.0283	-0.8392	4.364	-3.1891	53	276	175	9	1	2
4.1962	-0.6714	0.3357	-0.5035	-3.1891	-1.1749	1.8463	-1.1749	1.5106	1.1749	0	0.8392	3.3569	1.3428	4.0283	-1.1749	4.1962	-3.6926	53	277	176	9	1	2
4.1962	-0.5035	0.5035	-0.3357	-2.8534	-1.0071	1.6785	-0.8392	1.5106	1.0071	-0.1678	0.8392	3.1891	1.3428	3.8605	-1.1749	4.1962	-3.8605	53	278	177	9	1	2
4.364	-0.3357	0.6714	-0.1678	-2.6855	-0.6714	1.6785	-0.6714	1.6785	0.8392	-0.1678	0.8392	3.0212	1.3428	3.6926	-1.3428	4.1962	-4.1962	53	279	178	9	1	2
4.364	-0.1678	1.0071	-0.1678	-2.5177	-0.3357	1.6785	-0.5035	1.8463	0.6714	-0.1678	0.6714	3.0212	1.3428	3.5248	-1.3428	4.0283	-4.1962	53	280	179	9	1	2
4.5319	0	1.1749	0	-2.182	-0.1678	1.6785	-0.1678	2.0142	0.6714	-0.1678	0.8392	3.0212	1.3428	3.3569	-1.3428	4.0283	-4.1962	53	281	180	9	1	2
4.364	0.1678	1.5106	0	-1.8463	-0.1678	1.8463	0.1678	2.182	0.6714	0	0.8392	3.0212	1.3428	3.3569	-1.1749	4.0283	-4.1962	53	282	181	9	1	2
4.364	0.5035	1.6785	0.3357	-1.6785	0.1678	1.8463	0.3357	2.5177	0.8392	0	0.8392	3.0212	1.3428	3.0212	-1.1749	3.8605	-4.1962	53	283	182	9	1	2
4.1962	0.5035	1.8463	0.3357	-1.3428	0.3357	1.8463	0.6714	2.6855	1.0071	0.3357	1.0071	3.1891	1.3428	3.0212	-1.0071	3.6926	-4.0283	53	284	183	9	1	2
4.0283	0.5035	1.6785	0.3357	-0.8392	0.3357	2.0142	1.0071	2.6855	1.0071	0.5035	1.0071	3.3569	1.1749	2.6855	-0.8392	3.6926	-3.5248	53	285	184	9	1	2
3.8605	0.5035	1.8463	0.5035	-0.6714	0.3357	2.182	1.3428	2.6855	1.0071	0.6714	0.8392	3.1891	1.1749	2.5177	-0.8392	3.3569	-3.3569	53	286	185	9	1	2
3.8605	0.5035	1.8463	0.5035	-0.6714	0.3357	2.182	1.6785	2.8534	1.1749	1.0071	1.0071	3.3569	1.1749	2.3499	-0.5035	3.3569	-2.8534	53	287	186	9	1	2
3.5248	0.3357	1.6785	0.6714	-0.3357	0.1678	2.182	1.8463	2.8534	1.1749	1.3428	1.3428	3.5248	1.0071	2.3499	-0.3357	3.1891	-2.3499	53	288	187	9	1	2
3.5248	0.3357	1.6785	0.8392	-0.1678	0.3357	2.5177	2.182	3.0212	1.5106	1.6785	1.5106	3.5248	1.0071	2.182	-0.3357	3.0212	-2.0142	53	289	188	9	1	2
3.0212	0	1.3428	0.6714	0.1678	0.1678	2.6855	2.3499	3.0212	1.5106	2.0142	1.5106	3.6926	0.8392	2.0142	-0.1678	2.8534	-1.5106	53	290	189	9	1	2
3.0212	0	1.3428	1.0071	0.3357	0	2.6855	2.6855	3.0212	1.6785	2.3499	1.5106	3.8605	0.8392	2.0142	0	2.8534	-1.1749	53	291	190	9	1	2
2.8534	-0.1678	1.1749	1.1749	0.1678	-0.1678	2.8534	2.8534	3.1891	1.8463	2.5177	1.6785	3.6926	0.8392	1.6785	0	2.5177	-1.0071	53	292	191	9	1	2
2.6855	-0.3357	1.0071	1.1749	0.5035	-0.3357	3.0212	2.8534	2.8534	1.8463	2.6855	1.5106	3.8605	0.6714	1.6785	0	2.3499	-0.6714	53	293	192	9	1	2
2.5177	-0.5035	0.8392	1.3428	0.3357	-0.5035	3.1891	3.0212	2.8534	2.0142	2.6855	1.5106	3.6926	0.6714	1.3428	0	2.182	-0.5035	53	294	193	9	1	2
2.182	-0.8392	0.3357	1.1749	0.5035	-0.6714	3.1891	3.0212	2.5177	1.8463	2.8534	1.3428	3.6926	0.5035	1.1749	0	2.0142	-0.3357	53	295	194	9	1	2
2.182	-1.0071	0.3357	1.5106	0.3357	-0.8392	3.3569	3.0212	2.3499	2.0142	2.8534	1.1749	3.3569	0.5035	0.8392	-0.1678	1.6785	-0.1678	53	296	195	9	1	2
1.8463	-1.3428	-0.1678	1.3428	0.1678	-1.3428	3.1891	2.8534	2.0142	1.6785	2.6855	0.8392	3.1891	0.3357	0.5035	-0.1678	1.3428	-0.1678	53	297	196	9	1	2
1.5106	-1.8463	-0.6714	1.1749	0	-1.6785	3.0212	2.6855	1.6785	1.5106	2.8534	0.8392	3.0212	0.1678	0.3357	-0.1678	1.0071	0	53	298	197	9	1	2
1.3428	-2.182	-0.8392	1.1749	-0.1678	-2.0142	3.0212	2.5177	1.5106	1.3428	2.6855	0.5035	2.6855	0.1678	0	-0.3357	0.6714	-0.1678	53	299	198	9	1	2
1.0071	-2.6855	-1.3428	0.8392	-0.5035	-2.3499	2.8534	2.3499	1.0071	1.0071	2.5177	0.1678	2.3499	0	-0.3357	-0.6714	0.3357	-0.1678	53	300	199	9	1	2
0.5035	-2.8534	-1.8463	0.5035	-0.5035	-2.8534	2.5177	2.0142	0.6714	0.6714	2.3499	0	2.182	-0.1678	-0.5035	-0.6714	0	-0.1678	53	301	200	9	1	2
0.3357	-3.3569	-2.3499	0	-0.8392	-3.3569	2.182	1.6785	0.1678	0.3357	2.182	-0.5035	1.6785	-0.3357	-0.8392	-0.8392	-0.3357	-0.3357	53	302	201	9	1	2
0	-3.6926	-2.8534	-0.1678	-1.1749	-3.8605	1.8463	1.5106	-0.3357	-0.1678	1.8463	-0.8392	1.3428	-0.3357	-1.3428	-1.1749	-0.8392	-0.6714	53	303	202	9	1	2
-0.1678	-4.0283	-3.1891	-0.6714	-1.3428	-4.364	1.3428	1.1749	-0.6714	-0.5035	1.6785	-1.1749	1.0071	-0.5035	-1.6785	-1.3428	-1.1749	-0.8392	53	304	203	9	1	2
0	-4.0283	-3.1891	-0.8392	-1.5106	-4.5319	0.8392	1.0071	-1.0071	-0.8392	1.5106	-1.3428	0.6714	-0.6714	-1.8463	-1.3428	-1.5106	-0.8392	53	305	204	9	1	2
-0.1678	-4.1962	-3.5248	-1.3428	-1.8463	-4.8676	0.5035	0.6714	-1.3428	-1.3428	1.3428	-1.6785	0.3357	-0.6714	-2.182	-1.5106	-1.8463	-0.8392	53	306	205	9	1	2
-0.1678	-4.1962	-3.5248	-1.3428	-1.8463	-5.0354	0.1678	0.5035	-1.6785	-1.8463	1.5106	-1.6785	0.1678	-0.8392	-2.3499	-1.5106	-2.0142	-0.8392	53	307	206	9	1	2
-0.1678	-4.1962	-3.5248	-1.6785	-1.8463	-5.2032	-0.3357	0.1678	-2.0142	-2.3499	1.1749	-2.182	-0.3357	-0.8392	-2.8534	-1.5106	-2.6855	-0.8392	53	308	207	9	1	2
0	-4.0283	-3.6926	-1.8463	-2.0142	-5.3711	-0.6714	0.1678	-2.182	-2.6855	1.3428	-2.182	-0.5035	-0.8392	-3.0212	-1.3428	-2.8534	-0.6714	53	309	208	9	1	2
0	-4.0283	-3.6926	-2.3499	-2.0142	-5.5389	-1.1749	0	-2.3499	-3.0212	1.5106	-2.3499	-0.6714	-1.0071	-3.1891	-1.3428	-3.0212	-0.5035	53	310	209	9	1	2
0.1678	-4.0283	-3.6926	-2.5177	-2.0142	-5.7068	-1.6785	-0.1678	-2.5177	-3.3569	1.5106	-2.3499	-1.0071	-1.0071	-3.3569	-1.1749	-3.1891	-0.3357	53	311	210	9	1	2
-0.1678	-4.0283	-4.0283	-2.8534	-2.5177	-6.2103	-2.3499	-0.5035	-3.0212	-4.0283	1.3428	-2.6855	-1.3428	-1.1749	-3.6926	-1.3428	-3.5248	-0.3357	53	312	211	9	1	2
0	-3.8605	-4.0283	-3.3569	-2.6855	-6.546	-2.8534	-0.6714	-3.3569	-4.5319	1.3428	-3.0212	-1.6785	-1.1749	-3.8605	-1.1749	-3.6926	-0.1678	53	313	212	9	1	2
-0.1678	-4.0283	-4.1962	-3.6926	-2.8534	-6.7139	-3.5248	-1.1749	-3.6926	-5.0354	1.3428	-3.1891	-2.0142	-1.1749	-4.0283	-1.1749	-3.6926	0	53	314	213	9	1	2
-0.3357	-3.8605	-4.5319	-4.0283	-3.0212	-7.0496	-4.0283	-1.3428	-4.1962	-5.5389	1.3428	-3.6926	-2.6855	-1.1749	-4.1962	-1.0071	-3.8605	0.3357	53	315	214	9	1	2
-0.5035	-4.0283	-4.8676	-4.5319	-3.3569	-7.7209	-4.8676	-1.6785	-4.5319	-6.0425	1.1749	-4.1962	-3.1891	-1.1749	-4.364	-1.0071	-4.1962	0.5035	53	316	215	9	1	2
-0.8392	-4.0283	-5.2032	-4.8676	-3.6926	-8.2245	-5.5389	-2.182	-5.0354	-6.546	0.8392	-4.5319	-3.5248	-1.1749	-4.5319	-0.8392	-4.364	0.5035	53	317	216	9	1	2
-1.0071	-4.364	-5.5389	-5.3711	-4.1962	-8.728	-6.0425	-2.6855	-5.5389	-7.0496	0.5035	-5.0354	-4.0283	-1.1749	-4.6997	-0.8392	-4.364	0.5035	53	318	217	9	1	2
-1.5106	-4.364	-6.0425	-5.7068	-4.5319	-9.2316	-6.7139	-3.1891	-6.0425	-7.5531	0.1678	-5.7068	-4.5319	-1.1749	-4.6997	-1.0071	-4.5319	0.5035	53	319	218	9	1	2
-1.8463	-4.6997	-6.546	-6.2103	-5.0354	-9.903	-7.2174	-3.6926	-6.7139	-8.2245	0	-6.2103	-5.2032	-1.1749	-4.8676	-1.0071	-4.6997	0.3357	53	320	219	9	1	2
-2.182	-4.8676	-7.2174	-6.546	-5.5389	-10.4065	-7.7209	-4.364	-7.3853	-8.728	-0.5035	-6.8817	-5.7068	-1.1749	-5.0354	-1.1749	-4.5319	0	53	321	220	9	1	2
-19.1345	-13.9313	-20.4773	-16.449	-14.4348	-18.1274	-14.7705	-12.4207	-14.9384	-14.9384	-10.0708	-11.4136	-13.4277	-1.3428	-8.2245	-6.8817	-13.2599	-6.546	53	261	160	10	1	2
-18.631	-13.4277	-20.1416	-16.449	-13.7634	-17.9596	-14.6027	-11.9171	-14.6027	-15.1062	-9.7351	-11.4136	-13.5956	-1.3428	-8.3923	-6.546	-13.2599	-6.0425	53	262	161	10	1	2
-18.2953	-13.092	-19.8059	-16.449	-13.4277	-17.6239	-14.6027	-11.5814	-14.4348	-15.1062	-9.5673	-11.2457	-13.7634	-1.5106	-8.728	-6.546	-13.2599	-5.8746	53	263	162	10	1	2
-17.9596	-12.5885	-19.3024	-16.449	-12.7563	-17.1204	-14.4348	-11.0779	-13.9313	-14.7705	-9.0637	-10.91	-13.5956	-1.5106	-8.8959	-6.2103	-13.4277	-5.7068	53	264	163	10	1	2
-17.4561	-11.9171	-18.7988	-16.2811	-12.085	-16.9525	-14.0991	-10.5743	-13.4277	-14.7705	-8.728	-10.5743	-13.5956	-1.5106	-9.0637	-6.0425	-13.4277	-5.2032	53	265	164	10	1	2
-17.2882	-11.7493	-18.4631	-16.2811	-11.9171	-16.6168	-14.0991	-10.2386	-13.2599	-14.7705	-8.5602	-10.5743	-13.9313	-1.5106	-9.2316	-5.8746	-13.4277	-5.0354	53	266	165	10	1	2
-16.6168	-11.0779	-17.7917	-16.1133	-11.2457	-16.1133	-13.7634	-9.7351	-12.7563	-14.4348	-8.0566	-10.4065	-13.7634	-1.6785	-9.3994	-5.7068	-13.4277	-4.5319	53	267	166	10	1	2
-16.2811	-10.7422	-17.2882	-15.9454	-10.7422	-15.7776	-13.5956	-9.5673	-12.4207	-14.4348	-8.0566	-10.2386	-13.9313	-1.6785	-9.5673	-5.7068	-13.4277	-4.364	53	268	167	10	1	2
-15.7776	-10.2386	-16.7847	-15.6097	-10.2386	-15.4419	-13.2599	-9.0637	-12.085	-14.0991	-7.8888	-9.903	-13.9313	-1.8463	-9.7351	-5.3711	-13.4277	-4.1962	53	269	168	10	1	2
-14.9384	-9.7351	-16.1133	-15.274	-9.5673	-14.9384	-12.9242	-8.728	-11.5814	-13.9313	-7.5531	-9.7351	-13.7634	-1.8463	-9.903	-5.2032	-13.4277	-4.0283	53	270	169	10	1	2
-14.6027	-9.3994	-15.7776	-15.1062	-9.2316	-14.7705	-12.7563	-8.3923	-11.2457	-13.7634	-7.3853	-9.7351	-13.9313	-1.8463	-9.903	-5.0354	-13.4277	-4.1962	53	271	170	10	1	2
-14.0991	-8.728	-15.274	-14.6027	-8.728	-14.4348	-12.2528	-8.0566	-10.7422	-13.5956	-7.3853	-9.5673	-13.9313	-2.0142	-10.2386	-5.0354	-13.4277	-4.1962	53	272	171	10	1	2
-13.5956	-8.3923	-14.6027	-14.267	-8.2245	-13.9313	-12.085	-7.8888	-10.4065	-13.2599	-7.3853	-9.2316	-13.7634	-2.0142	-10.2386	-5.2032	-13.4277	-4.1962	53	273	172	10	1	2
-13.092	-8.0566	-14.0991	-13.9313	-7.8888	-13.5956	-11.7493	-7.7209	-10.0708	-13.092	-7.3853	-9.2316	-13.7634	-2.0142	-10.2386	-5.2032	-13.2599	-4.364	53	274	173	10	1	2
-12.7563	-7.8888	-13.5956	-13.4277	-7.7209	-13.2599	-11.4136	-7.5531	-9.7351	-12.7563	-7.3853	-9.2316	-13.7634	-2.0142	-10.0708	-5.2032	-13.2599	-4.5319	53	275	174	10	1	2
-12.2528	-7.3853	-13.092	-13.092	-7.3853	-13.092	-10.91	-7.3853	-9.5673	-12.5885	-7.5531	-9.0637	-13.7634	-2.0142	-10.0708	-5.3711	-13.092	-4.6997	53	276	175	10	1	2
-12.085	-7.2174	-12.7563	-12.7563	-7.2174	-12.7563	-10.7422	-7.2174	-9.3994	-12.4207	-7.5531	-9.0637	-13.7634	-2.0142	-10.0708	-5.5389	-13.092	-5.0354	53	277	176	10	1	2
-11.7493	-7.0496	-12.4207	-12.4207	-6.8817	-12.5885	-10.4065	-7.2174	-9.2316	-12.2528	-7.7209	-9.2316	-13.7634	-1.8463	-9.903	-5.8746	-12.9242	-5.3711	53	278	177	10	1	2
-11.4136	-6.7139	-11.9171	-12.085	-6.546	-12.2528	-9.903	-7.0496	-8.728	-11.7493	-7.7209	-8.8959	-13.5956	-1.8463	-9.7351	-5.8746	-12.7563	-5.5389	53	279	178	10	1	2
-11.2457	-6.546	-11.5814	-11.5814	-6.7139	-12.085	-9.5673	-7.0496	-8.5602	-11.5814	-7.8888	-8.8959	-13.4277	-1.6785	-9.5673	-6.2103	-12.5885	-5.7068	53	280	179	10	1	2
-10.91	-6.3782	-11.2457	-11.0779	-6.546	-11.7493	-9.3994	-7.0496	-8.2245	-11.2457	-7.8888	-8.728	-13.2599	-1.6785	-9.3994	-6.3782	-12.4207	-6.0425	53	281	180	10	1	2
-10.5743	-6.0425	-10.7422	-10.91	-6.2103	-11.4136	-8.8959	-6.8817	-7.8888	-10.7422	-7.5531	-8.3923	-12.9242	-1.6785	-9.3994	-6.3782	-12.5885	-6.0425	53	282	181	10	1	2
-10.4065	-5.8746	-10.2386	-10.4065	-6.0425	-11.0779	-8.3923	-6.7139	-7.3853	-10.2386	-7.3853	-8.0566	-12.5885	-1.5106	-8.8959	-6.3782	-12.2528	-6.2103	53	283	182	10	1	2
-9.7351	-5.3711	-9.7351	-9.903	-5.5389	-10.5743	-7.7209	-6.2103	-6.8817	-9.7351	-7.0496	-7.7209	-12.2528	-1.5106	-8.728	-6.2103	-11.9171	-6.0425	53	284	183	10	1	2
-9.3994	-5.2032	-9.0637	-9.5673	-5.5389	-10.0708	-7.5531	-6.0425	-6.546	-9.2316	-6.7139	-7.3853	-11.9171	-1.5106	-8.3923	-6.2103	-11.7493	-5.8746	53	285	184	10	1	2
-8.8959	-4.6997	-8.3923	-8.8959	-5.2032	-9.5673	-6.8817	-5.7068	-6.0425	-8.5602	-6.546	-6.8817	-11.2457	-1.3428	-7.8888	-6.2103	-11.2457	-5.7068	53	286	185	10	1	2
-8.3923	-4.364	-7.8888	-8.2245	-4.8676	-9.2316	-6.2103	-5.3711	-5.5389	-8.0566	-6.0425	-6.0425	-10.7422	-1.3428	-7.5531	-6.0425	-11.0779	-5.3711	53	287	186	10	1	2
-7.8888	-3.8605	-7.0496	-8.0566	-4.364	-8.5602	-5.8746	-4.8676	-4.8676	-7.5531	-5.5389	-5.7068	-10.5743	-1.5106	-7.3853	-5.8746	-11.0779	-5.0354	53	288	187	10	1	2
-7.2174	-3.1891	-6.2103	-7.3853	-4.0283	-7.8888	-5.5389	-4.364	-4.1962	-7.0496	-5.0354	-5.0354	-9.903	-1.5106	-7.0496	-5.5389	-10.7422	-4.6997	53	289	188	10	1	2
-6.8817	-2.6855	-5.5389	-6.8817	-3.5248	-7.2174	-5.0354	-3.6926	-3.5248	-6.546	-4.364	-4.5319	-9.5673	-1.5106	-6.8817	-5.2032	-10.4065	-4.5319	53	290	189	10	1	2
-6.2103	-2.182	-5.0354	-6.546	-3.1891	-6.546	-4.6997	-3.3569	-3.1891	-6.2103	-4.0283	-4.0283	-9.2316	-1.6785	-6.7139	-5.2032	-10.4065	-4.0283	53	291	190	10	1	2
-5.7068	-1.5106	-4.1962	-6.0425	-2.6855	-5.8746	-4.1962	-2.6855	-2.5177	-5.7068	-3.3569	-3.3569	-8.8959	-1.6785	-6.7139	-4.8676	-10.0708	-3.8605	53	292	191	10	1	2
-5.2032	-1.0071	-3.5248	-5.8746	-2.3499	-5.2032	-3.8605	-2.3499	-2.0142	-5.3711	-2.8534	-3.1891	-8.5602	-1.8463	-6.546	-4.5319	-10.0708	-3.1891	53	293	192	10	1	2
-4.6997	-0.5035	-2.6855	-5.5389	-1.6785	-4.364	-3.5248	-1.6785	-1.3428	-5.0354	-2.182	-2.5177	-8.2245	-1.8463	-6.3782	-4.1962	-9.903	-2.6855	53	294	193	10	1	2
-4.0283	0	-1.8463	-5.2032	-1.1749	-4.0283	-3.1891	-1.0071	-0.6714	-4.5319	-1.6785	-2.0142	-7.7209	-1.8463	-6.2103	-3.8605	-9.7351	-2.3499	53	295	194	10	1	2
-3.8605	0.5035	-1.5106	-5.0354	-0.8392	-3.1891	-3.3569	-0.8392	-0.3357	-4.364	-1.3428	-1.6785	-7.7209	-2.0142	-6.2103	-3.6926	-9.7351	-2.182	53	296	195	10	1	2
-3.3569	1.0071	-0.8392	-4.6997	-0.5035	-2.5177	-3.1891	-0.3357	0.1678	-4.1962	-1.0071	-1.3428	-7.5531	-2.0142	-6.0425	-3.3569	-9.7351	-1.6785	53	297	196	10	1	2
-3.1891	1.1749	-0.3357	-4.8676	-0.3357	-2.182	-3.1891	-0.1678	0.3357	-4.364	-0.8392	-1.3428	-7.5531	-2.182	-6.2103	-3.3569	-9.7351	-1.6785	53	298	197	10	1	2
-2.6855	1.5106	0	-4.6997	0	-1.5106	-3.1891	0.1678	0.5035	-4.1962	-0.6714	-1.1749	-7.5531	-2.182	-6.2103	-3.1891	-9.903	-1.5106	53	299	198	10	1	2
-2.5177	1.6785	0.3357	-4.8676	0.1678	-1.3428	-3.3569	0.3357	0.5035	-4.364	-0.6714	-1.3428	-7.8888	-2.3499	-6.3782	-3.1891	-10.0708	-1.5106	53	300	199	10	1	2
-2.3499	1.6785	0.6714	-4.6997	0.3357	-1.0071	-3.5248	0.5035	0.8392	-4.364	-0.6714	-1.3428	-7.8888	-2.3499	-6.3782	-3.1891	-10.2386	-1.5106	53	301	200	10	1	2
-2.0142	1.8463	0.8392	-4.6997	0.3357	-0.6714	-3.5248	0.5035	0.8392	-4.364	-0.6714	-1.3428	-8.0566	-2.3499	-6.546	-3.1891	-10.2386	-1.6785	53	302	201	10	1	2
-2.0142	1.8463	1.0071	-4.8676	0.3357	-0.5035	-3.6926	0.3357	0.8392	-4.6997	-0.8392	-1.5106	-8.2245	-2.5177	-6.7139	-3.5248	-10.5743	-2.0142	53	303	202	10	1	2
-1.6785	1.8463	1.1749	-4.8676	0.5035	-0.5035	-3.8605	0.3357	0.6714	-4.8676	-1.0071	-1.6785	-8.3923	-2.5177	-6.7139	-3.6926	-10.5743	-2.3499	53	304	203	10	1	2
-1.5106	1.6785	1.1749	-4.8676	0.5035	-0.3357	-4.0283	0.3357	0.6714	-5.0354	-1.3428	-1.8463	-8.5602	-2.5177	-6.8817	-3.6926	-10.7422	-2.6855	53	305	204	10	1	2
-1.1749	1.6785	1.3428	-4.6997	0.6714	-0.1678	-4.0283	0.3357	0.6714	-5.0354	-1.3428	-2.0142	-8.728	-2.5177	-6.8817	-3.8605	-11.0779	-2.8534	53	306	205	10	1	2
-1.0071	1.6785	1.5106	-4.8676	0.5035	0	-4.0283	0.3357	0.8392	-5.2032	-1.5106	-2.182	-8.8959	-2.5177	-7.0496	-4.0283	-11.0779	-3.3569	53	307	206	10	1	2
-0.8392	1.6785	1.3428	-4.6997	0.5035	0.1678	-4.0283	0.3357	0.8392	-5.2032	-1.5106	-2.3499	-8.8959	-2.5177	-7.0496	-4.0283	-11.0779	-3.5248	53	308	207	10	1	2
-0.5035	1.6785	1.5106	-4.6997	0.6714	0.3357	-4.0283	0.5035	1.0071	-5.2032	-1.5106	-2.3499	-8.8959	-2.5177	-7.0496	-4.0283	-11.2457	-3.5248	53	309	208	10	1	2
-0.3357	1.6785	1.6785	-4.5319	0.6714	0.5035	-3.8605	0.3357	1.0071	-5.2032	-1.3428	-2.182	-8.8959	-2.5177	-7.0496	-4.0283	-11.2457	-3.6926	53	310	209	10	1	2
0	1.8463	1.8463	-4.364	0.8392	0.5035	-3.8605	0.5035	1.1749	-5.2032	-1.1749	-2.182	-8.8959	-2.5177	-7.0496	-4.0283	-11.2457	-3.6926	53	311	210	10	1	2
0.3357	2.0142	2.182	-4.0283	1.0071	0.5035	-3.6926	0.6714	1.3428	-5.2032	-1.0071	-2.0142	-8.728	-2.5177	-7.0496	-4.0283	-11.2457	-3.5248	53	312	211	10	1	2
0.5035	2.0142	2.182	-4.0283	1.0071	0.5035	-3.6926	0.6714	1.5106	-5.3711	-0.8392	-1.8463	-8.8959	-2.6855	-7.2174	-4.0283	-11.4136	-3.1891	53	313	212	10	1	2
0.6714	2.182	2.5177	-3.6926	1.1749	0.6714	-3.6926	0.8392	1.6785	-5.3711	-0.5035	-1.6785	-8.728	-2.6855	-7.2174	-4.0283	-11.4136	-3.0212	53	314	213	10	1	2
1.0071	2.5177	2.8534	-3.6926	1.3428	0.8392	-3.5248	1.1749	1.8463	-5.3711	-0.1678	-1.3428	-8.5602	-2.6855	-7.0496	-3.8605	-11.4136	-2.6855	53	315	214	10	1	2
1.5106	2.6855	3.0212	-3.5248	1.6785	0.8392	-3.3569	1.3428	2.0142	-5.2032	0.1678	-1.1749	-8.3923	-2.6855	-7.2174	-3.6926	-11.5814	-2.3499	53	316	215	10	1	2
1.6785	2.8534	3.1891	-3.1891	1.6785	1.0071	-3.3569	1.6785	2.182	-5.2032	0.5035	-0.8392	-8.2245	-2.6855	-7.2174	-3.5248	-11.5814	-2.0142	53	317	216	10	1	2
1.8463	2.8534	3.3569	-3.1891	1.8463	0.6714	-3.3569	1.6785	2.3499	-5.3711	0.5035	-0.8392	-8.2245	-2.8534	-7.2174	-3.5248	-11.7493	-1.8463	53	318	217	10	1	2
2.0142	3.1891	3.5248	-3.1891	2.0142	0.6714	-3.5248	1.8463	2.5177	-5.3711	0.8392	-0.5035	-8.2245	-2.8534	-7.2174	-3.5248	-11.9171	-1.6785	53	319	218	10	1	2
2.3499	3.5248	3.8605	-3.1891	2.3499	0.6714	-3.5248	2.0142	2.6855	-5.3711	1.1749	-0.5035	-8.0566	-2.8534	-7.2174	-3.3569	-12.085	-1.5106	53	320	219	10	1	2
2.5177	3.5248	4.0283	-3.1891	2.5177	0.6714	-3.3569	2.182	2.5177	-5.5389	1.3428	-0.3357	-8.0566	-2.8534	-7.2174	-3.1891	-12.2528	-1.3428	53	321	220	10	1	2
-4.0283	1.3428	-8.2245	-2.0142	-1.5106	-4.1962	-3.0212	-2.6855	-9.2316	-7.0496	-5.0354	-6.546	-5.3711	-2.3499	-7.0496	3.5248	-4.0283	-1.8463	53	261	160	11	1	2
-3.6926	1.5106	-7.8888	-1.8463	-1.1749	-3.8605	-2.8534	-2.3499	-8.8959	-7.0496	-4.8676	-6.3782	-5.3711	-2.3499	-7.2174	3.6926	-4.0283	-1.6785	53	262	161	11	1	2
-3.5248	2.0142	-7.7209	-2.0142	-0.8392	-3.5248	-2.6855	-1.8463	-8.728	-7.0496	-4.6997	-6.2103	-5.3711	-2.3499	-7.5531	3.8605	-4.0283	-1.3428	53	263	162	11	1	2
-3.5248	2.3499	-7.3853	-1.8463	-0.6714	-3.3569	-2.6855	-1.6785	-8.8959	-7.2174	-4.364	-6.2103	-5.7068	-2.3499	-7.5531	4.0283	-4.1962	-1.0071	53	264	163	11	1	2
-3.1891	2.6855	-7.2174	-1.8463	-0.6714	-3.3569	-2.8534	-1.5106	-8.728	-7.3853	-4.1962	-6.2103	-5.7068	-2.3499	-7.7209	4.1962	-4.1962	-0.6714	53	265	164	11	1	2
-3.1891	2.6855	-7.2174	-2.0142	-0.6714	-3.1891	-2.8534	-1.3428	-8.728	-7.3853	-4.1962	-6.2103	-5.8746	-2.3499	-7.8888	4.364	-4.364	-0.5035	53	266	165	11	1	2
-3.1891	2.8534	-7.0496	-2.0142	-0.6714	-3.1891	-2.8534	-1.1749	-8.8959	-7.5531	-4.1962	-6.2103	-6.0425	-2.3499	-7.8888	4.364	-4.364	-0.5035	53	267	166	11	1	2
-3.0212	2.8534	-6.8817	-2.0142	-0.6714	-3.3569	-2.8534	-1.1749	-9.0637	-7.7209	-4.364	-6.3782	-6.2103	-2.3499	-8.0566	4.364	-4.364	-0.6714	53	268	167	11	1	2
-3.1891	2.6855	-7.0496	-2.3499	-0.8392	-3.3569	-3.0212	-1.1749	-9.2316	-7.8888	-4.5319	-6.546	-6.3782	-2.3499	-8.2245	4.1962	-4.364	-0.8392	53	269	168	11	1	2
-3.3569	2.6855	-7.0496	-2.3499	-1.1749	-3.6926	-3.1891	-1.5106	-9.7351	-8.2245	-4.8676	-6.8817	-6.546	-2.3499	-8.3923	4.0283	-4.5319	-1.1749	53	270	169	11	1	2
-3.3569	2.5177	-7.0496	-2.5177	-1.3428	-3.8605	-3.3569	-1.6785	-9.903	-8.3923	-5.3711	-7.3853	-6.8817	-2.3499	-8.5602	3.8605	-4.6997	-1.5106	53	271	170	11	1	2
-3.6926	2.3499	-7.3853	-2.6855	-1.5106	-4.0283	-3.3569	-1.8463	-10.2386	-8.5602	-5.7068	-7.5531	-7.2174	-2.3499	-8.8959	3.8605	-4.8676	-2.0142	53	272	171	11	1	2
-3.6926	2.0142	-7.3853	-2.8534	-1.8463	-4.1962	-3.5248	-2.182	-10.5743	-8.728	-6.2103	-7.8888	-7.3853	-2.3499	-9.0637	3.3569	-4.8676	-2.6855	53	273	172	11	1	2
-3.8605	1.6785	-7.5531	-2.8534	-2.182	-4.364	-3.6926	-2.5177	-10.7422	-8.8959	-6.546	-8.2245	-7.5531	-2.3499	-9.2316	3.1891	-4.8676	-3.1891	53	274	173	11	1	2
-3.8605	1.5106	-7.3853	-2.6855	-2.3499	-4.364	-3.6926	-2.5177	-10.91	-8.8959	-6.8817	-8.3923	-7.5531	-2.182	-9.0637	3.0212	-4.8676	-3.5248	53	275	174	11	1	2
-4.0283	1.0071	-7.5531	-2.8534	-2.6855	-4.5319	-3.6926	-2.8534	-11.0779	-9.0637	-7.2174	-8.728	-7.7209	-2.182	-9.2316	2.6855	-4.8676	-4.0283	53	276	175	11	1	2
-4.0283	0.6714	-7.5531	-2.8534	-3.0212	-4.6997	-3.5248	-3.1891	-11.4136	-9.2316	-7.5531	-9.0637	-7.8888	-2.182	-9.3994	2.3499	-4.8676	-4.5319	53	277	176	11	1	2
-4.1962	0.1678	-7.7209	-2.6855	-3.3569	-4.8676	-3.5248	-3.5248	-11.5814	-9.2316	-7.8888	-9.2316	-8.0566	-2.182	-9.3994	2.0142	-4.8676	-4.8676	53	278	177	11	1	2
-4.0283	0.1678	-7.5531	-2.3499	-3.5248	-4.8676	-3.1891	-3.5248	-11.5814	-9.0637	-8.0566	-9.3994	-8.0566	-2.0142	-9.3994	1.8463	-4.6997	-5.2032	53	279	178	11	1	2
-4.1962	-0.3357	-7.5531	-2.182	-3.8605	-5.0354	-3.1891	-3.8605	-11.7493	-9.0637	-8.3923	-9.5673	-8.0566	-2.0142	-9.2316	1.5106	-4.6997	-5.7068	53	280	179	11	1	2
-4.1962	-0.8392	-7.5531	-2.182	-4.1962	-5.0354	-3.0212	-4.1962	-11.9171	-9.0637	-8.5602	-9.7351	-8.0566	-2.0142	-9.2316	1.0071	-4.5319	-6.2103	53	281	180	11	1	2
-4.1962	-1.0071	-7.5531	-1.8463	-4.364	-5.0354	-2.6855	-4.1962	-11.7493	-8.8959	-8.3923	-9.7351	-7.8888	-1.8463	-9.0637	0.8392	-4.364	-6.3782	53	282	181	11	1	2
-4.1962	-1.3428	-7.5531	-1.6785	-4.5319	-5.0354	-2.5177	-4.364	-11.9171	-8.728	-8.728	-9.7351	-7.8888	-1.8463	-9.0637	0.5035	-4.1962	-6.7139	53	283	182	11	1	2
-4.1962	-1.6785	-7.3853	-1.1749	-4.6997	-4.8676	-2.182	-4.364	-11.7493	-8.3923	-8.5602	-9.7351	-7.5531	-1.6785	-8.8959	0.3357	-3.8605	-6.7139	53	284	183	11	1	2
-4.1962	-2.0142	-7.5531	-1.0071	-4.8676	-4.8676	-1.8463	-4.5319	-11.5814	-8.2245	-8.5602	-9.5673	-7.3853	-1.6785	-9.0637	0	-3.6926	-6.8817	53	285	184	11	1	2
-4.364	-2.3499	-7.7209	-1.0071	-5.0354	-4.8676	-1.6785	-4.6997	-11.5814	-8.0566	-8.5602	-9.5673	-7.2174	-1.6785	-8.8959	-0.3357	-3.6926	-6.8817	53	286	185	11	1	2
-4.1962	-2.3499	-7.5531	-0.6714	-5.0354	-4.5319	-1.3428	-4.5319	-11.4136	-7.5531	-8.3923	-9.2316	-6.7139	-1.5106	-8.5602	-0.5035	-3.3569	-6.8817	53	287	186	11	1	2
-4.1962	-2.8534	-7.5531	-0.5035	-5.2032	-4.5319	-1.0071	-4.5319	-11.2457	-7.3853	-8.2245	-9.2316	-6.546	-1.5106	-8.3923	-0.8392	-3.1891	-6.8817	53	288	187	11	1	2
-4.1962	-3.0212	-7.5531	-0.3357	-5.3711	-4.364	-0.8392	-4.6997	-11.2457	-7.2174	-8.2245	-9.0637	-6.2103	-1.5106	-8.2245	-1.1749	-3.0212	-7.2174	53	289	188	11	1	2
-4.0283	-3.1891	-7.3853	0	-5.2032	-4.1962	-0.6714	-4.5319	-10.91	-6.7139	-8.0566	-8.728	-5.7068	-1.3428	-7.8888	-1.3428	-2.8534	-7.2174	53	290	189	11	1	2
-3.8605	-3.1891	-7.2174	0.3357	-5.2032	-4.0283	-0.3357	-4.364	-10.7422	-6.3782	-7.8888	-8.5602	-5.3711	-1.1749	-7.7209	-1.5106	-2.6855	-7.2174	53	291	190	11	1	2
-3.8605	-3.3569	-7.2174	0.3357	-5.3711	-4.0283	0	-4.5319	-10.7422	-6.3782	-7.8888	-8.3923	-5.2032	-1.1749	-7.5531	-1.8463	-2.5177	-7.5531	53	292	191	11	1	2
-3.8605	-3.5248	-7.0496	0.5035	-5.2032	-3.8605	0.3357	-4.364	-10.5743	-6.0425	-7.8888	-8.2245	-4.8676	-1.0071	-7.3853	-2.0142	-2.5177	-7.3853	53	293	192	11	1	2
-3.8605	-3.3569	-7.0496	0.6714	-5.2032	-3.6926	0.5035	-4.364	-10.4065	-5.8746	-7.8888	-8.0566	-4.5319	-0.8392	-7.2174	-2.3499	-2.3499	-7.5531	53	294	193	11	1	2
-3.6926	-3.3569	-6.7139	0.8392	-5.2032	-3.6926	0.5035	-4.364	-10.2386	-5.8746	-7.7209	-7.8888	-4.364	-0.6714	-6.8817	-2.5177	-2.3499	-7.7209	53	295	194	11	1	2
-3.6926	-3.5248	-6.7139	0.8392	-5.0354	-3.6926	0.6714	-4.1962	-10.0708	-5.5389	-7.7209	-7.7209	-4.0283	-0.5035	-6.8817	-2.8534	-2.182	-7.7209	53	296	195	11	1	2
-3.3569	-3.1891	-6.3782	1.1749	-4.8676	-3.3569	1.0071	-4.0283	-9.7351	-5.3711	-7.5531	-7.3853	-3.6926	-0.1678	-6.546	-2.8534	-2.0142	-7.5531	53	297	196	11	1	2
-3.3569	-3.1891	-6.3782	1.1749	-4.8676	-3.3569	1.0071	-4.0283	-9.5673	-5.3711	-7.3853	-7.2174	-3.6926	0.1678	-6.546	-3.1891	-2.0142	-7.5531	53	298	197	11	1	2
-3.3569	-3.1891	-6.3782	1.1749	-4.6997	-3.1891	1.1749	-3.8605	-9.2316	-5.3711	-7.3853	-7.0496	-3.5248	0.3357	-6.546	-3.3569	-2.0142	-7.5531	53	299	198	11	1	2
-3.1891	-3.0212	-6.0425	1.5106	-4.364	-3.0212	1.1749	-3.5248	-8.8959	-5.2032	-6.8817	-6.3782	-3.0212	0.5035	-6.2103	-3.1891	-1.8463	-7.2174	53	300	199	11	1	2
-3.1891	-2.6855	-6.0425	1.3428	-4.1962	-2.8534	1.3428	-3.3569	-8.728	-5.2032	-6.546	-6.2103	-2.8534	0.6714	-6.2103	-3.1891	-1.8463	-6.8817	53	301	200	11	1	2
-3.3569	-2.5177	-6.0425	1.3428	-4.0283	-2.8534	1.1749	-3.0212	-8.3923	-5.0354	-6.3782	-5.7068	-2.6855	1.0071	-6.0425	-3.1891	-1.8463	-6.546	53	302	201	11	1	2
-3.1891	-2.3499	-5.7068	1.3428	-3.8605	-2.6855	1.1749	-2.8534	-8.0566	-5.0354	-5.8746	-5.3711	-2.3499	1.1749	-5.7068	-3.1891	-1.6785	-6.3782	53	303	202	11	1	2
-3.1891	-2.0142	-5.7068	1.3428	-3.6926	-2.5177	1.3428	-2.5177	-7.7209	-4.8676	-5.5389	-4.8676	-2.182	1.3428	-5.7068	-3.1891	-1.6785	-6.2103	53	304	203	11	1	2
-3.0212	-1.8463	-5.5389	1.3428	-3.3569	-2.5177	1.3428	-2.182	-7.3853	-4.8676	-5.0354	-4.364	-1.8463	1.3428	-5.3711	-3.1891	-1.5106	-5.7068	53	305	204	11	1	2
-3.1891	-1.8463	-5.8746	1.1749	-3.1891	-2.3499	1.0071	-2.182	-7.2174	-4.8676	-4.8676	-4.1962	-1.6785	1.5106	-5.2032	-3.0212	-1.5106	-5.7068	53	306	205	11	1	2
-3.3569	-1.8463	-5.8746	1.0071	-3.1891	-2.5177	0.8392	-1.8463	-7.0496	-4.8676	-4.6997	-3.6926	-1.5106	1.5106	-5.2032	-3.1891	-1.6785	-5.5389	53	307	206	11	1	2
-3.3569	-1.6785	-5.7068	0.8392	-3.0212	-2.182	0.8392	-1.5106	-6.7139	-4.8676	-4.1962	-3.1891	-1.1749	1.5106	-4.8676	-3.0212	-1.3428	-5.3711	53	308	207	11	1	2
-3.5248	-1.5106	-6.0425	0.8392	-2.6855	-2.3499	0.5035	-1.3428	-6.546	-4.6997	-3.6926	-2.8534	-1.0071	1.5106	-4.6997	-3.0212	-1.5106	-5.2032	53	309	208	11	1	2
-3.8605	-1.6785	-6.2103	0.5035	-2.6855	-2.3499	0.3357	-1.1749	-6.3782	-4.8676	-3.5248	-2.6855	-1.0071	1.5106	-4.5319	-3.0212	-1.5106	-5.2032	53	310	209	11	1	2
-4.1962	-1.6785	-6.3782	0.1678	-2.5177	-2.5177	0.1678	-0.8392	-6.3782	-4.8676	-3.1891	-2.3499	-0.8392	1.5106	-4.364	-3.0212	-1.5106	-5.0354	53	311	210	11	1	2
-4.5319	-1.6785	-6.546	0	-2.5177	-2.5177	0	-0.6714	-6.2103	-4.8676	-2.8534	-2.0142	-0.6714	1.5106	-4.0283	-3.0212	-1.5106	-4.8676	53	312	211	11	1	2
-4.8676	-1.6785	-6.7139	-0.1678	-2.5177	-2.5177	-0.1678	-0.5035	-6.0425	-4.8676	-2.6855	-1.6785	-0.5035	1.5106	-3.8605	-2.8534	-1.3428	-4.8676	53	313	212	11	1	2
-5.3711	-1.8463	-6.8817	-0.6714	-2.5177	-2.5177	-0.3357	-0.1678	-5.8746	-4.8676	-2.3499	-1.3428	-0.3357	1.5106	-3.5248	-2.8534	-1.1749	-4.6997	53	314	213	11	1	2
-5.8746	-2.0142	-7.0496	-0.8392	-2.3499	-2.6855	-0.3357	0	-5.8746	-4.8676	-2.0142	-1.0071	-0.1678	1.5106	-3.1891	-2.8534	-1.1749	-4.364	53	315	214	11	1	2
-6.0425	-2.0142	-7.2174	-1.1749	-2.182	-2.5177	-0.6714	0.3357	-5.7068	-4.6997	-1.5106	-0.6714	-0.1678	1.6785	-2.8534	-2.6855	-1.0071	-4.1962	53	316	215	11	1	2
-6.546	-2.182	-7.3853	-1.3428	-2.182	-2.5177	-0.6714	0.5035	-5.5389	-4.5319	-1.1749	-0.3357	0.3357	1.6785	-2.5177	-2.6855	-0.8392	-3.8605	53	317	216	11	1	2
-6.7139	-2.182	-7.3853	-1.3428	-2.0142	-2.182	-0.5035	1.0071	-5.0354	-4.1962	-0.5035	0.1678	0.6714	1.6785	-2.182	-2.5177	-0.3357	-3.3569	53	318	217	11	1	2
-7.0496	-2.3499	-7.3853	-1.5106	-2.0142	-2.3499	-0.3357	1.1749	-4.8676	-4.1962	0	0.5035	1.0071	1.6785	-1.6785	-2.5177	0	-2.8534	53	319	218	11	1	2
-7.3853	-2.6855	-7.7209	-1.6785	-1.8463	-2.3499	-0.5035	1.5106	-4.6997	-3.8605	0.5035	1.1749	1.5106	1.8463	-1.3428	-2.3499	0.1678	-2.5177	53	320	219	11	1	2
-7.7209	-2.6855	-7.5531	-1.5106	-1.6785	-2.182	-0.1678	2.0142	-4.364	-3.5248	0.8392	1.5106	2.0142	1.8463	-0.6714	-2.182	0.5035	-1.8463	53	321	220	11	1	2
-3.1891	0.8392	-2.3499	-9.2316	0.8392	1.0071	-4.8676	-2.6855	-5.7068	-13.2599	-10.0708	-7.3853	-9.903	-1.1749	-12.7563	0.1678	-14.4348	-7.3853	53	261	160	14	1	2
-3.3569	0.8392	-2.3499	-9.3994	1.0071	0.8392	-5.0354	-2.5177	-5.8746	-13.5956	-9.903	-7.3853	-10.0708	-1.1749	-12.9242	0.1678	-14.6027	-7.3853	53	262	161	14	1	2
-3.5248	0.6714	-2.3499	-9.7351	1.1749	0.8392	-5.2032	-2.5177	-5.8746	-13.9313	-9.7351	-7.5531	-10.4065	-1.1749	-13.2599	0.3357	-14.7705	-7.3853	53	263	162	14	1	2
-3.5248	0.6714	-2.5177	-9.903	1.3428	1.0071	-5.3711	-2.3499	-5.8746	-14.267	-9.5673	-7.5531	-10.7422	-1.1749	-13.4277	0.3357	-14.9384	-7.3853	53	264	163	14	1	2
-3.8605	0.6714	-2.5177	-10.0708	1.3428	1.0071	-5.5389	-2.182	-5.7068	-14.4348	-9.3994	-7.5531	-10.91	-1.1749	-13.7634	0.5035	-15.1062	-7.2174	53	265	164	14	1	2
-3.6926	0.6714	-2.5177	-10.2386	1.5106	1.1749	-5.7068	-2.0142	-5.7068	-14.6027	-9.2316	-7.5531	-10.91	-1.1749	-13.9313	0.5035	-15.274	-7.0496	53	266	165	14	1	2
-3.5248	0.8392	-2.182	-10.0708	1.8463	1.3428	-5.7068	-1.6785	-5.7068	-14.6027	-8.8959	-7.3853	-10.7422	-1.0071	-14.0991	0.8392	-15.274	-6.7139	53	267	166	14	1	2
-3.5248	1.1749	-2.182	-10.2386	1.8463	1.6785	-5.8746	-1.5106	-5.3711	-14.6027	-8.3923	-6.8817	-10.91	-1.0071	-14.0991	1.0071	-15.4419	-6.546	53	268	167	14	1	2
-3.3569	1.1749	-2.0142	-10.2386	2.182	1.8463	-5.8746	-1.1749	-5.0354	-14.7705	-8.0566	-6.8817	-10.91	-1.0071	-14.267	1.0071	-15.4419	-6.3782	53	269	168	14	1	2
-3.0212	1.5106	-2.0142	-10.4065	2.3499	2.0142	-6.0425	-1.0071	-5.0354	-14.9384	-7.7209	-6.7139	-11.0779	-1.0071	-14.4348	1.1749	-15.6097	-6.0425	53	270	169	14	1	2
-2.8534	1.6785	-1.6785	-10.2386	2.6855	2.182	-6.0425	-0.8392	-5.0354	-14.9384	-7.5531	-6.7139	-10.91	-1.0071	-14.6027	1.3428	-15.7776	-5.5389	53	271	170	14	1	2
-2.6855	2.0142	-1.5106	-10.2386	3.0212	2.182	-6.2103	-0.3357	-4.6997	-15.1062	-7.2174	-6.3782	-11.0779	-1.0071	-14.6027	1.6785	-15.9454	-5.2032	53	272	171	14	1	2
-2.5177	2.182	-1.6785	-10.5743	3.0212	2.5177	-6.3782	-0.3357	-4.5319	-15.274	-6.8817	-6.2103	-11.2457	-1.1749	-14.9384	1.6785	-16.1133	-5.2032	53	273	172	14	1	2
-2.3499	2.5177	-1.3428	-10.4065	3.3569	2.5177	-6.546	-0.1678	-4.364	-15.274	-6.546	-6.3782	-11.2457	-1.1749	-14.9384	2.0142	-16.1133	-4.6997	53	274	173	14	1	2
-2.3499	2.8534	-1.1749	-10.7422	3.5248	2.6855	-6.8817	-0.1678	-4.1962	-15.6097	-6.2103	-6.2103	-11.2457	-1.3428	-15.274	2.0142	-16.449	-4.5319	53	275	174	14	1	2
-2.182	3.0212	-1.1749	-11.0779	3.5248	2.8534	-6.8817	0.1678	-4.1962	-15.7776	-5.8746	-5.8746	-11.2457	-1.5106	-15.4419	2.182	-16.6168	-4.364	53	276	175	14	1	2
-2.0142	3.5248	-1.0071	-10.91	3.8605	2.8534	-7.0496	0.3357	-4.1962	-15.9454	-5.7068	-5.8746	-11.2457	-1.5106	-15.4419	2.5177	-16.6168	-3.8605	53	277	176	14	1	2
-1.6785	3.8605	-0.8392	-11.0779	4.0283	2.8534	-7.2174	0.5035	-4.1962	-16.1133	-5.3711	-5.7068	-11.2457	-1.6785	-15.6097	2.6855	-16.6168	-3.3569	53	278	177	14	1	2
-1.6785	4.364	-0.6714	-11.0779	4.1962	2.8534	-7.5531	0.6714	-4.0283	-16.1133	-5.2032	-5.7068	-11.2457	-1.8463	-15.6097	2.8534	-16.7847	-3.0212	53	279	178	14	1	2
-1.5106	4.6997	-0.6714	-11.4136	4.1962	3.1891	-7.5531	0.6714	-3.8605	-16.2811	-4.6997	-5.3711	-11.0779	-2.0142	-15.7776	3.0212	-16.9525	-2.6855	53	280	179	14	1	2
-1.1749	5.0354	-0.5035	-11.5814	4.364	3.1891	-7.7209	1.0071	-3.8605	-16.449	-4.364	-5.2032	-11.0779	-2.182	-15.9454	3.1891	-17.1204	-2.3499	53	281	180	14	1	2
-1.0071	5.3711	-0.3357	-11.5814	4.5319	3.0212	-8.0566	1.0071	-3.8605	-16.6168	-4.1962	-5.0354	-11.0779	-2.3499	-16.1133	3.5248	-17.2882	-2.182	53	282	181	14	1	2
-0.6714	6.0425	-0.1678	-11.4136	4.6997	3.1891	-7.8888	1.1749	-3.8605	-16.449	-4.0283	-5.0354	-10.91	-2.3499	-16.1133	3.6926	-17.1204	-1.6785	53	283	182	14	1	2
-0.5035	6.2103	-0.1678	-11.5814	4.6997	3.0212	-8.0566	1.1749	-3.8605	-16.6168	-3.6926	-4.8676	-10.7422	-2.5177	-16.1133	3.8605	-17.2882	-1.5106	53	284	183	14	1	2
-0.1678	6.7139	0	-11.4136	4.6997	3.1891	-8.0566	1.3428	-4.0283	-16.6168	-3.3569	-4.6997	-10.7422	-2.5177	-16.1133	4.0283	-17.2882	-1.0071	53	285	184	14	1	2
0	7.0496	0.1678	-11.4136	4.6997	2.8534	-8.0566	1.3428	-4.0283	-16.449	-3.3569	-4.5319	-10.5743	-2.5177	-16.1133	4.0283	-17.2882	-0.8392	53	286	185	14	1	2
0.1678	7.0496	0	-11.5814	4.5319	2.8534	-8.2245	1.1749	-4.0283	-16.6168	-3.3569	-4.364	-10.7422	-2.6855	-16.2811	4.0283	-17.4561	-0.8392	53	287	186	14	1	2
0.3357	7.3853	0.1678	-11.4136	4.5319	2.6855	-8.3923	1.0071	-4.1962	-16.6168	-3.3569	-4.364	-10.5743	-2.6855	-16.2811	4.0283	-17.2882	-0.6714	53	288	187	14	1	2
0.5035	7.5531	0.1678	-11.4136	4.364	2.5177	-8.2245	0.8392	-4.364	-16.6168	-3.5248	-4.364	-10.5743	-2.6855	-16.2811	4.0283	-17.2882	-0.5035	53	289	188	14	1	2
0.6714	7.3853	0	-11.4136	4.0283	2.3499	-8.2245	0.6714	-4.5319	-16.449	-3.5248	-4.1962	-10.4065	-2.6855	-16.2811	3.8605	-17.4561	-0.5035	53	290	189	14	1	2
0.6714	7.3853	0	-11.4136	3.8605	2.182	-8.2245	0.5035	-4.5319	-16.2811	-3.6926	-4.1962	-10.2386	-2.6855	-16.2811	3.8605	-17.4561	-0.5035	53	291	190	14	1	2
0.6714	7.5531	0	-11.4136	3.6926	2.0142	-8.0566	0.5035	-4.5319	-16.1133	-3.6926	-4.0283	-10.0708	-2.6855	-16.2811	3.6926	-17.2882	-0.3357	53	292	191	14	1	2
0.5035	7.3853	-0.1678	-11.2457	3.6926	1.8463	-7.7209	0.3357	-4.8676	-16.1133	-3.8605	-4.0283	-9.7351	-2.6855	-16.1133	3.6926	-17.2882	-0.3357	53	293	192	14	1	2
0.5035	7.2174	-0.3357	-11.2457	3.3569	1.5106	-7.7209	0.1678	-4.8676	-15.7776	-3.8605	-4.0283	-9.5673	-2.6855	-16.1133	3.6926	-17.1204	-0.3357	53	294	193	14	1	2
0.5035	7.0496	-0.1678	-11.2457	3.1891	1.5106	-7.7209	0.1678	-4.6997	-15.4419	-3.6926	-3.5248	-9.2316	-2.6855	-16.1133	3.6926	-17.2882	-0.3357	53	295	194	14	1	2
0.3357	7.0496	-0.3357	-11.2457	3.0212	1.5106	-7.3853	0.1678	-4.5319	-15.274	-3.5248	-3.1891	-8.8959	-2.6855	-15.9454	3.5248	-17.2882	-0.1678	53	296	195	14	1	2
0.3357	6.8817	-0.5035	-11.0779	3.0212	1.5106	-7.2174	0	-4.364	-14.7705	-3.5248	-3.0212	-8.728	-2.6855	-15.7776	3.5248	-17.1204	-0.1678	53	297	196	14	1	2
0.1678	6.7139	-0.3357	-10.91	3.0212	1.5106	-6.7139	0.3357	-4.1962	-14.4348	-3.1891	-2.6855	-8.2245	-2.5177	-15.6097	3.6926	-17.1204	0.1678	53	298	197	14	1	2
0.3357	6.7139	-0.3357	-10.91	3.0212	1.6785	-6.7139	0.1678	-3.8605	-13.9313	-2.8534	-2.182	-7.7209	-2.5177	-15.4419	3.6926	-16.9525	0.1678	53	299	198	14	1	2
0.1678	6.546	-0.3357	-10.7422	3.0212	1.6785	-6.3782	0.3357	-3.5248	-13.5956	-2.6855	-2.0142	-7.3853	-2.5177	-15.274	3.8605	-16.7847	0.3357	53	300	199	14	1	2
0.1678	6.546	-0.3357	-10.7422	3.0212	1.8463	-6.0425	0.5035	-3.3569	-13.092	-2.3499	-1.5106	-6.8817	-2.5177	-15.1062	3.8605	-16.6168	0.5035	53	301	200	14	1	2
0	6.2103	-0.5035	-10.7422	2.8534	2.0142	-5.7068	0.5035	-2.8534	-12.9242	-2.182	-0.8392	-6.546	-2.6855	-15.1062	3.8605	-16.6168	0.6714	53	302	201	14	1	2
0	6.2103	-0.3357	-10.5743	3.0212	2.3499	-5.3711	0.8392	-2.5177	-12.4207	-1.6785	-0.3357	-6.0425	-2.6855	-14.7705	4.0283	-16.449	0.8392	53	303	202	14	1	2
0	6.2103	-0.1678	-10.4065	3.1891	2.3499	-5.0354	1.0071	-2.182	-11.9171	-1.1749	0	-5.3711	-2.6855	-14.6027	4.1962	-16.2811	1.1749	53	304	203	14	1	2
0	6.2103	0	-9.903	3.5248	2.6855	-4.6997	1.3428	-1.6785	-11.2457	-0.6714	0.6714	-4.8676	-2.6855	-14.267	4.364	-15.9454	1.3428	53	305	204	14	1	2
0	6.0425	-0.1678	-10.0708	3.5248	2.8534	-4.5319	1.3428	-1.1749	-10.91	-0.3357	1.1749	-4.1962	-2.8534	-14.0991	4.1962	-15.9454	1.1749	53	306	205	14	1	2
0.1678	6.2103	0	-9.903	3.6926	3.1891	-4.0283	1.6785	-1.0071	-10.5743	-0.1678	1.6785	-3.6926	-2.8534	-13.9313	4.364	-15.6097	1.1749	53	307	206	14	1	2
0.1678	6.0425	0	-9.7351	3.6926	3.1891	-3.8605	1.5106	-0.6714	-10.2386	0	2.0142	-3.3569	-3.0212	-13.7634	4.1962	-15.4419	1.0071	53	308	207	14	1	2
0.1678	6.2103	0	-9.5673	3.8605	3.3569	-3.6926	1.5106	-0.1678	-9.7351	0.1678	2.3499	-3.0212	-3.0212	-13.4277	4.1962	-15.1062	0.8392	53	309	208	14	1	2
0.3357	6.0425	0	-9.5673	3.8605	3.5248	-3.1891	1.5106	-0.1678	-9.3994	0.3357	2.3499	-2.3499	-3.0212	-13.092	4.1962	-14.9384	0.5035	53	310	209	14	1	2
0.1678	6.0425	-0.1678	-9.5673	3.8605	3.5248	-3.1891	1.5106	0.1678	-9.2316	0.1678	2.8534	-2.182	-3.1891	-13.092	3.8605	-14.9384	0	53	311	210	14	1	2
0.1678	5.8746	0	-9.5673	3.8605	3.6926	-2.8534	1.5106	0.3357	-8.8959	0.1678	2.8534	-2.0142	-3.1891	-12.9242	4.0283	-14.7705	-0.3357	53	312	211	14	1	2
0.1678	5.8746	-0.3357	-9.5673	3.6926	3.6926	-2.8534	1.3428	0.3357	-8.728	-0.1678	3.0212	-1.8463	-3.3569	-13.092	3.6926	-14.6027	-0.8392	53	313	212	14	1	2
0	5.7068	-0.3357	-9.5673	3.6926	3.6926	-2.6855	1.3428	0.3357	-8.5602	-0.1678	3.0212	-1.6785	-3.3569	-12.9242	3.6926	-14.4348	-1.1749	53	314	213	14	1	2
0	5.7068	-0.1678	-9.5673	3.8605	3.8605	-2.5177	1.3428	0.5035	-8.2245	-0.3357	3.0212	-1.3428	-3.3569	-12.9242	3.5248	-14.4348	-1.5106	53	315	214	14	1	2
-0.1678	5.5389	-0.6714	-9.7351	3.6926	3.8605	-2.5177	1.0071	0.5035	-8.2245	-0.5035	3.1891	-1.3428	-3.5248	-12.9242	3.3569	-14.4348	-1.8463	53	316	215	14	1	2
-0.1678	5.5389	-0.6714	-9.7351	3.8605	3.8605	-2.3499	1.1749	0.5035	-8.0566	-0.5035	3.0212	-1.3428	-3.5248	-12.9242	3.3569	-14.4348	-2.0142	53	317	216	14	1	2
-0.3357	5.2032	-0.8392	-10.0708	3.6926	3.8605	-2.3499	1.0071	0.5035	-8.0566	-0.6714	3.1891	-1.3428	-3.6926	-13.092	3.1891	-14.6027	-2.3499	53	318	217	14	1	2
-0.5035	5.2032	-0.8392	-10.0708	3.8605	3.8605	-2.3499	1.0071	0.3357	-8.2245	-0.6714	3.0212	-1.1749	-3.6926	-13.2599	2.8534	-14.6027	-2.5177	53	319	218	14	1	2
-0.3357	5.2032	-0.8392	-10.0708	3.8605	3.8605	-2.3499	1.0071	0.3357	-8.0566	-0.6714	3.0212	-1.1749	-3.6926	-13.2599	2.8534	-14.6027	-2.6855	53	320	219	14	1	2
-0.3357	5.2032	-0.8392	-9.903	4.0283	3.8605	-2.3499	1.0071	0.5035	-7.8888	-0.6714	3.0212	-1.1749	-3.6926	-13.2599	2.8534	-14.4348	-2.6855	53	321	220	14	1	2
-0.6714	2.6855	5.2032	6.8817	7.8888	6.546	9.2316	8.3923	15.274	10.91	12.7563	14.267	4.5319	1.6785	6.546	-0.8392	4.0283	3.8605	53	261	160	15	1	2
-0.5035	2.5177	5.3711	7.0496	8.0566	6.7139	9.2316	8.3923	15.274	10.91	12.4207	13.9313	4.364	1.6785	6.3782	-1.0071	3.8605	3.6926	53	262	161	15	1	2
-0.5035	2.5177	5.2032	6.8817	7.8888	6.8817	8.8959	8.2245	15.1062	10.4065	12.085	13.7634	4.1962	1.6785	6.3782	-1.1749	3.5248	3.5248	53	263	162	15	1	2
-0.5035	2.3499	5.3711	6.8817	7.7209	6.8817	8.728	8.2245	15.1062	10.4065	11.9171	13.7634	4.0283	1.6785	6.0425	-1.3428	3.5248	3.3569	53	264	163	15	1	2
-0.6714	2.3499	5.3711	6.546	7.7209	6.8817	8.5602	7.8888	14.9384	10.2386	11.5814	13.4277	3.3569	1.5106	5.7068	-1.3428	3.1891	2.8534	53	265	164	15	1	2
-0.6714	2.182	5.2032	6.3782	7.5531	6.8817	8.2245	7.7209	14.9384	10.0708	11.2457	13.2599	3.1891	1.5106	5.7068	-1.5106	3.0212	2.5177	53	266	165	15	1	2
-0.5035	2.0142	5.2032	6.546	7.3853	6.8817	8.0566	7.5531	14.7705	9.7351	10.91	13.2599	3.0212	1.6785	5.7068	-1.5106	2.8534	2.5177	53	267	166	15	1	2
-0.6714	1.6785	5.0354	6.2103	7.2174	7.0496	7.8888	7.3853	14.4348	9.5673	10.7422	13.092	2.8534	1.6785	5.5389	-1.6785	2.8534	2.3499	53	268	167	15	1	2
-1.0071	1.6785	4.8676	6.0425	7.0496	6.8817	7.5531	7.0496	14.267	9.3994	10.5743	12.9242	2.3499	1.6785	5.2032	-1.6785	2.5177	2.182	53	269	168	15	1	2
-1.1749	1.6785	4.8676	5.8746	6.8817	7.0496	7.5531	7.0496	14.267	9.3994	10.5743	12.7563	2.182	1.6785	5.0354	-1.8463	2.5177	2.182	53	270	169	15	1	2
-1.5106	1.3428	4.6997	5.5389	6.7139	7.0496	7.2174	6.8817	14.0991	9.0637	10.4065	12.7563	2.0142	1.6785	4.8676	-1.8463	2.5177	2.182	53	271	170	15	1	2
-1.5106	1.1749	4.5319	5.5389	6.546	6.8817	7.0496	6.7139	13.7634	9.0637	10.2386	12.5885	2.0142	1.8463	4.8676	-1.8463	2.5177	2.5177	53	272	171	15	1	2
-1.8463	1.0071	4.364	5.3711	6.3782	6.8817	6.8817	6.7139	13.5956	8.8959	10.2386	12.5885	1.8463	1.8463	4.8676	-1.6785	2.5177	2.8534	53	273	172	15	1	2
-2.182	1.0071	4.364	5.0354	6.546	7.0496	6.546	6.7139	13.5956	8.8959	10.4065	12.5885	1.6785	2.0142	4.6997	-1.5106	2.5177	3.1891	53	274	173	15	1	2
-2.3499	1.0071	4.1962	5.0354	6.3782	6.8817	6.546	6.7139	13.4277	8.728	10.5743	12.5885	1.6785	2.0142	4.8676	-1.5106	2.8534	3.5248	53	275	174	15	1	2
-2.5177	0.8392	4.1962	4.8676	6.3782	6.8817	6.3782	6.7139	13.2599	8.5602	10.91	12.5885	1.6785	2.182	4.8676	-1.3428	3.0212	3.8605	53	276	175	15	1	2
-2.8534	1.0071	4.0283	4.5319	6.3782	6.8817	6.2103	6.7139	13.2599	8.5602	11.0779	12.5885	1.3428	2.3499	4.8676	-1.1749	3.1891	4.0283	53	277	176	15	1	2
-3.0212	0.8392	4.0283	4.6997	6.2103	6.7139	5.8746	6.3782	12.9242	8.3923	10.91	12.2528	1.3428	2.3499	4.8676	-1.1749	3.0212	4.364	53	278	177	15	1	2
-3.3569	0.5035	3.6926	4.364	6.2103	6.546	5.5389	6.2103	12.5885	8.2245	10.7422	12.085	1.0071	2.3499	4.6997	-1.1749	3.0212	4.364	53	279	178	15	1	2
-3.6926	0.5035	3.3569	4.0283	6.0425	6.546	5.5389	6.2103	12.4207	8.0566	10.7422	11.9171	0.8392	2.5177	4.8676	-1.0071	3.3569	4.1962	53	280	179	15	1	2
-4.0283	0.1678	3.3569	3.6926	5.8746	6.2103	5.0354	6.0425	12.2528	7.7209	10.5743	11.5814	0.6714	2.5177	4.6997	-1.0071	3.3569	4.1962	53	281	180	15	1	2
-4.364	0	3.0212	3.3569	5.7068	6.0425	4.6997	5.7068	11.9171	7.3853	10.4065	11.2457	0.3357	2.5177	4.5319	-1.0071	3.3569	4.0283	53	282	181	15	1	2
-4.6997	-0.1678	2.6855	3.0212	5.5389	5.7068	4.364	5.5389	11.5814	7.0496	10.2386	10.91	0.1678	2.5177	4.5319	-1.0071	3.1891	4.0283	53	283	182	15	1	2
-5.0354	-0.5035	2.5177	2.6855	5.3711	5.3711	3.8605	5.3711	11.0779	6.7139	10.2386	10.5743	-0.1678	2.5177	4.364	-1.0071	3.1891	4.0283	53	284	183	15	1	2
-5.2032	-0.6714	2.182	2.3499	5.0354	4.8676	3.3569	5.0354	10.5743	6.3782	9.903	10.0708	-0.3357	2.3499	4.364	-1.0071	2.8534	4.0283	53	285	184	15	1	2
-5.5389	-1.0071	1.6785	1.8463	5.0354	4.5319	2.8534	4.6997	10.2386	5.8746	9.7351	9.7351	-0.8392	2.3499	4.0283	-0.8392	2.6855	3.6926	53	286	185	15	1	2
-5.7068	-1.1749	1.5106	1.5106	4.5319	4.0283	2.182	4.364	9.7351	5.3711	9.2316	9.2316	-1.0071	2.182	3.8605	-1.0071	2.5177	3.6926	53	287	186	15	1	2
-6.2103	-1.3428	1.0071	1.0071	4.1962	3.5248	1.8463	3.8605	9.0637	4.6997	9.0637	8.5602	-1.5106	2.0142	3.5248	-1.0071	2.182	3.3569	53	288	187	15	1	2
-6.546	-1.6785	0.5035	0.3357	4.0283	3.1891	1.3428	3.6926	8.5602	4.364	8.728	8.2245	-2.0142	2.0142	3.1891	-1.0071	1.8463	3.0212	53	289	188	15	1	2
-6.7139	-2.182	0	-0.3357	3.6926	2.5177	0.6714	3.1891	7.8888	3.6926	8.0566	7.7209	-2.5177	1.6785	3.0212	-1.1749	1.5106	2.6855	53	290	189	15	1	2
-6.8817	-2.3499	-0.1678	-0.6714	3.5248	2.0142	0.1678	3.0212	7.5531	3.1891	7.7209	7.2174	-2.6855	1.6785	2.6855	-1.1749	1.3428	2.5177	53	291	190	15	1	2
-7.0496	-2.5177	-0.6714	-1.3428	2.8534	1.5106	-0.5035	2.5177	6.8817	2.6855	7.0496	6.3782	-3.1891	1.5106	2.3499	-1.1749	1.0071	2.0142	53	292	191	15	1	2
-7.0496	-2.6855	-1.0071	-1.6785	2.8534	1.0071	-1.0071	1.8463	6.2103	2.182	6.546	5.7068	-3.5248	1.5106	2.3499	-1.5106	0.6714	1.6785	53	293	192	15	1	2
-7.2174	-3.1891	-1.3428	-2.182	2.3499	0.5035	-1.8463	1.3428	5.7068	1.6785	6.0425	5.2032	-4.1962	1.3428	2.0142	-1.5106	0.1678	1.1749	53	294	193	15	1	2
-7.3853	-3.3569	-1.6785	-2.6855	2.182	-0.1678	-2.182	0.8392	5.0354	1.0071	5.3711	4.364	-4.5319	1.3428	1.6785	-1.6785	-0.3357	0.8392	53	295	194	15	1	2
-7.3853	-3.5248	-2.182	-3.1891	1.6785	-0.5035	-2.8534	0.3357	4.364	0.5035	4.8676	3.6926	-5.2032	1.1749	1.1749	-1.8463	-0.8392	0.3357	53	296	195	15	1	2
-7.5531	-3.6926	-2.5177	-3.6926	1.5106	-1.0071	-3.3569	0	4.1962	0.1678	4.5319	3.0212	-5.5389	1.1749	1.0071	-2.0142	-1.1749	0	53	297	196	15	1	2
-7.5531	-4.0283	-2.8534	-4.0283	1.1749	-1.5106	-3.6926	-0.5035	3.6926	-0.5035	3.8605	2.5177	-5.8746	1.1749	0.6714	-2.3499	-1.5106	-0.1678	53	298	197	15	1	2
-7.7209	-4.364	-3.3569	-4.364	0.8392	-1.8463	-4.1962	-0.8392	3.1891	-1.0071	3.3569	2.0142	-6.3782	1.0071	0.3357	-2.5177	-2.0142	-0.5035	53	299	198	15	1	2
-7.5531	-4.364	-3.5248	-4.5319	0.6714	-2.3499	-4.5319	-1.1749	2.8534	-1.1749	3.1891	1.6785	-6.7139	1.0071	0.1678	-2.6855	-2.3499	-0.6714	53	300	199	15	1	2
-7.7209	-4.6997	-4.0283	-4.8676	0.3357	-2.6855	-4.8676	-1.5106	2.3499	-1.6785	2.8534	1.1749	-7.0496	0.8392	-0.1678	-2.8534	-2.6855	-0.8392	53	301	200	15	1	2
-7.7209	-5.0354	-4.0283	-5.0354	0.1678	-3.0212	-5.0354	-1.6785	2.182	-1.8463	2.6855	1.0071	-7.2174	0.8392	-0.1678	-3.0212	-2.8534	-0.6714	53	302	201	15	1	2
-7.7209	-5.2032	-4.364	-5.2032	0	-3.3569	-5.3711	-2.0142	1.8463	-2.0142	2.5177	0.6714	-7.5531	0.6714	-0.5035	-3.0212	-3.1891	-0.6714	53	303	202	15	1	2
-7.7209	-5.3711	-4.6997	-5.5389	-0.1678	-3.5248	-5.5389	-2.182	1.6785	-2.182	2.3499	0.5035	-7.5531	0.6714	-0.5035	-3.1891	-3.3569	-0.3357	53	304	203	15	1	2
-7.7209	-5.5389	-4.8676	-5.5389	-0.1678	-3.8605	-5.7068	-2.182	1.5106	-2.5177	2.3499	0.5035	-7.7209	0.6714	-0.5035	-3.5248	-3.5248	-0.1678	53	305	204	15	1	2
