"FZ"	"FC3"	"FCZ"	"FC4"	"C3"	"CZ"	"C4"	"CP3"	"CPZ"	"CP4"	"P3"	"PZ"	"P4"	"OZ"	"P8"	"TP7"	"TP8"	"P7"	"Subject"	"Points"	"Time"	"Trial"	"Rejected"	"Correct"
-6.3782	3.0212	-10.7422	-7.2174	-6.546	-15.6097	-3.0212	-8.0566	-12.4207	-6.3782	-4.1962	-7.5531	-1.0071	0.6714	-0.1678	4.0283	-0.6714	1.5106	31	221	120	2	1	2
-6.0425	3.1891	-10.5743	-7.3853	-6.0425	-15.6097	-3.5248	-7.8888	-12.7563	-7.0496	-4.0283	-7.8888	-1.5106	0.5035	-0.5035	4.1962	-1.1749	1.8463	31	222	121	2	1	2
-5.8746	3.3569	-10.4065	-7.3853	-5.7068	-15.6097	-3.8605	-7.7209	-13.092	-7.3853	-3.8605	-8.2245	-1.8463	0.5035	-0.8392	4.1962	-1.3428	2.0142	31	223	122	2	1	2
-5.7068	3.3569	-10.0708	-7.3853	-5.2032	-15.4419	-4.364	-7.3853	-13.4277	-7.8888	-3.8605	-8.5602	-2.3499	0.3357	-1.1749	4.364	-1.8463	2.182	31	224	123	2	1	2
-5.3711	3.3569	-9.5673	-7.3853	-4.6997	-15.1062	-4.5319	-7.0496	-13.5956	-8.3923	-3.3569	-8.8959	-2.6855	0.1678	-1.5106	4.5319	-2.3499	2.5177	31	225	124	2	1	2
-4.8676	3.5248	-9.0637	-7.2174	-4.1962	-14.6027	-4.8676	-6.546	-13.5956	-8.728	-3.1891	-9.2316	-3.1891	-0.1678	-1.8463	5.0354	-2.8534	3.0212	31	226	125	2	1	2
-4.364	3.5248	-8.3923	-6.7139	-3.6926	-14.0991	-4.8676	-6.2103	-13.7634	-9.0637	-3.0212	-9.5673	-3.5248	-0.3357	-2.3499	5.2032	-3.1891	3.3569	31	227	126	2	1	2
-3.6926	3.8605	-7.5531	-6.3782	-2.8534	-13.4277	-4.8676	-5.3711	-13.5956	-9.2316	-2.5177	-9.5673	-3.8605	-0.6714	-2.6855	5.7068	-3.6926	3.8605	31	228	127	2	1	2
-3.3569	3.8605	-6.8817	-5.7068	-2.5177	-12.5885	-4.6997	-4.8676	-13.5956	-9.5673	-2.0142	-9.903	-4.0283	-0.8392	-3.1891	6.2103	-3.8605	4.364	31	229	128	2	1	2
-2.6855	3.8605	-6.0425	-5.2032	-1.8463	-11.9171	-4.5319	-4.1962	-13.4277	-9.7351	-1.5106	-10.0708	-4.364	-1.1749	-3.6926	6.546	-4.1962	4.6997	31	230	129	2	1	2
-1.8463	4.0283	-5.0354	-4.5319	-1.0071	-10.91	-4.5319	-3.3569	-12.9242	-9.7351	-1.0071	-10.0708	-4.6997	-1.5106	-4.0283	7.2174	-4.6997	5.3711	31	231	130	2	1	2
-1.1749	4.1962	-4.1962	-3.8605	-0.1678	-9.903	-4.1962	-2.3499	-12.7563	-9.7351	-0.3357	-10.0708	-4.8676	-1.6785	-4.6997	7.7209	-4.8676	5.8746	31	232	131	2	1	2
-0.3357	4.5319	-3.1891	-3.5248	0.5035	-8.728	-4.0283	-1.6785	-12.2528	-9.7351	0.1678	-10.0708	-5.2032	-2.0142	-5.0354	8.3923	-5.3711	6.546	31	233	132	2	1	2
0.1678	4.6997	-2.182	-2.8534	1.3428	-7.7209	-3.8605	-0.6714	-11.7493	-9.903	0.8392	-10.0708	-5.3711	-2.182	-5.5389	8.8959	-5.5389	6.8817	31	234	133	2	1	2
1.0071	5.0354	-1.0071	-2.3499	2.0142	-6.546	-3.6926	0	-11.4136	-9.903	1.3428	-9.903	-5.7068	-2.5177	-6.0425	9.5673	-5.8746	7.5531	31	235	134	2	1	2
2.0142	5.3711	0.1678	-1.8463	2.8534	-5.3711	-3.5248	1.0071	-10.7422	-9.903	2.182	-9.7351	-5.8746	-2.6855	-6.3782	10.2386	-6.0425	8.0566	31	236	135	2	1	2
2.6855	5.7068	1.1749	-1.1749	3.8605	-4.0283	-3.3569	2.182	-10.4065	-10.0708	2.8534	-9.5673	-6.0425	-3.0212	-6.8817	10.91	-6.2103	8.5602	31	237	136	2	1	2
3.5248	6.3782	2.3499	-0.6714	4.6997	-2.8534	-3.1891	3.1891	-9.5673	-9.903	3.5248	-9.2316	-6.2103	-3.1891	-7.3853	11.5814	-6.3782	8.728	31	238	137	2	1	2
4.6997	7.2174	3.8605	-0.3357	5.3711	-1.6785	-2.8534	4.1962	-8.8959	-9.7351	4.364	-8.728	-6.3782	-3.1891	-7.5531	12.085	-6.546	9.2316	31	239	138	2	1	2
5.3711	7.7209	4.8676	0.1678	6.3782	-0.6714	-2.6855	5.2032	-8.3923	-9.903	5.0354	-8.5602	-6.3782	-3.5248	-8.0566	12.5885	-6.546	9.5673	31	240	139	2	1	2
6.546	8.728	6.2103	0.6714	7.2174	0.5035	-2.3499	6.2103	-7.7209	-9.7351	5.7068	-8.0566	-6.546	-3.5248	-8.2245	13.2599	-6.7139	9.903	31	241	140	2	1	2
7.3853	9.903	7.7209	1.1749	8.2245	1.8463	-2.182	7.2174	-7.0496	-9.5673	6.546	-7.5531	-6.3782	-3.6926	-8.5602	13.9313	-6.7139	10.4065	31	242	141	2	1	2
8.5602	10.7422	8.728	1.6785	8.8959	2.6855	-1.8463	7.8888	-6.546	-9.2316	7.2174	-7.2174	-6.3782	-3.6926	-8.728	14.4348	-6.7139	10.7422	31	243	142	2	1	2
9.5673	11.7493	10.2386	2.182	9.903	3.8605	-1.3428	8.8959	-5.8746	-9.0637	7.7209	-6.7139	-6.2103	-3.8605	-9.0637	15.1062	-6.7139	11.0779	31	244	143	2	1	2
10.4065	12.7563	11.2457	2.5177	10.4065	4.6997	-1.1749	9.5673	-5.5389	-8.728	8.2245	-6.2103	-6.2103	-3.8605	-9.2316	15.274	-6.8817	11.4136	31	245	144	2	1	2
11.4136	13.7634	12.2528	3.1891	11.0779	5.5389	-0.8392	10.2386	-4.8676	-8.3923	8.8959	-5.7068	-6.2103	-3.8605	-9.2316	15.9454	-6.546	11.7493	31	246	145	2	1	2
12.4207	14.7705	13.4277	3.5248	11.5814	6.3782	-0.5035	10.7422	-4.5319	-7.8888	9.2316	-5.5389	-5.8746	-4.0283	-9.5673	16.2811	-6.3782	12.085	31	247	146	2	1	2
13.092	15.6097	14.267	3.6926	12.085	6.8817	0	11.0779	-4.0283	-7.5531	9.7351	-5.0354	-5.7068	-4.0283	-9.5673	16.6168	-6.3782	12.085	31	248	147	2	1	2
13.7634	16.6168	14.9384	4.0283	12.2528	7.5531	0.3357	11.4136	-3.6926	-7.2174	9.903	-4.6997	-5.5389	-4.0283	-9.7351	16.7847	-6.2103	12.2528	31	249	148	2	1	2
14.267	17.2882	15.6097	4.1962	12.4207	7.8888	0.8392	11.4136	-3.6926	-6.7139	9.903	-4.6997	-5.5389	-3.8605	-9.7351	16.9525	-6.2103	12.4207	31	250	149	2	1	2
14.6027	17.7917	16.1133	4.364	12.5885	8.2245	1.1749	11.4136	-3.3569	-6.3782	9.903	-4.6997	-5.3711	-3.8605	-9.903	17.1204	-6.3782	12.4207	31	251	150	2	1	2
14.9384	18.4631	16.449	4.6997	12.4207	8.5602	1.8463	11.4136	-3.1891	-5.8746	9.903	-4.5319	-5.2032	-3.8605	-10.2386	17.2882	-6.2103	12.4207	31	252	151	2	1	2
15.1062	18.631	16.7847	4.6997	12.2528	8.5602	2.0142	11.0779	-3.1891	-5.7068	9.5673	-4.5319	-5.2032	-3.6926	-10.2386	16.9525	-6.2103	12.2528	31	253	152	2	1	2
15.1062	19.1345	16.9525	4.8676	11.9171	8.5602	2.5177	10.91	-3.0212	-5.3711	9.2316	-4.5319	-5.0354	-3.6926	-10.4065	16.7847	-6.2103	12.2528	31	254	153	2	1	2
14.9384	19.1345	16.9525	4.8676	11.5814	8.3923	2.8534	10.4065	-3.1891	-5.0354	8.8959	-4.6997	-5.2032	-3.5248	-10.4065	16.449	-6.2103	11.9171	31	255	154	2	1	2
14.9384	19.3024	16.9525	5.0354	11.0779	8.2245	3.3569	9.903	-3.1891	-4.6997	8.3923	-4.8676	-5.0354	-3.5248	-10.5743	16.2811	-6.0425	11.7493	31	256	155	2	1	2
14.7705	19.1345	16.7847	5.2032	10.4065	8.2245	3.6926	9.2316	-3.3569	-4.364	7.7209	-5.0354	-5.0354	-3.5248	-10.7422	15.7776	-6.2103	11.2457	31	257	156	2	1	2
14.4348	19.1345	16.449	5.0354	9.7351	7.7209	4.0283	8.5602	-3.5248	-4.0283	7.0496	-5.5389	-5.2032	-3.3569	-10.7422	15.4419	-6.2103	10.7422	31	258	157	2	1	2
14.4348	18.7988	16.2811	5.2032	9.2316	7.5531	4.5319	7.8888	-3.5248	-3.8605	6.546	-5.8746	-5.2032	-3.3569	-10.91	15.1062	-6.2103	10.4065	31	259	158	2	1	2
13.9313	18.4631	15.7776	5.2032	8.728	7.0496	4.6997	7.0496	-3.8605	-3.6926	5.7068	-6.2103	-5.3711	-3.3569	-10.91	14.6027	-6.2103	9.903	31	260	159	2	1	2
13.4277	18.1274	15.274	5.0354	8.0566	6.546	4.8676	6.2103	-4.0283	-3.5248	4.8676	-6.546	-5.5389	-3.1891	-10.7422	14.0991	-6.0425	9.3994	31	261	160	2	1	2
13.092	17.7917	14.7705	5.0354	7.3853	6.2103	5.0354	5.7068	-4.0283	-3.5248	4.364	-6.7139	-5.7068	-3.1891	-10.91	13.4277	-6.0425	8.8959	31	262	161	2	1	2
12.5885	17.1204	14.267	4.8676	6.8817	5.7068	5.3711	4.8676	-4.364	-3.5248	3.5248	-7.2174	-5.8746	-3.1891	-10.91	12.9242	-6.0425	8.2245	31	263	162	2	1	2
12.2528	16.7847	13.5956	4.6997	6.3782	5.3711	5.5389	4.1962	-4.5319	-3.1891	2.8534	-7.5531	-5.8746	-3.1891	-11.0779	12.5885	-6.0425	7.7209	31	264	163	2	1	2
11.7493	16.1133	13.092	4.5319	6.0425	4.8676	5.7068	3.5248	-4.8676	-3.1891	2.182	-8.0566	-6.0425	-3.1891	-11.0779	12.085	-6.0425	7.3853	31	265	164	2	1	2
11.0779	15.6097	12.4207	4.5319	5.5389	4.364	5.8746	3.1891	-4.8676	-3.1891	1.5106	-8.3923	-6.2103	-3.1891	-11.0779	11.5814	-6.0425	6.8817	31	266	165	2	1	2
10.4065	15.274	11.7493	4.1962	5.2032	4.0283	6.0425	2.6855	-5.0354	-3.1891	0.8392	-8.728	-6.3782	-3.1891	-11.0779	11.0779	-6.0425	6.3782	31	267	166	2	1	2
9.903	14.6027	11.2457	4.1962	5.0354	3.5248	6.2103	2.3499	-5.2032	-3.0212	0.3357	-9.2316	-6.546	-3.1891	-11.2457	10.5743	-5.8746	5.8746	31	268	167	2	1	2
9.2316	14.0991	10.4065	3.8605	4.8676	3.1891	6.0425	1.8463	-5.5389	-3.1891	-0.1678	-9.5673	-6.8817	-3.1891	-11.2457	10.2386	-5.8746	5.5389	31	269	168	2	1	2
8.728	13.4277	9.903	3.6926	4.5319	2.8534	6.0425	1.6785	-5.7068	-3.1891	-0.5035	-9.5673	-7.0496	-3.1891	-11.2457	9.903	-6.0425	5.0354	31	270	169	2	1	2
7.8888	12.7563	9.0637	3.3569	4.6997	2.5177	5.8746	1.6785	-5.7068	-3.3569	-0.8392	-9.903	-7.3853	-3.1891	-11.4136	9.5673	-6.2103	4.6997	31	271	170	2	1	2
7.2174	12.4207	8.3923	2.8534	4.5319	2.182	5.7068	1.5106	-5.8746	-3.6926	-1.1749	-10.0708	-7.7209	-3.1891	-11.4136	9.2316	-6.3782	4.364	31	272	171	2	1	2
6.546	11.7493	7.7209	2.6855	4.5319	1.8463	5.3711	1.5106	-6.0425	-3.8605	-1.5106	-10.2386	-8.0566	-3.1891	-11.5814	8.8959	-6.546	4.1962	31	273	172	2	1	2
5.8746	11.2457	7.0496	2.182	4.5319	1.5106	5.2032	1.5106	-6.2103	-4.1962	-1.6785	-10.4065	-8.3923	-3.1891	-11.7493	8.728	-6.7139	3.8605	31	274	173	2	1	2
5.0354	10.7422	6.546	1.6785	4.5319	1.3428	4.8676	1.6785	-6.3782	-4.364	-1.6785	-10.5743	-8.728	-3.1891	-11.7493	8.3923	-6.8817	3.6926	31	275	174	2	1	2
4.364	10.4065	6.2103	1.3428	4.8676	1.1749	4.6997	2.0142	-6.2103	-4.5319	-1.6785	-10.7422	-8.8959	-3.1891	-11.9171	8.2245	-7.0496	3.6926	31	276	175	2	1	2
3.8605	9.7351	5.7068	0.8392	4.8676	1.0071	4.1962	2.182	-6.3782	-5.0354	-1.6785	-10.91	-9.3994	-3.1891	-12.085	8.0566	-7.3853	3.5248	31	277	176	2	1	2
3.1891	9.2316	5.0354	0.3357	4.6997	0.8392	3.6926	2.182	-6.546	-5.3711	-1.6785	-10.91	-9.7351	-3.1891	-12.2528	7.8888	-7.5531	3.3569	31	278	177	2	1	2
2.6855	8.8959	4.5319	-0.1678	4.8676	0.5035	3.1891	2.3499	-6.7139	-5.8746	-1.6785	-11.0779	-10.2386	-3.0212	-12.085	7.8888	-7.8888	3.5248	31	279	178	2	1	2
2.0142	8.2245	4.1962	-1.0071	4.8676	0.5035	2.6855	2.3499	-6.8817	-6.2103	-2.0142	-11.2457	-10.5743	-3.0212	-12.2528	7.7209	-8.2245	3.3569	31	280	179	2	1	2
1.5106	8.0566	3.6926	-1.3428	5.0354	0.5035	2.182	2.6855	-6.7139	-6.546	-1.8463	-11.4136	-10.91	-3.0212	-12.4207	7.3853	-8.3923	3.3569	31	281	180	2	1	2
-7.0496	-4.5319	-2.8534	-4.364	-5.0354	-3.3569	0.6714	-2.182	-3.0212	4.364	0.1678	2.0142	9.5673	7.3853	13.5956	-5.2032	8.728	-1.1749	31	221	120	3	1	2
-6.2103	-3.3569	-1.8463	-3.6926	-4.0283	-2.5177	1.0071	-1.5106	-2.5177	4.6997	0.6714	2.3499	9.903	7.3853	13.5956	-4.8676	8.728	-1.0071	31	222	121	3	1	2
-5.2032	-2.0142	-0.6714	-2.8534	-2.6855	-1.5106	1.6785	-0.6714	-1.8463	5.2032	1.5106	2.8534	10.2386	7.3853	13.4277	-4.1962	8.8959	-0.5035	31	223	122	3	1	2
-4.1962	-0.8392	0.5035	-2.0142	-1.6785	-0.6714	2.182	0.1678	-1.1749	5.5389	2.0142	3.3569	10.5743	7.3853	13.2599	-3.6926	9.0637	0	31	224	123	3	1	2
-3.3569	0.3357	1.5106	-1.5106	-0.5035	0.3357	2.5177	1.1749	-0.6714	6.2103	2.6855	4.0283	10.91	7.5531	13.2599	-3.1891	9.2316	0.3357	31	225	124	3	1	2
-2.0142	1.8463	2.6855	-0.6714	0.6714	1.0071	3.0212	2.0142	0	6.2103	3.3569	4.364	10.91	7.3853	12.9242	-2.6855	9.2316	0.8392	31	226	125	3	1	2
-1.0071	3.0212	3.8605	0	2.0142	2.0142	3.5248	2.8534	0.6714	6.7139	4.0283	4.8676	11.2457	7.3853	12.5885	-2.0142	9.2316	1.3428	31	227	126	3	1	2
0.1678	4.364	4.8676	0.5035	3.3569	3.0212	3.6926	3.8605	1.3428	6.8817	4.6997	5.3711	11.0779	7.2174	12.085	-1.1749	9.2316	1.6785	31	228	127	3	1	2
1.1749	5.7068	6.2103	1.3428	4.5319	3.8605	4.0283	4.8676	2.0142	7.2174	5.3711	5.7068	11.0779	7.0496	11.7493	-0.5035	9.0637	2.182	31	229	128	3	1	2
2.182	6.8817	7.2174	1.8463	5.7068	4.6997	4.5319	5.5389	2.5177	7.3853	6.0425	6.3782	11.2457	6.8817	11.2457	0.1678	8.8959	2.6855	31	230	129	3	1	2
3.3569	8.2245	8.3923	2.3499	6.8817	5.5389	4.6997	6.546	3.3569	7.5531	6.8817	6.7139	11.2457	6.546	10.5743	1.0071	8.728	3.3569	31	231	130	3	1	2
4.364	9.3994	9.7351	3.0212	8.2245	6.546	4.8676	7.7209	4.1962	7.7209	7.5531	7.2174	11.2457	6.2103	10.0708	1.8463	8.5602	4.0283	31	232	131	3	1	2
5.3711	10.5743	10.5743	3.5248	9.3994	7.5531	5.0354	8.5602	4.6997	7.7209	8.2245	7.5531	10.91	5.7068	9.2316	2.8534	8.0566	4.6997	31	233	132	3	1	2
6.2103	11.9171	11.9171	4.0283	10.4065	8.2245	5.2032	9.3994	5.3711	7.8888	8.8959	8.0566	10.91	5.3711	8.728	3.6926	7.8888	5.3711	31	234	133	3	1	2
7.3853	12.9242	12.7563	4.6997	11.5814	9.2316	5.2032	10.2386	5.8746	7.7209	9.3994	8.3923	10.5743	4.8676	7.8888	4.364	7.5531	5.8746	31	235	134	3	1	2
8.3923	14.0991	13.9313	5.2032	12.7563	10.2386	5.5389	11.0779	6.7139	7.7209	10.0708	8.8959	10.4065	4.5319	7.3853	5.2032	7.2174	6.546	31	236	135	3	1	2
9.0637	15.1062	14.7705	5.7068	13.4277	10.91	5.3711	11.7493	7.2174	7.5531	10.4065	8.8959	9.903	4.0283	6.546	6.0425	6.7139	6.8817	31	237	136	3	1	2
10.0708	15.9454	15.6097	5.8746	14.4348	11.5814	5.3711	12.4207	7.8888	7.3853	10.91	9.2316	9.7351	3.6926	5.8746	6.546	6.3782	7.2174	31	238	137	3	1	2
10.7422	16.7847	16.2811	6.3782	15.1062	12.085	5.0354	12.9242	8.2245	6.8817	11.0779	9.2316	8.8959	3.1891	5.0354	7.3853	5.8746	7.3853	31	239	138	3	1	2
11.2457	17.6239	17.1204	6.7139	15.7776	12.7563	4.8676	13.4277	8.728	6.546	11.4136	9.3994	8.5602	2.8534	4.5319	7.8888	5.5389	7.7209	31	240	139	3	1	2
11.9171	18.4631	17.6239	6.8817	16.449	13.2599	4.6997	13.9313	9.0637	6.2103	11.7493	9.5673	8.0566	2.5177	3.6926	8.5602	5.2032	7.8888	31	241	140	3	1	2
12.4207	18.9667	17.9596	6.8817	16.9525	13.7634	4.364	14.0991	9.2316	5.7068	11.9171	9.5673	7.3853	2.182	3.0212	9.0637	4.6997	8.0566	31	242	141	3	1	2
12.7563	19.6381	18.4631	6.7139	17.2882	14.0991	3.8605	14.4348	9.3994	5.0354	12.085	9.5673	6.8817	1.8463	2.3499	9.5673	4.1962	8.2245	31	243	142	3	1	2
13.2599	20.3094	18.7988	6.7139	17.7917	14.267	3.3569	14.6027	9.5673	4.364	12.2528	9.5673	6.2103	1.5106	1.6785	9.903	3.8605	8.3923	31	244	143	3	1	2
13.5956	20.813	19.1345	6.7139	18.1274	14.4348	2.6855	14.9384	9.7351	3.6926	12.4207	9.5673	5.5389	1.1749	1.0071	10.2386	3.5248	8.5602	31	245	144	3	1	2
13.7634	21.1487	19.1345	6.2103	18.4631	14.6027	2.182	15.1062	9.7351	2.8534	12.2528	9.2316	4.8676	0.6714	0.1678	10.5743	2.8534	8.3923	31	246	145	3	1	2
13.9313	21.6522	19.3024	6.0425	18.7988	14.6027	1.6785	15.274	9.7351	2.3499	12.2528	9.0637	4.1962	0.3357	-0.5035	11.0779	2.5177	8.5602	31	247	146	3	1	2
14.0991	21.9879	19.4702	5.7068	18.9667	14.7705	1.0071	15.4419	9.7351	1.6785	12.4207	8.8959	3.5248	0	-1.1749	11.5814	2.0142	8.728	31	248	147	3	1	2
14.0991	22.3236	19.3024	5.5389	19.3024	14.7705	0.5035	15.6097	9.5673	1.0071	12.4207	8.728	2.8534	-0.3357	-1.6785	12.085	1.8463	8.8959	31	249	148	3	1	2
13.7634	22.4915	19.1345	5.0354	19.3024	14.267	0	15.6097	9.2316	0.1678	12.2528	8.2245	2.0142	-0.8392	-2.5177	12.4207	1.5106	8.8959	31	250	149	3	1	2
13.7634	22.8271	18.9667	4.6997	19.4702	14.0991	-0.8392	15.6097	8.728	-0.5035	12.085	7.8888	1.3428	-1.1749	-3.0212	12.9242	1.0071	9.0637	31	251	150	3	1	2
13.2599	22.6593	18.631	4.1962	19.6381	13.7634	-1.3428	15.6097	8.2245	-1.1749	11.9171	7.5531	0.6714	-1.5106	-3.5248	13.4277	0.6714	9.2316	31	252	151	3	1	2
12.9242	22.6593	18.1274	3.5248	19.4702	13.4277	-1.8463	15.6097	7.7209	-2.0142	11.7493	7.0496	0	-1.8463	-4.0283	13.5956	0.5035	9.3994	31	253	152	3	1	2
12.4207	22.6593	17.6239	3.0212	19.4702	12.7563	-2.5177	15.6097	7.2174	-2.6855	11.5814	6.546	-0.6714	-2.182	-4.5319	13.9313	0.1678	9.5673	31	254	153	3	1	2
11.9171	22.3236	17.1204	2.3499	19.4702	12.085	-3.0212	15.6097	6.546	-3.1891	11.4136	6.0425	-1.3428	-2.3499	-4.8676	14.4348	-0.1678	9.7351	31	255	154	3	1	2
11.2457	21.9879	16.2811	1.8463	19.1345	11.2457	-3.5248	15.274	5.7068	-3.6926	11.0779	5.3711	-2.0142	-2.6855	-5.3711	14.4348	-0.3357	9.5673	31	256	155	3	1	2
10.4065	21.4844	15.4419	1.0071	18.9667	10.4065	-4.0283	14.9384	4.8676	-4.1962	10.7422	4.6997	-2.5177	-2.8534	-5.7068	14.7705	-0.5035	9.5673	31	257	156	3	1	2
9.7351	20.9808	14.6027	0.5035	18.631	9.5673	-4.5319	14.6027	4.0283	-4.6997	10.2386	4.0283	-3.1891	-3.0212	-6.0425	14.7705	-0.6714	9.5673	31	258	157	3	1	2
9.0637	20.4773	13.9313	-0.1678	18.2953	8.5602	-5.0354	14.4348	3.1891	-5.2032	9.903	3.3569	-3.6926	-3.1891	-6.0425	14.9384	-0.8392	9.5673	31	259	158	3	1	2
8.2245	19.6381	12.9242	-0.6714	17.7917	7.5531	-5.2032	13.7634	2.182	-5.5389	9.3994	2.5177	-4.1962	-3.1891	-6.3782	14.7705	-0.8392	9.3994	31	260	159	3	1	2
7.5531	18.7988	12.085	-1.1749	17.2882	6.546	-5.3711	13.4277	1.3428	-5.8746	8.8959	1.8463	-4.5319	-3.1891	-6.3782	14.7705	-1.0071	9.2316	31	261	160	3	1	2
6.7139	18.1274	11.2457	-1.6785	16.7847	5.5389	-5.5389	12.9242	0.3357	-6.0425	8.3923	1.0071	-4.8676	-3.1891	-6.546	14.6027	-1.0071	8.8959	31	262	161	3	1	2
5.8746	17.1204	10.2386	-2.182	16.2811	4.5319	-5.7068	12.4207	-0.6714	-6.2103	7.7209	0.3357	-5.2032	-3.1891	-6.546	14.267	-1.0071	8.728	31	263	162	3	1	2
5.0354	16.6168	9.3994	-2.5177	15.7776	3.5248	-5.7068	11.9171	-1.5106	-6.3782	7.3853	-0.3357	-5.5389	-3.1891	-6.3782	14.0991	-1.0071	8.3923	31	264	163	3	1	2
4.0283	15.6097	8.5602	-3.0212	14.9384	2.5177	-5.8746	11.4136	-2.5177	-6.3782	6.546	-1.3428	-5.8746	-3.1891	-6.546	13.7634	-1.0071	8.0566	31	265	164	3	1	2
3.3569	14.6027	7.5531	-3.1891	14.267	1.6785	-5.5389	10.7422	-3.1891	-6.2103	6.0425	-1.8463	-5.8746	-3.0212	-6.546	13.4277	-0.8392	7.5531	31	266	165	3	1	2
2.6855	13.7634	6.7139	-3.3569	13.7634	0.8392	-5.2032	10.4065	-3.8605	-6.2103	5.3711	-2.5177	-6.0425	-3.0212	-6.2103	13.2599	-0.8392	7.2174	31	267	166	3	1	2
2.0142	12.7563	6.2103	-3.3569	13.2599	0.3357	-4.8676	9.903	-4.1962	-5.7068	5.0354	-2.8534	-5.8746	-2.8534	-6.2103	12.9242	-0.5035	7.0496	31	268	167	3	1	2
1.3428	12.085	5.5389	-3.5248	12.5885	-0.3357	-4.364	9.3994	-4.6997	-5.3711	4.5319	-3.3569	-5.8746	-2.8534	-6.2103	12.7563	-0.5035	6.8817	31	269	168	3	1	2
0.6714	11.4136	4.8676	-3.5248	12.2528	-0.6714	-4.0283	9.0637	-5.0354	-5.0354	4.0283	-3.6926	-5.8746	-3.0212	-6.0425	12.5885	-0.5035	6.546	31	270	169	3	1	2
0.1678	10.5743	4.5319	-3.3569	11.7493	-0.8392	-3.3569	8.5602	-5.0354	-4.5319	3.8605	-3.8605	-5.5389	-3.0212	-6.0425	12.2528	-0.3357	6.3782	31	271	170	3	1	2
-0.1678	9.903	4.1962	-3.3569	11.2457	-1.1749	-2.6855	8.2245	-5.0354	-4.0283	3.5248	-4.0283	-5.3711	-3.1891	-5.8746	12.085	-0.3357	6.0425	31	272	171	3	1	2
-0.6714	9.2316	3.8605	-3.1891	10.7422	-1.3428	-2.0142	7.8888	-4.8676	-3.3569	3.1891	-4.1962	-5.2032	-3.3569	-5.8746	11.7493	-0.3357	5.8746	31	273	172	3	1	2
-1.0071	8.5602	3.5248	-2.8534	10.4065	-1.3428	-1.3428	7.7209	-4.6997	-2.6855	3.0212	-4.0283	-4.8676	-3.5248	-5.8746	11.7493	-0.3357	5.8746	31	274	173	3	1	2
-1.1749	8.0566	3.5248	-2.3499	10.0708	-1.1749	-0.5035	7.5531	-4.1962	-1.8463	2.8534	-4.0283	-4.5319	-3.6926	-5.7068	11.5814	-0.1678	5.8746	31	275	174	3	1	2
-1.6785	7.3853	3.3569	-2.182	9.5673	-1.0071	0.1678	7.0496	-3.8605	-1.1749	2.5177	-4.0283	-4.364	-4.0283	-5.7068	11.4136	-0.3357	5.7068	31	276	175	3	1	2
-1.6785	6.7139	3.3569	-1.6785	9.2316	-1.0071	1.0071	6.8817	-3.3569	-0.5035	2.3499	-3.8605	-4.0283	-4.1962	-5.7068	11.0779	-0.3357	5.5389	31	277	176	3	1	2
-1.5106	6.2103	3.1891	-1.1749	8.728	-0.6714	1.8463	6.7139	-2.8534	0.1678	2.182	-3.5248	-3.6926	-4.364	-5.7068	10.91	-0.3357	5.3711	31	278	177	3	1	2
-1.6785	5.7068	3.1891	-0.6714	8.3923	-0.3357	2.5177	6.546	-2.3499	1.0071	2.0142	-3.3569	-3.3569	-4.5319	-5.7068	10.5743	-0.3357	5.3711	31	279	178	3	1	2
-1.8463	5.0354	3.1891	-0.1678	7.7209	0	3.1891	6.0425	-1.8463	1.6785	2.0142	-3.1891	-3.1891	-4.6997	-5.7068	10.4065	-0.3357	5.3711	31	280	179	3	1	2
-1.8463	4.5319	3.1891	0.1678	7.3853	0.1678	3.8605	5.8746	-1.3428	2.3499	1.8463	-3.0212	-2.8534	-4.8676	-5.7068	10.0708	-0.3357	5.2032	31	281	180	3	1	2
1.6785	1.5106	6.7139	-0.6714	5.3711	9.5673	0	8.2245	11.5814	3.1891	9.5673	13.092	9.3994	1.0071	4.8676	-5.0354	0	-0.5035	31	221	120	4	1	2
2.182	2.0142	6.7139	-0.6714	5.8746	9.3994	-0.3357	8.728	11.7493	3.0212	10.0708	13.2599	9.2316	1.0071	4.5319	-4.5319	-0.1678	0	31	222	121	4	1	2
2.5177	2.5177	6.8817	-0.6714	6.546	9.2316	-0.5035	9.2316	11.7493	3.0212	10.5743	13.4277	9.2316	0.8392	4.0283	-4.1962	-0.3357	0.1678	31	223	122	4	1	2
2.6855	2.8534	6.8817	-0.8392	6.8817	8.8959	-0.8392	9.7351	11.7493	2.6855	11.0779	13.5956	9.0637	0.8392	3.5248	-3.5248	-0.3357	0.6714	31	224	123	4	1	2
3.0212	3.3569	7.0496	-0.6714	7.3853	8.8959	-1.0071	10.4065	11.9171	2.8534	11.5814	13.9313	9.0637	0.6714	3.1891	-3.0212	-0.5035	1.1749	31	225	124	4	1	2
3.3569	3.6926	7.2174	-0.6714	7.8888	8.728	-1.0071	10.7422	12.085	2.8534	12.085	14.267	9.0637	0.6714	2.5177	-2.3499	-0.5035	1.6785	31	226	125	4	1	2
3.6926	4.1962	7.5531	-0.3357	8.5602	8.8959	-0.8392	11.2457	12.2528	3.1891	12.7563	14.7705	9.2316	0.6714	2.182	-1.6785	-0.5035	2.182	31	227	126	4	1	2
4.1962	4.6997	7.8888	0	9.2316	9.0637	-0.5035	11.9171	12.5885	3.3569	13.2599	15.274	9.5673	0.5035	1.8463	-1.1749	-0.5035	2.5177	31	228	127	4	1	2
4.6997	5.2032	8.2245	0.1678	9.5673	9.2316	-0.1678	12.4207	12.9242	3.6926	13.7634	15.6097	9.7351	0.5035	1.3428	-0.8392	-0.3357	3.0212	31	229	128	4	1	2
5.2032	5.7068	8.728	0.6714	10.2386	9.5673	0.3357	13.092	13.4277	4.1962	14.4348	16.2811	10.2386	0.3357	1.1749	-0.3357	0	3.5248	31	230	129	4	1	2
5.5389	5.8746	9.0637	1.0071	10.5743	9.5673	0.8392	13.5956	13.7634	4.6997	14.7705	16.7847	10.5743	0.3357	0.6714	0.1678	0	3.6926	31	231	130	4	1	2
6.0425	6.3782	9.3994	1.6785	11.0779	10.0708	1.5106	14.0991	14.4348	5.5389	15.4419	17.4561	11.0779	0.1678	0.5035	0.5035	0.3357	3.8605	31	232	131	4	1	2
6.546	6.8817	9.903	2.3499	11.5814	10.4065	2.0142	14.6027	14.9384	6.2103	15.9454	18.2953	11.5814	0.1678	0.3357	1.0071	0.6714	4.1962	31	233	132	4	1	2
7.0496	7.2174	10.4065	2.8534	12.085	10.91	2.8534	15.1062	15.6097	7.0496	16.449	18.9667	12.2528	0.1678	0.1678	1.5106	1.0071	4.364	31	234	133	4	1	2
7.3853	7.5531	10.91	3.1891	12.2528	11.2457	3.5248	15.4419	16.1133	7.8888	16.7847	19.6381	12.7563	0.1678	0	1.5106	1.1749	4.364	31	235	134	4	1	2
7.8888	7.7209	11.4136	3.8605	12.5885	11.9171	4.364	15.7776	16.7847	8.728	17.2882	20.3094	13.4277	0.1678	0	1.8463	1.5106	4.364	31	236	135	4	1	2
8.2245	8.2245	11.9171	4.5319	12.7563	12.4207	5.2032	15.9454	17.4561	9.7351	17.6239	21.1487	13.9313	0.1678	-0.1678	2.0142	1.8463	4.5319	31	237	136	4	1	2
8.728	8.5602	12.4207	5.2032	13.092	12.9242	6.0425	16.1133	18.1274	10.7422	17.9596	21.8201	14.6027	0.1678	-0.1678	2.182	2.182	4.5319	31	238	137	4	1	2
9.2316	8.8959	12.9242	5.8746	13.2599	13.5956	7.0496	16.449	18.7988	11.7493	18.2953	22.4915	15.274	0	0	2.182	2.6855	4.6997	31	239	138	4	1	2
9.7351	9.2316	13.4277	6.546	13.5956	14.0991	7.8888	16.6168	19.4702	12.5885	18.4631	23.1628	15.9454	0	0	2.3499	3.0212	4.5319	31	240	139	4	1	2
10.0708	9.5673	13.7634	7.2174	13.7634	14.6027	8.728	16.7847	19.9738	13.5956	18.631	23.6664	16.6168	0	0	2.3499	3.3569	4.5319	31	241	140	4	1	2
10.5743	9.903	14.267	7.7209	13.9313	15.1062	9.5673	16.7847	20.6451	14.4348	18.7988	24.3378	17.2882	0.1678	0.1678	2.182	3.6926	4.364	31	242	141	4	1	2
10.91	10.0708	14.6027	8.2245	14.0991	15.6097	10.4065	16.9525	21.1487	15.274	18.7988	24.6735	17.7917	0.1678	0.1678	2.182	4.0283	4.1962	31	243	142	4	1	2
11.4136	10.4065	15.1062	8.8959	14.267	16.1133	11.2457	16.9525	21.6522	16.2811	18.9667	25.177	18.4631	0.1678	0.5035	2.182	4.364	4.1962	31	244	143	4	1	2
11.5814	10.5743	15.274	9.2316	14.267	16.2811	11.9171	16.7847	21.9879	16.9525	18.7988	25.5127	18.7988	0.3357	0.5035	1.8463	4.6997	3.8605	31	245	144	4	1	2
11.9171	10.7422	15.6097	9.7351	14.267	16.7847	12.5885	16.7847	22.4915	17.6239	18.7988	25.6805	19.1345	0.3357	0.8392	1.6785	5.0354	3.6926	31	246	145	4	1	2
11.9171	10.7422	15.4419	9.903	14.0991	16.7847	12.9242	16.6168	22.4915	17.9596	18.4631	25.6805	19.3024	0.5035	0.8392	1.3428	5.2032	3.1891	31	247	146	4	1	2
12.085	10.7422	15.4419	10.0708	14.0991	16.9525	13.2599	16.2811	22.6593	18.2953	18.2953	25.6805	19.4702	0.5035	1.0071	1.1749	5.5389	3.0212	31	248	147	4	1	2
11.7493	10.7422	15.274	9.903	13.9313	16.6168	13.5956	16.1133	22.6593	18.4631	17.9596	25.5127	19.6381	0.6714	1.1749	0.6714	5.8746	2.5177	31	249	148	4	1	2
11.4136	10.4065	14.9384	9.7351	13.5956	16.449	13.4277	15.6097	22.3236	18.2953	17.2882	25.177	19.3024	0.8392	1.1749	0.5035	5.8746	2.182	31	250	149	4	1	2
11.2457	10.2386	14.6027	9.5673	13.2599	16.1133	13.2599	15.274	21.9879	18.1274	16.9525	24.8413	19.1345	0.8392	1.1749	-0.1678	6.0425	1.6785	31	251	150	4	1	2
10.5743	9.903	13.7634	9.2316	12.7563	15.6097	12.9242	14.6027	21.6522	17.7917	16.2811	24.1699	18.7988	1.0071	1.0071	-0.3357	6.0425	1.3428	31	252	151	4	1	2
10.2386	9.7351	13.4277	8.728	12.2528	15.274	12.7563	14.267	21.1487	17.6239	15.6097	23.6664	18.4631	1.0071	1.0071	-0.8392	6.0425	1.0071	31	253	152	4	1	2
9.7351	9.0637	12.7563	8.2245	11.7493	14.6027	12.2528	13.5956	20.6451	17.1204	14.9384	22.995	17.7917	1.1749	0.8392	-1.0071	5.8746	0.8392	31	254	153	4	1	2
8.8959	8.5602	11.9171	7.5531	11.2457	13.9313	11.5814	12.9242	19.8059	16.449	14.267	22.1558	17.2882	1.1749	0.6714	-1.3428	5.5389	0.3357	31	255	154	4	1	2
8.5602	8.2245	11.2457	7.0496	10.7422	13.4277	11.0779	12.4207	19.3024	15.9454	13.5956	21.4844	16.7847	1.1749	0.5035	-1.6785	5.5389	0	31	256	155	4	1	2
7.8888	7.5531	10.5743	6.3782	9.903	12.5885	10.2386	11.5814	18.4631	15.1062	12.7563	20.6451	16.1133	1.3428	0.3357	-1.8463	5.3711	-0.1678	31	257	156	4	1	2
7.2174	6.8817	9.7351	5.7068	9.2316	11.7493	9.5673	10.91	17.6239	14.4348	12.085	19.6381	15.4419	1.3428	0	-2.182	5.0354	-0.5035	31	258	157	4	1	2
6.546	6.2103	8.8959	4.8676	8.3923	10.91	8.728	10.2386	16.7847	13.5956	11.2457	18.7988	14.7705	1.1749	-0.1678	-2.6855	4.8676	-0.8392	31	259	158	4	1	2
6.2103	5.5389	8.0566	4.1962	7.7209	10.0708	8.0566	9.5673	15.9454	12.7563	10.5743	17.9596	14.0991	1.1749	-0.3357	-2.8534	4.6997	-1.0071	31	260	159	4	1	2
5.5389	4.6997	7.2174	3.5248	6.8817	9.2316	7.2174	8.728	14.9384	11.9171	9.7351	17.1204	13.2599	1.0071	-0.6714	-3.1891	4.364	-1.1749	31	261	160	4	1	2
4.6997	3.6926	6.3782	2.8534	6.0425	8.3923	6.3782	7.8888	13.9313	11.0779	8.8959	16.1133	12.5885	1.0071	-0.8392	-3.1891	4.0283	-1.1749	31	262	161	4	1	2
4.1962	2.6855	5.5389	2.182	5.2032	7.3853	5.7068	7.2174	12.9242	10.2386	8.2245	15.274	11.7493	0.8392	-1.1749	-3.3569	3.6926	-1.3428	31	263	162	4	1	2
3.3569	2.0142	4.6997	1.5106	4.364	6.546	5.0354	6.546	12.085	9.5673	7.5531	14.267	11.0779	0.6714	-1.5106	-3.3569	3.3569	-1.3428	31	264	163	4	1	2
2.8534	1.0071	4.0283	1.0071	3.5248	6.0425	4.364	5.8746	11.0779	8.728	6.8817	13.4277	10.5743	0.5035	-1.6785	-3.5248	3.0212	-1.3428	31	265	164	4	1	2
2.182	0	3.3569	0.5035	2.8534	5.2032	3.6926	5.5389	10.4065	8.0566	6.3782	12.7563	10.0708	0.3357	-1.8463	-3.6926	2.6855	-1.3428	31	266	165	4	1	2
1.5106	-0.6714	2.6855	-0.1678	2.0142	4.5319	3.0212	4.8676	9.5673	7.5531	5.8746	11.9171	9.3994	0.1678	-2.0142	-3.6926	2.5177	-1.3428	31	267	166	4	1	2
0.8392	-1.6785	2.182	-0.5035	1.3428	3.6926	2.6855	4.364	8.728	6.8817	5.3711	11.2457	8.8959	-0.1678	-2.182	-3.8605	2.182	-1.3428	31	268	167	4	1	2
0.1678	-2.3499	1.5106	-1.0071	0.5035	3.1891	2.182	3.8605	7.8888	6.2103	4.8676	10.4065	8.3923	-0.3357	-2.182	-4.0283	2.0142	-1.3428	31	269	168	4	1	2
-0.3357	-3.1891	0.8392	-1.1749	0	2.5177	1.6785	3.3569	7.2174	5.7068	4.364	9.7351	7.8888	-0.3357	-2.3499	-3.8605	1.6785	-1.1749	31	270	169	4	1	2
-1.0071	-4.0283	0.3357	-1.6785	-0.6714	1.8463	1.1749	2.8534	6.3782	5.3711	4.0283	9.0637	7.3853	-0.5035	-2.5177	-3.8605	1.5106	-1.1749	31	271	170	4	1	2
-1.3428	-4.5319	0	-1.8463	-1.1749	1.3428	1.0071	2.6855	5.7068	4.8676	3.8605	8.5602	7.0496	-0.6714	-2.5177	-3.8605	1.3428	-1.1749	31	272	171	4	1	2
-2.0142	-5.2032	-0.5035	-2.182	-1.6785	0.6714	0.5035	2.182	5.0354	4.364	3.5248	7.8888	6.546	-0.6714	-2.5177	-3.8605	1.1749	-1.1749	31	273	172	4	1	2
-2.3499	-5.8746	-0.8392	-2.3499	-2.3499	0.3357	0.3357	2.0142	4.364	4.0283	3.1891	7.3853	6.2103	-0.8392	-2.5177	-3.8605	1.0071	-1.1749	31	274	173	4	1	2
-2.6855	-6.2103	-1.1749	-2.5177	-2.6855	-0.1678	0	1.8463	3.8605	3.6926	3.0212	6.8817	5.7068	-0.8392	-2.5177	-3.8605	1.0071	-1.0071	31	275	174	4	1	2
-3.3569	-6.8817	-1.5106	-2.8534	-3.0212	-0.6714	-0.3357	1.5106	3.1891	3.1891	2.3499	6.2103	5.2032	-0.8392	-2.6855	-3.8605	0.6714	-1.0071	31	276	175	4	1	2
-3.5248	-7.0496	-1.8463	-2.6855	-3.3569	-0.6714	-0.3357	1.5106	2.8534	2.8534	2.3499	5.7068	5.0354	-0.8392	-2.5177	-4.0283	0.6714	-1.0071	31	277	176	4	1	2
-3.8605	-7.3853	-2.0142	-3.0212	-3.6926	-1.0071	-0.5035	1.3428	2.3499	2.5177	2.182	5.2032	4.6997	-0.8392	-2.5177	-4.0283	0.5035	-0.8392	31	278	177	4	1	2
-4.0283	-7.7209	-2.182	-3.0212	-3.8605	-1.3428	-0.8392	1.0071	2.0142	2.182	2.0142	4.8676	4.364	-0.8392	-2.5177	-4.0283	0.3357	-0.8392	31	279	178	4	1	2
-4.364	-7.7209	-2.3499	-3.1891	-3.8605	-1.5106	-1.0071	1.1749	1.6785	1.8463	1.8463	4.364	4.1962	-0.6714	-2.5177	-3.8605	0.3357	-0.8392	31	280	179	4	1	2
-4.364	-7.7209	-2.3499	-3.0212	-3.8605	-1.5106	-1.0071	1.0071	1.6785	1.8463	1.8463	4.1962	4.0283	-0.6714	-2.3499	-3.8605	0.3357	-0.8392	31	281	180	4	1	2
2.0142	5.0354	2.3499	1.1749	3.0212	1.1749	3.6926	6.0425	4.8676	4.8676	7.8888	8.8959	9.0637	4.1962	11.7493	-7.2174	8.0566	-1.6785	31	221	120	5	1	2
1.6785	4.6997	2.0142	1.1749	2.6855	1.0071	3.6926	5.7068	4.6997	5.0354	7.7209	8.728	9.0637	4.364	11.9171	-7.7209	8.2245	-2.0142	31	222	121	5	1	2
1.3428	4.1962	1.3428	1.1749	2.3499	0.6714	3.8605	5.3711	4.364	5.0354	7.3853	8.3923	9.0637	4.5319	12.085	-7.8888	8.3923	-2.182	31	223	122	5	1	2
1.0071	3.8605	1.0071	1.3428	2.0142	0.5035	4.0283	5.2032	4.1962	5.0354	7.2174	8.3923	9.0637	4.6997	12.085	-8.2245	8.728	-2.3499	31	224	123	5	1	2
0.6714	3.5248	0.6714	1.3428	1.8463	0.3357	4.1962	5.0354	4.1962	5.2032	7.0496	8.2245	9.0637	4.8676	12.085	-8.5602	8.728	-2.3499	31	225	124	5	1	2
0.3357	3.1891	0.5035	1.5106	1.6785	0.3357	4.364	5.0354	4.1962	5.2032	6.8817	8.0566	9.0637	5.0354	12.085	-8.728	8.8959	-2.5177	31	226	125	5	1	2
0.1678	2.6855	0	1.5106	1.5106	0	4.364	4.6997	4.0283	5.2032	6.546	7.7209	8.8959	5.0354	11.9171	-8.728	8.8959	-2.6855	31	227	126	5	1	2
0	2.3499	-0.3357	1.6785	1.5106	0	4.5319	4.6997	4.0283	5.3711	6.3782	7.5531	8.8959	5.2032	11.9171	-8.8959	9.0637	-2.6855	31	228	127	5	1	2
-0.1678	2.182	-0.5035	1.6785	1.5106	-0.1678	4.6997	4.6997	3.8605	5.2032	6.2103	7.2174	8.728	5.2032	11.5814	-8.728	8.8959	-2.6855	31	229	128	5	1	2
-0.1678	1.8463	-0.5035	1.8463	1.5106	-0.1678	4.8676	4.8676	4.0283	5.3711	6.0425	7.0496	8.5602	5.2032	11.4136	-8.5602	8.8959	-2.6855	31	230	129	5	1	2
-0.3357	1.6785	-0.6714	2.0142	1.5106	-0.1678	5.0354	4.8676	4.0283	5.3711	5.8746	6.8817	8.5602	5.2032	11.2457	-8.2245	8.8959	-2.6855	31	231	130	5	1	2
-0.3357	1.3428	-1.0071	2.3499	1.5106	-0.1678	5.2032	5.0354	4.0283	5.5389	5.8746	6.7139	8.5602	5.2032	11.0779	-8.0566	8.8959	-2.3499	31	232	131	5	1	2
-0.3357	1.1749	-0.8392	2.5177	1.6785	-0.1678	5.3711	5.0354	4.0283	5.5389	5.7068	6.546	8.3923	5.0354	10.7422	-7.5531	8.728	-2.3499	31	233	132	5	1	2
-0.1678	1.1749	-1.0071	2.6855	1.6785	-0.3357	5.3711	5.0354	3.8605	5.5389	5.7068	6.2103	8.2245	4.8676	10.4065	-7.0496	8.5602	-2.182	31	234	133	5	1	2
-0.1678	1.0071	-1.0071	2.8534	1.8463	-0.1678	5.7068	5.2032	4.0283	5.7068	5.8746	6.0425	8.2245	4.8676	10.2386	-6.546	8.5602	-1.8463	31	235	134	5	1	2
-0.1678	0.6714	-1.0071	3.0212	1.8463	-0.1678	5.7068	5.3711	3.8605	5.7068	5.5389	5.7068	7.8888	4.6997	9.7351	-6.0425	8.3923	-1.6785	31	236	135	5	1	2
0	0.5035	-1.0071	3.1891	2.0142	-0.1678	5.7068	5.3711	3.6926	5.5389	5.3711	5.2032	7.7209	4.5319	9.3994	-5.5389	8.0566	-1.3428	31	237	136	5	1	2
0.1678	0.5035	-0.8392	3.1891	2.0142	-0.1678	5.7068	5.5389	3.5248	5.5389	5.3711	4.8676	7.3853	4.364	9.0637	-4.8676	7.8888	-1.1749	31	238	137	5	1	2
0.3357	0.3357	-0.8392	3.1891	2.182	-0.1678	5.7068	5.7068	3.3569	5.5389	5.2032	4.5319	7.0496	4.1962	8.5602	-4.1962	7.7209	-0.8392	31	239	138	5	1	2
0.6714	0.6714	-0.6714	3.3569	2.3499	-0.3357	5.7068	5.8746	3.1891	5.3711	5.2032	4.0283	6.8817	4.0283	8.2245	-3.3569	7.5531	-0.3357	31	240	139	5	1	2
1.0071	0.6714	-0.5035	3.5248	2.3499	-0.3357	5.7068	5.8746	2.8534	5.3711	5.2032	3.6926	6.546	3.8605	7.8888	-2.5177	7.3853	0	31	241	140	5	1	2
1.3428	0.5035	-0.1678	3.6926	2.3499	-0.1678	5.7068	6.0425	2.6855	5.2032	5.2032	3.3569	6.2103	3.6926	7.5531	-1.6785	7.2174	0.5035	31	242	141	5	1	2
1.3428	0.5035	-0.1678	3.5248	2.6855	-0.1678	5.5389	6.2103	2.5177	5.0354	5.3711	3.0212	5.8746	3.5248	7.2174	-1.1749	7.0496	0.8392	31	243	142	5	1	2
1.6785	0.6714	0	3.6926	2.8534	-0.1678	5.3711	6.546	2.3499	4.8676	5.3711	2.6855	5.5389	3.3569	6.8817	-0.3357	6.8817	1.3428	31	244	143	5	1	2
1.8463	0.8392	0	3.6926	3.0212	-0.1678	5.3711	6.7139	2.182	4.8676	5.5389	2.5177	5.3711	3.1891	6.546	0.5035	6.8817	1.8463	31	245	144	5	1	2
2.182	1.0071	0.3357	3.8605	3.1891	0	5.2032	6.8817	2.0142	4.6997	5.7068	2.182	5.0354	3.0212	6.3782	1.3428	6.7139	2.3499	31	246	145	5	1	2
2.0142	0.8392	0.5035	3.6926	3.1891	-0.1678	4.8676	6.8817	1.6785	4.364	5.5389	1.8463	4.6997	2.6855	5.8746	1.8463	6.3782	2.6855	31	247	146	5	1	2
2.182	1.0071	0.5035	3.6926	3.1891	-0.5035	4.6997	7.0496	1.3428	4.0283	5.7068	1.5106	4.364	2.5177	5.7068	2.6855	6.3782	3.0212	31	248	147	5	1	2
2.182	1.0071	0.6714	3.5248	3.1891	-0.5035	4.5319	7.2174	1.1749	3.6926	5.7068	1.3428	4.0283	2.3499	5.5389	3.1891	6.2103	3.3569	31	249	148	5	1	2
2.3499	1.3428	0.6714	3.5248	3.1891	-0.6714	4.364	7.2174	0.8392	3.5248	5.7068	1.0071	3.8605	2.182	5.2032	3.8605	6.0425	3.5248	31	250	149	5	1	2
2.5177	1.1749	0.8392	3.6926	3.1891	-0.6714	4.1962	7.2174	0.6714	3.3569	5.8746	0.8392	3.6926	2.182	5.2032	4.5319	6.0425	3.8605	31	251	150	5	1	2
2.182	1.1749	0.8392	3.5248	3.1891	-0.8392	3.8605	7.0496	0.1678	3.0212	5.7068	0.5035	3.3569	2.0142	4.8676	5.0354	5.8746	4.1962	31	252	151	5	1	2
2.3499	1.3428	0.8392	3.1891	3.0212	-1.1749	3.5248	6.8817	-0.1678	2.6855	5.5389	0.1678	2.8534	1.8463	4.5319	5.3711	5.3711	4.364	31	253	152	5	1	2
2.5177	1.3428	0.8392	3.1891	3.0212	-1.3428	3.3569	6.7139	-0.3357	2.5177	5.5389	0	2.6855	1.8463	4.5319	5.8746	5.3711	4.5319	31	254	153	5	1	2
2.5177	1.3428	0.6714	3.0212	2.6855	-1.6785	3.0212	6.546	-0.8392	2.0142	5.3711	-0.5035	2.3499	1.6785	4.1962	6.2103	5.0354	4.6997	31	255	154	5	1	2
2.5177	1.3428	0.8392	3.0212	2.5177	-1.8463	2.8534	6.3782	-1.0071	1.8463	5.2032	-0.6714	2.0142	1.6785	4.0283	6.546	4.8676	4.8676	31	256	155	5	1	2
2.5177	1.3428	0.8392	2.6855	2.3499	-2.0142	2.5177	6.2103	-1.3428	1.3428	4.8676	-1.0071	1.6785	1.5106	3.6926	6.7139	4.6997	4.8676	31	257	156	5	1	2
2.6855	1.3428	1.1749	2.6855	2.3499	-2.182	2.3499	6.0425	-1.5106	1.1749	4.6997	-1.0071	1.5106	1.5106	3.5248	7.0496	4.5319	4.8676	31	258	157	5	1	2
2.6855	1.5106	1.1749	2.3499	2.0142	-2.3499	1.8463	5.7068	-1.8463	0.6714	4.364	-1.3428	1.0071	1.3428	3.1891	7.0496	4.1962	4.8676	31	259	158	5	1	2
3.0212	1.5106	1.3428	2.182	2.182	-2.3499	1.5106	5.5389	-2.0142	0.5035	4.1962	-1.5106	0.8392	1.3428	3.0212	7.2174	4.0283	4.6997	31	260	159	5	1	2
3.1891	1.6785	1.5106	2.0142	2.0142	-2.182	1.3428	5.2032	-2.182	0.1678	3.8605	-1.6785	0.5035	1.3428	2.8534	7.3853	3.8605	4.6997	31	261	160	5	1	2
3.1891	1.6785	1.8463	1.6785	1.8463	-2.3499	0.8392	4.8676	-2.3499	-0.3357	3.3569	-2.0142	0.1678	1.1749	2.5177	7.2174	3.3569	4.5319	31	262	161	5	1	2
3.5248	1.6785	2.0142	1.6785	1.8463	-2.182	0.5035	4.6997	-2.5177	-0.5035	3.0212	-2.182	-0.1678	1.1749	2.182	7.2174	3.3569	4.364	31	263	162	5	1	2
3.3569	1.6785	2.182	1.3428	1.8463	-2.182	0.1678	4.5319	-2.5177	-1.0071	2.5177	-2.5177	-0.5035	1.0071	1.8463	7.0496	3.0212	4.1962	31	264	163	5	1	2
3.5248	2.0142	2.5177	1.0071	1.6785	-2.182	-0.1678	4.1962	-2.5177	-1.3428	2.182	-2.6855	-1.0071	0.8392	1.8463	7.0496	2.6855	3.8605	31	265	164	5	1	2
3.5248	2.182	2.6855	0.8392	1.6785	-2.0142	-0.5035	4.0283	-2.6855	-1.6785	1.6785	-2.8534	-1.3428	0.6714	1.5106	6.8817	2.3499	3.6926	31	266	165	5	1	2
3.6926	2.182	3.0212	0.6714	1.6785	-1.8463	-0.8392	3.8605	-2.6855	-2.0142	1.3428	-3.0212	-1.8463	0.5035	1.3428	6.8817	2.0142	3.5248	31	267	166	5	1	2
3.8605	2.182	3.5248	0.3357	1.8463	-1.6785	-1.1749	3.5248	-2.6855	-2.5177	1.0071	-3.1891	-2.182	0.3357	0.8392	6.8817	1.6785	3.3569	31	268	167	5	1	2
4.0283	2.182	3.6926	0	1.6785	-1.6785	-1.8463	3.3569	-2.6855	-3.0212	0.5035	-3.5248	-2.8534	0	0.6714	6.7139	1.1749	3.0212	31	269	168	5	1	2
4.1962	2.182	4.1962	-0.1678	1.8463	-1.5106	-2.0142	3.0212	-2.8534	-3.3569	0.3357	-3.6926	-3.1891	-0.1678	0.1678	6.7139	0.8392	3.0212	31	270	169	5	1	2
4.1962	2.3499	4.364	-0.5035	1.8463	-1.3428	-2.5177	2.8534	-2.8534	-3.8605	0	-4.0283	-3.8605	-0.5035	-0.1678	6.7139	0.3357	2.8534	31	271	170	5	1	2
4.1962	2.5177	4.6997	-0.8392	1.8463	-1.3428	-3.0212	2.5177	-3.0212	-4.364	-0.3357	-4.364	-4.364	-0.8392	-0.5035	6.7139	-0.3357	2.8534	31	272	171	5	1	2
4.364	2.5177	4.6997	-1.1749	1.8463	-1.3428	-3.3569	2.3499	-3.0212	-4.8676	-0.6714	-4.5319	-4.8676	-1.1749	-0.8392	6.7139	-0.8392	2.6855	31	273	172	5	1	2
4.364	2.5177	5.0354	-1.3428	1.8463	-1.1749	-3.6926	2.182	-3.1891	-5.2032	-0.8392	-4.8676	-5.5389	-1.5106	-1.3428	6.8817	-1.3428	2.6855	31	274	173	5	1	2
4.364	2.3499	5.2032	-1.5106	1.8463	-1.1749	-3.8605	2.182	-3.1891	-5.5389	-0.8392	-5.0354	-5.8746	-1.8463	-1.8463	7.0496	-1.6785	2.8534	31	275	174	5	1	2
4.364	2.182	5.3711	-1.6785	1.8463	-1.3428	-4.1962	2.0142	-3.3569	-6.0425	-1.0071	-5.3711	-6.3782	-2.182	-2.182	7.2174	-2.182	3.0212	31	276	175	5	1	2
4.1962	2.182	5.2032	-1.8463	1.6785	-1.3428	-4.5319	1.8463	-3.6926	-6.3782	-1.5106	-5.7068	-6.8817	-2.5177	-2.6855	7.2174	-2.6855	3.0212	31	277	176	5	1	2
4.0283	2.0142	5.2032	-2.182	1.5106	-1.5106	-5.0354	1.5106	-4.0283	-6.8817	-1.6785	-6.0425	-7.3853	-2.6855	-3.0212	7.3853	-3.1891	3.0212	31	278	177	5	1	2
4.0283	1.6785	5.0354	-2.3499	1.5106	-1.6785	-5.2032	1.3428	-4.1962	-7.2174	-1.8463	-6.3782	-7.7209	-3.0212	-3.5248	7.5531	-3.5248	3.0212	31	279	178	5	1	2
3.6926	1.5106	4.6997	-2.6855	1.0071	-2.0142	-5.5389	1.0071	-4.6997	-7.7209	-2.182	-6.7139	-8.3923	-3.1891	-3.8605	7.3853	-4.0283	2.8534	31	280	179	5	1	2
3.5248	1.0071	4.5319	-2.8534	0.8392	-2.182	-5.7068	0.6714	-5.2032	-8.0566	-2.3499	-7.0496	-8.8959	-3.5248	-4.364	7.3853	-4.5319	2.8534	31	281	180	5	1	2
-2.3499	-2.3499	-4.6997	-0.3357	-7.0496	-9.2316	-2.5177	-2.3499	-6.0425	0.3357	0.3357	-2.0142	4.1962	-2.6855	-3.3569	1.8463	-2.3499	2.3499	31	221	120	6	1	2
-1.8463	-1.8463	-4.1962	-0.1678	-6.3782	-8.5602	-2.182	-1.8463	-5.0354	0.8392	0.6714	-1.5106	4.6997	-2.8534	-3.1891	2.0142	-2.3499	2.3499	31	222	121	6	1	2
-1.1749	-0.6714	-3.5248	0.3357	-5.3711	-7.5531	-1.6785	-1.0071	-4.0283	1.6785	1.1749	-1.0071	5.2032	-2.8534	-3.1891	2.3499	-2.182	2.6855	31	223	122	6	1	2
-0.6714	0	-2.8534	0.8392	-4.6997	-6.7139	-1.3428	-0.5035	-3.1891	2.0142	1.5106	-0.5035	5.7068	-3.0212	-3.0212	2.5177	-2.182	2.6855	31	224	123	6	1	2
0.1678	0.8392	-2.0142	1.3428	-3.6926	-5.7068	-0.8392	0.1678	-2.3499	2.6855	2.0142	0	6.3782	-3.0212	-3.0212	2.8534	-1.8463	3.0212	31	225	124	6	1	2
0.8392	1.6785	-1.1749	1.8463	-2.6855	-4.8676	-0.1678	1.0071	-1.3428	3.1891	2.3499	0.5035	6.7139	-3.0212	-3.1891	3.1891	-1.6785	3.0212	31	226	125	6	1	2
1.6785	2.5177	-0.5035	2.5177	-1.8463	-3.8605	0.3357	1.5106	-0.3357	3.8605	2.6855	1.0071	7.2174	-3.0212	-3.1891	3.3569	-1.5106	3.1891	31	227	126	6	1	2
2.182	3.3569	0.3357	2.8534	-0.8392	-3.0212	0.8392	2.182	0.5035	4.364	3.0212	1.5106	7.5531	-3.0212	-3.1891	3.5248	-1.3428	3.1891	31	228	127	6	1	2
2.8534	4.1962	1.0071	3.5248	0	-2.182	1.3428	2.5177	1.1749	4.8676	3.3569	1.8463	7.8888	-3.0212	-3.3569	3.6926	-1.1749	3.1891	31	229	128	6	1	2
3.5248	4.8676	1.8463	4.0283	0.6714	-1.1749	2.0142	3.0212	1.8463	5.7068	3.5248	2.3499	8.2245	-3.0212	-3.3569	3.8605	-1.1749	3.1891	31	230	129	6	1	2
4.0283	5.5389	2.6855	4.5319	1.3428	-0.3357	2.3499	3.5248	2.8534	6.0425	3.8605	2.5177	8.5602	-3.0212	-3.6926	3.8605	-1.0071	3.0212	31	231	130	6	1	2
5.0354	6.3782	3.6926	5.2032	2.3499	0.6714	3.0212	4.1962	3.5248	6.546	4.1962	2.8534	8.728	-2.8534	-3.8605	4.1962	-0.6714	3.0212	31	232	131	6	1	2
5.7068	7.0496	4.5319	5.7068	3.0212	1.5106	3.5248	4.6997	4.1962	6.8817	4.1962	2.8534	8.8959	-2.8534	-4.1962	4.1962	-0.5035	3.0212	31	233	132	6	1	2
6.546	7.5531	5.5389	6.2103	3.6926	2.5177	4.0283	5.0354	4.8676	7.3853	4.364	3.1891	9.2316	-2.8534	-4.364	4.1962	-0.6714	3.0212	31	234	133	6	1	2
7.2174	8.0566	6.3782	6.8817	4.1962	3.3569	4.5319	5.5389	5.5389	7.8888	4.6997	3.5248	9.3994	-2.8534	-4.6997	4.364	-0.5035	2.8534	31	235	134	6	1	2
8.0566	8.728	7.5531	7.7209	5.0354	4.364	5.0354	5.8746	6.2103	8.2245	5.0354	3.5248	9.3994	-2.6855	-5.0354	4.5319	-0.1678	3.0212	31	236	135	6	1	2
8.8959	9.0637	8.3923	8.0566	5.7068	5.2032	5.5389	6.3782	6.8817	8.728	5.2032	3.8605	9.5673	-2.5177	-5.3711	4.6997	-0.1678	3.0212	31	237	136	6	1	2
9.7351	9.5673	9.3994	8.728	6.3782	5.8746	6.0425	6.7139	7.3853	8.728	5.7068	4.0283	9.5673	-2.5177	-5.7068	4.5319	0	2.8534	31	238	137	6	1	2
10.5743	10.2386	10.4065	9.2316	6.8817	6.8817	6.546	6.8817	7.8888	9.2316	6.0425	4.1962	9.7351	-2.3499	-6.0425	4.8676	0.1678	3.0212	31	239	138	6	1	2
11.5814	10.7422	11.4136	9.903	7.2174	7.8888	6.8817	7.0496	8.3923	9.3994	6.2103	4.364	9.5673	-2.3499	-6.3782	4.8676	0.5035	3.0212	31	240	139	6	1	2
12.4207	11.0779	12.2528	10.5743	7.7209	8.728	7.3853	7.3853	8.8959	9.7351	6.3782	4.5319	9.5673	-2.182	-6.7139	4.8676	0.5035	2.8534	31	241	140	6	1	2
13.092	11.4136	13.2599	11.2457	8.2245	9.3994	7.7209	7.5531	9.3994	9.903	6.7139	4.5319	9.5673	-2.0142	-7.0496	4.8676	0.8392	2.8534	31	242	141	6	1	2
13.7634	11.7493	14.0991	11.5814	8.3923	10.0708	8.0566	7.7209	9.7351	10.2386	6.8817	4.6997	9.3994	-1.8463	-7.3853	4.8676	1.0071	2.8534	31	243	142	6	1	2
14.6027	12.085	14.9384	12.085	8.5602	10.7422	8.3923	7.7209	10.0708	10.4065	6.8817	4.6997	9.2316	-1.6785	-7.7209	4.8676	1.1749	2.6855	31	244	143	6	1	2
15.274	12.2528	15.6097	12.4207	8.5602	11.0779	8.5602	7.5531	10.2386	10.4065	6.8817	4.5319	8.8959	-1.5106	-8.0566	4.8676	1.5106	2.6855	31	245	144	6	1	2
15.6097	12.5885	16.1133	12.5885	8.3923	11.4136	8.728	7.3853	10.4065	10.4065	6.7139	4.364	8.5602	-1.3428	-8.3923	4.6997	1.6785	2.3499	31	246	145	6	1	2
16.1133	12.5885	16.9525	12.9242	8.2245	11.7493	8.8959	7.3853	10.5743	10.4065	6.7139	4.1962	8.3923	-1.0071	-8.728	4.364	1.8463	2.182	31	247	146	6	1	2
16.449	12.5885	17.2882	12.9242	8.0566	11.9171	8.8959	7.0496	10.4065	10.4065	6.3782	3.8605	7.8888	-0.8392	-8.728	4.1962	2.0142	1.8463	31	248	147	6	1	2
16.7847	12.4207	17.4561	12.9242	7.5531	11.9171	8.8959	6.546	10.2386	10.0708	6.0425	3.3569	7.3853	-0.6714	-9.0637	3.8605	2.182	1.5106	31	249	148	6	1	2
16.9525	12.2528	17.9596	13.092	7.0496	11.9171	8.8959	6.2103	10.0708	9.903	5.7068	3.1891	7.0496	-0.3357	-9.2316	3.3569	2.182	1.1749	31	250	149	6	1	2
17.2882	12.2528	18.1274	13.092	6.546	11.7493	8.728	5.7068	9.7351	9.7351	5.2032	2.6855	6.7139	-0.1678	-9.2316	3.1891	2.3499	0.8392	31	251	150	6	1	2
17.4561	12.085	18.1274	12.9242	6.2103	11.4136	8.5602	5.2032	9.3994	9.3994	4.6997	2.182	6.2103	0	-9.3994	2.6855	2.5177	0.5035	31	252	151	6	1	2
17.4561	11.9171	18.4631	12.9242	5.7068	11.2457	8.5602	4.5319	9.0637	9.0637	4.1962	1.6785	5.8746	0.1678	-9.3994	2.3499	2.5177	0.1678	31	253	152	6	1	2
17.7917	11.7493	18.4631	12.9242	5.0354	11.0779	8.3923	4.0283	8.5602	8.728	3.6926	1.3428	5.5389	0.3357	-9.3994	2.0142	2.6855	-0.1678	31	254	153	6	1	2
17.9596	11.4136	18.631	12.9242	4.364	10.7422	8.3923	3.5248	8.3923	8.5602	3.0212	0.6714	5.2032	0.5035	-9.5673	1.5106	2.6855	-0.5035	31	255	154	6	1	2
18.1274	11.4136	18.4631	12.9242	4.0283	10.2386	8.2245	3.0212	7.7209	8.0566	2.5177	0.1678	4.6997	0.5035	-9.3994	1.3428	2.8534	-0.6714	31	256	155	6	1	2
18.1274	11.2457	18.4631	12.7563	3.3569	9.903	7.8888	2.3499	7.0496	7.5531	2.0142	-0.5035	4.1962	0.5035	-9.3994	1.0071	2.8534	-1.0071	31	257	156	6	1	2
18.2953	10.91	18.4631	12.7563	2.8534	9.3994	7.7209	1.8463	6.3782	7.2174	1.3428	-1.1749	3.6926	0.5035	-9.3994	0.6714	2.8534	-1.1749	31	258	157	6	1	2
18.2953	10.7422	18.4631	12.7563	2.3499	8.8959	7.5531	1.1749	5.7068	6.7139	0.6714	-1.8463	3.1891	0.5035	-9.3994	0.3357	2.8534	-1.3428	31	259	158	6	1	2
18.2953	10.4065	18.631	12.7563	1.8463	8.3923	7.3853	0.6714	4.8676	6.2103	-0.1678	-2.5177	2.6855	0.5035	-9.3994	0.1678	2.8534	-1.5106	31	260	159	6	1	2
18.4631	10.2386	18.631	12.7563	1.3428	7.8888	7.2174	-0.1678	4.1962	5.7068	-1.0071	-3.3569	2.182	0.5035	-9.5673	-0.1678	2.6855	-1.8463	31	261	160	6	1	2
18.631	10.0708	18.631	12.7563	0.8392	7.3853	7.0496	-1.0071	3.3569	5.3711	-1.6785	-4.0283	1.6785	0.5035	-9.5673	-0.5035	2.5177	-1.8463	31	262	161	6	1	2
18.4631	9.903	18.4631	12.5885	0.3357	6.7139	6.7139	-1.5106	2.3499	4.6997	-2.5177	-4.8676	1.0071	0.3357	-9.5673	-0.6714	2.3499	-2.0142	31	263	162	6	1	2
18.631	9.3994	18.4631	12.7563	-0.3357	6.0425	6.546	-2.3499	1.3428	4.1962	-3.3569	-5.7068	0.5035	0.3357	-9.7351	-1.0071	2.182	-2.3499	31	264	163	6	1	2
18.4631	9.3994	18.4631	12.5885	-0.6714	5.5389	6.3782	-3.0212	0.5035	3.5248	-4.1962	-6.546	-0.1678	0.1678	-9.7351	-1.1749	2.182	-2.3499	31	265	164	6	1	2
18.7988	9.0637	18.2953	12.5885	-1.3428	5.0354	6.2103	-3.8605	-0.3357	3.0212	-5.0354	-7.5531	-1.0071	0.1678	-9.903	-1.5106	1.8463	-2.6855	31	266	165	6	1	2
18.631	8.8959	18.2953	12.5885	-1.6785	4.364	5.8746	-4.5319	-1.1749	2.3499	-5.7068	-8.2245	-1.5106	0	-9.903	-1.8463	1.8463	-2.8534	31	267	166	6	1	2
18.7988	8.728	18.2953	12.5885	-2.3499	3.8605	5.7068	-5.3711	-2.0142	1.6785	-6.546	-9.0637	-2.182	0	-10.0708	-2.182	1.6785	-3.0212	31	268	167	6	1	2
18.9667	8.5602	18.1274	12.5885	-2.5177	3.3569	5.5389	-6.0425	-3.0212	1.1749	-7.2174	-9.7351	-2.5177	-0.1678	-10.0708	-2.3499	1.5106	-3.0212	31	269	168	6	1	2
19.1345	8.3923	18.1274	12.5885	-3.0212	2.8534	5.2032	-6.8817	-3.8605	0.5035	-8.0566	-10.5743	-3.1891	-0.3357	-10.2386	-2.5177	1.1749	-3.1891	31	270	169	6	1	2
19.3024	8.2245	18.1274	12.7563	-3.3569	2.182	5.0354	-7.5531	-4.6997	-0.1678	-8.728	-11.2457	-4.0283	-0.3357	-10.5743	-2.6855	1.0071	-3.3569	31	271	170	6	1	2
19.4702	8.2245	17.9596	12.7563	-3.5248	1.8463	4.6997	-7.8888	-5.3711	-0.6714	-9.2316	-11.7493	-4.5319	-0.5035	-10.5743	-2.6855	0.8392	-3.3569	31	272	171	6	1	2
19.6381	8.0566	17.6239	12.4207	-3.8605	1.1749	4.1962	-8.5602	-6.2103	-1.3428	-9.7351	-12.4207	-5.2032	-0.6714	-10.91	-2.8534	0.3357	-3.6926	31	273	172	6	1	2
19.6381	7.7209	17.6239	12.4207	-4.5319	0.5035	3.8605	-9.2316	-7.0496	-2.0142	-10.4065	-13.092	-5.7068	-0.6714	-11.0779	-3.1891	0	-3.6926	31	274	173	6	1	2
19.4702	7.7209	17.2882	12.2528	-4.6997	0	3.1891	-9.5673	-7.7209	-2.6855	-10.91	-13.5956	-6.2103	-0.8392	-11.2457	-3.1891	-0.1678	-3.6926	31	275	174	6	1	2
19.4702	7.3853	17.1204	12.085	-5.2032	-0.6714	2.5177	-10.2386	-8.5602	-3.5248	-11.4136	-14.0991	-7.0496	-0.8392	-11.5814	-3.3569	-0.6714	-3.8605	31	276	175	6	1	2
19.3024	7.2174	16.6168	11.5814	-5.3711	-1.1749	2.0142	-10.5743	-9.3994	-4.1962	-11.7493	-14.6027	-7.5531	-1.0071	-11.7493	-3.5248	-1.0071	-3.8605	31	277	176	6	1	2
19.1345	7.2174	16.449	11.4136	-5.7068	-1.6785	1.5106	-11.0779	-10.0708	-5.0354	-12.085	-15.1062	-8.2245	-1.0071	-11.9171	-3.6926	-1.1749	-3.8605	31	278	177	6	1	2
18.7988	6.7139	15.9454	10.91	-6.3782	-2.3499	0.6714	-11.7493	-11.0779	-6.0425	-12.7563	-15.7776	-8.8959	-1.0071	-12.2528	-4.0283	-1.6785	-4.0283	31	279	178	6	1	2
18.4631	6.2103	15.1062	10.4065	-6.8817	-3.0212	-0.1678	-12.2528	-11.9171	-6.8817	-13.092	-16.1133	-9.3994	-1.0071	-12.4207	-4.364	-2.0142	-4.1962	31	280	179	6	1	2
17.7917	6.0425	14.6027	9.903	-7.3853	-3.6926	-1.0071	-12.5885	-12.4207	-7.8888	-13.4277	-16.6168	-10.0708	-1.1749	-12.5885	-4.5319	-2.3499	-4.364	31	281	180	6	1	2
-5.5389	-2.5177	-3.3569	-1.5106	0.6714	2.6855	2.5177	3.3569	6.3782	3.5248	4.1962	3.1891	9.3994	-0.1678	8.3923	8.728	5.0354	3.6926	31	221	120	7	1	2
-5.2032	-1.8463	-3.0212	-0.8392	1.1749	3.0212	3.0212	3.8605	7.0496	4.0283	5.0354	4.0283	10.0708	-0.3357	8.0566	8.8959	5.2032	4.0283	31	222	121	7	1	2
-4.6997	-1.1749	-2.5177	-0.1678	2.0142	3.6926	3.8605	4.6997	7.8888	4.8676	5.8746	5.0354	10.91	-0.3357	8.0566	9.2316	5.5389	4.5319	31	223	122	7	1	2
-4.0283	-0.5035	-2.0142	0.6714	2.6855	4.364	4.6997	5.5389	8.728	5.8746	6.7139	5.8746	11.5814	-0.3357	8.0566	9.5673	5.8746	5.0354	31	224	123	7	1	2
-3.6926	0.1678	-1.5106	1.1749	3.3569	4.8676	5.3711	6.0425	9.3994	6.546	7.3853	6.546	12.2528	-0.5035	8.0566	9.7351	6.0425	5.3711	31	225	124	7	1	2
-3.1891	0.8392	-0.8392	2.0142	4.0283	5.5389	6.2103	6.8817	10.2386	7.3853	8.2245	7.3853	12.9242	-0.5035	8.0566	9.903	6.3782	5.8746	31	226	125	7	1	2
-2.6855	1.3428	-0.3357	2.6855	4.364	6.2103	6.8817	7.3853	10.91	8.0566	8.728	8.0566	13.4277	-0.6714	7.8888	10.0708	6.546	6.0425	31	227	126	7	1	2
-2.182	1.6785	0.3357	3.5248	4.6997	6.8817	7.7209	7.8888	11.5814	8.728	9.3994	8.728	13.9313	-0.8392	7.8888	10.0708	6.8817	6.2103	31	228	127	7	1	2
-1.8463	2.0142	0.8392	4.1962	5.0354	7.2174	8.3923	8.2245	12.085	9.3994	9.7351	9.0637	14.267	-0.8392	7.8888	9.903	7.0496	6.3782	31	229	128	7	1	2
-1.1749	2.5177	1.5106	4.8676	5.3711	7.8888	8.8959	8.5602	12.7563	10.0708	10.0708	9.5673	14.7705	-0.8392	7.8888	9.903	7.3853	6.3782	31	230	129	7	1	2
-0.6714	2.8534	2.182	5.7068	5.5389	8.5602	9.7351	8.5602	13.092	10.7422	10.2386	9.903	15.1062	-0.8392	7.8888	9.7351	7.5531	6.3782	31	231	130	7	1	2
0	3.0212	3.1891	6.546	5.7068	9.2316	10.5743	8.8959	13.5956	11.4136	10.4065	10.2386	15.6097	-0.8392	8.0566	9.5673	8.0566	6.3782	31	232	131	7	1	2
0.5035	3.1891	3.6926	7.2174	5.7068	9.903	11.0779	8.8959	13.9313	11.7493	10.2386	10.2386	15.7776	-0.6714	8.0566	9.0637	8.2245	6.2103	31	233	132	7	1	2
1.1749	3.3569	4.5319	7.8888	5.5389	10.5743	11.9171	8.8959	14.267	12.2528	10.2386	10.2386	15.9454	-0.5035	8.0566	8.728	8.728	5.8746	31	234	133	7	1	2
1.8463	3.5248	5.3711	8.5602	5.5389	11.0779	12.5885	8.728	14.6027	12.7563	10.0708	10.2386	16.1133	-0.3357	8.2245	8.3923	9.0637	5.5389	31	235	134	7	1	2
2.5177	3.6926	6.2103	9.3994	5.3711	11.7493	13.2599	8.5602	14.9384	13.092	9.7351	10.2386	16.1133	-0.1678	8.2245	7.8888	9.3994	5.2032	31	236	135	7	1	2
3.3569	3.8605	7.0496	10.0708	5.2032	12.2528	13.9313	8.2245	15.1062	13.4277	9.3994	10.0708	16.2811	0.1678	8.3923	7.3853	9.903	4.8676	31	237	136	7	1	2
3.8605	3.8605	7.7209	10.5743	4.8676	12.5885	14.4348	7.7209	15.1062	13.5956	8.728	9.7351	16.1133	0.3357	8.3923	6.7139	10.0708	4.1962	31	238	137	7	1	2
4.5319	4.0283	8.5602	11.2457	4.5319	13.092	14.9384	7.2174	15.1062	13.7634	8.2245	9.3994	15.9454	0.6714	8.3923	6.0425	10.4065	3.5248	31	239	138	7	1	2
5.0354	3.8605	9.2316	11.7493	4.0283	13.4277	15.274	6.7139	15.1062	13.7634	7.3853	9.0637	15.7776	1.0071	8.3923	5.2032	10.7422	2.8534	31	240	139	7	1	2
5.7068	3.8605	9.7351	12.2528	3.6926	13.5956	15.6097	6.0425	14.7705	13.7634	6.546	8.5602	15.4419	1.3428	8.3923	4.364	10.91	2.0142	31	241	140	7	1	2
6.0425	3.5248	10.4065	12.5885	3.0212	13.5956	15.7776	5.2032	14.4348	13.7634	5.5389	8.0566	14.9384	1.6785	8.3923	3.5248	11.0779	1.0071	31	242	141	7	1	2
6.546	3.5248	10.7422	12.9242	2.5177	13.7634	16.1133	4.364	14.0991	13.5956	4.8676	7.3853	14.6027	2.182	8.3923	2.6855	11.4136	0.3357	31	243	142	7	1	2
6.7139	3.1891	10.91	13.092	1.8463	13.5956	16.2811	3.5248	13.7634	13.2599	3.6926	6.546	13.9313	2.5177	8.0566	1.5106	11.7493	-0.8392	31	244	143	7	1	2
6.8817	2.6855	11.0779	13.2599	1.0071	13.4277	16.1133	2.6855	13.092	12.7563	2.5177	5.7068	13.2599	2.8534	7.8888	0.6714	11.9171	-1.8463	31	245	144	7	1	2
6.8817	2.182	11.2457	13.2599	0.3357	13.092	15.9454	1.6785	12.4207	12.2528	1.3428	4.6997	12.5885	3.1891	7.7209	-0.3357	11.9171	-2.8534	31	246	145	7	1	2
6.8817	1.6785	11.0779	13.092	-0.3357	12.5885	15.7776	0.6714	11.7493	11.7493	0.1678	3.8605	11.7493	3.5248	7.3853	-1.3428	12.085	-3.8605	31	247	146	7	1	2
6.8817	1.0071	10.7422	12.9242	-1.0071	12.085	15.6097	-0.1678	11.0779	11.0779	-0.8392	2.8534	11.0779	3.8605	7.2174	-2.3499	12.085	-4.6997	31	248	147	7	1	2
6.7139	0.5035	10.4065	12.9242	-1.6785	11.5814	15.274	-1.0071	10.2386	10.5743	-2.0142	2.0142	10.2386	4.1962	6.8817	-3.0212	12.2528	-5.5389	31	249	148	7	1	2
6.3782	-0.3357	9.903	12.5885	-2.3499	10.91	14.9384	-2.0142	9.3994	9.7351	-3.0212	1.0071	9.3994	4.364	6.546	-3.8605	12.085	-6.546	31	250	149	7	1	2
6.0425	-1.0071	9.3994	12.2528	-3.0212	10.2386	14.4348	-2.8534	8.5602	9.0637	-4.0283	0	8.5602	4.5319	6.2103	-4.5319	12.085	-7.2174	31	251	150	7	1	2
5.7068	-1.5106	8.8959	11.7493	-3.5248	9.3994	14.0991	-3.3569	7.7209	8.3923	-4.8676	-0.8392	7.7209	4.6997	5.8746	-5.2032	11.9171	-8.0566	31	252	151	7	1	2
5.2032	-2.182	8.2245	11.4136	-4.0283	8.728	13.5956	-4.0283	6.8817	7.5531	-5.8746	-1.8463	6.8817	4.6997	5.3711	-5.7068	11.7493	-8.728	31	253	152	7	1	2
4.6997	-2.8534	7.7209	11.0779	-4.5319	7.8888	13.092	-4.6997	6.0425	6.8817	-6.546	-2.5177	6.0425	4.6997	5.0354	-6.0425	11.5814	-9.2316	31	254	153	7	1	2
4.364	-3.5248	7.0496	10.5743	-5.2032	7.0496	12.4207	-5.2032	5.2032	6.0425	-7.3853	-3.5248	5.0354	4.5319	4.364	-6.2103	11.2457	-9.5673	31	255	154	7	1	2
3.6926	-4.0283	6.2103	10.0708	-5.3711	6.2103	11.9171	-5.5389	4.364	5.2032	-8.0566	-4.1962	4.1962	4.364	3.8605	-6.3782	10.91	-10.0708	31	256	155	7	1	2
3.3569	-4.364	5.5389	9.5673	-5.5389	5.5389	11.2457	-6.0425	3.3569	4.5319	-8.5602	-4.8676	3.3569	4.1962	3.5248	-6.546	10.4065	-10.4065	31	257	156	7	1	2
2.8534	-4.8676	5.0354	9.2316	-5.7068	4.8676	10.7422	-6.0425	2.6855	3.8605	-9.2316	-5.5389	2.6855	4.0283	3.0212	-6.3782	10.2386	-10.4065	31	258	157	7	1	2
2.3499	-5.2032	4.1962	8.5602	-6.0425	4.1962	10.0708	-6.2103	2.0142	3.0212	-9.5673	-6.3782	1.8463	3.6926	2.5177	-6.2103	9.7351	-10.4065	31	259	158	7	1	2
2.0142	-5.2032	3.8605	8.2245	-5.8746	3.6926	9.7351	-6.2103	1.5106	2.3499	-9.903	-6.7139	1.3428	3.5248	2.182	-6.0425	9.5673	-10.4065	31	260	159	7	1	2
1.6785	-5.5389	3.3569	7.8888	-5.8746	3.0212	9.2316	-6.0425	0.8392	1.8463	-10.0708	-7.2174	0.6714	3.1891	1.6785	-5.7068	9.0637	-10.2386	31	261	160	7	1	2
1.1749	-5.5389	2.6855	7.2174	-5.7068	2.5177	8.5602	-6.0425	0.3357	1.1749	-10.2386	-7.5531	0.1678	2.8534	1.3428	-5.2032	8.728	-10.0708	31	262	161	7	1	2
1.0071	-5.5389	2.3499	6.8817	-5.5389	2.182	8.0566	-5.8746	-0.1678	0.6714	-10.4065	-7.8888	-0.3357	2.5177	1.0071	-4.6997	8.3923	-9.7351	31	263	162	7	1	2
1.0071	-5.5389	2.182	6.7139	-5.2032	2.0142	7.8888	-5.5389	-0.3357	0.3357	-10.4065	-8.0566	-0.6714	2.3499	0.8392	-4.1962	8.2245	-9.3994	31	264	163	7	1	2
0.6714	-5.3711	1.8463	6.3782	-5.2032	1.6785	7.3853	-5.3711	-0.8392	-0.1678	-10.4065	-8.3923	-1.3428	2.0142	0.5035	-3.5248	7.8888	-8.8959	31	265	164	7	1	2
0.8392	-5.0354	1.8463	6.2103	-4.8676	1.5106	7.2174	-5.2032	-1.1749	-0.5035	-10.2386	-8.5602	-1.5106	1.8463	0.3357	-3.0212	7.7209	-8.5602	31	266	165	7	1	2
0.6714	-5.0354	1.6785	5.8746	-4.5319	1.1749	6.7139	-5.0354	-1.5106	-0.8392	-10.4065	-8.8959	-2.0142	1.5106	0	-2.182	7.3853	-8.2245	31	267	166	7	1	2
0.8392	-4.6997	1.6785	5.7068	-4.1962	1.1749	6.546	-4.6997	-1.6785	-1.1749	-10.2386	-9.0637	-2.182	1.3428	-0.1678	-1.5106	7.2174	-7.7209	31	268	167	7	1	2
0.8392	-4.364	1.6785	5.5389	-3.8605	1.0071	6.3782	-4.1962	-1.6785	-1.5106	-10.2386	-9.2316	-2.5177	1.1749	-0.3357	-1.1749	7.0496	-7.5531	31	269	168	7	1	2
1.1749	-4.0283	1.8463	5.3711	-3.5248	1.0071	6.0425	-4.0283	-1.8463	-1.6785	-10.0708	-9.3994	-2.5177	1.0071	-0.5035	-0.5035	6.8817	-7.0496	31	270	169	7	1	2
1.1749	-3.8605	1.6785	5.0354	-3.3569	0.8392	5.7068	-4.0283	-2.182	-2.182	-10.2386	-9.7351	-2.8534	0.6714	-0.6714	0	6.546	-6.7139	31	271	170	7	1	2
1.3428	-3.6926	1.8463	5.0354	-3.0212	0.8392	5.7068	-3.6926	-2.3499	-2.5177	-10.2386	-9.903	-3.0212	0.5035	-0.8392	0.6714	6.3782	-6.3782	31	272	171	7	1	2
1.5106	-3.1891	2.182	4.6997	-2.8534	1.0071	5.5389	-3.6926	-2.3499	-2.6855	-10.0708	-9.903	-3.0212	0.3357	-1.0071	1.0071	6.2103	-5.8746	31	273	172	7	1	2
1.6785	-3.0212	2.3499	4.5319	-2.5177	1.0071	5.2032	-3.5248	-2.5177	-2.8534	-10.0708	-10.0708	-3.1891	0.1678	-1.1749	1.5106	6.0425	-5.5389	31	274	173	7	1	2
1.6785	-2.8534	2.6855	4.364	-2.182	0.8392	5.0354	-3.5248	-2.6855	-3.0212	-10.2386	-10.0708	-3.3569	0	-1.3428	2.0142	5.7068	-5.3711	31	275	174	7	1	2
1.6785	-2.5177	2.8534	4.1962	-2.182	0.8392	4.6997	-3.5248	-2.8534	-3.3569	-10.0708	-10.4065	-3.5248	-0.1678	-1.5106	2.182	5.5389	-5.2032	31	276	175	7	1	2
1.6785	-2.3499	3.1891	4.0283	-2.0142	0.8392	4.6997	-3.3569	-2.8534	-3.5248	-10.0708	-10.4065	-3.5248	-0.1678	-1.6785	2.5177	5.5389	-5.0354	31	277	176	7	1	2
1.6785	-2.3499	3.1891	3.8605	-2.0142	1.0071	4.364	-3.5248	-3.0212	-3.8605	-10.4065	-10.7422	-3.6926	-0.3357	-1.6785	2.5177	5.2032	-5.0354	31	278	177	7	1	2
1.5106	-2.182	3.5248	3.5248	-1.8463	1.0071	4.1962	-3.6926	-3.1891	-4.0283	-10.5743	-10.91	-3.8605	-0.3357	-1.8463	2.5177	5.0354	-4.8676	31	279	178	7	1	2
1.5106	-2.0142	3.6926	3.1891	-1.6785	0.8392	3.8605	-3.8605	-3.5248	-4.364	-10.7422	-11.2457	-4.0283	-0.3357	-2.182	2.5177	4.8676	-5.0354	31	280	179	7	1	2
1.3428	-1.8463	3.8605	3.0212	-1.8463	0.8392	3.5248	-4.0283	-3.8605	-4.6997	-11.0779	-11.5814	-4.1962	-0.3357	-2.3499	2.3499	4.5319	-5.0354	31	281	180	7	1	2
2.182	2.3499	4.8676	4.6997	4.5319	6.7139	8.3923	4.5319	8.728	11.2457	2.182	8.728	12.2528	6.0425	6.7139	-2.3499	6.3782	-6.3782	31	221	120	8	1	2
2.5177	2.3499	5.0354	4.5319	4.1962	6.7139	8.0566	4.364	8.3923	10.7422	2.0142	8.2245	11.9171	5.8746	6.7139	-2.3499	6.2103	-6.2103	31	222	121	8	1	2
2.6855	2.0142	5.2032	4.5319	3.6926	6.7139	7.7209	3.8605	7.8888	10.2386	1.6785	7.5531	11.5814	5.8746	6.7139	-2.5177	6.2103	-6.3782	31	223	122	8	1	2
3.0212	2.0142	5.5389	4.364	3.3569	6.8817	7.2174	3.6926	7.5531	9.5673	1.5106	7.2174	10.91	5.7068	6.7139	-2.5177	6.0425	-6.2103	31	224	123	8	1	2
3.3569	1.8463	6.0425	4.6997	2.8534	6.8817	6.8817	3.1891	7.0496	9.0637	1.0071	6.546	10.5743	5.7068	6.7139	-2.6855	6.0425	-6.2103	31	225	124	8	1	2
3.8605	1.8463	6.546	4.6997	2.5177	7.0496	6.3782	2.8534	6.7139	8.3923	0.8392	6.0425	10.0708	5.5389	6.546	-2.6855	5.8746	-6.2103	31	226	125	8	1	2
4.364	1.8463	7.0496	4.8676	2.3499	7.3853	6.0425	2.5177	6.3782	7.8888	0.5035	5.5389	9.5673	5.5389	6.546	-2.6855	5.8746	-6.2103	31	227	126	8	1	2
5.0354	2.0142	7.7209	5.0354	1.8463	7.7209	5.7068	2.0142	5.8746	7.3853	0.1678	4.8676	9.0637	5.5389	6.546	-2.8534	5.7068	-6.3782	31	228	127	8	1	2
5.7068	2.3499	8.3923	5.2032	1.6785	8.2245	5.3711	1.8463	5.7068	6.7139	-0.1678	4.5319	8.5602	5.5389	6.3782	-2.8534	5.7068	-6.3782	31	229	128	8	1	2
6.3782	2.6855	8.8959	5.3711	1.6785	8.728	4.8676	1.5106	5.5389	6.0425	-0.3357	4.0283	7.8888	5.3711	6.0425	-3.0212	5.3711	-6.3782	31	230	129	8	1	2
7.0496	2.8534	9.7351	5.5389	1.5106	9.2316	4.5319	1.1749	5.2032	5.3711	-0.6714	3.5248	7.2174	5.3711	5.7068	-3.0212	5.2032	-6.546	31	231	130	8	1	2
7.5531	3.3569	10.4065	5.5389	1.5106	9.7351	4.0283	1.0071	5.0354	4.5319	-0.6714	3.3569	6.546	5.2032	5.3711	-3.0212	5.0354	-6.546	31	232	131	8	1	2
8.0566	3.6926	11.0779	5.7068	1.5106	10.2386	3.6926	0.6714	4.8676	4.0283	-1.0071	2.8534	5.8746	5.2032	5.0354	-3.1891	4.8676	-6.7139	31	233	132	8	1	2
8.728	4.1962	11.7493	5.8746	1.6785	10.91	3.3569	0.6714	4.8676	3.3569	-1.0071	2.6855	5.3711	5.2032	4.5319	-3.1891	4.6997	-6.7139	31	234	133	8	1	2
9.0637	4.8676	12.2528	5.8746	1.8463	11.4136	3.0212	0.6714	5.0354	2.6855	-1.1749	2.3499	4.5319	5.0354	4.0283	-3.0212	4.364	-6.7139	31	235	134	8	1	2
9.5673	5.3711	12.7563	5.8746	2.182	12.085	2.6855	0.5035	5.0354	2.182	-1.1749	2.182	4.0283	5.0354	3.5248	-3.0212	4.1962	-6.7139	31	236	135	8	1	2
9.903	5.8746	13.2599	6.0425	2.3499	12.4207	2.5177	0.3357	5.0354	1.5106	-1.5106	1.6785	3.3569	5.0354	3.1891	-3.1891	4.0283	-6.8817	31	237	136	8	1	2
10.2386	6.546	13.5956	6.0425	2.6855	12.9242	2.182	0.3357	5.2032	1.1749	-1.6785	1.5106	2.6855	5.0354	2.6855	-3.1891	3.8605	-6.8817	31	238	137	8	1	2
10.4065	7.0496	13.9313	5.8746	3.0212	13.2599	2.0142	0.3357	5.3711	0.6714	-1.6785	1.5106	2.182	5.0354	2.182	-3.0212	3.6926	-6.8817	31	239	138	8	1	2
10.4065	7.5531	14.0991	5.8746	3.3569	13.7634	1.8463	0.5035	5.5389	0.3357	-1.6785	1.3428	1.8463	5.0354	1.6785	-3.0212	3.3569	-6.8817	31	240	139	8	1	2
10.2386	7.8888	14.0991	5.5389	3.8605	14.0991	1.5106	0.5035	5.7068	0	-1.5106	1.5106	1.3428	4.8676	1.0071	-2.8534	3.1891	-6.8817	31	241	140	8	1	2
10.0708	8.2245	14.0991	5.3711	4.1962	14.4348	1.5106	0.5035	5.8746	-0.3357	-1.5106	1.5106	1.0071	4.8676	0.6714	-2.8534	3.1891	-6.8817	31	242	141	8	1	2
9.903	8.728	14.0991	5.2032	4.364	14.6027	1.3428	0.3357	5.8746	-0.6714	-1.5106	1.5106	0.3357	4.8676	0	-3.0212	2.8534	-7.0496	31	243	142	8	1	2
9.5673	8.728	13.9313	5.0354	4.6997	14.7705	1.1749	0.5035	6.0425	-0.8392	-1.5106	1.5106	0.1678	4.6997	-0.5035	-2.8534	2.6855	-7.0496	31	244	143	8	1	2
9.3994	9.0637	13.7634	4.8676	5.0354	15.1062	1.1749	0.5035	6.2103	-1.0071	-1.5106	1.6785	-0.1678	4.6997	-1.0071	-2.8534	2.5177	-7.0496	31	245	144	8	1	2
9.0637	9.3994	13.7634	4.8676	5.0354	15.1062	1.1749	0.3357	6.0425	-1.3428	-1.6785	1.6785	-0.6714	4.6997	-1.6785	-2.8534	2.182	-7.2174	31	246	145	8	1	2
8.728	9.3994	13.4277	4.6997	5.3711	15.274	1.0071	0.5035	6.2103	-1.1749	-1.5106	1.8463	-0.8392	4.5319	-2.0142	-2.6855	2.182	-7.2174	31	247	146	8	1	2
8.3923	9.3994	13.2599	4.6997	5.3711	15.274	1.0071	0.5035	6.3782	-1.3428	-1.6785	1.8463	-1.1749	4.5319	-2.5177	-2.6855	1.8463	-7.2174	31	248	147	8	1	2
8.2245	9.3994	13.092	4.6997	5.7068	15.7776	1.3428	0.6714	6.546	-1.3428	-1.5106	2.0142	-1.3428	4.5319	-2.8534	-2.6855	1.8463	-7.2174	31	249	148	8	1	2
7.8888	9.0637	12.9242	4.6997	5.8746	15.7776	1.3428	0.8392	6.546	-1.3428	-1.3428	2.182	-1.5106	4.364	-3.1891	-2.5177	1.8463	-7.0496	31	250	149	8	1	2
7.7209	9.2316	12.7563	4.6997	5.8746	15.7776	1.5106	0.8392	6.7139	-1.1749	-1.3428	2.3499	-1.6785	4.364	-3.3569	-2.3499	2.0142	-7.0496	31	251	150	8	1	2
7.5531	8.8959	12.5885	4.8676	5.8746	15.7776	1.6785	0.8392	6.546	-1.3428	-1.3428	2.3499	-2.0142	4.364	-3.6926	-2.5177	1.8463	-7.2174	31	252	151	8	1	2
7.2174	8.5602	12.2528	4.8676	5.7068	15.6097	1.8463	0.8392	6.546	-1.1749	-1.3428	2.3499	-2.182	4.364	-3.6926	-2.5177	2.0142	-7.2174	31	253	152	8	1	2
6.8817	8.2245	11.7493	5.0354	5.7068	15.1062	1.8463	0.6714	6.3782	-1.1749	-1.5106	2.3499	-2.3499	4.364	-3.8605	-2.5177	2.0142	-7.2174	31	254	153	8	1	2
6.546	7.8888	11.2457	5.0354	5.3711	14.7705	2.0142	0.6714	6.0425	-1.1749	-1.6785	2.182	-2.5177	4.364	-3.8605	-2.6855	2.0142	-7.3853	31	255	154	8	1	2
5.8746	7.2174	10.7422	5.0354	5.3711	14.6027	2.0142	0.6714	5.8746	-1.1749	-1.6785	2.182	-2.6855	4.364	-3.6926	-2.5177	2.3499	-7.3853	31	256	155	8	1	2
5.5389	6.3782	10.0708	5.0354	5.0354	14.0991	2.0142	0.3357	5.5389	-1.1749	-2.0142	2.0142	-2.8534	4.364	-3.6926	-2.6855	2.3499	-7.7209	31	257	156	8	1	2
5.0354	5.8746	9.5673	5.0354	4.5319	13.4277	2.0142	0.3357	5.2032	-1.1749	-2.3499	1.6785	-3.1891	4.5319	-3.5248	-2.8534	2.3499	-8.0566	31	258	157	8	1	2
4.364	5.0354	8.8959	5.0354	4.0283	12.7563	1.8463	0.1678	4.8676	-1.3428	-2.5177	1.3428	-3.5248	4.5319	-3.5248	-3.0212	2.3499	-8.2245	31	259	158	8	1	2
3.6926	4.0283	8.0566	4.6997	3.6926	12.2528	1.6785	0	4.5319	-1.1749	-2.6855	1.1749	-3.5248	4.5319	-3.1891	-3.0212	2.6855	-8.3923	31	260	159	8	1	2
3.1891	3.1891	7.0496	4.5319	3.1891	11.7493	1.5106	-0.1678	4.0283	-1.3428	-2.8534	1.0071	-3.6926	4.5319	-3.1891	-3.3569	2.6855	-8.728	31	261	160	8	1	2
2.3499	2.182	6.3782	4.364	2.6855	11.0779	1.5106	-0.3357	3.5248	-1.5106	-3.1891	0.6714	-3.8605	4.5319	-3.0212	-3.6926	2.6855	-8.8959	31	262	161	8	1	2
1.6785	1.1749	5.5389	3.8605	2.0142	10.4065	1.1749	-0.6714	3.1891	-1.5106	-3.3569	0.3357	-3.8605	4.5319	-3.0212	-3.8605	2.6855	-9.2316	31	263	162	8	1	2
1.0071	0.1678	4.5319	3.5248	1.5106	9.7351	1.0071	-0.6714	2.6855	-1.6785	-3.6926	0	-4.0283	4.5319	-2.8534	-4.1962	2.5177	-9.5673	31	264	163	8	1	2
0.3357	-1.0071	3.6926	3.0212	0.8392	9.0637	0.6714	-0.8392	2.3499	-1.6785	-3.8605	-0.3357	-4.1962	4.5319	-2.6855	-4.5319	2.5177	-9.7351	31	265	164	8	1	2
-0.3357	-2.0142	2.8534	2.5177	0.3357	8.5602	0.3357	-1.0071	2.182	-1.6785	-4.0283	-0.5035	-4.1962	4.5319	-2.5177	-4.8676	2.3499	-9.903	31	266	165	8	1	2
-1.0071	-2.8534	2.182	2.0142	-0.1678	8.0566	0.1678	-1.0071	1.8463	-1.6785	-4.1962	-0.6714	-4.1962	4.5319	-2.3499	-5.2032	2.182	-10.2386	31	267	166	8	1	2
-1.5106	-3.8605	1.5106	1.5106	-0.6714	7.5531	-0.1678	-1.0071	1.6785	-1.6785	-4.364	-0.6714	-4.1962	4.5319	-2.182	-5.3711	2.182	-10.4065	31	268	167	8	1	2
-2.182	-4.6997	0.6714	1.0071	-1.1749	7.0496	-0.5035	-1.0071	1.5106	-1.8463	-4.5319	-0.8392	-4.1962	4.5319	-2.3499	-5.8746	1.8463	-10.7422	31	269	168	8	1	2
-2.6855	-5.5389	0.1678	0.1678	-1.5106	6.8817	-0.6714	-0.8392	1.5106	-1.6785	-4.5319	-0.8392	-4.0283	4.5319	-2.182	-6.2103	1.8463	-10.7422	31	270	169	8	1	2
-3.0212	-6.0425	-0.1678	-0.1678	-1.6785	6.7139	-0.8392	-0.6714	1.6785	-1.5106	-4.364	-0.6714	-3.8605	4.5319	-2.0142	-6.3782	1.6785	-10.91	31	271	170	8	1	2
-3.5248	-6.546	-0.5035	-0.6714	-1.6785	6.7139	-1.0071	-0.3357	2.0142	-1.3428	-4.364	-0.3357	-3.5248	4.5319	-1.8463	-6.546	1.6785	-10.91	31	272	171	8	1	2
-3.8605	-6.8817	-0.6714	-1.1749	-1.6785	6.7139	-1.0071	0	2.5177	-1.0071	-4.0283	0	-3.3569	4.364	-1.6785	-6.7139	1.5106	-10.91	31	273	172	8	1	2
-4.0283	-7.2174	-0.8392	-1.6785	-1.6785	6.8817	-1.1749	0.5035	3.0212	-0.6714	-3.6926	0.3357	-2.8534	4.364	-1.3428	-6.8817	1.5106	-10.91	31	274	173	8	1	2
-4.364	-7.3853	-0.8392	-2.182	-1.6785	7.0496	-1.3428	0.8392	3.3569	-0.5035	-3.6926	0.5035	-2.6855	4.364	-1.3428	-7.0496	1.1749	-10.91	31	275	174	8	1	2
-4.364	-7.3853	-0.6714	-2.3499	-1.3428	7.3853	-1.1749	1.3428	4.1962	0	-3.3569	1.1749	-2.0142	4.1962	-1.1749	-7.0496	1.0071	-10.7422	31	276	175	8	1	2
-4.5319	-7.3853	-0.6714	-2.8534	-1.0071	7.7209	-1.1749	1.8463	4.6997	0	-3.0212	1.6785	-1.6785	4.0283	-1.1749	-7.3853	0.8392	-10.7422	31	277	176	8	1	2
-4.6997	-7.2174	-0.3357	-3.1891	-0.6714	8.2245	-1.0071	2.0142	5.2032	0.3357	-2.6855	2.182	-1.3428	4.0283	-1.0071	-7.5531	0.5035	-10.5743	31	278	177	8	1	2
-4.6997	-7.2174	-0.1678	-3.5248	-0.5035	8.5602	-1.0071	2.5177	6.0425	0.6714	-2.182	2.6855	-0.8392	3.8605	-1.0071	-7.5531	0.3357	-10.4065	31	279	178	8	1	2
-4.5319	-6.7139	0.3357	-3.5248	0.1678	9.0637	-0.6714	3.1891	6.8817	1.1749	-1.6785	3.3569	-0.3357	3.6926	-0.8392	-7.5531	0.1678	-10.0708	31	280	179	8	1	2
-4.5319	-6.546	0.6714	-3.6926	0.6714	9.5673	-0.5035	3.5248	7.5531	1.5106	-1.3428	3.8605	0	3.6926	-0.8392	-7.7209	0	-9.903	31	281	180	8	1	2
20.6451	16.6168	19.9738	20.3094	12.085	17.2882	15.6097	10.5743	15.274	17.7917	10.7422	11.9171	13.5956	0.8392	0.1678	4.6997	6.2103	5.0354	31	221	120	9	1	2
20.9808	16.9525	20.1416	20.4773	12.4207	17.4561	15.7776	10.5743	15.274	17.7917	10.91	11.7493	13.7634	0.8392	0.3357	5.0354	6.3782	5.2032	31	222	121	9	1	2
21.3165	17.2882	20.4773	20.6451	12.7563	17.6239	15.9454	10.7422	15.274	17.9596	10.91	11.7493	13.9313	0.8392	0.5035	5.2032	6.546	5.3711	31	223	122	9	1	2
21.4844	17.6239	20.813	20.9808	13.092	17.7917	16.2811	10.7422	15.274	18.1274	10.91	11.5814	14.0991	0.8392	0.6714	5.2032	6.7139	5.5389	31	224	123	9	1	2
21.6522	17.9596	21.1487	21.1487	13.5956	17.9596	16.6168	10.91	15.274	18.2953	10.91	11.4136	14.267	0.8392	0.6714	5.3711	6.8817	5.7068	31	225	124	9	1	2
21.8201	18.2953	21.3165	21.4844	13.9313	18.1274	16.9525	11.0779	15.1062	18.4631	10.91	11.2457	14.267	0.8392	0.6714	5.5389	7.0496	5.7068	31	226	125	9	1	2
21.9879	18.631	21.8201	21.8201	14.4348	18.4631	17.4561	11.4136	15.274	18.7988	11.0779	11.0779	14.4348	0.8392	0.6714	5.7068	7.2174	5.8746	31	227	126	9	1	2
22.1558	18.9667	21.9879	22.4915	15.1062	18.631	17.9596	11.5814	15.4419	18.9667	11.0779	11.0779	14.4348	0.8392	0.5035	5.8746	7.2174	5.8746	31	228	127	9	1	2
22.3236	19.1345	22.1558	22.8271	15.6097	18.7988	18.4631	11.7493	15.4419	19.4702	11.2457	10.91	14.6027	0.8392	0.5035	6.2103	7.3853	5.8746	31	229	128	9	1	2
22.4915	19.4702	22.3236	23.1628	15.9454	19.3024	18.9667	12.085	15.6097	19.8059	11.2457	10.91	14.6027	0.8392	0.3357	6.546	7.5531	6.0425	31	230	129	9	1	2
22.6593	19.8059	22.4915	23.6664	16.6168	19.4702	19.8059	12.4207	15.7776	20.1416	11.4136	10.91	14.6027	0.8392	0.1678	6.8817	7.5531	6.0425	31	231	130	9	1	2
22.8271	19.9738	22.8271	24.0021	17.1204	19.8059	20.3094	12.9242	15.9454	20.4773	11.5814	10.91	14.6027	0.8392	0	7.2174	7.5531	6.0425	31	232	131	9	1	2
22.8271	20.1416	22.8271	24.5056	17.4561	19.8059	20.813	13.092	15.9454	20.6451	11.5814	10.7422	14.6027	0.6714	-0.3357	7.3853	7.3853	6.0425	31	233	132	9	1	2
22.8271	20.1416	22.8271	24.6735	17.7917	19.9738	21.3165	13.4277	16.1133	20.813	11.5814	10.5743	14.4348	0.5035	-0.6714	7.5531	7.3853	5.8746	31	234	133	9	1	2
22.995	20.1416	22.995	25.177	18.2953	20.1416	21.8201	13.9313	16.2811	21.1487	11.7493	10.5743	14.267	0.5035	-0.8392	8.0566	7.2174	5.8746	31	235	134	9	1	2
22.995	20.1416	22.995	25.3448	18.4631	20.1416	22.1558	14.267	16.2811	21.3165	11.7493	10.4065	14.0991	0.3357	-1.3428	8.2245	7.0496	5.8746	31	236	135	9	1	2
22.8271	20.1416	22.8271	25.5127	18.7988	20.1416	22.4915	14.4348	16.2811	21.4844	11.7493	10.2386	13.7634	0.1678	-1.6785	8.5602	6.8817	5.7068	31	237	136	9	1	2
22.8271	20.1416	22.8271	25.8484	19.1345	20.3094	22.8271	14.7705	16.449	21.6522	11.9171	10.2386	13.5956	0.1678	-2.0142	8.8959	6.7139	5.7068	31	238	137	9	1	2
22.6593	19.9738	22.8271	25.8484	19.1345	20.1416	22.995	14.9384	16.2811	21.6522	11.7493	9.903	13.2599	0	-2.5177	9.0637	6.3782	5.5389	31	239	138	9	1	2
22.6593	19.8059	22.6593	26.0162	19.1345	20.1416	23.1628	15.1062	16.2811	21.6522	11.7493	9.7351	12.9242	0	-2.8534	9.3994	6.2103	5.3711	31	240	139	9	1	2
22.4915	19.4702	22.4915	26.1841	18.9667	19.8059	23.1628	15.1062	16.1133	21.4844	11.4136	9.3994	12.4207	-0.1678	-3.3569	9.5673	5.8746	5.2032	31	241	140	9	1	2
22.4915	19.3024	22.3236	26.1841	18.7988	19.8059	23.4985	15.1062	15.9454	21.3165	11.4136	9.2316	12.085	-0.3357	-3.6926	9.7351	5.7068	5.0354	31	242	141	9	1	2
22.3236	18.9667	21.9879	26.1841	18.4631	19.4702	23.3307	14.9384	15.7776	21.1487	11.0779	8.8959	11.5814	-0.3357	-4.0283	9.7351	5.2032	4.6997	31	243	142	9	1	2
22.1558	18.631	21.8201	26.0162	18.1274	18.9667	23.1628	14.7705	15.4419	20.813	10.7422	8.5602	11.0779	-0.5035	-4.5319	9.7351	4.8676	4.364	31	244	143	9	1	2
22.3236	18.4631	21.8201	26.1841	17.7917	18.7988	22.995	14.6027	15.274	20.6451	10.5743	8.3923	10.7422	-0.6714	-4.6997	9.903	4.6997	4.364	31	245	144	9	1	2
22.3236	18.2953	21.6522	26.1841	17.4561	18.4631	22.6593	14.4348	14.9384	20.3094	10.0708	8.0566	10.2386	-0.6714	-5.0354	9.903	4.364	4.0283	31	246	145	9	1	2
22.3236	18.1274	21.6522	26.0162	17.1204	18.1274	22.4915	14.0991	14.7705	20.1416	9.903	7.8888	9.903	-0.8392	-5.2032	9.903	4.364	3.8605	31	247	146	9	1	2
22.4915	17.9596	21.3165	26.0162	16.6168	17.7917	22.1558	13.7634	14.4348	19.6381	9.3994	7.3853	9.3994	-1.0071	-5.5389	9.903	4.0283	3.5248	31	248	147	9	1	2
22.6593	17.6239	21.3165	25.8484	15.7776	17.4561	21.8201	13.2599	14.0991	19.1345	9.0637	7.0496	8.8959	-1.0071	-5.8746	9.7351	3.6926	3.1891	31	249	148	9	1	2
22.8271	17.4561	21.3165	25.8484	15.4419	17.1204	21.4844	12.9242	13.7634	18.7988	8.728	6.8817	8.5602	-1.1749	-6.0425	9.7351	3.6926	2.8534	31	250	149	9	1	2
22.8271	17.2882	21.1487	25.5127	14.7705	16.6168	21.1487	12.2528	13.4277	18.2953	8.0566	6.3782	7.8888	-1.3428	-6.3782	9.5673	3.3569	2.5177	31	251	150	9	1	2
22.995	16.9525	20.9808	25.3448	14.0991	16.1133	20.4773	11.5814	12.7563	17.6239	7.5531	5.8746	7.3853	-1.3428	-6.546	9.2316	3.0212	2.0142	31	252	151	9	1	2
23.1628	16.9525	20.9808	25.177	13.4277	15.7776	20.1416	11.0779	12.4207	16.9525	7.0496	5.3711	6.8817	-1.5106	-6.7139	9.0637	3.0212	1.6785	31	253	152	9	1	2
23.3307	16.6168	20.6451	24.6735	12.7563	15.274	19.4702	10.2386	11.7493	16.2811	6.2103	4.8676	6.2103	-1.5106	-6.8817	8.5602	2.6855	1.1749	31	254	153	9	1	2
23.3307	16.449	20.813	24.3378	12.2528	14.7705	18.7988	9.5673	11.0779	15.6097	5.7068	4.364	5.7068	-1.6785	-6.8817	8.3923	2.5177	0.5035	31	255	154	9	1	2
23.3307	16.2811	20.6451	24.0021	11.5814	14.0991	17.9596	8.8959	10.4065	14.6027	5.0354	3.5248	4.8676	-1.6785	-7.0496	7.8888	2.182	0.1678	31	256	155	9	1	2
23.3307	16.1133	20.4773	23.6664	11.0779	13.5956	17.2882	8.2245	9.7351	13.7634	4.364	3.0212	4.1962	-1.6785	-7.0496	7.3853	2.0142	-0.3357	31	257	156	9	1	2
23.4985	15.9454	20.3094	23.1628	10.5743	13.092	16.449	7.5531	9.0637	12.9242	3.8605	2.3499	3.5248	-1.8463	-7.2174	7.0496	1.8463	-0.8392	31	258	157	9	1	2
23.4985	16.1133	20.1416	22.4915	10.4065	12.5885	15.6097	7.0496	8.3923	12.085	3.1891	1.6785	2.8534	-1.8463	-7.2174	6.546	1.5106	-1.3428	31	259	158	9	1	2
23.4985	15.9454	20.1416	21.9879	10.0708	12.085	14.7705	6.546	7.7209	11.0779	2.6855	1.1749	1.8463	-1.8463	-7.2174	6.0425	1.3428	-1.6785	31	260	159	9	1	2
23.4985	15.9454	19.9738	21.4844	9.7351	11.7493	13.5956	6.0425	7.0496	9.903	2.182	0.1678	1.0071	-1.8463	-7.2174	5.5389	1.0071	-2.0142	31	261	160	9	1	2
23.3307	15.9454	19.8059	20.813	9.5673	11.2457	12.7563	5.8746	6.546	8.8959	1.6785	-0.3357	0.3357	-1.6785	-7.3853	5.0354	0.8392	-2.182	31	262	161	9	1	2
23.3307	16.1133	19.8059	19.9738	9.3994	10.91	11.5814	5.5389	5.7068	7.8888	1.3428	-1.0071	-0.5035	-1.6785	-7.3853	4.5319	0.5035	-2.5177	31	263	162	9	1	2
23.4985	16.449	19.8059	19.6381	9.7351	10.7422	10.5743	5.3711	5.0354	6.7139	1.1749	-1.5106	-1.5106	-1.6785	-7.3853	4.1962	0.1678	-2.8534	31	264	163	9	1	2
23.4985	16.7847	19.6381	18.7988	9.7351	10.5743	9.3994	5.2032	4.364	5.5389	0.6714	-2.182	-2.3499	-1.6785	-7.5531	3.6926	-0.1678	-3.1891	31	265	164	9	1	2
23.4985	16.9525	19.6381	18.2953	9.903	10.2386	8.3923	5.2032	4.0283	4.5319	0.3357	-2.6855	-3.1891	-1.5106	-7.7209	3.3569	-0.5035	-3.0212	31	266	165	9	1	2
23.3307	17.2882	19.6381	17.6239	10.0708	10.0708	7.2174	5.0354	3.3569	3.5248	0.1678	-3.3569	-4.0283	-1.5106	-8.0566	2.8534	-1.0071	-3.1891	31	267	166	9	1	2
23.4985	17.6239	19.9738	17.1204	10.7422	10.2386	6.2103	5.5389	3.0212	2.3499	0	-4.0283	-4.6997	-1.5106	-8.0566	2.5177	-1.1749	-3.3569	31	268	167	9	1	2
23.6664	18.1274	19.9738	16.7847	11.0779	10.2386	5.2032	5.5389	2.6855	1.5106	-0.1678	-4.5319	-5.5389	-1.5106	-8.2245	2.0142	-1.5106	-3.5248	31	269	168	9	1	2
23.6664	18.4631	20.1416	16.1133	11.5814	10.2386	4.364	5.7068	2.182	0.6714	-0.3357	-5.0354	-6.2103	-1.5106	-8.3923	1.8463	-1.8463	-3.5248	31	270	169	9	1	2
23.3307	18.7988	20.1416	15.6097	12.2528	10.2386	3.3569	5.8746	1.8463	-0.1678	-0.5035	-5.5389	-6.8817	-1.5106	-8.5602	1.5106	-2.182	-3.6926	31	271	170	9	1	2
23.1628	19.1345	20.1416	15.274	12.5885	10.0708	2.5177	6.0425	1.5106	-1.0071	-0.5035	-5.8746	-7.3853	-1.5106	-8.728	1.1749	-2.3499	-3.6926	31	272	171	9	1	2
22.8271	19.3024	19.8059	14.4348	12.9242	9.903	1.8463	6.0425	1.1749	-1.6785	-0.8392	-6.2103	-7.8888	-1.5106	-9.0637	0.8392	-2.8534	-3.8605	31	273	172	9	1	2
22.4915	19.4702	19.8059	14.0991	13.2599	9.903	1.0071	6.2103	0.8392	-2.3499	-1.0071	-6.546	-8.3923	-1.5106	-9.2316	0.5035	-3.0212	-3.8605	31	274	173	9	1	2
22.1558	19.6381	19.4702	13.5956	13.5956	9.7351	0.3357	6.2103	0.3357	-2.8534	-1.0071	-6.8817	-8.728	-1.5106	-9.3994	0.1678	-3.3569	-4.0283	31	275	174	9	1	2
21.6522	19.8059	19.1345	13.092	13.9313	9.3994	-0.1678	6.2103	0	-3.3569	-1.1749	-7.2174	-9.0637	-1.5106	-9.5673	-0.3357	-3.5248	-4.1962	31	276	175	9	1	2
20.9808	19.6381	18.631	12.5885	13.9313	9.0637	-0.8392	6.2103	-0.3357	-3.8605	-1.3428	-7.5531	-9.3994	-1.5106	-9.7351	-0.6714	-3.6926	-4.364	31	277	176	9	1	2
20.3094	19.6381	17.9596	11.9171	13.9313	8.5602	-1.5106	6.0425	-1.0071	-4.364	-1.6785	-8.0566	-9.903	-1.6785	-9.903	-1.3428	-4.1962	-4.8676	31	278	177	9	1	2
19.6381	19.3024	17.2882	11.4136	13.7634	8.0566	-1.8463	5.7068	-1.5106	-4.6997	-2.0142	-8.3923	-10.0708	-1.6785	-9.903	-1.6785	-4.1962	-5.0354	31	279	178	9	1	2
18.9667	18.9667	16.6168	10.91	13.5956	7.3853	-2.3499	5.3711	-2.182	-4.8676	-2.5177	-8.728	-10.2386	-1.6785	-10.0708	-2.182	-4.364	-5.3711	31	280	179	9	1	2
18.1274	18.4631	15.7776	10.5743	13.092	6.7139	-2.5177	4.8676	-2.6855	-5.2032	-2.8534	-9.0637	-10.4065	-1.6785	-10.2386	-2.5177	-4.5319	-5.5389	31	281	180	9	1	2
3.0212	13.4277	5.7068	0.6714	14.0991	9.903	2.8534	16.2811	19.6381	11.9171	16.6168	22.995	15.9454	-1.1749	-4.0283	5.3711	-5.8746	5.8746	31	221	120	10	1	2
3.3569	14.0991	6.2103	1.0071	14.4348	10.0708	3.1891	16.449	19.6381	11.9171	16.6168	22.8271	15.9454	-1.1749	-4.364	5.7068	-5.8746	6.0425	31	222	121	10	1	2
3.5248	14.7705	6.2103	1.0071	14.7705	10.0708	3.3569	16.449	19.3024	11.9171	16.2811	22.3236	15.7776	-1.3428	-4.5319	6.0425	-6.0425	5.8746	31	223	122	10	1	2
4.0283	15.274	6.7139	1.3428	15.274	10.2386	3.3569	16.449	19.1345	12.085	16.2811	22.1558	15.9454	-1.5106	-5.0354	6.3782	-6.3782	6.0425	31	224	123	10	1	2
4.0283	15.9454	6.7139	1.5106	15.274	10.2386	3.5248	16.2811	18.9667	12.085	15.9454	21.6522	15.7776	-1.6785	-5.5389	6.7139	-6.546	5.8746	31	225	124	10	1	2
4.364	16.449	6.8817	1.6785	15.6097	10.0708	3.6926	16.2811	18.631	11.7493	15.7776	21.3165	15.6097	-1.8463	-6.0425	7.0496	-6.7139	5.8746	31	226	125	10	1	2
4.364	16.6168	6.8817	1.8463	15.7776	10.0708	3.6926	16.1133	18.2953	11.5814	15.4419	20.6451	15.274	-2.0142	-6.546	7.3853	-6.8817	6.0425	31	227	126	10	1	2
4.6997	17.1204	7.0496	2.3499	15.9454	10.0708	3.8605	15.9454	18.1274	11.5814	15.274	20.3094	15.274	-2.182	-7.0496	7.8888	-7.0496	6.2103	31	228	127	10	1	2
5.0354	17.6239	7.2174	2.6855	16.1133	10.2386	4.0283	15.9454	17.9596	11.5814	15.274	19.9738	15.1062	-2.5177	-7.8888	8.3923	-7.3853	6.3782	31	229	128	10	1	2
5.2032	17.7917	7.2174	2.8534	16.2811	10.0708	4.0283	15.7776	17.6239	11.4136	14.9384	19.4702	14.7705	-2.6855	-8.5602	8.8959	-7.7209	6.546	31	230	129	10	1	2
5.7068	18.2953	7.3853	3.1891	16.449	10.0708	4.1962	15.7776	17.6239	11.4136	14.9384	18.9667	14.4348	-2.8534	-9.2316	9.3994	-7.8888	6.8817	31	231	130	10	1	2
6.0425	18.631	7.5531	3.8605	16.6168	10.4065	4.364	15.6097	17.4561	11.5814	14.9384	18.631	14.267	-3.1891	-10.0708	10.0708	-8.2245	7.0496	31	232	131	10	1	2
6.546	18.7988	7.8888	4.0283	16.7847	10.4065	4.364	15.4419	17.2882	11.4136	14.7705	18.2953	13.9313	-3.5248	-10.91	10.7422	-8.5602	7.3853	31	233	132	10	1	2
6.8817	19.1345	7.8888	4.5319	16.9525	10.5743	4.5319	15.6097	17.2882	11.2457	14.6027	17.9596	13.5956	-3.8605	-11.7493	11.2457	-8.728	7.5531	31	234	133	10	1	2
7.0496	19.4702	8.2245	4.6997	17.1204	10.91	4.6997	15.4419	17.2882	11.2457	14.6027	17.6239	13.2599	-4.1962	-12.5885	11.7493	-8.8959	7.7209	31	235	134	10	1	2
7.5531	19.6381	8.3923	5.0354	17.4561	11.0779	4.8676	15.4419	17.4561	11.2457	14.7705	17.4561	12.9242	-4.5319	-13.4277	12.2528	-9.2316	8.0566	31	236	135	10	1	2
8.0566	19.8059	8.728	5.5389	17.6239	11.4136	5.2032	15.4419	17.6239	11.2457	14.9384	17.2882	12.9242	-4.8676	-14.0991	12.5885	-9.3994	8.2245	31	237	136	10	1	2
8.3923	20.1416	9.0637	5.8746	17.6239	11.7493	5.3711	15.6097	17.6239	11.4136	14.9384	17.4561	12.7563	-5.2032	-14.7705	13.2599	-9.3994	8.5602	31	238	137	10	1	2
8.728	20.3094	9.2316	6.2103	17.9596	12.2528	5.7068	15.6097	18.1274	11.4136	15.1062	17.2882	12.4207	-5.5389	-15.4419	13.5956	-9.5673	8.728	31	239	138	10	1	2
8.8959	20.3094	9.7351	6.546	18.1274	12.7563	5.8746	15.7776	18.2953	11.5814	15.1062	17.2882	12.2528	-5.7068	-15.9454	13.9313	-9.3994	8.728	31	240	139	10	1	2
9.3994	20.4773	10.2386	6.8817	18.2953	13.2599	6.2103	15.9454	18.631	11.9171	15.4419	17.4561	12.2528	-6.0425	-16.449	14.267	-9.3994	9.0637	31	241	140	10	1	2
9.5673	20.4773	10.5743	7.0496	18.2953	13.5956	6.546	15.9454	18.7988	11.9171	15.4419	17.4561	12.085	-6.2103	-16.7847	14.4348	-9.2316	9.0637	31	242	141	10	1	2
10.2386	20.813	11.0779	7.5531	18.631	14.4348	7.0496	15.9454	19.3024	12.4207	15.6097	17.6239	12.2528	-6.3782	-16.9525	14.7705	-9.0637	9.2316	31	243	142	10	1	2
10.5743	20.813	11.4136	7.7209	18.4631	14.7705	7.3853	15.9454	19.3024	12.7563	15.6097	17.7917	12.2528	-6.546	-17.1204	14.7705	-8.728	9.2316	31	244	143	10	1	2
10.91	20.9808	12.085	8.0566	18.4631	15.4419	7.8888	15.9454	19.6381	13.092	15.6097	17.9596	12.4207	-6.546	-17.1204	14.7705	-8.3923	9.2316	31	245	144	10	1	2
11.4136	20.813	12.5885	8.3923	18.2953	15.9454	8.2245	15.9454	19.8059	13.2599	15.6097	17.9596	12.4207	-6.546	-17.1204	14.6027	-7.8888	9.2316	31	246	145	10	1	2
11.5814	20.6451	12.9242	8.728	18.1274	16.2811	8.3923	15.6097	19.8059	13.5956	15.4419	17.9596	12.4207	-6.3782	-16.7847	14.6027	-7.3853	8.8959	31	247	146	10	1	2
12.085	20.6451	13.4277	8.8959	17.9596	16.7847	8.8959	15.4419	19.9738	13.9313	15.274	17.9596	12.4207	-6.2103	-16.449	14.4348	-6.7139	8.728	31	248	147	10	1	2
12.4207	20.4773	13.7634	9.0637	17.7917	17.1204	9.2316	15.1062	19.8059	14.267	14.7705	17.7917	12.4207	-6.0425	-16.1133	14.267	-6.2103	8.3923	31	249	148	10	1	2
12.7563	20.3094	14.267	9.3994	17.2882	17.2882	9.5673	14.7705	19.8059	14.6027	14.4348	17.7917	12.5885	-5.8746	-15.7776	14.0991	-5.5389	8.0566	31	250	149	10	1	2
12.9242	19.9738	14.267	9.3994	16.7847	17.4561	9.7351	14.267	19.4702	14.7705	13.7634	17.4561	12.4207	-5.5389	-15.274	13.5956	-4.8676	7.5531	31	251	150	10	1	2
12.9242	19.8059	14.4348	9.3994	16.2811	17.4561	9.903	13.5956	18.9667	14.9384	13.092	17.1204	12.4207	-5.2032	-14.6027	13.2599	-4.364	7.0496	31	252	151	10	1	2
12.7563	19.4702	14.6027	9.3994	15.7776	17.2882	10.0708	12.7563	18.2953	14.9384	12.4207	16.6168	12.2528	-5.0354	-14.0991	12.7563	-4.0283	6.546	31	253	152	10	1	2
12.5885	18.7988	14.6027	9.2316	14.9384	16.9525	9.7351	11.9171	17.6239	14.9384	11.5814	16.1133	12.085	-4.6997	-13.4277	12.085	-3.3569	5.8746	31	254	153	10	1	2
12.2528	18.2953	14.267	9.0637	14.267	16.449	9.5673	10.91	16.7847	14.7705	10.5743	15.4419	11.7493	-4.1962	-12.5885	11.4136	-2.6855	4.8676	31	255	154	10	1	2
11.9171	17.7917	14.0991	8.5602	13.092	15.9454	9.3994	9.903	15.6097	14.4348	9.5673	14.6027	11.4136	-3.8605	-11.9171	10.4065	-2.182	4.1962	31	256	155	10	1	2
11.4136	17.1204	13.5956	8.0566	12.2528	14.9384	8.8959	8.728	14.4348	13.9313	8.2245	13.5956	11.0779	-3.5248	-11.2457	9.5673	-1.8463	3.1891	31	257	156	10	1	2
10.5743	16.2811	13.092	7.5531	11.2457	14.0991	8.3923	7.3853	13.2599	13.2599	7.0496	12.4207	10.4065	-3.1891	-10.5743	8.728	-1.5106	2.3499	31	258	157	10	1	2
9.903	15.6097	12.4207	6.8817	10.0708	12.9242	7.7209	6.0425	11.7493	12.5885	5.5389	11.0779	9.903	-2.8534	-9.903	7.7209	-1.1749	1.3428	31	259	158	10	1	2
9.0637	14.7705	11.5814	6.0425	8.8959	11.7493	7.0496	4.6997	10.2386	11.9171	4.0283	9.7351	9.2316	-2.5177	-9.2316	6.7139	-0.8392	0.3357	31	260	159	10	1	2
8.3923	13.9313	10.91	5.3711	7.7209	10.4065	6.3782	3.1891	8.5602	11.0779	2.5177	8.2245	8.3923	-2.182	-8.728	5.7068	-0.6714	-0.6714	31	261	160	10	1	2
7.3853	13.092	9.903	4.5319	6.7139	9.0637	5.5389	1.6785	6.8817	10.0708	1.0071	6.546	7.5531	-2.0142	-8.3923	4.8676	-0.6714	-1.8463	31	262	161	10	1	2
6.3782	12.085	8.728	3.3569	5.3711	7.5531	4.364	0.1678	4.8676	8.8959	-0.6714	4.8676	6.3782	-1.6785	-7.8888	3.6926	-0.6714	-2.6855	31	263	162	10	1	2
5.7068	11.4136	7.5531	2.5177	4.1962	6.0425	3.5248	-1.1749	3.1891	7.7209	-2.182	3.0212	5.5389	-1.3428	-7.5531	2.8534	-0.6714	-3.6926	31	264	163	10	1	2
4.5319	10.2386	6.2103	1.6785	3.0212	4.5319	2.3499	-2.8534	1.1749	6.7139	-4.0283	1.1749	4.364	-1.1749	-7.3853	2.0142	-0.8392	-4.6997	31	265	164	10	1	2
3.5248	9.0637	5.0354	0.5035	1.8463	2.8534	1.1749	-4.364	-0.8392	5.2032	-5.5389	-0.6714	3.0212	-1.0071	-7.0496	1.1749	-1.1749	-5.3711	31	266	165	10	1	2
2.6855	8.0566	3.5248	-0.5035	0.6714	1.0071	0.1678	-5.5389	-2.5177	3.8605	-7.3853	-2.5177	1.8463	-0.8392	-7.0496	0.1678	-1.3428	-6.3782	31	267	166	10	1	2
1.3428	6.8817	2.0142	-1.6785	-0.6714	-0.6714	-1.1749	-7.0496	-4.5319	2.3499	-8.8959	-4.5319	0.5035	-0.8392	-6.8817	-0.5035	-1.6785	-7.2174	31	268	167	10	1	2
0.3357	5.8746	0.6714	-2.6855	-1.8463	-2.3499	-2.3499	-8.3923	-6.3782	1.0071	-10.4065	-6.2103	-0.6714	-0.6714	-6.8817	-1.3428	-2.0142	-8.0566	31	269	168	10	1	2
-0.6714	4.8676	-0.8392	-3.6926	-2.6855	-3.8605	-3.5248	-9.5673	-8.2245	-0.3357	-11.7493	-7.8888	-2.0142	-0.6714	-6.8817	-2.0142	-2.3499	-8.728	31	270	169	10	1	2
-1.8463	3.5248	-2.3499	-4.6997	-3.6926	-5.3711	-4.8676	-10.5743	-10.0708	-1.8463	-12.9242	-9.7351	-3.1891	-0.8392	-6.8817	-2.3499	-2.8534	-9.2316	31	271	170	10	1	2
-2.8534	2.6855	-3.5248	-5.5389	-4.5319	-6.8817	-5.7068	-11.5814	-11.4136	-3.1891	-14.0991	-11.4136	-4.364	-0.8392	-6.8817	-3.0212	-3.3569	-9.903	31	272	171	10	1	2
-3.5248	1.8463	-4.6997	-6.3782	-5.2032	-7.8888	-6.7139	-12.2528	-12.9242	-4.364	-14.9384	-12.5885	-5.2032	-1.0071	-6.7139	-3.1891	-3.6926	-10.2386	31	273	172	10	1	2
-4.364	1.0071	-5.8746	-7.2174	-5.8746	-9.0637	-7.7209	-12.9242	-14.267	-5.3711	-15.9454	-13.5956	-6.2103	-1.0071	-6.7139	-3.3569	-4.0283	-10.5743	31	274	173	10	1	2
-4.8676	0.3357	-6.8817	-7.7209	-6.3782	-9.903	-8.5602	-13.4277	-15.274	-6.546	-16.6168	-14.7705	-7.2174	-1.1749	-6.8817	-3.5248	-4.5319	-10.7422	31	275	174	10	1	2
-5.0354	-0.1678	-7.3853	-8.0566	-6.3782	-10.5743	-9.0637	-13.4277	-15.9454	-7.3853	-16.9525	-15.4419	-7.7209	-1.3428	-6.546	-3.5248	-4.6997	-10.7422	31	276	175	10	1	2
-5.3711	-0.5035	-8.0566	-8.0566	-6.3782	-10.91	-9.5673	-13.5956	-16.449	-8.2245	-17.2882	-16.1133	-8.3923	-1.5106	-6.546	-3.5248	-5.0354	-10.7422	31	277	176	10	1	2
-5.5389	-0.8392	-8.3923	-8.2245	-6.3782	-11.2457	-10.0708	-13.5956	-16.7847	-8.8959	-17.4561	-16.449	-8.8959	-1.6785	-6.546	-3.5248	-5.5389	-10.7422	31	278	177	10	1	2
-5.3711	-0.6714	-8.5602	-8.2245	-6.3782	-11.2457	-10.2386	-13.2599	-16.9525	-9.2316	-17.2882	-16.6168	-9.2316	-1.6785	-6.3782	-3.1891	-5.7068	-10.4065	31	279	178	10	1	2
-5.2032	-0.8392	-8.5602	-8.2245	-6.0425	-11.2457	-10.4065	-12.9242	-16.9525	-9.7351	-17.2882	-16.7847	-9.5673	-1.8463	-6.3782	-3.0212	-5.8746	-10.2386	31	280	179	10	1	2
-5.0354	-0.6714	-8.3923	-8.0566	-5.7068	-10.91	-10.5743	-12.5885	-16.7847	-9.903	-16.9525	-16.6168	-9.7351	-2.0142	-6.3782	-3.0212	-6.2103	-9.903	31	281	180	10	1	2
6.3782	6.8817	2.182	5.7068	2.8534	-2.0142	-1.6785	1.8463	-2.182	-5.3711	2.3499	0.5035	-0.8392	-4.1962	-4.1962	4.8676	-9.0637	3.6926	31	221	120	11	1	2
6.7139	7.3853	2.5177	5.8746	3.1891	-1.6785	-1.5106	2.182	-1.8463	-5.3711	2.5177	0.5035	-1.1749	-4.1962	-4.8676	4.8676	-9.0637	3.3569	31	222	121	11	1	2
7.2174	8.2245	3.1891	6.3782	3.8605	-1.1749	-1.0071	2.5177	-1.3428	-5.0354	2.5177	0.6714	-1.1749	-4.0283	-5.2032	4.8676	-8.8959	3.0212	31	223	122	11	1	2
7.7209	8.8959	3.5248	6.7139	4.364	-0.8392	-0.6714	2.8534	-1.0071	-5.0354	2.5177	0.6714	-1.3428	-4.0283	-5.7068	4.8676	-8.8959	2.5177	31	224	123	11	1	2
8.5602	9.5673	4.1962	7.3853	5.0354	-0.3357	-0.1678	3.3569	-0.5035	-4.5319	2.6855	1.0071	-1.3428	-3.8605	-6.0425	4.8676	-8.5602	2.182	31	225	124	11	1	2
9.2316	10.5743	4.8676	7.7209	5.7068	0.3357	0.3357	3.8605	0.1678	-4.0283	2.8534	1.1749	-1.0071	-3.6926	-6.2103	4.8676	-8.3923	1.8463	31	226	125	11	1	2
9.903	11.4136	5.7068	8.5602	6.2103	1.1749	1.1749	4.1962	0.6714	-3.5248	3.0212	1.6785	-1.0071	-3.5248	-6.3782	5.0354	-7.8888	1.5106	31	227	126	11	1	2
10.7422	12.5885	6.546	9.2316	7.2174	2.0142	2.3499	4.8676	1.5106	-2.6855	3.3569	2.182	-0.3357	-3.1891	-6.2103	5.0354	-7.3853	1.3428	31	228	127	11	1	2
11.5814	13.4277	7.3853	10.0708	8.0566	3.0212	3.1891	5.3711	2.3499	-2.0142	3.6926	2.6855	0.1678	-3.0212	-6.2103	4.8676	-6.8817	1.1749	31	229	128	11	1	2
12.5885	14.267	8.5602	10.91	8.5602	4.0283	4.1962	5.8746	3.1891	-1.0071	3.8605	3.1891	0.6714	-2.8534	-6.3782	4.8676	-6.3782	0.8392	31	230	129	11	1	2
13.4277	15.274	9.5673	11.7493	9.3994	4.8676	5.3711	6.3782	3.8605	0	4.0283	3.8605	1.5106	-2.6855	-6.3782	5.0354	-5.8746	0.6714	31	231	130	11	1	2
14.267	16.1133	10.7422	12.5885	10.0708	6.0425	6.3782	6.8817	4.6997	1.0071	4.364	4.1962	2.182	-2.5177	-6.2103	5.2032	-5.2032	0.3357	31	232	131	11	1	2
14.9384	17.1204	11.7493	13.5956	10.91	7.2174	7.5531	7.5531	5.7068	2.0142	4.6997	4.8676	3.0212	-2.3499	-6.0425	5.2032	-4.5319	0.1678	31	233	132	11	1	2
16.1133	17.9596	13.092	14.4348	11.9171	8.2245	8.8959	8.2245	6.8817	3.3569	5.2032	5.8746	4.1962	-2.0142	-5.7068	5.0354	-3.5248	0.1678	31	234	133	11	1	2
16.7847	18.9667	14.267	15.4419	12.5885	9.3994	10.2386	8.8959	7.8888	4.5319	5.5389	6.546	5.2032	-1.8463	-5.3711	5.0354	-2.8534	0	31	235	134	11	1	2
17.6239	19.6381	15.274	16.2811	13.4277	10.5743	11.4136	9.3994	8.8959	5.7068	5.8746	7.3853	6.2103	-1.6785	-5.0354	5.0354	-2.0142	-0.1678	31	236	135	11	1	2
18.2953	20.4773	16.449	17.1204	14.0991	11.7493	12.5885	10.0708	9.903	7.0496	6.2103	8.0566	7.2174	-1.5106	-4.8676	5.0354	-1.3428	-0.3357	31	237	136	11	1	2
19.3024	21.3165	17.7917	18.1274	14.7705	12.9242	13.7634	10.5743	10.91	8.2245	6.7139	8.8959	8.3923	-1.3428	-4.5319	5.2032	-0.3357	-0.3357	31	238	137	11	1	2
19.8059	21.8201	18.7988	18.9667	15.274	13.9313	15.1062	11.0779	11.9171	9.5673	7.0496	9.7351	9.3994	-1.1749	-4.1962	5.0354	0.5035	-0.5035	31	239	138	11	1	2
20.4773	22.3236	19.9738	19.8059	15.7776	14.9384	16.1133	11.4136	12.9242	10.7422	7.3853	10.5743	10.5743	-1.0071	-3.8605	5.0354	1.1749	-0.3357	31	240	139	11	1	2
20.9808	22.6593	20.813	20.4773	16.449	16.1133	17.1204	12.085	13.9313	12.085	7.8888	11.4136	11.7493	-0.6714	-3.3569	4.8676	2.0142	-0.3357	31	241	140	11	1	2
21.6522	22.995	21.6522	20.9808	16.7847	16.9525	17.9596	12.4207	14.7705	13.2599	8.2245	12.085	12.7563	-0.5035	-3.0212	4.6997	2.6855	-0.3357	31	242	141	11	1	2
21.9879	23.1628	22.3236	21.4844	16.9525	17.9596	18.7988	12.5885	15.6097	14.267	8.5602	12.7563	13.5956	-0.3357	-2.6855	4.5319	3.1891	-0.5035	31	243	142	11	1	2
22.4915	23.6664	23.1628	22.3236	17.2882	18.7988	19.8059	12.9242	16.2811	15.4419	8.8959	13.4277	14.6027	0	-2.3499	4.5319	4.0283	-0.5035	31	244	143	11	1	2
22.6593	23.6664	23.6664	22.6593	17.4561	19.4702	20.3094	13.092	16.9525	16.449	9.2316	13.9313	15.274	0.1678	-2.0142	4.364	4.5319	-0.5035	31	245	144	11	1	2
22.995	23.6664	24.1699	22.995	17.6239	19.9738	20.813	13.4277	17.6239	17.2882	9.3994	14.4348	15.9454	0.3357	-1.8463	4.1962	5.0354	-0.5035	31	246	145	11	1	2
23.1628	23.6664	24.5056	23.1628	17.7917	20.4773	21.3165	13.5956	18.1274	17.9596	9.7351	14.9384	16.449	0.5035	-1.6785	3.8605	5.5389	-0.5035	31	247	146	11	1	2
23.1628	23.3307	24.6735	23.1628	17.6239	20.813	21.4844	13.7634	18.2953	18.4631	9.903	15.274	16.7847	0.5035	-1.5106	3.5248	5.7068	-0.5035	31	248	147	11	1	2
23.1628	23.1628	24.6735	23.3307	17.6239	21.1487	21.6522	13.7634	18.631	18.9667	10.0708	15.6097	17.1204	0.6714	-1.5106	3.3569	5.8746	-0.6714	31	249	148	11	1	2
22.995	22.995	24.5056	23.1628	17.6239	21.3165	21.6522	13.9313	18.7988	19.1345	10.2386	15.6097	17.1204	0.6714	-1.3428	3.1891	6.0425	-0.5035	31	250	149	11	1	2
22.995	22.8271	24.5056	23.1628	17.6239	21.4844	21.8201	13.9313	18.9667	19.4702	10.4065	15.7776	17.2882	0.8392	-1.3428	3.1891	6.2103	-0.6714	31	251	150	11	1	2
22.8271	22.4915	24.3378	22.8271	17.6239	21.4844	21.4844	13.9313	18.9667	19.3024	10.0708	15.6097	17.2882	0.8392	-1.3428	3.0212	6.0425	-0.6714	31	252	151	11	1	2
22.4915	21.9879	24.0021	22.4915	17.4561	21.1487	21.3165	13.9313	18.9667	19.3024	10.2386	15.4419	17.1204	0.8392	-1.1749	2.6855	6.0425	-0.6714	31	253	152	11	1	2
22.1558	21.8201	23.4985	22.1558	17.4561	21.1487	20.9808	13.9313	18.7988	19.1345	10.0708	15.274	16.9525	0.8392	-1.1749	2.6855	5.8746	-0.8392	31	254	153	11	1	2
21.6522	21.6522	23.1628	21.8201	17.2882	20.9808	20.4773	13.9313	18.631	18.7988	10.0708	15.1062	16.6168	0.8392	-1.1749	2.6855	5.7068	-0.8392	31	255	154	11	1	2
21.4844	21.3165	22.8271	21.1487	17.2882	20.6451	19.9738	13.7634	18.2953	18.631	9.7351	14.7705	16.2811	0.8392	-1.1749	2.6855	5.5389	-0.8392	31	256	155	11	1	2
20.9808	20.9808	22.3236	20.813	17.2882	20.1416	19.4702	13.5956	17.9596	18.1274	9.5673	14.4348	15.9454	0.8392	-1.1749	2.6855	5.2032	-0.8392	31	257	156	11	1	2
20.6451	20.6451	21.8201	20.1416	17.1204	19.8059	18.9667	13.4277	17.6239	17.6239	9.2316	13.9313	15.274	0.8392	-1.1749	2.6855	4.6997	-0.8392	31	258	157	11	1	2
20.3094	20.4773	21.3165	19.8059	17.1204	19.4702	18.2953	13.2599	17.2882	16.9525	8.8959	13.4277	14.6027	0.8392	-1.1749	2.8534	4.5319	-1.0071	31	259	158	11	1	2
19.9738	20.1416	20.813	19.3024	16.9525	18.9667	17.6239	13.092	16.7847	16.449	8.2245	12.9242	14.0991	0.8392	-1.1749	2.6855	4.1962	-1.0071	31	260	159	11	1	2
19.8059	19.9738	20.4773	18.9667	16.9525	18.4631	17.1204	12.5885	16.1133	15.7776	7.7209	12.2528	13.4277	0.8392	-1.5106	2.5177	3.8605	-1.3428	31	261	160	11	1	2
19.6381	19.8059	19.9738	18.4631	16.7847	17.9596	16.449	12.4207	15.4419	15.1062	7.2174	11.5814	12.7563	0.8392	-1.5106	2.5177	3.5248	-1.3428	31	262	161	11	1	2
19.4702	19.6381	19.6381	18.1274	16.449	17.4561	15.9454	12.085	14.9384	14.4348	6.7139	10.91	12.085	0.8392	-1.5106	2.8534	3.3569	-1.5106	31	263	162	11	1	2
19.1345	19.1345	19.1345	17.6239	16.2811	16.7847	15.274	11.7493	14.4348	13.5956	6.0425	10.4065	11.2457	0.6714	-1.5106	2.6855	2.8534	-1.5106	31	264	163	11	1	2
18.9667	18.9667	18.7988	17.4561	15.9454	16.1133	14.7705	11.2457	13.5956	12.9242	5.3711	9.5673	10.4065	0.6714	-1.6785	2.5177	2.6855	-1.8463	31	265	164	11	1	2
18.7988	18.631	18.4631	17.1204	15.7776	15.6097	14.0991	11.0779	13.092	12.2528	4.8676	9.0637	9.7351	0.6714	-1.6785	2.5177	2.5177	-1.8463	31	266	165	11	1	2
18.631	18.2953	17.9596	16.7847	15.6097	15.1062	13.7634	10.7422	12.5885	11.5814	4.6997	8.5602	9.0637	0.5035	-1.6785	2.5177	2.182	-2.0142	31	267	166	11	1	2
18.4631	17.7917	17.7917	16.449	15.274	14.4348	13.2599	10.2386	11.9171	10.91	4.0283	8.0566	8.2245	0.5035	-1.8463	2.8534	2.0142	-2.182	31	268	167	11	1	2
18.1274	17.4561	17.4561	16.2811	15.1062	14.0991	12.9242	9.903	11.4136	10.5743	3.6926	7.5531	7.7209	0.3357	-1.6785	2.6855	1.8463	-2.182	31	269	168	11	1	2
17.9596	17.1204	16.9525	16.1133	14.7705	13.4277	12.4207	9.5673	10.7422	9.903	3.0212	7.0496	7.2174	0.3357	-1.8463	2.5177	1.6785	-2.3499	31	270	169	11	1	2
17.6239	16.9525	16.9525	15.6097	14.6027	13.2599	12.085	9.2316	10.4065	9.3994	2.8534	6.7139	6.7139	0.1678	-1.8463	2.5177	1.3428	-2.3499	31	271	170	11	1	2
17.1204	16.449	16.6168	15.274	14.0991	12.7563	11.7493	9.0637	9.903	8.728	2.3499	6.2103	6.2103	0	-1.8463	2.5177	1.0071	-2.3499	31	272	171	11	1	2
16.9525	16.1133	16.2811	15.1062	13.7634	12.4207	11.2457	8.728	9.5673	8.0566	2.0142	5.8746	5.5389	0	-2.0142	2.3499	1.0071	-2.5177	31	273	172	11	1	2
16.6168	15.7776	16.1133	14.9384	13.7634	12.085	11.2457	8.5602	9.3994	7.7209	1.8463	5.5389	5.2032	-0.1678	-2.0142	2.5177	0.6714	-2.3499	31	274	173	11	1	2
16.2811	15.274	15.9454	14.6027	13.4277	11.7493	10.91	8.2245	9.0637	7.2174	1.5106	5.2032	4.8676	-0.3357	-2.182	2.3499	0.3357	-2.182	31	275	174	11	1	2
15.7776	14.7705	15.6097	14.4348	12.9242	11.5814	10.5743	8.0566	8.728	6.7139	1.1749	4.8676	4.364	-0.5035	-2.3499	2.3499	0.1678	-2.0142	31	276	175	11	1	2
15.6097	14.267	15.274	14.0991	12.5885	11.2457	10.2386	7.7209	8.3923	6.3782	1.0071	4.6997	4.0283	-0.6714	-2.5177	2.3499	-0.1678	-2.0142	31	277	176	11	1	2
15.4419	13.9313	15.1062	13.9313	12.4207	11.2457	10.0708	7.7209	8.3923	6.2103	1.0071	4.5319	3.6926	-0.6714	-2.5177	2.5177	-0.3357	-1.8463	31	278	177	11	1	2
14.9384	13.4277	14.9384	13.7634	12.085	11.0779	9.7351	7.5531	8.2245	5.7068	0.8392	4.364	3.5248	-0.8392	-2.6855	2.5177	-0.6714	-1.6785	31	279	178	11	1	2
14.4348	12.9242	14.6027	13.4277	11.7493	10.91	9.3994	7.3853	8.0566	5.3711	0.6714	4.1962	3.1891	-1.0071	-2.8534	2.5177	-1.0071	-1.6785	31	280	179	11	1	2
14.267	12.5885	14.4348	13.2599	11.5814	10.91	9.2316	7.3853	8.0566	5.2032	0.8392	4.1962	3.0212	-1.0071	-2.8534	2.5177	-1.1749	-1.3428	31	281	180	11	1	2
-0.1678	-1.5106	0	2.182	2.182	4.5319	4.0283	0.8392	11.7493	5.3711	1.0071	7.8888	7.5531	1.6785	3.0212	-1.3428	0.5035	-1.3428	31	221	120	12	1	2
-0.5035	-1.5106	-0.3357	2.0142	2.5177	4.5319	4.1962	1.0071	11.4136	5.2032	1.1749	7.7209	7.2174	1.5106	2.5177	-0.8392	0.1678	-0.8392	31	222	121	12	1	2
-0.5035	-1.1749	-0.1678	2.0142	2.6855	4.5319	4.1962	1.3428	11.2457	5.2032	1.3428	7.3853	7.0496	1.3428	2.0142	-0.3357	-0.1678	-0.3357	31	223	122	12	1	2
-0.5035	-1.0071	0.1678	2.0142	3.0212	4.5319	4.1962	1.6785	10.91	5.2032	1.3428	7.2174	6.8817	1.0071	1.3428	0.1678	-0.6714	0	31	224	123	12	1	2
-0.3357	-0.8392	0.1678	2.0142	3.5248	4.8676	4.364	2.182	11.0779	5.2032	1.6785	7.0496	6.546	0.8392	0.8392	1.0071	-1.0071	0.6714	31	225	124	12	1	2
0	-0.5035	0.6714	2.182	3.6926	4.8676	4.364	2.5177	11.2457	5.2032	2.0142	6.8817	6.546	0.5035	0.1678	1.3428	-1.3428	1.1749	31	226	125	12	1	2
0	-0.5035	1.0071	2.3499	4.1962	5.2032	4.5319	3.0212	11.0779	5.0354	2.5177	7.0496	6.3782	0.3357	-0.3357	2.0142	-1.3428	1.6785	31	227	126	12	1	2
0.5035	0	1.6785	2.8534	4.5319	5.5389	4.6997	3.3569	11.2457	5.0354	2.8534	6.8817	6.2103	0	-0.8392	2.3499	-1.8463	2.3499	31	228	127	12	1	2
1.0071	0.1678	2.182	3.0212	4.8676	6.0425	5.0354	3.6926	11.4136	5.2032	3.1891	6.8817	6.3782	-0.1678	-1.3428	3.0212	-2.0142	2.8534	31	229	128	12	1	2
1.3428	0.3357	2.6855	3.1891	5.3711	6.3782	5.3711	4.1962	11.5814	5.2032	3.5248	6.8817	6.3782	-0.3357	-1.8463	3.3569	-2.182	3.3569	31	230	129	12	1	2
1.6785	0.3357	3.3569	3.5248	5.7068	6.8817	5.3711	4.8676	11.7493	5.2032	3.8605	6.8817	6.2103	-0.5035	-2.182	3.8605	-2.3499	3.8605	31	231	130	12	1	2
2.182	0.5035	4.0283	4.0283	6.2103	7.5531	5.8746	5.2032	12.085	5.5389	4.1962	6.8817	6.2103	-0.6714	-2.6855	4.1962	-2.5177	4.364	31	232	131	12	1	2
2.5177	0.5035	4.5319	4.364	6.546	8.0566	6.0425	5.5389	12.085	5.7068	4.5319	6.8817	6.2103	-0.8392	-3.0212	4.5319	-2.6855	4.6997	31	233	132	12	1	2
3.0212	0.6714	5.0354	4.5319	6.7139	8.3923	6.546	6.0425	12.2528	5.7068	5.0354	7.0496	6.2103	-0.8392	-3.1891	4.6997	-2.5177	4.8676	31	234	133	12	1	2
3.5248	0.8392	5.7068	5.0354	7.0496	9.0637	6.8817	6.3782	12.4207	6.0425	5.3711	7.2174	6.2103	-0.8392	-3.3569	4.8676	-2.3499	5.0354	31	235	134	12	1	2
4.0283	0.8392	6.3782	5.5389	7.3853	9.5673	7.3853	6.8817	12.7563	6.3782	5.7068	7.3853	6.3782	-0.8392	-3.5248	5.0354	-2.3499	5.3711	31	236	135	12	1	2
4.364	0.8392	7.0496	6.0425	7.7209	10.0708	7.7209	7.2174	12.9242	6.546	6.0425	7.5531	6.3782	-0.8392	-3.6926	5.0354	-2.182	5.3711	31	237	136	12	1	2
5.0354	1.0071	7.8888	6.7139	8.0566	10.7422	8.2245	7.5531	13.2599	7.0496	6.3782	7.7209	6.7139	-0.8392	-3.8605	5.2032	-2.0142	5.5389	31	238	137	12	1	2
5.3711	1.1749	8.3923	7.2174	8.3923	11.0779	8.728	8.0566	13.4277	7.0496	6.8817	8.0566	6.7139	-0.6714	-3.6926	4.8676	-1.6785	5.5389	31	239	138	12	1	2
5.8746	1.5106	9.2316	7.7209	8.5602	11.5814	9.2316	8.3923	13.5956	7.5531	7.2174	8.0566	6.8817	-0.6714	-3.8605	4.5319	-1.5106	5.5389	31	240	139	12	1	2
6.546	1.6785	9.903	8.3923	8.8959	12.2528	9.7351	8.5602	13.7634	7.8888	7.7209	8.5602	7.0496	-0.5035	-3.6926	4.364	-1.1749	5.5389	31	241	140	12	1	2
7.2174	2.0142	10.5743	9.2316	9.3994	12.7563	10.4065	9.2316	13.9313	8.3923	8.2245	8.8959	7.2174	-0.1678	-3.3569	4.364	-0.6714	5.2032	31	242	141	12	1	2
8.0566	2.5177	11.4136	9.903	9.903	13.4277	10.91	9.5673	14.267	8.8959	8.5602	9.2316	7.2174	0	-3.3569	4.0283	-0.1678	5.0354	31	243	142	12	1	2
8.728	2.6855	12.085	10.7422	10.0708	13.7634	11.4136	10.2386	14.4348	9.2316	8.8959	9.2316	7.3853	0.3357	-3.0212	3.8605	0.3357	4.5319	31	244	143	12	1	2
9.7351	3.3569	13.092	11.5814	10.5743	14.4348	12.2528	10.7422	14.7705	9.7351	9.2316	9.5673	7.7209	0.6714	-2.6855	3.6926	0.6714	4.364	31	245	144	12	1	2
10.5743	4.0283	13.9313	12.4207	11.2457	15.1062	12.9242	11.2457	15.1062	10.4065	9.7351	10.0708	7.8888	1.0071	-2.3499	3.5248	1.3428	4.0283	31	246	145	12	1	2
11.9171	4.8676	15.1062	13.5956	11.9171	16.1133	13.7634	11.7493	15.4419	10.91	10.2386	10.5743	8.3923	1.3428	-2.0142	3.0212	2.0142	3.6926	31	247	146	12	1	2
12.7563	5.7068	16.1133	14.6027	12.2528	16.6168	14.267	12.2528	15.9454	11.4136	10.5743	10.91	8.728	1.6785	-1.6785	2.6855	2.5177	3.3569	31	248	147	12	1	2
13.9313	6.546	16.9525	15.274	12.7563	17.2882	14.9384	12.7563	16.2811	11.9171	10.7422	11.2457	9.0637	2.182	-1.0071	2.5177	3.3569	3.0212	31	249	148	12	1	2
14.7705	7.2174	17.7917	16.2811	13.2599	17.7917	15.6097	13.092	16.6168	12.2528	11.0779	11.5814	9.2316	2.5177	-0.6714	2.0142	4.0283	2.5177	31	250	149	12	1	2
15.9454	8.0566	18.7988	17.2882	13.9313	18.631	16.2811	13.5956	16.9525	12.7563	11.2457	12.085	9.5673	3.0212	-0.3357	1.5106	4.6997	2.0142	31	251	150	12	1	2
16.7847	8.8959	19.6381	17.9596	14.267	19.3024	16.7847	13.7634	17.2882	13.092	11.4136	12.4207	9.903	3.3569	0.3357	1.3428	5.3711	1.6785	31	252	151	12	1	2
17.6239	9.5673	20.4773	18.7988	14.6027	19.8059	17.2882	14.0991	17.6239	13.4277	11.4136	12.7563	10.0708	3.6926	0.8392	0.8392	5.8746	1.0071	31	253	152	12	1	2
18.631	10.4065	21.4844	19.6381	15.1062	20.6451	17.9596	14.4348	18.1274	13.9313	11.5814	13.2599	10.5743	4.1962	1.3428	0.3357	6.7139	0.5035	31	254	153	12	1	2
19.3024	11.0779	22.1558	20.3094	15.274	21.1487	18.4631	14.6027	18.4631	14.4348	11.5814	13.5956	10.7422	4.5319	1.8463	-0.1678	7.2174	-0.1678	31	255	154	12	1	2
20.1416	11.7493	22.995	20.813	15.6097	21.8201	18.7988	14.7705	18.9667	14.7705	11.5814	13.9313	11.0779	4.8676	2.5177	-0.6714	7.7209	-0.6714	31	256	155	12	1	2
20.6451	12.4207	23.6664	21.4844	15.9454	22.4915	19.3024	14.9384	19.3024	15.1062	11.5814	14.4348	11.4136	5.2032	3.0212	-1.0071	8.3923	-1.0071	31	257	156	12	1	2
20.9808	12.5885	24.1699	21.8201	15.9454	22.8271	19.4702	14.7705	19.6381	15.274	11.4136	14.7705	11.5814	5.3711	3.6926	-1.5106	8.728	-1.5106	31	258	157	12	1	2
21.4844	13.092	24.6735	21.9879	16.1133	23.3307	19.9738	14.9384	20.1416	15.7776	11.2457	15.274	11.9171	5.7068	4.1962	-1.8463	9.2316	-2.0142	31	259	158	12	1	2
21.6522	13.5956	25.3448	22.3236	16.1133	23.8342	20.1416	15.1062	20.6451	16.1133	11.2457	15.7776	12.2528	6.0425	4.6997	-2.5177	9.7351	-2.6855	31	260	159	12	1	2
21.8201	13.7634	25.6805	22.4915	16.1133	24.1699	20.1416	14.7705	20.6451	16.2811	11.0779	16.1133	12.4207	6.2103	5.2032	-2.8534	10.0708	-3.0212	31	261	160	12	1	2
21.9879	13.7634	26.0162	22.6593	16.2811	24.5056	20.4773	14.9384	21.1487	16.449	11.0779	16.449	12.7563	6.546	5.7068	-3.5248	10.4065	-3.5248	31	262	161	12	1	2
21.9879	13.7634	26.1841	22.4915	16.2811	24.8413	20.6451	14.9384	21.4844	16.6168	10.91	16.7847	13.092	6.7139	6.0425	-3.8605	10.7422	-3.8605	31	263	162	12	1	2
21.9879	13.9313	26.3519	22.4915	16.449	25.177	20.813	15.1062	21.9879	17.1204	11.0779	17.2882	13.4277	7.0496	6.546	-4.1962	11.0779	-4.1962	31	264	163	12	1	2
21.8201	13.7634	26.6876	22.4915	16.449	25.3448	20.9808	15.1062	22.3236	17.2882	10.91	17.6239	13.5956	7.2174	6.8817	-4.5319	11.2457	-4.5319	31	265	164	12	1	2
21.4844	13.7634	26.6876	22.3236	16.449	25.5127	20.9808	15.1062	22.6593	17.4561	10.91	17.9596	13.7634	7.3853	7.2174	-4.8676	11.2457	-4.6997	31	266	165	12	1	2
20.9808	13.4277	26.3519	21.9879	16.449	25.5127	20.813	15.274	22.995	17.6239	10.91	18.1274	13.9313	7.3853	7.3853	-4.8676	11.2457	-4.8676	31	267	166	12	1	2
20.6451	13.092	26.1841	21.6522	16.7847	25.6805	20.9808	15.6097	23.4985	17.7917	10.91	18.2953	14.0991	7.5531	7.7209	-5.0354	11.4136	-4.8676	31	268	167	12	1	2
20.1416	12.9242	26.0162	21.3165	16.7847	25.5127	20.9808	15.7776	23.6664	17.7917	10.91	18.4631	14.267	7.5531	8.0566	-5.0354	11.2457	-4.6997	31	269	168	12	1	2
19.4702	12.5885	25.5127	20.813	16.9525	25.3448	20.813	15.9454	23.8342	17.7917	11.0779	18.631	14.267	7.5531	8.2245	-5.2032	11.2457	-4.8676	31	270	169	12	1	2
18.631	12.085	25.177	20.3094	16.9525	25.0092	20.4773	15.9454	23.8342	17.6239	11.0779	18.7988	14.0991	7.3853	8.2245	-5.0354	10.91	-4.6997	31	271	170	12	1	2
17.9596	11.5814	24.5056	19.6381	17.1204	24.8413	20.1416	16.2811	24.0021	17.4561	11.0779	18.7988	13.9313	7.2174	8.2245	-5.0354	10.5743	-4.5319	31	272	171	12	1	2
17.1204	11.2457	24.0021	19.1345	17.1204	24.3378	19.8059	16.449	24.0021	17.4561	11.0779	18.7988	13.9313	7.0496	8.2245	-4.8676	10.2386	-4.5319	31	273	172	12	1	2
16.2811	10.7422	23.1628	18.1274	17.2882	24.0021	19.3024	16.449	23.8342	17.1204	11.2457	18.7988	13.5956	6.7139	8.0566	-4.6997	9.903	-4.1962	31	274	173	12	1	2
15.4419	10.0708	22.4915	17.4561	17.1204	23.4985	18.7988	16.449	23.6664	16.6168	11.2457	18.631	13.4277	6.3782	7.7209	-4.5319	9.3994	-3.8605	31	275	174	12	1	2
14.4348	9.5673	21.6522	16.6168	17.1204	22.995	18.1274	16.6168	23.3307	16.1133	11.2457	18.4631	13.2599	6.0425	7.5531	-4.364	8.8959	-3.5248	31	276	175	12	1	2
13.5956	9.0637	21.1487	15.9454	17.2882	22.3236	17.4561	16.7847	23.3307	15.7776	11.0779	18.2953	12.7563	5.7068	7.2174	-4.1962	8.2245	-3.3569	31	277	176	12	1	2
12.9242	8.728	20.4773	14.9384	17.1204	21.9879	16.7847	16.6168	22.995	15.1062	11.0779	17.9596	12.4207	5.3711	7.0496	-3.8605	7.7209	-3.0212	31	278	177	12	1	2
12.085	8.3923	19.9738	14.267	17.1204	21.4844	15.9454	16.6168	22.6593	14.4348	10.91	17.6239	11.9171	5.0354	6.546	-3.5248	7.0496	-2.6855	31	279	178	12	1	2
11.2457	7.8888	19.3024	13.4277	16.9525	20.813	15.1062	16.449	22.3236	13.7634	10.7422	17.2882	11.4136	4.6997	6.2103	-3.3569	6.3782	-2.5177	31	280	179	12	1	2
10.7422	7.5531	18.631	12.5885	16.7847	20.3094	14.267	16.1133	21.8201	12.9242	10.5743	16.7847	10.91	4.364	5.7068	-3.1891	5.7068	-2.182	31	281	180	12	1	2
7.2174	11.4136	6.3782	-2.5177	5.3711	-10.2386	-12.4207	-0.8392	-12.2528	-20.813	-0.8392	-12.4207	-16.7847	-3.6926	-11.9171	7.3853	-14.6027	11.9171	31	221	120	13	1	2
8.0566	12.2528	6.8817	-2.0142	6.2103	-9.7351	-11.9171	-0.1678	-11.9171	-20.4773	-0.5035	-12.2528	-16.449	-3.8605	-12.4207	7.5531	-14.7705	11.7493	31	222	121	13	1	2
8.8959	13.2599	7.8888	-1.5106	7.0496	-9.0637	-11.5814	0.6714	-11.4136	-20.1416	0.1678	-11.7493	-15.9454	-3.8605	-12.5885	7.8888	-14.7705	11.9171	31	223	122	13	1	2
9.903	14.0991	8.3923	-0.8392	7.8888	-8.3923	-11.0779	1.1749	-11.0779	-19.8059	0.5035	-11.5814	-15.4419	-3.8605	-12.7563	8.0566	-14.7705	11.7493	31	224	123	13	1	2
10.7422	14.9384	9.3994	-0.3357	8.728	-7.5531	-10.5743	1.8463	-10.5743	-19.3024	0.8392	-11.0779	-14.7705	-3.8605	-12.9242	8.3923	-14.7705	11.7493	31	225	124	13	1	2
11.5814	15.9454	10.0708	0.1678	9.3994	-7.0496	-10.0708	2.5177	-10.0708	-18.631	1.3428	-10.5743	-14.267	-3.8605	-12.9242	8.3923	-14.6027	11.7493	31	226	125	13	1	2
12.4207	16.6168	11.0779	0.6714	10.2386	-6.2103	-9.5673	3.3569	-9.3994	-18.1274	1.8463	-10.0708	-13.5956	-3.8605	-12.9242	8.728	-14.4348	11.5814	31	227	126	13	1	2
13.4277	17.6239	11.9171	1.5106	11.2457	-5.2032	-8.8959	4.1962	-8.728	-17.6239	2.5177	-9.3994	-12.7563	-3.8605	-12.7563	9.0637	-14.0991	11.7493	31	228	127	13	1	2
14.267	18.2953	12.7563	1.8463	11.9171	-4.6997	-8.2245	4.6997	-8.0566	-17.1204	3.0212	-9.0637	-12.085	-3.8605	-12.5885	9.2316	-13.7634	11.5814	31	229	128	13	1	2
14.9384	19.1345	13.4277	2.3499	12.4207	-3.8605	-7.5531	5.3711	-7.2174	-16.2811	3.5248	-8.5602	-11.0779	-3.6926	-12.2528	9.2316	-13.2599	11.4136	31	230	129	13	1	2
15.7776	19.9738	14.267	3.1891	13.2599	-2.8534	-6.7139	5.8746	-6.546	-15.4419	4.1962	-7.7209	-10.0708	-3.6926	-11.7493	9.5673	-12.7563	11.4136	31	231	130	13	1	2
16.6168	20.6451	15.1062	3.8605	13.9313	-1.8463	-5.8746	6.546	-5.5389	-14.4348	4.8676	-6.8817	-8.728	-3.5248	-11.0779	9.903	-12.085	11.4136	31	232	131	13	1	2
17.1204	21.1487	15.9454	4.5319	14.4348	-1.0071	-4.5319	7.2174	-4.5319	-13.2599	5.5389	-6.0425	-7.3853	-3.3569	-10.2386	10.0708	-11.2457	11.4136	31	233	132	13	1	2
17.7917	21.8201	16.7847	5.3711	15.1062	0	-3.5248	7.7209	-3.5248	-12.085	6.2103	-5.2032	-6.0425	-3.1891	-9.2316	10.2386	-10.4065	11.4136	31	234	133	13	1	2
18.4631	22.1558	17.6239	6.2103	15.4419	1.0071	-2.3499	8.2245	-2.5177	-10.5743	6.7139	-4.364	-4.5319	-2.8534	-8.3923	10.2386	-9.3994	11.2457	31	235	134	13	1	2
19.1345	22.6593	18.4631	7.2174	15.9454	2.182	-1.0071	8.8959	-1.3428	-9.0637	7.2174	-3.5248	-3.0212	-2.5177	-7.2174	10.2386	-8.2245	11.2457	31	236	135	13	1	2
19.6381	23.1628	18.9667	8.0566	16.2811	3.0212	0.3357	9.2316	-0.1678	-7.5531	7.7209	-2.5177	-1.3428	-2.182	-6.0425	10.2386	-7.0496	10.91	31	237	136	13	1	2
19.8059	23.3307	19.6381	9.0637	16.2811	4.0283	1.6785	9.5673	0.8392	-5.8746	8.2245	-1.6785	0.3357	-1.8463	-4.8676	10.2386	-5.7068	10.7422	31	238	137	13	1	2
20.1416	23.3307	20.3094	9.903	16.449	5.0354	3.0212	9.903	1.8463	-4.1962	8.5602	-0.8392	2.0142	-1.5106	-3.6926	10.2386	-4.5319	10.4065	31	239	138	13	1	2
20.3094	23.4985	20.813	10.7422	16.6168	6.0425	4.364	10.2386	2.8534	-2.6855	8.728	-0.1678	3.5248	-1.1749	-2.5177	10.0708	-3.1891	10.0708	31	240	139	13	1	2
20.6451	23.4985	21.1487	11.7493	16.7847	6.8817	5.8746	10.4065	3.8605	-0.8392	8.8959	0.5035	5.0354	-0.8392	-1.5106	9.903	-1.8463	9.7351	31	241	140	13	1	2
20.813	23.4985	21.6522	12.7563	16.9525	7.8888	7.5531	10.5743	4.8676	1.0071	9.2316	1.5106	6.8817	-0.3357	-0.1678	9.903	-0.3357	9.5673	31	242	141	13	1	2
20.9808	23.4985	22.1558	13.7634	16.9525	8.5602	9.0637	10.91	5.7068	2.8534	9.5673	2.182	8.3923	0	1.0071	9.903	0.8392	9.2316	31	243	142	13	1	2
21.1487	23.3307	22.3236	14.7705	17.1204	9.3994	10.4065	11.0779	6.546	4.6997	9.7351	2.8534	9.903	0.3357	2.0142	9.7351	2.182	8.8959	31	244	143	13	1	2
21.3165	23.1628	22.6593	15.7776	17.2882	10.0708	11.9171	11.4136	7.5531	6.546	9.903	3.5248	11.4136	0.6714	3.0212	9.5673	3.5248	8.5602	31	245	144	13	1	2
21.4844	23.1628	22.995	16.6168	17.6239	10.91	13.2599	11.7493	8.2245	8.3923	10.0708	4.0283	12.7563	1.0071	4.0283	9.3994	4.6997	8.2245	31	246	145	13	1	2
21.6522	23.1628	23.1628	17.6239	17.6239	11.5814	14.7705	12.085	9.0637	10.2386	10.4065	4.5319	14.0991	1.3428	5.0354	9.2316	6.0425	8.0566	31	247	146	13	1	2
21.6522	22.8271	23.3307	18.631	17.9596	11.9171	16.1133	12.2528	9.7351	11.7493	10.4065	5.0354	15.4419	1.6785	6.0425	9.2316	7.2174	7.7209	31	248	147	13	1	2
21.6522	22.6593	23.3307	19.3024	17.9596	12.4207	17.1204	12.2528	10.0708	13.092	10.4065	5.2032	16.2811	1.8463	6.7139	8.8959	7.8888	7.2174	31	249	148	13	1	2
21.4844	22.3236	23.3307	20.1416	18.2953	12.9242	18.2953	12.5885	10.5743	14.6027	10.5743	5.5389	17.1204	2.182	7.3853	8.8959	8.8959	6.8817	31	250	149	13	1	2
21.4844	22.3236	23.4985	20.813	18.2953	13.092	19.3024	12.9242	11.0779	15.9454	10.5743	5.8746	17.9596	2.5177	8.0566	8.728	9.903	6.546	31	251	150	13	1	2
21.1487	21.8201	23.1628	21.3165	18.2953	13.4277	20.1416	13.092	11.2457	16.9525	10.2386	6.0425	18.4631	2.6855	8.5602	8.3923	10.5743	6.0425	31	252	151	13	1	2
20.813	21.4844	22.995	21.6522	18.4631	13.4277	20.6451	13.092	11.2457	17.9596	10.2386	6.0425	18.7988	2.8534	8.728	8.0566	11.0779	5.5389	31	253	152	13	1	2
20.6451	21.4844	22.8271	22.1558	18.4631	13.7634	21.3165	13.2599	11.4136	18.7988	10.2386	6.2103	19.3024	3.1891	9.0637	8.0566	11.7493	5.3711	31	254	153	13	1	2
20.3094	20.9808	22.6593	22.4915	18.4631	13.7634	21.8201	13.4277	11.2457	19.4702	10.0708	6.2103	19.4702	3.3569	9.2316	7.8888	12.2528	4.8676	31	255	154	13	1	2
19.9738	20.813	22.1558	22.6593	18.4631	13.7634	21.9879	13.5956	11.2457	19.9738	10.0708	6.2103	19.6381	3.5248	9.2316	7.7209	12.5885	4.5319	31	256	155	13	1	2
19.6381	20.4773	21.9879	22.8271	18.4631	13.7634	22.3236	13.5956	11.0779	20.4773	9.903	6.0425	19.6381	3.6926	9.2316	7.5531	12.9242	4.1962	31	257	156	13	1	2
19.3024	20.1416	21.6522	22.8271	18.4631	13.5956	22.4915	13.7634	11.0779	20.813	9.903	5.8746	19.6381	3.8605	9.0637	7.2174	12.9242	4.0283	31	258	157	13	1	2
18.9667	19.8059	21.4844	22.8271	18.4631	13.5956	22.4915	13.7634	10.7422	20.813	9.903	5.8746	19.4702	4.0283	9.0637	7.2174	13.092	3.8605	31	259	158	13	1	2
18.7988	19.4702	21.1487	22.6593	18.2953	13.5956	22.3236	13.9313	10.5743	20.813	9.903	5.8746	19.3024	4.1962	8.8959	7.2174	13.2599	3.6926	31	260	159	13	1	2
18.4631	19.3024	20.9808	22.4915	18.2953	13.2599	22.1558	14.0991	10.4065	20.813	9.5673	5.8746	18.9667	4.364	8.5602	7.2174	13.2599	3.5248	31	261	160	13	1	2
18.2953	18.7988	20.6451	22.1558	18.2953	13.2599	21.9879	14.0991	10.0708	20.6451	9.5673	5.7068	18.2953	4.5319	8.3923	7.2174	13.2599	3.3569	31	262	161	13	1	2
18.1274	18.4631	20.4773	21.8201	17.9596	12.9242	21.4844	13.9313	9.7351	20.1416	9.3994	5.5389	17.7917	4.5319	7.8888	7.0496	13.092	3.1891	31	263	162	13	1	2
18.1274	18.2953	20.3094	21.6522	17.6239	12.9242	20.9808	14.0991	9.5673	19.8059	9.3994	5.5389	17.2882	4.6997	7.7209	7.0496	13.092	3.1891	31	264	163	13	1	2
17.9596	17.7917	20.1416	21.3165	17.2882	12.7563	20.4773	13.9313	9.2316	19.3024	9.2316	5.2032	16.449	4.6997	7.2174	6.8817	12.7563	2.8534	31	265	164	13	1	2
17.6239	17.2882	19.8059	20.6451	16.9525	12.2528	19.8059	13.5956	8.728	18.4631	8.8959	4.8676	15.6097	4.5319	6.7139	6.8817	12.2528	2.8534	31	266	165	13	1	2
17.4561	16.9525	19.4702	20.1416	16.6168	12.085	19.3024	13.4277	8.3923	17.7917	8.8959	4.6997	14.9384	4.5319	6.2103	6.8817	11.9171	2.8534	31	267	166	13	1	2
17.4561	16.6168	19.4702	19.8059	15.9454	11.7493	18.4631	13.092	7.8888	16.7847	8.728	4.364	14.267	4.364	5.7068	6.7139	11.4136	3.1891	31	268	167	13	1	2
17.1204	16.1133	19.1345	19.1345	15.4419	11.5814	17.6239	12.7563	7.5531	15.9454	8.5602	4.1962	13.4277	4.1962	5.0354	6.7139	10.91	3.1891	31	269	168	13	1	2
16.9525	15.6097	18.7988	18.4631	14.7705	11.0779	16.7847	12.2528	7.0496	14.7705	8.3923	3.6926	12.2528	3.8605	4.364	6.3782	10.0708	3.0212	31	270	169	13	1	2
16.9525	15.1062	18.631	17.7917	14.267	10.91	15.7776	12.2528	6.8817	13.9313	8.2245	3.5248	11.4136	3.6926	3.6926	6.3782	9.5673	3.1891	31	271	170	13	1	2
16.9525	14.7705	18.4631	17.1204	13.5956	10.7422	14.7705	11.7493	6.3782	12.7563	8.0566	3.1891	10.4065	3.3569	3.0212	6.3782	8.8959	3.1891	31	272	171	13	1	2
16.7847	14.4348	18.2953	16.449	13.092	10.4065	13.7634	11.4136	6.2103	11.5814	7.8888	3.1891	9.5673	3.0212	2.3499	6.3782	8.0566	3.3569	31	273	172	13	1	2
16.6168	13.9313	18.1274	15.6097	12.4207	10.2386	12.9242	11.0779	5.8746	10.5743	7.7209	2.8534	8.5602	2.6855	1.6785	6.3782	7.3853	3.5248	31	274	173	13	1	2
16.449	13.4277	17.7917	15.1062	11.9171	10.0708	11.9171	10.7422	5.7068	9.3994	7.5531	2.6855	7.5531	2.3499	1.0071	6.3782	6.546	3.6926	31	275	174	13	1	2
16.2811	13.092	17.4561	14.0991	11.4136	9.7351	10.7422	10.4065	5.5389	8.2245	7.3853	2.3499	6.546	1.8463	0.3357	6.2103	5.5389	3.6926	31	276	175	13	1	2
15.9454	12.5885	17.2882	13.2599	10.91	9.3994	9.903	10.2386	5.3711	7.2174	7.3853	2.3499	5.7068	1.5106	-0.3357	6.2103	4.6997	4.0283	31	277	176	13	1	2
15.4419	12.085	16.7847	12.2528	10.2386	9.0637	8.728	9.7351	5.0354	6.0425	7.2174	2.0142	4.5319	1.0071	-1.1749	6.2103	3.6926	4.1962	31	278	177	13	1	2
15.1062	11.5814	16.449	11.4136	9.903	8.728	7.7209	9.5673	4.8676	5.0354	7.3853	1.8463	3.6926	0.6714	-1.6785	6.3782	2.8534	4.5319	31	279	178	13	1	2
14.7705	11.2457	15.9454	10.5743	9.5673	8.3923	6.7139	9.3994	4.6997	4.0283	7.3853	1.8463	2.8534	0.3357	-2.3499	6.546	1.8463	4.8676	31	280	179	13	1	2
14.0991	10.5743	15.274	9.5673	9.0637	7.8888	5.5389	9.0637	4.364	2.8534	7.2174	1.5106	1.8463	-0.1678	-3.1891	6.3782	0.8392	5.0354	31	281	180	13	1	2
-1.3428	-1.1749	1.6785	2.8534	2.0142	9.5673	6.2103	8.2245	18.1274	6.546	13.7634	17.2882	9.3994	-0.3357	-2.8534	3.1891	-2.6855	6.2103	31	221	120	14	1	2
-0.3357	-0.3357	2.8534	3.8605	3.0212	10.5743	7.2174	8.8959	18.7988	7.3853	14.267	17.6239	9.903	0.1678	-2.6855	3.6926	-2.182	6.3782	31	222	121	14	1	2
0.6714	0.5035	4.0283	4.8676	4.0283	11.5814	8.2245	9.7351	19.6381	8.2245	14.7705	18.1274	10.2386	0.5035	-2.5177	4.1962	-1.5106	6.3782	31	223	122	14	1	2
1.8463	1.8463	5.5389	6.2103	5.5389	12.9242	9.5673	10.91	20.6451	9.2316	15.274	18.7988	10.91	0.8392	-2.3499	4.6997	-0.8392	6.3782	31	224	123	14	1	2
3.0212	2.8534	6.8817	7.3853	6.7139	14.0991	10.7422	11.9171	21.4844	9.903	15.7776	19.1345	11.2457	1.1749	-2.182	5.2032	-0.3357	6.3782	31	225	124	14	1	2
4.364	4.1962	8.2245	8.5602	8.0566	15.1062	11.5814	12.9242	22.3236	10.7422	16.2811	19.6381	11.5814	1.5106	-2.182	5.3711	0.1678	6.3782	31	226	125	14	1	2
5.3711	5.3711	9.7351	9.7351	9.5673	16.2811	12.7563	13.9313	23.1628	11.5814	16.6168	19.9738	12.085	1.8463	-2.0142	5.7068	0.8392	6.2103	31	227	126	14	1	2
6.7139	6.7139	11.2457	10.7422	11.0779	17.4561	13.9313	15.1062	23.8342	12.4207	17.1204	20.4773	12.4207	2.182	-1.8463	6.2103	1.3428	6.2103	31	228	127	14	1	2
7.8888	7.8888	12.5885	11.9171	12.4207	18.631	14.7705	15.9454	24.6735	13.092	17.4561	20.9808	12.5885	2.5177	-1.8463	6.3782	1.8463	6.0425	31	229	128	14	1	2
9.0637	9.3994	13.9313	13.092	13.7634	19.4702	15.9454	16.9525	25.0092	13.7634	17.9596	20.9808	12.9242	2.6855	-1.6785	6.7139	2.3499	5.8746	31	230	129	14	1	2
10.2386	10.4065	15.4419	14.0991	15.1062	20.4773	16.9525	17.9596	25.6805	14.6027	18.1274	21.3165	13.2599	3.0212	-1.6785	6.7139	3.0212	5.8746	31	231	130	14	1	2
11.4136	11.9171	16.6168	15.1062	16.6168	21.3165	17.6239	18.9667	26.1841	15.1062	18.631	21.6522	13.5956	3.1891	-1.3428	7.0496	3.3569	5.5389	31	232	131	14	1	2
12.5885	13.2599	17.9596	16.1133	18.1274	22.3236	18.4631	20.1416	26.8555	15.7776	18.9667	21.9879	14.0991	3.5248	-1.3428	7.0496	4.0283	5.3711	31	233	132	14	1	2
13.5956	14.267	18.9667	17.1204	19.1345	22.995	18.9667	20.6451	27.0233	16.1133	19.1345	21.9879	14.0991	3.5248	-1.1749	7.2174	4.1962	5.2032	31	234	133	14	1	2
14.6027	15.4419	20.1416	17.9596	20.4773	23.4985	19.6381	21.4844	27.359	16.449	19.3024	22.1558	14.4348	3.8605	-1.0071	7.0496	4.6997	4.8676	31	235	134	14	1	2
15.274	16.449	20.813	18.631	21.1487	24.0021	19.9738	21.9879	27.5269	16.6168	19.3024	22.1558	14.6027	4.0283	-1.0071	6.8817	5.0354	4.5319	31	236	135	14	1	2
16.1133	17.4561	21.6522	19.3024	21.9879	24.5056	20.1416	22.4915	27.359	16.7847	19.3024	22.1558	14.6027	4.1962	-0.8392	6.7139	5.2032	4.1962	31	237	136	14	1	2
16.9525	18.2953	22.3236	19.8059	22.4915	24.6735	20.3094	22.4915	27.0233	16.7847	19.3024	21.8201	14.6027	4.364	-0.5035	6.7139	5.3711	4.0283	31	238	137	14	1	2
17.4561	18.9667	22.8271	19.9738	22.8271	24.8413	20.3094	22.6593	26.6876	16.7847	18.9667	21.6522	14.6027	4.5319	-0.5035	6.3782	5.3711	3.6926	31	239	138	14	1	2
18.1274	19.6381	22.995	20.1416	23.1628	24.8413	20.3094	22.4915	26.1841	16.6168	18.631	21.3165	14.6027	4.6997	-0.3357	6.2103	5.5389	3.3569	31	240	139	14	1	2
18.631	19.9738	23.1628	20.3094	23.1628	24.6735	20.1416	22.4915	25.6805	16.449	18.1274	20.813	14.4348	4.8676	-0.3357	5.8746	5.7068	2.8534	31	241	140	14	1	2
18.7988	20.3094	23.1628	20.1416	22.995	24.1699	19.8059	21.9879	25.0092	16.1133	17.7917	20.3094	14.0991	4.8676	0	5.5389	5.7068	2.6855	31	242	141	14	1	2
18.9667	20.3094	22.995	19.9738	22.6593	23.8342	19.4702	21.6522	24.1699	15.6097	17.2882	19.6381	13.9313	4.8676	0.1678	5.3711	5.7068	2.182	31	243	142	14	1	2
19.1345	20.3094	22.8271	19.6381	22.3236	23.1628	18.9667	20.9808	23.3307	15.274	16.449	18.7988	13.5956	4.8676	0.1678	4.8676	5.7068	1.6785	31	244	143	14	1	2
19.1345	20.3094	22.4915	19.3024	21.6522	22.4915	18.4631	20.3094	22.4915	14.7705	15.7776	18.1274	13.092	4.8676	0.5035	4.5319	5.7068	1.3428	31	245	144	14	1	2
18.7988	19.8059	21.6522	18.7988	20.813	21.4844	17.6239	19.4702	21.3165	14.0991	15.1062	17.4561	12.7563	4.6997	0.8392	4.1962	5.5389	1.0071	31	246	145	14	1	2
18.4631	19.3024	20.813	18.1274	19.9738	20.4773	16.9525	18.631	20.4773	13.2599	14.267	16.449	12.2528	4.6997	1.0071	3.6926	5.5389	0.5035	31	247	146	14	1	2
17.7917	18.7988	19.8059	17.2882	18.9667	19.4702	16.449	17.6239	19.1345	12.5885	13.5956	15.7776	11.7493	4.6997	1.3428	3.3569	5.5389	0.1678	31	248	147	14	1	2
17.1204	17.7917	18.631	16.2811	17.6239	18.1274	15.4419	16.6168	18.1274	11.9171	12.9242	14.9384	11.4136	4.5319	1.6785	2.8534	5.3711	0	31	249	148	14	1	2
15.9454	16.9525	17.2882	15.274	16.2811	16.9525	14.4348	15.4419	16.7847	11.0779	11.9171	13.9313	10.7422	4.5319	1.8463	2.5177	5.3711	-0.5035	31	250	149	14	1	2
14.9384	15.6097	15.6097	14.0991	14.9384	15.6097	13.5956	14.267	15.6097	10.5743	11.0779	13.092	10.2386	4.364	2.182	2.0142	5.0354	-0.8392	31	251	150	14	1	2
13.7634	14.6027	14.0991	12.9242	13.4277	14.267	12.7563	13.092	14.4348	9.903	10.2386	12.2528	9.7351	4.5319	2.6855	1.5106	5.2032	-1.3428	31	252	151	14	1	2
12.4207	13.2599	12.4207	11.7493	12.085	12.9242	11.9171	11.7493	13.2599	9.0637	9.5673	11.4136	9.2316	4.364	2.8534	1.1749	5.0354	-1.5106	31	253	152	14	1	2
10.91	11.7493	10.7422	10.4065	10.4065	11.4136	10.91	10.4065	11.9171	8.2245	8.5602	10.4065	8.3923	4.364	3.1891	0.5035	5.0354	-2.0142	31	254	153	14	1	2
9.3994	10.2386	9.0637	9.2316	8.8959	9.903	10.0708	9.2316	10.7422	7.3853	7.7209	9.5673	7.7209	4.364	3.3569	0.1678	5.0354	-2.3499	31	255	154	14	1	2
7.8888	8.728	7.3853	8.0566	7.3853	8.728	9.3994	8.0566	9.7351	6.7139	7.0496	8.728	7.0496	4.1962	3.5248	-0.3357	4.8676	-2.5177	31	256	155	14	1	2
6.546	7.3853	5.7068	7.0496	5.8746	7.3853	8.5602	6.8817	8.5602	5.8746	6.2103	7.8888	6.3782	4.1962	3.6926	-0.8392	4.6997	-2.6855	31	257	156	14	1	2
5.0354	5.8746	3.8605	5.8746	4.364	5.8746	7.7209	5.5389	7.3853	4.8676	5.3711	7.0496	5.3711	4.1962	3.8605	-1.3428	4.6997	-3.1891	31	258	157	14	1	2
3.5248	4.364	2.182	4.6997	3.1891	4.6997	6.8817	4.5319	6.546	4.1962	4.5319	6.2103	4.6997	4.0283	3.6926	-1.8463	4.5319	-3.3569	31	259	158	14	1	2
2.0142	2.6855	0.6714	3.5248	1.6785	3.5248	6.0425	3.3569	5.5389	3.1891	3.6926	5.3711	3.6926	4.0283	3.8605	-2.5177	4.364	-3.6926	31	260	159	14	1	2
0.8392	1.1749	-0.8392	2.8534	0.3357	2.3499	5.3711	2.3499	4.5319	2.5177	3.0212	4.6997	2.8534	3.8605	3.6926	-2.8534	4.1962	-3.8605	31	261	160	14	1	2
-0.5035	-0.1678	-2.3499	1.8463	-1.0071	1.1749	4.5319	1.1749	3.5248	1.6785	2.3499	3.6926	2.0142	3.8605	3.5248	-3.5248	4.1962	-4.1962	31	262	161	14	1	2
-1.6785	-1.5106	-3.5248	1.1749	-2.0142	0.1678	4.0283	0.1678	2.6855	1.1749	1.6785	2.8534	1.1749	3.6926	3.3569	-3.6926	3.8605	-4.364	31	263	162	14	1	2
-2.8534	-3.0212	-4.8676	0.5035	-3.0212	-0.8392	3.3569	-0.8392	1.8463	0.3357	0.8392	2.0142	0.3357	3.6926	3.1891	-4.1962	4.0283	-4.6997	31	264	163	14	1	2
-3.8605	-4.0283	-5.8746	-0.1678	-4.0283	-1.6785	2.8534	-1.6785	1.0071	-0.3357	0.1678	1.1749	-0.3357	3.5248	3.0212	-4.6997	3.6926	-4.6997	31	265	164	14	1	2
-4.8676	-5.2032	-7.0496	-0.8392	-5.0354	-2.5177	2.182	-2.5177	0.1678	-1.0071	-0.6714	0.3357	-1.1749	3.5248	2.8534	-5.2032	3.6926	-5.0354	31	266	165	14	1	2
-5.7068	-6.2103	-7.7209	-1.1749	-5.7068	-3.1891	1.8463	-3.1891	-0.5035	-1.5106	-1.1749	-0.3357	-1.6785	3.3569	2.5177	-5.3711	3.3569	-5.0354	31	267	166	14	1	2
-6.546	-7.3853	-8.5602	-1.6785	-6.3782	-3.8605	1.3428	-3.8605	-1.3428	-2.182	-1.8463	-1.1749	-2.5177	3.3569	2.182	-5.7068	3.3569	-5.2032	31	268	167	14	1	2
-7.0496	-7.8888	-9.0637	-1.6785	-6.8817	-4.364	1.1749	-4.364	-1.6785	-2.5177	-2.3499	-1.6785	-3.0212	3.1891	2.0142	-5.8746	3.0212	-5.2032	31	269	168	14	1	2
-7.7209	-8.728	-9.7351	-2.0142	-7.2174	-4.8676	1.0071	-4.8676	-2.3499	-3.1891	-2.8534	-2.3499	-3.6926	3.1891	1.6785	-6.2103	2.8534	-5.3711	31	270	169	14	1	2
-8.0566	-9.0637	-9.903	-2.0142	-7.5531	-5.0354	0.8392	-5.2032	-2.6855	-3.3569	-3.1891	-2.8534	-4.0283	3.0212	1.3428	-6.2103	2.6855	-5.0354	31	271	170	14	1	2
-8.3923	-9.5673	-10.0708	-2.182	-7.8888	-5.2032	0.6714	-5.5389	-3.1891	-3.8605	-3.6926	-3.3569	-4.6997	3.0212	1.0071	-6.2103	2.5177	-5.0354	31	272	171	14	1	2
-8.3923	-9.7351	-10.2386	-1.8463	-7.8888	-5.2032	0.6714	-5.5389	-3.3569	-4.0283	-3.8605	-3.6926	-5.0354	2.8534	0.6714	-5.8746	2.3499	-4.8676	31	273	172	14	1	2
-8.728	-9.903	-10.2386	-1.8463	-7.8888	-5.2032	0.6714	-5.7068	-3.6926	-4.0283	-4.0283	-4.0283	-5.3711	2.6855	0.3357	-5.8746	2.0142	-4.6997	31	274	173	14	1	2
-8.5602	-10.0708	-10.0708	-1.6785	-7.8888	-5.2032	0.6714	-5.7068	-3.8605	-4.1962	-4.0283	-4.1962	-5.7068	2.6855	0	-5.7068	1.8463	-4.364	31	275	174	14	1	2
-8.5602	-10.0708	-9.903	-1.6785	-7.5531	-5.2032	0.6714	-5.7068	-3.8605	-4.364	-4.0283	-4.1962	-5.8746	2.5177	-0.5035	-5.3711	1.5106	-4.0283	31	276	175	14	1	2
-8.5602	-9.903	-9.903	-1.5106	-7.3853	-5.0354	0.8392	-5.3711	-4.0283	-4.364	-3.8605	-4.1962	-5.8746	2.3499	-0.8392	-5.0354	1.3428	-3.6926	31	277	176	14	1	2
-8.3923	-9.3994	-9.5673	-1.1749	-6.8817	-4.8676	1.0071	-5.0354	-3.6926	-4.1962	-3.5248	-3.6926	-5.7068	2.182	-1.0071	-4.364	1.1749	-3.0212	31	278	177	14	1	2
